SpectraSuite Data File
++++++++++++++++++++++++++++++++++++
Date: Tue May 12 16:45:39 PDT 2015
User: schluterlab
Dark Spectrum Present: Yes
Reference Spectrum Present: Yes
Number of Sampled Component Spectra: 1
Spectrometers: USB2E3373
Integration Time (usec): 3000 (USB2E3373)
Spectra Averaged: 3 (USB2E3373)
Boxcar Smoothing: 0 (USB2E3373)
Correct for Electrical Dark: No (USB2E3373)
Strobe/Lamp Enabled: No (USB2E3373)
Correct for Detector Non-linearity: No (USB2E3373)
Correct for Stray Light: No (USB2E3373)
Number of Pixels in Processed Spectrum: 2048
>>>>>Begin Processed Spectral Data<<<<<
178.53	0.000
178.91	-233.333
179.29	-625.000
179.67	-3500.000
180.04	-126.667
180.42	550.000
180.80	1600.000
181.18	0.000
181.56	-375.000
181.94	0.000
182.31	900.000
182.69	-3000.000
183.07	528.571
183.45	-3800.000
183.83	-1900.000
184.20	330.000
184.58	485.714
184.96	-230.769
185.34	-191.667
185.72	1700.000
186.09	-725.000
186.47	-3300.000
186.85	1033.333
187.23	660.000
187.61	2000.000
187.98	375.000
188.36	250.000
188.74	300.000
189.12	358.333
189.49	800.000
189.87	0.000
190.25	512.500
190.63	3000.000
191.00	-191.667
191.38	-3200.000
191.76	-625.000
192.14	487.500
192.51	-2100.000
192.89	1800.000
193.27	966.667
193.65	-966.667
194.02	-780.000
194.40	442.857
194.78	-214.286
195.15	213.333
195.53	-2900.000
195.91	-680.000
196.29	3900.000
196.66	250.000
197.04	900.000
197.42	-1600.000
197.79	550.000
198.17	350.000
198.55	0.000
198.92	514.286
199.30	1433.333
199.68	2300.000
200.05	616.667
200.43	-350.000
200.81	194.444
201.18	2600.000
201.56	241.667
201.94	-875.000
202.31	-350.000
202.69	-540.000
203.07	2600.000
203.44	-533.333
203.82	400.000
204.19	740.000
204.57	-1800.000
204.95	-525.000
205.32	-480.000
205.70	600.000
206.08	775.000
206.45	-633.333
206.83	333.333
207.20	200.000
207.58	250.000
207.96	600.000
208.33	0.000
208.71	657.143
209.08	660.000
209.46	-3400.000
209.84	-775.000
210.21	840.000
210.59	-740.000
210.96	341.667
211.34	-825.000
211.71	336.364
212.09	925.000
212.46	1350.000
212.84	-233.333
213.22	388.889
213.59	-2600.000
213.97	330.000
214.34	800.000
214.72	1033.333
215.09	700.000
215.47	-2700.000
215.84	-310.000
216.22	-337.500
216.59	0.000
216.97	0.000
217.34	1300.000
217.72	-1500.000
218.09	1066.667
218.47	500.000
218.84	725.000
219.22	1133.333
219.59	966.667
219.97	585.714
220.34	411.111
220.72	1700.000
221.09	4100.000
221.47	233.333
221.84	866.667
222.22	380.000
222.59	250.000
222.97	250.000
223.34	250.000
223.72	-1650.000
224.09	1333.333
224.46	307.692
224.84	-700.000
225.21	411.111
225.59	193.333
225.96	1100.000
226.34	-680.000
226.71	-500.000
227.08	-480.000
227.46	0.000
227.83	-516.667
228.21	-1700.000
228.58	375.000
228.95	1025.000
229.33	322.222
229.70	975.000
230.08	330.769
230.45	2400.000
230.82	-925.000
231.20	-1000.000
231.57	-766.667
231.95	500.000
232.32	275.000
232.69	616.667
233.07	250.000
233.44	-1350.000
233.81	226.667
234.19	159.259
234.56	237.500
234.93	252.941
235.31	200.000
235.68	250.000
236.05	146.429
236.43	140.741
236.80	200.000
237.17	162.069
237.55	128.125
237.92	130.000
238.29	127.273
238.67	131.250
239.04	82.927
239.41	93.750
239.79	100.000
240.16	95.833
240.53	63.934
240.91	69.565
241.28	86.441
241.65	60.606
242.02	85.915
242.40	80.000
242.77	62.637
243.14	45.570
243.51	67.677
243.89	59.813
244.26	52.336
244.63	61.386
245.00	66.972
245.38	42.373
245.75	52.273
246.12	54.815
246.49	46.809
246.87	43.443
247.24	50.000
247.61	50.625
247.98	44.898
248.36	44.242
248.73	46.429
249.10	41.667
249.47	40.000
249.84	46.766
250.22	48.649
250.59	42.000
250.96	40.084
251.33	38.605
251.70	44.196
252.08	41.176
252.45	41.036
252.82	38.023
253.19	37.945
253.56	40.385
253.94	40.942
254.31	38.372
254.68	38.676
255.05	37.586
255.42	39.781
255.79	35.179
256.16	37.966
256.54	37.987
256.91	32.680
257.28	36.789
257.65	34.169
258.02	33.038
258.39	36.390
258.76	39.130
259.14	30.857
259.51	33.236
259.88	37.386
260.25	32.418
260.62	35.068
260.99	31.129
261.36	35.655
261.73	36.170
262.10	34.817
262.47	29.250
262.85	31.200
263.22	32.905
263.59	33.760
263.96	33.835
264.33	31.358
264.70	36.364
265.07	31.463
265.44	33.945
265.81	31.368
266.18	31.579
266.55	32.861
266.92	30.425
267.29	31.798
267.66	30.269
268.03	30.717
268.40	29.387
268.77	30.396
269.14	26.681
269.51	32.962
269.88	31.429
270.25	26.566
270.62	29.828
270.99	31.034
271.36	30.691
271.73	29.560
272.10	28.687
272.47	28.968
272.84	28.543
273.21	27.893
273.58	27.126
273.95	26.078
274.32	29.183
274.69	30.315
275.06	29.872
275.43	27.395
275.80	29.434
276.17	29.779
276.54	29.907
276.91	27.799
277.28	28.102
277.65	26.753
278.02	29.412
278.39	27.878
278.76	28.448
279.13	27.758
279.50	26.727
279.87	26.443
280.23	27.440
280.60	28.832
280.97	27.414
281.34	27.723
281.71	27.478
282.08	26.838
282.45	25.507
282.82	25.753
283.19	26.868
283.56	27.438
283.92	27.687
284.29	27.288
284.66	25.882
285.03	28.358
285.40	27.107
285.77	25.463
286.14	26.316
286.51	26.227
286.87	26.108
287.24	25.526
287.61	27.204
287.98	25.970
288.35	27.111
288.72	23.976
289.08	27.027
289.45	25.915
289.82	26.094
290.19	26.647
290.56	26.638
290.93	25.899
291.29	26.796
291.66	25.706
292.03	25.666
292.40	25.610
292.77	25.905
293.13	26.248
293.50	25.371
293.87	23.848
294.24	24.895
294.60	27.725
294.97	27.552
295.34	26.428
295.71	25.493
296.08	27.200
296.44	24.651
296.81	24.814
297.18	23.067
297.55	25.000
297.91	23.892
298.28	25.483
298.65	24.663
299.02	24.729
299.38	24.221
299.75	24.756
300.12	25.115
300.48	25.410
300.85	26.341
301.22	25.233
301.59	24.175
301.95	23.687
302.32	25.262
302.69	24.774
303.05	24.467
303.42	24.327
303.79	24.485
304.15	24.092
304.52	24.207
304.89	24.627
305.25	25.362
305.62	25.053
305.99	24.457
306.35	23.368
306.72	24.246
307.09	23.499
307.45	24.287
307.82	24.897
308.19	24.948
308.55	24.300
308.92	24.338
309.29	25.444
309.65	24.381
310.02	25.862
310.38	24.626
310.75	24.590
311.12	23.946
311.48	26.737
311.85	25.382
312.22	26.934
312.58	25.850
312.95	26.214
313.31	26.030
313.68	23.734
314.05	26.923
314.41	24.115
314.78	26.231
315.14	25.687
315.51	26.017
315.87	26.551
316.24	26.050
316.61	25.336
316.97	25.780
317.34	27.314
317.70	25.900
318.07	27.580
318.43	27.065
318.80	26.795
319.16	26.224
319.53	26.549
319.89	27.240
320.26	28.399
320.62	27.289
320.99	27.645
321.35	27.922
321.72	28.463
322.08	28.994
322.45	27.702
322.81	28.545
323.18	28.508
323.54	27.962
323.91	28.830
324.27	29.355
324.64	29.498
325.00	29.741
325.37	28.331
325.73	29.174
326.10	29.412
326.46	30.140
326.83	28.880
327.19	30.924
327.56	29.553
327.92	30.820
328.29	31.260
328.65	31.592
329.01	31.052
329.38	30.880
329.74	31.768
330.11	31.364
330.47	31.969
330.84	29.422
331.20	30.795
331.56	32.038
331.93	31.993
332.29	30.272
332.66	31.718
333.02	29.296
333.38	30.105
333.75	30.942
334.11	30.034
334.48	31.453
334.84	30.659
335.20	30.111
335.57	29.723
335.93	29.857
336.29	30.017
336.66	30.875
337.02	28.999
337.38	31.298
337.75	30.997
338.11	29.620
338.47	30.144
338.84	31.414
339.20	30.130
339.56	30.362
339.93	29.515
340.29	28.403
340.65	29.841
341.02	31.456
341.38	30.213
341.74	30.648
342.11	29.048
342.47	28.712
342.83	30.025
343.20	30.315
343.56	28.197
343.92	30.058
344.28	29.665
344.65	29.340
345.01	29.444
345.37	28.926
345.73	28.889
346.10	28.685
346.46	29.585
346.82	29.398
347.19	29.985
347.55	27.635
347.91	28.172
348.27	28.273
348.63	29.589
349.00	30.236
349.36	28.016
349.72	28.364
350.08	30.668
350.45	29.627
350.81	29.740
351.17	28.891
351.53	28.637
351.89	28.205
352.26	28.193
352.62	28.733
352.98	29.908
353.34	29.815
353.70	27.752
354.07	29.462
354.43	29.800
354.79	29.385
355.15	29.939
355.51	29.532
355.87	29.744
356.24	29.561
356.60	28.539
356.96	28.961
357.32	29.390
357.68	27.974
358.04	29.863
358.40	29.385
358.77	30.579
359.13	29.279
359.49	29.133
359.85	28.891
360.21	28.380
360.57	29.197
360.93	29.293
361.29	29.942
361.66	30.350
362.02	28.125
362.38	29.365
362.74	28.025
363.10	29.453
363.46	29.144
363.82	30.365
364.18	29.232
364.54	29.757
364.90	28.916
365.26	29.702
365.62	29.213
365.98	29.181
366.35	29.517
366.71	29.355
367.07	28.805
367.43	29.080
367.79	29.388
368.15	29.037
368.51	30.048
368.87	29.076
369.23	29.314
369.59	30.209
369.95	29.790
370.31	28.747
370.67	29.493
371.03	29.832
371.39	29.294
371.75	29.937
372.11	29.164
372.47	30.685
372.83	29.572
373.19	29.678
373.55	30.172
373.91	28.591
374.27	29.299
374.63	29.492
374.99	31.267
375.35	30.847
375.71	30.277
376.07	30.504
376.42	29.412
376.78	30.443
377.14	30.734
377.50	30.087
377.86	30.237
378.22	30.286
378.58	30.206
378.94	30.658
379.30	30.564
379.66	29.862
380.02	31.144
380.38	29.040
380.74	31.603
381.09	30.374
381.45	30.116
381.81	29.374
382.17	29.243
382.53	30.834
382.89	30.455
383.25	31.143
383.61	29.914
383.97	30.414
384.32	30.862
384.68	31.254
385.04	31.536
385.40	29.893
385.76	30.895
386.12	31.478
386.48	31.976
386.83	31.846
387.19	31.802
387.55	30.978
387.91	31.697
388.27	32.243
388.62	31.279
388.98	30.787
389.34	30.458
389.70	30.307
390.06	31.280
390.42	30.907
390.77	31.388
391.13	31.442
391.49	31.639
391.85	32.369
392.20	31.645
392.56	31.481
392.92	30.264
393.28	31.390
393.64	31.135
393.99	32.484
394.35	31.725
394.71	30.639
395.07	31.265
395.42	31.792
395.78	32.264
396.14	31.024
396.50	31.288
396.85	31.463
397.21	31.047
397.57	31.919
397.92	30.387
398.28	31.495
398.64	32.170
399.00	30.518
399.35	31.294
399.71	31.567
400.07	31.107
400.42	31.104
400.78	30.499
401.14	31.709
401.49	30.242
401.85	31.228
402.21	31.459
402.57	31.299
402.92	31.636
403.28	30.967
403.63	31.430
403.99	31.001
404.35	31.887
404.70	32.310
405.06	30.601
405.42	31.897
405.77	30.816
406.13	31.182
406.49	29.733
406.84	30.739
407.20	32.021
407.55	31.508
407.91	32.227
408.27	31.413
408.62	30.869
408.98	30.692
409.34	29.866
409.69	30.305
410.05	30.471
410.40	31.272
410.76	30.910
411.11	30.983
411.47	30.370
411.83	29.584
412.18	31.341
412.54	30.751
412.89	30.442
413.25	30.388
413.60	31.484
413.96	31.179
414.31	31.818
414.67	31.347
415.03	31.418
415.38	31.735
415.74	30.133
416.09	32.230
416.45	31.803
416.80	32.777
417.16	30.681
417.51	30.573
417.87	31.289
418.22	31.470
418.58	31.656
418.93	31.588
419.29	30.561
419.64	31.738
420.00	32.279
420.35	30.256
420.71	31.272
421.06	31.136
421.42	31.664
421.77	31.483
422.12	31.588
422.48	31.073
422.83	32.645
423.19	31.533
423.54	31.596
423.90	30.917
424.25	32.306
424.61	32.385
424.96	31.056
425.31	31.363
425.67	32.716
426.02	31.071
426.38	31.447
426.73	31.752
427.09	33.037
427.44	32.020
427.79	32.190
428.15	33.412
428.50	33.543
428.85	33.098
429.21	32.793
429.56	32.154
429.92	31.775
430.27	31.398
430.62	31.767
430.98	31.786
431.33	31.754
431.68	31.654
432.04	31.712
432.39	32.656
432.74	32.904
433.10	32.226
433.45	34.003
433.80	33.425
434.16	33.053
434.51	32.817
434.86	32.118
435.22	32.523
435.57	33.195
435.92	33.808
436.28	33.353
436.63	33.009
436.98	32.207
437.34	33.961
437.69	32.083
438.04	33.280
438.39	33.041
438.75	33.073
439.10	32.812
439.45	32.843
439.81	33.950
440.16	33.792
440.51	32.883
440.86	34.074
441.22	32.684
441.57	32.913
441.92	32.922
442.27	33.557
442.63	32.571
442.98	32.705
443.33	33.155
443.68	34.356
444.03	32.941
444.39	34.087
444.74	32.867
445.09	32.701
445.44	33.900
445.79	32.700
446.15	33.158
446.50	32.911
446.85	33.018
447.20	33.184
447.55	33.605
447.91	33.884
448.26	33.546
448.61	34.439
448.96	33.442
449.31	35.204
449.66	34.053
450.02	33.063
450.37	34.092
450.72	33.994
451.07	34.788
451.42	34.855
451.77	33.104
452.12	34.543
452.47	34.326
452.83	34.704
453.18	34.775
453.53	33.985
453.88	34.286
454.23	34.515
454.58	34.091
454.93	33.599
455.28	34.272
455.63	34.456
455.98	33.672
456.34	33.739
456.69	34.329
457.04	33.950
457.39	34.686
457.74	34.741
458.09	33.464
458.44	33.680
458.79	34.642
459.14	33.224
459.49	34.315
459.84	34.402
460.19	34.802
460.54	35.271
460.89	33.902
461.24	33.047
461.59	34.297
461.94	34.043
462.29	34.668
462.64	35.678
462.99	34.997
463.34	35.126
463.69	35.390
464.04	35.060
464.39	35.318
464.74	34.056
465.09	34.068
465.44	34.494
465.79	34.132
466.14	33.174
466.49	34.400
466.84	34.002
467.19	34.915
467.54	33.994
467.89	34.742
468.24	34.627
468.59	34.226
468.94	34.300
469.29	34.514
469.64	34.662
469.99	33.805
470.34	35.421
470.68	35.793
471.03	36.424
471.38	35.762
471.73	35.728
472.08	36.725
472.43	35.630
472.78	35.275
473.13	35.607
473.48	35.758
473.83	35.630
474.17	35.015
474.52	35.427
474.87	34.281
475.22	34.894
475.57	34.890
475.92	36.025
476.27	34.548
476.61	34.155
476.96	35.580
477.31	35.373
477.66	36.017
478.01	35.018
478.36	35.427
478.70	33.201
479.05	34.728
479.40	34.921
479.75	35.799
480.10	34.269
480.45	34.687
480.79	34.332
481.14	34.427
481.49	34.538
481.84	34.213
482.19	34.585
482.53	34.080
482.88	34.140
483.23	34.371
483.58	34.650
483.92	35.146
484.27	34.717
484.62	35.357
484.97	33.385
485.31	33.833
485.66	32.261
486.01	31.455
486.36	30.868
486.70	30.511
487.05	31.269
487.40	31.671
487.75	31.872
488.09	32.642
488.44	32.919
488.79	33.565
489.13	34.229
489.48	34.479
489.83	33.695
490.17	33.650
490.52	34.065
490.87	33.621
491.22	35.284
491.56	35.134
491.91	35.484
492.26	34.878
492.60	35.672
492.95	34.300
493.30	34.440
493.64	34.097
493.99	35.063
494.34	35.545
494.68	34.440
495.03	35.115
495.37	35.119
495.72	34.965
496.07	34.636
496.41	34.926
496.76	33.727
497.11	33.762
497.45	34.371
497.80	34.291
498.14	34.304
498.49	34.680
498.84	34.860
499.18	34.826
499.53	34.313
499.87	34.277
500.22	34.362
500.56	34.633
500.91	35.482
501.26	34.543
501.60	34.791
501.95	34.319
502.29	34.667
502.64	34.318
502.98	34.949
503.33	34.833
503.67	34.260
504.02	33.901
504.36	34.163
504.71	35.856
505.06	35.664
505.40	35.143
505.75	34.612
506.09	35.651
506.44	35.667
506.78	35.161
507.13	35.725
507.47	35.274
507.82	35.766
508.16	36.551
508.51	34.928
508.85	34.853
509.19	36.711
509.54	35.645
509.88	36.002
510.23	35.343
510.57	35.039
510.92	36.563
511.26	36.747
511.61	36.091
511.95	36.386
512.30	35.650
512.64	36.345
512.98	35.418
513.33	36.219
513.67	36.406
514.02	36.156
514.36	36.501
514.70	36.427
515.05	35.535
515.39	37.171
515.74	37.233
516.08	36.819
516.42	38.743
516.77	37.280
517.11	36.480
517.46	37.069
517.80	35.609
518.14	36.958
518.49	36.549
518.83	36.154
519.17	36.772
519.52	36.264
519.86	36.676
520.20	37.534
520.55	36.461
520.89	37.184
521.23	38.026
521.58	36.546
521.92	37.901
522.26	37.855
522.61	37.552
522.95	37.778
523.29	38.363
523.64	37.168
523.98	37.559
524.32	36.736
524.66	37.623
525.01	36.509
525.35	37.478
525.69	37.929
526.04	37.775
526.38	36.963
526.72	36.814
527.06	36.783
527.41	39.057
527.75	37.858
528.09	36.845
528.43	38.377
528.78	36.911
529.12	37.628
529.46	37.989
529.80	37.558
530.15	37.831
530.49	36.221
530.83	37.904
531.17	37.515
531.51	37.768
531.86	36.655
532.20	38.257
532.54	38.167
532.88	37.039
533.22	37.782
533.57	37.889
533.91	36.072
534.25	36.007
534.59	37.018
534.93	35.779
535.27	35.344
535.62	36.056
535.96	36.288
536.30	37.416
536.64	36.832
536.98	36.690
537.32	37.000
537.66	36.097
538.01	36.656
538.35	36.931
538.69	36.226
539.03	36.194
539.37	35.922
539.71	36.111
540.05	36.800
540.39	36.604
540.73	36.329
541.07	36.261
541.42	36.318
541.76	35.882
542.10	36.498
542.44	35.474
542.78	35.935
543.12	34.908
543.46	36.466
543.80	36.404
544.14	37.461
544.48	35.462
544.82	36.024
545.16	36.248
545.50	36.017
545.84	36.616
546.18	37.321
546.52	36.525
546.86	36.557
547.20	35.465
547.54	35.782
547.88	36.375
548.22	35.762
548.56	35.298
548.90	35.231
549.24	35.629
549.58	35.245
549.92	36.608
550.26	36.646
550.60	35.263
550.94	36.906
551.28	36.000
551.62	37.586
551.96	35.473
552.30	36.388
552.64	37.023
552.98	35.567
553.32	35.915
553.66	36.547
554.00	35.907
554.34	36.019
554.68	37.298
555.02	36.592
555.36	35.904
555.69	36.322
556.03	35.541
556.37	35.628
556.71	36.832
557.05	35.321
557.39	35.867
557.73	37.062
558.07	37.357
558.41	36.943
558.75	37.141
559.08	37.670
559.42	37.223
559.76	36.565
560.10	35.926
560.44	36.231
560.78	36.381
561.12	35.919
561.45	34.856
561.79	35.081
562.13	35.881
562.47	35.367
562.81	35.784
563.15	36.652
563.48	33.975
563.82	35.995
564.16	35.697
564.50	34.539
564.84	35.805
565.17	34.522
565.51	36.145
565.85	35.719
566.19	33.988
566.52	35.499
566.86	36.019
567.20	34.719
567.54	34.662
567.88	34.168
568.21	33.200
568.55	33.512
568.89	32.801
569.23	32.183
569.56	32.508
569.90	30.183
570.24	31.175
570.57	30.629
570.91	29.392
571.25	29.864
571.59	29.949
571.92	29.548
572.26	29.111
572.60	28.853
572.93	29.241
573.27	30.040
573.61	29.101
573.95	28.561
574.28	29.011
574.62	28.179
574.96	27.803
575.29	27.938
575.63	28.080
575.97	27.410
576.30	27.512
576.64	28.290
576.98	28.024
577.31	28.578
577.65	28.238
577.98	27.477
578.32	27.182
578.66	27.411
578.99	28.047
579.33	28.281
579.67	27.764
580.00	27.287
580.34	28.073
580.67	27.830
581.01	28.286
581.35	27.291
581.68	27.161
582.02	26.992
582.35	27.004
582.69	27.146
583.02	26.990
583.36	27.420
583.70	27.738
584.03	28.834
584.37	28.698
584.70	28.092
585.04	27.623
585.37	27.232
585.71	27.753
586.04	27.560
586.38	27.987
586.72	27.516
587.05	28.204
587.39	27.535
587.72	28.178
588.06	28.036
588.39	28.173
588.73	28.466
589.06	28.567
589.40	28.826
589.73	29.072
590.07	29.238
590.40	29.965
590.73	30.224
591.07	30.854
591.40	29.461
591.74	29.951
592.07	29.992
592.41	29.376
592.74	29.476
593.08	28.743
593.41	28.636
593.75	28.082
594.08	28.796
594.41	28.674
594.75	28.938
595.08	29.767
595.42	29.361
595.75	28.891
596.09	28.745
596.42	28.951
596.75	30.569
597.09	30.087
597.42	30.612
597.75	29.452
598.09	29.873
598.42	29.417
598.76	29.298
599.09	29.165
599.42	28.720
599.76	28.697
600.09	28.475
600.42	28.211
600.76	28.348
601.09	28.961
601.42	29.321
601.76	29.144
602.09	28.992
602.42	28.466
602.76	28.805
603.09	28.507
603.42	28.771
603.76	28.670
604.09	29.280
604.42	29.153
604.76	29.237
605.09	29.673
605.42	28.972
605.75	29.254
606.09	28.845
606.42	28.824
606.75	28.799
607.09	29.412
607.42	28.365
607.75	28.782
608.08	29.082
608.42	29.320
608.75	29.439
609.08	29.652
609.41	29.682
609.75	29.716
610.08	29.901
610.41	29.381
610.74	30.260
611.07	29.832
611.41	30.074
611.74	30.449
612.07	30.250
612.40	30.604
612.73	30.604
613.07	29.853
613.40	30.927
613.73	29.955
614.06	30.000
614.39	30.657
614.72	29.935
615.06	30.366
615.39	30.545
615.72	28.896
616.05	30.839
616.38	30.036
616.71	29.897
617.05	29.984
617.38	30.618
617.71	30.765
618.04	31.183
618.37	30.850
618.70	30.658
619.03	30.586
619.36	32.098
619.69	33.113
620.03	33.855
620.36	31.535
620.69	32.695
621.02	32.745
621.35	32.450
621.68	32.375
622.01	33.579
622.34	32.484
622.67	33.076
623.00	32.335
623.33	32.254
623.66	31.870
623.99	33.014
624.32	32.724
624.65	31.797
624.99	32.860
625.32	32.799
625.65	32.000
625.98	32.008
626.31	33.605
626.64	33.713
626.97	33.741
627.30	33.540
627.63	34.615
627.96	33.490
628.29	34.571
628.62	35.158
628.95	35.106
629.28	36.284
629.61	35.501
629.94	34.486
630.26	34.835
630.59	36.968
630.92	35.067
631.25	35.177
