SpectraSuite Data File
++++++++++++++++++++++++++++++++++++
Date: Tue May 12 16:52:04 PDT 2015
User: schluterlab
Dark Spectrum Present: Yes
Reference Spectrum Present: Yes
Number of Sampled Component Spectra: 1
Spectrometers: USB2E3373
Integration Time (usec): 3000 (USB2E3373)
Spectra Averaged: 3 (USB2E3373)
Boxcar Smoothing: 0 (USB2E3373)
Correct for Electrical Dark: No (USB2E3373)
Strobe/Lamp Enabled: No (USB2E3373)
Correct for Detector Non-linearity: No (USB2E3373)
Correct for Stray Light: No (USB2E3373)
Number of Pixels in Processed Spectrum: 2048
>>>>>Begin Processed Spectral Data<<<<<
178.53	0.000
178.91	-200.000
179.29	-875.000
179.67	-3200.000
180.04	-133.333
180.42	800.000
180.80	2000.000
181.18	0.000
181.56	-312.500
181.94	0.000
182.31	1000.000
182.69	-3100.000
183.07	457.143
183.45	-4300.000
183.83	-1600.000
184.20	320.000
184.58	471.429
184.96	-253.846
185.34	-175.000
185.72	1900.000
186.09	-675.000
186.47	-2600.000
186.85	733.333
187.23	620.000
187.61	1650.000
187.98	412.500
188.36	228.571
188.74	266.667
189.12	391.667
189.49	850.000
189.87	0.000
190.25	462.500
190.63	2300.000
191.00	-216.667
191.38	-2700.000
191.76	-750.000
192.14	525.000
192.51	-2900.000
192.89	1150.000
193.27	1300.000
193.65	-1166.667
194.02	-800.000
194.40	642.857
194.78	-200.000
195.15	273.333
195.53	-2900.000
195.91	-440.000
196.29	3300.000
196.66	237.500
197.04	725.000
197.42	-1350.000
197.79	750.000
198.17	250.000
198.55	0.000
198.92	428.571
199.30	766.667
199.68	1500.000
200.05	600.000
200.43	-466.667
200.81	222.222
201.18	4300.000
201.56	291.667
201.94	-700.000
202.31	-362.500
202.69	-440.000
203.07	2400.000
203.44	-600.000
203.82	300.000
204.19	640.000
204.57	-1450.000
204.95	-750.000
205.32	-760.000
205.70	400.000
206.08	725.000
206.45	-466.667
206.83	333.333
207.20	221.053
207.58	308.333
207.96	820.000
208.33	0.000
208.71	600.000
209.08	660.000
209.46	-2300.000
209.84	-775.000
210.21	820.000
210.59	-640.000
210.96	308.333
211.34	-775.000
211.71	390.909
212.09	1000.000
212.46	1550.000
212.84	-316.667
213.22	400.000
213.59	-3700.000
213.97	370.000
214.34	650.000
214.72	1133.333
215.09	1200.000
215.47	-2400.000
215.84	-330.000
216.22	-462.500
216.59	0.000
216.97	0.000
217.34	1550.000
217.72	-1150.000
218.09	1133.333
218.47	412.500
218.84	850.000
219.22	1366.667
219.59	1066.667
219.97	485.714
220.34	322.222
220.72	1500.000
221.09	3700.000
221.47	233.333
221.84	1100.000
222.22	320.000
222.59	216.667
222.97	214.286
223.34	268.750
223.72	-2050.000
224.09	966.667
224.46	300.000
224.84	-675.000
225.21	344.444
225.59	266.667
225.96	1266.667
226.34	-860.000
226.71	-800.000
227.08	-580.000
227.46	0.000
227.83	-600.000
228.21	-1800.000
228.58	333.333
228.95	1050.000
229.33	422.222
229.70	1025.000
230.08	346.154
230.45	3500.000
230.82	-1000.000
231.20	-833.333
231.57	-1000.000
231.95	540.000
232.32	291.667
232.69	516.667
233.07	275.000
233.44	-1900.000
233.81	253.333
234.19	151.852
234.56	256.250
234.93	182.353
235.31	190.000
235.68	256.250
236.05	175.000
236.43	144.444
236.80	292.857
237.17	172.414
237.55	115.625
237.92	140.000
238.29	127.273
238.67	146.875
239.04	119.512
239.41	95.833
239.79	97.500
240.16	97.917
240.53	90.164
240.91	72.464
241.28	81.356
241.65	66.667
242.02	91.549
242.40	52.857
242.77	78.022
243.14	72.152
243.51	66.667
243.89	55.140
244.26	61.682
244.63	53.465
245.00	55.963
245.38	51.695
245.75	53.788
246.12	59.259
246.49	51.773
246.87	52.459
247.24	58.667
247.61	45.625
247.98	50.340
248.36	44.242
248.73	45.408
249.10	38.690
249.47	47.000
249.84	43.284
250.22	49.730
250.59	41.000
250.96	40.506
251.33	42.791
251.70	41.518
252.08	43.697
252.45	39.442
252.82	36.122
253.19	41.107
253.56	38.846
253.94	38.043
254.31	41.085
254.68	36.934
255.05	36.552
255.42	41.241
255.79	40.391
256.16	38.983
256.54	38.312
256.91	40.850
257.28	40.134
257.65	33.229
258.02	38.348
258.39	36.103
258.76	39.420
259.14	35.143
259.51	38.776
259.88	39.210
260.25	34.890
260.62	37.534
260.99	34.160
261.36	34.819
261.73	35.638
262.10	40.838
262.47	36.250
262.85	33.867
263.22	35.733
263.59	34.015
263.96	33.835
264.33	33.827
264.70	33.907
265.07	34.878
265.44	36.468
265.81	34.670
266.18	35.469
266.55	33.097
266.92	36.242
267.29	35.088
267.66	35.426
268.03	31.839
268.40	34.038
268.77	33.700
269.14	31.887
269.51	32.739
269.88	33.673
270.25	30.886
270.62	34.764
270.99	32.049
271.36	31.504
271.73	32.704
272.10	31.919
272.47	33.532
272.84	31.737
273.21	31.612
273.58	32.591
273.95	32.033
274.32	32.879
274.69	35.630
275.06	34.791
275.43	31.992
275.80	32.264
276.17	30.882
276.54	34.019
276.91	35.634
277.28	32.482
277.65	35.609
278.02	30.147
278.39	31.295
278.76	32.759
279.13	31.317
279.50	33.273
279.87	28.119
280.23	32.965
280.60	33.029
280.97	30.690
281.34	28.878
281.71	31.130
282.08	32.137
282.45	28.716
282.82	30.435
283.19	30.048
283.56	30.579
283.92	29.805
284.29	30.616
284.66	29.244
285.03	30.680
285.40	29.917
285.77	30.093
286.14	29.876
286.51	30.061
286.87	26.424
287.24	28.829
287.61	28.875
287.98	29.851
288.35	29.630
288.72	29.439
289.08	28.078
289.45	30.945
289.82	29.688
290.19	28.843
290.56	28.967
290.93	28.921
291.29	28.729
291.66	28.955
292.03	29.313
292.40	26.965
292.77	27.298
293.13	26.391
293.50	25.776
293.87	25.881
294.24	27.972
294.60	27.591
294.97	26.993
295.34	25.764
295.71	26.675
296.08	26.133
296.44	26.557
296.81	26.055
297.18	25.222
297.55	26.724
297.91	24.631
298.28	24.275
298.65	26.135
299.02	26.055
299.38	27.818
299.75	23.171
300.12	25.803
300.48	25.644
300.85	25.864
301.22	25.349
301.59	25.118
301.95	22.987
302.32	25.611
302.69	23.190
303.05	25.814
303.42	23.430
303.79	23.619
304.15	24.862
304.52	23.256
304.89	24.947
305.25	25.139
305.62	24.733
305.99	24.022
306.35	22.526
306.72	23.413
307.09	23.188
307.45	25.132
307.82	21.914
308.19	22.577
308.55	22.600
308.92	23.651
309.29	24.162
309.65	24.083
310.02	23.124
310.38	23.131
310.75	23.626
311.12	21.456
311.48	23.745
311.85	22.996
312.22	23.400
312.58	22.546
312.95	23.107
313.31	22.191
313.68	22.702
314.05	23.260
314.41	22.905
314.78	22.443
315.14	24.455
315.51	22.800
315.87	21.533
316.24	23.156
316.61	21.397
316.97	22.294
317.34	21.833
317.70	21.861
318.07	22.242
318.43	22.583
318.80	22.329
319.16	22.465
319.53	21.239
319.89	21.864
320.26	23.184
320.62	21.886
320.99	22.593
321.35	21.985
321.72	23.245
322.08	22.345
322.45	20.890
322.81	21.043
323.18	22.469
323.54	22.300
323.91	22.393
324.27	20.778
324.64	21.540
325.00	22.069
325.37	21.079
325.73	21.417
326.10	22.287
326.46	20.727
326.83	20.720
327.19	22.088
327.56	20.687
327.92	21.311
328.29	21.931
328.65	21.918
329.01	21.642
329.38	21.404
329.74	20.666
330.11	20.417
330.47	21.569
330.84	20.621
331.20	21.235
331.56	23.143
331.93	20.359
332.29	21.003
332.66	21.684
333.02	20.275
333.38	20.942
333.75	21.768
334.11	21.393
334.48	21.453
334.84	20.101
335.20	21.129
335.57	20.739
335.93	21.699
336.29	19.818
336.66	22.556
337.02	20.103
337.38	21.066
337.75	20.693
338.11	20.422
338.47	19.814
338.84	19.983
339.20	20.260
339.56	20.185
339.93	20.819
340.29	19.160
340.65	20.536
341.02	20.434
341.38	19.787
341.74	19.601
342.11	19.783
342.47	19.524
342.83	20.673
343.20	19.968
343.56	18.110
343.92	18.993
344.28	19.219
344.65	20.049
345.01	21.111
345.37	19.151
345.73	18.333
346.10	20.080
346.46	20.255
346.82	18.441
347.19	21.020
347.55	19.126
347.91	18.882
348.27	18.823
348.63	19.462
349.00	18.964
349.36	18.911
349.72	19.343
350.08	19.798
350.45	19.497
350.81	19.113
351.17	19.183
351.53	18.861
351.89	19.192
352.26	18.594
352.62	18.326
352.98	20.015
353.34	18.875
353.70	19.801
354.07	19.077
354.43	19.124
354.79	18.147
355.15	18.377
355.51	18.051
355.87	19.277
356.24	18.861
356.60	18.798
356.96	17.892
357.32	18.990
357.68	19.457
358.04	17.629
358.40	19.565
358.77	19.159
359.13	18.769
359.49	17.272
359.85	18.838
360.21	18.128
360.57	17.883
360.93	18.975
361.29	18.470
361.66	19.687
362.02	17.898
362.38	18.398
362.74	18.471
363.10	18.513
363.46	18.577
363.82	18.583
364.18	19.132
364.54	17.954
364.90	18.273
365.26	18.390
365.62	18.232
365.98	18.169
366.35	17.655
366.71	18.182
367.07	18.157
367.43	18.066
367.79	17.952
368.15	17.368
368.51	17.574
368.87	17.187
369.23	16.563
369.59	18.071
369.95	17.692
370.31	17.043
370.67	18.390
371.03	18.207
371.39	18.560
371.75	18.493
372.11	18.151
372.47	17.603
372.83	17.675
373.19	18.163
373.55	17.045
373.91	17.610
374.27	16.865
374.63	18.441
374.99	17.049
375.35	17.339
375.71	18.140
376.07	17.772
376.42	16.752
376.78	16.827
377.14	18.480
377.50	17.041
377.86	16.784
378.22	17.185
378.58	17.676
378.94	17.864
379.30	16.192
379.66	17.038
380.02	17.830
380.38	16.745
380.74	17.820
381.09	16.238
381.45	16.416
381.81	16.548
382.17	16.789
382.53	17.037
382.89	17.031
383.25	16.459
383.61	17.349
383.97	16.857
384.32	17.179
384.68	17.291
385.04	16.882
385.40	17.438
385.76	16.793
386.12	17.192
386.48	16.900
386.83	18.276
387.19	17.373
387.55	16.019
387.91	17.090
388.27	17.490
388.62	17.195
388.98	17.143
389.34	16.835
389.70	16.627
390.06	17.805
390.42	16.471
390.77	16.708
391.13	17.320
391.49	16.394
391.85	17.108
392.20	16.210
392.56	16.906
392.92	16.339
393.28	16.816
393.64	15.883
393.99	17.250
394.35	16.892
394.71	16.405
395.07	15.693
395.42	16.979
395.78	17.582
396.14	17.349
396.50	16.366
396.85	16.646
397.21	16.426
397.57	17.095
397.92	16.060
398.28	16.271
398.64	16.463
399.00	16.462
399.35	16.157
399.71	16.115
400.07	16.381
400.42	16.418
400.78	17.067
401.14	16.207
401.49	16.820
401.85	16.512
402.21	16.403
402.57	16.457
402.92	16.667
403.28	15.871
403.63	16.539
403.99	16.224
404.35	16.764
404.70	16.716
405.06	16.171
405.42	16.637
405.77	16.207
406.13	16.323
406.49	16.202
406.84	16.300
407.20	16.781
407.55	16.308
407.91	16.911
408.27	15.828
408.62	17.090
408.98	16.499
409.34	16.540
409.69	16.428
410.05	16.398
410.40	15.724
410.76	14.539
411.11	16.588
411.47	16.481
411.83	16.169
412.18	16.063
412.54	15.916
412.89	16.460
413.25	16.420
413.60	16.589
413.96	16.038
414.31	15.702
414.67	16.574
415.03	16.347
415.38	16.151
415.74	15.477
416.09	16.302
416.45	16.677
416.80	18.024
417.16	15.722
417.51	15.987
417.87	15.707
418.22	15.735
418.58	16.497
418.93	16.657
419.29	16.328
419.64	15.748
420.00	16.527
420.35	15.331
420.71	15.928
421.06	16.363
421.42	15.947
421.77	16.657
422.12	16.262
422.48	16.333
422.83	15.792
423.19	15.821
423.54	15.524
423.90	15.572
424.25	16.456
424.61	16.947
424.96	16.206
425.31	15.107
425.67	15.657
426.02	15.816
426.38	15.169
426.73	16.484
427.09	15.955
427.44	16.320
427.79	15.666
428.15	16.264
428.50	16.800
428.85	16.108
429.21	16.478
429.56	16.351
429.92	15.365
430.27	15.820
430.62	14.978
430.98	15.968
431.33	15.524
431.68	15.160
432.04	15.572
432.39	16.081
432.74	15.398
433.10	16.279
433.45	16.312
433.80	16.878
434.16	15.502
434.51	15.686
434.86	16.494
435.22	15.505
435.57	15.590
435.92	16.335
436.28	16.647
436.63	16.316
436.98	15.991
437.34	16.096
437.69	15.342
438.04	15.108
438.39	16.579
438.75	15.757
439.10	15.920
439.45	15.941
439.81	16.310
440.16	15.740
440.51	16.441
440.86	15.954
441.22	15.909
441.57	15.696
441.92	15.992
442.27	15.567
442.63	15.650
442.98	15.948
443.33	15.854
443.68	15.996
444.03	15.127
444.39	16.008
444.74	15.994
445.09	16.377
445.44	16.206
445.79	16.228
446.15	16.000
446.50	15.665
446.85	15.986
447.20	14.826
447.55	15.878
447.91	16.090
448.26	15.974
448.61	15.920
448.96	16.612
449.31	17.052
449.66	16.390
450.02	15.559
450.37	15.658
450.72	16.143
451.07	16.289
451.42	16.420
451.77	16.724
452.12	15.882
452.47	15.735
452.83	16.563
453.18	17.117
453.53	16.163
453.88	16.629
454.23	16.967
454.58	16.667
454.93	16.493
455.28	16.952
455.63	16.017
455.98	16.131
456.34	16.839
456.69	16.463
457.04	16.229
457.39	16.343
457.74	17.342
458.09	15.834
458.44	15.772
458.79	16.552
459.14	15.657
459.49	16.138
459.84	16.793
460.19	15.876
460.54	16.182
460.89	16.898
461.24	16.495
461.59	16.610
461.94	16.489
462.29	16.705
462.64	16.520
462.99	16.699
463.34	16.526
463.69	17.544
464.04	16.753
464.39	16.085
464.74	15.826
465.09	16.135
465.44	15.941
465.79	16.385
466.14	15.845
466.49	16.929
466.84	15.831
467.19	16.637
467.54	16.456
467.89	16.021
468.24	15.866
468.59	16.131
468.94	16.304
469.29	16.738
469.64	16.977
469.99	16.645
470.34	16.445
470.68	17.586
471.03	16.478
471.38	16.821
471.73	16.917
472.08	17.221
472.43	16.511
472.78	16.773
473.13	16.333
473.48	16.381
473.83	16.196
474.17	17.143
474.52	16.232
474.87	16.259
475.22	16.505
475.57	16.422
475.92	16.300
476.27	16.268
476.61	16.568
476.96	15.517
477.31	16.350
477.66	16.962
478.01	15.420
478.36	16.375
478.70	16.228
479.05	16.109
479.40	16.071
479.75	16.187
480.10	16.651
480.45	16.013
480.79	16.037
481.14	16.120
481.49	15.782
481.84	15.787
482.19	15.677
482.53	16.337
482.88	15.860
483.23	15.516
483.58	15.934
483.92	16.590
484.27	16.182
484.62	16.553
484.97	15.271
485.31	14.998
485.66	14.813
486.01	14.565
486.36	14.153
486.70	14.302
487.05	14.355
487.40	14.862
487.75	14.938
488.09	14.716
488.44	15.201
488.79	15.967
489.13	16.051
489.48	16.221
489.83	15.930
490.17	15.483
490.52	16.150
490.87	16.207
491.22	16.179
491.56	16.249
491.91	16.039
492.26	16.125
492.60	17.130
492.95	16.312
493.30	16.060
493.64	15.993
493.99	15.921
494.34	15.285
494.68	15.715
495.03	15.626
495.37	16.884
495.72	16.830
496.07	16.128
496.41	16.551
496.76	16.083
497.11	16.367
497.45	16.484
497.80	16.219
498.14	16.736
498.49	16.481
498.84	16.355
499.18	15.768
499.53	16.537
499.87	16.217
500.22	15.661
500.56	16.388
500.91	17.254
501.26	16.537
501.60	16.120
501.95	15.457
502.29	16.711
502.64	16.056
502.98	16.363
503.33	16.392
503.67	16.556
504.02	15.719
504.36	16.742
504.71	16.036
505.06	16.377
505.40	16.565
505.75	16.604
506.09	17.406
506.44	17.011
506.78	16.682
507.13	16.529
507.47	16.060
507.82	17.080
508.16	17.393
508.51	16.957
508.85	16.904
509.19	17.034
509.54	16.992
509.88	16.808
510.23	16.716
510.57	16.602
510.92	16.983
511.26	16.717
511.61	17.085
511.95	17.272
512.30	16.750
512.64	16.199
512.98	17.273
513.33	17.213
513.67	17.297
514.02	16.364
514.36	16.459
514.70	17.920
515.05	16.409
515.39	17.325
515.74	16.894
516.08	16.830
516.42	18.579
516.77	17.013
517.11	17.173
517.46	17.511
517.80	16.931
518.14	17.239
518.49	17.861
518.83	17.143
519.17	17.138
519.52	17.804
519.86	18.311
520.20	17.425
520.55	17.524
520.89	17.126
521.23	17.290
521.58	17.785
521.92	17.784
522.26	17.062
522.61	18.063
522.95	17.538
523.29	17.661
523.64	17.919
523.98	17.547
524.32	17.589
524.66	17.565
525.01	17.574
525.35	17.619
525.69	18.483
526.04	18.501
526.38	18.069
526.72	17.661
527.06	18.273
527.41	18.380
527.75	17.833
528.09	17.640
528.43	18.670
528.78	18.068
529.12	17.821
529.46	17.300
529.80	17.815
530.15	18.209
530.49	17.088
530.83	17.733
531.17	17.343
531.51	18.639
531.86	17.693
532.20	17.800
532.54	18.142
532.88	17.989
533.22	18.099
533.57	17.938
533.91	17.483
534.25	17.426
534.59	17.485
534.93	17.406
535.27	17.131
535.62	18.145
535.96	17.080
536.30	18.830
536.64	17.888
536.98	17.369
537.32	18.875
537.66	17.793
538.01	18.266
538.35	17.467
538.69	17.718
539.03	17.102
539.37	17.415
539.71	17.901
540.05	17.662
540.39	17.987
540.73	18.165
541.07	18.005
541.42	17.289
541.76	18.434
542.10	16.831
542.44	17.456
542.78	17.181
543.12	17.301
543.46	17.607
543.80	17.481
544.14	17.647
544.48	17.275
544.82	18.226
545.16	16.758
545.50	18.193
545.84	17.235
546.18	18.336
546.52	18.295
546.86	17.795
547.20	17.183
547.54	17.859
547.88	17.153
548.22	16.879
548.56	17.089
548.90	17.438
549.24	17.625
549.58	17.784
549.92	17.092
550.26	17.850
550.60	18.031
550.94	17.978
551.28	19.379
551.62	17.379
551.96	17.838
552.30	16.150
552.64	18.252
552.98	17.268
553.32	17.093
553.66	17.068
554.00	16.602
554.34	18.775
554.68	18.011
555.02	17.787
555.36	17.686
555.69	18.455
556.03	17.197
556.37	17.336
556.71	18.253
557.05	17.366
557.39	18.000
557.73	18.531
558.07	17.639
558.41	18.095
558.75	18.126
559.08	18.728
559.42	18.397
559.76	18.247
560.10	18.169
560.44	16.191
560.78	17.455
561.12	18.245
561.45	17.397
561.79	18.102
562.13	17.562
562.47	17.716
562.81	18.478
563.15	18.164
563.48	17.019
563.82	18.029
564.16	17.600
564.50	17.601
564.84	17.872
565.17	17.647
565.51	17.057
565.85	16.903
566.19	18.333
566.52	17.268
566.86	17.630
567.20	17.416
567.54	16.758
567.88	17.632
568.21	16.625
568.55	16.440
568.89	16.378
569.23	15.962
569.56	16.613
569.90	15.523
570.24	15.605
570.57	15.509
570.91	15.257
571.25	15.065
571.59	14.580
571.92	14.774
572.26	14.636
572.60	14.663
572.93	15.095
573.27	14.704
573.61	14.997
573.95	14.716
574.28	14.518
574.62	14.555
574.96	14.467
575.29	14.739
575.63	14.276
575.97	14.314
576.30	14.604
576.64	14.717
576.98	14.233
577.31	14.558
577.65	14.806
577.98	14.220
578.32	14.117
578.66	14.347
578.99	14.747
579.33	14.727
579.67	14.124
580.00	14.263
580.34	14.283
580.67	14.676
581.01	14.659
581.35	14.689
581.68	13.816
582.02	13.955
582.35	14.087
582.69	13.947
583.02	14.144
583.36	14.238
583.70	14.618
584.03	14.517
584.37	15.018
584.70	14.531
585.04	14.704
585.37	14.608
585.71	14.449
586.04	14.470
586.38	14.173
586.72	14.723
587.05	14.359
587.39	14.564
587.72	14.418
588.06	14.775
588.39	14.713
588.73	14.628
589.06	14.678
589.40	15.462
589.73	15.077
590.07	15.202
590.40	15.714
590.73	16.085
591.07	16.281
591.40	15.090
591.74	15.300
592.07	14.975
592.41	15.787
592.74	14.976
593.08	14.518
593.41	14.782
593.75	14.436
594.08	15.276
594.41	15.282
594.75	15.103
595.08	15.021
595.42	15.240
595.75	14.840
596.09	15.398
596.42	15.295
596.75	15.585
597.09	15.642
597.42	15.184
597.75	15.213
598.09	15.018
598.42	15.545
598.76	15.729
599.09	15.778
599.42	15.294
599.76	15.299
600.09	14.983
600.42	15.331
600.76	14.582
601.09	14.567
601.42	14.502
601.76	15.002
602.09	15.379
602.42	15.120
602.76	15.408
603.09	15.535
603.42	15.890
603.76	15.221
604.09	15.201
604.42	15.405
604.76	15.606
605.09	15.347
605.42	15.644
605.75	15.239
606.09	15.647
606.42	15.257
606.75	15.468
607.09	15.476
607.42	15.267
607.75	15.366
608.08	15.232
608.42	15.940
608.75	15.747
609.08	15.662
609.41	15.955
609.75	15.522
610.08	15.827
610.41	15.986
610.74	15.455
611.07	15.962
611.41	16.219
611.74	16.587
612.07	15.703
612.40	16.472
612.73	16.575
613.07	15.864
613.40	16.692
613.73	16.575
614.06	15.750
614.39	15.909
614.72	16.123
615.06	16.073
615.39	15.792
615.72	16.070
616.05	16.072
616.38	15.880
616.71	16.386
617.05	15.761
617.38	16.854
617.71	16.423
618.04	16.377
618.37	15.842
618.70	17.090
619.03	16.911
619.36	17.274
619.69	17.084
620.03	17.743
620.36	16.506
620.69	18.008
621.02	18.071
621.35	17.120
621.68	17.330
622.01	18.819
622.34	17.553
622.67	17.065
623.00	17.699
623.33	18.084
623.66	17.365
623.99	18.014
624.32	19.173
624.65	16.919
624.99	17.309
625.32	17.969
625.65	16.759
625.98	16.388
626.31	17.062
626.64	16.781
626.97	17.521
627.30	18.168
627.63	17.896
627.96	16.980
628.29	18.564
628.62	17.023
628.95	19.060
629.28	19.807
629.61	18.717
629.94	18.583
630.26	18.631
630.59	19.149
630.92	18.834
631.25	19.855
