SpectraSuite Data File
++++++++++++++++++++++++++++++++++++
Date: Tue May 12 17:06:15 PDT 2015
User: schluterlab
Dark Spectrum Present: Yes
Reference Spectrum Present: Yes
Number of Sampled Component Spectra: 1
Spectrometers: USB2E3373
Integration Time (usec): 3000 (USB2E3373)
Spectra Averaged: 3 (USB2E3373)
Boxcar Smoothing: 0 (USB2E3373)
Correct for Electrical Dark: No (USB2E3373)
Strobe/Lamp Enabled: No (USB2E3373)
Correct for Detector Non-linearity: No (USB2E3373)
Correct for Stray Light: No (USB2E3373)
Number of Pixels in Processed Spectrum: 2048
>>>>>Begin Processed Spectral Data<<<<<
178.53	0.000
178.91	-241.667
179.29	-625.000
179.67	-4200.000
180.04	-246.667
180.42	825.000
180.80	1350.000
181.18	0.000
181.56	-400.000
181.94	0.000
182.31	1100.000
182.69	-3500.000
183.07	557.143
183.45	-3200.000
183.83	-2000.000
184.20	380.000
184.58	400.000
184.96	-207.692
185.34	-258.333
185.72	1650.000
186.09	-850.000
186.47	-3000.000
186.85	1100.000
187.23	560.000
187.61	2050.000
187.98	437.500
188.36	285.714
188.74	366.667
189.12	366.667
189.49	1075.000
189.87	0.000
190.25	487.500
190.63	3500.000
191.00	-233.333
191.38	-3900.000
191.76	-775.000
192.14	562.500
192.51	-3200.000
192.89	1700.000
193.27	1066.667
193.65	-1333.333
194.02	-780.000
194.40	514.286
194.78	-185.714
195.15	293.333
195.53	-3000.000
195.91	-560.000
196.29	3900.000
196.66	218.750
197.04	825.000
197.42	-1050.000
197.79	600.000
198.17	291.667
198.55	0.000
198.92	571.429
199.30	1166.667
199.68	2050.000
200.05	733.333
200.43	-366.667
200.81	238.889
201.18	2800.000
201.56	300.000
201.94	-775.000
202.31	-237.500
202.69	-560.000
203.07	2400.000
203.44	-466.667
203.82	408.333
204.19	720.000
204.57	-1150.000
204.95	-650.000
205.32	-660.000
205.70	433.333
206.08	700.000
206.45	-1200.000
206.83	444.444
207.20	200.000
207.58	283.333
207.96	820.000
208.33	0.000
208.71	528.571
209.08	580.000
209.46	-2900.000
209.84	-850.000
210.21	800.000
210.59	-520.000
210.96	283.333
211.34	-1225.000
211.71	400.000
212.09	1150.000
212.46	1850.000
212.84	-466.667
213.22	444.444
213.59	-2900.000
213.97	450.000
214.34	925.000
214.72	1333.333
215.09	900.000
215.47	-3000.000
215.84	-310.000
216.22	-387.500
216.59	0.000
216.97	0.000
217.34	1650.000
217.72	-1900.000
218.09	1200.000
218.47	550.000
218.84	1025.000
219.22	1100.000
219.59	1166.667
219.97	542.857
220.34	377.778
220.72	1750.000
221.09	3600.000
221.47	300.000
221.84	1100.000
222.22	310.000
222.59	227.778
222.97	242.857
223.34	262.500
223.72	-1400.000
224.09	1466.667
224.46	330.769
224.84	-675.000
225.21	411.111
225.59	226.667
225.96	1400.000
226.34	-660.000
226.71	-675.000
227.08	-560.000
227.46	0.000
227.83	-483.333
228.21	-1650.000
228.58	416.667
228.95	675.000
229.33	400.000
229.70	800.000
230.08	392.308
230.45	3600.000
230.82	-1000.000
231.20	-900.000
231.57	-1000.000
231.95	320.000
232.32	275.000
232.69	600.000
233.07	300.000
233.44	-1700.000
233.81	273.333
234.19	188.889
234.56	237.500
234.93	235.294
235.31	220.000
235.68	262.500
236.05	189.286
236.43	174.074
236.80	250.000
237.17	168.966
237.55	146.875
237.92	142.500
238.29	142.424
238.67	125.000
239.04	121.951
239.41	118.750
239.79	107.500
240.16	110.417
240.53	85.246
240.91	85.507
241.28	86.441
241.65	83.333
242.02	98.592
242.40	92.857
242.77	74.725
243.14	74.684
243.51	77.778
243.89	69.159
244.26	76.636
244.63	76.238
245.00	71.560
245.38	71.186
245.75	64.394
246.12	80.000
246.49	64.539
246.87	73.770
247.24	67.333
247.61	69.375
247.98	64.626
248.36	61.818
248.73	61.735
249.10	57.143
249.47	53.500
249.84	61.692
250.22	58.919
250.59	60.500
250.96	59.494
251.33	51.628
251.70	52.679
252.08	60.084
252.45	52.590
252.82	50.570
253.19	54.545
253.56	49.231
253.94	51.812
254.31	51.550
254.68	51.568
255.05	54.138
255.42	53.650
255.79	53.420
256.16	55.254
256.54	54.545
256.91	52.288
257.28	49.833
257.65	51.097
258.02	48.083
258.39	55.014
258.76	49.855
259.14	50.286
259.51	50.437
259.88	55.927
260.25	49.451
260.62	50.959
260.99	50.689
261.36	49.861
261.73	50.798
262.10	50.262
262.47	47.750
262.85	49.067
263.22	47.044
263.59	47.059
263.96	51.128
264.33	45.679
264.70	49.877
265.07	50.488
265.44	48.394
265.81	50.236
266.18	47.368
266.55	46.099
266.92	47.427
267.29	48.904
267.66	48.879
268.03	45.964
268.40	47.992
268.77	50.220
269.14	48.590
269.51	46.325
269.88	47.959
270.25	48.380
270.62	49.356
270.99	47.059
271.36	48.374
271.73	47.799
272.10	46.061
272.47	45.040
272.84	46.307
273.21	45.868
273.58	47.166
273.95	46.407
274.32	48.054
274.69	50.394
275.06	46.266
275.43	43.870
275.80	43.585
276.17	46.875
276.54	46.168
276.91	47.948
277.28	45.985
277.65	46.679
278.02	46.140
278.39	46.043
278.76	43.793
279.13	44.662
279.50	46.182
279.87	42.831
280.23	44.567
280.60	45.620
280.97	44.655
281.34	44.719
281.71	45.043
282.08	46.154
282.45	42.905
282.82	44.983
283.19	42.448
283.56	44.132
283.92	44.951
284.29	45.258
284.66	42.353
285.03	44.279
285.40	43.471
285.77	43.210
286.14	43.653
286.51	43.098
286.87	42.405
287.24	42.042
287.61	41.641
287.98	42.687
288.35	42.519
288.72	40.212
289.08	41.892
289.45	41.616
289.82	42.969
290.19	40.703
290.56	44.541
290.93	39.856
291.29	40.608
291.66	39.548
292.03	40.673
292.40	39.295
292.77	39.554
293.13	41.655
293.50	40.486
293.87	39.431
294.24	41.678
294.60	41.050
294.97	42.657
295.34	38.645
295.71	38.896
296.08	39.733
296.44	38.755
296.81	38.958
297.18	38.276
297.55	39.901
297.91	37.931
298.28	37.681
298.65	39.877
299.02	37.998
299.38	39.089
299.75	38.902
300.12	39.106
300.48	40.867
300.85	38.856
301.22	38.605
301.59	37.854
301.95	40.257
302.32	40.047
302.69	40.271
303.05	41.190
303.42	37.892
303.79	39.653
304.15	40.594
304.52	38.478
304.89	39.765
305.25	40.712
305.62	40.512
305.99	40.000
306.35	40.316
306.72	39.958
307.09	42.236
307.45	42.027
307.82	40.638
308.19	42.371
308.55	42.600
308.92	42.983
309.29	42.209
309.65	43.013
310.02	43.103
310.38	43.270
310.75	42.430
311.12	43.199
311.48	46.429
311.85	44.466
312.22	46.991
312.58	45.578
312.95	47.476
313.31	47.846
313.68	46.904
314.05	48.443
314.41	48.696
314.78	49.811
315.14	52.133
315.51	51.561
315.87	50.639
316.24	51.261
316.61	51.835
316.97	52.661
317.34	52.561
317.70	53.819
318.07	56.406
318.43	54.569
318.80	54.904
319.16	57.867
319.53	56.283
319.89	57.437
320.26	61.546
320.62	61.355
320.99	60.820
321.35	59.276
321.72	62.524
322.08	62.789
322.45	63.488
322.81	64.867
323.18	64.476
323.54	66.899
323.91	68.631
324.27	69.231
324.64	69.377
325.00	71.724
325.37	70.995
325.73	70.573
326.10	72.577
326.46	71.429
326.83	71.760
327.19	75.984
327.56	74.601
327.92	76.885
328.29	75.696
328.65	78.853
329.01	77.417
329.38	78.173
329.74	78.309
330.11	79.062
330.47	79.199
330.84	76.704
331.20	79.019
331.56	79.016
331.93	81.266
332.29	80.357
332.66	79.422
333.02	80.155
333.38	83.159
333.75	78.649
334.11	79.698
334.48	81.368
334.84	80.490
335.20	82.207
335.57	80.269
335.93	80.572
336.29	78.192
336.66	82.333
337.02	80.325
337.38	82.459
337.75	82.601
338.11	82.025
338.47	81.795
338.84	79.424
339.20	80.779
339.56	80.320
339.93	81.187
340.29	80.672
340.65	82.649
341.02	81.416
341.38	82.266
341.74	81.728
342.11	82.972
342.47	81.788
342.83	83.593
343.20	81.649
343.56	81.176
343.92	83.320
344.28	82.536
344.65	81.500
345.01	81.349
345.37	82.212
345.73	81.984
346.10	83.028
346.46	82.536
346.82	83.719
347.19	82.535
347.55	84.075
347.91	81.949
348.27	82.262
348.63	83.228
349.00	82.559
349.36	84.669
349.72	84.786
350.08	83.929
350.45	84.996
350.81	82.798
351.17	83.821
351.53	84.527
351.89	83.838
352.26	84.051
352.62	84.691
352.98	83.742
353.34	86.595
353.70	85.780
354.07	84.769
354.43	85.868
354.79	84.586
355.15	85.681
355.51	86.858
355.87	84.262
356.24	86.913
356.60	84.247
356.96	86.581
357.32	85.531
357.68	86.197
358.04	87.386
358.40	86.507
358.77	87.754
359.13	85.285
359.49	88.362
359.85	87.193
360.21	87.073
360.57	87.737
360.93	88.023
361.29	87.951
361.66	90.082
362.02	84.943
362.38	88.745
362.74	87.473
363.10	88.780
363.46	87.362
363.82	87.798
364.18	90.256
364.54	89.628
364.90	86.680
365.26	88.966
365.62	89.779
365.98	87.612
366.35	88.966
366.71	90.146
367.07	89.215
367.43	89.725
367.79	88.497
368.15	90.231
368.51	90.351
368.87	90.693
369.23	91.684
369.59	91.234
369.95	92.168
370.31	91.650
370.67	92.228
371.03	91.246
371.39	93.075
371.75	90.928
372.11	90.823
372.47	90.548
372.83	93.202
373.19	92.186
373.55	92.852
373.91	92.196
374.27	92.262
374.63	93.695
374.99	92.655
375.35	94.892
375.71	94.657
376.07	94.960
376.42	92.711
376.78	95.376
377.14	95.740
377.50	93.883
377.86	95.452
378.22	95.612
378.58	96.368
378.94	96.138
379.30	96.847
379.66	96.629
380.02	96.012
380.38	96.663
380.74	96.597
381.09	96.145
381.45	95.549
381.81	97.281
382.17	96.337
382.53	96.701
382.89	97.989
383.25	98.401
383.61	96.427
383.97	97.720
384.32	97.951
384.68	101.485
385.04	99.062
385.40	97.153
385.76	98.245
386.12	99.629
386.48	101.033
386.83	100.306
387.19	98.057
387.55	99.234
387.91	99.307
388.27	99.643
388.62	99.120
388.98	99.650
389.34	98.691
389.70	100.000
390.06	99.756
390.42	99.136
390.77	98.219
391.13	102.414
391.49	98.730
391.85	101.846
392.20	101.371
392.56	100.717
392.92	100.618
393.28	100.617
393.64	99.885
393.99	99.229
394.35	100.471
394.71	100.000
395.07	100.061
395.42	101.230
395.78	102.653
396.14	101.205
396.50	100.301
396.85	100.305
397.21	100.782
397.57	101.016
397.92	100.058
398.28	99.669
398.64	100.873
399.00	100.481
399.35	99.141
399.71	100.221
400.07	101.142
400.42	102.030
400.78	101.173
401.14	101.820
401.49	100.634
401.85	99.884
402.21	101.757
402.57	101.376
402.92	102.606
403.28	99.940
403.63	100.118
403.99	100.603
404.35	101.465
404.70	103.131
405.06	99.439
405.42	101.317
405.77	101.488
406.13	99.349
406.49	99.261
406.84	99.605
407.20	100.685
407.55	100.677
407.91	102.425
408.27	101.455
408.62	99.468
408.98	102.011
409.34	99.240
409.69	98.942
410.05	99.404
410.40	100.059
410.76	99.370
411.11	100.296
411.47	99.506
411.83	98.125
412.18	99.698
412.54	98.679
412.89	98.348
413.25	98.347
413.60	99.883
413.96	100.180
414.31	100.118
414.67	101.614
415.03	100.128
415.38	100.063
415.74	100.948
416.09	100.375
416.45	100.194
416.80	102.822
417.16	97.454
417.51	99.618
417.87	100.375
418.22	99.696
418.58	100.255
418.93	101.249
419.29	97.967
419.64	99.637
420.00	100.179
420.35	99.535
420.71	99.417
421.06	98.999
421.42	100.173
421.77	99.112
422.12	100.717
422.48	97.843
422.83	99.442
423.19	100.000
423.54	98.300
423.90	100.170
424.25	100.881
424.61	100.696
424.96	99.209
425.31	101.423
425.67	102.076
426.02	101.010
426.38	99.125
426.73	101.504
427.09	101.364
427.44	100.225
427.79	103.431
428.15	101.650
428.50	99.429
428.85	101.235
429.21	100.594
429.56	99.900
429.92	99.652
430.27	99.516
430.62	98.483
430.98	98.653
431.33	99.849
431.68	98.321
432.04	98.965
432.39	101.043
432.74	100.468
433.10	100.332
433.45	103.389
433.80	101.931
434.16	99.895
434.51	101.238
434.86	102.395
435.22	100.216
435.57	101.482
435.92	102.049
436.28	102.304
436.63	100.162
436.98	101.802
437.34	100.514
437.69	99.776
438.04	100.269
438.39	100.175
438.75	100.724
439.10	100.162
439.45	98.361
439.81	100.636
440.16	101.266
440.51	98.592
440.86	101.481
441.22	99.297
441.57	102.467
441.92	99.654
442.27	99.639
442.63	99.949
442.98	98.545
443.33	100.161
443.68	102.414
444.03	99.529
444.39	101.554
444.74	99.379
445.09	99.947
445.44	99.575
445.79	99.854
446.15	99.737
446.50	100.105
446.85	99.402
447.20	100.796
447.55	101.631
447.91	102.291
448.26	99.574
448.61	100.498
448.96	99.455
449.31	102.035
449.66	100.720
450.02	99.892
450.37	100.777
450.72	100.496
451.07	97.848
451.42	99.763
451.77	100.802
452.12	99.773
452.47	99.575
452.83	101.239
453.18	99.760
453.53	100.237
453.88	99.600
454.23	100.697
454.58	97.786
454.93	100.061
455.28	100.122
455.63	101.596
455.98	97.688
456.34	99.392
456.69	100.122
457.04	98.807
457.39	99.714
457.74	99.268
458.09	97.979
458.44	98.083
458.79	98.939
459.14	98.854
459.49	97.792
459.84	100.000
460.19	96.893
460.54	97.778
460.89	98.188
461.24	96.334
461.59	97.052
461.94	99.350
462.29	98.284
462.64	98.807
462.99	98.592
463.34	97.084
463.69	98.306
464.04	99.424
464.39	95.936
464.74	96.131
465.09	94.951
465.44	96.627
465.79	96.952
466.14	94.277
466.49	96.419
466.84	94.872
467.19	94.669
467.54	94.535
467.89	96.303
468.24	95.310
468.59	95.893
468.94	96.860
469.29	95.541
469.64	94.984
469.99	95.501
470.34	95.636
470.68	94.207
471.03	95.730
471.38	95.894
471.73	94.709
472.08	97.260
472.43	94.165
472.78	94.110
473.13	93.867
473.48	95.355
473.83	93.581
474.17	95.137
474.52	92.595
474.87	92.723
475.22	92.861
475.57	91.973
475.92	92.437
476.27	92.383
476.61	91.689
476.96	92.894
477.31	93.985
477.66	94.686
478.01	91.336
478.36	92.533
478.70	90.471
479.05	92.521
479.40	92.312
479.75	91.559
480.10	91.578
480.45	92.017
480.79	90.415
481.14	91.441
481.49	90.119
481.84	88.874
482.19	91.223
482.53	89.284
482.88	89.561
483.23	89.671
483.58	90.440
483.92	90.494
484.27	88.870
484.62	89.177
484.97	88.041
485.31	87.408
485.66	86.769
486.01	84.673
486.36	84.247
486.70	83.955
487.05	83.574
487.40	84.829
487.75	85.866
488.09	85.199
488.44	85.787
488.79	86.984
489.13	87.607
489.48	87.455
489.83	87.823
490.17	85.838
490.52	87.898
490.87	86.595
491.22	87.367
491.56	86.737
491.91	87.724
492.26	86.592
492.60	88.109
492.95	86.769
493.30	84.895
493.64	85.265
493.99	86.047
494.34	86.329
494.68	85.347
495.03	85.317
495.37	85.457
495.72	86.247
496.07	85.894
496.41	83.884
496.76	84.593
497.11	85.261
497.45	83.121
497.80	86.284
498.14	84.004
498.49	82.916
498.84	84.813
499.18	84.186
499.53	84.428
499.87	82.974
500.22	83.648
500.56	83.751
500.91	84.416
501.26	82.866
501.60	83.106
501.95	83.468
502.29	82.622
502.64	81.870
502.98	81.592
503.33	81.915
503.67	81.280
504.02	82.042
504.36	81.765
504.71	82.592
505.06	81.933
505.40	81.376
505.75	80.870
506.09	80.355
506.44	81.156
506.78	81.947
507.13	82.792
507.47	80.786
507.82	81.411
508.16	82.019
508.51	81.353
508.85	80.247
509.19	82.036
509.54	80.273
509.88	80.557
510.23	80.245
510.57	78.620
510.92	79.670
511.26	81.024
511.61	79.567
511.95	78.596
512.30	78.250
512.64	79.180
512.98	80.677
513.33	78.996
513.67	79.389
514.02	79.792
514.36	77.882
514.70	79.467
515.05	78.530
515.39	80.482
515.74	80.700
516.08	79.739
516.42	80.984
516.77	79.093
517.11	78.293
517.46	77.478
517.80	78.263
518.14	79.775
518.49	77.729
518.83	76.868
519.17	78.314
519.52	78.427
519.86	77.330
520.20	78.466
520.55	77.162
520.89	78.218
521.23	78.096
521.58	76.994
521.92	78.367
522.26	75.474
522.61	77.600
522.95	78.438
523.29	77.836
523.64	76.243
523.98	76.585
524.32	76.528
524.66	76.000
525.01	76.805
525.35	75.545
525.69	76.460
526.04	76.859
526.38	77.163
526.72	75.000
527.06	74.335
527.41	75.514
527.75	77.541
528.09	74.353
528.43	75.717
528.78	75.015
529.12	76.460
529.46	73.992
529.80	72.780
530.15	74.072
530.49	74.248
530.83	73.187
531.17	74.785
531.51	73.820
531.86	71.981
532.20	72.806
532.54	73.697
532.88	73.454
533.22	72.943
533.57	73.215
533.91	73.019
534.25	70.802
534.59	71.579
534.93	70.648
535.27	71.201
535.62	70.945
535.96	71.631
536.30	73.857
536.64	73.665
536.98	70.044
537.32	70.875
537.66	71.620
538.01	70.960
538.35	71.491
538.69	69.903
539.03	69.341
539.37	70.024
539.71	70.247
540.05	71.015
540.39	70.881
540.73	69.494
541.07	69.824
541.42	70.460
541.76	70.407
542.10	69.174
542.44	69.576
542.78	68.722
543.12	67.853
543.46	67.920
543.80	69.486
544.14	69.102
544.48	68.613
544.82	68.746
545.16	67.092
545.50	68.039
545.84	68.813
546.18	70.676
546.52	68.918
546.86	68.150
547.20	68.734
547.54	67.384
547.88	66.971
548.22	66.606
548.56	65.645
548.90	66.074
549.24	68.351
549.58	65.399
549.92	65.946
550.26	68.425
550.60	66.933
550.94	68.453
551.28	68.207
551.62	68.483
551.96	66.824
552.30	65.524
552.64	66.214
552.98	66.044
553.32	65.301
553.66	65.798
554.00	65.637
554.34	66.711
554.68	65.457
555.02	66.056
555.36	64.894
555.69	65.314
556.03	64.968
556.37	64.691
556.71	65.450
557.05	64.482
557.39	63.400
557.73	65.364
558.07	64.789
558.41	66.347
558.75	64.501
559.08	67.262
559.42	67.144
559.76	65.930
560.10	64.556
560.44	63.703
560.78	64.003
561.12	63.636
561.45	63.517
561.79	62.297
562.13	63.866
562.47	63.141
562.81	64.476
563.15	63.348
563.48	60.621
563.82	63.568
564.16	61.070
564.50	61.603
564.84	63.343
565.17	60.547
565.51	63.855
565.85	62.616
566.19	61.786
566.52	61.372
566.86	61.354
567.20	61.180
567.54	61.135
567.88	61.920
568.21	59.011
568.55	60.214
568.89	60.173
569.23	59.491
569.56	59.185
569.90	58.426
570.24	58.262
570.57	58.761
570.91	58.627
571.25	57.473
571.59	56.091
571.92	55.651
572.26	55.553
572.60	55.735
572.93	56.527
573.27	57.237
573.61	56.903
573.95	56.673
574.28	56.374
574.62	55.845
574.96	54.046
575.29	54.652
575.63	54.605
575.97	53.797
576.30	54.796
576.64	54.707
576.98	54.678
577.31	55.745
577.65	54.935
577.98	54.262
578.32	53.783
578.66	53.946
578.99	54.521
579.33	53.293
579.67	53.981
580.00	53.566
580.34	54.180
580.67	52.752
581.01	53.851
581.35	53.449
581.68	52.893
582.02	53.268
582.35	53.639
582.69	53.439
583.02	53.331
583.36	53.048
583.70	53.655
584.03	54.164
584.37	53.534
584.70	53.645
585.04	52.415
585.37	53.133
585.71	53.506
586.04	51.956
586.38	52.621
586.72	53.282
587.05	52.934
587.39	52.693
587.72	53.184
588.06	52.620
588.39	52.303
588.73	53.092
589.06	53.283
589.40	53.208
589.73	53.097
590.07	53.569
590.40	53.624
590.73	54.168
591.07	53.852
591.40	52.894
591.74	53.287
592.07	54.201
592.41	53.397
592.74	52.691
593.08	52.441
593.41	51.676
593.75	51.449
594.08	52.356
594.41	51.548
594.75	51.678
595.08	51.715
595.42	51.481
595.75	51.530
596.09	52.381
596.42	51.602
596.75	52.885
597.09	52.786
597.42	51.755
597.75	51.724
598.09	51.785
598.42	52.428
598.76	50.810
599.09	51.416
599.42	50.277
599.76	51.493
600.09	50.373
600.42	50.967
600.76	50.578
601.09	50.431
601.42	50.686
601.76	50.269
602.09	50.993
602.42	49.945
602.76	51.120
603.09	51.018
603.42	49.982
603.76	49.964
604.09	49.222
604.42	51.036
604.76	50.612
605.09	51.020
605.42	49.695
605.75	50.217
606.09	50.612
606.42	49.718
606.75	49.398
607.09	50.059
607.42	50.261
607.75	49.403
608.08	48.781
608.42	50.336
608.75	49.807
609.08	49.890
609.41	51.182
609.75	51.099
610.08	50.180
610.41	50.461
610.74	49.437
611.07	51.205
611.41	50.371
611.74	50.478
612.07	50.048
612.40	49.366
612.73	50.325
613.07	50.076
613.40	50.276
613.73	49.925
614.06	49.350
614.39	50.202
614.72	49.272
615.06	49.110
615.39	48.911
615.72	48.161
616.05	49.925
616.38	48.960
616.71	49.756
617.05	49.973
617.38	47.809
617.71	49.100
618.04	49.860
618.37	50.639
618.70	50.000
619.03	49.206
619.36	50.377
619.69	49.274
620.03	51.402
620.36	50.161
620.69	50.639
621.02	50.408
621.35	49.570
621.68	50.959
622.01	51.513
622.34	49.454
622.67	50.913
623.00	48.604
623.33	49.798
623.66	49.368
623.99	50.068
624.32	50.407
624.65	49.309
624.99	49.493
625.32	48.898
625.65	48.897
625.98	48.536
626.31	49.481
626.64	49.506
626.97	48.891
627.30	50.621
627.63	49.843
627.96	49.531
628.29	50.248
