SpectraSuite Data File
++++++++++++++++++++++++++++++++++++
Date: Tue May 12 16:35:58 PDT 2015
User: schluterlab
Dark Spectrum Present: Yes
Reference Spectrum Present: Yes
Number of Sampled Component Spectra: 1
Spectrometers: USB2E3373
Integration Time (usec): 3000 (USB2E3373)
Spectra Averaged: 3 (USB2E3373)
Boxcar Smoothing: 0 (USB2E3373)
Correct for Electrical Dark: No (USB2E3373)
Strobe/Lamp Enabled: No (USB2E3373)
Correct for Detector Non-linearity: No (USB2E3373)
Correct for Stray Light: No (USB2E3373)
Number of Pixels in Processed Spectrum: 2048
>>>>>Begin Processed Spectral Data<<<<<
178.53	0.000
178.91	-225.000
179.29	-600.000
179.67	-4100.000
180.04	-113.333
180.42	550.000
180.80	1200.000
181.18	0.000
181.56	-162.500
181.94	0.000
182.31	1233.333
182.69	-2800.000
183.07	514.286
183.45	-3600.000
183.83	-1650.000
184.20	420.000
184.58	714.286
184.96	-292.308
185.34	-241.667
185.72	1800.000
186.09	-800.000
186.47	-2800.000
186.85	1033.333
187.23	620.000
187.61	1500.000
187.98	437.500
188.36	192.857
188.74	283.333
189.12	358.333
189.49	925.000
189.87	0.000
190.25	350.000
190.63	3300.000
191.00	-166.667
191.38	-3400.000
191.76	-650.000
192.14	512.500
192.51	-2500.000
192.89	1600.000
193.27	800.000
193.65	-1166.667
194.02	-640.000
194.40	457.143
194.78	-235.714
195.15	240.000
195.53	-3100.000
195.91	-500.000
196.29	4000.000
196.66	218.750
197.04	1000.000
197.42	-1750.000
197.79	725.000
198.17	341.667
198.55	0.000
198.92	485.714
199.30	1233.333
199.68	1950.000
200.05	800.000
200.43	-466.667
200.81	205.556
201.18	3200.000
201.56	308.333
201.94	-825.000
202.31	-275.000
202.69	-580.000
203.07	3300.000
203.44	-400.000
203.82	358.333
204.19	640.000
204.57	-950.000
204.95	-725.000
205.32	-780.000
205.70	516.667
206.08	750.000
206.45	-1000.000
206.83	388.889
207.20	157.895
207.58	275.000
207.96	680.000
208.33	0.000
208.71	585.714
209.08	560.000
209.46	-2800.000
209.84	-925.000
210.21	780.000
210.59	-520.000
210.96	316.667
211.34	-900.000
211.71	318.182
212.09	750.000
212.46	1600.000
212.84	-483.333
213.22	411.111
213.59	-3400.000
213.97	330.000
214.34	775.000
214.72	1166.667
215.09	933.333
215.47	-2700.000
215.84	-430.000
216.22	-412.500
216.59	0.000
216.97	0.000
217.34	1100.000
217.72	-1800.000
218.09	1433.333
218.47	475.000
218.84	800.000
219.22	1200.000
219.59	600.000
219.97	557.143
220.34	388.889
220.72	1500.000
221.09	3000.000
221.47	258.333
221.84	933.333
222.22	360.000
222.59	233.333
222.97	214.286
223.34	237.500
223.72	-1800.000
224.09	1166.667
224.46	346.154
224.84	-825.000
225.21	355.556
225.59	273.333
225.96	1300.000
226.34	-600.000
226.71	-600.000
227.08	-580.000
227.46	0.000
227.83	-466.667
228.21	-1550.000
228.58	291.667
228.95	950.000
229.33	344.444
229.70	1050.000
230.08	361.538
230.45	3800.000
230.82	-850.000
231.20	-900.000
231.57	-1133.333
231.95	580.000
232.32	341.667
232.69	616.667
233.07	233.333
233.44	-1800.000
233.81	340.000
234.19	170.370
234.56	206.250
234.93	176.471
235.31	190.000
235.68	237.500
236.05	171.429
236.43	125.926
236.80	278.571
237.17	172.414
237.55	121.875
237.92	100.000
238.29	124.242
238.67	150.000
239.04	107.317
239.41	79.167
239.79	97.500
240.16	85.417
240.53	78.689
240.91	84.058
241.28	88.136
241.65	83.333
242.02	85.915
242.40	87.143
242.77	71.429
243.14	63.291
243.51	75.758
243.89	59.813
244.26	65.421
244.63	55.446
245.00	58.716
245.38	64.407
245.75	57.576
246.12	62.963
246.49	46.099
246.87	50.000
247.24	55.333
247.61	57.500
247.98	61.905
248.36	51.515
248.73	60.204
249.10	51.786
249.47	51.000
249.84	49.751
250.22	48.649
250.59	47.000
250.96	41.772
251.33	51.163
251.70	51.339
252.08	45.798
252.45	44.223
252.82	45.247
253.19	41.107
253.56	42.692
253.94	45.290
254.31	51.163
254.68	48.084
255.05	48.276
255.42	45.255
255.79	45.928
256.16	44.407
256.54	46.753
256.91	45.098
257.28	43.478
257.65	46.082
258.02	43.658
258.39	45.272
258.76	42.899
259.14	44.286
259.51	44.315
259.88	46.809
260.25	42.033
260.62	40.274
260.99	39.945
261.36	43.454
261.73	42.021
262.10	43.979
262.47	38.750
262.85	44.533
263.22	45.501
263.59	43.734
263.96	42.857
264.33	42.963
264.70	46.683
265.07	44.390
265.44	41.514
265.81	42.453
266.18	44.851
266.55	42.080
266.92	42.953
267.29	44.079
267.66	41.928
268.03	42.377
268.40	41.860
268.77	42.291
269.14	40.130
269.51	38.976
269.88	39.796
270.25	41.685
270.62	43.133
270.99	39.351
271.36	40.041
271.73	40.671
272.10	39.798
272.47	40.278
272.84	40.319
273.21	39.463
273.58	40.688
273.95	41.889
274.32	37.743
274.69	42.323
275.06	41.166
275.43	39.655
275.80	39.245
276.17	40.074
276.54	37.383
276.91	38.806
277.28	39.416
277.65	41.144
278.02	39.522
278.39	37.950
278.76	38.276
279.13	38.968
279.50	38.545
279.87	38.361
280.23	37.569
280.60	40.511
280.97	39.310
281.34	38.449
281.71	39.130
282.08	40.000
282.45	38.682
282.82	39.298
283.19	36.248
283.56	37.190
283.92	39.739
284.29	36.938
284.66	36.639
285.03	38.308
285.40	37.851
285.77	37.346
286.14	36.378
286.51	36.350
286.87	35.601
287.24	34.084
287.61	35.866
287.98	36.119
288.35	34.519
288.72	35.812
289.08	34.384
289.45	36.738
289.82	35.156
290.19	37.042
290.56	34.061
290.93	36.978
291.29	33.840
291.66	35.028
292.03	35.764
292.40	34.011
292.77	32.869
293.13	34.522
293.50	32.928
293.87	32.791
294.24	33.986
294.60	34.455
294.97	35.385
295.34	33.333
295.71	32.720
296.08	32.667
296.44	33.291
296.81	32.754
297.18	33.080
297.55	31.281
297.91	32.266
298.28	31.522
298.65	31.288
299.02	31.122
299.38	29.616
299.75	30.610
300.12	32.454
300.48	33.724
300.85	32.420
301.22	32.093
301.59	32.075
301.95	33.139
302.32	33.295
302.69	32.127
303.05	32.660
303.42	32.511
303.79	31.744
304.15	32.123
304.52	32.135
304.89	31.876
305.25	32.481
305.62	31.876
305.99	32.609
306.35	33.263
306.72	33.819
307.09	32.505
307.45	32.418
307.82	32.407
308.19	32.268
308.55	31.800
308.92	34.053
309.29	33.925
309.65	33.796
310.02	34.888
310.38	32.901
310.75	32.980
311.12	32.854
311.48	33.880
311.85	34.924
312.22	35.530
312.58	34.888
312.95	35.631
313.31	36.330
313.68	36.492
314.05	35.806
314.41	36.592
314.78	37.121
315.14	36.398
315.51	37.370
315.87	37.774
316.24	38.002
316.61	39.302
316.97	38.349
317.34	39.263
317.70	40.211
318.07	39.947
318.43	40.070
318.80	41.856
319.16	40.647
319.53	40.796
319.89	40.412
320.26	41.434
320.62	43.498
320.99	43.279
321.35	42.301
321.72	43.738
322.08	44.691
322.45	43.415
322.81	44.922
323.18	45.737
323.54	46.429
323.91	46.056
324.27	46.596
324.64	46.886
325.00	48.448
325.37	47.218
325.73	48.651
326.10	49.379
326.46	49.546
326.83	50.160
327.19	51.566
327.56	50.799
327.92	51.967
328.29	53.110
328.65	52.997
329.01	52.524
329.38	52.030
329.74	52.348
330.11	51.520
330.47	54.731
330.84	51.855
331.20	52.453
331.56	54.404
331.93	53.807
332.29	52.721
332.66	54.422
333.02	52.491
333.38	55.323
333.75	53.294
334.11	54.111
334.48	54.359
334.84	52.872
335.20	53.636
335.57	54.828
335.93	54.415
336.29	53.814
336.66	55.317
337.02	53.978
337.38	54.256
337.75	53.716
338.11	57.722
338.47	52.667
338.84	53.006
339.20	53.680
339.56	53.574
339.93	54.431
340.29	53.277
340.65	55.071
341.02	54.626
341.38	53.941
341.74	55.150
342.11	54.674
342.47	54.143
342.83	56.194
343.20	54.891
343.56	52.820
343.92	55.244
344.28	54.386
344.65	54.931
345.01	54.048
345.37	55.609
345.73	53.333
346.10	54.980
346.46	55.742
346.82	53.858
347.19	55.332
347.55	53.708
347.91	54.154
348.27	53.834
348.63	56.171
349.00	54.989
349.36	56.498
349.72	56.040
350.08	54.581
350.45	55.903
350.81	55.352
351.17	56.086
351.53	55.350
351.89	55.789
352.26	56.992
352.62	55.882
352.98	55.675
353.34	57.781
353.70	57.416
354.07	56.846
354.43	57.373
354.79	55.049
355.15	56.585
355.51	56.344
355.87	57.229
356.24	57.814
356.60	56.240
356.96	57.847
357.32	56.368
357.68	56.975
358.04	56.915
358.40	57.271
358.77	58.077
359.13	58.333
359.49	57.228
359.85	57.260
360.21	58.098
360.57	57.810
360.93	58.442
361.29	58.225
361.66	60.626
362.02	56.179
362.38	59.452
362.74	58.457
363.10	59.257
363.46	58.080
363.82	58.065
364.18	59.246
364.54	59.728
364.90	59.505
365.26	60.583
365.62	60.704
365.98	58.431
366.35	59.517
366.71	60.167
367.07	59.181
367.43	59.100
367.79	58.710
368.15	59.430
368.51	60.924
368.87	60.258
369.23	61.331
369.59	59.744
369.95	61.399
370.31	59.548
370.67	60.791
371.03	60.854
371.39	60.873
371.75	60.991
372.11	61.251
372.47	60.959
372.83	62.542
373.19	62.029
373.55	62.199
373.91	60.981
374.27	61.045
374.63	62.034
374.99	62.601
375.35	62.970
375.71	61.544
376.07	62.202
376.42	61.317
376.78	63.134
377.14	64.089
377.50	61.673
377.86	62.972
378.22	64.778
378.58	63.620
378.94	63.790
379.30	63.978
379.66	64.600
380.02	64.106
380.38	62.061
380.74	65.283
381.09	63.318
381.45	61.792
381.81	64.598
382.17	64.957
382.53	65.747
382.89	65.405
383.25	64.121
383.61	62.824
383.97	64.007
384.32	64.919
384.68	65.657
385.04	65.533
385.40	64.591
385.76	65.067
386.12	65.182
386.48	66.565
386.83	67.421
387.19	65.489
387.55	64.959
387.91	65.935
388.27	66.805
388.62	65.552
388.98	65.423
389.34	65.259
389.70	64.976
390.06	66.341
390.42	66.317
390.77	65.786
391.13	66.023
391.49	66.909
391.85	66.462
392.20	66.269
392.56	66.249
392.92	65.525
393.28	66.200
393.64	66.858
393.99	65.738
394.35	65.745
394.71	64.113
395.07	66.363
395.42	66.803
395.78	66.564
396.14	66.446
396.50	66.546
396.85	65.366
397.21	66.486
397.57	66.467
397.92	64.125
398.28	66.630
398.64	65.852
399.00	64.725
399.35	65.271
399.71	65.728
400.07	66.153
400.42	65.672
400.78	66.510
401.14	66.412
401.49	65.726
401.85	67.439
402.21	65.847
402.57	67.983
402.92	67.152
403.28	65.453
403.63	66.510
403.99	65.862
404.35	66.530
404.70	68.340
405.06	65.076
405.42	66.367
405.77	66.097
406.13	64.534
406.49	65.435
406.84	65.087
407.20	65.068
407.55	65.600
407.91	65.986
408.27	65.676
408.62	65.642
408.98	65.523
409.34	64.641
409.69	66.895
410.05	65.593
410.40	66.254
410.76	65.369
411.11	66.232
411.47	64.444
411.83	64.558
412.18	65.036
412.54	65.285
412.89	63.599
413.25	64.823
413.60	66.297
413.96	64.692
414.31	62.928
414.67	66.418
415.03	64.112
415.38	66.814
415.74	65.509
416.09	63.960
416.45	65.999
416.80	66.838
417.16	63.908
417.51	65.478
417.87	64.831
418.22	65.917
418.58	64.968
418.93	64.247
419.29	63.463
419.64	65.173
420.00	65.453
420.35	64.750
420.71	64.469
421.06	65.627
421.42	64.479
421.77	65.908
422.12	65.601
422.48	64.304
422.83	63.560
423.19	63.877
423.54	64.125
423.90	66.535
424.25	65.658
424.61	64.771
424.96	64.879
425.31	65.627
425.67	65.320
426.02	65.059
426.38	64.119
426.73	64.777
427.09	64.235
427.44	65.053
427.79	65.523
428.15	65.763
428.50	65.771
428.85	66.020
429.21	64.506
429.56	65.653
429.92	65.241
430.27	63.135
430.62	62.457
430.98	62.425
431.33	63.206
431.68	62.667
432.04	63.580
432.39	64.544
432.74	65.398
433.10	65.282
433.45	64.561
433.80	65.637
434.16	64.162
434.51	64.396
434.86	65.161
435.22	63.911
435.57	64.256
435.92	66.363
436.28	64.516
436.63	63.371
436.98	65.766
437.34	63.927
437.69	63.494
438.04	63.011
438.39	65.616
438.75	63.697
439.10	63.465
439.45	63.708
439.81	65.067
440.16	65.107
440.51	62.950
440.86	64.786
441.22	63.312
441.57	64.672
441.92	63.327
442.27	63.505
442.63	62.652
442.98	64.116
443.33	64.006
443.68	63.632
444.03	63.242
444.39	63.559
444.74	63.768
445.09	63.454
445.44	63.177
445.79	62.719
446.15	63.526
446.50	62.395
446.85	62.849
447.20	63.184
447.55	63.513
447.91	64.198
448.26	62.354
448.61	63.847
448.96	64.325
449.31	62.596
449.66	63.012
450.02	62.021
450.37	64.187
450.72	62.865
451.07	64.165
451.42	62.833
451.77	62.829
452.12	63.415
452.47	63.426
452.83	63.775
453.18	63.724
453.53	64.239
453.88	63.657
454.23	63.393
454.58	62.063
454.93	62.784
455.28	63.464
455.63	63.239
455.98	63.790
456.34	63.769
456.69	63.171
457.04	63.246
457.39	62.800
457.74	63.345
458.09	62.212
458.44	62.267
458.79	62.865
459.14	62.793
459.49	61.268
459.84	63.370
460.19	61.921
460.54	62.393
460.89	63.113
461.24	60.309
461.59	62.755
461.94	63.061
462.29	62.300
462.64	63.191
462.99	62.636
463.34	62.346
463.69	62.129
464.04	61.716
464.39	61.878
464.74	61.313
465.09	61.172
465.44	60.773
465.79	61.404
466.14	60.095
466.49	60.825
466.84	60.201
467.19	60.867
467.54	60.721
467.89	62.148
468.24	60.915
468.59	61.429
468.94	61.836
469.29	63.042
469.64	61.929
469.99	60.925
470.34	61.037
470.68	61.724
471.03	62.642
471.38	61.258
471.73	60.941
472.08	62.361
472.43	62.259
472.78	62.356
473.13	60.013
473.48	62.042
473.83	61.837
474.17	60.547
474.52	60.367
474.87	59.750
475.22	60.822
475.57	58.919
475.92	59.223
476.27	58.705
476.61	59.357
476.96	58.986
477.31	61.285
477.66	61.728
478.01	59.567
478.36	59.835
478.70	58.908
479.05	59.467
479.40	58.929
479.75	60.874
480.10	60.552
480.45	59.617
480.79	59.677
481.14	58.963
481.49	58.646
481.84	58.487
482.19	58.777
482.53	58.015
482.88	59.140
483.23	59.314
483.58	59.066
483.92	60.375
484.27	57.277
484.62	57.980
484.97	56.876
485.31	57.238
485.66	54.823
486.01	52.883
486.36	52.323
486.70	51.964
487.05	53.056
487.40	53.704
487.75	54.953
488.09	54.545
488.44	55.609
488.79	55.467
489.13	56.663
489.48	56.692
489.83	56.839
490.17	57.267
490.52	58.226
490.87	57.026
491.22	58.688
491.56	57.444
491.91	58.244
492.26	57.105
492.60	58.041
492.95	58.541
493.30	58.690
493.64	57.727
493.99	57.379
494.34	57.060
494.68	57.503
495.03	57.791
495.37	57.091
495.72	57.716
496.07	56.604
496.41	56.082
496.76	56.057
497.11	56.170
497.45	55.984
497.80	58.063
498.14	56.449
498.49	57.382
498.84	56.822
499.18	57.130
499.53	56.592
499.87	56.559
500.22	56.702
500.56	56.453
500.91	56.586
501.26	56.132
501.60	55.100
501.95	56.631
502.29	55.511
502.64	55.007
502.98	55.892
503.33	55.768
503.67	55.453
504.02	55.217
504.36	55.475
504.71	56.197
505.06	56.171
505.40	56.013
505.75	55.005
506.09	55.296
506.44	55.686
506.78	56.096
507.13	56.956
507.47	55.313
507.82	56.642
508.16	56.786
508.51	57.826
508.85	54.701
509.19	56.437
509.54	55.371
509.88	56.191
510.23	55.686
510.57	54.295
510.92	55.894
511.26	57.580
511.61	55.391
511.95	54.853
512.30	56.050
512.64	56.386
512.98	55.407
513.33	54.867
513.67	56.189
514.02	54.338
514.36	55.504
514.70	54.987
515.05	55.834
515.39	57.346
515.74	56.479
516.08	56.427
516.42	57.596
516.77	55.307
517.11	56.320
517.46	56.196
517.80	55.980
518.14	57.239
518.49	56.670
518.83	55.440
519.17	55.574
519.52	55.926
519.86	55.640
520.20	55.836
520.55	56.077
520.89	56.322
521.23	56.659
521.58	55.307
521.92	56.093
522.26	56.576
522.61	56.982
522.95	56.997
523.29	57.076
523.64	55.723
523.98	56.631
524.32	55.998
524.66	55.362
525.01	56.568
525.35	56.806
525.69	56.773
526.04	55.503
526.38	56.033
526.72	55.609
527.06	55.352
527.41	57.316
527.75	55.326
528.09	56.893
528.43	56.132
528.78	55.814
529.12	56.773
529.46	55.231
529.80	55.666
530.15	54.154
530.49	54.994
530.83	55.637
531.17	55.228
531.51	55.549
531.86	53.865
532.20	54.141
532.54	54.865
532.88	55.903
533.22	54.357
533.57	55.095
533.91	53.030
534.25	52.164
534.59	53.626
534.93	52.218
535.27	52.305
535.62	53.384
535.96	52.837
536.30	54.906
536.64	53.292
536.98	52.675
537.32	53.875
537.66	54.592
538.01	53.189
538.35	53.837
538.69	52.367
539.03	52.363
539.37	53.216
539.71	52.778
540.05	53.415
540.39	53.082
540.73	54.051
541.07	52.384
541.42	52.799
541.76	53.144
542.10	51.665
542.44	52.244
542.78	52.297
543.12	50.245
543.46	52.694
543.80	52.506
544.14	52.570
544.48	52.068
544.82	52.599
545.16	50.759
545.50	50.891
545.84	50.568
546.18	52.926
546.52	53.443
546.86	51.966
547.20	51.227
547.54	51.172
547.88	50.608
548.22	51.305
548.56	50.442
548.90	49.941
549.24	51.737
549.58	52.255
549.92	50.950
550.26	51.792
550.60	52.096
550.94	52.035
551.28	53.103
551.62	53.655
551.96	52.365
552.30	50.956
552.64	50.162
552.98	51.353
553.32	49.872
553.66	49.772
554.00	49.871
554.34	51.598
554.68	50.806
555.02	51.188
555.36	50.864
555.69	49.804
556.03	51.019
556.37	49.713
556.71	50.391
557.05	49.279
557.39	50.800
557.73	50.606
558.07	50.637
558.41	50.308
558.75	51.778
559.08	50.536
559.42	52.613
559.76	52.530
560.10	49.897
560.44	49.237
560.78	50.959
561.12	50.668
561.45	49.812
561.79	48.752
562.13	48.958
562.47	48.670
562.81	49.837
563.15	48.933
563.48	47.950
563.82	49.532
564.16	50.435
564.50	48.764
564.84	48.389
565.17	48.901
565.51	49.076
565.85	50.339
566.19	49.464
566.52	47.473
566.86	48.920
567.20	48.258
567.54	46.616
567.88	47.053
568.21	45.831
568.55	46.158
568.89	44.343
569.23	44.780
569.56	44.449
569.90	42.652
570.24	42.555
570.57	42.213
570.91	40.967
571.25	41.845
571.59	40.440
571.92	40.581
572.26	40.135
572.60	39.961
572.93	41.863
573.27	40.638
573.61	40.715
573.95	40.239
574.28	40.015
574.62	39.637
574.96	39.150
575.29	39.122
575.63	38.799
575.97	38.608
576.30	39.231
576.64	39.358
576.98	38.704
577.31	39.440
577.65	38.484
577.98	37.830
578.32	37.732
578.66	37.344
578.99	38.221
579.33	38.678
579.67	38.403
580.00	38.202
580.34	38.131
580.67	37.696
581.01	38.315
581.35	38.322
581.68	37.468
582.02	37.012
582.35	36.975
582.69	37.332
583.02	37.507
583.36	37.988
583.70	38.760
584.03	39.224
584.37	38.970
584.70	38.567
585.04	37.901
585.37	37.286
585.71	38.382
586.04	38.028
586.38	38.090
586.72	38.919
587.05	38.755
587.39	38.230
587.72	37.790
588.06	38.540
588.39	38.306
588.73	37.783
589.06	39.014
589.40	39.531
589.73	39.036
590.07	40.426
590.40	40.592
590.73	40.727
591.07	40.759
591.40	40.319
591.74	41.071
592.07	40.100
592.41	40.647
592.74	39.509
593.08	38.639
593.41	37.941
593.75	37.950
594.08	38.251
594.41	38.286
594.75	38.836
595.08	38.580
595.42	39.269
595.75	38.203
596.09	38.860
596.42	38.674
596.75	39.784
597.09	39.868
597.42	38.776
597.75	39.594
598.09	40.254
598.42	38.841
598.76	39.052
599.09	39.095
599.42	37.820
599.76	37.585
600.09	37.390
600.42	37.880
600.76	37.559
601.09	38.488
601.42	37.768
601.76	38.525
602.09	38.484
602.42	37.338
602.76	38.330
603.09	38.612
603.42	38.606
603.76	39.009
604.09	38.328
604.42	38.154
604.76	38.720
605.09	38.939
605.42	39.334
605.75	38.571
606.09	38.409
606.42	37.768
606.75	38.749
607.09	38.571
607.42	38.329
607.75	37.580
608.08	38.099
608.42	38.087
608.75	39.024
609.08	39.023
609.41	39.364
609.75	39.744
610.08	40.018
610.41	38.560
610.74	38.961
611.07	39.427
611.41	39.249
611.74	39.675
612.07	39.933
612.40	39.766
612.73	39.740
613.07	39.584
613.40	39.449
613.73	39.141
614.06	38.800
614.39	40.808
614.72	38.624
615.06	38.724
615.39	38.861
615.72	38.577
616.05	39.377
616.38	39.219
616.71	40.098
617.05	39.044
617.38	39.494
617.71	41.057
618.04	39.989
618.37	40.300
618.70	40.185
619.03	41.331
619.36	41.269
619.69	41.359
620.03	42.270
620.36	40.462
620.69	42.273
621.02	43.003
621.35	42.049
621.68	43.584
622.01	43.911
622.34	42.607
622.67	42.416
623.00	41.661
623.33	41.430
623.66	42.648
623.99	41.849
624.32	41.938
624.65	40.816
624.99	41.717
625.32	41.483
625.65	41.448
625.98	40.795
626.31	43.546
626.64	42.141
626.97	42.387
627.30	42.702
627.63	43.878
627.96	42.488
628.29	45.050
628.62	43.627
628.95	46.099
629.28	44.084
629.61	45.079
629.94	44.252
630.26	44.541
630.59	45.213
630.92	44.126
631.25	44.696
