SpectraSuite Data File
++++++++++++++++++++++++++++++++++++
Date: Tue May 12 16:05:39 PDT 2015
User: schluterlab
Dark Spectrum Present: Yes
Reference Spectrum Present: Yes
Number of Sampled Component Spectra: 1
Spectrometers: USB2E3373
Integration Time (usec): 3000 (USB2E3373)
Spectra Averaged: 3 (USB2E3373)
Boxcar Smoothing: 0 (USB2E3373)
Correct for Electrical Dark: No (USB2E3373)
Strobe/Lamp Enabled: No (USB2E3373)
Correct for Detector Non-linearity: No (USB2E3373)
Correct for Stray Light: No (USB2E3373)
Number of Pixels in Processed Spectrum: 2048
>>>>>Begin Processed Spectral Data<<<<<
178.53	0.000
178.91	-233.333
179.29	-825.000
179.67	-3100.000
180.04	-166.667
180.42	725.000
180.80	1550.000
181.18	0.000
181.56	-362.500
181.94	0.000
182.31	1400.000
182.69	-4200.000
183.07	657.143
183.45	-4200.000
183.83	-1500.000
184.20	400.000
184.58	600.000
184.96	-284.615
185.34	-250.000
185.72	2150.000
186.09	-750.000
186.47	-3100.000
186.85	1133.333
187.23	660.000
187.61	1750.000
187.98	425.000
188.36	335.714
188.74	383.333
189.12	400.000
189.49	850.000
189.87	0.000
190.25	350.000
190.63	2900.000
191.00	-200.000
191.38	-3800.000
191.76	-675.000
192.14	500.000
192.51	-2600.000
192.89	1450.000
193.27	1000.000
193.65	-1166.667
194.02	-860.000
194.40	500.000
194.78	-257.143
195.15	273.333
195.53	-3700.000
195.91	-620.000
196.29	4800.000
196.66	231.250
197.04	925.000
197.42	-1700.000
197.79	575.000
198.17	341.667
198.55	0.000
198.92	600.000
199.30	1200.000
199.68	1600.000
200.05	733.333
200.43	-600.000
200.81	216.667
201.18	3300.000
201.56	266.667
201.94	-850.000
202.31	-275.000
202.69	-520.000
203.07	3400.000
203.44	-433.333
203.82	341.667
204.19	600.000
204.57	-1300.000
204.95	-1125.000
205.32	-880.000
205.70	683.333
206.08	950.000
206.45	-833.333
206.83	333.333
207.20	215.789
207.58	266.667
207.96	820.000
208.33	0.000
208.71	685.714
209.08	740.000
209.46	-3200.000
209.84	-1050.000
210.21	900.000
210.59	-600.000
210.96	308.333
211.34	-1075.000
211.71	463.636
212.09	825.000
212.46	1400.000
212.84	-583.333
213.22	511.111
213.59	-3300.000
213.97	360.000
214.34	850.000
214.72	1133.333
215.09	1200.000
215.47	-3400.000
215.84	-410.000
216.22	-487.500
216.59	0.000
216.97	0.000
217.34	1500.000
217.72	-1250.000
218.09	1233.333
218.47	487.500
218.84	925.000
219.22	1133.333
219.59	800.000
219.97	500.000
220.34	488.889
220.72	1600.000
221.09	3700.000
221.47	300.000
221.84	1000.000
222.22	290.000
222.59	211.111
222.97	228.571
223.34	212.500
223.72	-1600.000
224.09	1233.333
224.46	238.462
224.84	-900.000
225.21	400.000
225.59	260.000
225.96	1200.000
226.34	-580.000
226.71	-800.000
227.08	-580.000
227.46	0.000
227.83	-600.000
228.21	-1900.000
228.58	358.333
228.95	1100.000
229.33	388.889
229.70	1025.000
230.08	300.000
230.45	3200.000
230.82	-1050.000
231.20	-966.667
231.57	-1266.667
231.95	560.000
232.32	325.000
232.69	350.000
233.07	266.667
233.44	-1350.000
233.81	246.667
234.19	155.556
234.56	206.250
234.93	229.412
235.31	235.000
235.68	218.750
236.05	160.714
236.43	181.481
236.80	200.000
237.17	110.345
237.55	90.625
237.92	85.000
238.29	127.273
238.67	106.250
239.04	100.000
239.41	60.417
239.79	60.000
240.16	68.750
240.53	57.377
240.91	53.623
241.28	54.237
241.65	46.970
242.02	64.789
242.40	41.429
242.77	41.758
243.14	24.051
243.51	46.465
243.89	42.056
244.26	29.907
244.63	27.723
245.00	35.780
245.38	16.949
245.75	26.515
246.12	36.296
246.49	20.567
246.87	16.393
247.24	28.667
247.61	18.750
247.98	18.367
248.36	20.606
248.73	27.551
249.10	12.500
249.47	19.500
249.84	16.915
250.22	20.541
250.59	14.500
250.96	17.300
251.33	15.814
251.70	15.625
252.08	12.185
252.45	15.538
252.82	15.589
253.19	13.043
253.56	11.538
253.94	11.957
254.31	13.566
254.68	15.679
255.05	13.793
255.42	12.774
255.79	11.075
256.16	13.898
256.54	13.636
256.91	14.052
257.28	13.712
257.65	9.718
258.02	12.094
258.39	15.473
258.76	11.884
259.14	8.571
259.51	11.079
259.88	10.030
260.25	9.341
260.62	10.685
260.99	9.091
261.36	10.864
261.73	10.638
262.10	8.377
262.47	9.250
262.85	9.067
263.22	8.997
263.59	10.742
263.96	10.276
264.33	7.160
264.70	8.845
265.07	10.000
265.44	11.009
265.81	9.198
266.18	8.009
266.55	7.092
266.92	6.488
267.29	7.895
267.66	7.175
268.03	5.830
268.40	8.668
268.77	8.811
269.14	5.640
269.51	6.682
269.88	8.571
270.25	4.104
270.62	8.155
270.99	8.519
271.36	8.537
271.73	7.547
272.10	7.677
272.47	7.341
272.84	7.186
273.21	7.231
273.58	8.097
273.95	5.544
274.32	6.226
274.69	9.449
275.06	7.468
275.43	5.939
275.80	5.472
276.17	8.456
276.54	8.411
276.91	5.597
277.28	9.124
277.65	7.565
278.02	5.699
278.39	7.374
278.76	7.414
279.13	5.338
279.50	6.182
279.87	3.911
280.23	6.446
280.60	5.292
280.97	6.034
281.34	6.601
281.71	6.957
282.08	7.350
282.45	6.757
282.82	7.525
283.19	7.631
283.56	5.455
283.92	5.863
284.29	8.153
284.66	4.874
285.03	4.146
285.40	5.785
285.77	4.475
286.14	7.121
286.51	5.521
286.87	3.797
287.24	4.805
287.61	6.231
287.98	6.716
288.35	4.148
288.72	6.373
289.08	5.856
289.45	6.555
289.82	6.250
290.19	5.417
290.56	6.696
290.93	5.180
291.29	5.387
291.66	4.661
292.03	5.189
292.40	5.827
292.77	5.014
293.13	4.565
293.50	5.803
293.87	5.420
294.24	5.874
294.60	4.980
294.97	6.014
295.34	5.843
295.71	6.439
296.08	6.000
296.44	5.464
296.81	4.218
297.18	4.056
297.55	4.926
297.91	4.064
298.28	5.676
298.65	5.153
299.02	5.066
299.38	3.957
299.75	5.000
300.12	5.849
300.48	4.918
300.85	4.887
301.22	5.000
301.59	4.009
301.95	3.851
302.32	5.821
302.69	5.543
303.05	6.734
303.42	4.036
303.79	3.900
304.15	4.400
304.52	4.334
304.89	5.117
305.25	4.116
305.62	4.371
305.99	3.478
306.35	3.158
306.72	4.683
307.09	4.348
307.45	4.118
307.82	3.807
308.19	4.227
308.55	3.800
308.92	4.318
309.29	5.128
309.65	4.460
310.02	4.564
310.38	3.390
310.75	3.664
311.12	3.448
311.48	5.405
311.85	4.294
312.22	4.967
312.58	3.304
312.95	4.757
313.31	4.401
313.68	4.034
314.05	6.227
314.41	4.097
314.78	4.072
315.14	4.455
315.51	5.109
315.87	4.653
316.24	3.455
316.61	3.491
316.97	3.394
317.34	4.403
317.70	4.741
318.07	4.537
318.43	5.360
318.80	5.079
319.16	4.108
319.53	4.690
319.89	4.391
320.26	4.562
320.62	4.853
320.99	3.908
321.35	6.401
321.72	5.693
322.08	4.986
322.45	4.905
322.81	3.751
323.18	5.417
323.54	5.836
323.91	5.077
324.27	5.305
324.64	5.363
325.00	5.862
325.37	5.059
325.73	5.312
326.10	5.054
326.46	6.028
326.83	3.920
327.19	5.622
327.56	4.633
327.92	4.508
328.29	6.137
328.65	5.479
329.01	5.475
329.38	5.330
329.74	5.380
330.11	6.255
330.47	5.968
330.84	4.659
331.20	6.176
331.56	6.649
331.93	6.758
332.29	4.677
332.66	5.782
333.02	4.983
333.38	5.323
333.75	5.671
334.11	5.705
334.48	5.043
334.84	5.068
335.20	5.646
335.57	5.374
335.93	6.224
336.29	5.638
336.66	6.518
337.02	5.475
337.38	5.073
337.75	5.152
338.11	5.823
338.47	4.996
338.84	4.911
339.20	4.762
339.56	5.299
339.93	5.017
340.29	4.454
340.65	6.035
341.02	5.953
341.38	4.926
341.74	5.897
342.11	4.674
342.47	4.758
342.83	6.235
343.20	5.982
343.56	3.971
343.92	5.202
344.28	5.263
344.65	5.134
345.01	4.683
345.37	4.167
345.73	4.524
346.10	5.179
346.46	5.343
346.82	5.324
347.19	5.487
347.55	4.684
347.91	4.381
348.27	4.570
348.63	4.668
349.00	5.788
349.36	4.825
349.72	5.734
350.08	5.357
350.45	5.027
350.81	4.969
351.17	4.700
351.53	4.157
351.89	5.206
352.26	4.460
352.62	4.751
352.98	4.755
353.34	6.009
353.70	4.205
354.07	4.462
354.43	4.685
354.79	4.708
355.15	5.054
355.51	4.683
355.87	5.196
356.24	5.081
356.60	4.110
356.96	4.018
357.32	4.597
357.68	4.699
358.04	4.863
358.40	5.097
358.77	4.658
359.13	4.204
359.49	4.522
359.85	5.138
360.21	3.715
360.57	4.891
360.93	4.690
361.29	4.618
361.66	4.996
362.02	3.693
362.38	4.618
362.74	4.034
363.10	4.698
363.46	3.729
363.82	4.278
364.18	4.908
364.54	4.292
364.90	4.618
365.26	4.511
365.62	4.006
365.98	3.854
366.35	3.655
366.71	4.372
367.07	5.119
367.43	4.701
367.79	4.322
368.15	3.731
368.51	4.686
368.87	4.076
369.23	5.059
369.59	4.316
369.95	3.636
370.31	4.107
370.67	4.372
371.03	5.392
371.39	4.224
371.75	4.606
372.11	4.419
372.47	4.658
372.83	4.555
373.19	5.209
373.55	4.055
373.91	3.936
374.27	4.431
374.63	4.542
374.99	4.178
375.35	3.831
375.71	4.354
376.07	4.708
376.42	3.133
376.78	4.046
377.14	3.997
377.50	4.494
377.86	3.716
378.22	3.352
378.58	4.964
378.94	3.862
379.30	4.002
379.66	4.275
380.02	4.223
380.38	3.279
380.74	4.844
381.09	5.199
381.45	4.335
381.81	3.960
382.17	4.457
382.53	4.319
382.89	4.199
383.25	4.144
383.61	4.496
383.97	4.259
384.32	4.400
384.68	4.932
385.04	3.927
385.40	4.152
385.76	4.096
386.12	4.267
386.48	4.438
386.83	3.973
387.19	3.946
387.55	4.358
387.91	4.619
388.27	4.938
388.62	4.577
388.98	3.499
389.34	3.510
389.70	3.950
390.06	4.268
390.42	4.010
390.77	3.808
391.13	4.345
391.49	4.537
391.85	4.800
392.20	4.887
392.56	5.018
392.92	3.874
393.28	4.204
393.64	3.383
393.99	3.912
394.35	4.179
394.71	3.981
395.07	4.380
395.42	4.274
395.78	4.442
396.14	5.060
396.50	3.730
396.85	4.207
397.21	4.272
397.57	3.825
397.92	4.102
398.28	3.530
398.64	4.538
399.00	4.490
399.35	4.455
399.71	4.194
400.07	3.596
400.42	3.701
400.78	3.871
401.14	4.287
401.49	3.514
401.85	4.925
402.21	3.515
402.57	4.847
402.92	4.364
403.28	3.580
403.63	4.473
403.99	4.162
404.35	4.748
404.70	4.607
405.06	3.987
405.42	3.531
405.77	4.300
406.13	4.067
406.49	4.207
406.84	4.174
407.20	4.338
407.55	3.631
407.91	5.297
408.27	3.881
408.62	4.140
408.98	3.726
409.34	3.741
409.69	4.418
410.05	4.293
410.40	4.240
410.76	3.320
411.11	4.384
411.47	4.444
411.83	3.398
412.18	4.046
412.54	4.264
412.89	3.304
413.25	4.732
413.60	4.673
413.96	4.069
414.31	3.896
414.67	4.407
415.03	3.959
415.38	4.227
415.74	3.348
416.09	4.060
416.45	4.783
416.80	4.490
417.16	4.710
417.51	4.841
417.87	4.631
418.22	4.253
418.58	3.949
418.93	4.283
419.29	3.635
419.64	4.664
420.00	4.773
420.35	3.252
420.71	3.792
421.06	4.179
421.42	3.915
421.77	4.164
422.12	3.528
422.48	4.263
422.83	4.576
423.19	3.888
423.54	4.443
423.90	4.983
424.25	4.458
424.61	4.469
424.96	3.331
425.31	3.886
425.67	3.760
426.02	3.982
426.38	3.384
426.73	3.991
427.09	3.796
427.44	3.320
427.79	3.602
428.15	4.361
428.50	4.000
428.85	4.233
429.21	3.674
429.56	4.337
429.92	3.580
430.27	4.064
430.62	4.014
430.98	3.842
431.33	3.377
431.68	3.259
432.04	3.311
432.39	4.336
432.74	3.981
433.10	3.488
433.45	4.193
433.80	4.082
434.16	3.889
434.51	3.715
434.86	4.355
435.22	3.620
435.57	3.557
435.92	4.269
436.28	4.205
436.63	3.998
436.98	4.392
437.34	4.338
437.69	3.135
438.04	4.409
438.39	4.203
438.75	4.009
439.10	4.317
439.45	4.240
439.81	4.164
440.16	3.632
440.51	4.167
440.86	4.501
441.22	3.571
441.57	4.357
441.92	3.504
442.27	4.227
442.63	3.506
442.98	3.772
443.33	3.696
443.68	4.125
444.03	3.959
444.39	3.531
444.74	3.830
445.09	3.686
445.44	3.826
445.79	3.850
446.15	3.947
446.50	4.114
446.85	3.486
447.20	2.886
447.55	2.936
447.91	4.369
448.26	3.994
448.61	3.704
448.96	3.704
449.31	3.520
449.66	4.208
450.02	3.890
450.37	3.998
450.72	4.187
451.07	4.479
451.42	4.031
451.77	4.296
452.12	4.991
452.47	3.888
452.83	3.775
453.18	5.225
453.53	4.440
453.88	4.686
454.23	4.474
454.58	4.079
454.93	3.311
455.28	4.712
455.63	4.196
455.98	4.512
456.34	4.742
456.69	3.537
457.04	4.177
457.39	3.257
457.74	4.561
458.09	4.436
458.44	3.834
458.79	4.085
459.14	3.983
459.49	4.247
459.84	4.022
460.19	3.955
460.54	4.729
460.89	4.211
461.24	3.780
461.59	4.308
461.94	4.019
462.29	4.119
462.64	5.214
462.99	3.839
463.34	5.055
463.69	4.719
464.04	4.375
464.39	4.121
464.74	3.693
465.09	4.353
465.44	4.189
465.79	3.484
466.14	4.081
466.49	4.612
466.84	3.958
467.19	4.628
467.54	4.805
467.89	3.932
468.24	3.706
468.59	4.107
468.94	3.865
469.29	4.643
469.64	4.373
469.99	4.563
470.34	4.175
470.68	4.897
471.03	4.136
471.38	4.570
471.73	4.050
472.08	4.501
472.43	4.904
472.78	5.058
473.13	3.442
473.48	4.401
473.83	4.653
474.17	4.377
474.52	4.443
474.87	3.411
475.22	3.712
475.57	4.302
475.92	3.679
476.27	3.101
476.61	3.539
476.96	4.493
477.31	4.113
477.66	3.811
478.01	4.384
478.36	3.708
478.70	3.524
479.05	3.818
479.40	3.472
479.75	4.220
480.10	4.114
480.45	3.315
480.79	3.594
481.14	3.471
481.49	3.294
481.84	4.178
482.19	3.930
482.53	4.128
482.88	4.032
483.23	3.293
483.58	3.276
483.92	4.159
484.27	3.639
484.62	3.735
484.97	3.701
485.31	3.244
485.66	2.952
486.01	2.790
486.36	2.874
486.70	2.663
487.05	3.005
487.40	2.920
487.75	2.905
488.09	3.409
488.44	3.059
488.79	3.228
489.13	3.173
489.48	3.316
489.83	3.503
490.17	3.716
490.52	2.885
490.87	3.793
491.22	3.945
491.56	4.084
491.91	3.450
492.26	4.143
492.60	3.918
492.95	3.625
493.30	3.367
493.64	4.133
493.99	4.428
494.34	4.258
494.68	3.232
495.03	4.356
495.37	4.097
495.72	3.776
496.07	3.549
496.41	3.736
496.76	3.799
497.11	4.027
497.45	3.989
497.80	3.753
498.14	3.883
498.49	4.178
498.84	4.393
499.18	3.702
499.53	3.721
499.87	3.504
500.22	4.330
500.56	3.435
500.91	4.499
501.26	4.180
501.60	3.734
501.95	3.539
502.29	4.000
502.64	3.573
502.98	3.913
503.33	3.341
503.67	3.929
504.02	3.359
504.36	3.801
504.71	4.021
505.06	3.566
505.40	3.884
505.75	3.321
506.09	3.873
506.44	3.947
506.78	4.348
507.13	3.732
507.47	4.221
507.82	4.818
508.16	4.753
508.51	4.155
508.85	4.416
509.19	3.573
509.54	4.053
509.88	3.879
510.23	3.824
510.57	3.958
510.92	4.545
511.26	4.167
511.61	4.234
511.95	4.181
512.30	4.150
512.64	3.842
512.98	4.203
513.33	4.098
513.67	4.454
514.02	4.208
514.36	3.686
514.70	4.107
515.05	3.729
515.39	4.605
515.74	4.265
516.08	4.412
516.42	4.863
516.77	4.533
517.11	4.373
517.46	4.634
517.80	3.987
518.14	4.563
518.49	4.024
518.83	3.242
519.17	4.548
519.52	4.205
519.86	3.924
520.20	5.370
520.55	3.957
520.89	4.540
521.23	4.322
521.58	4.303
521.92	4.373
522.26	3.791
522.61	4.753
522.95	4.084
523.29	4.444
523.64	4.335
523.98	4.343
524.32	4.152
524.66	5.275
525.01	3.964
525.35	4.596
525.69	4.997
526.04	4.462
526.38	4.179
526.72	4.893
527.06	4.317
527.41	4.776
527.75	4.808
528.09	3.733
528.43	5.064
528.78	4.293
529.12	4.636
529.46	4.793
529.80	4.614
530.15	4.773
530.49	3.369
530.83	4.631
531.17	4.059
531.51	4.905
531.86	4.529
532.20	3.770
532.54	4.583
532.88	4.560
533.22	4.449
533.57	3.600
533.91	4.371
534.25	3.866
534.59	4.503
534.93	4.039
535.27	3.699
535.62	4.434
535.96	3.783
536.30	4.509
536.64	3.975
536.98	4.028
537.32	5.000
537.66	3.253
538.01	4.768
538.35	4.679
538.69	4.490
539.03	3.731
539.37	4.248
539.71	4.383
540.05	3.938
540.39	4.591
540.73	3.924
541.07	3.199
541.42	4.104
541.76	4.316
542.10	4.562
542.44	4.302
542.78	3.650
543.12	4.785
543.46	4.198
543.80	4.135
544.14	4.334
544.48	3.771
544.82	5.015
545.16	4.250
545.50	4.241
545.84	4.924
546.18	4.811
546.52	5.311
546.86	4.642
547.20	4.522
547.54	5.193
547.88	5.414
548.22	4.432
548.56	4.184
548.90	4.330
549.24	4.864
549.58	4.510
549.92	4.781
550.26	4.192
550.60	4.125
550.94	4.003
551.28	5.103
551.62	5.655
551.96	4.122
552.30	4.219
552.64	4.207
552.98	3.737
553.32	3.777
553.66	3.779
554.00	4.054
554.34	4.394
554.68	4.906
555.02	4.005
555.36	4.920
555.69	4.843
556.03	4.522
556.37	4.971
556.71	5.020
557.05	3.604
557.39	5.133
557.73	5.121
558.07	4.829
558.41	4.935
558.75	5.472
559.08	4.861
559.42	4.581
559.76	4.918
560.10	4.129
560.44	3.915
560.78	4.604
561.12	4.514
561.45	4.318
561.79	3.683
562.13	3.727
562.47	3.504
562.81	4.554
563.15	4.137
563.48	4.348
563.82	4.304
564.16	4.789
564.50	4.400
564.84	3.951
565.17	4.635
565.51	3.818
565.85	4.935
566.19	3.869
566.52	4.332
566.86	4.845
567.20	5.112
567.54	3.384
567.88	4.278
568.21	3.944
568.55	4.523
568.89	4.106
569.23	3.365
569.56	3.355
569.90	3.270
570.24	3.237
570.57	3.439
570.91	3.120
571.25	2.877
571.59	2.792
571.92	2.879
572.26	2.803
572.60	2.555
572.93	3.134
573.27	2.958
573.61	2.870
573.95	2.615
574.28	2.908
574.62	2.911
574.96	2.486
575.29	2.626
575.63	2.827
575.97	2.507
576.30	2.607
576.64	2.749
576.98	2.717
577.31	2.844
577.65	2.853
577.98	2.636
578.32	2.628
578.66	2.624
578.99	2.643
579.33	2.909
579.67	2.793
580.00	2.499
580.34	2.660
580.67	2.662
581.01	2.984
581.35	2.465
581.68	2.568
582.02	2.601
582.35	2.342
582.69	2.525
583.02	2.520
583.36	2.489
583.70	2.882
584.03	2.859
584.37	2.827
584.70	2.961
585.04	2.593
585.37	2.547
585.71	2.742
586.04	2.871
586.38	2.514
586.72	2.368
587.05	2.985
587.39	2.807
587.72	2.732
588.06	3.005
588.39	2.764
588.73	2.779
589.06	3.006
589.40	3.099
589.73	2.950
590.07	3.157
590.40	3.345
590.73	3.526
591.07	3.757
591.40	2.914
591.74	3.328
592.07	2.870
592.41	2.958
592.74	2.746
593.08	2.930
593.41	2.932
593.75	2.811
594.08	3.203
594.41	2.867
594.75	3.151
595.08	2.984
595.42	3.489
595.75	3.258
596.09	2.815
596.42	3.496
596.75	3.365
597.09	3.426
597.42	3.347
597.75	2.921
598.09	3.201
598.42	3.264
598.76	3.238
599.09	3.126
599.42	2.976
599.76	3.358
600.09	3.186
600.42	3.280
600.76	2.991
601.09	2.865
601.42	3.273
601.76	3.079
602.09	3.422
602.42	2.994
602.76	3.264
603.09	2.941
603.42	3.633
603.76	2.748
604.09	2.859
604.42	3.051
604.76	2.845
605.09	3.510
605.42	3.210
605.75	3.237
606.09	2.869
606.42	3.006
606.75	3.031
607.09	3.395
607.42	2.812
607.75	3.543
608.08	3.128
608.42	3.859
608.75	2.910
609.08	3.608
609.41	3.273
609.75	3.755
610.08	3.237
610.41	3.250
610.74	3.680
611.07	3.683
611.41	3.800
611.74	3.585
612.07	3.083
612.40	3.509
612.73	3.744
613.07	3.599
613.40	3.459
613.73	3.694
614.06	3.750
614.39	3.990
614.72	3.415
615.06	3.561
615.39	3.911
615.72	3.388
616.05	4.018
616.38	3.450
616.71	3.418
617.05	3.295
617.38	3.315
617.71	3.825
618.04	3.870
618.37	4.225
618.70	3.580
619.03	3.480
619.36	4.397
619.69	4.090
620.03	5.414
620.36	4.110
620.69	4.662
621.02	4.076
621.35	4.370
621.68	4.425
622.01	5.092
622.34	3.642
622.67	4.354
623.00	4.289
623.33	4.318
623.66	3.925
623.99	4.178
624.32	4.675
624.65	3.950
624.99	3.989
625.32	4.075
625.65	3.517
625.98	3.766
626.31	4.228
626.64	3.189
626.97	3.673
627.30	4.193
627.63	5.338
627.96	4.069
628.29	3.960
628.62	5.817
628.95	5.053
629.28	4.733
629.61	5.272
629.94	4.927
630.26	5.373
630.59	5.762
630.92	4.126
631.25	6.074
631.58	5.207
631.91	3.996
632.24	5.248
632.57	3.929
632.90	4.555
633.23	6.506
633.56	6.322
633.89	5.252
634.22	4.844
634.55	4.624
634.88	6.900
635.20	5.717
635.53	4.762
635.86	7.159
636.19	5.499
636.52	5.405
636.85	4.962
637.18	5.850
637.51	5.922
637.83	4.920
638.16	5.744
638.49	6.228
638.82	5.282
639.15	5.758
639.48	6.517
639.81	6.227
640.13	5.890
640.46	6.321
640.79	6.242
641.12	4.724
641.45	6.598
641.77	7.662
642.10	5.756
642.43	5.832
642.76	6.108
643.09	5.043
643.41	6.311
643.74	6.906
644.07	6.785
644.40	6.657
644.73	8.709
645.05	6.984
645.38	5.819
645.71	6.525
646.04	6.718
646.36	7.199
646.69	6.400
647.02	7.520
647.35	5.669
647.67	5.511
648.00	6.026
648.33	7.368
648.66	6.667
648.98	5.362
649.31	6.073
649.64	5.947
649.96	5.974
650.29	6.143
650.62	7.806
650.94	9.337
651.27	9.410
651.60	7.981
651.92	7.373
652.25	8.031
652.58	7.518
652.90	7.934
653.23	4.431
653.56	6.973
653.88	6.021
654.21	6.745
654.54	5.710
654.86	7.080
655.19	6.596
655.52	3.407
655.84	1.790
