SpectraSuite Data File
++++++++++++++++++++++++++++++++++++
Date: Tue May 12 15:35:09 PDT 2015
User: schluterlab
Dark Spectrum Present: Yes
Reference Spectrum Present: Yes
Number of Sampled Component Spectra: 1
Spectrometers: USB2E3373
Integration Time (usec): 3000 (USB2E3373)
Spectra Averaged: 3 (USB2E3373)
Boxcar Smoothing: 0 (USB2E3373)
Correct for Electrical Dark: No (USB2E3373)
Strobe/Lamp Enabled: No (USB2E3373)
Correct for Detector Non-linearity: No (USB2E3373)
Correct for Stray Light: No (USB2E3373)
Number of Pixels in Processed Spectrum: 2048
>>>>>Begin Processed Spectral Data<<<<<
178.53	0.000
178.91	-233.333
179.29	-800.000
179.67	-3600.000
180.04	-126.667
180.42	725.000
180.80	1850.000
181.18	0.000
181.56	-350.000
181.94	0.000
182.31	1133.333
182.69	-3200.000
183.07	514.286
183.45	-2900.000
183.83	-1500.000
184.20	390.000
184.58	585.714
184.96	-230.769
185.34	-216.667
185.72	1600.000
186.09	-775.000
186.47	-4000.000
186.85	1200.000
187.23	640.000
187.61	2350.000
187.98	550.000
188.36	278.571
188.74	375.000
189.12	350.000
189.49	725.000
189.87	0.000
190.25	537.500
190.63	3700.000
191.00	-258.333
191.38	-3900.000
191.76	-675.000
192.14	675.000
192.51	-3300.000
192.89	1900.000
193.27	1300.000
193.65	-933.333
194.02	-840.000
194.40	371.429
194.78	-207.143
195.15	266.667
195.53	-3800.000
195.91	-540.000
196.29	3600.000
196.66	225.000
197.04	875.000
197.42	-1500.000
197.79	675.000
198.17	358.333
198.55	0.000
198.92	400.000
199.30	1300.000
199.68	1850.000
200.05	616.667
200.43	-466.667
200.81	233.333
201.18	3900.000
201.56	258.333
201.94	-800.000
202.31	-225.000
202.69	-340.000
203.07	3100.000
203.44	-600.000
203.82	416.667
204.19	600.000
204.57	-1650.000
204.95	-875.000
205.32	-660.000
205.70	516.667
206.08	850.000
206.45	-733.333
206.83	444.444
207.20	231.579
207.58	275.000
207.96	620.000
208.33	0.000
208.71	600.000
209.08	700.000
209.46	-3200.000
209.84	-875.000
210.21	840.000
210.59	-520.000
210.96	291.667
211.34	-875.000
211.71	354.545
212.09	1050.000
212.46	1700.000
212.84	-350.000
213.22	555.556
213.59	-3200.000
213.97	370.000
214.34	1200.000
214.72	1233.333
215.09	933.333
215.47	-2700.000
215.84	-330.000
216.22	-337.500
216.59	0.000
216.97	0.000
217.34	1150.000
217.72	-1600.000
218.09	1400.000
218.47	587.500
218.84	900.000
219.22	1066.667
219.59	1233.333
219.97	485.714
220.34	433.333
220.72	1500.000
221.09	3000.000
221.47	258.333
221.84	966.667
222.22	230.000
222.59	255.556
222.97	271.429
223.34	300.000
223.72	-1050.000
224.09	1100.000
224.46	292.308
224.84	-700.000
225.21	355.556
225.59	240.000
225.96	1033.333
226.34	-420.000
226.71	-600.000
227.08	-640.000
227.46	0.000
227.83	-700.000
228.21	-1800.000
228.58	441.667
228.95	975.000
229.33	355.556
229.70	1075.000
230.08	361.538
230.45	3800.000
230.82	-750.000
231.20	-866.667
231.57	-1166.667
231.95	520.000
232.32	325.000
232.69	800.000
233.07	300.000
233.44	-2000.000
233.81	273.333
234.19	144.444
234.56	225.000
234.93	223.529
235.31	245.000
235.68	312.500
236.05	192.857
236.43	144.444
236.80	307.143
237.17	210.345
237.55	134.375
237.92	127.500
238.29	163.636
238.67	193.750
239.04	143.902
239.41	100.000
239.79	145.000
240.16	137.500
240.53	88.525
240.91	94.203
241.28	123.729
241.65	92.424
242.02	112.676
242.40	97.143
242.77	71.429
243.14	87.342
243.51	79.798
243.89	86.916
244.26	76.636
244.63	79.208
245.00	77.064
245.38	64.407
245.75	65.909
246.12	75.556
246.49	68.794
246.87	70.492
247.24	73.333
247.61	68.125
247.98	73.469
248.36	66.061
248.73	67.857
249.10	72.024
249.47	67.000
249.84	64.677
250.22	64.865
250.59	61.000
250.96	64.557
251.33	63.721
251.70	60.714
252.08	61.765
252.45	58.964
252.82	57.414
253.19	58.498
253.56	56.923
253.94	62.319
254.31	61.628
254.68	60.627
255.05	59.655
255.42	59.489
255.79	60.261
256.16	62.034
256.54	60.714
256.91	56.536
257.28	57.860
257.65	53.605
258.02	56.637
258.39	54.441
258.76	55.942
259.14	54.286
259.51	57.143
259.88	57.751
260.25	52.473
260.62	54.521
260.99	53.719
261.36	55.432
261.73	53.723
262.10	60.471
262.47	55.500
262.85	54.933
263.22	52.956
263.59	54.476
263.96	53.634
264.33	57.284
264.70	56.020
265.07	54.878
265.44	54.128
265.81	52.123
266.18	56.522
266.55	55.792
266.92	51.454
267.29	54.605
267.66	56.951
268.03	50.448
268.40	51.797
268.77	54.405
269.14	53.145
269.51	50.557
269.88	51.837
270.25	52.268
270.62	53.648
270.99	52.535
271.36	52.439
271.73	52.411
272.10	50.303
272.47	51.389
272.84	49.102
273.21	51.446
273.58	52.429
273.95	53.593
274.32	51.946
274.69	52.165
275.06	51.184
275.43	48.851
275.80	51.887
276.17	50.000
276.54	52.710
276.91	53.918
277.28	48.358
277.65	51.292
278.02	49.632
278.39	48.741
278.76	49.483
279.13	49.466
279.50	51.818
279.87	47.672
280.23	48.619
280.60	50.365
280.97	48.448
281.34	48.845
281.71	47.826
282.08	48.547
282.45	49.662
282.82	50.167
283.19	47.854
283.56	47.769
283.92	49.674
284.29	50.083
284.66	47.059
285.03	48.590
285.40	49.421
285.77	46.605
286.14	46.904
286.51	44.632
286.87	44.146
287.24	45.195
287.61	45.137
287.98	46.567
288.35	45.185
288.72	44.461
289.08	42.943
289.45	43.598
289.82	44.375
290.19	45.095
290.56	44.833
290.93	44.029
291.29	41.575
291.66	42.514
292.03	43.338
292.40	38.482
292.77	38.858
293.13	42.083
293.50	39.946
293.87	40.379
294.24	41.818
294.60	40.242
294.97	40.699
295.34	40.106
295.71	41.656
296.08	39.867
296.44	40.407
296.81	39.578
297.18	39.797
297.55	39.532
297.91	38.547
298.28	38.285
298.65	38.650
299.02	36.791
299.38	37.530
299.75	37.683
300.12	37.156
300.48	38.290
300.85	36.830
301.22	37.093
301.59	36.557
301.95	37.340
302.32	35.623
302.69	37.104
303.05	35.690
303.42	35.314
303.79	36.620
304.15	35.314
304.52	35.412
304.89	35.714
305.25	35.373
305.62	35.075
305.99	34.565
306.35	35.053
306.72	36.837
307.09	36.335
307.45	35.375
307.82	34.568
308.19	35.258
308.55	34.000
308.92	36.310
309.29	36.391
309.65	36.075
310.02	35.903
310.38	34.696
310.75	34.619
311.12	35.920
311.48	35.811
311.85	36.164
312.22	36.772
312.58	36.054
312.95	38.155
313.31	35.581
313.68	35.460
314.05	38.278
314.41	36.127
314.78	37.784
315.14	38.673
315.51	38.316
315.87	38.321
316.24	39.029
316.61	38.585
316.97	38.807
317.34	40.791
317.70	39.069
318.07	40.214
318.43	39.631
318.80	41.769
319.16	40.559
319.53	40.088
319.89	40.502
320.26	43.296
320.62	41.758
320.99	41.754
321.35	42.022
321.72	44.118
322.08	43.952
322.45	44.233
322.81	45.105
323.18	44.938
323.54	45.383
323.91	47.325
324.27	46.154
324.64	47.318
325.00	48.017
325.37	46.796
325.73	49.747
326.10	50.539
326.46	49.546
326.83	48.960
327.19	51.406
327.56	51.118
327.92	52.623
328.29	54.010
328.65	54.366
329.01	53.807
329.38	54.822
329.74	52.263
330.11	55.430
330.47	54.817
330.84	54.702
331.20	55.838
331.56	54.491
331.93	56.544
332.29	55.782
332.66	58.163
333.02	55.584
333.38	57.417
333.75	56.631
334.11	55.956
334.48	58.462
334.84	57.010
335.20	56.801
335.57	57.179
335.93	57.611
336.29	57.048
336.66	58.405
337.02	57.656
337.38	57.782
337.75	57.855
338.11	56.878
338.47	56.732
338.84	56.647
339.20	58.355
339.56	56.434
339.93	56.689
340.29	54.958
340.65	57.251
341.02	57.361
341.38	57.800
341.74	58.056
342.11	56.761
342.47	57.096
342.83	57.916
343.20	56.750
343.56	54.647
343.92	57.556
344.28	56.539
344.65	56.805
345.01	55.952
345.37	56.010
345.73	56.429
346.10	56.335
346.46	56.061
346.82	54.244
347.19	57.651
347.55	55.191
347.91	55.287
348.27	55.538
348.63	56.329
349.00	54.760
349.36	56.576
349.72	56.498
350.08	55.901
350.45	55.446
350.81	55.810
351.17	55.470
351.53	54.811
351.89	54.623
352.26	55.102
352.62	54.525
352.98	55.291
353.34	56.549
353.70	54.587
354.07	56.231
354.43	54.224
354.79	53.531
355.15	54.364
355.51	54.607
355.87	54.744
356.24	53.888
356.60	53.653
356.96	55.572
357.32	54.107
357.68	53.157
358.04	54.103
358.40	54.423
358.77	55.522
359.13	55.480
359.49	53.299
359.85	55.920
360.21	54.978
360.57	53.139
360.93	53.463
361.29	54.185
361.66	54.139
362.02	54.048
362.38	53.824
362.74	52.442
363.10	53.997
363.46	52.901
363.82	54.979
364.18	54.339
364.54	55.651
364.90	53.347
365.26	53.505
365.62	54.489
365.98	53.338
366.35	52.690
366.71	54.129
367.07	52.696
367.43	53.392
367.79	53.191
368.15	52.307
368.51	52.584
368.87	52.106
369.23	53.708
369.59	52.461
369.95	54.476
370.31	53.320
370.67	52.880
371.03	52.311
371.39	52.008
371.75	51.640
372.11	53.705
372.47	53.356
372.83	53.501
373.19	52.639
373.55	52.921
373.91	51.796
374.27	51.124
374.63	52.068
374.99	52.561
375.35	52.957
375.71	52.968
376.07	52.785
376.42	51.023
376.78	53.243
377.14	51.769
377.50	52.247
377.86	52.146
378.22	53.016
378.58	51.937
378.94	52.022
379.30	53.002
379.66	51.716
380.02	51.613
380.38	51.815
380.74	52.422
381.09	52.161
381.45	51.214
381.81	50.650
382.17	52.442
382.53	51.830
382.89	51.567
383.25	51.628
383.61	50.259
383.97	51.950
384.32	50.573
384.68	51.990
385.04	51.700
385.40	51.068
385.76	50.731
386.12	52.195
386.48	51.307
386.83	52.017
387.19	50.883
387.55	50.824
387.91	49.885
388.27	51.814
388.62	50.763
388.98	50.146
389.34	49.435
389.70	49.116
390.06	49.939
390.42	50.401
390.77	49.693
391.13	50.513
391.49	49.304
391.85	51.323
392.20	50.596
392.56	49.881
392.92	48.961
393.28	49.608
393.64	49.312
393.99	49.970
394.35	49.088
394.71	48.492
395.07	49.148
395.42	49.415
395.78	49.414
396.14	49.458
396.50	48.375
396.85	49.634
397.21	49.639
397.57	49.253
397.92	49.047
398.28	49.145
398.64	49.098
399.00	47.301
399.35	48.202
399.71	49.283
400.07	47.717
400.42	48.896
400.78	48.270
401.14	48.620
401.49	47.984
401.85	47.798
402.21	47.276
402.57	47.876
402.92	48.303
403.28	47.017
403.63	47.734
403.99	48.130
404.35	47.831
404.70	48.376
405.06	46.828
405.42	47.038
405.77	47.464
406.13	47.072
406.49	46.504
406.84	45.403
407.20	46.689
407.55	46.708
407.91	48.181
408.27	46.695
408.62	46.067
408.98	47.368
409.34	46.289
409.69	46.360
410.05	45.975
410.40	47.232
410.76	46.308
411.11	45.675
411.47	45.617
411.83	45.577
412.18	46.196
412.54	45.586
412.89	46.136
413.25	46.408
413.60	46.028
413.96	45.841
414.31	45.455
414.67	47.672
415.03	46.999
415.38	45.931
415.74	46.052
416.09	47.033
416.45	47.317
416.80	47.274
417.16	46.785
417.51	46.879
417.87	46.183
418.22	45.869
418.58	45.987
418.93	46.044
419.29	46.334
419.64	46.154
420.00	46.301
420.35	46.341
420.71	46.091
421.06	46.792
421.42	46.229
421.77	46.363
422.12	46.858
422.48	45.609
422.83	46.596
423.19	45.140
423.54	46.407
423.90	47.961
424.25	47.221
424.61	48.636
424.96	46.640
425.31	46.907
425.67	47.250
426.02	47.056
426.38	47.491
426.73	47.831
427.09	48.280
427.44	47.383
427.79	47.742
428.15	47.731
428.50	48.114
428.85	47.972
429.21	47.758
429.56	47.657
429.92	48.135
430.27	47.363
430.62	47.479
430.98	47.804
431.33	48.135
431.68	46.272
432.04	46.198
432.39	48.353
432.74	48.419
433.10	47.785
433.45	48.708
433.80	50.028
434.16	49.606
434.51	48.504
434.86	47.469
435.22	48.406
435.57	49.615
435.92	48.833
436.28	49.424
436.63	48.947
436.98	50.394
437.34	49.087
437.69	48.824
438.04	49.032
438.39	48.628
438.75	50.111
439.10	49.056
439.45	48.785
439.81	49.393
440.16	48.652
440.51	48.592
440.86	49.801
441.22	49.188
441.57	49.029
441.92	48.963
442.27	48.814
442.63	48.780
442.98	48.545
443.33	49.223
443.68	48.843
444.03	49.152
444.39	49.765
444.74	49.379
445.09	49.552
445.44	49.841
445.79	49.854
446.15	49.053
446.50	50.105
446.85	49.552
447.20	48.856
447.55	49.647
447.91	49.920
448.26	48.829
448.61	50.580
448.96	50.000
449.31	50.000
449.66	49.225
450.02	48.082
450.37	50.805
450.72	51.570
451.07	50.087
451.42	49.378
451.77	50.286
452.12	50.028
452.47	50.243
452.83	52.394
453.18	50.450
453.53	50.207
453.88	50.914
454.23	51.714
454.58	50.175
454.93	49.601
455.28	50.673
455.63	50.355
455.98	50.874
456.34	51.003
456.69	50.549
457.04	49.761
457.39	50.571
457.74	50.282
458.09	51.151
458.44	50.438
458.79	50.928
459.14	50.518
459.49	50.680
459.84	50.652
460.19	49.435
460.54	50.712
460.89	51.493
461.24	49.255
461.59	51.190
461.94	49.882
462.29	49.371
462.64	51.256
462.99	50.800
463.34	51.329
463.69	50.998
464.04	50.835
464.39	51.059
464.74	49.707
465.09	50.203
465.44	50.435
465.79	50.408
466.14	48.437
466.49	50.027
466.84	49.666
467.19	50.439
467.54	49.970
467.89	50.528
468.24	51.534
468.59	51.250
468.94	51.027
469.29	50.336
469.64	50.418
469.99	51.607
470.34	50.411
470.68	50.966
471.03	50.834
471.38	51.126
471.73	50.947
472.08	51.663
472.43	50.217
472.78	50.704
473.13	49.625
473.48	50.428
473.83	51.355
474.17	51.429
474.52	49.111
474.87	49.744
475.22	50.543
475.57	50.944
475.92	49.463
476.27	48.422
476.61	50.241
476.96	50.731
477.31	50.643
477.66	52.228
478.01	50.645
478.36	50.772
478.70	49.677
479.05	50.105
479.40	50.397
479.75	50.447
480.10	50.387
480.45	49.813
480.79	48.986
481.14	49.929
481.49	49.726
481.84	49.692
482.19	49.956
482.53	49.583
482.88	49.776
483.23	49.662
483.58	49.192
483.92	49.497
484.27	49.443
484.62	49.491
484.97	49.046
485.31	49.180
485.66	49.262
486.01	48.438
486.36	47.289
486.70	46.605
487.05	47.147
487.40	47.198
487.75	47.796
488.09	47.528
488.44	48.184
488.79	48.907
489.13	48.675
489.48	49.021
489.83	47.957
490.17	47.275
490.52	49.182
490.87	48.707
491.22	49.246
491.56	49.100
491.91	48.656
492.26	48.775
492.60	48.383
492.95	49.388
493.30	48.772
493.64	49.236
493.99	48.748
494.34	48.857
494.68	48.517
495.03	48.586
495.37	47.771
495.72	49.371
496.07	48.473
496.41	48.871
496.76	48.670
497.11	48.543
497.45	48.137
497.80	48.146
498.14	48.405
498.49	48.839
498.84	49.019
499.18	47.989
499.53	48.691
499.87	48.518
500.22	48.641
500.56	47.911
500.91	48.284
501.26	48.553
501.60	48.634
501.95	48.253
502.29	48.089
502.64	47.772
502.98	47.888
503.33	48.196
503.67	47.638
504.02	47.738
504.36	46.968
504.71	48.061
505.06	48.850
505.40	48.339
505.75	47.615
506.09	48.577
506.44	47.932
506.78	49.291
507.13	47.988
507.47	47.695
507.82	48.905
508.16	49.682
508.51	48.357
508.85	47.009
509.19	48.409
509.54	47.900
509.88	48.533
510.23	47.108
510.57	47.153
510.92	48.002
511.26	49.197
511.61	47.021
511.95	47.735
512.30	46.500
512.64	48.598
512.98	47.309
513.33	47.439
513.67	47.178
514.02	47.221
514.36	47.612
514.70	48.000
515.05	46.723
515.39	48.904
515.74	48.278
516.08	49.020
516.42	49.235
516.77	48.213
517.11	47.680
517.46	46.929
517.80	46.914
518.14	48.113
518.49	47.189
518.83	45.934
519.17	47.698
519.52	47.733
519.86	47.193
520.20	47.288
520.55	47.654
520.89	47.989
521.23	48.014
521.58	47.217
521.92	47.055
522.26	48.460
522.61	47.118
522.95	48.108
523.29	47.778
523.64	46.532
523.98	47.477
524.32	46.886
524.66	46.609
525.01	47.337
525.35	45.374
525.69	47.441
526.04	46.936
526.38	48.146
526.72	46.838
527.06	46.363
527.41	47.884
527.75	46.622
528.09	47.321
528.43	47.712
528.78	47.108
529.12	47.983
529.46	45.996
529.80	45.794
530.15	46.671
530.49	46.029
530.83	47.166
531.17	47.048
531.51	46.291
531.86	45.290
532.20	45.550
532.54	46.704
532.88	46.971
533.22	46.374
533.57	46.858
533.91	45.455
534.25	44.720
534.59	46.608
534.93	45.620
535.27	44.565
535.62	45.624
535.96	46.158
536.30	46.801
536.64	45.839
536.98	47.451
537.32	45.562
537.66	44.834
538.01	45.635
538.35	46.663
538.69	44.782
539.03	44.341
539.37	45.024
539.71	44.938
540.05	45.169
540.39	46.101
540.73	45.886
541.07	44.918
541.42	45.149
541.76	45.931
542.10	45.746
542.44	45.574
542.78	46.004
543.12	45.215
543.46	44.799
543.80	45.301
544.14	45.201
544.48	45.255
544.82	44.832
545.16	44.627
545.50	45.298
545.84	45.013
546.18	45.904
546.52	45.377
546.86	45.326
547.20	44.832
547.54	45.472
547.88	44.647
548.22	44.141
548.56	43.665
548.90	43.713
549.24	44.536
549.58	45.232
549.92	45.580
550.26	45.774
550.60	45.709
550.94	46.540
551.28	46.897
551.62	45.931
551.96	43.311
552.30	44.364
552.64	45.307
552.98	43.943
553.32	43.790
553.66	44.430
554.00	44.466
554.34	45.872
554.68	45.296
555.02	44.535
555.36	44.149
555.69	45.550
556.03	44.459
556.37	43.722
556.71	45.111
557.05	42.792
557.39	43.600
557.73	44.744
558.07	44.735
558.41	44.825
558.75	44.118
559.08	45.104
559.42	45.025
559.76	44.904
560.10	43.772
560.44	44.061
560.78	43.990
561.12	43.547
561.45	43.554
561.79	44.195
562.13	43.020
562.47	44.646
562.81	44.177
563.15	44.215
563.48	42.547
563.82	44.666
564.16	44.465
564.50	42.315
564.84	44.438
565.17	41.949
565.51	45.074
565.85	44.479
566.19	44.167
566.52	43.141
566.86	43.666
567.20	43.652
567.54	43.777
567.88	42.775
568.21	42.936
568.55	42.607
568.89	42.153
569.23	41.242
569.56	42.652
569.90	41.430
570.24	41.704
570.57	41.791
570.91	40.842
571.25	41.133
571.59	41.145
571.92	40.393
572.26	40.108
572.60	40.156
572.93	40.684
573.27	40.523
573.61	40.444
573.95	40.090
574.28	40.839
574.62	40.429
574.96	39.851
575.29	39.371
575.63	39.435
575.97	39.192
576.30	39.889
576.64	39.942
576.98	39.889
577.31	40.134
577.65	39.900
577.98	39.792
578.32	39.760
578.66	38.628
578.99	39.941
579.33	39.468
579.67	39.141
580.00	39.463
580.34	39.607
580.67	38.814
581.01	39.807
581.35	40.012
581.68	39.005
582.02	39.280
582.35	38.548
582.69	39.039
583.02	38.710
583.36	39.296
583.70	39.175
584.03	40.219
584.37	39.904
584.70	39.612
585.04	39.662
585.37	39.698
585.71	39.506
586.04	39.136
586.38	39.358
586.72	39.331
587.05	39.218
587.39	39.848
587.72	39.571
588.06	39.608
588.39	39.765
588.73	39.635
589.06	40.473
589.40	40.219
589.73	40.052
590.07	40.288
590.40	40.697
590.73	41.315
591.07	40.455
591.40	40.279
591.74	40.300
592.07	40.308
592.41	39.928
592.74	39.766
593.08	38.770
593.41	39.078
593.75	39.092
594.08	39.359
594.41	38.612
594.75	38.596
595.08	38.752
595.42	39.664
595.75	38.829
596.09	39.868
596.42	38.638
596.75	39.904
597.09	40.322
597.42	39.878
597.75	39.148
598.09	40.131
598.42	39.780
598.76	38.743
599.09	39.794
599.42	38.893
599.76	38.670
600.09	38.508
600.42	38.087
600.76	38.953
601.09	38.902
601.42	38.789
601.76	38.847
602.09	39.809
602.42	37.856
602.76	39.583
603.09	39.744
603.42	38.936
603.76	38.865
604.09	38.726
604.42	39.435
604.76	39.115
605.09	39.143
605.42	39.009
605.75	38.255
606.09	39.021
606.42	38.557
606.75	38.593
607.09	38.373
607.42	38.650
607.75	38.694
608.08	37.409
608.42	38.549
608.75	38.853
609.08	37.923
609.41	39.045
609.75	39.057
610.08	38.894
610.41	38.516
610.74	38.615
611.07	39.427
611.41	38.832
611.74	39.006
612.07	38.776
612.40	39.474
612.73	39.341
613.07	39.179
613.40	39.449
613.73	39.940
614.06	38.000
614.39	39.242
614.72	38.624
615.06	38.131
615.39	37.970
615.72	37.657
616.05	39.227
616.38	38.052
616.71	38.199
617.05	38.276
617.38	39.551
617.71	38.920
618.04	38.923
618.37	38.577
618.70	38.048
619.03	38.828
619.36	39.008
619.69	39.050
620.03	40.444
620.36	38.793
620.69	39.974
621.02	40.693
621.35	39.470
621.68	39.528
622.01	38.745
622.34	39.257
622.67	38.483
623.00	38.530
623.33	38.259
623.66	38.323
623.99	39.178
624.32	38.821
624.65	37.459
624.99	38.742
625.32	39.145
625.65	37.655
625.98	39.470
626.31	39.021
626.64	37.813
626.97	38.638
627.30	38.432
627.63	38.932
627.96	37.011
628.29	38.614
628.62	38.409
628.95	40.071
629.28	39.614
629.61	39.192
629.94	38.634
630.26	39.948
630.59	40.603
630.92	39.462
