SpectraSuite Data File
++++++++++++++++++++++++++++++++++++
Date: Tue May 12 17:20:43 PDT 2015
User: schluterlab
Dark Spectrum Present: Yes
Reference Spectrum Present: Yes
Number of Sampled Component Spectra: 1
Spectrometers: USB2E3373
Integration Time (usec): 3000 (USB2E3373)
Spectra Averaged: 3 (USB2E3373)
Boxcar Smoothing: 0 (USB2E3373)
Correct for Electrical Dark: No (USB2E3373)
Strobe/Lamp Enabled: No (USB2E3373)
Correct for Detector Non-linearity: No (USB2E3373)
Correct for Stray Light: No (USB2E3373)
Number of Pixels in Processed Spectrum: 2048
>>>>>Begin Processed Spectral Data<<<<<
178.53	0.000
178.91	-225.000
179.29	-800.000
179.67	-3800.000
180.04	-120.000
180.42	700.000
180.80	1450.000
181.18	0.000
181.56	-300.000
181.94	0.000
182.31	1233.333
182.69	-3400.000
183.07	585.714
183.45	-3600.000
183.83	-1650.000
184.20	390.000
184.58	457.143
184.96	-223.077
185.34	-241.667
185.72	1950.000
186.09	-825.000
186.47	-2800.000
186.85	833.333
187.23	560.000
187.61	1850.000
187.98	537.500
188.36	257.143
188.74	341.667
189.12	275.000
189.49	1050.000
189.87	0.000
190.25	412.500
190.63	3400.000
191.00	-316.667
191.38	-3800.000
191.76	-750.000
192.14	550.000
192.51	-2200.000
192.89	1750.000
193.27	1266.667
193.65	-1100.000
194.02	-660.000
194.40	557.143
194.78	-235.714
195.15	266.667
195.53	-2800.000
195.91	-740.000
196.29	3700.000
196.66	250.000
197.04	725.000
197.42	-1750.000
197.79	800.000
198.17	316.667
198.55	0.000
198.92	514.286
199.30	1266.667
199.68	2000.000
200.05	666.667
200.43	-533.333
200.81	222.222
201.18	3600.000
201.56	300.000
201.94	-700.000
202.31	-287.500
202.69	-600.000
203.07	3800.000
203.44	-366.667
203.82	358.333
204.19	600.000
204.57	-1100.000
204.95	-950.000
205.32	-700.000
205.70	650.000
206.08	800.000
206.45	-866.667
206.83	433.333
207.20	163.158
207.58	341.667
207.96	780.000
208.33	0.000
208.71	600.000
209.08	840.000
209.46	-3000.000
209.84	-725.000
210.21	880.000
210.59	-660.000
210.96	283.333
211.34	-875.000
211.71	463.636
212.09	650.000
212.46	2050.000
212.84	-583.333
213.22	433.333
213.59	-4200.000
213.97	370.000
214.34	775.000
214.72	1033.333
215.09	700.000
215.47	-2200.000
215.84	-340.000
216.22	-375.000
216.59	0.000
216.97	0.000
217.34	1200.000
217.72	-1700.000
218.09	1133.333
218.47	387.500
218.84	1050.000
219.22	1266.667
219.59	1000.000
219.97	657.143
220.34	355.556
220.72	1950.000
221.09	3100.000
221.47	241.667
221.84	1033.333
222.22	360.000
222.59	205.556
222.97	228.571
223.34	293.750
223.72	-2100.000
224.09	1233.333
224.46	276.923
224.84	-875.000
225.21	388.889
225.59	293.333
225.96	1633.333
226.34	-700.000
226.71	-750.000
227.08	-500.000
227.46	0.000
227.83	-633.333
228.21	-1800.000
228.58	450.000
228.95	900.000
229.33	422.222
229.70	925.000
230.08	315.385
230.45	4000.000
230.82	-1000.000
231.20	-866.667
231.57	-800.000
231.95	480.000
232.32	308.333
232.69	550.000
233.07	300.000
233.44	-1800.000
233.81	320.000
234.19	144.444
234.56	225.000
234.93	217.647
235.31	285.000
235.68	262.500
236.05	203.571
236.43	170.370
236.80	292.857
237.17	172.414
237.55	143.750
237.92	140.000
238.29	169.697
238.67	137.500
239.04	136.585
239.41	97.917
239.79	127.500
240.16	125.000
240.53	100.000
240.91	94.203
241.28	111.864
241.65	101.515
242.02	122.535
242.40	110.000
242.77	96.703
243.14	111.392
243.51	98.990
243.89	87.850
244.26	81.308
244.63	82.178
245.00	87.156
245.38	75.424
245.75	88.636
246.12	90.370
246.49	72.340
246.87	77.869
247.24	73.333
247.61	76.250
247.98	82.313
248.36	76.970
248.73	69.388
249.10	77.976
249.47	74.500
249.84	76.119
250.22	76.757
250.59	71.000
250.96	73.418
251.33	80.000
251.70	68.750
252.08	73.950
252.45	64.940
252.82	70.722
253.19	69.960
253.56	68.077
253.94	63.768
254.31	73.256
254.68	68.990
255.05	71.379
255.42	70.073
255.79	66.450
256.16	70.847
256.54	68.182
256.91	66.340
257.28	69.231
257.65	64.263
258.02	66.962
258.39	65.043
258.76	64.928
259.14	63.429
259.51	67.638
259.88	67.477
260.25	62.912
260.62	64.932
260.99	61.983
261.36	66.017
261.73	64.096
262.10	66.492
262.47	64.000
262.85	60.800
263.22	62.982
263.59	64.962
263.96	60.902
264.33	60.000
264.70	65.848
265.07	66.585
265.44	61.239
265.81	65.094
266.18	62.929
266.55	65.957
266.92	62.864
267.29	64.035
267.66	63.229
268.03	62.556
268.40	62.156
268.77	61.013
269.14	61.388
269.51	61.024
269.88	62.653
270.25	59.179
270.62	63.305
270.99	62.069
271.36	59.553
271.73	60.168
272.10	60.000
272.47	59.524
272.84	57.086
273.21	56.612
273.58	60.324
273.95	58.111
274.32	59.339
274.69	61.024
275.06	58.288
275.43	57.088
275.80	58.302
276.17	58.824
276.54	59.439
276.91	59.515
277.28	58.029
277.65	57.749
278.02	57.904
278.39	56.655
278.76	57.586
279.13	57.829
279.50	54.364
279.87	55.121
280.23	56.722
280.60	56.387
280.97	59.828
281.34	57.921
281.71	55.478
282.08	55.556
282.45	55.068
282.82	58.027
283.19	54.531
283.56	55.537
283.92	58.958
284.29	55.907
284.66	55.126
285.03	55.390
285.40	55.868
285.77	53.704
286.14	54.334
286.51	54.755
286.87	51.266
287.24	51.952
287.61	53.343
287.98	54.328
288.35	51.259
288.72	52.959
289.08	52.853
289.45	50.457
289.82	53.125
290.19	51.977
290.56	51.820
290.93	50.791
291.29	49.862
291.66	51.554
292.03	50.912
292.40	49.593
292.77	48.050
293.13	49.501
293.50	47.233
293.87	47.154
294.24	49.371
294.60	48.856
294.97	48.671
295.34	47.676
295.71	47.963
296.08	48.000
296.44	46.887
296.81	46.898
297.18	45.501
297.55	47.783
297.91	45.936
298.28	46.256
298.65	46.503
299.02	43.908
299.38	47.722
299.75	45.854
300.12	46.674
300.48	47.541
300.85	46.603
301.22	43.953
301.59	45.283
301.95	44.691
302.32	45.169
302.69	45.814
303.05	45.118
303.42	45.404
303.79	44.637
304.15	44.334
304.52	43.763
304.89	44.350
305.25	45.829
305.62	44.136
305.99	44.891
306.35	44.421
306.72	45.369
307.09	44.513
307.45	45.195
307.82	44.959
308.19	45.155
308.55	43.800
308.92	44.946
309.29	46.548
309.65	45.689
310.02	44.320
310.38	45.264
310.75	44.166
311.12	43.870
311.48	45.849
311.85	46.088
312.22	47.278
312.58	44.801
312.95	46.408
313.31	46.067
313.68	44.747
314.05	46.886
314.41	45.903
314.78	48.011
315.14	47.488
315.51	46.925
315.87	47.901
316.24	46.779
316.61	46.374
316.97	47.982
317.34	49.775
317.70	47.322
318.07	50.267
318.43	49.385
318.80	47.898
319.16	48.951
319.53	49.027
319.89	49.821
320.26	51.117
320.62	50.183
320.99	52.050
321.35	50.557
321.72	50.854
322.08	51.247
322.45	51.317
322.81	51.418
323.18	50.266
323.54	52.178
323.91	52.765
324.27	53.316
324.64	52.768
325.00	53.793
325.37	54.722
325.73	52.951
326.10	54.184
326.46	54.666
326.83	53.760
327.19	55.422
327.56	53.754
327.92	54.508
328.29	55.155
328.65	55.908
329.01	55.004
329.38	55.245
329.74	54.398
330.11	55.778
330.47	55.328
330.84	54.012
331.20	55.245
331.56	55.699
331.93	56.886
332.29	55.697
332.66	55.442
333.02	54.381
333.38	55.846
333.75	55.713
334.11	55.369
334.48	56.923
334.84	55.997
335.20	55.346
335.57	55.751
335.93	55.004
336.29	54.561
336.66	56.604
337.02	53.550
337.38	56.148
337.75	55.743
338.11	55.696
338.47	55.377
338.84	54.276
339.20	54.719
339.56	55.509
339.93	56.355
340.29	55.042
340.65	55.909
341.02	55.994
341.38	53.859
341.74	54.651
342.11	55.426
342.47	54.717
342.83	55.209
343.20	54.487
343.56	53.137
343.92	56.152
344.28	56.380
344.65	56.642
345.01	55.159
345.37	55.128
345.73	54.365
346.10	54.821
346.46	56.300
346.82	54.398
347.19	55.873
347.55	55.425
347.91	55.060
348.27	54.996
348.63	54.351
349.00	54.455
349.36	55.564
349.72	55.199
350.08	56.910
350.45	57.045
350.81	56.346
351.17	53.621
351.53	55.735
351.89	54.779
352.26	54.497
352.62	54.977
352.98	56.058
353.34	56.394
353.70	55.046
354.07	56.846
354.43	55.914
354.79	54.442
355.15	56.355
355.51	56.193
355.87	55.798
356.24	57.044
356.60	56.240
356.96	55.269
357.32	56.518
357.68	53.744
358.04	55.167
358.40	55.997
358.77	56.123
359.13	56.156
359.49	55.152
359.85	57.036
360.21	56.092
360.57	56.131
360.93	55.916
361.29	56.061
361.66	56.674
362.02	54.403
362.38	56.782
362.74	56.829
363.10	56.452
363.46	55.801
363.82	56.241
364.18	56.615
364.54	57.010
364.90	55.823
365.26	57.252
365.62	54.834
365.98	55.196
366.35	55.586
366.71	57.876
367.07	56.177
367.43	56.817
367.79	57.048
368.15	54.749
368.51	57.064
368.87	55.842
369.23	56.687
369.59	55.428
369.95	57.483
370.31	55.921
370.67	56.489
371.03	57.143
371.39	56.510
371.75	57.013
372.11	56.764
372.47	56.644
372.83	57.444
373.19	57.574
373.55	56.289
373.91	56.837
374.27	56.614
374.63	56.407
374.99	58.288
375.35	57.997
375.71	56.860
376.07	57.891
376.42	57.289
376.78	58.510
377.14	57.798
377.50	57.553
377.86	57.079
378.22	57.465
378.58	57.324
378.94	58.540
379.30	57.611
379.66	57.014
380.02	58.592
380.38	58.314
380.74	58.708
381.09	59.346
381.45	58.035
381.81	57.861
382.17	58.608
382.53	58.008
382.89	58.486
383.25	58.082
383.61	56.830
383.97	58.788
384.32	58.951
384.68	59.180
385.04	59.203
385.40	58.363
385.76	57.987
386.12	58.380
386.48	58.541
386.83	58.863
387.19	59.246
387.55	58.363
387.91	58.661
388.27	59.429
388.62	58.333
388.98	58.717
389.34	57.287
389.70	57.252
390.06	58.720
390.42	57.372
390.77	59.152
391.13	58.902
391.49	56.806
391.85	58.585
392.20	57.807
392.56	56.989
392.92	58.001
393.28	57.960
393.64	56.766
393.99	57.143
394.35	57.387
394.71	56.333
395.07	58.090
395.42	57.728
395.78	58.976
396.14	58.735
396.50	57.942
396.85	57.500
397.21	57.822
397.57	57.262
397.92	55.921
398.28	57.033
398.64	57.243
399.00	55.799
399.35	56.683
399.71	56.236
400.07	56.050
400.42	57.015
400.78	57.126
401.14	56.606
401.49	55.127
401.85	55.214
402.21	56.063
402.57	55.655
402.92	56.061
403.28	55.012
403.63	55.444
403.99	54.101
404.35	56.272
404.70	56.940
405.06	53.958
405.42	54.279
405.77	54.465
406.13	54.230
406.49	55.088
406.84	53.525
407.20	54.452
407.55	54.092
407.91	54.882
408.27	54.942
408.62	53.519
408.98	54.406
409.34	53.477
409.69	54.263
410.05	53.787
410.40	52.886
410.76	53.635
411.11	53.258
411.47	52.901
411.83	51.904
412.18	52.234
412.54	54.354
412.89	52.389
413.25	52.794
413.60	53.096
413.96	53.142
414.31	52.656
414.67	52.762
415.03	51.149
415.38	53.375
415.74	52.495
416.09	52.967
416.45	52.877
416.80	53.432
417.16	51.750
417.51	53.185
417.87	52.941
418.22	51.762
418.58	52.803
418.93	52.350
419.29	51.756
419.64	52.635
420.00	53.401
420.35	51.742
420.71	51.925
421.06	52.148
421.42	51.583
421.77	52.971
422.12	53.252
422.48	52.183
422.83	53.125
423.19	51.404
423.54	52.002
423.90	53.624
424.25	52.394
424.61	53.337
424.96	52.117
425.31	52.983
425.67	53.872
426.02	52.832
426.38	53.034
426.73	53.441
427.09	53.084
427.44	53.180
427.79	53.859
428.15	53.801
428.50	53.543
428.85	53.086
429.21	52.674
429.56	52.443
429.92	53.605
430.27	53.991
430.62	52.325
430.98	52.495
431.33	52.268
431.68	51.259
432.04	51.992
432.39	53.897
432.74	52.342
433.10	53.101
433.45	53.705
433.80	54.220
434.16	53.705
434.51	54.180
434.86	53.729
435.22	53.809
435.57	53.053
435.92	54.240
436.28	54.032
436.63	53.593
436.98	54.448
437.34	53.938
437.69	52.688
438.04	52.527
438.39	53.240
438.75	53.563
439.10	52.941
439.45	52.572
439.81	53.557
440.16	52.889
440.51	53.547
440.86	55.442
441.22	53.842
441.57	53.596
441.92	53.504
442.27	52.732
442.63	53.404
442.98	53.394
443.33	53.348
443.68	53.622
444.03	52.733
444.39	53.060
444.74	53.571
445.09	53.923
445.44	53.082
445.79	53.314
446.15	53.211
446.50	54.272
446.85	52.241
447.20	52.886
447.55	54.486
447.91	53.649
448.26	52.875
448.61	54.561
448.96	54.194
449.31	53.190
449.66	54.319
450.02	52.566
450.37	53.637
450.72	54.766
451.07	53.519
451.42	52.579
451.77	53.723
452.12	53.942
452.47	52.734
452.83	53.465
453.18	53.093
453.53	53.760
453.88	53.200
454.23	53.574
454.58	52.564
454.93	54.200
455.28	53.121
455.63	53.132
455.98	52.284
456.34	53.131
456.69	54.512
457.04	53.162
457.39	52.171
457.74	52.646
458.09	51.993
458.44	52.191
458.79	52.997
459.14	51.718
459.49	52.208
459.84	52.717
460.19	52.542
460.54	51.852
460.89	52.292
461.24	52.062
461.59	52.438
461.94	52.246
462.29	52.288
462.64	52.575
462.99	51.823
463.34	51.653
463.69	53.660
464.04	52.447
464.39	51.918
464.74	50.586
465.09	51.712
465.44	50.435
465.79	50.626
466.14	49.868
466.49	51.112
466.84	50.613
467.19	50.791
467.54	51.471
467.89	50.528
468.24	50.434
468.59	50.893
468.94	50.725
469.29	51.008
469.64	50.547
469.99	52.121
470.34	51.233
470.68	49.793
471.03	50.901
471.38	49.868
471.73	50.686
472.08	51.598
472.43	50.403
472.78	50.576
473.13	49.124
473.48	50.122
473.83	49.706
474.17	49.119
474.52	49.408
474.87	49.687
475.22	48.487
475.57	48.793
475.92	48.748
476.27	47.824
476.61	48.472
476.96	48.694
477.31	49.974
477.66	49.812
478.01	48.582
478.36	49.279
478.70	48.834
479.05	49.634
479.40	48.710
479.75	49.255
480.10	48.645
480.45	48.413
480.79	48.618
481.14	48.502
481.49	47.987
481.84	47.625
482.19	47.948
482.53	46.992
482.88	47.805
483.23	47.361
483.58	48.025
483.92	48.172
484.27	46.533
484.62	48.345
484.97	45.812
485.31	46.669
485.66	46.152
486.01	47.266
486.36	46.668
486.70	46.277
487.05	46.822
487.40	47.246
487.75	46.706
488.09	46.278
488.44	46.845
488.79	46.998
489.13	46.734
489.48	47.303
489.83	46.914
490.17	45.211
490.52	46.253
490.87	45.345
491.22	47.252
491.56	45.718
491.91	45.789
492.26	45.390
492.60	46.424
492.95	45.854
493.30	44.768
493.64	45.867
493.99	46.109
494.34	44.957
494.68	45.950
495.03	46.385
495.37	45.610
495.72	45.408
496.07	45.373
496.41	45.178
496.76	45.420
497.11	45.030
497.45	44.805
497.80	44.717
498.14	44.891
498.49	44.893
498.84	45.935
499.18	44.287
499.53	45.016
499.87	45.553
500.22	45.693
500.56	44.336
500.91	45.686
501.26	45.384
501.60	45.173
501.95	43.190
502.29	44.133
502.64	43.273
502.98	43.708
503.33	44.722
503.67	43.797
504.02	44.469
504.36	44.072
504.71	44.844
505.06	43.829
505.40	43.847
505.75	44.621
506.09	44.937
506.44	44.408
506.78	44.660
507.13	43.771
507.47	44.347
507.82	44.818
508.16	44.390
508.51	44.493
508.85	43.590
509.19	44.249
509.54	43.115
509.88	44.903
510.23	42.696
510.57	43.147
510.92	43.506
511.26	43.976
511.61	43.033
511.95	43.554
512.30	42.450
512.64	43.094
512.98	42.952
513.33	43.596
513.67	42.724
514.02	43.584
514.36	42.627
514.70	43.893
515.05	42.568
515.39	43.750
515.74	45.271
516.08	43.410
516.42	44.645
516.77	42.720
517.11	42.507
517.46	43.427
517.80	41.999
518.14	43.099
518.49	42.668
518.83	41.868
519.17	42.707
519.52	43.692
519.86	41.962
520.20	42.082
520.55	41.945
520.89	42.816
521.23	42.290
521.58	42.169
521.92	42.507
522.26	41.351
522.61	43.078
522.95	42.523
523.29	41.988
523.64	41.214
523.98	43.310
524.32	42.099
524.66	41.971
525.01	41.598
525.35	41.780
525.69	42.444
526.04	42.296
526.38	41.966
526.72	40.990
527.06	40.745
527.41	42.261
527.75	42.301
528.09	40.157
528.43	40.879
528.78	41.205
529.12	41.902
529.46	40.503
529.80	40.888
530.15	40.601
530.49	40.794
530.83	40.463
531.17	40.775
531.51	41.692
531.86	39.915
532.20	39.617
532.54	40.364
532.88	41.162
533.22	42.169
533.57	41.489
533.91	40.793
534.25	39.931
534.59	41.696
534.93	40.216
535.27	39.385
535.62	40.023
535.96	40.426
536.30	40.341
536.64	40.248
536.98	39.270
537.32	40.562
537.66	39.796
538.01	39.628
538.35	41.360
538.69	39.563
539.03	39.055
539.37	39.502
539.71	39.506
540.05	39.446
540.39	40.881
540.73	39.430
541.07	39.210
541.42	39.490
541.76	40.444
542.10	39.581
542.44	39.152
542.78	39.711
543.12	38.466
543.46	40.038
543.80	39.286
544.14	39.319
544.48	38.686
544.82	38.593
545.16	38.919
545.50	39.889
545.84	39.205
546.18	40.832
546.52	39.541
546.86	39.136
547.20	38.437
547.54	38.949
547.88	39.234
548.22	39.284
548.56	39.010
548.90	38.197
549.24	39.735
549.58	38.595
549.92	38.507
550.26	39.283
550.60	37.392
550.94	38.738
551.28	39.103
551.62	38.966
551.96	38.784
552.30	37.245
552.64	39.029
552.98	37.629
553.32	37.132
553.66	36.612
554.00	37.902
554.34	39.947
554.68	38.844
555.02	38.221
555.36	37.101
555.69	37.435
556.03	37.006
556.37	38.560
556.71	38.201
557.05	37.353
557.39	36.600
557.73	38.208
558.07	37.290
558.41	38.177
558.75	37.620
559.08	37.813
559.42	39.298
559.76	38.988
560.10	36.958
560.44	36.828
560.78	37.916
561.12	38.589
561.45	37.484
561.79	37.640
562.13	36.576
562.47	36.924
562.81	37.931
563.15	37.039
563.48	36.025
563.82	38.054
564.16	37.624
564.50	36.287
564.84	37.994
565.17	37.136
565.51	37.685
565.85	38.371
566.19	36.310
566.52	38.026
566.86	37.945
567.20	37.640
567.54	36.900
567.88	37.976
568.21	36.745
568.55	37.208
568.89	37.089
569.23	37.403
569.56	37.260
569.90	36.579
570.24	36.865
570.57	37.476
570.91	36.661
571.25	37.367
571.59	36.661
571.92	36.921
572.26	36.442
572.60	36.295
572.93	37.292
573.27	37.076
573.61	36.546
573.95	36.778
574.28	36.961
574.62	35.980
574.96	35.986
575.29	36.337
575.63	35.689
575.97	36.052
576.30	35.712
576.64	36.852
576.98	36.754
577.31	36.887
577.65	36.297
577.98	36.194
578.32	36.775
578.66	36.509
578.99	36.858
579.33	36.536
579.67	36.072
580.00	36.597
580.34	36.321
580.67	36.286
581.01	36.120
581.35	36.335
581.68	35.696
582.02	36.062
582.35	36.072
582.69	36.584
583.02	36.381
583.36	36.912
583.70	36.961
584.03	37.360
584.37	37.254
584.70	36.079
585.04	35.784
585.37	36.204
585.71	36.157
586.04	35.790
586.38	36.294
586.72	36.242
587.05	36.747
587.39	36.182
587.72	36.863
588.06	36.106
588.39	36.131
588.73	35.494
589.06	36.475
589.40	36.338
589.73	35.890
590.07	36.857
590.40	37.143
590.73	37.202
591.07	36.698
591.40	35.888
591.74	36.485
592.07	35.774
592.41	35.971
592.74	36.177
593.08	35.612
593.41	35.817
593.75	35.783
594.08	35.910
594.41	36.103
594.75	35.548
595.08	36.214
595.42	36.076
595.75	36.229
596.09	35.975
596.42	36.125
596.75	36.458
597.09	36.360
597.42	35.224
597.75	36.389
598.09	35.125
598.42	34.761
598.76	34.965
599.09	35.822
599.42	35.398
599.76	34.939
600.09	35.593
600.42	36.084
600.76	36.132
601.09	35.692
601.42	35.656
601.76	35.840
602.09	35.578
602.42	35.749
602.76	36.281
603.09	35.897
603.42	35.596
603.76	35.539
604.09	34.709
604.42	35.330
604.76	35.836
605.09	34.939
605.42	35.717
605.75	35.492
606.09	35.501
606.42	35.287
606.75	35.678
607.09	34.583
607.42	35.396
607.75	35.390
608.08	35.662
608.42	35.612
608.75	35.558
609.08	36.032
609.41	35.545
609.75	35.668
610.08	35.522
610.41	35.090
610.74	34.978
611.07	35.289
611.41	35.357
611.74	34.895
612.07	35.597
612.40	34.405
612.73	35.946
613.07	35.682
613.40	35.338
613.73	35.347
614.06	34.550
614.39	35.859
614.72	34.857
615.06	34.224
615.39	35.198
615.72	34.463
616.05	35.610
616.38	34.703
616.71	34.563
617.05	33.882
617.38	34.326
617.71	34.702
618.04	34.436
618.37	34.019
618.70	34.815
619.03	33.944
619.36	34.296
619.69	34.235
620.03	35.616
620.36	34.939
620.69	36.143
621.02	34.647
621.35	34.241
621.68	35.324
622.01	35.720
622.34	33.795
622.67	34.691
623.00	34.173
623.33	35.088
623.66	33.666
623.99	33.973
624.32	34.621
624.65	33.048
624.99	34.145
625.32	34.135
625.65	33.724
625.98	33.682
626.31	35.237
626.64	34.776
626.97	34.200
627.30	34.084
627.63	35.086
627.96	33.099
628.29	35.066
628.62	33.276
628.95	34.309
629.28	35.145
629.61	34.446
629.94	34.140
630.26	34.229
630.59	34.663
630.92	34.978
