SpectraSuite Data File
++++++++++++++++++++++++++++++++++++
Date: Tue May 12 15:34:54 PDT 2015
User: schluterlab
Dark Spectrum Present: Yes
Reference Spectrum Present: Yes
Number of Sampled Component Spectra: 1
Spectrometers: USB2E3373
Integration Time (usec): 3000 (USB2E3373)
Spectra Averaged: 3 (USB2E3373)
Boxcar Smoothing: 0 (USB2E3373)
Correct for Electrical Dark: No (USB2E3373)
Strobe/Lamp Enabled: No (USB2E3373)
Correct for Detector Non-linearity: No (USB2E3373)
Correct for Stray Light: No (USB2E3373)
Number of Pixels in Processed Spectrum: 2048
>>>>>Begin Processed Spectral Data<<<<<
178.53	0.000
178.91	-200.000
179.29	-725.000
179.67	-4100.000
180.04	-173.333
180.42	625.000
180.80	1600.000
181.18	0.000
181.56	-325.000
181.94	0.000
182.31	1266.667
182.69	-3600.000
183.07	585.714
183.45	-3500.000
183.83	-1550.000
184.20	370.000
184.58	457.143
184.96	-276.923
185.34	-275.000
185.72	1700.000
186.09	-850.000
186.47	-3200.000
186.85	1000.000
187.23	640.000
187.61	1650.000
187.98	487.500
188.36	278.571
188.74	316.667
189.12	316.667
189.49	900.000
189.87	0.000
190.25	425.000
190.63	3100.000
191.00	-300.000
191.38	-4600.000
191.76	-850.000
192.14	575.000
192.51	-2800.000
192.89	2100.000
193.27	1100.000
193.65	-800.000
194.02	-700.000
194.40	571.429
194.78	-278.571
195.15	306.667
195.53	-2900.000
195.91	-660.000
196.29	4000.000
196.66	225.000
197.04	975.000
197.42	-1750.000
197.79	675.000
198.17	308.333
198.55	0.000
198.92	585.714
199.30	1066.667
199.68	2200.000
200.05	550.000
200.43	-433.333
200.81	238.889
201.18	3400.000
201.56	375.000
201.94	-800.000
202.31	-350.000
202.69	-540.000
203.07	2900.000
203.44	-433.333
203.82	275.000
204.19	720.000
204.57	-1150.000
204.95	-575.000
205.32	-620.000
205.70	433.333
206.08	675.000
206.45	-900.000
206.83	444.444
207.20	200.000
207.58	300.000
207.96	900.000
208.33	0.000
208.71	557.143
209.08	700.000
209.46	-2600.000
209.84	-675.000
210.21	920.000
210.59	-540.000
210.96	325.000
211.34	-850.000
211.71	436.364
212.09	700.000
212.46	1950.000
212.84	-533.333
213.22	388.889
213.59	-2800.000
213.97	400.000
214.34	1100.000
214.72	1333.333
215.09	1000.000
215.47	-2900.000
215.84	-300.000
216.22	-462.500
216.59	0.000
216.97	0.000
217.34	1700.000
217.72	-1400.000
218.09	1100.000
218.47	525.000
218.84	850.000
219.22	1333.333
219.59	933.333
219.97	414.286
220.34	366.667
220.72	1500.000
221.09	3500.000
221.47	283.333
221.84	933.333
222.22	300.000
222.59	238.889
222.97	271.429
223.34	212.500
223.72	-1500.000
224.09	1333.333
224.46	253.846
224.84	-850.000
225.21	444.444
225.59	273.333
225.96	1366.667
226.34	-740.000
226.71	-700.000
227.08	-680.000
227.46	0.000
227.83	-600.000
228.21	-2050.000
228.58	375.000
228.95	900.000
229.33	333.333
229.70	950.000
230.08	269.231
230.45	3400.000
230.82	-975.000
231.20	-800.000
231.57	-1000.000
231.95	620.000
232.32	291.667
232.69	450.000
233.07	308.333
233.44	-1600.000
233.81	273.333
234.19	155.556
234.56	237.500
234.93	158.824
235.31	175.000
235.68	256.250
236.05	157.143
236.43	133.333
236.80	178.571
237.17	141.379
237.55	106.250
237.92	95.000
238.29	115.152
238.67	100.000
239.04	85.366
239.41	64.583
239.79	85.000
240.16	43.750
240.53	45.902
240.91	50.725
241.28	76.271
241.65	50.000
242.02	63.380
242.40	55.714
242.77	37.363
243.14	20.253
243.51	40.404
243.89	35.514
244.26	40.187
244.63	33.663
245.00	25.688
245.38	27.966
245.75	25.758
246.12	32.593
246.49	25.532
246.87	14.754
247.24	27.333
247.61	29.375
247.98	22.449
248.36	19.394
248.73	25.000
249.10	17.262
249.47	15.000
249.84	18.905
250.22	15.135
250.59	16.500
250.96	13.080
251.33	15.349
251.70	15.625
252.08	17.647
252.45	12.749
252.82	15.589
253.19	13.043
253.56	12.308
253.94	13.768
254.31	10.465
254.68	16.028
255.05	13.103
255.42	14.964
255.79	10.749
256.16	10.508
256.54	13.961
256.91	12.745
257.28	10.368
257.65	9.404
258.02	13.274
258.39	12.894
258.76	11.304
259.14	7.714
259.51	9.913
259.88	12.462
260.25	5.495
260.62	10.411
260.99	8.815
261.36	8.357
261.73	13.298
262.10	12.565
262.47	9.250
262.85	7.200
263.22	9.769
263.59	10.230
263.96	11.779
264.33	8.148
264.70	11.548
265.07	8.537
265.44	8.716
265.81	9.198
266.18	10.069
266.55	5.201
266.92	9.172
267.29	9.430
267.66	7.623
268.03	8.744
268.40	8.879
268.77	9.471
269.14	7.809
269.51	7.127
269.88	7.959
270.25	4.104
270.62	6.652
270.99	10.142
271.36	8.537
271.73	5.870
272.10	6.263
272.47	6.944
272.84	7.585
273.21	7.231
273.58	9.312
273.95	6.982
274.32	7.393
274.69	9.252
275.06	8.379
275.43	6.897
275.80	6.415
276.17	7.904
276.54	9.346
276.91	9.328
277.28	6.934
277.65	6.273
278.02	8.272
278.39	5.216
278.76	7.586
279.13	8.007
279.50	8.182
279.87	5.773
280.23	4.972
280.60	4.380
280.97	5.172
281.34	6.766
281.71	8.348
282.08	6.838
282.45	5.912
282.82	7.525
283.19	6.836
283.56	6.942
283.92	5.700
284.29	7.155
284.66	4.202
285.03	6.633
285.40	7.273
285.77	5.710
286.14	7.585
286.51	6.595
286.87	3.481
287.24	5.105
287.61	5.471
287.98	7.463
288.35	5.481
288.72	5.615
289.08	4.955
289.45	7.165
289.82	5.625
290.19	4.246
290.56	8.151
290.93	5.899
291.29	5.525
291.66	6.497
292.03	5.189
292.40	6.504
292.77	5.850
293.13	6.990
293.50	4.723
293.87	5.285
294.24	5.035
294.60	6.460
294.97	6.434
295.34	5.843
295.71	6.439
296.08	5.200
296.44	5.464
296.81	4.963
297.18	4.436
297.55	5.911
297.91	5.419
298.28	6.280
298.65	5.767
299.02	5.549
299.38	6.235
299.75	4.390
300.12	5.390
300.48	5.621
300.85	5.006
301.22	6.512
301.59	4.245
301.95	5.484
302.32	5.588
302.69	6.448
303.05	6.173
303.42	5.717
303.79	4.984
304.15	4.620
304.52	4.228
304.89	5.864
305.25	5.673
305.62	5.757
305.99	4.348
306.35	4.842
306.72	5.099
307.09	5.797
307.45	4.857
307.82	4.115
308.19	5.052
308.55	5.600
308.92	6.183
309.29	5.819
309.65	5.253
310.02	5.071
310.38	5.683
310.75	5.497
311.12	4.023
311.48	6.371
311.85	4.676
312.22	6.686
312.58	5.734
312.95	6.699
313.31	6.273
313.68	5.629
314.05	6.685
314.41	5.121
314.78	5.019
315.14	6.540
315.51	6.339
315.87	5.201
316.24	6.816
316.61	6.088
316.97	5.321
317.34	6.199
317.70	5.180
318.07	6.673
318.43	6.766
318.80	6.743
319.16	6.731
319.53	6.372
319.89	4.839
320.26	7.449
320.62	6.319
320.99	5.529
321.35	6.679
321.72	6.167
322.08	6.371
322.45	6.449
322.81	5.306
323.18	7.105
323.54	7.143
323.91	7.616
324.27	5.924
324.64	6.401
325.00	6.897
325.37	6.155
325.73	5.818
326.10	7.374
326.46	6.276
326.83	6.160
327.19	6.586
327.56	5.990
327.92	7.869
328.29	8.101
328.65	7.363
329.01	6.416
329.38	7.530
329.74	6.405
330.11	6.777
330.47	6.053
330.84	5.522
331.20	7.783
331.56	7.340
331.93	7.613
332.29	6.973
332.66	6.378
333.02	7.216
333.38	6.370
333.75	7.339
334.11	6.963
334.48	6.496
334.84	6.419
335.20	6.843
335.57	7.305
335.93	7.065
336.29	6.468
336.66	6.775
337.02	6.416
337.38	7.223
337.75	7.179
338.11	6.835
338.47	6.859
338.84	6.351
339.20	5.368
339.56	7.065
339.93	5.686
340.29	6.134
340.65	7.125
341.02	7.241
341.38	6.404
341.74	5.814
342.11	5.509
342.47	5.250
342.83	6.973
343.20	5.901
343.56	5.957
343.92	5.945
344.28	6.619
344.65	5.623
345.01	6.190
345.37	5.449
345.73	5.476
346.10	5.817
346.46	5.742
346.82	5.633
347.19	6.955
347.55	5.855
347.91	5.363
348.27	5.267
348.63	6.171
349.00	6.321
349.36	5.136
349.72	5.963
350.08	6.599
350.45	5.636
350.81	6.651
351.17	5.162
351.53	5.312
351.89	6.216
352.26	5.215
352.62	6.486
352.98	5.982
353.34	6.163
353.70	5.046
354.07	6.308
354.43	5.837
354.79	5.163
355.15	5.360
355.51	5.891
355.87	5.723
356.24	5.543
356.60	6.240
356.96	5.080
357.32	6.104
357.68	6.681
358.04	5.851
358.40	6.297
358.77	6.011
359.13	5.030
359.49	6.227
359.85	5.138
360.21	4.681
360.57	5.547
360.93	5.195
361.29	5.772
361.66	6.935
362.02	5.682
362.38	5.556
362.74	6.016
363.10	6.101
363.46	5.387
363.82	6.802
364.18	5.832
364.54	5.794
364.90	5.823
365.26	6.246
365.62	4.834
365.98	5.506
366.35	4.828
366.71	6.037
367.07	5.870
367.43	5.977
367.79	6.649
368.15	4.885
368.51	6.134
368.87	5.231
369.23	5.267
369.59	5.866
369.95	5.385
370.31	5.065
370.67	5.690
371.03	5.882
371.39	6.233
371.75	5.443
372.11	5.642
372.47	5.822
372.83	5.167
373.19	6.169
373.55	6.529
373.91	5.870
374.27	5.622
374.63	6.305
374.99	5.526
375.35	5.712
375.71	6.530
376.07	5.703
376.42	5.691
376.78	6.294
377.14	5.832
377.50	6.367
377.86	5.381
378.22	5.302
378.58	6.538
378.94	6.337
379.30	5.822
379.66	6.081
380.02	6.569
380.38	5.328
380.74	6.632
381.09	6.250
381.45	5.607
381.81	5.674
382.17	5.372
382.53	5.759
382.89	5.973
383.25	6.157
383.61	6.167
383.97	5.879
384.32	5.787
384.68	6.952
385.04	6.624
385.40	6.643
385.76	5.851
386.12	5.875
386.48	5.532
386.83	6.663
387.19	6.302
387.55	6.360
387.91	6.524
388.27	6.127
388.62	5.927
388.98	5.773
389.34	6.484
389.70	5.896
390.06	6.220
390.42	6.663
390.77	6.818
391.13	6.457
391.49	6.655
391.85	6.892
392.20	6.436
392.56	7.348
392.92	6.008
393.28	6.278
393.64	5.562
393.99	6.343
394.35	6.062
394.71	6.031
395.07	6.144
395.42	6.030
395.78	6.724
396.14	6.807
396.50	6.017
396.85	6.463
397.21	6.438
397.57	6.216
397.92	5.604
398.28	5.736
398.64	6.806
399.00	5.986
399.35	6.119
399.71	6.071
400.07	5.765
400.42	5.134
400.78	6.158
401.14	5.931
401.49	5.991
401.85	6.547
402.21	6.034
402.57	6.044
402.92	6.061
403.28	5.847
403.63	6.416
403.99	6.996
404.35	6.682
404.70	6.320
405.06	6.345
405.42	5.805
405.77	6.615
406.13	5.803
406.49	5.742
406.84	5.979
407.20	6.164
407.55	6.338
407.91	7.020
408.27	6.367
408.62	6.919
408.98	5.736
409.34	5.669
409.69	5.849
410.05	5.784
410.40	5.124
410.76	5.381
411.11	5.746
411.47	6.420
411.83	5.390
412.18	5.193
412.54	5.946
412.89	5.782
413.25	7.412
413.60	6.075
413.96	5.865
414.31	5.844
414.67	6.704
415.03	6.003
415.38	6.246
415.74	5.559
416.09	6.371
416.45	6.852
416.80	6.928
417.16	5.729
417.51	6.879
417.87	6.008
418.22	6.440
418.58	5.796
418.93	6.187
419.29	5.484
419.64	5.815
420.00	6.981
420.35	5.923
420.71	5.951
421.06	5.180
421.42	6.102
421.77	5.275
422.12	5.733
422.48	6.009
422.83	5.525
423.19	4.806
423.54	5.760
423.90	6.172
424.25	5.394
424.61	5.862
424.96	5.477
425.31	5.583
425.67	6.004
426.02	6.057
426.38	5.484
426.73	6.651
427.09	5.694
427.44	5.008
427.79	5.146
428.15	6.070
428.50	6.514
428.85	5.938
429.21	5.402
429.56	5.234
429.92	6.365
430.27	5.515
430.62	4.993
430.98	5.439
431.33	4.536
431.68	5.037
432.04	5.070
432.39	5.818
432.74	5.796
433.10	5.648
433.45	5.342
433.80	6.067
434.16	5.360
434.51	5.934
434.86	6.042
435.22	5.186
435.57	5.513
435.92	5.976
436.28	6.106
436.63	5.889
436.98	5.011
437.34	6.164
437.69	5.151
438.04	5.860
438.39	5.429
438.75	6.459
439.10	5.505
439.45	6.331
439.81	6.015
440.16	5.724
440.51	5.856
440.86	6.382
441.22	5.682
441.57	5.617
441.92	5.577
442.27	5.258
442.63	5.539
442.98	5.496
443.33	5.731
443.68	6.841
444.03	5.042
444.39	5.226
444.74	5.642
445.09	6.266
445.44	5.685
445.79	5.166
446.15	5.579
446.50	5.591
446.85	6.026
447.20	5.224
447.55	5.655
447.91	6.180
448.26	5.911
448.61	5.417
448.96	5.828
449.31	5.556
449.66	6.700
450.02	5.078
450.37	5.997
450.72	6.006
451.07	6.166
451.42	5.572
451.77	6.300
452.12	6.239
452.47	6.075
452.83	6.366
453.18	6.907
453.53	5.980
453.88	6.286
454.23	6.217
454.58	6.410
454.93	5.334
455.28	6.120
455.63	6.324
455.98	6.430
456.34	6.809
456.69	5.732
457.04	6.683
457.39	5.886
457.74	5.968
458.09	5.446
458.44	6.024
458.79	6.207
459.14	5.237
459.49	5.663
459.84	6.033
460.19	6.328
460.54	6.211
460.89	6.130
461.24	5.956
461.59	6.009
461.94	6.560
462.29	5.721
462.64	6.847
462.99	6.142
463.34	6.805
463.69	7.018
464.04	6.621
464.39	6.239
464.74	5.041
465.09	6.326
465.44	6.039
465.79	5.988
466.14	5.564
466.49	6.131
466.84	6.132
467.19	6.678
467.54	6.126
467.89	6.279
468.24	6.312
468.59	6.845
468.94	5.918
469.29	6.170
469.64	7.010
469.99	6.427
470.34	6.705
470.68	6.621
471.03	6.671
471.38	5.960
471.73	6.140
472.08	6.588
472.43	6.021
472.78	6.722
473.13	6.133
473.48	6.051
473.83	5.889
474.17	6.079
474.52	6.102
474.87	6.083
475.22	6.225
475.57	5.929
475.92	5.774
476.27	5.441
476.61	5.523
476.96	6.531
477.31	6.221
477.66	6.334
478.01	6.343
478.36	5.870
478.70	5.658
479.05	5.387
479.40	5.804
479.75	6.405
480.10	5.566
480.45	5.649
480.79	5.576
481.14	5.516
481.49	5.215
481.84	5.849
482.19	5.284
482.53	5.753
482.88	5.556
483.23	5.503
483.58	5.745
483.92	5.713
484.27	5.479
484.62	5.136
484.97	5.765
485.31	4.813
485.66	4.982
486.01	4.743
486.36	4.490
486.70	4.291
487.05	4.629
487.40	4.843
487.75	5.083
488.09	5.199
488.44	4.971
488.79	4.964
489.13	5.562
489.48	5.913
489.83	5.088
490.17	5.244
490.52	5.426
490.87	6.121
491.22	5.940
491.56	6.148
491.91	5.511
492.26	5.969
492.60	5.467
492.95	5.483
493.30	5.414
493.64	5.571
493.99	5.546
494.34	5.468
494.68	5.710
495.03	5.568
495.37	5.898
495.72	5.874
496.07	5.930
496.41	5.647
496.76	5.783
497.11	5.955
497.45	6.006
497.80	5.468
498.14	5.687
498.49	6.128
498.84	5.374
499.18	5.439
499.53	5.650
499.87	5.121
500.22	5.389
500.56	5.292
500.91	6.401
501.26	5.926
501.60	5.556
501.95	5.376
502.29	6.133
502.64	5.249
502.98	4.936
503.33	5.434
503.67	5.607
504.02	5.508
504.36	5.475
504.71	5.629
505.06	6.147
505.40	5.896
505.75	5.426
506.09	6.486
506.44	5.874
506.78	6.002
507.13	5.332
507.47	5.580
507.82	5.985
508.16	5.781
508.51	5.459
508.85	5.935
509.19	6.118
509.54	6.299
509.88	5.917
510.23	5.980
510.57	5.792
510.92	5.644
511.26	5.522
511.61	5.810
511.95	6.222
512.30	5.900
512.64	5.867
512.98	5.946
513.33	6.096
513.67	6.732
514.02	5.818
514.36	5.919
514.70	5.653
515.05	5.754
515.39	5.702
515.74	5.796
516.08	6.209
516.42	5.738
516.77	5.653
517.11	5.813
517.46	5.765
517.80	5.680
518.14	6.141
518.49	6.229
518.83	5.989
519.17	5.435
519.52	6.499
519.86	5.831
520.20	6.849
520.55	5.144
520.89	5.862
521.23	6.192
521.58	5.795
521.92	6.414
522.26	5.806
522.61	6.655
522.95	6.306
523.29	5.906
523.64	6.243
523.98	6.103
524.32	5.998
524.66	6.377
525.01	5.562
525.35	6.128
525.69	5.719
526.04	7.139
526.38	6.062
526.72	6.265
527.06	6.032
527.41	6.832
527.75	6.452
528.09	6.141
528.43	5.796
528.78	6.380
529.12	6.683
529.46	6.078
529.80	6.192
530.15	6.836
530.49	5.596
530.83	6.094
531.17	6.089
531.51	5.947
531.86	5.857
532.20	6.304
532.54	5.964
532.88	5.809
533.22	6.459
533.57	5.918
533.91	5.769
534.25	5.770
534.59	6.550
534.93	6.314
535.27	5.407
535.62	6.068
535.96	5.437
536.30	6.947
536.64	5.217
536.98	6.419
537.32	6.688
537.66	5.676
538.01	6.811
538.35	5.864
538.69	6.371
539.03	6.219
539.37	6.371
539.71	6.481
540.05	6.462
540.39	6.981
540.73	6.392
541.07	5.960
541.42	5.908
541.76	6.042
542.10	6.473
542.44	6.421
542.78	5.286
543.12	6.074
543.46	5.576
543.80	6.015
544.14	6.687
544.48	5.900
544.82	6.544
545.16	5.222
545.50	6.392
545.84	7.765
546.18	5.852
546.52	6.164
546.86	6.447
547.20	5.620
547.54	6.396
547.88	5.900
548.22	6.193
548.56	6.011
548.90	6.702
549.24	6.191
549.58	6.379
549.92	5.828
550.26	6.153
550.60	6.720
550.94	6.649
551.28	6.414
551.62	6.690
551.96	6.081
552.30	5.076
552.64	6.084
552.98	5.219
553.32	5.634
553.66	5.342
554.00	5.663
554.34	6.192
554.68	6.116
555.02	6.653
555.36	6.184
555.69	5.759
556.03	6.688
556.37	5.864
556.71	6.845
557.05	5.439
557.39	6.333
557.73	7.008
558.07	6.170
558.41	5.757
558.75	6.977
559.08	5.861
559.42	6.013
559.76	5.346
560.10	5.988
560.44	6.105
560.78	6.905
561.12	5.976
561.45	5.695
561.79	5.556
562.13	5.749
562.47	5.970
562.81	5.856
563.15	5.624
563.48	5.528
563.82	6.737
564.16	6.157
564.50	5.787
564.84	5.897
565.17	5.942
565.51	5.727
565.85	6.046
566.19	6.012
566.52	4.994
566.86	6.013
567.20	6.180
567.54	5.022
567.88	6.521
568.21	5.242
568.55	5.447
568.89	5.657
569.23	5.436
569.56	5.351
569.90	5.390
570.24	4.770
570.57	4.867
570.91	4.524
571.25	4.686
571.59	4.399
571.92	4.467
572.26	3.908
572.60	4.415
572.93	4.687
573.27	4.854
573.61	4.142
573.95	4.059
574.28	4.532
574.62	4.285
574.96	4.069
575.29	4.211
575.63	4.052
575.97	3.968
576.30	4.024
576.64	4.208
576.98	4.179
577.31	4.479
577.65	4.227
577.98	3.848
578.32	4.186
578.66	4.121
578.99	4.237
579.33	4.330
579.67	3.923
580.00	4.082
580.34	3.867
580.67	4.206
581.01	4.279
581.35	3.975
581.68	3.906
582.02	3.918
582.35	3.831
582.69	3.883
583.02	3.989
583.36	4.366
583.70	4.404
584.03	4.350
584.37	4.341
584.70	4.504
585.04	3.950
585.37	4.080
585.71	4.270
586.04	4.160
586.38	3.878
586.72	4.453
587.05	4.529
587.39	3.869
587.72	4.440
588.06	4.271
588.39	4.708
588.73	4.250
589.06	4.348
589.40	4.601
589.73	4.720
590.07	5.010
590.40	4.808
590.73	4.884
591.07	5.275
591.40	4.790
591.74	4.748
592.07	4.534
592.41	5.036
592.74	4.321
593.08	4.232
593.41	4.099
593.75	4.041
594.08	4.496
594.41	4.399
594.75	4.486
595.08	4.390
595.42	5.036
595.75	5.035
596.09	4.901
596.42	4.698
596.75	4.567
597.09	4.622
597.42	4.735
597.75	4.665
598.09	4.514
598.42	4.733
598.76	4.549
599.09	5.112
599.42	4.498
599.76	4.953
600.09	4.814
600.42	4.178
600.76	4.113
601.09	4.246
601.42	4.681
601.76	4.296
602.09	4.673
602.42	4.806
602.76	4.592
603.09	4.713
603.42	4.624
603.76	4.049
604.09	4.669
604.42	4.369
604.76	4.820
605.09	4.939
605.42	4.592
605.75	4.461
606.09	4.782
606.42	4.434
606.75	4.858
607.09	4.659
607.42	4.419
607.75	4.578
608.08	4.752
608.42	4.908
608.75	4.193
609.08	3.960
609.41	4.636
609.75	5.037
610.08	4.496
610.41	5.051
610.74	4.935
611.07	5.321
611.41	5.005
611.74	4.446
612.07	4.432
612.40	4.825
612.73	5.092
613.07	5.423
613.40	4.912
613.73	4.643
614.06	4.150
614.39	4.798
614.72	5.324
615.06	4.599
615.39	5.248
615.72	4.937
616.05	4.621
616.38	5.023
616.71	4.883
617.05	4.613
617.38	4.775
617.71	4.893
618.04	5.496
618.37	5.058
618.70	4.561
619.03	4.945
619.36	5.339
619.69	4.354
620.03	6.132
620.36	4.881
620.69	6.258
621.02	5.571
621.35	5.731
621.68	5.900
622.01	6.125
622.34	5.171
622.67	5.969
623.00	5.718
623.33	5.466
623.66	5.323
623.99	5.068
624.32	4.743
624.65	5.464
624.99	4.733
625.32	5.478
625.65	4.690
625.98	6.067
626.31	6.083
626.64	5.239
626.97	5.356
627.30	5.668
627.63	6.279
627.96	5.399
628.29	5.611
628.62	5.646
628.95	5.585
629.28	6.836
629.61	5.712
629.94	6.223
630.26	6.586
630.59	7.358
630.92	5.202
631.25	7.888
631.58	6.750
631.91	5.804
632.24	6.706
632.57	5.599
632.90	6.729
633.23	7.135
633.56	6.744
633.89	7.181
634.22	6.459
634.55	6.989
634.88	7.996
635.20	6.839
635.53	6.736
635.86	6.823
636.19	8.642
636.52	6.703
636.85	5.717
637.18	7.259
637.51	6.034
637.83	6.522
638.16	8.324
638.49	7.784
638.82	8.216
639.15	6.463
639.48	8.175
639.81	6.838
640.13	7.239
640.46	6.574
640.79	7.932
641.12	6.168
641.45	8.409
641.77	7.530
642.10	6.693
642.43	8.108
642.76	8.097
643.09	7.205
643.41	9.818
643.74	8.921
644.07	7.522
644.40	6.805
644.73	8.108
645.05	8.618
645.38	9.188
645.71	9.105
646.04	8.550
646.36	9.233
646.69	7.360
647.02	8.160
647.35	6.142
647.67	7.618
648.00	7.329
648.33	9.173
648.66	9.242
648.98	8.406
649.31	7.557
649.64	6.501
649.96	6.970
650.29	6.714
650.62	8.689
650.94	9.940
651.27	9.091
651.60	8.138
651.92	9.063
652.25	8.346
652.58	8.369
652.90	9.132
653.23	7.681
653.56	9.050
653.88	6.902
654.21	7.918
654.54	8.346
654.86	8.850
655.19	8.179
655.52	6.218
655.84	3.001
