SpectraSuite Data File
++++++++++++++++++++++++++++++++++++
Date: Tue May 12 15:10:17 PDT 2015
User: schluterlab
Dark Spectrum Present: Yes
Reference Spectrum Present: Yes
Number of Sampled Component Spectra: 1
Spectrometers: USB2E3373
Integration Time (usec): 3000 (USB2E3373)
Spectra Averaged: 3 (USB2E3373)
Boxcar Smoothing: 0 (USB2E3373)
Correct for Electrical Dark: No (USB2E3373)
Strobe/Lamp Enabled: No (USB2E3373)
Correct for Detector Non-linearity: No (USB2E3373)
Correct for Stray Light: No (USB2E3373)
Number of Pixels in Processed Spectrum: 2048
>>>>>Begin Processed Spectral Data<<<<<
178.53	0.000
178.91	-83.333
179.29	-475.000
179.67	-2000.000
180.04	-33.333
180.42	400.000
180.80	1100.000
181.18	0.000
181.56	-75.000
181.94	0.000
182.31	633.333
182.69	-1400.000
183.07	271.429
183.45	-1700.000
183.83	-550.000
184.20	150.000
184.58	371.429
184.96	-115.385
185.34	-66.667
185.72	1300.000
186.09	-400.000
186.47	-2000.000
186.85	466.667
187.23	420.000
187.61	1150.000
187.98	300.000
188.36	121.429
188.74	275.000
189.12	208.333
189.49	700.000
189.87	0.000
190.25	237.500
190.63	1100.000
191.00	-66.667
191.38	-2500.000
191.76	-400.000
192.14	425.000
192.51	-1300.000
192.89	1550.000
193.27	600.000
193.65	-733.333
194.02	-500.000
194.40	357.143
194.78	-85.714
195.15	120.000
195.53	-1100.000
195.91	-180.000
196.29	2300.000
196.66	212.500
197.04	600.000
197.42	-750.000
197.79	575.000
198.17	183.333
198.55	0.000
198.92	371.429
199.30	533.333
199.68	1000.000
200.05	466.667
200.43	-183.333
200.81	144.444
201.18	1600.000
201.56	158.333
201.94	-300.000
202.31	-100.000
202.69	-380.000
203.07	1900.000
203.44	-216.667
203.82	191.667
204.19	340.000
204.57	-1050.000
204.95	-525.000
205.32	-340.000
205.70	333.333
206.08	400.000
206.45	-533.333
206.83	233.333
207.20	121.053
207.58	241.667
207.96	440.000
208.33	0.000
208.71	371.429
209.08	500.000
209.46	-1300.000
209.84	-425.000
210.21	660.000
210.59	-300.000
210.96	191.667
211.34	-425.000
211.71	281.818
212.09	450.000
212.46	1050.000
212.84	-150.000
213.22	222.222
213.59	-1100.000
213.97	250.000
214.34	425.000
214.72	866.667
215.09	700.000
215.47	-2000.000
215.84	-160.000
216.22	-237.500
216.59	0.000
216.97	0.000
217.34	450.000
217.72	-600.000
218.09	766.667
218.47	362.500
218.84	600.000
219.22	833.333
219.59	500.000
219.97	371.429
220.34	244.444
220.72	1200.000
221.09	2400.000
221.47	200.000
221.84	400.000
222.22	210.000
222.59	155.556
222.97	121.429
223.34	218.750
223.72	-650.000
224.09	533.333
224.46	146.154
224.84	-575.000
225.21	266.667
225.59	193.333
225.96	866.667
226.34	-420.000
226.71	-375.000
227.08	-140.000
227.46	0.000
227.83	-300.000
228.21	-1200.000
228.58	333.333
228.95	675.000
229.33	266.667
229.70	675.000
230.08	269.231
230.45	2500.000
230.82	-650.000
231.20	-566.667
231.57	-666.667
231.95	360.000
232.32	91.667
232.69	283.333
233.07	208.333
233.44	-1150.000
233.81	206.667
234.19	137.037
234.56	143.750
234.93	176.471
235.31	185.000
235.68	218.750
236.05	146.429
236.43	114.815
236.80	242.857
237.17	151.724
237.55	121.875
237.92	107.500
238.29	121.212
238.67	115.625
239.04	117.073
239.41	83.333
239.79	107.500
240.16	116.667
240.53	67.213
240.91	100.000
241.28	79.661
241.65	98.485
242.02	91.549
242.40	100.000
242.77	80.220
243.14	92.405
243.51	88.889
243.89	83.178
244.26	71.963
244.63	75.248
245.00	74.312
245.38	77.966
245.75	68.939
246.12	85.185
246.49	69.504
246.87	78.689
247.24	75.333
247.61	72.500
247.98	76.190
248.36	78.182
248.73	69.388
249.10	70.833
249.47	74.500
249.84	72.637
250.22	72.973
250.59	67.500
250.96	64.557
251.33	71.163
251.70	75.446
252.08	69.328
252.45	64.143
252.82	64.259
253.19	61.660
253.56	66.154
253.94	61.232
254.31	71.318
254.68	70.732
255.05	68.276
255.42	69.708
255.79	71.661
256.16	67.797
256.54	69.156
256.91	65.686
257.28	67.893
257.65	64.890
258.02	63.422
258.39	65.903
258.76	64.638
259.14	62.857
259.51	71.137
259.88	69.909
260.25	64.835
260.62	66.849
260.99	60.882
261.36	66.295
261.73	63.032
262.10	66.754
262.47	63.250
262.85	63.467
263.22	64.267
263.59	64.962
263.96	65.664
264.33	61.481
264.70	66.339
265.07	64.390
265.44	61.009
265.81	62.972
266.18	64.760
266.55	69.504
266.92	65.548
267.29	65.351
267.66	63.453
268.03	63.901
268.40	63.425
268.77	63.877
269.14	63.774
269.51	64.811
269.88	63.469
270.25	58.963
270.62	64.592
270.99	61.663
271.36	61.179
271.73	65.199
272.10	61.414
272.47	60.913
272.84	60.878
273.21	60.537
273.58	63.158
273.95	63.244
274.32	62.840
274.69	63.976
275.06	61.566
275.43	59.004
275.80	59.434
276.17	59.743
276.54	61.869
276.91	63.806
277.28	61.496
277.65	64.022
278.02	60.478
278.39	61.331
278.76	58.621
279.13	61.388
279.50	59.636
279.87	60.894
280.23	62.063
280.60	61.861
280.97	61.724
281.34	60.066
281.71	58.261
282.08	57.436
282.45	58.953
282.82	59.699
283.19	57.552
283.56	58.843
283.92	58.143
284.29	59.401
284.66	57.983
285.03	59.038
285.40	55.207
285.77	55.710
286.14	55.728
286.51	56.288
286.87	54.589
287.24	52.703
287.61	56.839
287.98	53.881
288.35	55.259
288.72	53.263
289.08	53.904
289.45	54.268
289.82	54.375
290.19	54.173
290.56	52.984
290.93	53.094
291.29	50.967
291.66	51.836
292.03	50.771
292.40	48.780
292.77	49.304
293.13	50.785
293.50	48.313
293.87	48.374
294.24	50.070
294.60	47.376
294.97	49.510
295.34	48.473
295.71	48.095
296.08	47.200
296.44	46.379
296.81	45.782
297.18	46.261
297.55	45.197
297.91	44.828
298.28	44.686
298.65	45.890
299.02	44.150
299.38	44.964
299.75	45.244
300.12	42.087
300.48	43.443
300.85	44.219
301.22	43.488
301.59	41.863
301.95	41.890
302.32	43.655
302.69	42.195
303.05	44.220
303.42	41.368
303.79	43.012
304.15	42.244
304.52	42.495
304.89	41.898
305.25	41.824
305.62	40.299
305.99	39.457
306.35	41.368
306.72	42.872
307.09	40.890
307.45	39.599
307.82	40.329
308.19	41.340
308.55	41.500
308.92	40.334
309.29	41.223
309.65	39.643
310.02	41.886
310.38	39.282
310.75	38.766
311.12	37.644
311.48	40.154
311.85	38.740
312.22	39.828
312.58	39.359
312.95	39.223
313.31	40.449
313.68	38.931
314.05	38.828
314.41	39.106
314.78	39.015
315.14	39.526
315.51	38.505
315.87	38.230
316.24	38.842
316.61	38.675
316.97	37.890
317.34	38.095
317.70	38.367
318.07	39.947
318.43	38.840
318.80	38.967
319.16	38.899
319.53	38.938
319.89	37.276
320.26	39.758
320.62	38.919
320.99	38.036
321.35	37.755
321.72	38.520
322.08	37.396
322.45	39.691
322.81	39.707
323.18	39.254
323.54	38.328
323.91	39.891
324.27	38.373
324.64	39.273
325.00	38.707
325.37	38.364
325.73	37.858
326.10	36.951
326.46	38.893
326.83	38.880
327.19	39.839
327.56	37.380
327.92	38.361
328.29	37.480
328.65	38.527
329.01	38.409
329.38	37.986
329.74	37.319
330.11	37.880
330.47	37.511
330.84	36.324
331.20	37.986
331.56	36.442
331.93	38.922
332.29	37.330
332.66	38.095
333.02	37.715
333.38	38.656
333.75	38.782
334.11	36.661
334.48	38.547
334.84	36.993
335.20	36.698
335.57	35.264
335.93	35.408
336.29	35.075
336.66	38.079
337.02	36.527
337.38	35.512
337.75	37.162
338.11	36.793
338.47	35.563
338.84	35.817
339.20	36.537
339.56	35.408
339.93	35.870
340.29	34.958
340.65	36.463
341.02	35.559
341.38	36.289
341.74	36.462
342.11	36.811
342.47	35.931
342.83	36.505
343.20	36.378
343.56	34.472
343.92	35.673
344.28	35.486
344.65	36.267
345.01	35.317
345.37	33.974
345.73	35.238
346.10	34.661
346.46	35.566
346.82	33.488
347.19	35.394
347.55	34.270
347.91	34.063
348.27	35.244
348.63	35.918
349.00	35.415
349.36	35.097
349.72	35.245
350.08	35.093
350.45	35.720
350.81	35.092
351.17	34.129
351.53	34.565
351.89	34.577
352.26	34.467
352.62	35.068
352.98	35.046
353.34	35.516
353.70	34.480
354.07	35.000
354.43	35.791
354.79	32.726
355.15	34.150
355.51	34.215
355.87	35.090
356.24	34.026
356.60	33.790
356.96	34.723
357.32	33.760
357.68	33.333
358.04	34.422
358.40	33.433
358.77	35.462
359.13	34.309
359.49	34.173
359.85	34.177
360.21	33.581
360.57	34.453
360.93	34.055
361.29	32.756
361.66	34.004
362.02	32.955
362.38	33.333
362.74	32.909
363.10	34.011
363.46	31.561
363.82	34.011
364.18	34.637
364.54	34.764
364.90	33.133
365.26	33.241
365.62	33.633
365.98	33.104
366.35	33.931
366.71	33.171
367.07	33.242
367.43	33.647
367.79	33.311
368.15	31.275
368.51	34.183
368.87	33.356
369.23	33.472
369.59	33.311
369.95	33.916
370.31	33.333
370.67	33.518
371.03	33.473
371.39	33.587
371.75	32.729
372.11	32.223
372.47	33.356
372.83	33.651
373.19	34.476
373.55	33.127
373.91	31.699
374.27	33.003
374.63	33.424
374.99	33.221
375.35	32.997
375.71	33.179
376.07	32.759
376.42	31.969
376.78	33.911
377.14	33.290
377.50	33.208
377.86	33.376
378.22	32.846
378.58	33.172
378.94	32.951
379.30	32.868
379.66	32.511
380.02	33.548
380.38	33.372
380.74	33.506
381.09	32.886
381.45	32.890
381.81	32.742
382.17	32.723
382.53	32.094
382.89	33.116
383.25	32.445
383.61	32.161
383.97	31.974
384.32	33.032
384.68	33.987
385.04	33.411
385.40	32.859
385.76	32.651
386.12	32.591
386.48	32.948
386.83	33.496
387.19	33.569
387.55	33.157
387.91	33.372
388.27	33.076
388.62	32.042
388.98	32.595
389.34	32.005
389.70	32.606
390.06	33.171
390.42	32.572
390.77	32.801
391.13	33.253
391.49	33.152
391.85	34.154
392.20	33.075
392.56	33.274
392.92	33.184
393.28	32.679
393.64	32.282
393.99	32.662
394.35	32.607
394.71	32.871
395.07	32.786
395.42	32.611
395.78	33.436
396.14	33.795
396.50	32.431
396.85	33.232
397.21	31.949
397.57	32.875
397.92	32.236
398.28	32.819
398.64	34.264
399.00	32.496
399.35	33.548
399.71	32.947
400.07	32.192
400.42	33.313
400.78	32.258
401.14	33.294
401.49	32.085
401.85	32.851
402.21	31.576
402.57	32.855
402.92	33.455
403.28	31.563
403.63	32.019
403.99	33.353
404.35	33.587
404.70	33.491
405.06	31.724
405.42	32.136
405.77	32.470
406.13	32.918
406.49	32.121
406.84	32.092
407.20	33.619
407.55	31.877
407.91	33.376
408.27	32.747
408.62	32.703
408.98	32.407
409.34	32.846
409.69	32.981
410.05	32.320
410.40	32.862
410.76	32.456
411.11	32.050
411.47	32.099
411.83	32.455
412.18	32.850
412.54	32.132
412.89	32.035
413.25	31.870
413.60	32.827
413.96	32.615
414.31	32.409
414.67	33.457
415.03	32.503
415.38	32.240
415.74	31.775
416.09	32.979
416.45	32.579
416.80	33.868
417.16	32.463
417.51	32.420
417.87	33.166
418.22	32.685
418.58	32.484
418.93	31.291
419.29	31.608
419.64	32.041
420.00	32.995
420.35	31.475
420.71	31.447
421.06	32.490
421.42	32.642
421.77	33.093
422.12	33.793
422.48	32.717
422.83	33.315
423.19	31.965
423.54	32.145
423.90	32.106
424.25	32.691
424.61	32.676
424.96	31.451
425.31	31.746
425.67	31.987
426.02	32.193
426.38	31.097
426.73	31.752
427.09	32.266
427.44	32.020
427.79	31.675
428.15	32.528
428.50	31.886
428.85	32.569
429.21	32.955
429.56	31.755
429.92	33.068
430.27	32.753
430.62	31.767
430.98	32.186
431.33	32.560
431.68	32.000
432.04	32.540
432.39	32.931
432.74	32.670
433.10	31.783
433.45	32.280
433.80	33.039
434.16	32.738
434.51	31.889
434.86	32.226
435.22	31.875
435.57	32.365
435.92	32.214
436.28	32.546
436.63	31.875
436.98	33.108
437.34	32.763
437.69	30.963
438.04	32.581
438.39	31.874
438.75	32.628
439.10	32.758
439.45	31.317
439.81	31.695
440.16	33.132
440.51	31.813
440.86	32.422
441.22	31.981
441.57	32.126
441.92	32.971
442.27	32.062
442.63	31.961
442.98	32.328
443.33	32.726
443.68	32.596
444.03	32.752
444.39	33.051
444.74	31.988
445.09	31.543
445.44	32.784
445.79	32.115
446.15	31.737
446.50	32.120
446.85	31.972
447.20	31.393
447.55	32.735
447.91	33.564
448.26	32.428
448.61	32.781
448.96	32.952
449.31	32.233
449.66	32.614
450.02	31.821
450.37	32.982
450.72	32.397
451.07	32.752
451.42	31.357
451.77	33.276
452.12	31.934
452.47	32.382
452.83	32.845
453.18	32.012
453.53	32.504
453.88	33.086
454.23	33.527
454.58	32.226
454.93	32.311
455.28	32.252
455.63	32.506
455.98	31.980
456.34	32.584
456.69	32.012
457.04	33.115
457.39	32.057
457.74	32.827
458.09	32.173
458.44	32.202
458.79	31.671
459.14	32.460
459.49	32.899
459.84	32.717
460.19	33.503
460.54	33.105
460.89	32.729
461.24	31.214
461.59	32.766
461.94	32.447
462.29	32.723
462.64	33.040
462.99	32.885
463.34	32.275
463.69	33.817
464.04	32.470
464.39	32.856
464.74	31.829
465.09	32.618
465.44	32.644
465.79	32.226
466.14	31.849
466.49	33.207
466.84	33.333
467.19	32.923
467.54	32.913
467.89	33.392
468.24	32.368
468.59	32.083
468.94	33.092
469.29	32.926
469.64	32.669
469.99	32.841
470.34	32.511
470.68	31.793
471.03	32.422
471.38	31.391
471.73	31.875
472.08	33.072
472.43	32.030
472.78	32.202
473.13	31.602
473.48	32.579
473.83	32.097
474.17	32.280
474.52	33.057
474.87	31.609
475.22	31.525
475.57	32.581
475.92	33.163
476.27	31.991
476.61	32.172
476.96	32.236
477.31	33.162
477.66	32.743
478.01	31.872
478.36	31.771
478.70	31.663
479.05	31.695
479.40	31.796
479.75	31.927
480.10	31.801
480.45	32.073
480.79	31.152
481.14	31.194
481.49	31.290
481.84	31.750
482.19	32.533
482.53	31.708
482.88	32.079
483.23	31.845
483.58	32.496
483.92	32.404
484.27	31.678
484.62	32.301
484.97	31.983
485.31	31.566
485.66	31.892
486.01	32.366
486.36	31.412
486.70	31.004
487.05	31.371
487.40	31.648
487.75	31.976
488.09	31.364
488.44	31.581
488.79	31.656
489.13	31.840
489.48	31.842
489.83	31.526
490.17	32.164
490.52	31.352
490.87	31.940
491.22	31.294
491.56	31.708
491.91	31.452
492.26	31.136
492.60	32.027
492.95	31.038
493.30	30.801
493.64	31.087
493.99	31.753
494.34	31.376
494.68	30.899
495.03	30.624
495.37	31.697
495.72	31.235
496.07	31.087
496.41	31.060
496.76	31.237
497.11	31.877
497.45	31.346
497.80	31.742
498.14	31.253
498.49	31.058
498.84	31.869
499.18	30.759
499.53	31.282
499.87	30.503
500.22	32.566
500.56	31.848
500.91	31.030
501.26	30.409
501.60	32.195
501.95	31.900
502.29	31.422
502.64	30.878
502.98	30.725
503.33	31.581
503.67	31.700
504.02	30.990
504.36	30.679
504.71	32.072
505.06	31.112
505.40	31.212
505.75	30.823
506.09	31.405
506.44	30.921
506.78	31.049
507.13	31.798
507.47	31.295
507.82	31.484
508.16	31.406
508.51	31.111
508.85	30.484
509.19	30.837
509.54	31.006
509.88	32.422
510.23	30.490
510.57	29.971
510.92	31.169
511.26	31.727
511.61	30.773
511.95	31.458
512.30	31.750
512.64	30.582
512.98	30.958
513.33	30.891
513.67	31.434
514.02	31.377
514.36	30.737
514.70	30.827
515.05	30.421
515.39	31.798
515.74	30.618
516.08	30.610
516.42	31.202
516.77	30.933
517.11	30.613
517.46	31.358
517.80	30.093
518.14	31.380
518.49	30.926
518.83	30.495
519.17	31.059
519.52	31.349
519.86	31.226
520.20	31.014
520.55	30.582
520.89	30.575
521.23	30.958
521.58	30.981
521.92	30.612
522.26	30.036
522.61	30.957
522.95	30.751
523.29	30.058
523.64	30.636
523.98	30.634
524.32	30.507
524.66	29.855
525.01	30.355
525.35	30.466
525.69	31.547
526.04	31.469
526.38	31.430
526.72	31.205
527.06	30.574
527.41	30.411
527.75	30.615
528.09	30.343
528.43	30.811
528.78	31.366
529.12	31.186
529.46	31.444
529.80	30.374
530.15	30.642
530.49	29.362
530.83	30.469
531.17	30.996
531.51	30.963
531.86	30.676
532.20	29.172
532.54	30.383
532.88	29.669
533.22	30.469
533.57	30.445
533.91	29.196
534.25	29.371
534.59	29.942
534.93	29.522
535.27	29.710
535.62	30.572
535.96	30.378
536.30	30.835
536.64	30.311
536.98	30.396
537.32	30.563
537.66	30.166
538.01	31.146
538.35	30.505
538.69	30.218
539.03	29.789
539.37	29.490
539.71	30.062
540.05	29.292
540.39	30.881
540.73	29.747
541.07	28.795
541.42	30.100
541.76	29.223
542.10	29.470
542.44	30.486
542.78	30.837
543.12	29.325
543.46	29.198
543.80	30.639
544.14	29.412
544.48	30.109
544.82	30.275
545.16	28.780
545.50	30.363
545.84	29.987
546.18	30.884
546.52	29.770
546.86	30.883
547.20	29.651
547.54	29.639
547.88	30.596
548.22	30.419
548.56	30.407
548.90	30.308
549.24	29.627
549.58	29.639
549.92	30.845
550.26	29.750
550.60	29.807
550.94	30.393
551.28	30.207
551.62	30.000
551.96	28.851
552.30	29.730
552.64	30.032
552.98	29.704
553.32	28.937
553.66	29.251
554.00	29.601
554.34	30.293
554.68	28.629
555.02	29.192
555.36	29.388
555.69	30.039
556.03	29.554
556.37	29.955
556.71	30.313
557.05	28.506
557.39	28.467
557.73	30.054
558.07	29.242
558.41	28.855
558.75	29.617
559.08	29.378
559.42	30.064
559.76	30.150
560.10	28.562
560.44	29.131
560.78	30.115
561.12	29.879
561.45	28.598
561.79	29.588
562.13	29.438
562.47	29.916
562.81	29.668
563.15	28.701
563.48	27.826
563.82	29.382
564.16	29.478
564.50	29.295
564.84	28.754
565.17	29.055
565.51	29.803
565.85	28.624
566.19	28.690
566.52	27.978
566.86	29.189
567.20	28.933
567.54	28.439
567.88	29.734
568.21	28.158
568.55	28.551
568.89	29.151
569.23	28.602
569.56	29.153
569.90	28.602
570.24	29.779
570.57	29.007
570.91	28.924
571.25	29.686
571.59	28.878
571.92	28.983
572.26	29.461
572.60	29.103
572.93	29.500
573.27	29.667
573.61	29.345
573.95	28.884
574.28	28.890
574.62	29.204
574.96	28.933
575.29	29.160
575.63	29.729
575.97	29.138
576.30	29.512
576.64	29.628
576.98	29.231
577.31	29.563
577.65	28.800
577.98	28.651
578.32	29.322
578.66	29.277
578.99	29.641
579.33	29.499
579.67	29.841
580.00	29.305
580.34	29.504
580.67	29.172
581.01	29.230
581.35	28.821
581.68	29.403
582.02	29.360
582.35	29.379
582.69	29.149
583.02	29.128
583.36	29.572
583.70	29.306
584.03	30.201
584.37	29.177
584.70	29.584
585.04	29.384
585.37	29.058
585.71	29.708
586.04	29.324
586.38	29.279
586.72	28.803
587.05	28.435
587.39	28.976
587.72	28.690
588.06	29.004
588.39	28.992
588.73	28.984
589.06	28.888
589.40	29.327
589.73	28.810
590.07	29.513
590.40	29.512
590.73	30.444
591.07	29.146
591.40	28.982
591.74	28.612
592.07	29.368
592.41	29.696
592.74	29.220
593.08	28.971
593.41	29.294
593.75	28.785
594.08	29.289
594.41	29.000
594.75	29.349
595.08	29.390
595.42	29.888
595.75	29.220
596.09	29.579
596.42	28.405
596.75	29.487
597.09	29.880
597.42	28.898
597.75	29.087
598.09	28.929
598.42	29.865
598.76	28.874
599.09	30.121
599.42	29.377
599.76	29.512
600.09	29.322
600.42	29.282
600.76	29.742
601.09	29.720
601.42	29.637
601.76	29.144
602.09	29.765
602.42	28.799
602.76	29.260
603.09	29.525
603.42	29.431
603.76	29.465
604.09	28.194
604.42	29.115
604.76	28.803
605.09	28.898
605.42	29.013
605.75	29.649
606.09	29.380
606.42	29.087
606.75	29.538
607.09	29.530
607.42	29.570
607.75	29.180
608.08	29.813
608.42	29.530
608.75	29.739
609.08	29.168
609.41	29.545
609.75	28.938
610.08	29.317
610.41	28.766
610.74	28.658
611.07	29.741
611.41	29.055
611.74	28.585
612.07	28.902
612.40	29.337
612.73	28.757
613.07	29.093
613.40	30.125
613.73	29.805
614.06	28.400
614.39	29.899
614.72	29.081
615.06	29.278
615.39	29.554
615.72	29.380
616.05	29.483
616.38	28.919
616.71	29.137
617.05	28.885
617.38	28.315
617.71	28.796
618.04	29.557
618.37	28.849
618.70	28.176
619.03	28.266
619.36	28.518
619.69	28.694
620.03	29.550
620.36	29.608
620.69	30.332
621.02	28.533
621.35	27.865
621.68	28.466
622.01	29.299
622.34	28.259
622.67	28.581
623.00	28.455
623.33	28.947
623.66	28.410
623.99	29.384
624.32	28.930
624.65	28.308
624.99	28.398
625.32	28.457
625.65	28.000
625.98	27.197
626.31	30.267
626.64	28.322
626.97	28.003
627.30	29.115
627.63	29.592
627.96	28.404
628.29	28.218
628.62	27.032
628.95	28.723
629.28	29.798
629.61	28.120
629.94	28.781
630.26	28.336
630.59	28.989
630.92	28.430
631.25	28.558
631.58	28.737
