SpectraSuite Data File
++++++++++++++++++++++++++++++++++++
Date: Tue May 12 17:17:11 PDT 2015
User: schluterlab
Dark Spectrum Present: Yes
Reference Spectrum Present: Yes
Number of Sampled Component Spectra: 1
Spectrometers: USB2E3373
Integration Time (usec): 3000 (USB2E3373)
Spectra Averaged: 3 (USB2E3373)
Boxcar Smoothing: 0 (USB2E3373)
Correct for Electrical Dark: No (USB2E3373)
Strobe/Lamp Enabled: No (USB2E3373)
Correct for Detector Non-linearity: No (USB2E3373)
Correct for Stray Light: No (USB2E3373)
Number of Pixels in Processed Spectrum: 2048
>>>>>Begin Processed Spectral Data<<<<<
178.53	0.000
178.91	-216.667
179.29	-575.000
179.67	-3600.000
180.04	-140.000
180.42	875.000
180.80	1750.000
181.18	0.000
181.56	-412.500
181.94	0.000
182.31	1000.000
182.69	-3100.000
183.07	571.429
183.45	-4400.000
183.83	-1550.000
184.20	300.000
184.58	371.429
184.96	-176.923
185.34	-183.333
185.72	1250.000
186.09	-875.000
186.47	-3600.000
186.85	766.667
187.23	580.000
187.61	1900.000
187.98	475.000
188.36	242.857
188.74	308.333
189.12	350.000
189.49	725.000
189.87	0.000
190.25	437.500
190.63	3300.000
191.00	-200.000
191.38	-3300.000
191.76	-750.000
192.14	587.500
192.51	-4300.000
192.89	1300.000
193.27	900.000
193.65	-933.333
194.02	-700.000
194.40	471.429
194.78	-221.429
195.15	226.667
195.53	-3800.000
195.91	-660.000
196.29	3900.000
196.66	262.500
197.04	1050.000
197.42	-1300.000
197.79	650.000
198.17	291.667
198.55	0.000
198.92	514.286
199.30	1166.667
199.68	1800.000
200.05	600.000
200.43	-483.333
200.81	172.222
201.18	3400.000
201.56	233.333
201.94	-750.000
202.31	-300.000
202.69	-540.000
203.07	3500.000
203.44	-400.000
203.82	291.667
204.19	640.000
204.57	-1500.000
204.95	-1000.000
205.32	-660.000
205.70	700.000
206.08	925.000
206.45	-1000.000
206.83	311.111
207.20	231.579
207.58	316.667
207.96	780.000
208.33	0.000
208.71	628.571
209.08	560.000
209.46	-3100.000
209.84	-825.000
210.21	1020.000
210.59	-560.000
210.96	266.667
211.34	-800.000
211.71	354.545
212.09	875.000
212.46	1700.000
212.84	-466.667
213.22	422.222
213.59	-3900.000
213.97	370.000
214.34	750.000
214.72	1133.333
215.09	900.000
215.47	-2300.000
215.84	-310.000
216.22	-412.500
216.59	0.000
216.97	0.000
217.34	1650.000
217.72	-1300.000
218.09	1133.333
218.47	550.000
218.84	725.000
219.22	1233.333
219.59	1233.333
219.97	557.143
220.34	344.444
220.72	1800.000
221.09	3700.000
221.47	266.667
221.84	1200.000
222.22	410.000
222.59	272.222
222.97	250.000
223.34	200.000
223.72	-1650.000
224.09	766.667
224.46	300.000
224.84	-675.000
225.21	411.111
225.59	260.000
225.96	1200.000
226.34	-660.000
226.71	-275.000
227.08	-600.000
227.46	0.000
227.83	-566.667
228.21	-1250.000
228.58	375.000
228.95	825.000
229.33	344.444
229.70	850.000
230.08	315.385
230.45	2900.000
230.82	-800.000
231.20	-733.333
231.57	-933.333
231.95	660.000
232.32	300.000
232.69	516.667
233.07	308.333
233.44	-1150.000
233.81	260.000
234.19	133.333
234.56	200.000
234.93	182.353
235.31	200.000
235.68	231.250
236.05	142.857
236.43	144.444
236.80	235.714
237.17	131.034
237.55	121.875
237.92	107.500
238.29	115.152
238.67	125.000
239.04	92.683
239.41	79.167
239.79	62.500
240.16	75.000
240.53	62.295
240.91	53.623
241.28	64.407
241.65	63.636
242.02	57.746
242.40	50.000
242.77	42.857
243.14	34.177
243.51	48.485
243.89	39.252
244.26	40.187
244.63	41.584
245.00	39.450
245.38	29.661
245.75	35.606
246.12	44.444
246.49	31.915
246.87	24.590
247.24	36.000
247.61	26.875
247.98	30.612
248.36	23.030
248.73	26.020
249.10	23.810
249.47	24.500
249.84	22.886
250.22	20.000
250.59	23.500
250.96	23.207
251.33	27.442
251.70	23.661
252.08	18.908
252.45	18.327
252.82	20.152
253.19	16.206
253.56	18.462
253.94	26.449
254.31	22.093
254.68	19.861
255.05	22.759
255.42	24.818
255.79	21.173
256.16	21.356
256.54	23.701
256.91	20.915
257.28	19.732
257.65	17.241
258.02	20.649
258.39	20.344
258.76	17.101
259.14	13.143
259.51	17.784
259.88	20.669
260.25	15.934
260.62	19.178
260.99	14.050
261.36	16.992
261.73	15.957
262.10	17.539
262.47	17.750
262.85	15.733
263.22	21.080
263.59	16.624
263.96	19.799
264.33	17.531
264.70	16.462
265.07	18.049
265.44	16.514
265.81	16.509
266.18	16.476
266.55	15.839
266.92	13.647
267.29	16.447
267.66	16.143
268.03	14.126
268.40	17.125
268.77	16.079
269.14	13.883
269.51	16.036
269.88	16.122
270.25	12.959
270.62	15.665
270.99	16.227
271.36	19.309
271.73	13.208
272.10	15.556
272.47	13.294
272.84	13.373
273.21	14.256
273.58	15.789
273.95	13.758
274.32	16.148
274.69	14.961
275.06	15.301
275.43	14.943
275.80	14.528
276.17	16.360
276.54	16.075
276.91	15.672
277.28	14.599
277.65	14.207
278.02	14.154
278.39	13.849
278.76	13.103
279.13	14.057
279.50	13.455
279.87	12.663
280.23	14.180
280.60	12.226
280.97	12.414
281.34	11.881
281.71	14.261
282.08	15.385
282.45	14.189
282.82	14.381
283.19	13.355
283.56	13.719
283.92	13.192
284.29	13.644
284.66	12.941
285.03	11.443
285.40	13.388
285.77	12.654
286.14	13.622
286.51	13.037
286.87	11.867
287.24	10.811
287.61	13.678
287.98	14.627
288.35	12.593
288.72	11.381
289.08	14.264
289.45	12.805
289.82	12.813
290.19	12.006
290.56	14.847
290.93	12.374
291.29	12.983
291.66	11.017
292.03	10.659
292.40	13.144
292.77	11.699
293.13	12.126
293.50	10.256
293.87	10.298
294.24	11.608
294.60	13.728
294.97	13.287
295.34	11.421
295.71	11.827
296.08	10.800
296.44	10.928
296.81	11.166
297.18	10.773
297.55	11.084
297.91	11.330
298.28	13.164
298.65	10.920
299.02	10.977
299.38	10.671
299.75	11.098
300.12	12.385
300.48	12.295
300.85	12.277
301.22	10.698
301.59	10.259
301.95	10.968
302.32	12.107
302.69	11.652
303.05	13.356
303.42	11.996
303.79	11.159
304.15	11.111
304.52	10.254
304.89	10.661
305.25	12.681
305.62	11.407
305.99	10.000
306.35	10.737
306.72	11.550
307.09	11.387
307.45	10.876
307.82	10.494
308.19	11.134
308.55	11.800
308.92	11.874
309.29	13.314
309.65	11.695
310.02	13.083
310.38	11.864
310.75	12.729
311.12	12.931
311.48	12.838
311.85	12.786
312.22	12.130
312.58	13.314
312.95	12.136
313.31	13.764
313.68	14.165
314.05	13.828
314.41	13.501
314.78	12.879
315.14	14.692
315.51	14.191
315.87	13.412
316.24	13.725
316.61	14.324
316.97	14.037
317.34	16.442
317.70	14.750
318.07	17.171
318.43	15.905
318.80	15.762
319.16	16.608
319.53	15.310
319.89	15.233
320.26	17.598
320.62	16.575
320.99	16.587
321.35	17.625
321.72	18.691
322.08	16.713
322.45	18.892
322.81	18.298
323.18	18.384
323.54	19.861
323.91	19.402
324.27	18.126
324.64	18.339
325.00	18.103
325.37	19.730
325.73	19.730
326.10	21.292
326.46	20.066
326.83	20.720
327.19	20.884
327.56	20.847
327.92	22.377
328.29	21.686
328.65	21.832
329.01	21.728
329.38	22.843
329.74	22.118
330.11	23.719
330.47	22.421
330.84	21.915
331.20	22.504
331.56	22.971
331.93	22.669
332.29	20.493
332.66	22.789
333.02	22.509
333.38	23.211
333.75	24.270
334.11	23.490
334.48	23.162
334.84	22.973
335.20	23.439
335.57	21.914
335.93	23.045
336.29	23.217
336.66	23.756
337.02	22.241
337.38	23.302
337.75	21.791
338.11	21.857
338.47	22.608
338.84	22.947
339.20	21.818
339.56	22.876
339.93	24.331
340.29	22.185
340.65	23.554
341.02	22.928
341.38	23.563
341.74	22.674
342.11	21.619
342.47	22.231
342.83	23.872
343.20	22.474
343.56	20.334
343.92	23.121
344.28	23.604
344.65	22.820
345.01	23.016
345.37	21.314
345.73	23.016
346.10	23.108
346.46	24.641
346.82	21.682
347.19	22.720
347.55	22.873
347.91	22.583
348.27	21.611
348.63	23.339
349.00	21.858
349.36	22.412
349.72	23.930
350.08	23.059
350.45	23.686
350.81	23.165
351.17	22.496
351.53	22.017
351.89	23.155
352.26	22.222
352.62	23.002
352.98	23.236
353.34	23.652
353.70	21.942
354.07	23.692
354.43	23.349
354.79	21.488
355.15	23.660
355.51	23.187
355.87	22.666
356.24	22.633
356.60	22.222
356.96	22.745
357.32	23.210
357.68	23.128
358.04	23.100
358.40	23.538
358.77	23.742
359.13	22.523
359.49	23.202
359.85	23.455
360.21	22.363
360.57	23.139
360.93	23.160
361.29	23.449
361.66	23.565
362.02	22.159
362.38	23.521
362.74	23.425
363.10	23.422
363.46	22.790
363.82	23.562
364.18	23.898
364.54	22.318
364.90	23.695
365.26	23.734
365.62	22.997
365.98	22.987
366.35	22.966
366.71	24.150
367.07	23.072
367.43	23.170
367.79	22.939
368.15	23.270
368.51	23.777
368.87	23.573
369.23	22.730
369.59	23.601
369.95	23.916
370.31	23.546
370.67	23.803
371.03	23.739
371.39	24.030
371.75	23.098
372.11	23.861
372.47	24.247
372.83	23.929
373.19	25.017
373.55	24.055
373.91	23.619
374.27	24.669
374.63	24.000
374.99	23.181
375.35	24.194
375.71	24.077
376.07	24.668
376.42	23.274
376.78	25.112
377.14	24.967
377.50	24.032
377.86	23.703
378.22	24.680
378.58	23.789
378.94	24.623
379.30	23.651
379.66	24.082
380.02	23.988
380.38	24.239
380.74	24.683
381.09	25.409
381.45	23.064
381.81	24.586
382.17	24.054
382.53	23.875
382.89	24.778
383.25	24.156
383.61	24.784
383.97	23.995
384.32	24.955
384.68	25.728
385.04	24.619
385.40	24.970
385.76	24.459
386.12	23.933
386.48	24.620
386.83	24.083
387.19	24.617
387.55	24.441
387.91	24.307
388.27	25.045
388.62	25.176
388.98	24.431
389.34	23.676
389.70	23.408
390.06	24.390
390.42	24.676
390.77	25.369
391.13	24.442
391.49	24.803
391.85	25.231
392.20	24.315
392.56	24.970
392.92	24.200
393.28	24.720
393.64	24.541
393.99	24.956
394.35	24.603
394.71	23.764
395.07	24.513
395.42	24.707
395.78	25.170
396.14	25.783
396.50	24.609
396.85	23.293
397.21	23.887
397.57	24.208
397.92	23.975
398.28	24.269
398.64	24.549
399.00	23.143
399.35	23.564
399.71	24.062
400.07	23.687
400.42	24.179
400.78	24.164
401.14	24.486
401.49	23.733
401.85	24.565
402.21	23.433
402.57	24.177
402.92	23.939
403.28	24.045
403.63	23.779
403.99	24.125
404.35	24.853
404.70	23.981
405.06	23.302
405.42	23.639
405.77	22.988
406.13	23.210
406.49	23.536
406.84	23.632
407.20	23.345
407.55	23.446
407.91	24.314
408.27	23.044
408.62	23.832
408.98	23.773
409.34	22.911
409.69	23.398
410.05	22.958
410.40	22.261
410.76	23.068
411.11	23.578
411.47	24.136
411.83	22.964
412.18	22.283
412.54	23.363
412.89	22.891
413.25	24.002
413.60	23.072
413.96	23.579
414.31	22.845
414.67	23.464
415.03	22.989
415.38	23.722
415.74	23.310
416.09	23.423
416.45	23.594
416.80	24.182
417.16	23.106
417.51	23.312
417.87	22.904
418.22	22.783
418.58	23.567
418.93	23.200
419.29	22.243
419.64	22.714
420.00	24.761
420.35	23.113
420.71	22.929
421.06	21.954
421.42	23.604
421.77	22.987
422.12	22.988
422.48	23.318
422.83	22.991
423.19	22.840
423.54	21.722
423.90	23.046
424.25	23.445
424.61	23.273
424.96	22.812
425.31	22.934
425.67	23.737
426.02	23.668
426.38	22.229
426.73	23.424
427.09	22.776
427.44	22.735
427.79	22.985
428.15	24.278
428.50	23.314
428.85	23.810
429.21	23.447
429.56	22.981
429.92	23.421
430.27	22.593
430.62	22.369
430.98	23.054
431.33	22.077
431.68	22.568
432.04	22.763
432.39	22.667
432.74	22.892
433.10	23.256
433.45	23.435
433.80	23.056
434.16	23.069
434.51	23.375
434.86	23.462
435.22	22.312
435.57	23.651
435.92	24.075
436.28	24.021
436.63	23.339
436.98	23.874
437.34	23.744
437.69	22.508
438.04	23.333
438.39	23.468
438.75	23.664
439.10	22.990
439.45	23.686
439.81	24.118
440.16	23.335
440.51	24.268
440.86	23.533
441.22	23.485
441.57	23.570
441.92	23.889
442.27	23.402
442.63	23.425
442.98	23.222
443.33	23.460
443.68	23.239
444.03	23.327
444.39	23.682
444.74	22.930
445.09	24.118
445.44	23.486
445.79	23.246
446.15	23.105
446.50	23.259
446.85	23.855
447.20	23.134
447.55	23.002
447.91	24.081
448.26	24.281
448.61	24.157
448.96	24.129
449.31	24.202
449.66	23.865
450.02	23.123
450.37	23.820
450.72	23.747
451.07	23.793
451.42	24.126
451.77	23.711
452.12	23.993
452.47	25.091
452.83	24.338
453.18	24.324
453.53	24.393
453.88	24.457
454.23	24.869
454.58	23.776
454.93	23.237
455.28	24.113
455.63	24.586
455.98	24.817
456.34	24.195
456.69	24.329
457.04	23.926
457.39	23.257
457.74	24.099
458.09	23.021
458.44	24.315
458.79	24.403
459.14	23.513
459.49	24.066
459.84	23.913
460.19	24.407
460.54	24.103
460.89	23.614
461.24	23.540
461.59	24.546
461.94	23.641
462.29	24.371
462.64	24.937
462.99	24.184
463.34	24.563
463.69	24.198
464.04	24.237
464.39	24.900
464.74	24.091
465.09	23.099
465.44	23.885
465.79	23.517
466.14	23.423
466.49	24.417
466.84	23.746
467.19	23.960
467.54	24.084
467.89	24.061
468.24	23.393
468.59	24.107
468.94	23.551
469.29	24.191
469.64	23.987
469.99	24.100
470.34	23.593
470.68	24.138
471.03	24.616
471.38	23.444
471.73	24.886
472.08	25.440
472.43	24.891
472.78	24.136
473.13	23.655
473.48	24.572
473.83	24.558
474.17	25.653
474.52	24.645
474.87	23.707
475.22	23.872
475.57	22.980
475.92	24.527
476.27	23.177
476.61	23.003
476.96	23.197
477.31	24.473
477.66	24.799
478.01	24.188
478.36	23.790
478.70	23.970
479.05	23.849
479.40	24.157
479.75	24.131
480.10	24.250
480.45	23.810
480.79	23.641
481.14	23.110
481.49	23.239
481.84	23.219
482.19	23.013
482.53	22.925
482.88	23.253
483.23	23.545
483.58	23.878
483.92	23.949
484.27	23.545
484.62	23.302
484.97	23.646
485.31	22.602
485.66	21.982
486.01	21.522
486.36	21.159
486.70	20.878
487.05	21.360
487.40	21.510
487.75	22.407
488.09	21.903
488.44	22.562
488.79	22.596
489.13	23.292
489.48	23.372
489.83	22.644
490.17	23.080
490.52	23.428
490.87	24.009
491.22	23.892
491.56	23.364
491.91	23.656
492.26	23.296
492.60	23.007
492.95	23.561
493.30	23.885
493.64	22.866
493.99	23.122
494.34	21.918
494.68	22.842
495.03	23.619
495.37	24.088
495.72	23.730
496.07	23.585
496.41	23.067
496.76	22.879
497.11	23.993
497.45	23.542
497.80	23.633
498.14	24.133
498.49	22.656
498.84	23.785
499.18	23.035
499.53	23.702
499.87	22.642
500.22	23.676
500.56	22.934
500.91	23.516
501.26	23.381
501.60	23.543
501.95	23.611
502.29	23.600
502.64	23.114
502.98	22.766
503.33	23.252
503.67	23.135
504.02	22.839
504.36	23.213
504.71	24.314
505.06	23.839
505.40	23.163
505.75	23.854
506.09	23.752
506.44	23.590
506.78	24.291
507.13	23.897
507.47	23.726
507.82	24.526
508.16	24.498
508.51	24.058
508.85	24.264
509.19	24.180
509.54	24.805
509.88	24.068
510.23	23.676
510.57	23.793
510.92	24.376
511.26	24.347
511.61	24.323
511.95	24.540
512.30	24.800
512.64	24.195
512.98	24.552
513.33	24.027
513.67	24.443
514.02	24.935
514.36	25.182
514.70	24.747
515.05	24.880
515.39	24.890
515.74	24.986
516.08	25.054
516.42	25.246
516.77	24.693
517.11	24.907
517.46	25.216
517.80	25.287
518.14	26.254
518.49	24.752
518.83	24.341
519.17	25.236
519.52	24.850
519.86	25.395
520.20	25.260
520.55	26.003
520.89	24.770
521.23	26.519
521.58	25.416
521.92	25.948
522.26	25.889
522.61	26.679
522.95	25.886
523.29	25.556
523.64	25.145
523.98	26.056
524.32	24.452
524.66	25.333
525.01	26.391
525.35	25.633
525.69	26.490
526.04	27.246
526.38	25.427
526.72	25.179
527.06	25.547
527.41	25.695
527.75	25.380
528.09	25.527
528.43	25.686
528.78	25.999
529.12	25.828
529.46	24.664
529.80	25.643
530.15	25.633
530.49	25.872
530.83	26.204
531.17	25.338
531.51	26.364
531.86	25.725
532.20	25.587
532.54	26.303
532.88	25.359
533.22	26.264
533.57	25.869
533.91	24.825
534.25	25.505
534.59	26.374
534.93	24.630
535.27	24.587
535.62	25.029
535.96	24.645
536.30	26.508
536.64	25.466
536.98	25.110
537.32	24.938
537.66	25.510
538.01	26.254
538.35	26.014
538.69	25.546
539.03	24.129
539.37	24.393
539.71	25.123
540.05	25.169
540.39	26.604
540.73	26.392
541.07	24.467
541.42	25.560
541.76	25.586
542.10	24.969
542.44	25.436
542.78	25.047
543.12	24.908
543.46	25.000
543.80	24.311
544.14	24.149
544.48	25.365
544.82	25.138
545.16	24.469
545.50	24.585
545.84	25.379
546.18	24.967
546.52	25.574
546.86	24.823
547.20	24.677
547.54	25.776
547.88	25.000
548.22	25.197
548.56	24.337
548.90	24.733
549.24	25.079
549.58	24.485
549.92	25.016
550.26	25.761
550.60	26.281
550.94	25.373
551.28	25.724
551.62	25.724
551.96	26.554
552.30	24.786
552.64	24.854
552.98	24.678
553.32	24.200
553.66	24.756
554.00	24.324
554.34	25.699
554.68	25.739
555.02	26.341
555.36	24.867
555.69	24.346
556.03	25.287
556.37	24.538
556.71	25.293
557.05	24.509
557.39	25.400
557.73	25.404
558.07	25.553
558.41	25.428
558.75	25.718
559.08	26.447
559.42	25.913
559.76	25.659
560.10	25.533
560.44	25.149
560.78	26.215
561.12	24.857
561.45	23.842
561.79	25.281
562.13	24.637
562.47	24.789
562.81	25.895
563.15	25.145
563.48	23.230
563.82	25.265
564.16	25.249
564.50	25.075
564.84	24.863
565.17	24.480
565.51	24.692
565.85	25.478
566.19	23.869
566.52	23.827
566.86	25.102
567.20	23.933
567.54	24.400
567.88	23.579
568.21	22.816
568.55	23.687
568.89	23.358
569.23	22.519
569.56	22.804
569.90	21.883
570.24	22.624
570.57	21.739
570.91	21.498
571.25	21.382
571.59	20.925
571.92	21.152
572.26	20.782
572.60	20.494
572.93	21.478
573.27	21.252
573.61	20.547
573.95	20.593
574.28	21.037
574.62	20.331
574.96	20.411
575.29	20.761
575.63	20.000
575.97	19.766
576.30	19.995
576.64	20.433
576.98	20.316
577.31	20.493
577.65	20.471
577.98	20.165
578.32	19.786
578.66	19.226
578.99	20.432
579.33	19.847
579.67	20.055
580.00	19.789
580.34	20.072
580.67	20.112
581.01	20.167
581.35	20.115
581.68	19.476
582.02	19.290
582.35	19.491
582.69	19.920
583.02	19.966
583.36	20.165
583.70	20.613
584.03	20.756
584.37	20.520
584.70	20.229
585.04	19.772
585.37	20.221
585.71	20.404
586.04	20.348
586.38	20.469
586.72	20.772
587.05	21.101
587.39	20.556
587.72	20.273
588.06	20.263
588.39	20.292
588.73	20.893
589.06	20.805
589.40	20.908
589.73	21.403
590.07	21.551
590.40	21.672
590.73	21.851
591.07	22.125
591.40	22.395
591.74	22.200
592.07	21.631
592.41	22.022
592.74	21.091
593.08	20.996
593.41	20.826
593.75	20.293
594.08	20.850
594.41	20.854
594.75	20.925
595.08	20.953
595.42	21.066
595.75	20.665
596.09	21.411
596.42	21.231
596.75	22.276
597.09	21.337
597.42	21.224
597.75	21.014
598.09	20.968
598.42	21.093
598.76	20.393
599.09	21.295
599.42	20.761
599.76	20.522
600.09	20.678
600.42	20.960
600.76	20.530
601.09	20.538
601.42	20.697
601.76	20.372
602.09	21.634
602.42	20.665
602.76	20.759
603.09	20.965
603.42	20.844
603.76	20.354
604.09	20.666
604.42	20.377
604.76	21.177
605.09	21.306
605.42	20.845
605.75	21.753
606.09	20.735
606.42	20.519
606.75	21.570
607.09	21.200
607.42	21.736
607.75	20.780
608.08	21.324
608.42	21.518
608.75	20.839
609.08	21.337
609.41	22.000
609.75	21.337
610.08	21.223
610.41	20.993
610.74	20.952
611.07	21.828
611.41	21.965
611.74	21.893
612.07	21.821
612.40	21.101
612.73	22.366
613.07	22.453
613.40	22.356
613.73	22.616
614.06	21.850
614.39	21.566
614.72	21.045
615.06	21.662
615.39	22.030
615.72	21.055
616.05	21.798
616.38	22.171
616.71	22.029
617.05	22.570
617.38	20.787
617.71	22.328
618.04	22.602
618.37	21.901
618.70	22.055
619.03	22.894
619.36	23.367
619.69	23.549
620.03	23.679
620.36	22.351
620.69	22.861
621.02	23.505
621.35	23.639
621.68	24.189
622.01	23.469
622.34	23.889
622.67	23.876
623.00	23.553
623.33	23.212
623.66	23.420
623.99	23.836
624.32	22.900
624.65	22.976
624.99	23.259
625.32	23.848
625.65	22.345
625.98	23.291
626.31	23.071
626.64	24.298
626.97	23.642
627.30	23.913
627.63	24.019
627.96	22.926
628.29	25.083
628.62	24.722
628.95	24.645
629.28	24.540
629.61	24.868
629.94	23.941
630.26	25.303
630.59	25.355
630.92	24.484
631.25	24.751
