SpectraSuite Data File
++++++++++++++++++++++++++++++++++++
Date: Wed May 13 21:42:23 PDT 2015
User: schluterlab
Dark Spectrum Present: Yes
Reference Spectrum Present: Yes
Number of Sampled Component Spectra: 1
Spectrometers: USB2E3373
Integration Time (usec): 3000 (USB2E3373)
Spectra Averaged: 3 (USB2E3373)
Boxcar Smoothing: 0 (USB2E3373)
Correct for Electrical Dark: No (USB2E3373)
Strobe/Lamp Enabled: No (USB2E3373)
Correct for Detector Non-linearity: No (USB2E3373)
Correct for Stray Light: No (USB2E3373)
Number of Pixels in Processed Spectrum: 2048
>>>>>Begin Processed Spectral Data<<<<<
178.53	0.000
178.91	550.000
179.29	258.333
179.67	-400.000
180.04	-633.333
180.42	340.000
180.80	1500.000
181.18	233.333
181.56	-400.000
181.94	-150.000
182.31	-18.182
182.69	169.231
183.07	-100.000
183.45	350.000
183.83	155.556
184.20	200.000
184.58	133.333
184.96	533.333
185.34	185.714
185.72	0.000
186.09	-600.000
186.47	-180.000
186.85	240.000
187.23	-300.000
187.61	1000.000
187.98	1100.000
188.36	-100.000
188.74	0.000
189.12	45.455
189.49	50.000
189.87	75.000
190.25	400.000
190.63	1300.000
191.00	-20.000
191.38	260.000
191.76	350.000
192.14	108.333
192.51	15.789
192.89	200.000
193.27	150.000
193.65	-100.000
194.02	190.909
194.40	200.000
194.78	-400.000
195.15	-60.000
195.53	-100.000
195.91	-75.000
196.29	-366.667
196.66	0.000
197.04	300.000
197.42	-40.000
197.79	20.000
198.17	75.000
198.55	-166.667
198.92	50.000
199.30	-266.667
199.68	-30.000
200.05	550.000
200.43	250.000
200.81	-1500.000
201.18	-20.000
201.56	66.667
201.94	500.000
202.31	-17.391
202.69	71.429
203.07	-200.000
203.44	-200.000
203.82	-300.000
204.19	-30.000
204.57	0.000
204.95	-50.000
205.32	0.000
205.70	-450.000
206.08	-275.000
206.45	-200.000
206.83	475.000
207.20	-33.333
207.58	50.000
207.96	-1900.000
208.33	-200.000
208.71	-1800.000
209.08	150.000
209.46	450.000
209.84	0.000
210.21	160.000
210.59	1700.000
210.96	420.000
211.34	800.000
211.71	-500.000
212.09	-250.000
212.46	-60.000
212.84	-33.333
213.22	-25.000
213.59	-1100.000
213.97	-700.000
214.34	-300.000
214.72	-30.769
215.09	362.500
215.47	144.444
215.84	750.000
216.22	-162.500
216.59	-350.000
216.97	333.333
217.34	133.333
217.72	0.000
218.09	166.667
218.47	300.000
218.84	-171.429
219.22	-137.500
219.59	-200.000
219.97	-225.000
220.34	-37.500
220.72	-80.000
221.09	0.000
221.47	-166.667
221.84	-600.000
222.22	0.000
222.59	700.000
222.97	-300.000
223.34	-116.667
223.72	-700.000
224.09	-350.000
224.46	-27.273
224.84	0.000
225.21	-128.571
225.59	100.000
225.96	-133.333
226.34	30.000
226.71	-171.429
227.08	350.000
227.46	-162.500
227.83	300.000
228.21	0.000
228.58	-275.000
228.95	-70.588
229.33	-18.750
229.70	-25.000
230.08	-46.154
230.45	-62.500
230.82	-41.667
231.20	185.714
231.57	-125.000
231.95	400.000
232.32	41.667
232.69	5.882
233.07	-1300.000
233.44	-8.696
233.81	-400.000
234.19	-4.167
234.56	-66.667
234.93	-40.000
235.31	5.263
235.68	-76.923
236.05	46.154
236.43	5.556
236.80	15.152
237.17	-13.333
237.55	-41.176
237.92	-6.897
238.29	-7.407
238.67	19.444
239.04	19.355
239.41	19.149
239.79	42.553
240.16	48.837
240.53	41.071
240.91	21.429
241.28	30.357
241.65	46.774
242.02	34.211
242.40	36.232
242.77	44.928
243.14	33.333
243.51	40.426
243.89	27.885
244.26	39.623
244.63	30.769
245.00	51.042
245.38	33.613
245.75	36.066
246.12	34.586
246.49	37.398
246.87	31.092
247.24	41.216
247.61	41.722
247.98	41.026
248.36	37.870
248.73	33.708
249.10	32.828
249.47	38.710
249.84	44.737
250.22	41.791
250.59	33.645
250.96	42.727
251.33	31.579
251.70	40.167
252.08	36.402
252.45	39.095
252.82	40.304
253.19	41.245
253.56	36.331
253.94	38.078
254.31	41.197
254.68	42.617
255.05	37.954
255.42	39.161
255.79	38.957
256.16	41.009
256.54	38.730
256.91	37.658
257.28	40.566
257.65	39.809
258.02	40.469
258.39	41.813
258.76	35.465
259.14	40.057
259.51	37.360
259.88	38.753
260.25	40.556
260.62	40.730
260.99	40.053
261.36	40.933
261.73	38.025
262.10	40.458
262.47	37.778
262.85	40.547
263.22	42.821
263.59	40.000
263.96	39.903
264.33	39.663
264.70	38.605
265.07	39.120
265.44	41.149
265.81	40.275
266.18	40.319
266.55	38.646
266.92	38.983
267.29	37.449
267.66	38.217
268.03	39.095
268.40	37.288
268.77	42.355
269.14	37.755
269.51	43.532
269.88	39.308
270.25	38.771
270.62	41.189
270.99	39.370
271.36	41.071
271.73	41.767
272.10	40.571
272.47	38.964
272.84	40.354
273.21	39.335
273.58	43.033
273.95	41.321
274.32	39.925
274.69	37.887
275.06	41.696
275.43	39.360
275.80	40.071
276.17	37.201
276.54	36.234
276.91	36.411
277.28	37.726
277.65	38.287
278.02	40.000
278.39	37.300
278.76	40.970
279.13	38.765
279.50	38.448
279.87	34.239
280.23	38.739
280.60	38.062
280.97	38.636
281.34	38.013
281.71	37.398
282.08	38.120
282.45	38.852
282.82	36.741
283.19	37.043
283.56	36.406
283.92	39.908
284.29	36.037
284.66	37.068
285.03	36.971
285.40	37.311
285.77	40.240
286.14	36.930
286.51	38.531
286.87	37.692
287.24	34.956
287.61	38.102
287.98	36.176
288.35	38.152
288.72	37.733
289.08	35.613
289.45	36.711
289.82	35.401
290.19	35.344
290.56	35.085
290.93	33.978
291.29	35.841
291.66	34.153
292.03	36.649
292.40	34.455
292.77	34.003
293.13	35.844
293.50	33.595
293.87	33.333
294.24	33.598
294.60	33.290
294.97	34.524
295.34	31.266
295.71	32.589
296.08	31.806
296.44	33.291
296.81	31.912
297.18	32.750
297.55	33.019
297.91	33.416
298.28	32.082
298.65	32.143
299.02	31.990
299.38	33.252
299.75	31.611
300.12	30.698
300.48	30.292
300.85	31.409
301.22	31.707
301.59	29.695
301.95	30.314
302.32	31.155
302.69	29.266
303.05	30.343
303.42	30.568
303.79	31.756
304.15	30.449
304.52	31.075
304.89	31.008
305.25	29.418
305.62	32.213
305.99	29.924
306.35	31.766
306.72	31.536
307.09	32.847
307.45	30.351
307.82	29.895
308.19	29.467
308.55	31.218
308.92	31.827
309.29	31.532
309.65	31.668
310.02	32.107
310.38	32.012
310.75	31.657
311.12	31.584
311.48	32.542
311.85	31.988
312.22	33.849
312.58	31.884
312.95	33.433
313.31	31.956
313.68	32.920
314.05	35.633
314.41	36.023
314.78	34.725
315.14	33.056
315.51	37.012
315.87	35.959
316.24	35.904
316.61	36.895
316.97	36.759
317.34	37.077
317.70	37.467
318.07	38.509
318.43	39.205
318.80	39.005
319.16	40.230
319.53	38.530
319.89	40.199
320.26	40.850
320.62	40.778
320.99	41.376
321.35	40.973
321.72	42.445
322.08	43.727
322.45	46.531
322.81	44.917
323.18	45.707
323.54	47.292
323.91	46.883
324.27	46.625
324.64	46.516
325.00	46.457
325.37	48.464
325.73	46.886
326.10	48.444
326.46	48.746
326.83	49.434
327.19	52.033
327.56	50.927
327.92	51.569
328.29	52.170
328.65	53.637
329.01	54.529
329.38	54.000
329.74	53.562
330.11	55.455
330.47	55.208
330.84	55.144
331.20	54.825
331.56	57.428
331.93	56.761
332.29	56.299
332.66	54.322
333.02	56.473
333.38	59.035
333.75	57.509
334.11	56.944
334.48	58.849
334.84	58.216
335.20	56.346
335.57	55.788
335.93	57.045
336.29	57.005
336.66	56.496
337.02	58.087
337.38	55.178
337.75	58.053
338.11	56.618
338.47	57.791
338.84	56.529
339.20	59.259
339.56	58.447
339.93	59.983
340.29	58.241
340.65	56.544
341.02	57.321
341.38	58.530
341.74	58.403
342.11	58.464
342.47	58.494
342.83	57.925
343.20	57.953
343.56	58.790
343.92	58.408
344.28	57.711
344.65	58.612
345.01	57.627
345.37	59.293
345.73	59.314
346.10	58.989
346.46	59.106
346.82	58.748
347.19	59.335
347.55	60.420
347.91	57.989
348.27	59.069
348.63	58.413
349.00	60.770
349.36	59.419
349.72	59.319
350.08	58.736
350.45	59.358
350.81	59.781
351.17	58.814
351.53	60.330
351.89	58.777
352.26	58.919
352.62	60.388
352.98	59.824
353.34	60.789
353.70	59.735
354.07	59.608
354.43	59.487
354.79	61.378
355.15	60.792
355.51	59.226
355.87	61.845
356.24	61.637
356.60	59.656
356.96	60.246
357.32	61.533
357.68	62.185
358.04	62.529
358.40	61.008
358.77	60.703
359.13	61.556
359.49	61.090
359.85	60.197
360.21	63.223
360.57	61.141
360.93	63.429
361.29	62.324
361.66	63.554
362.02	62.046
362.38	61.743
362.74	62.219
363.10	62.690
363.46	62.680
363.82	63.341
364.18	63.814
364.54	63.530
364.90	64.321
365.26	63.128
365.62	64.134
365.98	62.278
366.35	62.695
366.71	63.837
367.07	63.997
367.43	63.066
367.79	64.350
368.15	63.502
368.51	61.674
368.87	63.712
369.23	64.555
369.59	64.059
369.95	64.078
370.31	63.598
370.67	64.301
371.03	64.439
371.39	64.869
371.75	65.357
372.11	64.103
372.47	66.186
372.83	64.910
373.19	65.612
373.55	66.329
373.91	66.337
374.27	65.629
374.63	66.003
374.99	65.808
375.35	64.589
375.71	64.878
376.07	65.798
376.42	66.243
376.78	65.456
377.14	67.458
377.50	66.102
377.86	66.799
378.22	65.740
378.58	66.456
378.94	67.938
379.30	67.146
379.66	68.064
380.02	67.463
380.38	66.566
380.74	68.619
381.09	65.501
381.45	67.533
381.81	66.420
382.17	66.541
382.53	67.877
382.89	67.008
383.25	66.420
383.61	66.949
383.97	66.375
384.32	67.360
384.68	68.970
385.04	66.646
385.40	68.431
385.76	66.545
386.12	68.044
386.48	68.652
386.83	68.523
387.19	67.551
387.55	67.321
387.91	69.004
388.27	68.311
388.62	68.165
388.98	69.337
389.34	68.421
389.70	67.399
390.06	66.625
390.42	67.655
390.77	67.905
391.13	69.003
391.49	67.426
391.85	67.348
392.20	68.296
392.56	69.651
392.92	68.051
393.28	68.042
393.64	68.196
393.99	66.279
394.35	67.654
394.71	67.756
395.07	67.107
395.42	68.617
395.78	68.082
396.14	67.850
396.50	67.914
396.85	67.686
397.21	67.665
397.57	66.460
397.92	66.108
398.28	66.779
398.64	66.667
399.00	66.797
399.35	68.218
399.71	67.443
400.07	67.771
400.42	68.464
400.78	66.042
401.14	67.259
401.49	66.866
401.85	67.199
402.21	68.421
402.57	67.443
402.92	67.584
403.28	67.667
403.63	67.328
403.99	67.818
404.35	67.581
404.70	66.647
405.06	66.706
405.42	66.834
405.77	65.150
406.13	66.114
406.49	66.687
406.84	67.705
407.20	66.193
407.55	67.273
407.91	65.586
408.27	65.565
408.62	67.465
408.98	66.584
409.34	66.832
409.69	66.732
410.05	66.231
410.40	64.151
410.76	66.968
411.11	66.604
411.47	68.215
411.83	65.752
412.18	67.632
412.54	67.105
412.89	67.022
413.25	65.959
413.60	67.335
413.96	66.792
414.31	66.584
414.67	65.397
415.03	67.524
415.38	66.645
415.74	66.927
416.09	67.548
416.45	68.626
416.80	68.054
417.16	67.072
417.51	67.850
417.87	67.328
418.22	67.873
418.58	66.820
418.93	67.294
419.29	68.779
419.64	67.494
420.00	67.746
420.35	68.380
420.71	68.495
421.06	67.343
421.42	69.769
421.77	69.711
422.12	69.341
422.48	67.775
422.83	69.522
423.19	69.983
423.54	70.671
423.90	69.002
424.25	70.711
424.61	70.856
424.96	68.835
425.31	68.817
425.67	69.959
426.02	71.084
426.38	71.953
426.73	71.411
427.09	70.106
427.44	71.051
427.79	72.150
428.15	72.049
428.50	71.480
428.85	71.894
429.21	71.750
429.56	72.476
429.92	71.525
430.27	72.188
430.62	72.455
430.98	72.977
431.33	73.509
431.68	74.068
432.04	74.423
432.39	73.326
432.74	74.617
433.10	75.015
433.45	74.675
433.80	74.885
434.16	71.873
434.51	74.457
434.86	74.323
435.22	74.420
435.57	74.263
435.92	77.443
436.28	74.835
436.63	75.462
436.98	75.676
437.34	76.984
437.69	75.738
438.04	75.495
438.39	77.273
438.75	77.473
439.10	77.386
439.45	76.998
439.81	76.170
440.16	77.159
440.51	76.397
440.86	76.763
441.22	78.141
441.57	76.518
441.92	77.449
442.27	74.459
442.63	77.018
442.98	76.968
443.33	76.975
443.68	77.280
444.03	77.993
444.39	78.532
444.74	77.084
445.09	76.707
445.44	78.817
445.79	79.350
446.15	78.314
446.50	78.139
446.85	78.888
447.20	79.247
447.55	78.232
447.91	78.483
448.26	78.902
448.61	76.697
448.96	79.499
449.31	80.011
449.66	79.584
450.02	79.648
450.37	80.552
450.72	79.392
451.07	79.310
451.42	76.918
451.77	78.454
452.12	79.204
452.47	79.923
452.83	79.422
453.18	79.694
453.53	80.202
453.88	80.120
454.23	79.913
454.58	78.309
454.93	78.319
455.28	78.870
455.63	77.729
455.98	79.915
456.34	78.131
456.69	80.128
457.04	78.824
457.39	79.134
457.74	80.012
458.09	79.325
458.44	80.082
458.79	77.375
459.14	77.753
459.49	79.817
459.84	77.227
460.19	78.631
460.54	80.474
460.89	79.336
461.24	80.210
461.59	80.435
461.94	79.267
462.29	79.289
462.64	79.024
462.99	81.221
463.34	80.110
463.69	80.026
464.04	78.812
464.39	81.086
464.74	79.730
465.09	79.417
465.44	78.283
465.79	80.679
466.14	80.559
466.49	79.589
466.84	80.873
467.19	81.146
467.54	81.335
467.89	80.264
468.24	80.086
468.59	81.389
468.94	81.290
469.29	82.089
469.64	81.939
469.99	80.897
470.34	80.984
470.68	81.338
471.03	81.523
471.38	79.555
471.73	80.178
472.08	79.107
472.43	81.860
472.78	78.905
473.13	78.364
473.48	79.517
473.83	80.414
474.17	80.859
474.52	80.129
474.87	80.760
475.22	80.193
475.57	79.030
475.92	79.607
476.27	78.730
476.61	78.596
476.96	82.524
477.31	80.960
477.66	80.621
478.01	79.780
478.36	79.837
478.70	79.860
479.05	80.577
479.40	78.055
479.75	79.330
480.10	78.123
480.45	78.617
480.79	79.044
481.14	80.952
481.49	80.118
481.84	78.652
482.19	79.203
482.53	78.476
482.88	79.195
483.23	79.307
483.58	79.820
483.92	79.961
484.27	79.277
484.62	79.139
484.97	78.474
485.31	78.630
485.66	72.606
486.01	73.083
486.36	73.725
486.70	76.241
487.05	77.262
487.40	78.403
487.75	80.218
488.09	79.762
488.44	80.687
488.79	82.021
489.13	80.239
489.48	80.205
489.83	79.500
490.17	79.846
490.52	81.487
490.87	79.277
491.22	79.228
491.56	79.396
491.91	79.021
492.26	79.981
492.60	77.730
492.95	78.960
493.30	78.343
493.64	78.129
493.99	80.145
494.34	79.528
494.68	79.714
495.03	80.534
495.37	78.881
495.72	80.401
496.07	80.955
496.41	77.960
496.76	79.890
497.11	79.624
497.45	81.128
497.80	80.818
498.14	81.159
498.49	79.778
498.84	80.213
499.18	79.642
499.53	79.124
499.87	78.700
500.22	79.243
500.56	78.536
500.91	80.080
501.26	78.966
501.60	79.265
501.95	78.869
502.29	78.835
502.64	80.039
502.98	79.239
503.33	79.805
503.67	80.088
504.02	79.853
504.36	79.396
504.71	80.030
505.06	80.336
505.40	81.546
505.75	81.943
506.09	80.276
506.44	78.780
506.78	79.736
507.13	79.678
507.47	78.367
507.82	79.069
508.16	80.633
508.51	78.357
508.85	80.301
509.19	80.582
509.54	80.643
509.88	79.032
510.23	79.895
510.57	79.396
510.92	79.903
511.26	80.748
511.61	81.394
511.95	80.430
512.30	79.789
512.64	82.350
512.98	79.723
513.33	80.451
513.67	80.920
514.02	81.357
514.36	81.067
514.70	81.062
515.05	81.100
515.39	81.132
515.74	80.995
516.08	81.298
516.42	79.090
516.77	80.375
517.11	81.305
517.46	83.493
517.80	81.477
518.14	80.220
518.49	79.928
518.83	81.205
519.17	81.024
519.52	81.363
519.86	81.360
520.20	79.806
520.55	82.338
520.89	82.037
521.23	83.846
521.58	82.933
521.92	79.698
522.26	80.351
522.61	82.159
522.95	79.728
523.29	80.254
523.64	81.564
523.98	81.067
524.32	81.727
524.66	81.364
525.01	81.520
525.35	81.303
525.69	81.378
526.04	78.827
526.38	79.669
526.72	80.210
527.06	79.948
527.41	79.881
527.75	80.174
528.09	82.573
528.43	82.022
528.78	79.199
529.12	80.142
529.46	80.934
529.80	80.194
530.15	78.571
530.49	82.075
530.83	81.584
531.17	80.411
531.51	78.085
531.86	78.794
532.20	80.772
532.54	81.103
532.88	80.871
533.22	79.529
533.57	79.735
533.91	80.129
534.25	80.143
534.59	78.571
534.93	77.806
535.27	78.599
535.62	79.211
535.96	79.831
536.30	79.521
536.64	78.674
536.98	79.117
537.32	80.783
537.66	79.972
538.01	78.502
538.35	78.867
538.69	78.127
539.03	76.980
539.37	77.666
539.71	78.445
540.05	78.070
540.39	78.114
540.73	79.818
541.07	78.776
541.42	79.461
541.76	78.349
542.10	77.454
542.44	77.408
542.78	79.598
543.12	77.695
543.46	76.780
543.80	77.054
544.14	77.977
544.48	75.979
544.82	78.547
545.16	77.890
545.50	77.380
545.84	78.682
546.18	78.050
546.52	78.476
546.86	77.527
547.20	78.699
547.54	78.199
547.88	78.745
548.22	76.938
548.56	78.052
548.90	78.755
549.24	78.750
549.58	78.363
549.92	81.438
550.26	80.517
550.60	80.105
550.94	80.000
551.28	80.469
551.62	81.504
551.96	79.429
552.30	79.840
552.64	79.449
552.98	80.895
553.32	79.524
553.66	81.805
554.00	80.490
554.34	79.414
554.68	79.567
555.02	81.886
555.36	82.526
555.69	78.878
556.03	79.986
556.37	79.303
556.71	79.678
557.05	80.738
557.39	81.462
557.73	82.905
558.07	81.236
558.41	81.075
558.75	82.833
559.08	80.674
559.42	81.432
559.76	79.587
560.10	80.938
560.44	80.472
560.78	81.079
561.12	80.589
561.45	77.823
561.79	79.298
562.13	79.958
562.47	80.429
562.81	78.860
563.15	78.754
563.48	79.697
563.82	79.822
564.16	77.996
564.50	78.697
564.84	79.662
565.17	78.543
565.51	77.540
565.85	75.816
566.19	79.073
566.52	77.195
566.86	75.790
567.20	77.337
567.54	75.187
567.88	73.852
568.21	73.710
568.55	74.231
568.89	73.878
569.23	72.869
569.56	73.258
569.90	71.626
570.24	70.325
570.57	70.078
570.91	71.039
571.25	70.446
571.59	70.595
571.92	72.074
572.26	72.349
572.60	73.237
572.93	72.790
573.27	71.485
573.61	71.754
573.95	70.307
574.28	71.152
574.62	70.970
574.96	70.571
575.29	72.568
575.63	72.998
575.97	73.234
576.30	71.916
576.64	72.308
576.98	71.948
577.31	70.418
577.65	69.583
577.98	70.246
578.32	70.311
578.66	71.632
578.99	72.371
579.33	72.689
579.67	73.142
580.00	71.950
580.34	71.425
580.67	73.003
581.01	71.642
581.35	70.152
581.68	70.547
582.02	71.243
582.35	70.856
582.69	71.575
583.02	71.778
583.36	72.391
583.70	73.569
584.03	73.605
584.37	73.579
584.70	72.836
585.04	74.505
585.37	73.536
585.71	71.949
586.04	74.010
586.38	73.270
586.72	73.363
587.05	74.845
587.39	74.070
587.72	74.521
588.06	74.419
588.39	74.251
588.73	75.030
589.06	76.269
589.40	75.095
589.73	75.530
590.07	74.918
590.40	76.789
590.73	77.715
591.07	76.389
591.40	76.478
591.74	76.612
592.07	76.860
592.41	77.177
592.74	75.039
593.08	75.282
593.41	74.952
593.75	75.581
594.08	75.820
594.41	76.782
594.75	77.549
595.08	76.736
595.42	75.770
595.75	76.139
596.09	77.175
596.42	77.696
596.75	79.026
597.09	79.436
597.42	79.139
597.75	79.644
598.09	79.918
598.42	78.837
598.76	79.051
599.09	79.312
599.42	76.699
599.76	77.169
600.09	77.334
600.42	77.288
600.76	78.862
601.09	78.757
601.42	77.969
601.76	77.838
602.09	78.922
602.42	79.447
602.76	79.069
603.09	78.563
603.42	77.489
603.76	75.955
604.09	76.680
604.42	79.322
604.76	78.787
605.09	79.112
605.42	79.937
605.75	77.773
606.09	77.649
606.42	77.972
606.75	78.355
607.09	79.477
607.42	78.940
607.75	77.943
608.08	80.298
608.42	79.850
608.75	80.554
609.08	80.990
609.41	78.987
609.75	79.728
610.08	79.931
610.41	79.883
610.74	78.633
611.07	79.259
611.41	78.864
611.74	79.141
612.07	77.801
612.40	80.811
612.73	79.967
613.07	79.989
613.40	81.663
613.73	80.769
614.06	79.547
614.39	79.822
614.72	80.122
615.06	81.000
615.39	80.795
615.72	80.400
616.05	80.800
616.38	82.245
616.71	80.504
617.05	83.108
617.38	79.482
617.71	79.473
618.04	80.073
618.37	81.893
618.70	81.630
619.03	82.131
619.36	82.989
619.69	82.675
620.03	81.343
620.36	81.628
620.69	81.656
621.02	81.231
621.35	82.829
621.68	83.211
622.01	83.252
622.34	82.712
622.67	82.850
623.00	81.991
623.33	82.573
623.66	82.230
623.99	82.446
624.32	82.098
624.65	82.196
624.99	83.027
625.32	83.420
625.65	81.473
625.98	83.570
626.31	84.327
626.64	84.523
626.97	86.246
627.30	86.313
627.63	84.083
627.96	82.771
628.29	85.953
628.62	86.364
628.95	87.475
629.28	87.389
629.61	85.455
629.94	84.913
630.26	85.419
630.59	87.113
630.92	84.739
631.25	83.831
631.58	86.831
631.91	85.896
632.24	84.962
632.57	85.222
