SpectraSuite Data File
++++++++++++++++++++++++++++++++++++
Date: Tue May 12 15:22:31 PDT 2015
User: schluterlab
Dark Spectrum Present: Yes
Reference Spectrum Present: Yes
Number of Sampled Component Spectra: 1
Spectrometers: USB2E3373
Integration Time (usec): 3000 (USB2E3373)
Spectra Averaged: 3 (USB2E3373)
Boxcar Smoothing: 0 (USB2E3373)
Correct for Electrical Dark: No (USB2E3373)
Strobe/Lamp Enabled: No (USB2E3373)
Correct for Detector Non-linearity: No (USB2E3373)
Correct for Stray Light: No (USB2E3373)
Number of Pixels in Processed Spectrum: 2048
>>>>>Begin Processed Spectral Data<<<<<
178.53	0.000
178.91	-133.333
179.29	-625.000
179.67	-2500.000
180.04	-140.000
180.42	725.000
180.80	1550.000
181.18	0.000
181.56	-375.000
181.94	0.000
182.31	900.000
182.69	-3000.000
183.07	514.286
183.45	-3700.000
183.83	-1500.000
184.20	380.000
184.58	414.286
184.96	-269.231
185.34	-233.333
185.72	2000.000
186.09	-725.000
186.47	-3400.000
186.85	1233.333
187.23	520.000
187.61	2100.000
187.98	475.000
188.36	214.286
188.74	325.000
189.12	383.333
189.49	800.000
189.87	0.000
190.25	400.000
190.63	2500.000
191.00	-216.667
191.38	-3300.000
191.76	-425.000
192.14	500.000
192.51	-2600.000
192.89	1350.000
193.27	633.333
193.65	-900.000
194.02	-680.000
194.40	385.714
194.78	-271.429
195.15	246.667
195.53	-3300.000
195.91	-440.000
196.29	3900.000
196.66	250.000
197.04	800.000
197.42	-1100.000
197.79	425.000
198.17	308.333
198.55	0.000
198.92	400.000
199.30	1000.000
199.68	2300.000
200.05	566.667
200.43	-433.333
200.81	211.111
201.18	2700.000
201.56	183.333
201.94	-825.000
202.31	-275.000
202.69	-500.000
203.07	3200.000
203.44	-416.667
203.82	316.667
204.19	480.000
204.57	-1250.000
204.95	-900.000
205.32	-500.000
205.70	416.667
206.08	675.000
206.45	-633.333
206.83	255.556
207.20	194.737
207.58	175.000
207.96	680.000
208.33	0.000
208.71	514.286
209.08	580.000
209.46	-2300.000
209.84	-550.000
210.21	700.000
210.59	-540.000
210.96	350.000
211.34	-800.000
211.71	400.000
212.09	825.000
212.46	1700.000
212.84	-466.667
213.22	455.556
213.59	-3000.000
213.97	280.000
214.34	925.000
214.72	1066.667
215.09	866.667
215.47	-2300.000
215.84	-350.000
216.22	-425.000
216.59	0.000
216.97	0.000
217.34	1100.000
217.72	-1150.000
218.09	933.333
218.47	300.000
218.84	725.000
219.22	1100.000
219.59	800.000
219.97	557.143
220.34	277.778
220.72	1300.000
221.09	2700.000
221.47	300.000
221.84	1000.000
222.22	280.000
222.59	288.889
222.97	300.000
223.34	218.750
223.72	-1550.000
224.09	1000.000
224.46	200.000
224.84	-775.000
225.21	366.667
225.59	246.667
225.96	1133.333
226.34	-720.000
226.71	-575.000
227.08	-500.000
227.46	0.000
227.83	-400.000
228.21	-1700.000
228.58	325.000
228.95	825.000
229.33	355.556
229.70	1075.000
230.08	392.308
230.45	2900.000
230.82	-925.000
231.20	-666.667
231.57	-866.667
231.95	500.000
232.32	216.667
232.69	500.000
233.07	225.000
233.44	-1600.000
233.81	246.667
234.19	181.481
234.56	231.250
234.93	188.235
235.31	175.000
235.68	181.250
236.05	164.286
236.43	111.111
236.80	235.714
237.17	120.690
237.55	128.125
237.92	75.000
238.29	87.879
238.67	131.250
239.04	90.244
239.41	68.750
239.79	52.500
240.16	75.000
240.53	44.262
240.91	56.522
241.28	52.542
241.65	48.485
242.02	69.014
242.40	45.714
242.77	42.857
243.14	44.304
243.51	46.465
243.89	43.925
244.26	34.579
244.63	35.644
245.00	29.358
245.38	22.034
245.75	24.242
246.12	37.778
246.49	22.695
246.87	21.311
247.24	26.667
247.61	28.125
247.98	29.252
248.36	27.879
248.73	30.102
249.10	26.786
249.47	27.000
249.84	19.403
250.22	17.297
250.59	25.000
250.96	24.473
251.33	20.000
251.70	20.089
252.08	20.588
252.45	19.522
252.82	20.532
253.19	17.787
253.56	15.769
253.94	14.855
254.31	14.729
254.68	18.467
255.05	20.345
255.42	17.518
255.79	17.590
256.16	17.966
256.54	16.234
256.91	16.993
257.28	18.060
257.65	10.031
258.02	17.699
258.39	17.765
258.76	17.391
259.14	12.571
259.51	15.743
259.88	13.982
260.25	12.637
260.62	14.795
260.99	11.019
261.36	10.864
261.73	16.489
262.10	15.969
262.47	14.500
262.85	13.867
263.22	14.910
263.59	13.555
263.96	13.784
264.33	12.840
264.70	12.285
265.07	13.659
265.44	16.514
265.81	12.972
266.18	11.442
266.55	11.584
266.92	12.081
267.29	11.842
267.66	12.108
268.03	13.901
268.40	12.051
268.77	12.996
269.14	12.364
269.51	10.690
269.88	14.898
270.25	11.231
270.62	13.734
270.99	13.996
271.36	13.821
271.73	11.740
272.10	11.919
272.47	11.310
272.84	11.577
273.21	12.397
273.58	11.741
273.95	11.294
274.32	10.895
274.69	12.598
275.06	14.936
275.43	11.494
275.80	9.811
276.17	10.662
276.54	14.019
276.91	14.366
277.28	10.219
277.65	9.779
278.02	12.500
278.39	9.892
278.76	12.241
279.13	12.278
279.50	8.545
279.87	11.918
280.23	10.866
280.60	11.679
280.97	8.793
281.34	9.571
281.71	9.739
282.08	11.966
282.45	9.459
282.82	11.706
283.19	10.652
283.56	10.909
283.92	11.564
284.29	10.483
284.66	10.756
285.03	11.940
285.40	10.083
285.77	9.105
286.14	11.146
286.51	11.043
286.87	8.386
287.24	10.060
287.61	8.967
287.98	13.433
288.35	10.222
288.72	10.319
289.08	9.760
289.45	10.671
289.82	10.312
290.19	9.370
290.56	11.499
290.93	10.072
291.29	8.702
291.66	7.768
292.03	8.836
292.40	9.892
292.77	8.914
293.13	9.272
293.50	8.097
293.87	7.588
294.24	9.930
294.60	9.960
294.97	7.413
295.34	9.296
295.71	11.038
296.08	9.333
296.44	8.640
296.81	8.809
297.18	8.872
297.55	9.360
297.91	7.143
298.28	9.300
298.65	8.589
299.02	8.926
299.38	8.034
299.75	8.780
300.12	8.945
300.48	11.124
300.85	7.747
301.22	8.488
301.59	6.486
301.95	9.335
302.32	8.847
302.69	8.258
303.05	9.203
303.42	8.520
303.79	7.692
304.15	7.921
304.52	6.977
304.89	8.102
305.25	7.119
305.62	8.316
305.99	6.957
306.35	7.368
306.72	7.804
307.09	7.453
307.45	6.969
307.82	8.128
308.19	7.835
308.55	5.700
308.92	7.556
309.29	8.580
309.65	6.343
310.02	8.012
310.38	6.979
310.75	6.654
311.12	8.525
311.48	8.494
311.85	8.874
312.22	8.023
312.58	6.900
312.95	7.282
313.31	7.116
313.68	6.942
314.05	8.974
314.41	7.542
314.78	7.102
315.14	8.057
315.51	7.758
315.87	7.117
316.24	7.096
316.61	6.714
316.97	7.156
317.34	7.457
317.70	7.463
318.07	7.028
318.43	6.678
318.80	7.180
319.16	7.605
319.53	8.230
319.89	5.735
320.26	7.821
320.62	6.960
320.99	7.340
321.35	7.328
321.72	8.254
322.08	6.741
322.45	7.811
322.81	6.953
323.18	8.082
323.54	7.578
323.91	7.434
324.27	8.046
324.64	6.661
325.00	7.931
325.37	6.745
325.73	7.757
326.10	6.959
326.46	8.010
326.83	6.320
327.19	8.353
327.56	5.511
327.92	6.885
328.29	7.365
328.65	8.305
329.01	7.442
329.38	7.360
329.74	7.088
330.11	6.777
330.47	7.673
330.84	6.299
331.20	6.768
331.56	7.599
331.93	6.245
332.29	6.037
332.66	7.228
333.02	7.045
333.38	6.894
333.75	7.006
334.11	6.879
334.48	6.838
334.84	7.264
335.20	6.929
335.57	7.389
335.93	6.728
336.29	7.463
336.66	7.376
337.02	6.416
337.38	7.825
337.75	7.264
338.11	7.848
338.47	6.943
338.84	6.859
339.20	5.714
339.56	8.074
339.93	7.191
340.29	5.630
340.65	7.125
341.02	7.160
341.38	7.635
341.74	6.894
342.11	6.260
342.47	5.989
342.83	7.629
343.20	7.276
343.56	5.719
343.92	6.358
344.28	7.496
344.65	6.031
345.01	7.460
345.37	5.849
345.73	7.143
346.10	6.534
346.46	6.858
346.82	6.096
347.19	7.496
347.55	6.479
347.91	6.722
348.27	5.809
348.63	6.566
349.00	7.083
349.36	7.626
349.72	6.881
350.08	6.522
350.45	5.712
350.81	7.110
351.17	5.932
351.53	6.313
351.89	6.527
352.26	5.896
352.62	7.089
352.98	6.748
353.34	7.088
353.70	5.275
354.07	7.000
354.43	5.914
354.79	5.923
355.15	5.972
355.51	5.816
355.87	7.304
356.24	5.851
356.60	6.773
356.96	6.217
357.32	6.481
357.68	7.195
358.04	6.915
358.40	6.372
358.77	6.912
359.13	6.306
359.49	5.856
359.85	6.255
360.21	6.018
360.57	5.766
360.93	6.349
361.29	6.205
361.66	6.637
362.02	4.901
362.38	5.916
362.74	6.086
363.10	5.680
363.46	5.387
363.82	6.522
364.18	6.543
364.54	6.223
364.90	6.359
365.26	6.107
365.62	6.354
365.98	5.850
366.35	5.586
366.71	6.037
367.07	6.212
367.43	6.447
367.79	5.652
368.15	5.631
368.51	6.065
368.87	4.891
369.23	6.029
369.59	6.541
369.95	6.294
370.31	5.407
370.67	5.899
371.03	7.073
371.39	5.748
371.75	5.373
372.11	6.322
372.47	6.096
372.83	5.710
373.19	7.334
373.55	6.117
373.91	5.041
374.27	5.688
374.63	6.305
374.99	6.132
375.35	5.242
375.71	5.937
376.07	5.968
376.42	5.563
376.78	6.101
377.14	5.570
377.50	5.993
377.86	5.125
378.22	5.241
378.58	6.053
378.94	6.216
379.30	5.276
379.66	5.719
380.02	6.921
380.38	4.801
380.74	6.055
381.09	5.958
381.45	4.855
381.81	5.260
382.17	5.678
382.53	5.459
382.89	5.441
383.25	5.447
383.61	6.110
383.97	5.399
384.32	5.787
384.68	6.417
385.04	5.979
385.40	5.813
385.76	5.325
386.12	4.947
386.48	5.106
386.83	5.134
387.19	5.477
387.55	5.948
387.91	5.889
388.27	5.413
388.62	5.575
388.98	5.364
389.34	5.057
389.70	4.481
390.06	5.366
390.42	5.305
390.77	5.713
391.13	6.397
391.49	5.747
391.85	5.846
392.20	6.913
392.56	6.332
392.92	6.176
393.28	5.774
393.64	4.702
393.99	5.691
394.35	5.533
394.71	5.549
395.07	5.535
395.42	5.913
395.78	6.107
396.14	7.169
396.50	5.836
396.85	5.000
397.21	5.957
397.57	5.977
397.92	5.315
398.28	4.854
398.64	6.225
399.00	4.971
399.35	5.368
399.71	5.795
400.07	5.422
400.42	6.030
400.78	5.337
401.14	5.578
401.49	6.048
401.85	6.257
402.21	5.448
402.57	5.206
402.92	5.394
403.28	5.549
403.63	4.885
403.99	5.247
404.35	5.862
404.70	5.789
405.06	5.109
405.42	5.506
405.77	5.788
406.13	5.586
406.49	4.832
406.84	5.922
407.20	5.708
407.55	6.154
407.91	6.382
408.27	6.246
408.62	5.973
408.98	6.268
409.34	5.085
409.69	5.352
410.05	5.665
410.40	4.888
410.76	4.579
411.11	5.154
411.47	5.679
411.83	4.804
412.18	5.435
412.54	5.646
412.89	5.133
413.25	5.188
413.60	5.958
413.96	5.506
414.31	5.136
414.67	5.587
415.03	5.556
415.38	5.300
415.74	5.433
416.09	5.996
416.45	5.947
416.80	5.709
417.16	5.029
417.51	5.414
417.87	5.194
418.22	5.650
418.58	5.287
418.93	5.473
419.29	4.436
419.64	6.239
420.00	6.026
420.35	5.226
420.71	5.193
421.06	5.592
421.42	5.642
421.77	5.941
422.12	5.017
422.48	5.701
422.83	5.078
423.19	5.076
423.54	6.253
423.90	5.436
424.25	5.118
424.61	6.326
424.96	5.082
425.31	5.747
425.67	5.387
426.02	5.552
426.38	5.076
426.73	5.437
427.09	5.872
427.44	5.290
427.79	4.860
428.15	5.480
428.50	5.943
428.85	5.996
429.21	5.402
429.56	5.683
429.92	5.420
430.27	5.515
430.62	4.650
430.98	5.639
431.33	4.335
431.68	4.741
432.04	4.915
432.39	5.434
432.74	5.796
433.10	4.983
433.45	4.652
433.80	6.122
434.16	5.570
434.51	5.212
434.86	5.444
435.22	5.186
435.57	5.216
435.92	6.204
436.28	6.048
436.63	5.835
436.98	5.462
437.34	5.822
437.69	5.431
438.04	5.484
438.39	5.254
438.75	5.457
439.10	5.882
439.45	5.144
439.81	5.726
440.16	5.449
440.51	5.349
440.86	6.382
441.22	5.519
441.57	5.302
441.92	5.775
442.27	5.000
442.63	5.589
442.98	4.795
443.33	5.249
443.68	5.584
444.03	5.655
444.39	5.932
444.74	5.228
445.09	5.266
445.44	5.685
445.79	5.507
446.15	5.684
446.50	4.905
446.85	4.731
447.20	4.627
447.55	5.873
447.91	6.446
448.26	6.230
448.61	5.749
448.96	5.338
449.31	5.501
449.66	5.537
450.02	5.511
450.37	5.664
450.72	6.171
451.07	6.748
451.42	6.283
451.77	5.956
452.12	5.389
452.47	6.015
452.83	5.746
453.18	6.306
453.53	5.684
453.88	6.457
454.23	6.392
454.58	6.177
454.93	5.518
455.28	6.181
455.63	5.910
455.98	5.753
456.34	6.261
456.69	5.610
457.04	6.026
457.39	5.829
457.74	5.856
458.09	5.559
458.44	6.462
458.79	5.676
459.14	5.183
459.49	6.116
459.84	5.870
460.19	6.328
460.54	6.097
460.89	5.650
461.24	6.071
461.59	6.236
461.94	5.615
462.29	5.892
462.64	6.093
462.99	5.630
463.34	6.935
463.69	7.199
464.04	6.448
464.39	5.953
464.74	5.510
465.09	6.442
465.44	5.495
465.79	5.934
466.14	5.670
466.49	6.077
466.84	5.741
467.19	6.385
467.54	5.946
467.89	6.045
468.24	5.675
468.59	6.071
468.94	6.280
469.29	6.903
469.64	6.431
469.99	6.041
470.34	6.199
470.68	6.207
471.03	6.938
471.38	6.026
471.73	6.140
472.08	6.458
472.43	6.331
472.78	6.338
473.13	6.008
473.48	6.235
473.83	6.832
474.17	6.140
474.52	6.635
474.87	5.344
475.22	5.939
475.57	6.086
475.92	5.008
476.27	5.495
476.61	5.523
476.96	6.479
477.31	5.656
477.66	6.710
478.01	6.240
478.36	6.025
478.70	5.806
479.05	5.387
479.40	6.101
479.75	6.405
480.10	6.002
480.45	5.789
480.79	5.991
481.14	5.706
481.49	5.444
481.84	5.497
482.19	5.808
482.53	6.105
482.88	6.183
483.23	5.503
483.58	6.059
483.92	5.759
484.27	5.865
484.62	5.772
484.97	5.999
485.31	5.127
485.66	5.034
486.01	4.632
486.36	4.195
486.70	4.143
487.05	4.650
487.40	4.606
487.75	5.135
488.09	5.398
488.44	5.290
488.79	5.241
489.13	4.965
489.48	5.713
489.83	5.796
490.17	5.822
490.52	5.986
490.87	5.819
491.22	5.496
491.56	6.368
491.91	5.690
492.26	6.058
492.60	6.469
492.95	6.117
493.30	6.324
493.64	5.840
493.99	5.993
494.34	6.320
494.68	5.445
495.03	5.882
495.37	6.619
495.72	6.014
496.07	5.840
496.41	5.604
496.76	6.247
497.11	6.512
497.45	6.532
497.80	6.302
498.14	6.103
498.49	6.500
498.84	6.449
499.18	6.216
499.53	5.788
499.87	6.289
500.22	6.403
500.56	5.803
500.91	7.004
501.26	6.706
501.60	5.965
501.95	5.556
502.29	6.267
502.64	6.440
502.98	6.047
503.33	5.924
503.67	6.358
504.02	6.090
504.36	5.973
504.71	5.724
505.06	6.147
505.40	6.130
505.75	5.940
506.09	7.280
506.44	6.626
506.78	6.144
507.13	6.253
507.47	5.919
507.82	6.764
508.16	6.908
508.51	6.473
508.85	6.553
509.19	6.216
509.54	6.689
509.88	6.663
510.23	6.422
510.57	6.515
510.92	6.294
511.26	6.727
511.61	6.499
511.95	6.720
512.30	7.150
512.64	5.711
512.98	6.202
513.33	6.506
513.67	7.147
514.02	6.286
514.36	5.971
514.70	6.187
515.05	6.553
515.39	6.524
515.74	7.108
516.08	7.081
516.42	7.760
516.77	6.667
517.11	6.827
517.46	6.897
517.80	7.045
518.14	6.817
518.49	6.891
518.83	6.484
519.17	6.656
519.52	7.100
519.86	6.866
520.20	7.178
520.55	7.179
520.89	6.782
521.23	6.893
521.58	6.483
521.92	7.289
522.26	7.168
522.61	6.952
522.95	8.048
523.29	7.544
523.64	7.052
523.98	7.336
524.32	6.978
524.66	7.826
525.01	6.627
525.35	6.836
525.69	7.044
526.04	7.674
526.38	7.357
526.72	7.518
527.06	7.274
527.41	7.557
527.75	7.486
528.09	7.164
528.43	7.138
528.78	7.812
529.12	7.586
529.46	7.832
529.80	7.418
530.15	7.248
530.49	7.160
530.83	7.617
531.17	6.827
531.51	7.235
531.86	7.669
532.20	7.478
532.54	7.031
532.88	7.183
533.22	8.227
533.57	6.589
533.91	7.401
534.25	7.040
534.59	7.076
534.93	6.257
535.27	6.602
535.62	6.418
535.96	6.915
536.30	7.922
536.64	6.025
536.98	6.860
537.32	7.375
537.66	7.781
538.01	7.926
538.35	7.860
538.69	6.675
539.03	6.903
539.37	7.282
539.71	7.716
540.05	7.508
540.39	7.925
540.73	6.962
541.07	6.964
541.42	6.903
541.76	6.350
542.10	7.522
542.44	7.107
542.78	7.237
543.12	7.239
543.46	7.456
543.80	7.957
544.14	6.625
544.48	6.873
544.82	7.278
545.16	6.740
545.50	7.806
545.84	7.891
546.18	7.997
546.52	7.869
546.86	7.479
547.20	8.010
547.54	8.043
547.88	7.238
548.22	6.982
548.56	7.778
548.90	7.414
549.24	7.644
549.58	7.861
549.92	7.662
550.26	7.235
550.60	6.720
550.94	7.598
551.28	8.414
551.62	7.655
551.96	8.378
552.30	6.922
552.64	7.573
552.98	7.345
553.32	6.594
553.66	7.296
554.00	7.593
554.34	7.989
554.68	7.124
555.02	6.721
555.36	7.048
555.69	7.853
556.03	7.389
556.37	7.712
556.71	8.214
557.05	6.619
557.39	6.600
557.73	8.086
558.07	6.774
558.41	7.334
558.75	7.866
559.08	8.506
559.42	7.516
559.76	8.838
560.10	7.502
560.44	8.228
560.78	6.841
561.12	8.074
561.45	6.070
561.79	7.740
562.13	7.012
562.47	7.333
562.81	7.352
563.15	7.175
563.48	7.143
563.82	7.548
564.16	8.085
564.50	7.595
564.84	7.356
565.17	7.487
565.51	7.204
565.85	7.711
566.19	6.845
566.52	6.619
566.86	7.239
567.20	7.191
567.54	6.386
567.88	7.147
568.21	6.091
568.55	6.712
568.89	7.391
569.23	6.040
569.56	5.911
569.90	5.677
570.24	5.417
570.57	5.711
570.91	5.023
571.25	5.012
571.59	4.935
571.92	5.301
572.26	4.933
572.60	4.943
572.93	5.377
573.27	5.198
573.61	4.764
573.95	4.905
574.28	4.968
574.62	4.658
574.96	4.656
575.29	4.596
575.63	4.523
575.97	4.674
576.30	4.682
576.64	4.987
576.98	4.760
577.31	4.770
577.65	4.748
577.98	4.483
578.32	4.468
578.66	4.549
578.99	4.762
579.33	4.668
579.67	4.547
580.00	4.517
580.34	4.515
580.67	4.497
581.01	4.806
581.35	4.830
581.68	4.195
582.02	4.218
582.35	4.199
582.69	4.371
583.02	4.218
583.36	4.535
583.70	4.773
584.03	4.797
584.37	4.997
584.70	4.777
585.04	4.782
585.37	4.531
585.71	5.146
586.04	4.364
586.38	4.956
586.72	4.582
587.05	5.121
587.39	4.399
587.72	4.904
588.06	4.519
588.39	4.734
588.73	4.985
589.06	5.048
589.40	4.977
589.73	5.179
590.07	5.628
590.40	5.923
590.73	6.206
591.07	6.148
591.40	5.709
591.74	5.844
592.07	5.241
592.41	5.875
592.74	5.566
593.08	5.078
593.41	4.817
593.75	4.890
594.08	5.328
594.41	5.246
594.75	5.514
595.08	5.590
595.42	5.793
595.75	5.462
596.09	5.805
596.42	5.462
596.75	6.210
597.09	5.943
597.42	5.592
597.75	5.436
598.09	5.581
598.42	6.079
598.76	6.361
599.09	5.737
599.42	5.467
599.76	5.461
600.09	5.424
600.42	5.594
600.76	5.370
601.09	5.074
601.42	5.421
601.76	5.478
602.09	5.482
602.42	5.804
602.76	5.806
603.09	5.581
603.42	5.761
603.76	5.495
604.09	5.176
604.42	5.348
604.76	5.927
605.09	5.633
605.42	6.258
605.75	5.330
606.09	5.777
606.42	5.411
606.75	5.791
607.09	5.843
607.42	5.625
607.75	6.131
608.08	5.808
608.42	6.166
608.75	5.434
609.08	5.851
609.41	6.227
609.75	6.456
610.08	6.025
610.41	5.973
610.74	6.017
611.07	5.775
611.41	6.580
611.74	6.214
612.07	6.407
612.40	5.848
612.73	6.191
613.07	5.879
613.40	6.115
613.73	6.890
614.06	6.000
614.39	6.768
614.72	6.379
615.06	5.737
615.39	6.832
615.72	5.808
616.05	6.781
616.38	6.393
616.71	6.565
617.05	6.590
617.38	7.022
617.71	5.962
618.04	7.011
618.37	6.448
618.70	6.697
619.03	6.593
619.36	7.412
619.69	7.520
620.03	8.089
620.36	6.487
620.69	7.791
621.02	7.201
621.35	7.450
621.68	7.965
622.01	8.044
622.34	6.846
622.67	7.514
623.00	7.624
623.33	7.287
623.66	7.452
623.99	8.219
624.32	7.182
624.65	7.044
624.99	7.167
625.32	7.816
625.65	5.724
625.98	7.950
626.31	7.864
626.64	6.986
626.97	7.575
627.30	8.618
627.63	7.378
627.96	7.590
628.29	7.756
628.62	7.699
628.95	8.245
629.28	9.553
629.61	7.733
629.94	8.384
630.26	8.752
630.59	9.397
630.92	8.072
631.25	9.519
631.58	9.354
631.91	8.754
632.24	8.260
632.57	7.957
632.90	10.766
633.23	10.073
633.56	8.746
633.89	9.539
634.22	9.903
634.55	8.817
634.88	9.858
635.20	10.538
635.53	10.221
635.86	10.179
636.19	9.989
636.52	9.946
636.85	9.169
637.18	9.967
637.51	9.385
637.83	9.725
638.16	10.903
638.49	11.497
638.82	10.211
639.15	9.871
639.48	10.545
639.81	10.012
640.13	10.675
640.46	10.999
640.79	9.883
641.12	9.711
641.45	11.643
641.77	11.493
642.10	11.914
642.43	12.091
642.76	11.222
643.09	11.960
643.41	10.098
643.74	12.374
644.07	12.242
644.40	11.095
644.73	11.712
645.05	12.481
645.38	10.567
645.71	11.077
646.04	12.519
646.36	12.833
646.69	11.520
647.02	12.640
647.35	11.024
647.67	11.183
648.00	13.518
648.33	11.579
648.66	12.424
648.98	10.435
649.31	10.391
649.64	9.820
649.96	9.388
650.29	8.714
650.62	13.549
650.94	11.898
651.27	12.919
651.60	11.581
651.92	11.828
652.25	11.654
652.58	11.489
652.90	12.126
653.23	10.487
653.56	9.644
