SpectraSuite Data File
++++++++++++++++++++++++++++++++++++
Date: Wed May 13 21:42:55 PDT 2015
User: schluterlab
Dark Spectrum Present: Yes
Reference Spectrum Present: Yes
Number of Sampled Component Spectra: 1
Spectrometers: USB2E3373
Integration Time (usec): 3000 (USB2E3373)
Spectra Averaged: 3 (USB2E3373)
Boxcar Smoothing: 0 (USB2E3373)
Correct for Electrical Dark: No (USB2E3373)
Strobe/Lamp Enabled: No (USB2E3373)
Correct for Detector Non-linearity: No (USB2E3373)
Correct for Stray Light: No (USB2E3373)
Number of Pixels in Processed Spectrum: 2048
>>>>>Begin Processed Spectral Data<<<<<
178.53	0.000
178.91	700.000
179.29	208.333
179.67	-750.000
180.04	-433.333
180.42	200.000
180.80	1700.000
181.18	266.667
181.56	-350.000
181.94	-325.000
182.31	-45.455
182.69	130.769
183.07	-160.000
183.45	183.333
183.83	200.000
184.20	357.143
184.58	0.000
184.96	500.000
185.34	242.857
185.72	0.000
186.09	-1400.000
186.47	-260.000
186.85	180.000
187.23	-50.000
187.61	600.000
187.98	1200.000
188.36	-125.000
188.74	0.000
189.12	-9.091
189.49	-10.000
189.87	75.000
190.25	300.000
190.63	800.000
191.00	-320.000
191.38	260.000
191.76	425.000
192.14	133.333
192.51	-5.263
192.89	200.000
193.27	75.000
193.65	-260.000
194.02	136.364
194.40	230.000
194.78	-500.000
195.15	80.000
195.53	20.000
195.91	50.000
196.29	-166.667
196.66	0.000
197.04	500.000
197.42	40.000
197.79	-60.000
198.17	-125.000
198.55	-466.667
198.92	175.000
199.30	-633.333
199.68	-30.000
200.05	450.000
200.43	266.667
200.81	-800.000
201.18	-100.000
201.56	-200.000
201.94	375.000
202.31	-8.696
202.69	-71.429
203.07	-466.667
203.44	-20.000
203.82	-433.333
204.19	-20.000
204.57	0.000
204.95	-150.000
205.32	0.000
205.70	-300.000
206.08	-100.000
206.45	-216.667
206.83	575.000
207.20	-366.667
207.58	-30.000
207.96	-1000.000
208.33	-171.429
208.71	-2400.000
209.08	175.000
209.46	475.000
209.84	0.000
210.21	140.000
210.59	1800.000
210.96	380.000
211.34	2000.000
211.71	-700.000
212.09	-150.000
212.46	-60.000
212.84	-100.000
213.22	-275.000
213.59	-1000.000
213.97	-650.000
214.34	-600.000
214.72	-84.615
215.09	112.500
215.47	144.444
215.84	550.000
216.22	-112.500
216.59	-250.000
216.97	433.333
217.34	144.444
217.72	0.000
218.09	366.667
218.47	-500.000
218.84	-42.857
219.22	-25.000
219.59	-233.333
219.97	-150.000
220.34	-125.000
220.72	-180.000
221.09	0.000
221.47	-233.333
221.84	-200.000
222.22	0.000
222.59	500.000
222.97	-66.667
223.34	8.333
223.72	-1000.000
224.09	-300.000
224.46	9.091
224.84	-25.000
225.21	-142.857
225.59	-150.000
225.96	-83.333
226.34	50.000
226.71	-257.143
227.08	550.000
227.46	0.000
227.83	-200.000
228.21	-50.000
228.58	-100.000
228.95	-82.353
229.33	-87.500
229.70	-137.500
230.08	7.692
230.45	-50.000
230.82	0.000
231.20	85.714
231.57	-400.000
231.95	100.000
232.32	33.333
232.69	5.882
233.07	-1300.000
233.44	-13.043
233.81	-200.000
234.19	33.333
234.56	-46.667
234.93	-33.333
235.31	0.000
235.68	-38.462
236.05	-61.538
236.43	-11.111
236.80	-27.273
237.17	-80.000
237.55	-94.118
237.92	-24.138
238.29	-33.333
238.67	2.778
239.04	-16.129
239.41	40.426
239.79	34.043
240.16	18.605
240.53	25.000
240.91	42.857
241.28	19.643
241.65	24.194
242.02	27.632
242.40	36.232
242.77	36.232
243.14	19.231
243.51	39.362
243.89	31.731
244.26	31.132
244.63	32.692
245.00	35.417
245.38	34.454
245.75	37.705
246.12	30.075
246.49	30.894
246.87	25.210
247.24	31.757
247.61	43.709
247.98	32.051
248.36	27.811
248.73	28.090
249.10	27.273
249.47	33.871
249.84	34.737
250.22	31.841
250.59	33.645
250.96	38.182
251.33	28.708
251.70	37.238
252.08	39.749
252.45	38.683
252.82	38.403
253.19	35.019
253.56	32.734
253.94	34.164
254.31	32.394
254.68	33.893
255.05	32.343
255.42	35.664
255.79	31.288
256.16	40.063
256.54	33.968
256.91	33.544
257.28	37.736
257.65	33.121
258.02	34.311
258.39	37.135
258.76	31.105
259.14	38.920
259.51	36.236
259.88	37.398
260.25	35.833
260.62	36.236
260.99	38.727
261.36	37.306
261.73	36.049
262.10	37.405
262.47	35.802
262.85	38.060
263.22	36.923
263.59	36.364
263.96	36.496
264.33	34.375
264.70	35.116
265.07	35.185
265.44	37.241
265.81	34.783
266.18	37.813
266.55	36.026
266.92	34.958
267.29	36.214
267.66	33.970
268.03	38.272
268.40	35.381
268.77	37.810
269.14	36.939
269.51	38.193
269.88	33.198
270.25	37.500
270.62	34.221
270.99	36.614
271.36	36.111
271.73	36.747
272.10	35.048
272.47	32.630
272.84	33.071
273.21	35.029
273.58	36.885
273.95	35.660
274.32	35.821
274.69	34.791
275.06	34.982
275.43	35.970
275.80	35.816
276.17	36.280
276.54	34.281
276.91	34.321
277.28	35.560
277.65	37.413
278.02	36.964
278.39	31.972
278.76	34.950
279.13	32.933
279.50	33.793
279.87	33.877
280.23	35.856
280.60	34.948
280.97	33.929
281.34	35.331
281.71	34.146
282.08	32.821
282.45	32.787
282.82	33.866
283.19	33.232
283.56	33.438
283.92	33.639
284.29	31.825
284.66	34.926
285.03	31.922
285.40	31.873
285.77	32.432
286.14	32.827
286.51	33.733
286.87	33.385
287.24	31.711
287.61	32.530
287.98	32.059
288.35	32.936
288.72	31.564
289.08	33.761
289.45	31.424
289.82	31.467
290.19	31.557
290.56	29.830
290.93	29.282
291.29	31.053
291.66	31.967
292.03	30.245
292.40	30.148
292.77	30.388
293.13	28.173
293.50	30.065
293.87	30.267
294.24	27.646
294.60	28.609
294.97	30.159
295.34	28.364
295.71	28.515
296.08	28.272
296.44	28.061
296.81	25.335
297.18	28.500
297.55	26.533
297.91	28.696
298.28	26.998
298.65	26.108
299.02	29.060
299.38	27.730
299.75	25.120
300.12	26.047
300.48	26.082
300.85	25.058
301.22	24.971
301.59	26.291
301.95	25.087
302.32	24.387
302.69	24.520
303.05	25.028
303.42	26.364
303.79	24.711
304.15	26.725
304.52	26.452
304.89	26.135
305.25	24.808
305.62	25.163
305.99	24.266
306.35	24.974
306.72	26.348
307.09	25.547
307.45	25.133
307.82	25.579
308.19	24.347
308.55	24.667
308.92	26.523
309.29	25.826
309.65	26.174
310.02	25.746
310.38	25.813
310.75	25.049
311.12	26.628
311.48	25.321
311.85	25.591
312.22	25.435
312.58	25.314
312.95	25.970
313.31	26.354
313.68	26.145
314.05	25.614
314.41	27.378
314.78	26.091
315.14	25.370
315.51	26.927
315.87	27.618
316.24	27.273
316.61	27.306
316.97	28.426
317.34	26.292
317.70	28.546
318.07	28.660
318.43	27.462
318.80	26.876
319.16	25.995
319.53	28.315
319.89	28.546
320.26	28.651
320.62	29.194
320.99	29.845
321.35	28.438
321.72	28.489
322.08	28.506
322.45	29.787
322.81	30.591
323.18	28.891
323.54	29.061
323.91	30.081
324.27	30.333
324.64	29.791
325.00	30.884
325.37	31.143
325.73	31.987
326.10	31.623
326.46	31.940
326.83	32.524
327.19	32.276
327.56	34.005
327.92	31.295
328.29	34.558
328.65	34.005
329.01	32.806
329.38	34.174
329.74	33.047
330.11	33.093
330.47	32.639
330.84	35.018
331.20	34.415
331.56	34.964
331.93	34.109
332.29	35.013
332.66	33.983
333.02	33.970
333.38	33.684
333.75	33.276
334.11	34.549
334.48	34.438
334.84	34.541
335.20	35.163
335.57	34.117
335.93	34.880
336.29	33.800
336.66	33.504
337.02	35.304
337.38	34.030
337.75	33.764
338.11	34.244
338.47	34.075
338.84	33.591
339.20	34.656
339.56	34.300
339.93	34.572
340.29	35.013
340.65	35.244
341.02	34.526
341.38	33.699
341.74	33.866
342.11	34.600
342.47	34.728
342.83	34.069
343.20	35.787
343.56	35.241
343.92	33.712
344.28	34.903
344.65	35.102
345.01	35.028
345.37	36.102
345.73	36.029
346.10	34.510
346.46	33.984
346.82	34.029
347.19	34.652
347.55	35.784
347.91	34.840
348.27	35.647
348.63	35.096
349.00	34.277
349.36	36.107
349.72	35.422
350.08	34.789
350.45	34.612
350.81	35.837
351.17	35.258
351.53	35.978
351.89	34.472
352.26	35.367
352.62	36.047
352.98	35.942
353.34	35.427
353.70	35.903
354.07	34.980
354.43	34.292
354.79	34.054
355.15	35.248
355.51	34.700
355.87	35.418
356.24	36.677
356.60	35.418
356.96	35.226
357.32	35.217
357.68	35.676
358.04	35.454
358.40	35.581
358.77	36.086
359.13	35.409
359.49	35.882
359.85	35.861
360.21	36.469
360.57	36.502
360.93	36.798
361.29	36.195
361.66	36.522
362.02	36.175
362.38	36.854
362.74	36.113
363.10	36.659
363.46	36.671
363.82	36.585
364.18	35.751
364.54	35.886
364.90	35.401
365.26	35.881
365.62	35.440
365.98	36.512
366.35	36.241
366.71	34.522
367.07	36.570
367.43	35.958
367.79	36.762
368.15	36.287
368.51	35.373
368.87	37.264
369.23	36.014
369.59	36.786
369.95	36.139
370.31	35.774
370.67	36.495
371.03	37.491
371.39	36.338
371.75	35.714
372.11	35.826
372.47	36.482
372.83	36.130
373.19	35.683
373.55	36.850
373.91	36.492
374.27	36.169
374.63	37.055
374.99	35.933
375.35	35.479
375.71	34.986
376.07	36.669
376.42	35.160
376.78	36.262
377.14	36.136
377.50	37.027
377.86	36.454
378.22	36.536
378.58	37.768
378.94	38.625
379.30	37.227
379.66	35.882
380.02	36.520
380.38	35.843
380.74	36.701
381.09	36.128
381.45	35.792
381.81	35.983
382.17	37.051
382.53	35.815
382.89	35.404
383.25	36.111
383.61	36.804
383.97	35.875
384.32	36.106
384.68	36.521
385.04	36.408
385.40	35.679
385.76	35.888
386.12	36.411
386.48	36.113
386.83	35.544
387.19	35.842
387.55	35.806
387.91	35.486
388.27	35.882
388.62	36.392
388.98	36.295
389.34	34.398
389.70	35.165
390.06	35.750
390.42	35.245
390.77	35.554
391.13	36.364
391.49	34.662
391.85	35.719
392.20	34.398
392.56	35.365
392.92	35.284
393.28	35.967
393.64	35.657
393.99	34.211
394.35	35.123
394.71	35.256
395.07	34.151
395.42	34.369
395.78	35.071
396.14	33.989
396.50	34.559
396.85	35.500
397.21	34.831
397.57	34.596
397.92	34.072
398.28	34.292
398.64	34.791
399.00	33.929
399.35	34.563
399.71	34.304
400.07	34.277
400.42	35.110
400.78	34.018
401.14	33.906
401.49	33.913
401.85	34.582
402.21	33.808
402.57	33.354
402.92	34.731
403.28	33.458
403.63	33.230
403.99	33.589
404.35	34.102
404.70	32.870
405.06	34.469
405.42	33.166
405.77	33.295
406.13	33.429
406.49	33.673
406.84	33.578
407.20	32.919
407.55	32.792
407.91	32.363
408.27	32.127
408.62	33.640
408.98	32.306
409.34	33.045
409.69	33.398
410.05	32.463
410.40	32.380
410.76	32.130
411.11	32.463
411.47	33.643
411.83	31.503
412.18	31.738
412.54	32.519
412.89	31.975
413.25	31.150
413.60	33.041
413.96	32.022
414.31	31.936
414.67	31.429
415.03	31.529
415.38	31.902
415.74	32.684
416.09	31.989
416.45	32.741
416.80	31.409
417.16	32.186
417.51	32.686
417.87	31.481
418.22	31.480
418.58	30.880
418.93	31.073
419.29	32.937
419.64	30.852
420.00	31.302
420.35	31.620
420.71	31.322
421.06	31.488
421.42	32.543
421.77	32.081
422.12	32.264
422.48	32.061
422.83	31.187
423.19	31.742
423.54	32.568
423.90	30.998
424.25	31.196
424.61	31.485
424.96	31.283
425.31	31.296
425.67	31.511
426.02	32.097
426.38	31.654
426.73	31.277
427.09	30.331
427.44	31.298
427.79	31.295
428.15	30.887
428.50	30.514
428.85	31.796
429.21	30.782
429.56	31.615
429.92	31.806
430.27	31.493
430.62	31.689
430.98	31.465
431.33	31.327
431.68	31.683
432.04	31.887
432.39	30.081
432.74	30.717
433.10	31.319
433.45	30.296
433.80	31.264
434.16	30.202
434.51	30.707
434.86	30.330
435.22	29.598
435.57	29.423
435.92	30.881
436.28	29.970
436.63	30.427
436.98	30.787
437.34	31.074
437.69	30.401
438.04	29.994
438.39	30.262
438.75	29.917
439.10	31.348
439.45	30.024
439.81	29.680
440.16	30.783
440.51	30.143
440.86	29.757
441.22	31.038
441.57	30.531
441.92	30.016
442.27	29.708
442.63	30.571
442.98	29.919
443.33	30.248
443.68	29.889
444.03	30.750
444.39	30.392
444.74	30.922
445.09	29.185
445.44	30.592
445.79	29.530
446.15	29.617
446.50	29.791
446.85	30.518
447.20	29.901
447.55	30.834
447.91	29.831
448.26	29.445
448.61	29.402
448.96	30.068
449.31	29.697
449.66	30.307
450.02	29.505
450.37	29.730
450.72	29.793
451.07	29.718
451.42	29.507
451.77	29.397
452.12	29.115
452.47	28.535
452.83	29.186
453.18	29.599
453.53	29.004
453.88	28.614
454.23	29.048
454.58	27.941
454.93	28.608
455.28	29.159
455.63	27.636
455.98	28.911
456.34	27.781
456.69	29.585
457.04	28.545
457.39	28.082
457.74	28.306
458.09	28.436
458.44	28.496
458.79	27.732
459.14	27.697
459.49	27.927
459.84	28.241
460.19	27.371
460.54	28.041
460.89	28.829
461.24	27.990
461.59	27.657
461.94	28.066
462.29	27.328
462.64	27.573
462.99	27.498
463.34	27.970
463.69	27.320
464.04	26.771
464.39	27.822
464.74	27.887
465.09	27.278
465.44	26.319
465.79	27.775
466.14	27.936
466.49	27.566
466.84	27.914
467.19	26.497
467.54	27.609
467.89	27.467
468.24	27.781
468.59	26.960
468.94	26.884
469.29	26.636
469.64	26.709
469.99	28.414
470.34	26.365
470.68	27.286
471.03	26.164
471.38	26.704
471.73	26.818
472.08	26.735
472.43	26.385
472.78	25.490
473.13	25.330
473.48	26.419
473.83	25.487
474.17	26.562
474.52	26.537
474.87	25.452
475.22	26.329
475.57	25.878
475.92	26.772
476.27	26.690
476.61	26.161
476.96	26.728
477.31	25.998
477.66	26.271
478.01	25.275
478.36	25.177
478.70	26.316
479.05	27.137
479.40	25.273
479.75	25.186
480.10	26.007
480.45	25.895
480.79	26.929
481.14	26.545
481.49	26.295
481.84	25.401
482.19	26.123
482.53	25.381
482.88	25.455
483.23	24.880
483.58	25.851
483.92	25.195
484.27	25.069
484.62	25.433
484.97	25.425
485.31	26.079
485.66	26.866
486.01	28.195
486.36	27.887
486.70	26.729
487.05	26.252
487.40	25.696
487.75	25.668
488.09	24.992
488.44	24.290
488.79	25.246
489.13	23.976
489.48	24.754
489.83	24.207
490.17	24.376
490.52	25.105
490.87	24.525
491.22	24.588
491.56	25.204
491.91	24.052
492.26	24.081
492.60	23.521
492.95	24.247
493.30	23.643
493.64	22.878
493.99	24.444
494.34	24.518
494.68	23.532
495.03	24.012
495.37	23.309
495.72	23.258
496.07	24.744
496.41	23.912
496.76	24.360
497.11	23.521
497.45	23.006
497.80	24.331
498.14	24.181
498.49	23.248
498.84	23.988
499.18	23.594
499.53	23.683
499.87	22.999
500.22	23.345
500.56	23.721
500.91	23.592
501.26	23.842
501.60	23.284
501.95	23.479
502.29	23.350
502.64	23.722
502.98	23.121
503.33	22.530
503.67	23.174
504.02	22.990
504.36	23.725
504.71	22.866
505.06	23.739
505.40	23.608
505.75	23.194
506.09	23.659
506.44	23.942
506.78	22.245
507.13	23.441
507.47	21.951
507.82	22.292
508.16	23.272
508.51	22.056
508.85	22.810
509.19	22.275
509.54	22.520
509.88	22.796
510.23	21.526
510.57	22.669
510.92	23.114
511.26	22.937
511.61	21.186
511.95	21.279
512.30	21.821
512.64	22.758
512.98	21.607
513.33	21.408
513.67	21.692
514.02	22.577
514.36	22.472
514.70	22.633
515.05	22.411
515.39	21.462
515.74	21.729
516.08	21.180
516.42	21.601
516.77	21.207
517.11	21.693
517.46	20.948
517.80	21.550
518.14	19.718
518.49	20.856
518.83	21.122
519.17	20.542
519.52	21.170
519.86	21.554
520.20	20.558
520.55	20.398
520.89	21.063
521.23	21.795
521.58	20.101
521.92	20.113
522.26	20.104
522.61	20.556
522.95	20.142
523.29	21.079
523.64	19.771
523.98	20.394
524.32	19.219
524.66	20.390
525.01	20.708
525.35	19.421
525.69	20.941
526.04	20.586
526.38	20.140
526.72	19.461
527.06	19.729
527.41	19.987
527.75	20.494
528.09	20.558
528.43	20.556
528.78	20.413
529.12	20.957
529.46	20.090
529.80	19.871
530.15	18.597
530.49	20.148
530.83	20.176
531.17	19.932
531.51	19.690
531.86	19.715
532.20	19.228
532.54	19.793
532.88	20.694
533.22	19.933
533.57	20.530
533.91	20.645
534.25	21.289
534.59	19.434
534.93	20.089
535.27	19.809
535.62	19.671
535.96	20.234
536.30	19.282
536.64	19.002
536.98	19.622
537.32	20.356
537.66	19.252
538.01	18.932
538.35	19.544
538.69	19.599
539.03	19.128
539.37	19.048
539.71	19.714
540.05	18.354
540.39	19.683
540.73	19.483
541.07	19.932
541.42	19.663
541.76	19.553
542.10	18.890
542.44	18.988
542.78	19.084
543.12	20.418
543.46	18.590
543.80	19.552
544.14	19.821
544.48	18.115
544.82	19.301
545.16	18.864
545.50	19.784
545.84	18.163
546.18	18.303
546.52	19.337
546.86	18.304
547.20	18.227
547.54	18.728
547.88	19.163
548.22	19.479
548.56	19.880
548.90	18.809
549.24	20.208
549.58	18.790
549.92	18.489
550.26	20.812
550.60	18.393
550.94	18.284
551.28	18.774
551.62	18.120
551.96	18.155
552.30	18.777
552.64	19.280
552.98	19.247
553.32	18.818
553.66	18.489
554.00	18.503
554.34	17.875
554.68	18.867
555.02	17.964
555.36	17.625
555.69	18.645
556.03	18.728
556.37	18.777
556.71	19.552
557.05	17.934
557.39	17.332
557.73	19.743
558.07	17.935
558.41	18.849
558.75	18.091
559.08	16.680
559.42	16.758
559.76	17.049
560.10	18.294
560.44	18.718
560.78	18.921
561.12	18.010
561.45	19.252
561.79	18.088
562.13	18.917
562.47	18.857
562.81	19.192
563.15	17.847
563.48	17.756
563.82	18.263
564.16	18.348
564.50	18.860
564.84	18.378
565.17	19.536
565.51	17.981
565.85	17.722
566.19	17.748
566.52	18.611
566.86	17.889
567.20	19.059
567.54	18.826
567.88	18.589
568.21	19.880
568.55	19.144
568.89	18.594
569.23	19.432
569.56	19.942
569.90	20.399
570.24	20.253
570.57	20.368
570.91	20.606
571.25	20.701
571.59	20.535
571.92	20.857
572.26	20.345
572.60	20.480
572.93	20.462
573.27	20.923
573.61	21.019
573.95	21.338
574.28	21.062
574.62	20.760
574.96	21.407
575.29	20.737
575.63	20.969
575.97	20.734
576.30	21.338
576.64	21.064
576.98	20.812
577.31	21.113
577.65	21.405
577.98	21.705
578.32	21.680
578.66	21.384
578.99	21.268
579.33	21.189
579.67	20.799
580.00	20.894
580.34	20.965
580.67	21.044
581.01	21.059
581.35	21.269
581.68	21.919
582.02	21.838
582.35	21.683
582.69	21.237
583.02	21.050
583.36	20.589
583.70	20.657
584.03	19.871
584.37	19.672
584.70	20.746
585.04	21.199
585.37	21.798
585.71	20.888
586.04	20.251
586.38	20.179
586.72	20.315
587.05	20.446
587.39	20.717
587.72	20.426
588.06	20.575
588.39	20.599
588.73	20.578
589.06	19.916
589.40	19.642
589.73	19.080
590.07	19.796
590.40	19.538
590.73	19.895
591.07	19.766
591.40	18.739
591.74	20.053
592.07	19.078
592.41	20.463
592.74	20.486
593.08	20.342
593.41	21.098
593.75	20.252
594.08	20.725
594.41	19.671
594.75	20.202
595.08	20.426
595.42	19.971
595.75	20.318
596.09	19.900
596.42	19.567
596.75	19.043
597.09	19.791
597.42	20.278
597.75	20.667
598.09	19.672
598.42	20.716
598.76	20.193
599.09	21.168
599.42	20.733
599.76	21.179
600.09	21.197
600.42	20.377
600.76	20.067
601.09	20.791
601.42	20.306
601.76	19.846
602.09	19.903
602.42	19.521
602.76	19.295
603.09	20.575
603.42	19.912
603.76	20.187
604.09	19.842
604.42	20.092
604.76	19.773
605.09	19.665
605.42	20.018
605.75	19.443
606.09	19.454
606.42	19.950
606.75	19.827
607.09	19.637
607.42	20.578
607.75	19.168
608.08	19.793
608.42	20.103
608.75	19.494
609.08	19.010
609.41	19.175
609.75	18.860
610.08	20.118
610.41	20.262
610.74	20.067
611.07	19.138
611.41	20.471
611.74	19.462
612.07	19.333
612.40	19.027
612.73	18.222
613.07	18.570
613.40	18.943
613.73	19.122
614.06	18.961
614.39	18.788
614.72	20.155
615.06	19.333
615.39	19.371
615.72	19.276
616.05	18.863
616.38	18.442
616.71	18.596
617.05	18.796
617.38	18.484
617.71	18.382
618.04	17.611
618.37	18.233
618.70	18.305
619.03	17.869
619.36	18.007
619.69	17.544
620.03	17.456
620.36	17.049
620.69	16.345
621.02	17.154
621.35	16.762
621.68	17.767
622.01	17.476
622.34	17.129
622.67	17.933
623.00	18.465
623.33	18.325
623.66	17.770
623.99	18.455
624.32	18.562
624.65	18.398
624.99	17.487
625.32	17.550
625.65	17.287
625.98	17.694
626.31	17.469
626.64	17.111
626.97	15.830
627.30	17.536
627.63	16.955
627.96	16.017
628.29	17.767
628.62	16.344
628.95	16.934
629.28	15.567
629.61	18.278
629.94	16.634
630.26	17.438
630.59	16.583
630.92	16.165
631.25	15.860
631.58	15.310
631.91	15.058
632.24	15.807
632.57	14.111
