SpectraSuite Data File
++++++++++++++++++++++++++++++++++++
Date: Wed May 13 21:47:00 PDT 2015
User: schluterlab
Dark Spectrum Present: Yes
Reference Spectrum Present: Yes
Number of Sampled Component Spectra: 1
Spectrometers: USB2E3373
Integration Time (usec): 3000 (USB2E3373)
Spectra Averaged: 3 (USB2E3373)
Boxcar Smoothing: 0 (USB2E3373)
Correct for Electrical Dark: No (USB2E3373)
Strobe/Lamp Enabled: No (USB2E3373)
Correct for Detector Non-linearity: No (USB2E3373)
Correct for Stray Light: No (USB2E3373)
Number of Pixels in Processed Spectrum: 2048
>>>>>Begin Processed Spectral Data<<<<<
178.53	0.000
178.91	650.000
179.29	166.667
179.67	-450.000
180.04	-366.667
180.42	220.000
180.80	1300.000
181.18	216.667
181.56	-425.000
181.94	-275.000
182.31	27.273
182.69	169.231
183.07	-240.000
183.45	366.667
183.83	244.444
184.20	85.714
184.58	33.333
184.96	400.000
185.34	171.429
185.72	0.000
186.09	-400.000
186.47	-220.000
186.85	300.000
187.23	-100.000
187.61	250.000
187.98	1300.000
188.36	-87.500
188.74	0.000
189.12	-18.182
189.49	-20.000
189.87	175.000
190.25	340.000
190.63	1600.000
191.00	-40.000
191.38	340.000
191.76	275.000
192.14	91.667
192.51	0.000
192.89	433.333
193.27	250.000
193.65	-180.000
194.02	190.909
194.40	120.000
194.78	0.000
195.15	120.000
195.53	-60.000
195.91	75.000
196.29	-166.667
196.66	0.000
197.04	650.000
197.42	60.000
197.79	10.000
198.17	-75.000
198.55	-400.000
198.92	350.000
199.30	-200.000
199.68	-70.000
200.05	-50.000
200.43	200.000
200.81	-900.000
201.18	-220.000
201.56	116.667
201.94	625.000
202.31	0.000
202.69	-185.714
203.07	-433.333
203.44	-220.000
203.82	-533.333
204.19	-20.000
204.57	0.000
204.95	-150.000
205.32	0.000
205.70	-450.000
206.08	-200.000
206.45	-66.667
206.83	200.000
207.20	-200.000
207.58	-30.000
207.96	-2200.000
208.33	-185.714
208.71	-1200.000
209.08	287.500
209.46	100.000
209.84	0.000
210.21	140.000
210.59	2000.000
210.96	240.000
211.34	700.000
211.71	-250.000
212.09	-66.667
212.46	-210.000
212.84	-100.000
213.22	-175.000
213.59	-900.000
213.97	-550.000
214.34	-450.000
214.72	-61.538
215.09	175.000
215.47	144.444
215.84	1050.000
216.22	-25.000
216.59	0.000
216.97	633.333
217.34	200.000
217.72	0.000
218.09	333.333
218.47	-300.000
218.84	-85.714
219.22	-137.500
219.59	-666.667
219.97	-350.000
220.34	-75.000
220.72	-60.000
221.09	0.000
221.47	-166.667
221.84	-400.000
222.22	0.000
222.59	700.000
222.97	-233.333
223.34	-50.000
223.72	-1000.000
224.09	-600.000
224.46	9.091
224.84	12.500
225.21	28.571
225.59	-175.000
225.96	-50.000
226.34	-60.000
226.71	-157.143
227.08	200.000
227.46	-87.500
227.83	-600.000
228.21	-18.750
228.58	-150.000
228.95	-58.824
229.33	-12.500
229.70	-100.000
230.08	61.538
230.45	-200.000
230.82	-150.000
231.20	185.714
231.57	-275.000
231.95	1600.000
232.32	-66.667
232.69	-41.176
233.07	-1100.000
233.44	-60.870
233.81	-500.000
234.19	-8.333
234.56	-86.667
234.93	-13.333
235.31	15.789
235.68	-84.615
236.05	53.846
236.43	-16.667
236.80	-21.212
237.17	-86.667
237.55	-11.765
237.92	-24.138
238.29	-37.037
238.67	-5.556
239.04	0.000
239.41	8.511
239.79	19.149
240.16	16.279
240.53	1.786
240.91	23.214
241.28	17.857
241.65	1.613
242.02	10.526
242.40	11.594
242.77	-2.899
243.14	2.564
243.51	20.213
243.89	19.231
244.26	26.415
244.63	16.346
245.00	16.667
245.38	21.849
245.75	24.590
246.12	17.293
246.49	4.065
246.87	15.126
247.24	19.595
247.61	8.609
247.98	18.590
248.36	13.018
248.73	15.169
249.10	22.727
249.47	19.355
249.84	27.368
250.22	19.403
250.59	18.692
250.96	18.182
251.33	13.876
251.70	24.686
252.08	19.247
252.45	15.638
252.82	19.772
253.19	17.510
253.56	15.108
253.94	22.776
254.31	17.606
254.68	19.799
255.05	22.772
255.42	20.979
255.79	19.325
256.16	20.820
256.54	20.317
256.91	19.937
257.28	20.440
257.65	14.968
258.02	23.460
258.39	22.515
258.76	18.023
259.14	20.170
259.51	20.506
259.88	23.035
260.25	22.778
260.62	20.225
260.99	23.607
261.36	23.575
261.73	20.494
262.10	17.557
262.47	19.259
262.85	17.413
263.22	22.564
263.59	23.377
263.96	20.925
264.33	19.712
264.70	21.163
265.07	19.907
265.44	23.218
265.81	22.654
266.18	17.084
266.55	19.869
266.92	19.915
267.29	20.370
267.66	21.656
268.03	22.222
268.40	18.856
268.77	23.554
269.14	23.265
269.51	25.257
269.88	22.811
270.25	22.881
270.62	21.311
270.99	19.291
271.36	22.619
271.73	21.486
272.10	20.571
272.47	21.305
272.84	21.654
273.21	21.331
273.58	20.082
273.95	20.377
274.32	22.388
274.69	20.219
275.06	21.025
275.43	22.411
275.80	20.745
276.17	21.179
276.54	20.249
276.91	18.815
277.28	19.675
277.65	20.455
278.02	23.214
278.39	20.071
278.76	20.736
279.13	20.069
279.50	18.276
279.87	21.739
280.23	21.622
280.60	20.761
280.97	19.156
281.34	20.032
281.71	20.163
282.08	21.538
282.45	21.475
282.82	21.246
283.19	19.207
283.56	21.562
283.92	22.936
284.29	18.721
284.66	20.593
285.03	19.218
285.40	19.789
285.77	22.823
286.14	20.821
286.51	23.238
286.87	18.308
287.24	17.847
287.61	20.482
287.98	18.235
288.35	18.778
288.72	19.082
289.08	19.801
289.45	19.677
289.82	19.818
290.19	18.373
290.56	19.176
290.93	18.785
291.29	17.237
291.66	18.579
292.03	19.482
292.40	16.689
292.77	17.537
293.13	20.363
293.50	17.386
293.87	18.933
294.24	16.931
294.60	19.246
294.97	20.635
295.34	17.018
295.71	16.820
296.08	16.492
296.44	17.730
296.81	18.027
297.18	19.375
297.55	18.160
297.91	17.019
298.28	18.402
298.65	17.857
299.02	18.437
299.38	18.282
299.75	18.029
300.12	17.326
300.48	18.012
300.85	17.206
301.22	17.305
301.59	16.784
301.95	15.912
302.32	16.219
302.69	14.689
303.05	17.719
303.42	16.364
303.79	16.509
304.15	17.744
304.52	18.495
304.89	16.722
305.25	15.697
305.62	18.438
305.99	16.540
306.35	17.973
306.72	17.294
307.09	17.310
307.45	16.720
307.82	17.684
308.19	16.405
308.55	16.479
308.92	17.583
309.29	17.017
309.65	16.683
310.02	16.700
310.38	16.870
310.75	16.469
311.12	16.132
311.48	17.409
311.85	17.126
312.22	16.828
312.58	17.391
312.95	17.114
313.31	16.345
313.68	16.508
314.05	18.526
314.41	18.252
314.78	16.983
315.14	17.037
315.51	17.127
315.87	17.424
316.24	17.906
316.61	18.265
316.97	17.315
317.34	17.291
317.70	18.822
318.07	18.722
318.43	17.254
318.80	16.928
319.16	16.004
319.53	17.204
319.89	16.621
320.26	16.913
320.62	18.072
320.99	16.570
321.35	16.464
321.72	17.902
322.08	18.542
322.45	18.501
322.81	16.913
323.18	18.515
323.54	18.051
323.91	17.615
324.27	17.732
324.64	16.986
325.00	16.448
325.37	17.833
325.73	18.182
326.10	17.073
326.46	17.140
326.83	16.424
327.19	17.724
327.56	18.131
327.92	17.297
328.29	17.613
328.65	18.668
329.01	16.887
329.38	18.000
329.74	16.910
330.11	17.223
330.47	17.882
330.84	18.051
331.20	17.592
331.56	16.938
331.93	17.399
332.29	17.463
332.66	16.949
333.02	18.766
333.38	17.719
333.75	16.894
334.11	17.969
334.48	17.524
334.84	16.784
335.20	16.638
335.57	16.362
335.93	16.667
336.29	16.813
336.66	16.667
337.02	17.304
337.38	17.755
337.75	16.796
338.11	17.165
338.47	16.267
338.84	17.784
339.20	17.637
339.56	16.724
339.93	17.286
340.29	17.592
340.65	17.879
341.02	15.890
341.38	16.976
341.74	15.882
342.11	16.763
342.47	16.234
342.83	17.239
343.20	16.920
343.56	17.580
343.92	17.059
344.28	16.396
344.65	15.510
345.01	16.546
345.37	16.283
345.73	17.157
346.10	16.453
346.46	16.504
346.82	15.971
347.19	15.665
347.55	16.155
347.91	17.147
348.27	15.615
348.63	16.907
349.00	16.116
349.36	16.562
349.72	17.092
350.08	16.147
350.45	16.445
350.81	16.588
351.17	16.705
351.53	17.203
351.89	15.647
352.26	14.595
352.62	16.124
352.98	16.054
353.34	15.942
353.70	16.355
354.07	16.157
354.43	15.785
354.79	15.705
355.15	16.149
355.51	16.249
355.87	16.185
356.24	16.051
356.60	15.168
356.96	15.963
357.32	15.944
357.68	15.661
358.04	15.671
358.40	15.581
358.77	17.584
359.13	16.887
359.49	15.897
359.85	15.315
360.21	16.345
360.57	15.817
360.93	15.402
361.29	15.470
361.66	15.869
362.02	15.048
362.38	16.396
362.74	15.518
363.10	16.197
363.46	15.562
363.82	16.482
364.18	15.228
364.54	15.536
364.90	16.098
365.26	15.428
365.62	15.483
365.98	15.658
366.35	15.674
366.71	15.549
367.07	15.379
367.43	16.585
367.79	16.609
368.15	15.471
368.51	15.260
368.87	15.911
369.23	14.875
369.59	15.222
369.95	14.731
370.31	15.202
370.67	15.134
371.03	15.590
371.39	15.685
371.75	15.571
372.11	15.242
372.47	15.285
372.83	15.673
373.19	15.396
373.55	14.812
373.91	14.851
374.27	16.044
374.63	14.865
374.99	15.947
375.35	16.233
375.71	15.421
376.07	16.107
376.42	15.508
376.78	16.711
377.14	15.458
377.50	17.471
377.86	15.538
378.22	16.245
378.58	16.078
378.94	16.687
379.30	16.490
379.66	16.400
380.02	16.667
380.38	15.181
380.74	16.139
381.09	15.862
381.45	16.022
381.81	16.266
382.17	15.816
382.53	16.123
382.89	15.862
383.25	15.432
383.61	15.617
383.97	15.375
384.32	15.312
384.68	16.101
385.04	14.844
385.40	16.252
385.76	16.302
386.12	16.204
386.48	15.549
386.83	16.145
387.19	16.101
387.55	16.738
387.91	17.036
388.27	15.968
388.62	16.542
388.98	16.583
389.34	16.228
389.70	15.751
390.06	17.000
390.42	16.430
390.77	16.528
391.13	14.773
391.49	15.750
391.85	15.847
392.20	16.667
392.56	16.635
392.92	16.091
393.28	16.851
393.64	15.902
393.99	15.606
394.35	16.852
394.71	15.833
395.07	15.409
395.42	16.575
395.78	16.345
396.14	16.677
396.50	16.170
396.85	16.826
397.21	15.918
397.57	16.149
397.92	15.030
398.28	16.300
398.64	15.847
399.00	16.574
399.35	16.459
399.71	15.783
400.07	15.904
400.42	16.489
400.78	15.287
401.14	16.125
401.49	15.339
401.85	15.663
402.21	15.604
402.57	16.002
402.92	16.458
403.28	15.635
403.63	15.437
403.99	15.227
404.35	16.022
404.70	16.254
405.06	15.913
405.42	15.766
405.77	15.035
406.13	15.657
406.49	16.058
406.84	15.385
407.20	15.690
407.55	15.519
407.91	15.023
408.27	14.660
408.62	15.470
408.98	15.598
409.34	14.975
409.69	16.439
410.05	16.667
410.40	15.399
410.76	15.884
411.11	15.174
411.47	16.855
411.83	15.034
412.18	15.680
412.54	15.977
412.89	15.235
413.25	15.103
413.60	15.987
413.96	15.543
414.31	16.461
414.67	15.810
415.03	15.697
415.38	14.597
415.74	16.114
416.09	16.325
416.45	16.336
416.80	15.839
417.16	16.127
417.51	15.271
417.87	16.071
418.22	16.290
418.58	15.703
418.93	16.008
419.29	15.248
419.64	16.412
420.00	15.619
420.35	15.601
420.71	15.356
421.06	16.605
421.42	15.998
421.77	15.491
422.12	16.046
422.48	15.649
422.83	16.243
423.19	16.504
423.54	15.548
423.90	15.855
424.25	16.522
424.61	15.465
424.96	15.849
425.31	15.592
425.67	16.108
426.02	16.667
426.38	16.418
426.73	16.371
427.09	15.697
427.44	16.500
427.79	15.618
428.15	16.147
428.50	15.227
428.85	16.851
429.21	16.376
429.56	16.047
429.92	16.085
430.27	16.002
430.62	16.369
430.98	16.288
431.33	16.067
431.68	16.720
432.04	15.887
432.39	15.878
432.74	16.370
433.10	16.095
433.45	15.976
433.80	15.632
434.16	16.275
434.51	16.793
434.86	16.019
435.22	16.921
435.57	16.278
435.92	15.983
436.28	16.697
436.63	17.263
436.98	17.098
437.34	15.812
437.69	15.998
438.04	15.733
438.39	16.687
438.75	15.793
439.10	17.120
439.45	16.828
439.81	16.872
440.16	17.507
440.51	17.063
440.86	17.012
441.22	15.777
441.57	16.811
441.92	17.211
442.27	16.450
442.63	16.469
442.98	15.683
443.33	17.438
443.68	16.658
444.03	17.337
444.39	17.551
444.74	16.621
445.09	17.070
445.44	16.676
445.79	16.727
446.15	17.471
446.50	16.795
446.85	17.584
447.20	17.564
447.55	17.236
447.91	16.629
448.26	16.924
448.61	17.204
448.96	17.654
449.31	17.933
449.66	17.351
450.02	17.283
450.37	17.215
450.72	17.451
451.07	17.492
451.42	16.282
451.77	17.955
452.12	17.172
452.47	17.560
452.83	16.509
453.18	17.696
453.53	16.141
453.88	17.952
454.23	18.109
454.58	17.953
454.93	17.126
455.28	17.726
455.63	16.594
455.98	17.833
456.34	17.292
456.69	17.188
457.04	17.523
457.39	17.378
457.74	16.457
458.09	17.062
458.44	17.803
458.79	17.902
459.14	17.640
459.49	18.293
459.84	17.362
460.19	16.867
460.54	17.336
460.89	17.849
461.24	17.941
461.59	18.056
461.94	17.257
462.29	16.483
462.64	17.612
462.99	19.115
463.34	18.232
463.69	18.363
464.04	16.747
464.39	17.877
464.74	17.138
465.09	17.359
465.44	17.733
465.79	18.574
466.14	18.244
466.49	17.478
466.84	18.290
467.19	17.452
467.54	18.146
467.89	17.599
468.24	17.886
468.59	18.419
468.94	17.178
469.29	18.176
469.64	18.759
469.99	18.483
470.34	18.543
470.68	17.621
471.03	18.829
471.38	16.898
471.73	17.764
472.08	18.144
472.43	18.734
472.78	18.120
473.13	17.348
473.48	17.156
473.83	17.514
474.17	17.578
474.52	18.576
474.87	18.215
475.22	18.418
475.57	17.847
475.92	18.212
476.27	18.182
476.61	18.233
476.96	17.761
477.31	18.447
477.66	18.475
478.01	17.198
478.36	18.256
478.70	17.938
479.05	18.424
479.40	17.629
479.75	17.906
480.10	18.358
480.45	18.342
480.79	18.915
481.14	18.034
481.49	19.043
481.84	17.625
482.19	18.342
482.53	18.190
482.88	17.929
483.23	17.372
483.58	18.478
483.92	18.045
484.27	17.612
484.62	17.932
484.97	18.664
485.31	17.909
485.66	17.969
486.01	18.214
486.36	18.197
486.70	18.373
487.05	18.695
487.40	18.418
487.75	18.289
488.09	18.517
488.44	18.822
488.79	18.319
489.13	18.290
489.48	18.127
489.83	17.731
490.17	17.885
490.52	18.700
490.87	17.849
491.22	18.606
491.56	18.448
491.91	18.627
492.26	18.424
492.60	17.508
492.95	19.193
493.30	18.169
493.64	18.513
493.99	18.406
494.34	17.775
494.68	18.377
495.03	16.996
495.37	17.956
495.72	18.045
496.07	18.558
496.41	17.969
496.76	18.327
497.11	18.216
497.45	17.947
497.80	18.526
498.14	18.237
498.49	18.255
498.84	18.877
499.18	17.720
499.53	18.464
499.87	17.952
500.22	18.118
500.56	18.054
500.91	18.260
501.26	18.276
501.60	17.696
501.95	19.023
502.29	18.252
502.64	18.419
502.98	18.690
503.33	18.686
503.67	18.890
504.02	17.892
504.36	18.425
504.71	18.394
505.06	18.237
505.40	18.454
505.75	18.464
506.09	18.651
506.44	18.145
506.78	18.537
507.13	18.243
507.47	18.452
507.82	18.001
508.16	18.892
508.51	17.820
508.85	17.989
509.19	18.095
509.54	19.464
509.88	18.387
510.23	18.842
510.57	19.386
510.92	18.858
511.26	18.427
511.61	17.563
511.95	18.412
512.30	17.490
512.64	18.558
512.98	18.393
513.33	18.085
513.67	17.717
514.02	18.301
514.36	18.090
514.70	18.129
515.05	18.490
515.39	18.986
515.74	18.472
516.08	18.171
516.42	18.088
516.77	16.930
517.11	18.401
517.46	18.367
517.80	18.765
518.14	17.636
518.49	17.058
518.83	18.019
519.17	17.590
519.52	18.697
519.86	18.761
520.20	18.375
520.55	17.662
520.89	17.900
521.23	19.295
521.58	18.774
521.92	17.222
522.26	18.543
522.61	18.940
522.95	17.681
523.29	17.905
523.64	19.135
523.98	18.679
524.32	17.895
524.66	17.792
525.01	19.332
525.35	18.631
525.69	18.290
526.04	17.785
526.38	18.292
526.72	17.817
527.06	18.053
527.41	17.538
527.75	16.956
528.09	19.129
528.43	18.657
528.78	17.119
529.12	18.499
529.46	18.042
529.80	18.317
530.15	18.275
530.49	18.261
530.83	18.077
531.17	17.534
531.51	17.127
531.86	16.938
532.20	17.574
532.54	17.793
532.88	16.814
533.22	17.441
533.57	17.483
533.91	18.323
534.25	17.839
534.59	17.181
534.93	18.559
535.27	18.025
535.62	17.434
535.96	18.282
536.30	17.819
536.64	17.293
536.98	17.309
537.32	17.438
537.66	17.772
538.01	17.198
538.35	17.472
538.69	17.993
539.03	17.785
539.37	18.310
539.71	18.690
540.05	17.139
540.39	16.518
540.73	17.458
541.07	17.483
541.42	17.508
541.76	17.456
542.10	17.603
542.44	16.563
542.78	16.863
543.12	17.790
543.46	17.899
543.80	17.244
544.14	17.550
544.48	16.855
544.82	17.418
545.16	16.971
545.50	17.421
545.84	17.251
546.18	17.251
546.52	17.431
546.86	16.749
547.20	17.298
547.54	16.726
547.88	17.611
548.22	17.329
548.56	17.278
548.90	16.915
549.24	16.736
549.58	16.512
549.92	17.755
550.26	19.114
550.60	17.117
550.94	15.896
551.28	16.503
551.62	18.045
551.96	17.496
552.30	16.885
552.64	16.525
552.98	17.827
553.32	17.952
553.66	17.828
554.00	16.703
554.34	17.363
554.68	17.673
555.02	16.617
555.36	16.868
555.69	16.242
556.03	17.370
556.37	17.425
556.71	17.169
557.05	17.712
557.39	16.729
557.73	18.306
558.07	17.408
558.41	17.562
558.75	17.167
559.08	16.038
559.42	16.758
559.76	16.896
560.10	16.603
560.44	17.318
560.78	16.403
561.12	16.959
561.45	16.939
561.79	17.056
562.13	17.229
562.47	17.714
562.81	15.801
563.15	17.635
563.48	16.449
563.82	17.237
564.16	16.452
564.50	17.300
564.84	16.689
565.17	16.556
565.51	16.778
565.85	16.589
566.19	17.417
566.52	16.579
566.86	16.245
567.20	17.288
567.54	16.926
567.88	16.461
568.21	16.784
568.55	16.275
568.89	16.451
569.23	17.003
569.56	16.980
569.90	17.331
570.24	16.570
570.57	16.854
570.91	16.445
571.25	16.815
571.59	16.627
571.92	16.896
572.26	17.048
572.60	17.062
572.93	16.932
573.27	16.520
573.61	17.305
573.95	16.684
574.28	16.757
574.62	16.934
574.96	17.323
575.29	16.976
575.63	16.834
575.97	17.120
576.30	16.355
576.64	16.793
576.98	16.675
577.31	17.315
577.65	16.656
577.98	17.174
578.32	17.021
578.66	16.685
578.99	17.089
579.33	16.692
579.67	16.675
580.00	16.994
580.34	16.941
580.67	16.952
581.01	16.674
581.35	17.303
581.68	16.809
582.02	17.315
582.35	17.457
582.69	16.696
583.02	16.769
583.36	16.773
583.70	16.756
584.03	17.094
584.37	16.448
584.70	16.991
585.04	17.494
585.37	16.865
585.71	17.342
586.04	17.368
586.38	16.811
586.72	17.308
587.05	16.751
587.39	17.241
587.72	16.835
588.06	16.936
588.39	17.128
588.73	17.028
589.06	17.006
589.40	17.269
589.73	16.780
590.07	16.879
590.40	16.925
590.73	17.099
591.07	16.924
591.40	17.130
591.74	17.297
592.07	17.070
592.41	17.203
592.74	17.014
593.08	17.026
593.41	17.148
593.75	16.893
594.08	16.718
594.41	16.636
594.75	17.091
595.08	17.252
595.42	16.392
595.75	16.667
596.09	17.244
596.42	16.544
596.75	16.806
597.09	17.334
597.42	17.541
597.75	16.622
598.09	17.259
598.42	17.181
598.76	16.667
599.09	17.207
599.42	16.843
599.76	17.199
600.09	16.303
600.42	16.723
600.76	17.073
601.09	16.761
601.42	16.817
601.76	16.564
602.09	16.822
602.42	17.375
602.76	16.653
603.09	17.207
603.42	17.113
603.76	16.602
604.09	16.719
604.42	15.990
604.76	16.456
605.09	17.490
605.42	17.274
605.75	15.931
606.09	16.970
606.42	16.999
606.75	16.710
607.09	16.489
607.42	17.075
607.75	16.586
608.08	17.042
608.42	16.448
608.75	16.531
609.08	16.561
609.41	17.188
609.75	16.137
610.08	16.371
610.41	16.569
610.74	16.699
611.07	17.034
611.41	17.247
611.74	17.236
612.07	16.102
612.40	16.811
612.73	16.301
613.07	16.796
613.40	16.740
613.73	15.818
614.06	16.473
614.39	16.287
614.72	17.934
615.06	16.667
615.39	16.501
615.72	15.713
616.05	16.329
616.38	16.266
616.71	16.017
617.05	16.953
617.38	16.636
617.71	15.564
618.04	15.661
618.37	15.710
618.70	15.395
619.03	15.395
619.36	16.584
619.69	15.351
620.03	15.265
620.36	15.240
620.69	14.632
621.02	16.462
621.35	15.617
621.68	16.137
622.01	15.777
622.34	15.860
622.67	16.915
623.00	15.729
623.33	16.006
623.66	15.167
623.99	17.179
624.32	16.508
624.65	15.727
624.99	15.724
625.32	17.028
625.65	15.814
625.98	15.877
626.31	16.980
626.64	15.133
626.97	15.311
627.30	16.595
627.63	15.311
627.96	15.498
628.29	15.721
628.62	16.634
628.95	15.331
629.28	15.567
629.61	16.459
629.94	16.731
630.26	17.143
630.59	16.384
630.92	13.353
631.25	16.272
631.58	15.525
631.91	14.316
632.24	16.026
632.57	14.889
