SpectraSuite Data File
++++++++++++++++++++++++++++++++++++
Date: Wed May 13 21:43:52 PDT 2015
User: schluterlab
Dark Spectrum Present: Yes
Reference Spectrum Present: Yes
Number of Sampled Component Spectra: 1
Spectrometers: USB2E3373
Integration Time (usec): 3000 (USB2E3373)
Spectra Averaged: 3 (USB2E3373)
Boxcar Smoothing: 0 (USB2E3373)
Correct for Electrical Dark: No (USB2E3373)
Strobe/Lamp Enabled: No (USB2E3373)
Correct for Detector Non-linearity: No (USB2E3373)
Correct for Stray Light: No (USB2E3373)
Number of Pixels in Processed Spectrum: 2048
>>>>>Begin Processed Spectral Data<<<<<
178.53	0.000
178.91	50.000
179.29	191.667
179.67	-700.000
180.04	-366.667
180.42	200.000
180.80	1300.000
181.18	100.000
181.56	-175.000
181.94	-150.000
182.31	63.636
182.69	130.769
183.07	-60.000
183.45	216.667
183.83	144.444
184.20	85.714
184.58	166.667
184.96	300.000
185.34	271.429
185.72	0.000
186.09	-500.000
186.47	-100.000
186.85	200.000
187.23	-100.000
187.61	550.000
187.98	700.000
188.36	-112.500
188.74	0.000
189.12	-127.273
189.49	40.000
189.87	91.667
190.25	300.000
190.63	1400.000
191.00	-200.000
191.38	260.000
191.76	225.000
192.14	125.000
192.51	10.526
192.89	566.667
193.27	175.000
193.65	-260.000
194.02	236.364
194.40	240.000
194.78	-1200.000
195.15	320.000
195.53	-160.000
195.91	-125.000
196.29	-66.667
196.66	0.000
197.04	300.000
197.42	0.000
197.79	-110.000
198.17	-62.500
198.55	-366.667
198.92	375.000
199.30	-366.667
199.68	-90.000
200.05	200.000
200.43	133.333
200.81	-1300.000
201.18	-60.000
201.56	16.667
201.94	375.000
202.31	13.043
202.69	-128.571
203.07	-300.000
203.44	-160.000
203.82	-300.000
204.19	-120.000
204.57	0.000
204.95	0.000
205.32	0.000
205.70	50.000
206.08	-25.000
206.45	-183.333
206.83	525.000
207.20	-466.667
207.58	10.000
207.96	-1100.000
208.33	-114.286
208.71	-700.000
209.08	312.500
209.46	375.000
209.84	0.000
210.21	70.000
210.59	2100.000
210.96	380.000
211.34	1300.000
211.71	-500.000
212.09	-333.333
212.46	-90.000
212.84	66.667
213.22	-75.000
213.59	-800.000
213.97	-700.000
214.34	-450.000
214.72	53.846
215.09	212.500
215.47	177.778
215.84	550.000
216.22	-50.000
216.59	-400.000
216.97	533.333
217.34	155.556
217.72	0.000
218.09	466.667
218.47	-1200.000
218.84	-128.571
219.22	-75.000
219.59	-266.667
219.97	-150.000
220.34	-12.500
220.72	-140.000
221.09	0.000
221.47	-33.333
221.84	-200.000
222.22	0.000
222.59	1100.000
222.97	-266.667
223.34	-83.333
223.72	-1500.000
224.09	-700.000
224.46	0.000
224.84	0.000
225.21	-100.000
225.59	-275.000
225.96	-83.333
226.34	-10.000
226.71	-214.286
227.08	900.000
227.46	-25.000
227.83	-1800.000
228.21	-81.250
228.58	-450.000
228.95	0.000
229.33	25.000
229.70	-87.500
230.08	38.462
230.45	-62.500
230.82	-58.333
231.20	128.571
231.57	-425.000
231.95	700.000
232.32	8.333
232.69	11.765
233.07	-1000.000
233.44	-17.391
233.81	-400.000
234.19	45.833
234.56	-60.000
234.93	6.667
235.31	31.579
235.68	-38.462
236.05	7.692
236.43	-16.667
236.80	-33.333
237.17	-60.000
237.55	-41.176
237.92	-27.586
238.29	-37.037
238.67	2.778
239.04	-25.806
239.41	-6.383
239.79	12.766
240.16	4.651
240.53	0.000
240.91	3.571
241.28	19.643
241.65	-4.839
242.02	10.526
242.40	-2.899
242.77	0.000
243.14	-7.692
243.51	13.830
243.89	12.500
244.26	22.642
244.63	-2.885
245.00	15.625
245.38	10.924
245.75	9.836
246.12	15.789
246.49	-4.065
246.87	12.605
247.24	12.162
247.61	10.596
247.98	16.667
248.36	10.651
248.73	11.798
249.10	15.657
249.47	12.903
249.84	13.158
250.22	18.408
250.59	17.757
250.96	16.818
251.33	13.397
251.70	20.084
252.08	13.808
252.45	16.461
252.82	15.209
253.19	13.619
253.56	12.590
253.94	19.217
254.31	15.845
254.68	18.792
255.05	18.152
255.42	17.832
255.79	16.564
256.16	19.558
256.54	13.333
256.91	13.924
257.28	15.723
257.65	15.287
258.02	16.422
258.39	19.883
258.76	10.756
259.14	16.193
259.51	14.326
259.88	14.905
260.25	17.778
260.62	14.326
260.99	15.915
261.36	16.580
261.73	15.062
262.10	15.776
262.47	12.840
262.85	15.174
263.22	17.436
263.59	16.883
263.96	16.302
264.33	14.423
264.70	15.581
265.07	17.361
265.44	16.322
265.81	16.476
266.18	15.490
266.55	15.502
266.92	13.559
267.29	15.844
267.66	15.287
268.03	16.461
268.40	13.559
268.77	15.702
269.14	18.776
269.51	18.070
269.88	14.053
270.25	16.102
270.62	13.525
270.99	18.504
271.36	15.079
271.73	16.667
272.10	15.429
272.47	14.971
272.84	17.126
273.21	17.417
273.58	14.754
273.95	13.774
274.32	17.724
274.69	18.761
275.06	17.668
275.43	15.631
275.80	17.730
276.17	16.759
276.54	15.275
276.91	15.331
277.28	13.899
277.65	16.608
278.02	17.857
278.39	15.098
278.76	15.385
279.13	16.295
279.50	14.138
279.87	15.580
280.23	14.595
280.60	14.533
280.97	15.422
281.34	17.350
281.71	13.821
282.08	16.410
282.45	14.590
282.82	15.974
283.19	16.768
283.56	15.156
283.92	15.749
284.29	15.445
284.66	14.333
285.03	14.007
285.40	13.293
285.77	16.366
286.14	15.198
286.51	17.391
286.87	14.462
287.24	14.602
287.61	17.018
287.98	13.971
288.35	15.201
288.72	15.925
289.08	15.100
289.45	14.537
289.82	16.490
290.19	14.025
290.56	14.347
290.93	14.779
291.29	12.859
291.66	15.301
292.03	14.714
292.40	14.536
292.77	13.253
293.13	16.179
293.50	13.987
293.87	14.533
294.24	15.212
294.60	14.564
294.97	13.889
295.34	10.686
295.71	13.141
296.08	13.089
296.44	12.245
296.81	11.815
297.18	14.750
297.55	12.972
297.91	13.789
298.28	13.801
298.65	12.685
299.02	13.919
299.38	12.515
299.75	13.462
300.12	11.860
300.48	13.450
300.85	12.702
301.22	12.311
301.59	11.972
301.95	11.498
302.32	13.069
302.69	12.090
303.05	13.621
303.42	13.068
303.79	13.039
304.15	12.815
304.52	13.548
304.89	11.296
305.25	11.965
305.62	13.232
305.99	13.384
306.35	14.838
306.72	13.123
307.09	11.887
307.45	13.738
307.82	11.263
308.19	11.599
308.55	12.590
308.92	14.244
309.29	12.613
309.65	13.387
310.02	11.332
310.38	13.211
310.75	12.525
311.12	13.703
311.48	12.265
311.85	12.894
312.22	13.540
312.58	13.140
312.95	11.940
313.31	13.315
313.68	12.977
314.05	13.422
314.41	13.353
314.78	13.283
315.14	13.611
315.51	13.416
315.87	13.809
316.24	13.407
316.61	12.785
316.97	13.611
317.34	12.389
317.70	13.827
318.07	14.374
318.43	12.556
318.80	12.914
319.16	13.263
319.53	12.993
319.89	12.014
320.26	14.233
320.62	13.068
320.99	13.178
321.35	12.535
321.72	13.282
322.08	13.838
322.45	13.876
322.81	13.956
323.18	13.596
323.54	14.711
323.91	13.821
324.27	12.871
324.64	12.282
325.00	12.686
325.37	13.567
325.73	13.300
326.10	12.532
326.46	13.211
326.83	12.783
327.19	13.577
327.56	14.182
327.92	13.596
328.29	14.274
328.65	14.987
329.01	12.577
329.38	13.565
329.74	13.991
330.11	13.977
330.47	13.628
330.84	13.357
331.20	13.749
331.56	12.862
331.93	13.695
332.29	13.901
332.66	13.220
333.02	14.335
333.38	13.596
333.75	13.737
334.11	13.281
334.48	13.165
334.84	12.898
335.20	13.636
335.57	12.794
335.93	12.801
336.29	12.434
336.66	11.880
337.02	12.435
337.38	13.229
337.75	13.523
338.11	11.870
338.47	12.329
338.84	12.801
339.20	14.727
339.56	13.311
339.93	12.446
340.29	12.810
340.65	12.917
341.02	13.727
341.38	13.345
341.74	12.605
342.11	13.047
342.47	12.971
342.83	12.337
343.20	12.690
343.56	13.328
343.92	13.241
344.28	13.474
344.65	14.041
345.01	12.672
345.37	12.582
345.73	12.500
346.10	12.841
346.46	12.683
346.82	12.681
347.19	12.737
347.55	13.651
347.91	13.016
348.27	12.855
348.63	13.061
349.00	12.421
349.36	12.716
349.72	12.374
350.08	12.715
350.45	12.921
350.81	13.146
351.17	12.779
351.53	10.683
351.89	12.232
352.26	11.737
352.62	12.326
352.98	11.422
353.34	11.594
353.70	13.707
354.07	12.078
354.43	11.975
354.79	12.420
355.15	12.267
355.51	12.453
355.87	12.901
356.24	12.199
356.60	12.197
356.96	13.047
357.32	12.384
357.68	12.758
358.04	12.258
358.40	13.178
358.77	12.156
359.13	12.529
359.49	12.642
359.85	12.130
360.21	12.490
360.57	12.471
360.93	12.519
361.29	12.583
361.66	12.301
362.02	11.638
362.38	12.038
362.74	12.255
363.10	11.858
363.46	11.599
363.82	11.826
364.18	12.400
364.54	12.327
364.90	12.195
365.26	11.748
365.62	12.926
365.98	12.242
366.35	12.482
366.71	11.769
367.07	11.977
367.43	11.359
367.79	12.578
368.15	12.588
368.51	11.814
368.87	12.491
369.23	11.601
369.59	11.276
369.95	11.393
370.31	12.064
370.67	11.586
371.03	11.730
371.39	12.278
371.75	12.143
372.11	12.179
372.47	12.257
372.83	11.720
373.19	11.727
373.55	11.850
373.91	11.881
374.27	11.065
374.63	12.660
374.99	11.560
375.35	11.918
375.71	11.549
376.07	12.543
376.42	11.096
376.78	11.691
377.14	12.542
377.50	12.386
377.86	12.749
378.22	11.947
378.58	11.854
378.94	12.625
379.30	11.368
379.66	11.961
380.02	11.520
380.38	11.386
380.74	12.074
381.09	11.701
381.45	12.213
381.81	12.076
382.17	11.783
382.53	12.000
382.89	12.244
383.25	12.037
383.61	12.893
383.97	11.250
384.32	11.531
384.68	11.413
385.04	11.362
385.40	12.142
385.76	12.409
386.12	11.427
386.48	11.724
386.83	12.203
387.19	11.536
387.55	12.324
387.91	11.562
388.27	12.515
388.62	11.236
388.98	11.014
389.34	12.469
389.70	11.722
390.06	11.938
390.42	11.985
390.77	12.492
391.13	11.553
391.49	11.385
391.85	11.885
392.20	11.779
392.56	11.492
392.92	11.527
393.28	11.621
393.64	11.009
393.99	11.322
394.35	11.790
394.71	11.410
395.07	11.195
395.42	11.639
395.78	10.875
396.14	12.175
396.50	11.224
396.85	12.428
397.21	11.548
397.57	11.366
397.92	11.737
398.28	12.465
398.64	11.415
399.00	12.333
399.35	12.259
399.71	11.241
400.07	11.747
400.42	11.975
400.78	11.662
401.14	10.730
401.49	12.043
401.85	12.162
402.21	11.827
402.57	12.324
402.92	12.641
403.28	10.944
403.63	11.965
403.99	11.324
404.35	11.534
404.70	11.843
405.06	12.331
405.42	10.992
405.77	11.175
406.13	11.314
406.49	11.444
406.84	11.905
407.20	11.368
407.55	11.623
407.91	11.251
408.27	11.541
408.62	12.462
408.98	11.221
409.34	11.448
409.69	12.930
410.05	12.002
410.40	11.747
410.76	11.673
411.11	11.629
411.47	11.878
411.83	11.416
412.18	11.398
412.54	11.967
412.89	11.223
413.25	11.150
413.60	11.599
413.96	11.798
414.31	11.837
414.67	11.492
415.03	11.502
415.38	11.427
415.74	11.761
416.09	11.897
416.45	11.347
416.80	11.208
417.16	12.078
417.51	11.654
417.87	11.310
418.22	11.700
418.58	11.301
418.93	11.048
419.29	11.419
419.64	11.132
420.00	11.683
420.35	11.118
420.71	11.395
421.06	11.808
421.42	12.165
421.77	12.081
422.12	11.633
422.48	12.268
422.83	11.991
423.19	11.731
423.54	11.484
423.90	11.520
424.25	12.536
424.61	11.091
424.96	11.532
425.31	12.114
425.67	12.169
426.02	12.367
426.38	11.070
426.73	11.301
427.09	11.757
427.44	11.098
427.79	11.639
428.15	11.070
428.50	11.118
428.85	12.239
429.21	10.974
429.56	13.337
429.92	11.973
430.27	11.912
430.62	12.067
430.98	12.374
431.33	11.875
431.68	12.886
432.04	12.000
432.39	12.125
432.74	11.465
433.10	12.609
433.45	11.953
433.80	12.644
434.16	11.578
434.51	12.337
434.86	12.426
435.22	11.941
435.57	11.302
435.92	12.304
436.28	12.072
436.63	11.778
436.98	12.338
437.34	12.027
437.69	11.865
438.04	12.224
438.39	12.080
438.75	12.277
439.10	11.567
439.45	11.441
439.81	12.685
440.16	12.928
440.51	12.545
440.86	11.796
441.22	13.081
441.57	12.798
441.92	12.545
442.27	11.959
442.63	12.110
442.98	11.400
443.33	12.020
443.68	12.072
444.03	12.419
444.39	12.147
444.74	11.872
445.09	11.784
445.44	12.394
445.79	11.874
446.15	12.757
446.50	12.555
446.85	12.079
447.20	12.598
447.55	12.535
447.91	12.247
448.26	11.893
448.61	12.025
448.96	12.528
449.31	13.307
449.66	12.493
450.02	13.132
450.37	12.808
450.72	12.400
451.07	13.229
451.42	12.539
451.77	11.929
452.12	12.715
452.47	12.718
452.83	11.910
453.18	12.985
453.53	12.169
453.88	12.349
454.23	12.670
454.58	12.255
454.93	11.482
455.28	13.423
455.63	12.227
455.98	12.295
456.34	12.270
456.69	13.482
457.04	12.508
457.39	12.387
457.74	12.507
458.09	12.085
458.44	13.749
458.79	12.850
459.14	11.854
459.49	13.171
459.84	12.176
460.19	11.765
460.54	12.591
460.89	12.894
461.24	11.714
461.59	12.258
461.94	12.389
462.29	12.194
462.64	12.863
462.99	13.078
463.34	13.260
463.69	13.853
464.04	11.465
464.39	12.813
464.74	12.654
465.09	12.709
465.44	13.075
465.79	13.456
466.14	13.398
466.49	12.845
466.84	12.433
467.19	12.803
467.54	13.351
467.89	13.011
468.24	12.293
468.59	12.620
468.94	12.771
469.29	12.161
469.64	13.389
469.99	13.586
470.34	12.340
470.68	13.234
471.03	12.412
471.38	12.935
471.73	12.689
472.08	12.577
472.43	13.720
472.78	13.658
473.13	11.807
473.48	12.329
473.83	12.555
474.17	12.435
474.52	12.362
474.87	12.425
475.22	13.527
475.57	13.274
475.92	12.977
476.27	12.354
476.61	12.288
476.96	12.393
477.31	12.675
477.66	13.446
478.01	12.473
478.36	13.134
478.70	12.460
479.05	13.319
479.40	12.637
479.75	13.390
480.10	13.412
480.45	13.095
480.79	13.091
481.14	13.019
481.49	13.320
481.84	13.336
482.19	13.340
482.53	13.381
482.88	12.991
483.23	13.138
483.58	12.949
483.92	12.743
484.27	12.397
484.62	12.605
484.97	12.526
485.31	12.594
485.66	12.767
486.01	13.026
486.36	12.932
486.70	12.857
487.05	12.954
487.40	12.612
487.75	12.719
488.09	12.950
488.44	12.829
488.79	13.437
489.13	13.161
489.48	13.382
489.83	12.729
490.17	12.438
490.52	13.371
490.87	12.981
491.22	12.906
491.56	13.177
491.91	12.770
492.26	13.443
492.60	12.073
492.95	13.362
493.30	12.694
493.64	12.518
493.99	13.043
494.34	12.909
494.68	13.079
495.03	13.192
495.37	12.847
495.72	13.634
496.07	13.103
496.41	12.775
496.76	12.660
497.11	13.380
497.45	12.646
497.80	13.074
498.14	13.048
498.49	12.204
498.84	12.348
499.18	12.942
499.53	12.112
499.87	12.373
500.22	12.992
500.56	13.290
500.91	13.732
501.26	13.892
501.60	12.745
501.95	13.273
502.29	13.544
502.64	13.597
502.98	12.669
503.33	12.798
503.67	13.340
504.02	12.549
504.36	13.571
504.71	12.907
505.06	13.194
505.40	13.608
505.75	13.632
506.09	13.388
506.44	13.458
506.78	13.662
507.13	13.358
507.47	13.362
507.82	13.134
508.16	13.140
508.51	13.430
508.85	13.012
509.19	13.439
509.54	13.673
509.88	13.280
510.23	13.316
510.57	13.824
510.92	14.009
511.26	12.816
511.61	13.008
511.95	12.789
512.30	13.104
512.64	13.848
512.98	14.349
513.33	13.127
513.67	13.401
514.02	14.025
514.36	13.146
514.70	13.106
515.05	13.341
515.39	13.325
515.74	13.499
516.08	13.097
516.42	12.961
516.77	13.064
517.11	13.521
517.46	14.226
517.80	14.104
518.14	12.737
518.49	12.779
518.83	14.141
519.17	12.651
519.52	13.510
519.86	13.722
520.20	12.614
520.55	13.557
520.89	14.042
521.23	13.141
521.58	13.906
521.92	12.571
522.26	13.077
522.61	13.898
522.95	14.443
523.29	12.508
523.64	13.922
523.98	13.532
524.32	13.233
524.66	14.026
525.01	13.827
525.35	13.298
525.69	13.850
526.04	12.834
526.38	13.703
526.72	14.070
527.06	13.926
527.41	12.707
527.75	13.017
528.09	14.364
528.43	13.976
528.78	13.437
529.12	13.713
529.46	13.756
529.80	14.239
530.15	13.385
530.49	12.736
530.83	12.999
531.17	14.110
531.51	13.419
531.86	12.805
532.20	13.370
532.54	13.655
532.88	14.091
533.22	13.333
533.57	13.444
533.91	13.226
534.25	13.542
534.59	14.157
534.93	13.584
535.27	13.758
535.62	13.158
535.96	13.533
536.30	14.428
536.64	13.260
536.98	13.174
537.32	13.310
537.66	14.457
538.01	12.760
538.35	13.122
538.69	13.043
539.03	13.758
539.37	13.347
539.71	13.506
540.05	13.563
540.39	13.489
540.73	13.408
541.07	14.150
541.42	13.266
541.76	14.208
542.10	14.218
542.44	12.543
542.78	12.769
543.12	13.747
543.46	13.960
543.80	13.306
544.14	13.558
544.48	12.342
544.82	13.719
545.16	13.049
545.50	13.639
545.84	13.394
546.18	13.394
546.52	14.185
546.86	12.580
547.20	12.652
547.54	13.581
547.88	14.170
548.22	13.876
548.56	13.142
548.90	12.855
549.24	15.278
549.58	13.381
549.92	14.747
550.26	15.203
550.60	14.114
550.94	13.284
551.28	12.718
551.62	13.835
551.96	13.836
552.30	12.445
552.64	13.277
552.98	14.418
553.32	14.131
553.66	13.866
554.00	13.175
554.34	12.747
554.68	12.603
555.02	13.772
555.36	14.675
555.69	13.620
556.03	13.295
556.37	12.802
556.71	13.315
557.05	13.579
557.39	13.263
557.73	14.297
558.07	14.318
558.41	12.718
558.75	14.165
559.08	12.991
559.42	13.769
559.76	13.303
560.10	13.759
560.44	14.665
560.78	12.662
561.12	13.315
561.45	13.673
561.79	13.755
562.13	13.432
562.47	14.286
562.81	12.698
563.15	13.810
563.48	14.728
563.82	13.817
564.16	14.083
564.50	14.315
564.84	13.514
565.17	14.172
565.51	13.636
565.85	13.524
566.19	13.974
566.52	13.237
566.86	13.401
567.20	14.172
567.54	13.817
567.88	13.550
568.21	13.199
568.55	14.032
568.89	12.512
569.23	13.291
569.56	13.642
569.90	13.574
570.24	13.249
570.57	13.954
570.91	13.449
571.25	13.408
571.59	13.560
571.92	13.347
572.26	13.721
572.60	13.551
572.93	13.027
573.27	13.271
573.61	13.735
573.95	13.300
574.28	13.534
574.62	13.528
574.96	13.460
575.29	13.114
575.63	13.014
575.97	13.424
576.30	13.298
576.64	13.152
576.98	13.623
577.31	13.565
577.65	13.077
577.98	13.118
578.32	13.261
578.66	13.042
578.99	13.310
579.33	13.218
579.67	12.984
580.00	13.491
580.34	13.548
580.67	13.376
581.01	13.549
581.35	13.567
581.68	13.837
582.02	13.315
582.35	13.543
582.69	13.546
583.02	13.520
583.36	13.404
583.70	13.472
584.03	13.508
584.37	13.333
584.70	13.182
585.04	13.790
585.37	13.512
585.71	13.555
586.04	13.734
586.38	13.444
586.72	13.880
587.05	13.790
587.39	13.902
587.72	13.617
588.06	13.817
588.39	13.686
588.73	13.267
589.06	13.514
589.40	13.725
589.73	13.115
590.07	13.416
590.40	13.896
590.73	14.100
591.07	14.166
591.40	13.217
591.74	13.517
592.07	13.966
592.41	14.157
592.74	13.927
593.08	13.607
593.41	14.033
593.75	13.598
594.08	13.713
594.41	13.894
594.75	14.018
595.08	14.078
595.42	13.672
595.75	13.702
596.09	13.587
596.42	13.358
596.75	13.822
597.09	14.013
597.42	13.773
597.75	14.178
598.09	13.934
598.42	14.228
598.76	13.896
599.09	14.406
599.42	14.275
599.76	14.082
600.09	14.533
600.42	14.426
600.76	13.969
601.09	14.237
601.42	14.112
601.76	13.938
602.09	13.944
602.42	13.991
602.76	14.262
603.09	14.333
603.42	13.914
603.76	13.874
604.09	14.229
604.42	13.604
604.76	13.662
605.09	14.409
605.42	14.710
605.75	14.347
606.09	13.949
606.42	14.630
606.75	13.550
607.09	13.475
607.42	14.273
607.75	12.998
608.08	13.526
608.42	13.871
608.75	14.286
609.08	14.307
609.41	14.357
609.75	14.070
610.08	13.856
610.41	14.286
610.74	13.811
611.07	14.329
611.41	14.023
611.74	13.199
612.07	14.174
612.40	13.568
612.73	14.215
613.07	13.470
613.40	14.537
613.73	13.868
614.06	13.875
614.39	14.008
614.72	14.159
615.06	13.722
615.39	14.349
615.72	13.715
616.05	14.245
616.38	14.147
616.71	14.097
617.05	13.514
617.38	13.986
617.71	13.542
618.04	13.224
618.37	13.880
618.70	13.519
619.03	13.058
619.36	14.520
619.69	12.500
620.03	13.710
620.36	13.152
620.69	12.919
621.02	13.000
621.35	12.837
621.68	13.529
622.01	13.511
622.34	13.719
622.67	14.330
623.00	13.906
623.33	13.613
623.66	13.457
623.99	12.978
624.32	14.747
624.65	13.724
624.99	14.548
625.32	14.040
625.65	13.178
625.98	13.191
626.31	14.204
626.64	13.672
626.97	13.581
627.30	13.772
627.63	14.187
627.96	11.688
628.29	13.674
628.62	13.636
628.95	15.030
629.28	13.399
629.61	14.737
629.94	14.023
630.26	13.300
630.59	13.686
630.92	13.153
631.25	14.521
631.58	13.704
631.91	13.150
632.24	12.404
632.57	14.222
632.90	13.069
