SpectraSuite Data File
++++++++++++++++++++++++++++++++++++
Date: Tue May 12 15:10:21 PDT 2015
User: schluterlab
Dark Spectrum Present: Yes
Reference Spectrum Present: Yes
Number of Sampled Component Spectra: 1
Spectrometers: USB2E3373
Integration Time (usec): 3000 (USB2E3373)
Spectra Averaged: 3 (USB2E3373)
Boxcar Smoothing: 0 (USB2E3373)
Correct for Electrical Dark: No (USB2E3373)
Strobe/Lamp Enabled: No (USB2E3373)
Correct for Detector Non-linearity: No (USB2E3373)
Correct for Stray Light: No (USB2E3373)
Number of Pixels in Processed Spectrum: 2048
>>>>>Begin Processed Spectral Data<<<<<
178.53	0.000
178.91	-66.667
179.29	-575.000
179.67	-1900.000
180.04	-26.667
180.42	375.000
180.80	950.000
181.18	0.000
181.56	-175.000
181.94	0.000
182.31	366.667
182.69	-2300.000
183.07	514.286
183.45	-2100.000
183.83	-1150.000
184.20	220.000
184.58	257.143
184.96	-130.769
185.34	-100.000
185.72	450.000
186.09	-450.000
186.47	-1700.000
186.85	700.000
187.23	220.000
187.61	1000.000
187.98	250.000
188.36	150.000
188.74	233.333
189.12	233.333
189.49	550.000
189.87	0.000
190.25	325.000
190.63	900.000
191.00	-66.667
191.38	-2300.000
191.76	-400.000
192.14	375.000
192.51	-2100.000
192.89	850.000
193.27	566.667
193.65	-500.000
194.02	-420.000
194.40	185.714
194.78	-128.571
195.15	200.000
195.53	-1900.000
195.91	-280.000
196.29	1900.000
196.66	193.750
197.04	350.000
197.42	-700.000
197.79	475.000
198.17	216.667
198.55	0.000
198.92	257.143
199.30	733.333
199.68	600.000
200.05	466.667
200.43	-233.333
200.81	166.667
201.18	2400.000
201.56	208.333
201.94	-425.000
202.31	-187.500
202.69	-200.000
203.07	800.000
203.44	-150.000
203.82	241.667
204.19	360.000
204.57	-550.000
204.95	-425.000
205.32	-460.000
205.70	333.333
206.08	200.000
206.45	-166.667
206.83	188.889
207.20	126.316
207.58	200.000
207.96	360.000
208.33	0.000
208.71	300.000
209.08	420.000
209.46	-1300.000
209.84	-475.000
210.21	580.000
210.59	-100.000
210.96	158.333
211.34	-525.000
211.71	245.455
212.09	650.000
212.46	1050.000
212.84	-250.000
213.22	233.333
213.59	-1200.000
213.97	210.000
214.34	600.000
214.72	733.333
215.09	400.000
215.47	-1300.000
215.84	-210.000
216.22	-312.500
216.59	0.000
216.97	0.000
217.34	1050.000
217.72	-1000.000
218.09	1066.667
218.47	325.000
218.84	450.000
219.22	666.667
219.59	633.333
219.97	342.857
220.34	200.000
220.72	750.000
221.09	2200.000
221.47	58.333
221.84	500.000
222.22	220.000
222.59	172.222
222.97	114.286
223.34	187.500
223.72	-900.000
224.09	466.667
224.46	146.154
224.84	-200.000
225.21	255.556
225.59	186.667
225.96	866.667
226.34	-460.000
226.71	-475.000
227.08	-400.000
227.46	0.000
227.83	-266.667
228.21	-1200.000
228.58	241.667
228.95	475.000
229.33	222.222
229.70	575.000
230.08	230.769
230.45	2400.000
230.82	-450.000
231.20	-600.000
231.57	-600.000
231.95	280.000
232.32	158.333
232.69	300.000
233.07	208.333
233.44	-850.000
233.81	160.000
234.19	144.444
234.56	181.250
234.93	164.706
235.31	135.000
235.68	225.000
236.05	125.000
236.43	159.259
236.80	214.286
237.17	110.345
237.55	109.375
237.92	97.500
238.29	130.303
238.67	134.375
239.04	100.000
239.41	100.000
239.79	117.500
240.16	104.167
240.53	86.885
240.91	78.261
241.28	106.780
241.65	93.939
242.02	102.817
242.40	98.571
242.77	93.407
243.14	83.544
243.51	92.929
243.89	64.486
244.26	79.439
244.63	85.149
245.00	90.826
245.38	79.661
245.75	71.970
246.12	82.963
246.49	69.504
246.87	73.770
247.24	79.333
247.61	75.625
247.98	85.714
248.36	75.152
248.73	72.959
249.10	74.405
249.47	75.000
249.84	74.129
250.22	79.459
250.59	74.500
250.96	68.776
251.33	74.884
251.70	75.446
252.08	70.588
252.45	70.120
252.82	65.779
253.19	71.146
253.56	69.231
253.94	70.290
254.31	72.481
254.68	70.035
255.05	73.793
255.42	72.993
255.79	67.427
256.16	71.525
256.54	70.130
256.91	69.608
257.28	71.572
257.65	68.339
258.02	70.796
258.39	71.060
258.76	64.638
259.14	66.571
259.51	73.761
259.88	74.772
260.25	67.308
260.62	70.137
260.99	65.289
261.36	73.816
261.73	68.617
262.10	72.775
262.47	66.250
262.85	70.400
263.22	68.895
263.59	68.542
263.96	68.170
264.33	67.654
264.70	66.585
265.07	70.976
265.44	70.413
265.81	69.575
266.18	69.108
266.55	70.922
266.92	71.812
267.29	70.395
267.66	65.247
268.03	67.489
268.40	67.230
268.77	69.824
269.14	66.811
269.51	67.038
269.88	67.959
270.25	65.875
270.62	68.240
270.99	66.937
271.36	66.667
271.73	67.086
272.10	65.051
272.47	64.286
272.84	63.074
273.21	67.562
273.58	67.004
273.95	67.556
274.32	66.148
274.69	67.520
275.06	66.849
275.43	67.816
275.80	67.547
276.17	64.890
276.54	67.103
276.91	66.604
277.28	65.511
277.65	63.100
278.02	64.706
278.39	64.748
278.76	64.310
279.13	63.523
279.50	65.818
279.87	61.825
280.23	62.247
280.60	66.423
280.97	65.000
281.34	62.046
281.71	64.870
282.08	62.222
282.45	61.824
282.82	64.716
283.19	61.367
283.56	64.628
283.92	63.518
284.29	61.564
284.66	61.513
285.03	61.194
285.40	63.636
285.77	59.877
286.14	61.610
286.51	61.043
286.87	58.386
287.24	57.508
287.61	61.246
287.98	60.299
288.35	58.074
288.72	57.967
289.08	57.808
289.45	58.384
289.82	58.281
290.19	55.783
290.56	55.895
290.93	57.698
291.29	55.110
291.66	53.955
292.03	55.961
292.40	53.388
292.77	53.900
293.13	54.066
293.50	52.632
293.87	51.491
294.24	55.524
294.60	53.567
294.97	54.266
295.34	52.058
295.71	51.248
296.08	50.667
296.44	49.809
296.81	49.007
297.18	47.909
297.55	47.414
297.91	48.153
298.28	48.188
298.65	45.399
299.02	46.683
299.38	48.201
299.75	47.683
300.12	45.872
300.48	47.307
300.85	45.173
301.22	47.326
301.59	45.873
301.95	46.674
302.32	47.264
302.69	46.041
303.05	46.801
303.42	45.291
303.79	45.070
304.15	44.774
304.52	45.349
304.89	46.162
305.25	44.383
305.62	45.842
305.99	43.913
306.35	43.368
306.72	43.184
307.09	42.857
307.45	43.083
307.82	42.798
308.19	43.299
308.55	43.600
308.92	43.867
309.29	42.801
309.65	42.616
310.02	42.495
310.38	42.273
310.75	41.080
311.12	42.241
311.48	43.726
311.85	42.176
312.22	42.311
312.58	43.440
312.95	41.456
313.31	43.352
313.68	42.308
314.05	41.117
314.41	40.410
314.78	42.330
315.14	42.654
315.51	42.006
315.87	41.880
316.24	42.484
316.61	40.107
316.97	40.734
317.34	41.779
317.70	41.089
318.07	42.171
318.43	42.531
318.80	42.469
319.16	41.696
319.53	42.035
319.89	40.412
320.26	42.737
320.62	40.842
320.99	41.182
321.35	41.929
321.72	41.651
322.08	42.013
322.45	41.417
322.81	41.629
323.18	41.563
323.54	41.986
323.91	43.246
324.27	40.318
324.64	39.446
325.00	42.931
325.37	40.304
325.73	40.809
326.10	41.259
326.46	40.545
326.83	41.760
327.19	41.687
327.56	40.256
327.92	42.459
328.29	41.735
328.65	42.637
329.01	40.804
329.38	42.724
329.74	39.966
330.11	39.965
330.47	41.432
330.84	39.258
331.20	41.032
331.56	40.587
331.93	41.403
332.29	40.816
332.66	40.731
333.02	40.979
333.38	40.925
333.75	40.450
334.11	40.185
334.48	41.282
334.84	39.949
335.20	41.488
335.57	40.554
335.93	38.436
336.29	38.972
336.66	40.652
337.02	39.521
337.38	39.639
337.75	41.892
338.11	41.097
338.47	39.543
338.84	39.204
339.20	38.528
339.56	38.688
339.93	39.047
340.29	38.487
340.65	40.402
341.02	39.421
341.38	39.491
341.74	40.116
342.11	39.399
342.47	39.705
342.83	41.591
343.20	38.561
343.56	37.490
343.92	41.123
344.28	38.756
344.65	39.853
345.01	39.286
345.37	39.022
345.73	39.683
346.10	38.725
346.46	40.191
346.82	38.966
347.19	39.645
347.55	37.158
347.91	37.387
348.27	36.793
348.63	38.528
349.00	37.395
349.36	38.521
349.72	37.844
350.08	38.975
350.45	38.233
350.81	38.073
351.17	37.442
351.53	36.798
351.89	37.296
352.26	38.473
352.62	37.330
352.98	38.344
353.34	38.983
353.70	38.150
354.07	37.692
354.43	38.556
354.79	35.915
355.15	36.830
355.51	37.689
355.87	38.178
356.24	38.029
356.60	36.225
356.96	36.543
357.32	38.131
357.68	36.711
358.04	38.906
358.40	37.406
358.77	37.115
359.13	37.012
359.49	36.842
359.85	37.826
360.21	35.958
360.57	36.569
360.93	37.590
361.29	36.364
361.66	36.465
362.02	36.506
362.38	37.085
362.74	36.235
363.10	36.746
363.46	35.704
363.82	36.325
364.18	37.838
364.54	35.622
364.90	37.349
365.26	37.752
365.62	37.017
365.98	35.444
366.35	36.414
366.71	37.058
367.07	37.133
367.43	36.266
367.79	36.902
368.15	35.075
368.51	37.216
368.87	36.141
369.23	36.660
369.59	34.727
369.95	36.503
370.31	36.208
370.67	35.531
371.03	35.714
371.39	36.634
371.75	36.846
372.11	36.506
372.47	36.781
372.83	35.894
373.19	37.080
373.55	36.976
373.91	36.395
374.27	35.847
374.63	36.814
374.99	35.782
375.35	35.685
375.71	36.609
376.07	36.207
376.42	35.486
376.78	37.123
377.14	36.501
377.50	34.644
377.86	36.131
378.22	35.771
378.58	36.985
378.94	36.331
379.30	36.446
379.66	36.845
380.02	36.833
380.38	35.363
380.74	36.909
381.09	36.449
381.45	35.260
381.81	35.875
382.17	35.531
382.53	36.053
382.89	36.428
383.25	35.820
383.61	35.965
383.97	35.513
384.32	35.624
384.68	36.661
385.04	35.522
385.40	35.528
385.76	36.630
386.12	36.487
386.48	36.474
386.83	36.430
387.19	36.808
387.55	35.571
387.91	35.277
388.27	36.169
388.62	35.798
388.98	36.210
389.34	34.325
389.70	36.203
390.06	36.220
390.42	35.904
390.77	35.319
391.13	35.244
391.49	35.148
391.85	35.508
392.20	35.399
392.56	36.380
392.92	36.103
393.28	35.090
393.64	34.977
393.99	35.685
394.35	34.844
394.71	35.585
395.07	35.645
395.42	35.656
395.78	36.089
396.14	35.542
396.50	34.777
396.85	35.549
397.21	35.800
397.57	36.043
397.92	34.893
398.28	35.852
398.64	35.195
399.00	34.527
399.35	35.534
399.71	35.486
400.07	34.989
400.42	35.582
400.78	34.194
401.14	35.349
401.49	35.196
401.85	34.936
402.21	34.329
402.57	35.607
402.92	34.364
403.28	34.069
403.63	34.491
403.99	34.741
404.35	34.701
404.70	35.854
405.06	34.307
405.42	34.829
405.77	35.006
406.13	33.785
406.49	33.712
406.84	34.574
407.20	34.760
407.55	33.969
407.91	35.354
408.27	35.597
408.62	35.541
408.98	35.245
409.34	34.833
409.69	34.785
410.05	34.764
410.40	34.629
410.76	34.116
411.11	34.360
411.47	34.259
411.83	33.861
412.18	34.481
412.54	34.895
412.89	33.333
413.25	35.348
413.60	34.346
413.96	34.650
414.31	33.884
414.67	35.506
415.03	34.802
415.38	34.196
415.74	34.807
416.09	35.290
416.45	34.583
416.80	35.471
417.16	34.182
417.51	34.586
417.87	34.481
418.22	33.779
418.58	34.968
418.93	33.968
419.29	33.888
419.64	34.282
420.00	34.726
420.35	33.740
420.71	34.189
421.06	33.549
421.42	34.254
421.77	35.258
422.12	34.785
422.48	33.333
422.83	35.603
423.19	34.125
423.54	34.449
423.90	34.428
424.25	34.507
424.61	34.649
424.96	34.613
425.31	33.771
425.67	34.175
426.02	33.988
426.38	34.714
426.73	33.835
427.09	34.935
427.44	33.427
427.79	34.591
428.15	35.062
428.50	35.200
428.85	33.921
429.21	34.198
429.56	34.796
429.92	34.809
430.27	33.866
430.62	33.578
430.98	34.681
431.33	34.325
431.68	34.123
432.04	34.092
432.39	34.687
432.74	35.012
433.10	33.666
433.45	35.784
433.80	35.632
434.16	33.631
434.51	34.727
434.86	34.132
435.22	33.279
435.57	34.262
435.92	34.491
436.28	34.965
436.63	34.792
436.98	35.529
437.34	34.018
437.69	34.267
438.04	34.194
438.39	34.618
438.75	34.521
439.10	34.485
439.45	34.539
439.81	34.239
440.16	33.407
440.51	33.671
440.86	35.613
441.22	33.983
441.57	35.223
441.92	34.650
442.27	34.124
442.63	34.350
442.98	34.052
443.33	34.333
443.68	34.256
444.03	34.025
444.39	34.934
444.74	34.938
445.09	34.334
445.44	33.953
445.79	34.698
446.15	34.421
446.50	34.441
446.85	33.765
447.20	33.781
447.55	34.693
447.91	35.322
448.26	34.878
448.61	35.213
448.96	34.096
449.31	34.433
449.66	34.441
450.02	33.982
450.37	34.536
450.72	34.270
451.07	34.788
451.42	35.151
451.77	33.963
452.12	33.863
452.47	34.508
452.83	34.197
453.18	35.075
453.53	34.044
453.88	35.086
454.23	34.515
454.58	33.566
454.93	34.151
455.28	35.312
455.63	33.924
455.98	33.333
456.34	35.380
456.69	34.268
457.04	34.427
457.39	34.686
457.74	34.685
458.09	33.464
458.44	34.556
458.79	34.589
459.14	33.552
459.49	35.730
459.84	35.000
460.19	34.407
460.54	34.872
460.89	34.595
461.24	35.281
461.59	34.864
461.94	34.279
462.29	35.412
462.64	35.113
462.99	34.997
463.34	34.673
463.69	34.543
464.04	34.888
464.39	33.658
464.74	33.587
465.09	33.952
465.44	34.657
465.79	34.186
466.14	34.605
466.49	34.129
466.84	33.779
467.19	35.208
467.54	34.414
467.89	34.859
468.24	34.569
468.59	35.119
468.94	35.870
469.29	35.431
469.64	34.019
469.99	34.254
470.34	33.586
470.68	32.759
471.03	34.556
471.38	33.841
471.73	33.181
472.08	34.638
472.43	33.768
472.78	33.931
473.13	32.666
473.48	34.413
473.83	33.981
474.17	34.103
474.52	34.182
474.87	33.599
475.22	33.981
475.57	33.788
475.92	33.827
476.27	33.841
476.61	34.209
476.96	34.326
477.31	34.756
477.66	35.266
478.01	33.522
478.36	33.265
478.70	33.201
479.05	34.310
479.40	34.325
479.75	34.608
480.10	33.785
480.45	33.754
480.79	33.272
481.14	34.142
481.49	32.434
481.84	33.949
482.19	33.406
482.53	33.202
482.88	34.543
483.23	32.657
483.58	33.662
483.92	34.095
484.27	33.433
484.62	34.423
484.97	33.736
485.31	34.426
485.66	34.897
486.01	34.859
486.36	34.224
486.70	33.783
487.05	33.218
487.40	33.405
487.75	34.051
488.09	33.920
488.44	34.003
488.79	33.773
489.13	34.565
489.48	33.720
489.83	32.694
490.17	32.618
490.52	33.807
490.87	33.147
491.22	33.644
491.56	33.465
491.91	32.751
492.26	32.428
492.60	33.941
492.95	34.073
493.30	33.030
493.64	32.659
493.99	33.408
494.34	33.572
494.68	33.068
495.03	33.049
495.37	33.408
495.72	33.287
496.07	33.648
496.41	33.536
496.76	33.938
497.11	33.462
497.45	33.012
497.80	33.828
498.14	33.657
498.49	34.123
498.84	33.832
499.18	33.135
499.53	33.303
499.87	33.378
500.22	32.980
500.56	33.240
500.91	33.859
501.26	33.119
501.60	33.106
501.95	33.692
502.29	33.156
502.64	33.348
502.98	32.548
503.33	33.497
503.67	33.024
504.02	32.736
504.36	32.896
504.71	32.781
505.06	32.895
505.40	34.488
505.75	33.068
506.09	33.551
506.44	32.425
506.78	33.696
507.13	33.592
507.47	32.460
507.82	33.771
508.16	33.954
508.51	33.333
508.85	33.001
509.19	33.578
509.54	32.520
509.88	33.366
510.23	33.529
510.57	32.625
510.92	33.816
511.26	33.333
511.61	32.299
511.95	33.449
512.30	33.300
512.64	32.710
512.98	32.599
513.33	32.582
513.67	34.024
514.02	33.195
514.36	32.399
514.70	32.533
515.05	33.298
515.39	33.279
515.74	32.914
516.08	33.551
516.42	33.880
516.77	33.173
517.11	33.173
517.46	33.351
517.80	32.277
518.14	33.070
518.49	31.588
518.83	32.033
519.17	32.557
519.52	34.681
519.86	32.916
520.20	32.822
520.55	32.335
520.89	32.644
521.23	32.185
521.58	32.415
521.92	32.886
522.26	32.583
522.61	33.333
522.95	32.733
523.29	32.573
523.64	32.717
523.98	32.746
524.32	33.045
524.66	33.333
525.01	31.775
525.35	32.705
525.69	32.872
526.04	32.957
526.38	33.137
526.72	31.265
527.06	32.289
527.41	33.374
527.75	31.649
528.09	32.330
528.43	32.154
528.78	32.379
529.12	32.932
529.46	33.255
529.80	31.893
530.15	32.351
530.49	31.829
530.83	33.699
531.17	32.841
531.51	33.170
531.86	32.065
532.20	31.768
532.54	31.701
532.88	32.480
533.22	31.566
533.57	33.557
533.91	32.110
534.25	30.294
534.59	32.398
534.93	31.513
535.27	31.246
535.62	32.497
535.96	32.801
536.30	33.272
536.64	31.801
536.98	32.662
537.32	32.500
537.66	32.589
538.01	33.313
538.35	32.377
538.69	31.917
539.03	32.463
539.37	30.825
539.71	31.852
540.05	31.754
540.39	31.761
540.73	32.278
541.07	32.685
541.42	31.841
541.76	32.244
542.10	32.059
542.44	33.167
542.78	32.914
543.12	32.025
543.46	31.140
543.80	33.020
544.14	32.074
544.48	31.995
544.82	31.621
545.16	31.815
545.50	32.391
545.84	32.008
546.18	33.355
546.52	32.066
546.86	33.140
547.20	32.364
547.54	32.806
547.88	32.664
548.22	33.940
548.56	32.233
548.90	32.325
549.24	31.712
549.58	31.250
549.92	32.220
550.26	32.319
550.60	31.737
550.94	32.429
551.28	33.034
551.62	32.069
551.96	32.230
552.30	31.707
552.64	32.945
552.98	32.990
553.32	31.562
553.66	31.466
554.00	31.982
554.34	32.490
554.68	32.258
555.02	32.451
555.36	31.981
555.69	32.264
556.03	32.739
556.37	32.441
556.71	32.920
557.05	32.110
557.39	31.200
557.73	32.143
558.07	32.193
558.41	32.145
558.75	32.353
559.08	31.808
559.42	31.353
559.76	32.644
560.10	31.934
560.44	31.719
560.78	32.928
561.12	32.359
561.45	32.290
561.79	32.085
562.13	32.344
562.47	31.343
562.81	30.969
563.15	31.739
563.48	31.056
563.82	32.439
564.16	32.649
564.50	31.465
564.84	31.793
565.17	31.432
565.51	32.266
565.85	32.141
566.19	32.024
566.52	30.866
566.86	31.816
567.20	32.303
567.54	31.386
567.88	31.873
568.21	31.253
568.55	30.982
568.89	30.885
569.23	32.312
569.56	32.508
569.90	31.980
570.24	32.095
570.57	32.252
570.91	32.168
571.25	32.117
571.59	31.669
571.92	31.297
572.26	31.779
572.60	31.880
572.93	32.605
573.27	32.567
573.61	32.620
573.95	32.346
574.28	32.138
574.62	32.138
574.96	31.713
575.29	31.628
575.63	32.485
575.97	32.887
576.30	32.296
576.64	33.398
576.98	32.691
577.31	32.654
577.65	32.445
577.98	32.326
578.32	32.119
578.66	32.484
578.99	32.578
579.33	32.521
579.67	32.056
580.00	32.034
580.34	32.499
580.67	32.260
581.01	32.543
581.35	33.135
581.68	32.550
582.02	32.828
582.35	32.441
582.69	32.039
583.02	31.724
583.36	31.702
583.70	32.027
584.03	32.314
584.37	32.130
584.70	32.272
585.04	32.429
585.37	32.980
585.71	32.966
586.04	32.060
586.38	32.511
586.72	32.149
587.05	32.064
587.39	32.415
587.72	31.764
588.06	32.605
588.39	32.318
588.73	32.226
589.06	31.894
589.40	32.019
589.73	31.400
590.07	32.121
590.40	32.648
590.73	32.942
591.07	32.220
591.40	32.415
591.74	32.508
592.07	31.822
592.41	32.494
592.74	32.406
593.08	32.161
593.41	32.196
593.75	31.889
594.08	32.276
594.41	32.030
594.75	31.747
595.08	32.476
595.42	31.863
595.75	32.577
596.09	32.082
596.42	32.119
596.75	33.173
597.09	32.604
597.42	32.041
597.75	32.089
598.09	32.540
598.42	32.395
598.76	32.421
599.09	33.542
599.42	32.215
599.76	32.734
600.09	31.390
600.42	32.562
600.76	33.141
601.09	32.931
601.42	32.242
601.76	33.047
602.09	32.597
602.42	32.200
602.76	32.638
603.09	31.750
603.42	32.330
603.76	32.357
604.09	32.067
604.42	32.241
604.76	32.201
605.09	32.245
605.42	31.613
605.75	32.610
606.09	32.632
606.42	32.544
606.75	32.530
607.09	31.662
607.42	32.423
607.75	32.604
608.08	32.494
608.42	32.508
608.75	32.007
609.08	32.732
609.41	32.773
609.75	32.601
610.08	32.239
610.41	32.235
610.74	32.035
611.07	31.651
611.41	31.881
611.74	32.218
612.07	32.177
612.40	31.676
612.73	32.102
613.07	31.931
613.40	32.130
613.73	31.952
614.06	30.950
614.39	32.576
614.72	31.793
615.06	31.553
615.39	32.723
615.72	32.333
616.05	32.496
616.38	32.319
616.71	30.928
617.05	32.290
617.38	30.618
617.71	31.890
618.04	30.959
618.37	32.018
618.70	31.236
619.03	31.563
619.36	30.905
619.69	31.662
620.03	32.355
620.36	31.535
620.69	32.503
621.02	31.386
621.35	30.587
621.68	31.121
622.01	32.251
622.34	30.808
622.67	31.250
623.00	31.722
623.33	32.051
623.66	31.537
623.99	31.712
624.32	30.962
624.65	31.336
624.99	32.319
625.32	30.862
625.65	30.621
625.98	31.311
626.31	31.380
626.64	30.828
626.97	31.140
627.30	31.366
627.63	31.319
627.96	30.360
628.29	31.106
628.62	28.743
628.95	30.851
629.28	32.252
629.61	31.986
629.94	31.461
630.26	31.976
630.59	32.801
630.92	30.493
631.25	31.278
631.58	32.690
