SpectraSuite Data File
++++++++++++++++++++++++++++++++++++
Date: Tue May 12 16:55:14 PDT 2015
User: schluterlab
Dark Spectrum Present: Yes
Reference Spectrum Present: Yes
Number of Sampled Component Spectra: 1
Spectrometers: USB2E3373
Integration Time (usec): 3000 (USB2E3373)
Spectra Averaged: 3 (USB2E3373)
Boxcar Smoothing: 0 (USB2E3373)
Correct for Electrical Dark: No (USB2E3373)
Strobe/Lamp Enabled: No (USB2E3373)
Correct for Detector Non-linearity: No (USB2E3373)
Correct for Stray Light: No (USB2E3373)
Number of Pixels in Processed Spectrum: 2048
>>>>>Begin Processed Spectral Data<<<<<
178.53	0.000
178.91	-200.000
179.29	-675.000
179.67	-2900.000
180.04	-40.000
180.42	675.000
180.80	1250.000
181.18	0.000
181.56	-337.500
181.94	0.000
182.31	966.667
182.69	-3200.000
183.07	685.714
183.45	-3300.000
183.83	-1550.000
184.20	390.000
184.58	571.429
184.96	-261.538
185.34	-208.333
185.72	1250.000
186.09	-475.000
186.47	-2100.000
186.85	900.000
187.23	780.000
187.61	1600.000
187.98	400.000
188.36	271.429
188.74	275.000
189.12	308.333
189.49	1000.000
189.87	0.000
190.25	475.000
190.63	2900.000
191.00	-233.333
191.38	-3400.000
191.76	-975.000
192.14	475.000
192.51	-2500.000
192.89	1700.000
193.27	933.333
193.65	-1100.000
194.02	-520.000
194.40	542.857
194.78	-221.429
195.15	240.000
195.53	-3300.000
195.91	-440.000
196.29	3400.000
196.66	212.500
197.04	800.000
197.42	-1450.000
197.79	725.000
198.17	358.333
198.55	0.000
198.92	471.429
199.30	1300.000
199.68	1800.000
200.05	600.000
200.43	-433.333
200.81	200.000
201.18	3200.000
201.56	308.333
201.94	-825.000
202.31	-412.500
202.69	-460.000
203.07	3500.000
203.44	-416.667
203.82	300.000
204.19	600.000
204.57	-1350.000
204.95	-825.000
205.32	-580.000
205.70	533.333
206.08	675.000
206.45	-766.667
206.83	444.444
207.20	168.421
207.58	300.000
207.96	700.000
208.33	0.000
208.71	657.143
209.08	680.000
209.46	-2800.000
209.84	-600.000
210.21	800.000
210.59	-700.000
210.96	258.333
211.34	-975.000
211.71	418.182
212.09	750.000
212.46	1350.000
212.84	-366.667
213.22	488.889
213.59	-3500.000
213.97	370.000
214.34	1075.000
214.72	1366.667
215.09	933.333
215.47	-2600.000
215.84	-370.000
216.22	-325.000
216.59	0.000
216.97	0.000
217.34	1300.000
217.72	-1450.000
218.09	1100.000
218.47	500.000
218.84	800.000
219.22	1166.667
219.59	933.333
219.97	414.286
220.34	333.333
220.72	1450.000
221.09	3500.000
221.47	233.333
221.84	1166.667
222.22	390.000
222.59	277.778
222.97	128.571
223.34	237.500
223.72	-1750.000
224.09	1133.333
224.46	292.308
224.84	-675.000
225.21	400.000
225.59	253.333
225.96	1166.667
226.34	-580.000
226.71	-650.000
227.08	-480.000
227.46	0.000
227.83	-483.333
228.21	-1400.000
228.58	341.667
228.95	1025.000
229.33	311.111
229.70	1025.000
230.08	392.308
230.45	3300.000
230.82	-900.000
231.20	-800.000
231.57	-1200.000
231.95	440.000
232.32	208.333
232.69	500.000
233.07	208.333
233.44	-1450.000
233.81	200.000
234.19	114.815
234.56	218.750
234.93	182.353
235.31	170.000
235.68	193.750
236.05	139.286
236.43	133.333
236.80	200.000
237.17	162.069
237.55	118.750
237.92	117.500
238.29	106.061
238.67	103.125
239.04	90.244
239.41	50.000
239.79	72.500
240.16	81.250
240.53	70.492
240.91	63.768
241.28	55.932
241.65	56.061
242.02	63.380
242.40	60.000
242.77	58.242
243.14	45.570
243.51	61.616
243.89	53.271
244.26	38.318
244.63	41.584
245.00	43.119
245.38	37.288
245.75	47.727
246.12	42.963
246.49	39.007
246.87	33.607
247.24	37.333
247.61	39.375
247.98	34.694
248.36	32.727
248.73	37.755
249.10	30.952
249.47	27.000
249.84	30.348
250.22	31.892
250.59	31.500
250.96	32.068
251.33	32.558
251.70	31.250
252.08	31.092
252.45	27.092
252.82	25.856
253.19	27.668
253.56	28.077
253.94	27.899
254.31	25.194
254.68	25.784
255.05	28.276
255.42	28.467
255.79	28.339
256.16	31.186
256.54	29.221
256.91	25.817
257.28	23.746
257.65	21.630
258.02	24.189
258.39	23.209
258.76	23.768
259.14	23.429
259.51	27.697
259.88	24.316
260.25	23.352
260.62	23.562
260.99	20.386
261.36	22.006
261.73	23.404
262.10	23.037
262.47	22.000
262.85	22.667
263.22	26.221
263.59	25.575
263.96	25.815
264.33	24.444
264.70	25.799
265.07	23.415
265.44	21.789
265.81	21.226
266.18	25.858
266.55	24.113
266.92	23.266
267.29	21.053
267.66	21.300
268.03	21.300
268.40	21.987
268.77	26.432
269.14	21.692
269.51	23.163
269.88	22.245
270.25	19.870
270.62	20.815
270.99	22.515
271.36	25.203
271.73	20.964
272.10	20.404
272.47	19.643
272.84	19.960
273.21	19.835
273.58	22.874
273.95	21.766
274.32	21.595
274.69	23.031
275.06	23.679
275.43	19.923
275.80	23.208
276.17	20.037
276.54	22.243
276.91	22.388
277.28	19.343
277.65	20.849
278.02	22.426
278.39	20.683
278.76	23.621
279.13	19.751
279.50	21.818
279.87	18.808
280.23	18.969
280.60	20.255
280.97	20.172
281.34	22.112
281.71	21.217
282.08	19.145
282.45	18.412
282.82	20.736
283.19	21.304
283.56	19.835
283.92	20.847
284.29	20.632
284.66	18.655
285.03	20.066
285.40	20.165
285.77	18.673
286.14	19.659
286.51	19.325
286.87	17.563
287.24	18.018
287.61	17.629
287.98	18.060
288.35	17.926
288.72	18.968
289.08	20.270
289.45	20.579
289.82	19.531
290.19	18.155
290.56	19.360
290.93	19.281
291.29	16.713
291.66	18.503
292.03	16.830
292.40	18.293
292.77	18.663
293.13	18.545
293.50	17.814
293.87	17.344
294.24	18.322
294.60	19.650
294.97	19.301
295.34	17.264
295.71	18.134
296.08	18.933
296.44	18.424
296.81	18.238
297.18	17.237
297.55	20.567
297.91	18.473
298.28	19.082
298.65	18.160
299.02	15.802
299.38	19.065
299.75	18.293
300.12	19.266
300.48	19.555
300.85	18.474
301.22	20.349
301.59	18.042
301.95	18.203
302.32	19.441
302.69	18.665
303.05	19.304
303.42	18.049
303.79	18.418
304.15	18.922
304.52	18.076
304.89	18.763
305.25	19.355
305.62	19.829
305.99	18.261
306.35	18.947
306.72	19.251
307.09	19.358
307.45	18.374
307.82	18.930
308.19	18.866
308.55	19.600
308.92	20.314
309.29	20.907
309.65	18.533
310.02	19.473
310.38	19.442
310.75	19.961
311.12	18.966
311.48	20.656
311.85	21.851
312.22	20.344
312.58	20.991
312.95	20.388
313.31	21.161
313.68	18.949
314.05	21.062
314.41	19.926
314.78	20.360
315.14	21.611
315.51	22.611
315.87	20.803
316.24	21.008
316.61	20.949
316.97	20.183
317.34	22.282
317.70	21.949
318.07	23.132
318.43	23.111
318.80	20.753
319.16	22.465
319.53	21.681
319.89	21.685
320.26	23.650
320.62	23.077
320.99	23.356
321.35	23.655
321.72	24.478
322.08	23.453
322.45	24.886
322.81	22.964
323.18	24.512
323.54	25.348
323.91	25.204
324.27	25.553
324.64	24.135
325.00	25.517
325.37	25.717
325.73	25.464
326.10	26.761
326.46	27.085
326.83	26.400
327.19	27.309
327.56	25.958
327.92	28.279
328.29	27.823
328.65	28.253
329.01	27.716
329.38	27.665
329.74	28.437
330.11	28.236
330.47	28.218
330.84	26.661
331.20	28.765
331.56	29.706
331.93	28.400
332.29	27.381
332.66	28.486
333.02	29.210
333.38	28.796
333.75	28.941
334.11	29.362
334.48	28.889
334.84	29.561
335.20	29.170
335.57	28.128
335.93	29.773
336.29	29.270
336.66	30.189
337.02	28.315
337.38	29.579
337.75	28.463
338.11	29.536
338.47	29.128
338.84	28.112
339.20	29.177
339.56	29.437
339.93	28.846
340.29	27.731
340.65	29.505
341.02	30.169
341.38	28.489
341.74	29.402
342.11	28.214
342.47	29.122
342.83	30.271
343.20	28.698
343.56	27.720
343.92	27.993
344.28	28.389
344.65	29.014
345.01	28.175
345.37	27.244
345.73	28.413
346.10	28.367
346.46	29.187
346.82	28.009
347.19	27.821
347.55	29.196
347.91	28.399
348.27	28.118
348.63	29.351
349.00	29.094
349.36	28.560
349.72	29.128
350.08	28.804
350.45	29.931
350.81	27.370
351.17	27.350
351.53	28.714
351.89	28.671
352.26	28.269
352.62	27.828
352.98	28.298
353.34	29.353
353.70	28.364
354.07	29.000
354.43	29.263
354.79	29.157
355.15	28.560
355.51	28.097
355.87	28.464
356.24	28.868
356.60	28.387
356.96	28.961
357.32	28.862
357.68	28.928
358.04	30.395
358.40	29.760
358.77	29.001
359.13	28.453
359.49	28.317
359.85	28.667
360.21	28.306
360.57	28.321
360.93	28.716
361.29	29.365
361.66	29.456
362.02	28.551
362.38	29.221
362.74	29.441
363.10	29.453
363.46	27.901
363.82	28.401
364.18	29.659
364.54	29.399
364.90	28.983
365.26	29.979
365.62	30.249
365.98	29.319
366.35	28.621
366.71	29.702
367.07	29.283
367.43	29.416
367.79	29.255
368.15	28.765
368.51	29.566
368.87	28.397
369.23	28.413
369.59	28.321
369.95	30.070
370.31	28.131
370.67	29.146
371.03	29.552
371.39	28.255
371.75	29.309
372.11	29.096
372.47	29.521
372.83	28.688
373.19	29.815
373.55	29.210
373.91	28.660
374.27	28.108
374.63	29.153
374.99	29.380
375.35	29.032
375.71	28.958
376.07	28.581
376.42	28.581
376.78	29.416
377.14	28.768
377.50	27.965
377.86	28.507
378.22	28.215
378.58	28.753
378.94	28.063
379.30	28.563
379.66	29.079
380.02	29.208
380.38	26.874
380.74	28.777
381.09	29.030
381.45	27.341
381.81	27.778
382.17	29.731
382.53	27.894
382.89	28.149
383.25	28.064
383.61	28.012
383.97	28.194
384.32	28.813
384.68	28.639
385.04	28.253
385.40	27.817
385.76	27.150
386.12	27.953
386.48	28.085
386.83	28.301
387.19	27.621
387.55	27.444
387.91	28.176
388.27	28.019
388.62	26.819
388.98	27.172
389.34	26.472
389.70	26.651
390.06	27.073
390.42	26.835
390.77	27.273
391.13	27.097
391.49	26.921
391.85	27.754
392.20	26.639
392.56	28.196
392.92	26.221
393.28	25.729
393.64	25.516
393.99	25.845
394.35	25.544
394.71	26.176
395.07	26.886
395.42	26.464
395.78	26.280
396.14	27.108
396.50	26.173
396.85	25.915
397.21	25.933
397.57	26.599
397.92	25.650
398.28	26.034
398.64	25.713
399.00	25.013
399.35	24.584
399.71	24.669
400.07	24.144
400.42	26.030
400.78	23.812
401.14	25.367
401.49	23.848
401.85	23.812
402.21	24.370
402.57	24.895
402.92	24.424
403.28	24.045
403.63	23.779
403.99	24.005
404.35	24.912
404.70	24.513
405.06	23.695
405.42	24.596
405.77	23.153
406.13	22.777
406.49	22.513
406.84	22.335
407.20	23.630
407.55	24.308
407.91	24.123
408.27	24.015
408.62	23.655
408.98	22.768
409.34	23.437
409.69	23.149
410.05	23.256
410.40	22.144
410.76	22.553
411.11	23.223
411.47	23.086
411.83	22.496
412.18	21.618
412.54	22.763
412.89	22.006
413.25	23.033
413.60	22.664
413.96	22.442
414.31	22.491
414.67	22.905
415.03	22.861
415.38	22.208
415.74	22.805
416.09	23.235
416.45	23.400
416.80	23.669
417.16	22.724
417.51	23.121
417.87	22.215
418.22	22.600
418.58	23.503
418.93	23.795
419.29	22.243
419.64	22.895
420.00	23.031
420.35	22.532
420.71	23.104
421.06	23.720
421.42	23.777
421.77	23.098
422.12	23.705
422.48	22.804
422.83	24.163
423.19	23.218
423.54	24.301
423.90	24.575
424.25	24.051
424.61	24.028
424.96	23.941
425.31	23.372
425.67	24.074
426.02	24.790
426.38	24.504
426.73	24.639
427.09	24.970
427.44	24.142
427.79	23.842
428.15	25.810
428.50	25.829
428.85	26.044
429.21	25.122
429.56	25.224
429.92	25.908
430.27	24.625
430.62	25.404
430.98	25.250
431.33	24.849
431.68	24.741
432.04	25.246
432.39	26.674
432.74	26.347
433.10	26.135
433.45	26.020
433.80	27.082
434.16	27.010
434.51	26.677
434.86	26.402
435.22	26.796
435.57	27.090
435.92	27.149
436.28	27.535
436.63	26.850
436.98	27.815
437.34	27.283
437.69	25.980
438.04	27.151
438.39	27.788
438.75	26.726
439.10	27.253
439.45	28.038
439.81	27.646
440.16	27.408
440.51	27.309
440.86	28.319
441.22	27.435
441.57	27.192
441.92	27.937
442.27	28.299
442.63	27.693
442.98	27.532
443.33	28.763
443.68	28.370
444.03	27.380
444.39	28.484
444.74	29.244
445.09	28.331
445.44	28.905
445.79	28.704
446.15	28.158
446.50	29.589
446.85	28.685
447.20	28.109
447.55	29.418
447.91	29.782
448.26	28.967
448.61	29.187
448.96	29.357
449.31	29.208
449.66	29.014
450.02	28.255
450.37	29.817
450.72	29.256
451.07	30.017
451.42	29.164
451.77	29.267
452.12	29.325
452.47	30.863
452.83	30.085
453.18	30.270
453.53	29.959
453.88	30.000
454.23	30.564
454.58	29.545
454.93	29.368
455.28	30.171
455.63	30.733
455.98	28.878
456.34	29.970
456.69	30.183
457.04	31.086
457.39	29.486
457.74	30.856
458.09	30.095
458.44	30.394
458.79	29.867
459.14	29.460
459.49	29.672
459.84	30.380
460.19	30.282
460.54	30.712
460.89	30.117
461.24	30.069
461.59	30.669
461.94	30.496
462.29	30.950
462.64	31.407
462.99	29.878
463.34	30.266
463.69	30.913
464.04	30.340
464.39	30.338
464.74	30.188
465.09	30.064
465.44	30.141
465.79	29.940
466.14	30.419
466.49	30.711
466.84	29.487
467.19	30.287
467.54	29.910
467.89	30.986
468.24	30.168
468.59	30.655
468.94	30.978
469.29	30.788
469.64	31.576
469.99	31.298
470.34	31.120
470.68	30.828
471.03	32.155
471.38	32.252
471.73	31.091
472.08	32.290
472.43	32.030
472.78	32.010
473.13	29.850
473.48	30.318
473.83	31.449
474.17	30.881
474.52	31.457
474.87	31.040
475.22	30.782
475.57	31.007
475.92	30.404
476.27	29.761
476.61	31.046
476.96	31.191
477.31	31.362
477.66	31.669
478.01	30.428
478.36	30.330
478.70	31.017
479.05	31.851
479.40	30.952
479.75	31.480
480.10	31.607
480.45	31.419
480.79	30.184
481.14	30.766
481.49	30.695
481.84	30.343
482.19	31.572
482.53	30.918
482.88	30.645
483.23	30.672
483.58	31.014
483.92	31.581
484.27	29.923
484.62	31.537
484.97	29.646
485.31	29.717
485.66	29.784
486.01	28.404
486.36	28.631
486.70	28.637
487.05	29.178
487.40	28.538
487.75	28.916
488.09	29.631
488.44	29.509
488.79	29.781
489.13	30.347
489.48	30.324
489.83	30.817
490.17	30.471
490.52	31.309
490.87	30.647
491.22	31.427
491.56	31.840
491.91	30.824
492.26	31.581
492.60	31.116
492.95	31.264
493.30	31.210
493.64	31.267
493.99	31.619
494.34	30.928
494.68	31.076
495.03	31.522
495.37	31.742
495.72	31.795
496.07	31.132
496.41	31.494
496.76	30.815
497.11	30.677
497.45	31.434
497.80	31.464
498.14	31.854
498.49	31.523
498.84	31.449
499.18	31.170
499.53	31.557
499.87	31.671
500.22	32.335
500.56	31.708
500.91	32.607
501.26	31.971
501.60	31.466
501.95	31.004
502.29	31.733
502.64	32.025
502.98	31.659
503.33	31.180
503.67	32.009
504.02	31.214
504.36	32.172
504.71	32.214
505.06	31.910
505.40	31.446
505.75	32.086
506.09	33.084
506.44	32.190
506.78	32.136
507.13	31.944
507.47	32.217
507.82	32.701
508.16	33.170
508.51	32.512
508.85	31.576
509.19	32.991
509.54	32.910
509.88	32.571
510.23	32.696
510.57	31.902
510.92	33.017
511.26	32.480
511.61	33.235
511.95	32.902
512.30	32.850
512.64	33.022
512.98	32.650
513.33	33.863
513.67	33.195
514.02	33.403
514.36	33.749
514.70	32.960
515.05	32.765
515.39	34.101
515.74	33.898
516.08	33.279
516.42	34.208
516.77	33.653
517.11	33.547
517.46	33.998
517.80	33.643
518.14	34.930
518.49	33.131
518.83	33.242
519.17	33.555
519.52	34.462
519.86	34.005
520.20	34.740
520.55	34.483
520.89	34.713
521.23	34.755
521.58	33.907
521.92	34.694
522.26	33.768
522.61	34.522
522.95	35.616
523.29	34.269
523.64	34.451
523.98	35.915
524.32	35.236
524.66	34.551
525.01	34.379
525.35	35.180
525.69	34.557
526.04	35.634
526.38	34.609
526.72	34.606
527.06	34.418
527.41	35.490
527.75	35.301
528.09	34.497
528.43	35.998
528.78	34.645
529.12	35.280
529.46	35.009
529.80	35.280
530.15	34.826
530.49	34.597
530.83	34.918
531.17	36.470
531.51	34.764
531.86	34.783
532.20	34.487
532.54	34.401
532.88	34.541
533.22	35.101
533.57	34.838
533.91	33.974
534.25	34.160
534.59	34.503
534.93	33.788
535.27	33.865
535.62	34.189
535.96	34.220
536.30	35.710
536.64	35.280
536.98	34.613
537.32	35.500
537.66	34.758
538.01	34.861
538.35	34.124
538.69	33.738
539.03	33.644
539.37	33.859
539.71	35.309
540.05	35.138
540.39	35.849
540.73	35.127
541.07	33.689
541.42	34.701
541.76	35.080
542.10	34.094
542.44	34.476
542.78	34.865
543.12	34.601
543.46	34.211
543.80	34.774
544.14	34.799
544.48	34.854
544.82	34.862
545.16	34.487
545.50	34.235
545.84	35.354
546.18	36.281
546.52	35.082
546.86	35.719
547.20	35.142
547.54	34.642
547.88	34.124
548.22	34.851
548.56	35.239
548.90	35.053
549.24	35.755
549.58	35.954
549.92	35.756
550.26	36.038
550.60	35.462
550.94	35.957
551.28	36.828
551.62	37.448
551.96	36.689
552.30	35.201
552.64	36.375
552.98	36.276
553.32	35.595
553.66	36.352
554.00	35.843
554.34	37.217
554.68	36.290
555.02	37.814
555.36	35.040
555.69	37.369
556.03	36.178
556.37	37.221
556.71	36.962
557.05	35.518
557.39	35.667
557.73	36.792
558.07	36.955
558.41	37.012
558.75	37.073
559.08	37.884
559.42	36.793
559.76	37.135
560.10	37.027
560.44	35.766
560.78	36.637
561.12	37.572
561.45	35.857
561.79	36.642
562.13	35.629
562.47	37.184
562.81	37.280
563.15	35.811
563.48	35.652
563.82	37.555
564.16	37.749
564.50	36.528
564.84	37.082
565.17	35.294
565.51	37.069
565.85	37.014
566.19	36.071
566.52	37.365
566.86	37.011
567.20	37.640
567.54	36.299
567.88	36.202
568.21	35.696
568.55	35.409
568.89	35.036
569.23	34.211
569.56	34.585
569.90	32.986
570.24	33.935
570.57	34.134
570.91	33.354
571.25	32.592
571.59	32.459
571.92	31.943
572.26	31.914
572.60	32.630
572.93	32.864
573.27	33.027
573.61	32.377
573.95	32.171
574.28	32.792
574.62	31.789
574.96	32.437
575.29	31.967
575.63	31.684
575.97	32.084
576.30	31.638
576.64	32.182
576.98	32.111
577.31	32.654
577.65	32.424
577.98	31.865
578.32	31.650
578.66	31.512
578.99	32.284
579.33	32.679
579.67	31.918
580.00	32.630
580.34	32.298
580.67	32.416
581.01	32.675
581.35	32.499
581.68	31.863
582.02	31.994
582.35	32.575
582.69	32.126
583.02	32.277
583.36	33.368
583.70	33.180
584.03	33.234
584.37	33.392
584.70	33.267
585.04	33.024
585.37	33.499
585.71	33.820
586.04	33.688
586.38	33.996
586.72	33.668
587.05	33.762
587.39	34.311
587.72	34.765
588.06	34.070
588.39	34.877
588.73	34.595
589.06	35.133
589.40	35.837
589.73	35.693
590.07	36.376
590.40	36.620
590.73	36.981
591.07	37.078
591.40	35.928
591.74	36.201
592.07	36.522
592.41	37.530
592.74	36.434
593.08	35.286
593.41	35.458
593.75	35.578
594.08	35.848
594.41	35.842
594.75	36.507
595.08	36.523
595.42	36.142
595.75	36.690
596.09	37.470
596.42	36.672
596.75	37.861
597.09	37.474
597.42	36.571
597.75	36.795
598.09	37.218
598.42	37.536
598.76	36.777
599.09	37.036
599.42	36.367
599.76	36.839
600.09	35.864
600.42	36.533
600.76	36.268
601.09	37.004
601.42	35.903
601.76	36.806
602.09	37.049
602.42	36.525
602.76	37.306
603.09	37.255
603.42	37.541
603.76	37.455
604.09	35.975
604.42	37.213
604.76	37.021
605.09	37.714
605.42	37.221
605.75	37.742
606.09	37.031
606.42	37.166
606.75	37.621
607.09	37.031
607.42	36.922
607.75	37.540
608.08	38.018
608.42	37.248
608.75	37.184
609.08	37.791
609.41	38.273
609.75	39.423
610.08	37.455
610.41	38.032
610.74	39.307
611.07	38.881
611.41	38.971
611.74	38.002
612.07	39.692
612.40	39.181
612.73	39.491
613.07	39.838
613.40	39.499
613.73	39.041
614.06	38.450
614.39	39.747
614.72	38.975
615.06	37.438
615.39	38.861
615.72	38.335
616.05	38.774
616.38	38.052
616.71	39.447
617.05	39.868
617.38	39.775
617.71	39.483
618.04	39.821
618.37	40.245
618.70	39.376
619.03	39.683
619.36	40.892
619.69	41.029
620.03	42.792
620.36	41.618
620.69	40.613
621.02	41.576
621.35	42.120
621.68	41.298
622.01	42.509
622.34	41.442
622.67	42.556
623.00	40.300
623.33	40.756
623.66	40.585
623.99	41.644
624.32	42.412
624.65	40.948
624.99	43.272
625.32	41.483
625.65	40.414
625.98	40.167
626.31	41.988
626.64	42.673
626.97	42.081
627.30	42.780
627.63	43.721
627.96	43.114
628.29	43.812
628.62	43.884
628.95	44.326
629.28	43.208
629.61	44.025
629.94	43.647
630.26	43.414
630.59	44.238
630.92	42.780
631.25	43.246
