SpectraSuite Data File
++++++++++++++++++++++++++++++++++++
Date: Tue May 12 17:18:47 PDT 2015
User: schluterlab
Dark Spectrum Present: Yes
Reference Spectrum Present: Yes
Number of Sampled Component Spectra: 1
Spectrometers: USB2E3373
Integration Time (usec): 3000 (USB2E3373)
Spectra Averaged: 3 (USB2E3373)
Boxcar Smoothing: 0 (USB2E3373)
Correct for Electrical Dark: No (USB2E3373)
Strobe/Lamp Enabled: No (USB2E3373)
Correct for Detector Non-linearity: No (USB2E3373)
Correct for Stray Light: No (USB2E3373)
Number of Pixels in Processed Spectrum: 2048
>>>>>Begin Processed Spectral Data<<<<<
178.53	0.000
178.91	-225.000
179.29	-650.000
179.67	-3300.000
180.04	-153.333
180.42	675.000
180.80	1800.000
181.18	0.000
181.56	-350.000
181.94	0.000
182.31	1033.333
182.69	-3100.000
183.07	585.714
183.45	-3600.000
183.83	-1400.000
184.20	380.000
184.58	528.571
184.96	-246.154
185.34	-283.333
185.72	1400.000
186.09	-725.000
186.47	-3400.000
186.85	1100.000
187.23	580.000
187.61	1600.000
187.98	425.000
188.36	300.000
188.74	316.667
189.12	383.333
189.49	1125.000
189.87	0.000
190.25	437.500
190.63	3200.000
191.00	-250.000
191.38	-4100.000
191.76	-875.000
192.14	462.500
192.51	-3200.000
192.89	2250.000
193.27	900.000
193.65	-800.000
194.02	-800.000
194.40	585.714
194.78	-200.000
195.15	266.667
195.53	-2900.000
195.91	-560.000
196.29	4400.000
196.66	237.500
197.04	700.000
197.42	-1800.000
197.79	600.000
198.17	375.000
198.55	0.000
198.92	485.714
199.30	1066.667
199.68	1600.000
200.05	750.000
200.43	-583.333
200.81	200.000
201.18	3500.000
201.56	291.667
201.94	-625.000
202.31	-325.000
202.69	-500.000
203.07	2800.000
203.44	-600.000
203.82	308.333
204.19	680.000
204.57	-1250.000
204.95	-850.000
205.32	-580.000
205.70	650.000
206.08	1100.000
206.45	-1000.000
206.83	433.333
207.20	215.789
207.58	241.667
207.96	740.000
208.33	0.000
208.71	642.857
209.08	760.000
209.46	-3500.000
209.84	-750.000
210.21	700.000
210.59	-680.000
210.96	375.000
211.34	-850.000
211.71	363.636
212.09	975.000
212.46	2250.000
212.84	-533.333
213.22	455.556
213.59	-3700.000
213.97	330.000
214.34	875.000
214.72	1033.333
215.09	1066.667
215.47	-2400.000
215.84	-340.000
216.22	-350.000
216.59	0.000
216.97	0.000
217.34	1350.000
217.72	-1300.000
218.09	1000.000
218.47	562.500
218.84	750.000
219.22	1100.000
219.59	1133.333
219.97	542.857
220.34	333.333
220.72	1300.000
221.09	4000.000
221.47	366.667
221.84	1166.667
222.22	420.000
222.59	316.667
222.97	278.571
223.34	281.250
223.72	-2000.000
224.09	1500.000
224.46	300.000
224.84	-525.000
225.21	266.667
225.59	293.333
225.96	1266.667
226.34	-860.000
226.71	-775.000
227.08	-520.000
227.46	0.000
227.83	-550.000
228.21	-2000.000
228.58	375.000
228.95	1100.000
229.33	366.667
229.70	1075.000
230.08	400.000
230.45	4100.000
230.82	-750.000
231.20	-966.667
231.57	-700.000
231.95	460.000
232.32	308.333
232.69	516.667
233.07	241.667
233.44	-1500.000
233.81	266.667
234.19	177.778
234.56	206.250
234.93	223.529
235.31	230.000
235.68	200.000
236.05	178.571
236.43	170.370
236.80	200.000
237.17	137.931
237.55	121.875
237.92	97.500
238.29	148.485
238.67	93.750
239.04	109.756
239.41	72.917
239.79	92.500
240.16	83.333
240.53	60.656
240.91	68.116
241.28	44.068
241.65	63.636
242.02	57.746
242.40	62.857
242.77	45.055
243.14	43.038
243.51	63.636
243.89	47.664
244.26	35.514
244.63	35.644
245.00	41.284
245.38	27.966
245.75	28.030
246.12	37.778
246.49	33.333
246.87	27.049
247.24	36.000
247.61	30.000
247.98	32.653
248.36	30.303
248.73	35.204
249.10	25.000
249.47	26.500
249.84	27.861
250.22	30.270
250.59	24.500
250.96	24.473
251.33	27.907
251.70	23.661
252.08	21.429
252.45	21.912
252.82	20.913
253.19	21.344
253.56	22.308
253.94	23.551
254.31	20.543
254.68	21.603
255.05	23.793
255.42	20.803
255.79	22.150
256.16	21.695
256.54	23.377
256.91	24.510
257.28	18.395
257.65	16.614
258.02	19.174
258.39	22.636
258.76	22.899
259.14	17.714
259.51	20.700
259.88	20.365
260.25	16.484
260.62	18.904
260.99	15.978
261.36	20.056
261.73	18.883
262.10	18.586
262.47	18.000
262.85	18.400
263.22	22.622
263.59	20.205
263.96	17.544
264.33	15.309
264.70	19.410
265.07	18.537
265.44	18.807
265.81	17.689
266.18	18.535
266.55	16.548
266.92	18.345
267.29	17.325
267.66	17.489
268.03	15.695
268.40	18.816
268.77	17.401
269.14	13.883
269.51	15.590
269.88	20.612
270.25	13.391
270.62	16.738
270.99	17.850
271.36	17.480
271.73	16.352
272.10	14.949
272.47	14.683
272.84	15.369
273.21	16.116
273.58	19.028
273.95	13.963
274.32	18.482
274.69	17.520
275.06	16.393
275.43	16.092
275.80	17.736
276.17	17.463
276.54	16.449
276.91	16.604
277.28	14.964
277.65	17.528
278.02	17.279
278.39	15.288
278.76	16.034
279.13	16.370
279.50	14.364
279.87	14.153
280.23	15.654
280.60	15.693
280.97	15.345
281.34	14.686
281.71	16.174
282.08	16.752
282.45	15.034
282.82	15.552
283.19	14.785
283.56	14.215
283.92	15.472
284.29	16.140
284.66	13.445
285.03	15.589
285.40	15.372
285.77	15.278
286.14	14.396
286.51	13.650
286.87	12.025
287.24	12.613
287.61	14.590
287.98	14.627
288.35	14.815
288.72	14.416
289.08	13.964
289.45	14.939
289.82	14.844
290.19	14.202
290.56	15.429
290.93	14.820
291.29	14.503
291.66	12.712
292.03	14.165
292.40	13.415
292.77	11.421
293.13	14.836
293.50	13.225
293.87	11.789
294.24	13.706
294.60	14.266
294.97	13.986
295.34	14.608
295.71	13.798
296.08	14.267
296.44	14.104
296.81	13.275
297.18	11.407
297.55	12.931
297.91	13.916
298.28	14.010
298.65	13.006
299.02	12.666
299.38	13.429
299.75	12.805
300.12	12.385
300.48	13.700
300.85	13.945
301.22	12.907
301.59	14.033
301.95	12.719
302.32	13.271
302.69	13.122
303.05	13.580
303.42	12.444
303.79	13.976
304.15	13.201
304.52	13.108
304.89	13.539
305.25	14.127
305.62	14.392
305.99	13.370
306.35	13.158
306.72	13.944
307.09	13.458
307.45	13.728
307.82	13.992
308.19	14.021
308.55	13.500
308.92	14.426
309.29	15.779
309.65	14.866
310.02	16.024
310.38	14.756
310.75	15.140
311.12	14.847
311.48	16.892
311.85	15.935
312.22	16.237
312.58	15.160
312.95	16.602
313.31	16.011
313.68	16.792
314.05	17.674
314.41	17.691
314.78	17.803
315.14	18.483
315.51	20.057
315.87	19.343
316.24	20.168
316.61	19.964
316.97	19.908
317.34	20.934
317.70	20.720
318.07	22.420
318.43	23.111
318.80	22.767
319.16	22.902
319.53	23.097
319.89	24.014
320.26	24.860
320.62	26.465
320.99	26.120
321.35	26.345
321.72	29.032
322.08	27.147
322.45	27.975
322.81	27.539
323.18	29.929
323.54	29.965
323.91	30.100
324.27	32.184
324.64	31.142
325.00	32.414
325.37	32.884
325.73	32.462
326.10	35.128
326.46	35.343
326.83	34.720
327.19	36.466
327.56	37.540
327.92	38.934
328.29	38.953
328.65	39.640
329.01	40.034
329.38	40.525
329.74	40.820
330.11	41.442
330.47	42.199
330.84	41.242
331.20	42.386
331.56	42.573
331.93	43.028
332.29	42.092
332.66	43.622
333.02	42.526
333.38	44.154
333.75	44.621
334.11	43.792
334.48	44.444
334.84	42.568
335.20	43.028
335.57	44.584
335.93	43.061
336.29	43.449
336.66	46.827
337.02	44.311
337.38	44.368
337.75	45.524
338.11	45.316
338.47	45.893
338.84	46.486
339.20	45.714
339.56	44.912
339.93	44.983
340.29	43.445
340.65	47.611
341.02	46.742
341.38	45.649
341.74	45.515
342.11	46.411
342.47	45.529
342.83	47.662
343.20	45.998
343.56	46.307
343.92	47.316
344.28	46.970
344.65	46.618
345.01	47.222
345.37	46.875
345.73	46.905
346.10	46.932
346.46	49.123
346.82	46.605
347.19	48.223
347.55	46.760
347.91	46.979
348.27	46.863
348.63	49.367
349.00	48.515
349.36	49.027
349.72	48.394
350.08	50.233
350.45	49.276
350.81	49.388
351.17	49.307
351.53	47.883
351.89	50.427
352.26	48.980
352.62	48.567
352.98	50.613
353.34	51.541
353.70	50.459
354.07	50.769
354.43	50.307
354.79	49.506
355.15	50.919
355.51	51.133
355.87	52.033
356.24	52.040
356.60	51.522
356.96	52.237
357.32	52.072
357.68	50.954
358.04	52.204
358.40	52.474
358.77	52.893
359.13	52.553
359.49	51.297
359.85	53.611
360.21	52.972
360.57	51.606
360.93	54.762
361.29	54.113
361.66	54.362
362.02	51.349
362.38	54.257
362.74	54.565
363.10	54.909
363.46	53.453
363.82	53.927
364.18	54.979
364.54	56.223
364.90	56.225
365.26	55.239
365.62	54.765
365.98	54.714
366.35	56.207
366.71	56.766
367.07	55.973
367.43	56.212
367.79	54.056
368.15	55.563
368.51	57.547
368.87	56.658
369.23	56.618
369.59	56.305
369.95	57.902
370.31	58.385
370.67	56.558
371.03	59.034
371.39	58.172
371.75	58.130
372.11	57.580
372.47	57.397
372.83	59.347
373.19	57.779
373.55	58.076
373.91	58.840
374.27	58.796
374.63	58.983
374.99	58.625
375.35	59.879
375.71	58.311
376.07	59.151
376.42	58.696
376.78	61.400
377.14	59.174
377.50	58.989
377.86	60.794
378.22	60.207
378.58	62.167
378.94	60.893
379.30	60.461
379.66	60.144
380.02	61.114
380.38	58.958
380.74	61.476
381.09	60.923
381.45	59.595
381.81	59.870
382.17	60.440
382.53	60.588
382.89	61.384
383.25	61.279
383.61	60.058
383.97	60.588
384.32	61.965
384.68	63.102
385.04	60.082
385.40	61.329
385.76	60.503
386.12	60.977
386.48	61.398
386.83	61.980
387.19	61.779
387.55	60.777
387.91	61.778
388.27	62.106
388.62	60.270
388.98	60.292
389.34	59.964
389.70	60.495
390.06	61.707
390.42	60.765
390.77	61.425
391.13	61.738
391.49	61.585
391.85	60.123
392.20	61.085
392.56	61.051
392.92	61.033
393.28	60.650
393.64	59.920
393.99	59.988
394.35	60.977
394.71	59.469
395.07	60.036
395.42	61.124
395.78	62.060
396.14	61.988
396.50	61.673
396.85	61.646
397.21	60.650
397.57	59.713
397.92	59.272
398.28	59.735
398.64	62.420
399.00	59.327
399.35	58.400
399.71	59.327
400.07	60.331
400.42	58.985
400.78	60.411
401.14	59.542
401.49	60.253
401.85	60.255
402.21	60.164
402.57	59.904
402.92	61.091
403.28	59.129
403.63	59.682
403.99	60.615
404.35	59.555
404.70	59.953
405.06	58.899
405.42	59.246
405.77	59.427
406.13	58.189
406.49	59.466
406.84	57.812
407.20	58.562
407.55	59.508
407.91	59.732
408.27	59.309
408.62	58.664
408.98	60.201
409.34	58.036
409.69	59.054
410.05	57.603
410.40	57.362
410.76	58.100
411.11	57.583
411.47	58.642
411.83	56.649
412.18	58.756
412.54	58.559
412.89	57.699
413.25	58.780
413.60	58.586
413.96	57.331
414.31	58.087
414.67	58.908
415.03	56.960
415.38	58.107
415.74	57.991
416.09	58.463
416.45	58.112
416.80	59.910
417.16	57.543
417.51	58.981
417.87	59.637
418.22	58.080
418.58	59.108
418.93	57.942
419.29	58.349
419.64	57.965
420.00	58.592
420.35	59.001
420.71	57.818
421.06	58.034
421.42	56.880
421.77	57.912
422.12	58.104
422.48	56.805
422.83	57.645
423.19	57.181
423.54	56.939
423.90	57.191
424.25	58.338
424.61	57.632
424.96	57.933
425.31	58.621
425.67	58.474
426.02	57.151
426.38	57.760
426.73	59.167
427.09	57.355
427.44	59.482
427.79	58.205
428.15	59.753
428.50	58.514
428.85	59.318
429.21	58.779
429.56	57.976
429.92	58.727
430.27	58.684
430.62	57.856
430.98	57.186
431.33	58.014
431.68	56.889
432.04	58.769
432.39	58.672
432.74	59.251
433.10	58.472
433.45	60.080
433.80	61.445
434.16	59.065
434.51	59.701
434.86	58.574
435.22	59.751
435.57	59.336
435.92	61.013
436.28	60.196
436.63	59.860
436.98	60.867
437.34	59.018
437.69	59.239
438.04	59.677
438.39	59.778
438.75	60.134
439.10	58.446
439.45	58.677
439.81	58.184
440.16	59.934
440.51	59.516
440.86	61.368
441.22	59.794
441.57	60.472
441.92	59.279
442.27	59.021
442.63	58.892
442.98	58.728
443.33	60.150
443.68	59.356
444.03	59.472
444.39	58.898
444.74	60.093
445.09	59.663
445.44	58.767
445.79	59.942
446.15	58.895
446.50	59.757
446.85	60.110
447.20	59.055
447.55	60.141
447.91	61.055
448.26	58.573
448.61	61.194
448.96	60.621
449.31	60.671
449.66	60.410
450.02	58.995
450.37	60.244
450.72	60.606
451.07	60.151
451.42	59.751
451.77	60.596
452.12	60.692
452.47	60.632
452.83	60.845
453.18	61.982
453.53	60.272
453.88	60.057
454.23	61.011
454.58	59.557
454.93	60.515
455.28	60.771
455.63	61.761
455.98	60.857
456.34	61.398
456.69	61.768
457.04	59.129
457.39	59.257
457.74	61.881
458.09	59.124
458.44	59.091
458.79	59.257
459.14	58.756
459.49	60.362
459.84	60.217
460.19	58.418
460.54	59.544
460.89	60.075
461.24	58.018
461.59	60.204
461.94	59.515
462.29	60.812
462.64	61.181
462.99	61.292
463.34	60.920
463.69	60.073
464.04	60.737
464.39	60.446
464.74	58.617
465.09	59.257
465.44	59.086
465.79	59.390
466.14	57.393
466.49	59.034
466.84	58.807
467.19	59.578
467.54	59.219
467.89	59.977
468.24	59.236
468.59	58.869
468.94	59.722
469.29	60.049
469.64	59.871
469.99	60.797
470.34	60.215
470.68	61.172
471.03	60.440
471.38	60.993
471.73	60.222
472.08	61.709
472.43	61.453
472.78	61.588
473.13	59.449
473.48	60.880
473.83	59.894
474.17	60.790
474.52	60.130
474.87	59.238
475.22	59.280
475.57	58.080
475.92	58.763
476.27	58.760
476.61	59.517
476.96	58.934
477.31	59.743
477.66	61.031
478.01	59.515
478.36	59.114
478.70	58.114
479.05	59.205
479.40	60.466
479.75	59.930
480.10	59.148
480.45	58.730
480.79	58.433
481.14	58.012
481.49	57.823
481.84	58.135
482.19	58.603
482.53	57.708
482.88	58.826
483.23	58.277
483.58	58.662
483.92	59.232
484.27	57.491
484.62	58.701
484.97	57.694
485.31	55.738
485.66	55.351
486.01	53.144
486.36	52.509
486.70	52.704
487.05	53.624
487.40	54.107
487.75	53.579
488.09	54.886
488.44	55.131
488.79	56.092
489.13	56.887
489.48	57.571
489.83	57.840
490.17	57.267
490.52	58.527
490.87	57.586
491.22	58.954
491.56	58.674
491.91	58.065
492.26	58.441
492.60	59.089
492.95	57.997
493.30	57.188
493.64	59.119
493.99	58.408
494.34	58.494
494.68	58.831
495.03	57.746
495.37	58.532
495.72	58.555
496.07	58.221
496.41	57.341
496.76	56.859
497.11	58.655
497.45	57.036
497.80	58.943
498.14	58.345
498.49	58.449
498.84	58.972
499.18	57.404
499.53	58.751
499.87	57.637
500.22	58.637
500.56	57.846
500.91	58.905
501.26	57.878
501.60	58.333
501.95	58.916
502.29	58.622
502.64	57.212
502.98	57.270
503.33	57.461
503.67	56.865
504.02	56.247
504.36	56.833
504.71	58.893
505.06	58.564
505.40	57.604
505.75	56.829
506.09	57.723
506.44	58.882
506.78	58.885
507.13	58.022
507.47	59.486
507.82	58.200
508.16	59.481
508.51	58.696
508.85	58.547
509.19	60.010
509.54	58.057
509.88	60.318
510.23	58.971
510.57	57.819
510.92	60.040
511.26	59.940
511.61	58.641
511.95	59.632
512.30	59.050
512.64	60.644
512.98	60.584
513.33	60.502
513.67	60.280
514.02	61.247
514.36	59.605
514.70	61.973
515.05	59.883
515.39	61.513
515.74	61.345
516.08	60.784
516.42	63.934
516.77	61.387
517.11	61.333
517.46	61.800
517.80	62.206
518.14	63.887
518.49	62.073
518.83	61.813
519.17	62.119
519.52	62.370
519.86	62.507
520.20	63.068
520.55	62.578
520.89	62.586
521.23	64.778
521.58	64.085
521.92	63.557
522.26	63.507
522.61	66.013
522.95	65.165
523.29	65.029
523.64	64.046
523.98	65.023
524.32	64.533
524.66	64.696
525.01	65.444
525.35	63.936
525.69	65.864
526.04	65.794
526.38	64.803
526.72	65.155
527.06	63.335
527.41	66.264
527.75	66.951
528.09	64.058
528.43	65.589
528.78	65.295
529.12	67.369
529.46	65.342
529.80	64.077
530.15	65.351
530.49	64.440
530.83	63.924
531.17	66.421
531.51	66.891
531.86	64.553
532.20	65.204
532.54	65.599
532.88	67.021
533.22	64.839
533.57	66.138
533.91	63.695
534.25	64.859
534.59	65.263
534.93	64.619
535.27	64.200
535.62	64.586
535.96	65.130
536.30	65.996
536.64	65.839
536.98	66.520
537.32	66.062
537.66	65.115
538.01	66.006
538.35	65.003
538.69	64.684
539.03	65.609
539.37	63.956
539.71	65.247
540.05	65.600
540.39	66.918
540.73	66.203
541.07	64.743
541.42	64.303
541.76	65.351
542.10	65.536
542.44	65.898
542.78	66.205
543.12	65.644
543.46	65.100
543.80	65.915
544.14	65.511
544.48	66.180
544.82	64.771
545.16	64.845
545.50	65.212
545.84	66.604
546.18	66.515
546.52	66.295
546.86	66.860
547.20	67.377
547.54	65.294
547.88	65.085
548.22	65.149
548.56	63.760
548.90	64.116
549.24	66.203
549.58	66.173
549.92	67.845
550.26	68.357
550.60	67.399
550.94	69.064
551.28	67.241
551.62	68.414
551.96	67.568
552.30	65.524
552.64	65.502
552.98	65.335
553.32	65.941
553.66	65.407
554.00	64.994
554.34	66.911
554.68	67.204
555.02	66.802
555.36	66.356
555.69	66.296
556.03	65.223
556.37	64.946
556.71	65.254
557.05	65.007
557.39	66.267
557.73	66.981
558.07	66.935
558.41	67.375
558.75	67.784
559.08	68.763
559.42	68.504
559.76	67.498
560.10	66.896
560.44	65.893
560.78	65.537
561.12	66.243
561.45	65.645
561.79	66.479
562.13	65.824
562.47	65.607
562.81	66.168
563.15	66.257
563.48	63.540
563.82	64.566
564.16	66.480
564.50	62.990
564.84	65.653
565.17	64.231
565.51	66.995
565.85	66.070
566.19	64.167
566.52	64.501
566.86	64.507
567.20	64.494
567.54	63.264
567.88	63.328
568.21	60.409
568.55	61.673
568.89	60.036
569.23	59.103
569.56	59.185
569.90	57.384
570.24	57.172
570.57	56.230
570.91	55.881
571.25	55.724
571.59	54.089
571.92	54.279
572.26	53.396
572.60	54.485
572.93	55.635
573.27	54.250
573.61	53.276
573.95	54.034
574.28	54.023
574.62	53.470
574.96	53.052
575.29	52.683
575.63	52.674
575.97	52.191
576.30	52.949
576.64	52.907
576.98	52.798
577.31	52.833
577.65	52.374
577.98	51.587
578.32	51.267
578.66	51.905
578.99	51.836
579.33	51.917
579.67	52.435
580.00	52.052
580.34	51.475
580.67	51.365
581.01	51.920
581.35	52.077
581.68	51.085
582.02	50.634
582.35	50.778
582.69	51.297
583.02	52.033
583.36	52.352
583.70	52.640
584.03	53.691
584.37	53.433
584.70	53.148
585.04	53.129
585.37	52.029
585.71	52.966
586.04	52.679
586.38	53.196
586.72	53.282
587.05	53.165
587.39	52.642
587.72	53.062
588.06	53.092
588.39	53.378
588.73	53.991
589.06	54.071
589.40	55.055
589.73	55.424
590.07	55.903
590.40	56.063
590.73	57.069
591.07	57.306
591.40	57.246
591.74	57.508
592.07	56.864
592.41	57.674
592.74	55.401
593.08	54.720
593.41	54.518
593.75	54.261
594.08	54.173
594.41	54.708
594.75	54.281
595.08	55.041
595.42	54.872
595.75	55.314
596.09	54.605
596.42	55.572
596.75	56.851
597.09	57.449
597.42	56.898
597.75	55.903
598.09	55.847
598.42	56.344
598.76	55.744
599.09	55.535
599.42	54.360
599.76	54.817
600.09	53.627
600.42	55.249
600.76	54.997
601.09	55.264
601.42	54.805
601.76	55.747
602.09	55.077
602.42	54.418
602.76	56.053
603.09	56.222
603.42	55.780
603.76	54.447
604.09	54.615
604.42	56.158
604.76	56.578
605.09	55.429
605.42	55.628
605.75	54.481
606.09	55.624
606.42	55.242
606.75	55.383
607.09	55.310
607.42	55.323
607.75	54.976
608.08	56.052
608.42	56.040
608.75	55.456
609.08	56.357
609.41	57.045
609.75	57.875
610.08	56.610
610.41	57.093
610.74	56.104
611.07	56.980
611.41	56.858
611.74	57.600
612.07	57.659
612.40	56.969
612.73	57.813
613.07	58.439
613.40	58.596
613.73	59.611
614.06	57.600
614.39	57.576
614.72	57.810
615.06	57.221
615.39	56.683
615.72	56.341
616.05	57.860
616.38	57.230
616.71	57.678
617.05	57.111
617.38	58.989
617.71	59.561
618.04	58.385
618.37	58.644
618.70	59.353
619.03	59.402
619.36	60.553
619.69	61.280
620.03	62.557
620.36	61.400
620.69	60.409
621.02	62.500
621.35	61.605
621.68	62.906
622.01	64.280
622.34	62.272
622.67	61.587
623.00	60.722
623.33	62.146
623.66	60.812
623.99	62.397
624.32	62.127
624.65	61.093
624.99	63.151
625.32	61.991
625.65	62.069
625.98	61.785
626.31	64.021
626.64	63.478
626.97	63.045
627.30	64.674
627.63	64.992
627.96	65.415
628.29	66.584
628.62	65.184
628.95	64.716
629.28	66.608
629.61	65.905
629.94	66.897
630.26	65.858
630.59	67.642
630.92	67.265
631.25	67.362
