SpectraSuite Data File
++++++++++++++++++++++++++++++++++++
Date: Tue May 12 16:59:33 PDT 2015
User: schluterlab
Dark Spectrum Present: Yes
Reference Spectrum Present: Yes
Number of Sampled Component Spectra: 1
Spectrometers: USB2E3373
Integration Time (usec): 3000 (USB2E3373)
Spectra Averaged: 3 (USB2E3373)
Boxcar Smoothing: 0 (USB2E3373)
Correct for Electrical Dark: No (USB2E3373)
Strobe/Lamp Enabled: No (USB2E3373)
Correct for Detector Non-linearity: No (USB2E3373)
Correct for Stray Light: No (USB2E3373)
Number of Pixels in Processed Spectrum: 2048
>>>>>Begin Processed Spectral Data<<<<<
178.53	0.000
178.91	-150.000
179.29	-575.000
179.67	-2900.000
180.04	-166.667
180.42	750.000
180.80	1300.000
181.18	0.000
181.56	-275.000
181.94	0.000
182.31	1266.667
182.69	-3800.000
183.07	571.429
183.45	-2700.000
183.83	-1500.000
184.20	360.000
184.58	442.857
184.96	-269.231
185.34	-166.667
185.72	1450.000
186.09	-975.000
186.47	-3100.000
186.85	1033.333
187.23	800.000
187.61	2300.000
187.98	475.000
188.36	185.714
188.74	316.667
189.12	366.667
189.49	1050.000
189.87	0.000
190.25	562.500
190.63	2900.000
191.00	-283.333
191.38	-3400.000
191.76	-775.000
192.14	612.500
192.51	-2700.000
192.89	1500.000
193.27	1166.667
193.65	-1066.667
194.02	-680.000
194.40	528.571
194.78	-250.000
195.15	260.000
195.53	-2800.000
195.91	-660.000
196.29	4900.000
196.66	262.500
197.04	975.000
197.42	-1550.000
197.79	675.000
198.17	358.333
198.55	0.000
198.92	542.857
199.30	1100.000
199.68	2000.000
200.05	700.000
200.43	-466.667
200.81	216.667
201.18	3200.000
201.56	325.000
201.94	-750.000
202.31	-425.000
202.69	-600.000
203.07	3400.000
203.44	-650.000
203.82	300.000
204.19	620.000
204.57	-1900.000
204.95	-1000.000
205.32	-700.000
205.70	466.667
206.08	650.000
206.45	-1066.667
206.83	455.556
207.20	194.737
207.58	316.667
207.96	780.000
208.33	0.000
208.71	585.714
209.08	500.000
209.46	-1700.000
209.84	-750.000
210.21	700.000
210.59	-380.000
210.96	241.667
211.34	-900.000
211.71	445.455
212.09	875.000
212.46	1850.000
212.84	-266.667
213.22	411.111
213.59	-2400.000
213.97	350.000
214.34	1125.000
214.72	900.000
215.09	1200.000
215.47	-1900.000
215.84	-300.000
216.22	-312.500
216.59	0.000
216.97	0.000
217.34	1300.000
217.72	-1250.000
218.09	1233.333
218.47	362.500
218.84	600.000
219.22	1300.000
219.59	1200.000
219.97	628.571
220.34	388.889
220.72	1600.000
221.09	2800.000
221.47	300.000
221.84	966.667
222.22	420.000
222.59	266.667
222.97	257.143
223.34	231.250
223.72	-1050.000
224.09	1566.667
224.46	315.385
224.84	-800.000
225.21	422.222
225.59	246.667
225.96	1300.000
226.34	-840.000
226.71	-725.000
227.08	-460.000
227.46	0.000
227.83	-500.000
228.21	-1550.000
228.58	283.333
228.95	1100.000
229.33	377.778
229.70	1250.000
230.08	300.000
230.45	3000.000
230.82	-825.000
231.20	-800.000
231.57	-866.667
231.95	600.000
232.32	375.000
232.69	466.667
233.07	300.000
233.44	-1800.000
233.81	286.667
234.19	144.444
234.56	175.000
234.93	170.588
235.31	195.000
235.68	256.250
236.05	153.571
236.43	174.074
236.80	264.286
237.17	155.172
237.55	128.125
237.92	107.500
238.29	133.333
238.67	162.500
239.04	121.951
239.41	100.000
239.79	112.500
240.16	85.417
240.53	75.410
240.91	66.667
241.28	67.797
241.65	74.242
242.02	91.549
242.40	74.286
242.77	71.429
243.14	79.747
243.51	68.687
243.89	62.617
244.26	60.748
244.63	64.356
245.00	58.716
245.38	50.000
245.75	57.576
246.12	59.259
246.49	56.028
246.87	50.000
247.24	54.000
247.61	55.625
247.98	59.184
248.36	59.394
248.73	47.449
249.10	47.619
249.47	46.500
249.84	45.771
250.22	52.432
250.59	44.500
250.96	46.414
251.33	45.581
251.70	47.768
252.08	47.059
252.45	40.637
252.82	44.106
253.19	45.059
253.56	43.462
253.94	40.580
254.31	46.512
254.68	46.341
255.05	44.828
255.42	43.796
255.79	40.717
256.16	44.068
256.54	48.052
256.91	45.098
257.28	44.816
257.65	37.304
258.02	41.298
258.39	43.553
258.76	42.899
259.14	39.714
259.51	42.274
259.88	45.289
260.25	38.187
260.62	40.822
260.99	39.394
261.36	42.340
261.73	40.426
262.10	40.314
262.47	38.500
262.85	41.867
263.22	40.617
263.59	41.688
263.96	39.348
264.33	41.728
264.70	42.752
265.07	40.000
265.44	37.156
265.81	39.858
266.18	38.444
266.55	39.007
266.92	36.913
267.29	36.623
267.66	35.874
268.03	38.789
268.40	37.632
268.77	38.326
269.14	39.913
269.51	39.198
269.88	36.531
270.25	36.069
270.62	40.987
270.99	38.742
271.36	39.024
271.73	39.203
272.10	37.374
272.47	38.690
272.84	37.325
273.21	39.050
273.58	39.879
273.95	37.988
274.32	38.716
274.69	38.583
275.06	35.701
275.43	38.123
275.80	36.415
276.17	36.029
276.54	38.505
276.91	40.672
277.28	36.679
277.65	38.192
278.02	35.662
278.39	37.770
278.76	37.759
279.13	35.053
279.50	36.545
279.87	33.706
280.23	35.727
280.60	36.131
280.97	35.345
281.34	35.479
281.71	35.826
282.08	35.897
282.45	34.797
282.82	35.619
283.19	34.817
283.56	34.876
283.92	34.853
284.29	36.606
284.66	35.294
285.03	34.826
285.40	35.868
285.77	34.568
286.14	34.520
286.51	33.896
286.87	31.962
287.24	32.132
287.61	32.523
287.98	34.030
288.35	32.889
288.72	33.991
289.08	35.135
289.45	32.470
289.82	34.531
290.19	34.553
290.56	33.479
290.93	33.381
291.29	33.564
291.66	34.322
292.03	31.978
292.40	32.520
292.77	31.755
293.13	32.525
293.50	31.579
293.87	30.623
294.24	31.049
294.60	31.629
294.97	32.028
295.34	29.880
295.71	30.355
296.08	32.133
296.44	31.131
296.81	29.901
297.18	28.644
297.55	30.296
297.91	29.680
298.28	29.227
298.65	30.798
299.02	29.916
299.38	29.137
299.75	30.244
300.12	29.587
300.48	31.265
300.85	30.989
301.22	29.186
301.59	28.538
301.95	27.888
302.32	30.035
302.69	29.638
303.05	29.517
303.42	30.157
303.79	29.252
304.15	28.493
304.52	30.127
304.89	29.318
305.25	29.700
305.62	31.130
305.99	28.043
306.35	29.263
306.72	29.448
307.09	30.745
307.45	30.517
307.82	30.761
308.19	31.340
308.55	30.400
308.92	30.618
309.29	31.657
309.65	31.021
310.02	31.034
310.38	29.811
310.75	31.244
311.12	30.939
311.48	32.819
311.85	32.729
312.22	33.524
312.58	33.625
312.95	33.592
313.31	34.457
313.68	33.771
314.05	33.974
314.41	35.382
314.78	36.648
315.14	36.493
315.51	38.221
315.87	36.405
316.24	39.029
316.61	37.690
316.97	38.532
317.34	37.376
317.70	39.508
318.07	40.391
318.43	40.861
318.80	40.981
319.16	41.696
319.53	41.681
319.89	40.771
320.26	45.345
320.62	43.040
320.99	43.947
321.35	46.289
321.72	47.818
322.08	48.846
322.45	47.775
322.81	48.673
323.18	49.112
323.54	50.261
323.91	52.131
324.27	51.017
324.64	52.941
325.00	54.310
325.37	53.120
325.73	54.722
326.10	54.764
326.46	56.235
326.83	55.680
327.19	60.000
327.56	60.144
327.92	62.951
328.29	63.339
328.65	64.127
329.01	63.730
329.38	64.467
329.74	63.450
330.11	64.118
330.47	65.729
330.84	64.797
331.20	65.567
331.56	68.653
331.93	69.119
332.29	67.007
332.66	68.878
333.02	65.808
333.38	69.023
333.75	69.641
334.11	69.295
334.48	70.769
334.84	68.581
335.20	68.606
335.57	67.926
335.93	69.218
336.29	68.740
336.66	73.242
337.02	71.172
337.38	70.421
337.75	71.199
338.11	70.886
338.47	72.058
338.84	69.348
339.20	70.130
339.56	68.293
339.93	69.900
340.29	69.580
340.65	70.075
341.02	70.153
341.38	70.443
341.74	71.262
342.11	70.701
342.47	70.550
342.83	70.878
343.20	70.170
343.56	69.182
343.92	70.851
344.28	70.096
344.65	72.453
345.01	69.603
345.37	70.032
345.73	71.270
346.10	69.402
346.46	72.329
346.82	71.451
347.19	70.866
347.55	70.023
347.91	68.051
348.27	70.411
348.63	70.807
349.00	70.602
349.36	71.907
349.72	70.489
350.08	72.593
350.45	70.982
350.81	71.330
351.17	70.185
351.53	70.362
351.89	71.639
352.26	72.411
352.62	71.116
352.98	72.163
353.34	72.265
353.70	70.336
354.07	71.231
354.43	71.736
354.79	70.008
355.15	71.899
355.51	73.187
355.87	71.988
356.24	71.747
356.60	71.385
356.96	71.721
357.32	72.494
357.68	70.705
358.04	71.809
358.40	71.514
358.77	73.103
359.13	71.471
359.49	72.202
359.85	72.077
360.21	72.140
360.57	72.263
360.93	72.222
361.29	71.717
361.66	73.453
362.02	70.384
362.38	73.160
362.74	71.267
363.10	71.529
363.46	70.097
363.82	70.617
364.18	71.622
364.54	72.747
364.90	71.486
365.26	72.866
365.62	72.030
365.98	72.333
366.35	72.552
366.71	72.935
367.07	71.809
367.43	72.599
367.79	71.676
368.15	72.049
368.51	72.364
368.87	73.981
369.23	72.003
369.59	72.758
369.95	73.147
370.31	71.663
370.67	71.339
371.03	71.218
371.39	73.823
371.75	74.320
372.11	72.876
372.47	72.603
372.83	72.672
373.19	71.556
373.55	72.715
373.91	73.204
374.27	70.899
374.63	73.085
374.99	72.978
375.35	73.858
375.71	73.087
376.07	72.546
376.42	71.292
376.78	72.961
377.14	73.001
377.50	71.536
377.86	72.325
378.22	72.943
378.58	74.213
378.94	72.842
379.30	72.650
379.66	73.209
380.02	72.903
380.38	73.653
380.74	73.241
381.09	72.722
381.45	71.214
381.81	72.518
382.17	73.810
382.53	73.545
382.89	72.975
383.25	72.824
383.61	71.643
383.97	71.386
384.32	73.357
384.68	72.014
385.04	72.392
385.40	72.835
385.76	73.201
386.12	73.098
386.48	73.131
386.83	73.961
387.19	73.027
387.55	72.203
387.91	71.824
388.27	74.301
388.62	73.181
388.98	70.962
389.34	71.386
389.70	71.816
390.06	72.927
390.42	72.116
390.77	73.403
391.13	71.454
391.49	72.777
391.85	73.415
392.20	71.752
392.56	71.207
392.92	71.140
393.28	71.244
393.64	72.133
393.99	71.903
394.35	72.337
394.71	71.773
395.07	72.689
395.42	72.190
395.78	72.116
396.14	72.651
396.50	70.758
396.85	71.159
397.21	72.202
397.57	71.369
397.92	70.133
398.28	72.311
398.64	71.670
399.00	70.657
399.35	70.853
399.71	71.523
400.07	71.575
400.42	72.179
400.78	71.906
401.14	71.756
401.49	70.968
401.85	70.568
402.21	70.006
402.57	71.574
402.92	69.576
403.28	71.301
403.63	69.806
403.99	71.110
404.35	71.043
404.70	72.239
405.06	68.782
405.42	70.497
405.77	70.507
406.13	68.275
406.49	69.585
406.84	68.754
407.20	70.548
407.55	70.646
407.91	70.900
408.27	70.406
408.62	70.313
408.98	70.313
409.34	69.667
409.69	69.571
410.05	70.006
410.40	70.436
410.76	68.517
411.11	69.372
411.47	69.012
411.83	68.834
412.18	68.720
412.54	69.309
412.89	68.142
413.25	70.068
413.60	68.984
413.96	70.018
414.31	69.835
414.67	69.957
415.03	70.945
415.38	70.221
415.74	71.257
416.09	69.644
416.45	70.976
416.80	70.558
417.16	69.128
417.51	72.229
417.87	68.523
418.22	69.016
418.58	71.656
418.93	69.899
419.29	68.823
419.64	69.958
420.00	69.749
420.35	70.325
420.71	68.961
421.06	71.513
421.42	69.775
421.77	70.683
422.12	70.783
422.48	69.029
422.83	70.871
423.19	70.680
423.54	69.720
423.90	70.215
424.25	70.831
424.61	70.052
424.96	70.864
425.31	70.553
425.67	72.840
426.02	70.836
426.38	71.179
426.73	70.619
427.09	71.945
427.44	70.174
427.79	72.899
428.15	71.715
428.50	72.171
428.85	70.723
429.21	71.475
429.56	70.588
429.92	71.706
430.27	71.021
430.62	69.848
430.98	70.858
431.33	71.270
431.68	69.580
432.04	71.443
432.39	71.844
432.74	72.365
433.10	71.484
433.45	72.832
433.80	73.690
434.16	71.571
434.51	71.465
434.86	72.401
435.22	72.447
435.57	72.910
435.92	73.136
436.28	72.120
436.63	72.825
436.98	73.367
437.34	71.062
437.69	73.404
438.04	71.935
438.39	71.629
438.75	71.492
439.10	72.963
439.45	72.244
439.81	73.048
440.16	72.647
440.51	72.523
440.86	75.157
441.22	71.861
441.57	74.383
441.92	73.396
442.27	72.887
442.63	73.577
442.98	72.791
443.33	73.433
443.68	73.541
444.03	72.290
444.39	73.258
444.74	73.240
445.09	71.880
445.44	74.814
445.79	72.758
446.15	72.842
446.50	74.262
446.85	73.855
447.20	73.831
447.55	74.279
447.91	75.013
448.26	73.376
448.61	74.019
448.96	74.891
449.31	74.367
449.66	73.920
450.02	75.203
450.37	72.959
450.72	76.419
451.07	73.822
451.42	73.800
451.77	74.112
452.12	73.001
452.47	76.124
452.83	75.380
453.18	74.054
453.53	75.607
453.88	75.543
454.23	73.620
454.58	72.203
454.93	74.065
455.28	75.031
455.63	76.478
455.98	73.378
456.34	75.319
456.69	76.707
457.04	74.702
457.39	75.200
457.74	75.901
458.09	74.453
458.44	73.713
458.79	73.475
459.14	74.632
459.49	74.575
459.84	75.815
460.19	74.124
460.54	74.644
460.89	75.320
461.24	73.139
461.59	74.603
461.94	73.995
462.29	75.000
462.64	74.686
462.99	74.728
463.34	75.243
463.69	74.894
464.04	75.360
464.39	74.871
464.74	74.033
465.09	74.521
465.44	74.864
465.79	75.122
466.14	73.821
466.49	74.010
466.84	73.746
467.19	74.692
467.54	74.835
467.89	74.883
468.24	75.912
468.59	74.167
468.94	75.242
469.29	74.160
469.64	74.212
469.99	74.936
470.34	74.700
470.68	76.000
471.03	75.183
471.38	75.629
471.73	75.049
472.08	76.712
472.43	77.095
472.78	74.584
473.13	74.969
473.48	74.878
473.83	75.029
474.17	75.502
474.52	73.519
474.87	75.270
475.22	74.015
475.57	73.242
475.92	74.859
476.27	74.810
476.61	74.584
476.96	73.981
477.31	76.658
477.66	75.523
478.01	74.368
478.36	75.129
478.70	74.392
479.05	75.471
479.40	74.206
479.75	74.876
480.10	74.201
480.45	74.323
480.79	74.562
481.14	76.082
481.49	74.016
481.84	74.626
482.19	74.367
482.53	73.913
482.88	75.493
483.23	74.605
483.58	74.776
483.92	76.143
484.27	74.101
484.62	74.194
484.97	73.081
485.31	72.899
485.66	73.405
486.01	70.982
486.36	70.421
486.70	70.804
487.05	70.802
487.40	70.394
487.75	71.136
488.09	71.364
488.44	71.479
488.79	72.926
489.13	73.460
489.48	74.271
489.83	75.188
490.17	72.750
490.52	75.065
490.87	73.276
491.22	74.246
491.56	74.264
491.91	73.208
492.26	74.343
492.60	75.672
492.95	74.082
493.30	74.113
493.64	74.573
493.99	74.061
494.34	74.361
494.68	74.413
495.03	74.585
495.37	74.606
495.72	74.545
496.07	74.708
496.41	73.458
496.76	73.238
497.11	74.464
497.45	73.915
497.80	74.791
498.14	73.925
498.49	74.188
498.84	75.888
499.18	73.995
499.53	74.828
499.87	74.169
500.22	74.896
500.56	74.884
500.91	74.536
501.26	74.828
501.60	74.545
501.95	73.656
502.29	73.333
502.64	72.872
502.98	72.921
503.33	74.521
503.67	73.687
504.02	72.682
504.36	72.715
504.71	75.024
505.06	73.862
505.40	73.514
505.75	74.462
506.09	73.682
506.44	72.415
506.78	74.811
507.13	74.794
507.47	73.605
507.82	74.842
508.16	75.453
508.51	74.444
508.85	73.694
509.19	74.694
509.54	74.170
509.88	74.441
510.23	74.020
510.57	72.925
510.92	74.675
511.26	74.247
511.61	72.920
511.95	71.926
512.30	74.000
512.64	73.832
512.98	73.193
513.33	73.668
513.67	75.142
514.02	74.442
514.36	74.247
514.70	75.413
515.05	74.054
515.39	76.316
515.74	75.834
516.08	74.292
516.42	76.612
516.77	74.560
517.11	74.987
517.46	75.054
517.80	75.969
518.14	75.155
518.49	74.862
518.83	73.846
519.17	74.598
519.52	75.478
519.86	74.823
520.20	74.521
520.55	74.279
520.89	73.908
521.23	75.759
521.58	74.010
521.92	74.286
522.26	75.237
522.61	75.995
522.95	76.697
523.29	74.152
523.64	73.410
523.98	75.059
524.32	75.144
524.66	75.594
525.01	75.030
525.35	74.249
525.69	75.075
526.04	74.836
526.38	75.044
526.72	73.866
527.06	74.985
527.41	74.970
527.75	75.411
528.09	73.329
528.43	75.595
528.78	75.492
529.12	75.918
529.46	74.109
529.80	73.423
530.15	74.072
530.49	73.165
530.83	74.040
531.17	74.416
531.51	73.881
531.86	72.766
532.20	73.239
532.54	74.011
532.88	75.078
533.22	75.320
533.57	75.107
533.91	71.737
534.25	72.187
534.59	73.099
534.93	70.592
535.27	71.770
535.62	72.637
535.96	72.872
536.30	75.015
536.64	72.795
536.98	72.939
537.32	73.250
537.66	73.023
538.01	71.765
538.35	74.236
538.69	72.269
539.03	72.077
539.37	71.541
539.71	72.593
540.05	71.754
540.39	73.019
540.73	72.658
541.07	72.836
541.42	71.331
541.76	71.393
542.10	71.763
542.44	72.132
542.78	72.624
543.12	71.043
543.46	71.554
543.80	72.619
544.14	72.508
544.48	73.662
544.82	72.722
545.16	70.795
545.50	73.510
545.84	73.548
546.18	74.512
546.52	72.984
546.86	71.696
547.20	71.253
547.54	71.058
547.88	70.560
548.22	71.403
548.56	70.713
548.90	68.802
549.24	71.257
549.58	69.523
549.92	71.251
550.26	73.360
550.60	72.588
550.94	73.134
551.28	72.552
551.62	72.483
551.96	73.176
552.30	70.798
552.64	72.168
552.98	71.134
553.32	68.950
553.66	71.401
554.00	70.528
554.34	72.503
554.68	72.110
555.02	71.690
555.36	71.277
555.69	71.270
556.03	70.637
556.37	71.064
556.71	71.056
557.05	69.856
557.39	71.133
557.73	69.811
558.07	70.758
558.41	71.761
558.75	72.777
559.08	72.981
559.42	73.372
559.76	72.701
560.10	71.025
560.44	70.737
560.78	70.908
561.12	71.011
561.45	70.338
561.79	70.911
562.13	70.625
562.47	70.993
562.81	69.941
563.15	70.459
563.48	68.758
563.82	71.179
564.16	71.206
564.50	67.993
564.84	69.301
565.17	69.578
565.51	71.736
565.85	71.499
566.19	70.119
566.52	69.374
566.86	70.520
567.20	68.933
567.54	69.596
567.88	70.005
568.21	67.099
568.55	68.093
568.89	66.743
569.23	67.299
569.56	67.212
569.90	65.217
570.24	66.065
570.57	65.672
570.91	64.493
571.25	64.413
571.59	63.226
571.92	63.240
572.26	62.938
572.60	63.677
572.93	65.124
573.27	63.957
573.61	64.104
573.95	63.272
574.28	64.033
574.62	63.135
574.96	62.681
575.29	62.259
575.63	62.497
575.97	62.707
576.30	61.731
576.64	62.613
576.98	62.178
577.31	62.934
577.65	62.557
577.98	61.766
578.32	60.991
578.66	62.131
578.99	62.429
579.33	62.607
579.67	61.643
580.00	61.385
580.34	62.003
580.67	61.812
581.01	61.773
581.35	61.201
581.68	61.067
582.02	61.754
582.35	61.001
582.69	61.518
583.02	61.748
583.36	61.633
583.70	62.117
584.03	62.640
584.37	62.746
584.70	61.931
585.04	61.575
585.37	61.790
585.71	62.157
586.04	61.632
586.38	61.695
586.72	61.364
587.05	61.915
587.39	61.466
587.72	61.747
588.06	62.503
588.39	62.282
588.73	62.408
589.06	63.292
589.40	63.537
589.73	63.291
590.07	64.139
590.40	63.868
590.73	64.745
591.07	64.213
591.40	63.673
591.74	63.231
592.07	63.228
592.41	62.830
592.74	63.310
593.08	62.402
593.41	61.640
593.75	61.259
594.08	62.150
594.41	62.463
594.75	62.979
595.08	62.346
595.42	61.850
595.75	62.521
596.09	62.426
596.42	62.272
596.75	63.542
597.09	63.269
597.42	63.347
597.75	62.312
598.09	62.536
598.42	63.321
598.76	61.642
599.09	63.038
599.42	62.180
599.76	62.008
600.09	61.017
600.42	61.222
600.76	61.421
601.09	61.754
601.42	61.140
601.76	62.442
602.09	62.104
602.42	60.665
602.76	61.556
603.09	62.481
603.42	61.101
603.76	61.497
604.09	60.369
604.42	61.657
604.76	62.110
605.09	62.163
605.42	61.357
605.75	60.758
606.09	61.630
606.42	60.804
606.75	61.796
607.09	60.600
607.42	61.551
607.75	60.589
608.08	60.561
608.42	61.409
608.75	61.489
609.08	60.933
609.41	61.682
609.75	62.683
610.08	61.826
610.41	60.562
610.74	60.606
611.07	62.938
611.41	62.141
611.74	62.428
612.07	62.476
612.40	61.988
612.73	63.055
613.07	63.102
613.40	63.008
613.73	63.005
614.06	61.500
614.39	62.424
614.72	61.929
615.06	61.177
615.39	60.990
615.72	60.552
616.05	62.330
616.38	61.136
616.71	62.344
617.05	61.614
617.38	62.135
617.71	63.611
618.04	62.086
618.37	62.535
618.70	61.894
619.03	62.759
619.36	62.940
619.69	63.918
620.03	64.775
620.36	62.235
620.69	62.963
621.02	64.810
621.35	64.971
621.68	64.602
622.01	65.830
622.34	64.385
622.67	64.115
623.00	63.717
623.33	63.293
623.66	63.074
623.99	64.315
624.32	63.889
624.65	63.002
624.99	64.909
625.32	61.857
625.65	62.345
625.98	62.204
626.31	64.911
626.64	64.465
626.97	63.581
627.30	63.354
627.63	64.600
627.96	64.476
628.29	64.769
628.62	64.927
628.95	65.780
629.28	66.608
629.61	66.081
629.94	64.304
630.26	64.038
630.59	64.805
630.92	64.664
