SpectraSuite Data File
++++++++++++++++++++++++++++++++++++
Date: Tue May 12 16:55:17 PDT 2015
User: schluterlab
Dark Spectrum Present: Yes
Reference Spectrum Present: Yes
Number of Sampled Component Spectra: 1
Spectrometers: USB2E3373
Integration Time (usec): 3000 (USB2E3373)
Spectra Averaged: 3 (USB2E3373)
Boxcar Smoothing: 0 (USB2E3373)
Correct for Electrical Dark: No (USB2E3373)
Strobe/Lamp Enabled: No (USB2E3373)
Correct for Detector Non-linearity: No (USB2E3373)
Correct for Stray Light: No (USB2E3373)
Number of Pixels in Processed Spectrum: 2048
>>>>>Begin Processed Spectral Data<<<<<
178.53	0.000
178.91	-216.667
179.29	-650.000
179.67	-3600.000
180.04	-173.333
180.42	700.000
180.80	1550.000
181.18	0.000
181.56	-350.000
181.94	0.000
182.31	1233.333
182.69	-3400.000
183.07	642.857
183.45	-3100.000
183.83	-1850.000
184.20	400.000
184.58	457.143
184.96	-292.308
185.34	-150.000
185.72	1450.000
186.09	-825.000
186.47	-3800.000
186.85	900.000
187.23	600.000
187.61	900.000
187.98	450.000
188.36	221.429
188.74	375.000
189.12	358.333
189.49	925.000
189.87	0.000
190.25	550.000
190.63	2300.000
191.00	-216.667
191.38	-4100.000
191.76	-650.000
192.14	512.500
192.51	-2600.000
192.89	1950.000
193.27	700.000
193.65	-1266.667
194.02	-660.000
194.40	600.000
194.78	-200.000
195.15	213.333
195.53	-2700.000
195.91	-420.000
196.29	3800.000
196.66	243.750
197.04	925.000
197.42	-1450.000
197.79	825.000
198.17	266.667
198.55	0.000
198.92	514.286
199.30	1166.667
199.68	1900.000
200.05	700.000
200.43	-566.667
200.81	161.111
201.18	2600.000
201.56	266.667
201.94	-850.000
202.31	-187.500
202.69	-660.000
203.07	2100.000
203.44	-400.000
203.82	275.000
204.19	540.000
204.57	-900.000
204.95	-550.000
205.32	-400.000
205.70	500.000
206.08	600.000
206.45	-733.333
206.83	322.222
207.20	136.842
207.58	250.000
207.96	580.000
208.33	0.000
208.71	428.571
209.08	760.000
209.46	-2700.000
209.84	-675.000
210.21	880.000
210.59	-580.000
210.96	291.667
211.34	-700.000
211.71	372.727
212.09	700.000
212.46	1900.000
212.84	-316.667
213.22	400.000
213.59	-3100.000
213.97	280.000
214.34	900.000
214.72	1033.333
215.09	1033.333
215.47	-2300.000
215.84	-310.000
216.22	-462.500
216.59	0.000
216.97	0.000
217.34	1450.000
217.72	-1400.000
218.09	1300.000
218.47	437.500
218.84	875.000
219.22	1266.667
219.59	1000.000
219.97	500.000
220.34	400.000
220.72	1400.000
221.09	4200.000
221.47	283.333
221.84	900.000
222.22	330.000
222.59	205.556
222.97	271.429
223.34	206.250
223.72	-1350.000
224.09	1200.000
224.46	207.692
224.84	-950.000
225.21	411.111
225.59	320.000
225.96	1266.667
226.34	-700.000
226.71	-725.000
227.08	-620.000
227.46	0.000
227.83	-550.000
228.21	-1200.000
228.58	325.000
228.95	850.000
229.33	311.111
229.70	1075.000
230.08	284.615
230.45	3100.000
230.82	-875.000
231.20	-966.667
231.57	-700.000
231.95	600.000
232.32	375.000
232.69	550.000
233.07	233.333
233.44	-1400.000
233.81	240.000
234.19	174.074
234.56	118.750
234.93	176.471
235.31	195.000
235.68	225.000
236.05	146.429
236.43	140.741
236.80	235.714
237.17	144.828
237.55	115.625
237.92	110.000
238.29	112.121
238.67	125.000
239.04	112.195
239.41	85.417
239.79	110.000
240.16	60.417
240.53	62.295
240.91	59.420
241.28	71.186
241.65	65.152
242.02	67.606
242.40	68.571
242.77	59.341
243.14	63.291
243.51	68.687
243.89	57.009
244.26	50.467
244.63	57.426
245.00	47.706
245.38	39.831
245.75	42.424
246.12	49.630
246.49	34.752
246.87	39.344
247.24	42.667
247.61	43.125
247.98	41.497
248.36	41.212
248.73	40.816
249.10	32.738
249.47	39.500
249.84	33.333
250.22	38.378
250.59	34.000
250.96	30.802
251.33	33.023
251.70	32.589
252.08	36.555
252.45	33.466
252.82	28.137
253.19	33.597
253.56	31.923
253.94	31.159
254.31	34.109
254.68	33.449
255.05	32.069
255.42	33.942
255.79	32.573
256.16	29.153
256.54	34.416
256.91	29.412
257.28	31.104
257.65	27.273
258.02	28.024
258.39	32.951
258.76	29.855
259.14	26.286
259.51	30.904
259.88	31.003
260.25	29.396
260.62	29.589
260.99	25.344
261.36	27.577
261.73	29.255
262.10	29.581
262.47	29.250
262.85	23.733
263.22	30.591
263.59	26.598
263.96	28.321
264.33	26.173
264.70	27.273
265.07	28.780
265.44	29.587
265.81	26.887
266.18	28.833
266.55	27.187
266.92	27.517
267.29	30.263
267.66	28.475
268.03	24.888
268.40	27.696
268.77	30.176
269.14	26.464
269.51	25.167
269.88	26.122
270.25	22.678
270.62	24.678
270.99	27.992
271.36	28.455
271.73	25.577
272.10	27.677
272.47	25.000
272.84	26.547
273.21	28.099
273.58	26.721
273.95	26.078
274.32	24.708
274.69	28.543
275.06	28.051
275.43	25.670
275.80	25.283
276.17	26.471
276.54	25.607
276.91	28.545
277.28	26.095
277.65	26.384
278.02	26.471
278.39	27.698
278.76	27.414
279.13	25.623
279.50	26.364
279.87	23.836
280.23	21.731
280.60	23.905
280.97	26.724
281.34	24.752
281.71	26.087
282.08	27.179
282.45	26.014
282.82	25.753
283.19	26.391
283.56	26.612
283.92	25.081
284.29	25.624
284.66	25.042
285.03	26.036
285.40	24.959
285.77	23.765
286.14	26.006
286.51	24.233
286.87	21.835
287.24	22.372
287.61	24.164
287.98	24.478
288.35	24.296
288.72	24.127
289.08	22.823
289.45	24.238
289.82	24.844
290.19	25.329
290.56	25.619
290.93	22.446
291.29	24.448
291.66	23.164
292.03	22.300
292.40	23.442
292.77	23.677
293.13	24.536
293.50	24.831
293.87	21.680
294.24	23.497
294.60	22.073
294.97	26.014
295.34	23.772
295.71	24.310
296.08	26.000
296.44	23.888
296.81	23.201
297.18	21.293
297.55	24.384
297.91	22.906
298.28	24.275
298.65	24.417
299.02	23.040
299.38	23.261
299.75	23.659
300.12	23.280
300.48	24.473
300.85	24.315
301.22	22.442
301.59	22.759
301.95	22.754
302.32	23.749
302.69	23.643
303.05	25.028
303.42	22.309
303.79	24.810
304.15	23.652
304.52	23.573
304.89	24.200
305.25	23.471
305.62	25.053
305.99	23.261
306.35	24.000
306.72	24.037
307.09	24.327
307.45	25.132
307.82	25.309
308.19	24.021
308.55	23.400
308.92	24.338
309.29	26.036
309.65	25.273
310.02	26.065
310.38	25.125
310.75	25.169
311.12	25.575
311.48	27.799
311.85	25.668
312.22	27.030
312.58	26.336
312.95	26.699
313.31	27.434
313.68	26.735
314.05	27.930
314.41	27.467
314.78	28.504
315.14	28.815
315.51	27.342
315.87	27.464
316.24	28.478
316.61	28.827
316.97	26.881
317.34	28.751
317.70	29.763
318.07	29.626
318.43	29.350
318.80	29.335
319.16	29.895
319.53	30.531
319.89	29.928
320.26	32.682
320.62	31.960
320.99	30.791
321.35	32.189
321.72	33.112
322.08	31.948
322.45	32.062
322.81	32.479
323.18	32.504
323.54	32.840
323.91	34.633
324.27	33.156
324.64	32.526
325.00	33.276
325.37	33.727
325.73	33.221
326.10	33.720
326.46	34.269
326.83	33.600
327.19	34.056
327.56	34.904
327.92	35.820
328.29	34.779
328.65	35.873
329.01	34.987
329.38	36.125
329.74	34.159
330.11	35.274
330.47	35.124
330.84	33.822
331.20	35.618
331.56	35.579
331.93	35.586
332.29	34.014
332.66	35.034
333.02	33.076
333.38	34.904
333.75	34.779
334.11	34.480
334.48	35.470
334.84	33.024
335.20	34.902
335.57	35.264
335.93	34.483
336.29	33.665
336.66	35.678
337.02	33.961
337.38	34.050
337.75	34.882
338.11	35.527
338.47	34.378
338.84	33.785
339.20	34.026
339.56	34.146
339.93	33.528
340.29	32.941
340.65	33.864
341.02	34.111
341.38	33.744
341.74	34.053
342.11	33.139
342.47	32.978
342.83	34.044
343.20	33.145
343.56	32.010
343.92	33.443
344.28	33.094
344.65	33.496
345.01	32.143
345.37	32.772
345.73	32.540
346.10	31.554
346.46	33.573
346.82	31.867
347.19	33.230
347.55	32.319
347.91	32.477
348.27	32.301
348.63	34.019
349.00	32.673
349.36	32.529
349.72	32.875
350.08	33.307
350.45	32.445
350.81	31.804
351.17	32.280
351.53	31.948
351.89	32.401
352.26	31.973
352.62	31.448
352.98	31.595
353.34	32.820
353.70	31.116
354.07	32.231
354.43	30.722
354.79	30.448
355.15	31.930
355.51	31.722
355.87	31.551
356.24	32.948
356.60	31.735
356.96	30.629
357.32	32.253
357.68	31.424
358.04	31.687
358.40	30.660
358.77	31.555
359.13	31.306
359.49	31.579
359.85	30.752
360.21	30.015
360.57	31.022
360.93	30.447
361.29	30.375
361.66	31.618
362.02	30.114
362.38	30.592
362.74	31.281
363.10	30.154
363.46	30.110
363.82	30.014
364.18	30.370
364.54	31.044
364.90	30.656
365.26	30.951
365.62	30.387
365.98	30.695
366.35	29.931
366.71	30.465
367.07	29.625
367.43	29.953
367.79	29.987
368.15	28.833
368.51	30.806
368.87	30.163
369.23	30.353
369.59	29.602
369.95	29.580
370.31	29.843
370.67	29.632
371.03	30.462
371.39	29.848
371.75	30.495
372.11	29.164
372.47	30.137
372.83	29.232
373.19	29.267
373.55	30.172
373.91	28.522
374.27	28.902
374.63	29.356
374.99	29.784
375.35	30.175
375.71	29.420
376.07	29.576
376.42	28.261
376.78	29.223
377.14	28.702
377.50	28.340
377.86	28.635
378.22	28.702
378.58	29.298
378.94	29.028
379.30	28.017
379.66	29.380
380.02	29.853
380.38	27.225
380.74	29.239
381.09	28.738
381.45	27.688
381.81	28.546
382.17	28.144
382.53	27.954
382.89	28.504
383.25	27.886
383.61	27.666
383.97	27.894
384.32	26.884
384.68	28.461
385.04	27.550
385.40	27.106
385.76	28.204
386.12	28.386
386.48	27.356
386.83	27.139
387.19	27.680
387.55	27.856
387.91	27.367
388.27	27.424
388.62	27.347
388.98	26.939
389.34	26.770
389.70	26.533
390.06	26.768
390.42	26.774
390.77	26.413
391.13	26.916
391.49	26.860
391.85	27.446
392.20	26.162
392.56	27.300
392.92	25.884
393.28	25.504
393.64	26.376
393.99	26.319
394.35	26.663
394.71	26.357
395.07	26.338
395.42	25.820
395.78	27.020
396.14	26.627
396.50	27.256
396.85	26.646
397.21	25.632
397.57	26.420
397.92	25.014
398.28	25.207
398.64	26.585
399.00	25.281
399.35	26.355
399.71	24.779
400.07	25.400
400.42	25.791
400.78	25.396
401.14	24.662
401.49	25.173
401.85	25.377
402.21	24.487
402.57	25.254
402.92	24.242
403.28	24.165
403.63	24.073
403.99	24.548
404.35	25.909
404.70	24.572
405.06	24.537
405.42	24.117
405.77	24.256
406.13	24.295
406.49	23.536
406.84	23.407
407.20	24.486
407.55	23.138
407.91	24.633
408.27	23.893
408.62	23.359
408.98	22.827
409.34	23.729
409.69	23.460
410.05	23.077
410.40	22.556
410.76	22.954
411.11	22.749
411.47	24.012
411.83	23.257
412.18	23.068
412.54	24.084
412.89	23.304
413.25	23.603
413.60	23.306
413.96	22.501
414.31	23.081
414.67	24.146
415.03	22.478
415.38	23.722
415.74	23.689
416.09	23.548
416.45	24.370
416.80	23.220
417.16	23.425
417.51	23.758
417.87	24.030
418.22	23.208
418.58	24.204
418.93	23.200
419.29	23.229
419.64	24.167
420.00	23.508
420.35	23.635
420.71	23.512
421.06	22.955
421.42	23.777
421.77	23.098
422.12	23.649
422.48	23.421
422.83	23.772
423.19	22.948
423.54	23.533
423.90	23.499
424.25	24.106
424.61	23.970
424.96	23.546
425.31	23.700
425.67	23.737
426.02	23.556
426.38	23.162
426.73	23.829
427.09	24.496
427.44	23.241
427.79	23.957
428.15	25.162
428.50	24.629
428.85	24.515
429.21	23.339
429.56	23.629
429.92	24.267
430.27	23.609
430.62	24.082
430.98	23.553
431.33	22.883
431.68	22.222
432.04	22.452
432.39	23.655
432.74	24.824
433.10	24.363
433.45	24.641
433.80	24.766
434.16	23.542
434.51	23.736
434.86	25.041
435.22	23.771
435.57	23.948
435.92	24.530
436.28	24.712
436.63	24.419
436.98	24.493
437.34	24.943
437.69	23.348
438.04	24.946
438.39	24.460
438.75	23.998
439.10	24.447
439.45	23.799
439.81	24.581
440.16	24.656
440.51	24.381
440.86	25.584
441.22	23.647
441.57	25.249
441.92	23.939
442.27	24.227
442.63	24.492
442.98	24.946
443.33	24.156
443.68	24.296
444.03	23.751
444.39	24.953
444.74	24.482
445.09	24.539
445.44	24.655
445.79	23.928
446.15	25.684
446.50	24.473
446.85	24.153
447.20	24.129
447.55	24.850
447.91	24.614
448.26	24.601
448.61	25.097
448.96	25.272
449.31	24.752
449.66	26.190
450.02	24.311
450.37	24.931
450.72	24.628
451.07	24.782
451.42	24.778
451.77	24.800
452.12	25.695
452.47	25.273
452.83	25.577
453.18	24.745
453.53	25.044
453.88	24.000
454.23	24.869
454.58	25.058
454.93	24.464
455.28	24.908
455.63	24.586
455.98	25.155
456.34	25.289
456.69	25.610
457.04	24.940
457.39	24.000
457.74	25.282
458.09	24.256
458.44	24.261
458.79	24.191
459.14	24.223
459.49	25.085
459.84	25.109
460.19	24.746
460.54	25.128
460.89	24.680
461.24	25.258
461.59	24.660
461.94	24.291
462.29	24.600
462.64	25.440
462.99	25.656
463.34	24.757
463.69	24.743
464.04	25.446
464.39	23.812
464.74	23.740
465.09	24.840
465.44	24.483
465.79	24.388
466.14	24.589
466.49	23.332
466.84	24.805
467.19	25.308
467.54	24.204
467.89	24.296
468.24	23.683
468.59	24.464
468.94	24.517
469.29	24.740
469.64	24.952
469.99	24.936
470.34	24.984
470.68	25.517
471.03	25.083
471.38	24.371
471.73	25.343
472.08	26.027
472.43	24.271
472.78	25.160
473.13	24.468
473.48	24.389
473.83	24.146
474.17	24.681
474.52	24.941
474.87	23.991
475.22	24.215
475.57	23.610
475.92	23.454
476.27	23.558
476.61	23.700
476.96	25.026
477.31	24.113
477.66	24.047
478.01	23.259
478.36	24.511
478.70	23.921
479.05	23.483
479.40	23.958
479.75	23.784
480.10	24.056
480.45	23.203
480.79	23.410
481.14	22.920
481.49	23.422
481.84	23.087
482.19	23.450
482.53	23.979
482.88	23.746
483.23	23.049
483.58	23.609
483.92	23.766
484.27	23.031
484.62	23.514
484.97	23.335
485.31	22.497
485.66	22.088
486.01	21.540
486.36	21.361
486.70	21.470
487.05	21.807
487.40	22.056
487.75	21.395
488.09	21.591
488.44	21.957
488.79	22.215
489.13	22.359
489.48	22.653
489.83	22.894
490.17	22.915
490.52	22.997
490.87	23.664
491.22	23.449
491.56	22.881
491.91	23.073
492.26	23.207
492.60	23.235
492.95	23.244
493.30	22.975
493.64	22.686
493.99	23.166
494.34	23.173
494.68	23.108
495.03	23.260
495.37	23.683
495.72	23.590
496.07	22.372
496.41	22.632
496.76	23.470
497.11	22.965
497.45	23.148
497.80	23.031
498.14	23.393
498.49	22.841
498.84	22.804
499.18	22.075
499.53	23.289
499.87	22.417
500.22	23.031
500.56	22.377
500.91	24.026
501.26	22.600
501.60	22.541
501.95	22.625
502.29	23.022
502.64	22.629
502.98	22.232
503.33	22.316
503.67	22.119
504.02	21.899
504.36	22.398
504.71	22.044
505.06	22.102
505.40	22.181
505.75	22.498
506.09	22.352
506.44	22.603
506.78	21.975
507.13	22.152
507.47	22.853
507.82	22.530
508.16	22.440
508.51	22.754
508.85	22.602
509.19	22.320
509.54	22.363
509.88	23.222
510.23	21.814
510.57	21.380
510.92	22.428
511.26	22.691
511.61	22.206
511.95	21.951
512.30	22.800
512.64	22.430
512.98	22.655
513.33	22.746
513.67	21.750
514.02	22.234
514.36	21.703
514.70	23.040
515.05	22.216
515.39	22.259
515.74	22.526
516.08	21.841
516.42	23.661
516.77	22.720
517.11	23.200
517.46	21.659
517.80	23.375
518.14	22.423
518.49	21.720
518.83	21.429
519.17	22.573
519.52	22.283
519.86	22.016
520.20	22.630
520.55	22.046
520.89	22.241
521.23	22.430
521.58	21.974
521.92	22.449
522.26	22.630
522.61	22.460
522.95	23.123
523.29	22.456
523.64	22.023
523.98	22.183
524.32	22.722
524.66	22.203
525.01	22.012
525.35	22.039
525.69	23.179
526.04	22.427
526.38	22.425
526.72	21.838
527.06	21.407
527.41	22.914
527.75	22.642
528.09	21.613
528.43	22.331
528.78	22.123
529.12	22.697
529.46	21.917
529.80	21.963
530.15	22.334
530.49	21.119
530.83	22.121
531.17	22.140
531.51	21.827
531.86	21.739
532.20	21.570
532.54	21.908
532.88	22.423
533.22	21.572
533.57	22.392
533.91	21.329
534.25	20.946
534.59	22.281
534.93	22.184
535.27	20.546
535.62	20.303
535.96	21.158
536.30	21.633
536.64	21.677
536.98	21.712
537.32	21.563
537.66	21.556
538.01	21.548
538.35	21.460
538.69	20.874
539.03	20.896
539.37	20.813
539.71	21.605
540.05	21.538
540.39	20.943
540.73	21.835
541.07	20.640
541.42	21.020
541.76	21.640
542.10	20.962
542.44	21.197
542.78	21.208
543.12	20.736
543.46	21.366
543.80	21.992
544.14	20.681
544.48	20.620
544.82	21.407
545.16	20.219
545.50	20.590
545.84	21.843
546.18	22.172
546.52	22.623
546.86	21.148
547.20	20.478
547.54	21.849
547.88	20.560
548.22	20.765
548.56	20.271
548.90	20.463
549.24	21.226
549.58	20.619
549.92	21.415
550.26	20.419
550.60	20.825
550.94	21.574
551.28	22.000
551.62	21.517
551.96	20.946
552.30	20.237
552.64	21.294
552.98	20.361
553.32	21.191
553.66	20.847
554.00	21.107
554.34	21.238
554.68	21.505
555.02	21.249
555.36	21.011
555.69	21.597
556.03	20.892
556.37	20.395
556.71	20.926
557.05	20.708
557.39	21.267
557.73	21.159
558.07	20.993
558.41	20.562
558.75	21.819
559.08	21.515
559.42	20.974
559.76	21.169
560.10	21.404
560.44	19.774
560.78	22.570
561.12	20.915
561.45	20.901
561.79	20.412
562.13	20.278
562.47	20.506
562.81	19.974
563.15	20.879
563.48	19.752
563.82	20.399
564.16	21.082
564.50	20.133
564.84	20.669
565.17	19.370
565.51	21.059
565.85	20.666
566.19	19.881
566.52	19.856
566.86	20.607
567.20	19.888
567.54	20.033
567.88	19.823
568.21	19.271
568.55	19.407
568.89	19.662
569.23	18.939
569.56	19.808
569.90	18.290
570.24	18.910
570.57	18.235
570.91	18.159
571.25	17.734
571.59	17.231
571.92	17.546
572.26	17.655
572.60	17.828
572.93	17.826
573.27	18.093
573.61	17.407
573.95	17.679
574.28	17.281
574.62	17.327
574.96	16.976
575.29	17.048
575.63	17.126
575.97	16.845
576.30	16.932
576.64	17.611
576.98	17.135
577.31	17.514
577.65	17.305
577.98	16.971
578.32	17.233
578.66	16.932
578.99	16.908
579.33	17.050
579.67	17.032
580.00	16.762
580.34	16.875
580.67	16.957
581.01	17.073
581.35	17.174
581.68	16.564
582.02	16.772
582.35	16.932
582.69	17.169
583.02	17.045
583.36	16.853
583.70	17.293
584.03	17.450
584.37	17.314
584.70	17.144
585.04	16.726
585.37	16.794
585.71	17.618
586.04	17.025
586.38	17.118
586.72	17.297
587.05	17.293
587.39	17.042
587.72	17.443
588.06	16.936
588.39	16.863
588.73	17.516
589.06	17.216
589.40	17.183
589.73	17.732
590.07	17.536
590.40	18.362
590.73	18.362
591.07	18.292
591.40	18.244
591.74	17.573
592.07	17.637
592.41	17.866
592.74	17.869
593.08	17.448
593.41	17.235
593.75	17.335
594.08	17.955
594.41	17.791
594.75	17.603
595.08	17.627
595.42	17.874
595.75	18.032
596.09	17.414
596.42	17.698
596.75	18.470
597.09	18.077
597.42	17.184
597.75	17.525
598.09	18.219
598.42	18.074
598.76	18.080
599.09	17.506
599.42	17.474
599.76	17.775
600.09	17.458
600.42	17.576
600.76	17.301
601.09	17.328
601.42	17.212
601.76	17.329
602.09	18.065
602.42	17.264
602.76	17.609
603.09	17.609
603.42	17.908
603.76	17.751
604.09	17.553
604.42	17.966
604.76	17.424
605.09	17.143
605.42	17.960
605.75	17.568
606.09	17.789
606.42	17.212
606.75	17.645
607.09	17.568
607.42	17.477
607.75	17.038
608.08	17.628
608.42	17.450
608.75	17.373
609.08	18.126
609.41	18.136
609.75	18.223
610.08	17.761
610.41	18.270
610.74	17.835
611.07	18.736
611.41	17.794
611.74	17.734
612.07	18.545
612.40	18.275
612.73	18.173
613.07	18.601
613.40	18.145
613.73	17.773
614.06	18.500
614.39	18.586
614.72	18.433
615.06	17.458
615.39	18.614
615.72	17.231
616.05	17.730
616.38	18.620
616.71	17.797
617.05	18.177
617.38	17.472
617.71	18.841
618.04	17.947
618.37	17.954
618.70	17.494
619.03	19.109
619.36	19.284
619.69	18.272
620.03	19.243
620.36	17.983
620.69	19.093
621.02	19.429
621.35	18.911
621.68	19.027
622.01	20.148
622.34	18.572
622.67	19.593
623.00	18.448
623.33	19.231
623.66	18.363
623.99	19.521
624.32	19.580
624.65	19.157
624.99	18.864
625.32	19.372
625.65	18.966
625.98	18.550
626.31	19.288
626.64	18.983
626.97	19.204
627.30	19.099
627.63	19.074
627.96	19.484
628.29	18.812
628.62	18.135
628.95	20.124
629.28	20.947
629.61	19.420
629.94	19.533
630.26	19.584
630.59	20.833
630.92	20.090
631.25	20.490
