SpectraSuite Data File
++++++++++++++++++++++++++++++++++++
Date: Tue May 12 17:15:44 PDT 2015
User: schluterlab
Dark Spectrum Present: Yes
Reference Spectrum Present: Yes
Number of Sampled Component Spectra: 1
Spectrometers: USB2E3373
Integration Time (usec): 3000 (USB2E3373)
Spectra Averaged: 3 (USB2E3373)
Boxcar Smoothing: 0 (USB2E3373)
Correct for Electrical Dark: No (USB2E3373)
Strobe/Lamp Enabled: No (USB2E3373)
Correct for Detector Non-linearity: No (USB2E3373)
Correct for Stray Light: No (USB2E3373)
Number of Pixels in Processed Spectrum: 2048
>>>>>Begin Processed Spectral Data<<<<<
178.53	0.000
178.91	-191.667
179.29	-550.000
179.67	-4200.000
180.04	-80.000
180.42	825.000
180.80	1600.000
181.18	0.000
181.56	-375.000
181.94	0.000
182.31	733.333
182.69	-3100.000
183.07	485.714
183.45	-3600.000
183.83	-1800.000
184.20	340.000
184.58	442.857
184.96	-223.077
185.34	-258.333
185.72	1450.000
186.09	-700.000
186.47	-3100.000
186.85	833.333
187.23	640.000
187.61	1700.000
187.98	450.000
188.36	250.000
188.74	341.667
189.12	333.333
189.49	925.000
189.87	0.000
190.25	475.000
190.63	2900.000
191.00	-266.667
191.38	-4000.000
191.76	-775.000
192.14	625.000
192.51	-3600.000
192.89	1700.000
193.27	766.667
193.65	-933.333
194.02	-640.000
194.40	742.857
194.78	-192.857
195.15	233.333
195.53	-3100.000
195.91	-600.000
196.29	2900.000
196.66	243.750
197.04	900.000
197.42	-1600.000
197.79	725.000
198.17	266.667
198.55	0.000
198.92	428.571
199.30	1300.000
199.68	1950.000
200.05	733.333
200.43	-616.667
200.81	233.333
201.18	2900.000
201.56	325.000
201.94	-800.000
202.31	-362.500
202.69	-280.000
203.07	2600.000
203.44	-483.333
203.82	375.000
204.19	480.000
204.57	-1050.000
204.95	-600.000
205.32	-720.000
205.70	566.667
206.08	775.000
206.45	-633.333
206.83	411.111
207.20	152.632
207.58	225.000
207.96	780.000
208.33	0.000
208.71	557.143
209.08	660.000
209.46	-2500.000
209.84	-775.000
210.21	740.000
210.59	-400.000
210.96	258.333
211.34	-650.000
211.71	336.364
212.09	925.000
212.46	1700.000
212.84	-366.667
213.22	577.778
213.59	-3200.000
213.97	380.000
214.34	975.000
214.72	966.667
215.09	1100.000
215.47	-3000.000
215.84	-340.000
216.22	-400.000
216.59	0.000
216.97	0.000
217.34	1000.000
217.72	-1300.000
218.09	1133.333
218.47	487.500
218.84	825.000
219.22	1000.000
219.59	1000.000
219.97	671.429
220.34	411.111
220.72	1300.000
221.09	3000.000
221.47	300.000
221.84	966.667
222.22	360.000
222.59	261.111
222.97	221.429
223.34	243.750
223.72	-1300.000
224.09	1300.000
224.46	207.692
224.84	-650.000
225.21	300.000
225.59	286.667
225.96	1133.333
226.34	-660.000
226.71	-825.000
227.08	-760.000
227.46	0.000
227.83	-500.000
228.21	-1750.000
228.58	333.333
228.95	1025.000
229.33	377.778
229.70	875.000
230.08	253.846
230.45	3400.000
230.82	-775.000
231.20	-700.000
231.57	-1066.667
231.95	520.000
232.32	275.000
232.69	550.000
233.07	316.667
233.44	-1450.000
233.81	293.333
234.19	188.889
234.56	268.750
234.93	194.118
235.31	240.000
235.68	281.250
236.05	171.429
236.43	155.556
236.80	250.000
237.17	182.759
237.55	128.125
237.92	122.500
238.29	172.727
238.67	134.375
239.04	143.902
239.41	100.000
239.79	115.000
240.16	116.667
240.53	81.967
240.91	88.406
241.28	96.610
241.65	86.364
242.02	87.324
242.40	90.000
242.77	82.418
243.14	69.620
243.51	74.747
243.89	53.271
244.26	64.486
244.63	70.297
245.00	79.817
245.38	50.847
245.75	63.636
246.12	70.370
246.49	60.284
246.87	55.738
247.24	60.667
247.61	61.875
247.98	67.347
248.36	56.970
248.73	58.163
249.10	56.548
249.47	55.500
249.84	53.234
250.22	58.378
250.59	52.500
250.96	53.586
251.33	57.209
251.70	54.464
252.08	50.840
252.45	52.590
252.82	50.951
253.19	47.431
253.56	52.308
253.94	49.638
254.31	48.450
254.68	50.871
255.05	52.069
255.42	52.190
255.79	50.489
256.16	53.898
256.54	50.649
256.91	50.980
257.28	47.492
257.65	42.947
258.02	49.263
258.39	51.576
258.76	49.565
259.14	44.857
259.51	50.146
259.88	51.064
260.25	44.505
260.62	47.671
260.99	44.353
261.36	47.354
261.73	46.277
262.10	50.262
262.47	46.000
262.85	46.133
263.22	44.216
263.59	44.501
263.96	43.108
264.33	45.926
264.70	47.420
265.07	46.341
265.44	46.330
265.81	48.349
266.18	45.995
266.55	44.444
266.92	43.177
267.29	47.368
267.66	47.758
268.03	45.291
268.40	45.032
268.77	48.018
269.14	46.638
269.51	46.548
269.88	45.102
270.25	42.765
270.62	44.206
270.99	45.436
271.36	46.341
271.73	44.444
272.10	41.212
272.47	44.444
272.84	42.715
273.21	45.248
273.58	43.320
273.95	45.175
274.32	43.385
274.69	45.472
275.06	41.712
275.43	42.146
275.80	44.717
276.17	44.853
276.54	45.421
276.91	44.776
277.28	43.431
277.65	43.173
278.02	43.750
278.39	43.165
278.76	42.586
279.13	40.747
279.50	44.545
279.87	40.782
280.23	43.094
280.60	45.803
280.97	43.276
281.34	42.244
281.71	43.478
282.08	43.932
282.45	40.709
282.82	41.973
283.19	41.335
283.56	42.149
283.92	41.531
284.29	42.429
284.66	41.345
285.03	42.454
285.40	40.661
285.77	38.272
286.14	40.093
286.51	40.491
286.87	38.291
287.24	38.739
287.61	41.945
287.98	40.896
288.35	37.926
288.72	38.240
289.08	40.390
289.45	41.463
289.82	40.000
290.19	39.531
290.56	40.175
290.93	38.273
291.29	36.878
291.66	39.972
292.03	38.008
292.40	36.450
292.77	38.162
293.13	38.088
293.50	36.437
293.87	35.230
294.24	39.580
294.60	38.358
294.97	39.580
295.34	38.911
295.71	37.976
296.08	38.267
296.44	36.595
296.81	36.228
297.18	37.389
297.55	37.315
297.91	37.192
298.28	36.836
298.65	35.828
299.02	36.791
299.38	38.249
299.75	37.561
300.12	37.041
300.48	37.237
300.85	38.379
301.22	37.442
301.59	36.321
301.95	37.806
302.32	37.602
302.69	38.235
303.05	38.833
303.42	37.220
303.79	37.486
304.15	38.174
304.52	36.469
304.89	37.420
305.25	38.154
305.62	36.674
305.99	38.696
306.35	37.474
306.72	36.733
307.09	37.164
307.45	39.071
307.82	38.066
308.19	38.041
308.55	35.200
308.92	37.684
309.29	39.250
309.65	39.544
310.02	39.249
310.38	37.886
310.75	36.644
311.12	37.739
311.48	39.382
311.85	39.027
312.22	39.733
312.58	39.553
312.95	39.126
313.31	39.607
313.68	38.931
314.05	39.835
314.41	38.641
314.78	39.394
315.14	40.664
315.51	40.492
315.87	39.234
316.24	40.803
316.61	40.018
316.97	40.275
317.34	41.689
317.70	40.386
318.07	43.060
318.43	40.861
318.80	42.294
319.16	41.171
319.53	42.212
319.89	41.308
320.26	44.972
320.62	42.674
320.99	42.993
321.35	42.115
321.72	42.789
322.08	43.860
322.45	45.595
322.81	44.831
323.18	44.760
323.54	45.645
323.91	45.331
324.27	47.215
324.64	45.848
325.00	48.103
325.37	47.133
325.73	47.470
326.10	49.213
326.46	47.399
326.83	47.920
327.19	50.602
327.56	49.521
327.92	48.361
328.29	50.982
328.65	50.428
329.01	51.754
329.38	50.085
329.74	50.555
330.11	51.520
330.47	52.174
330.84	50.302
331.20	51.269
331.56	51.123
331.93	52.524
332.29	51.105
332.66	52.211
333.02	52.062
333.38	52.443
333.75	50.959
334.11	51.342
334.48	52.051
334.84	50.169
335.20	51.411
335.57	49.958
335.93	51.976
336.29	49.502
336.66	52.487
337.02	50.984
337.38	52.021
337.75	50.422
338.11	51.561
338.47	51.312
338.84	49.704
339.20	51.082
339.56	50.042
339.93	51.087
340.29	50.840
340.65	50.545
341.02	49.799
341.38	51.067
341.74	51.578
342.11	51.753
342.47	50.697
342.83	51.272
343.20	49.879
343.56	50.834
343.92	49.876
344.28	49.681
344.65	51.426
345.01	49.841
345.37	49.840
345.73	50.635
346.10	49.323
346.46	50.558
346.82	48.148
347.19	50.850
347.55	48.790
347.91	49.245
348.27	50.039
348.63	50.237
349.00	49.886
349.36	50.584
349.72	50.306
350.08	50.233
350.45	49.886
350.81	50.229
351.17	48.767
351.53	48.884
351.89	48.951
352.26	50.567
352.62	47.888
352.98	50.383
353.34	50.077
353.70	48.624
354.07	49.769
354.43	48.925
354.79	47.836
355.15	50.000
355.51	49.547
355.87	49.172
356.24	49.500
356.60	48.021
356.96	49.431
357.32	49.058
357.68	48.311
358.04	48.404
358.40	48.426
358.77	48.986
359.13	48.574
359.49	47.294
359.85	49.590
360.21	47.400
360.57	47.007
360.93	48.918
361.29	48.413
361.66	49.664
362.02	46.946
362.38	48.846
362.74	48.620
363.10	47.265
363.46	47.583
363.82	48.738
364.18	49.431
364.54	48.784
364.90	48.862
365.26	49.341
365.62	48.964
365.98	48.451
366.35	48.138
366.71	49.618
367.07	47.782
367.43	47.952
367.79	48.072
368.15	47.083
368.51	49.070
368.87	48.981
369.23	48.441
369.59	47.741
369.95	48.462
370.31	47.775
370.67	47.120
371.03	48.599
371.39	48.130
371.75	48.360
372.11	47.451
372.47	47.945
372.83	47.111
373.19	48.184
373.55	48.385
373.91	47.445
374.27	48.214
374.63	47.458
374.99	48.450
375.35	47.379
375.71	47.164
376.07	47.878
376.42	46.483
376.78	48.170
377.14	47.444
377.50	45.568
377.86	46.829
378.22	46.801
378.58	47.276
378.94	47.194
379.30	46.938
379.66	46.839
380.02	47.097
380.38	47.073
380.74	47.347
381.09	47.021
381.45	45.838
381.81	45.745
382.17	47.070
382.53	46.791
382.89	47.487
383.25	46.773
383.61	44.380
383.97	45.771
384.32	47.016
384.68	47.534
385.04	46.424
385.40	44.958
385.76	45.875
386.12	46.506
386.48	46.261
386.83	44.927
387.19	46.231
387.55	46.643
387.91	45.843
388.27	45.628
388.62	44.601
388.98	44.606
389.34	44.914
389.70	45.047
390.06	45.549
390.42	45.157
390.77	45.332
391.13	45.202
391.49	45.977
391.85	44.369
392.20	44.636
392.56	44.803
392.92	44.413
393.28	44.843
393.64	44.495
393.99	44.221
394.35	44.556
394.71	43.908
395.07	43.491
395.42	44.731
395.78	44.911
396.14	44.518
396.50	45.307
396.85	44.512
397.21	44.344
397.57	42.917
397.92	43.847
398.28	43.740
398.64	43.805
399.00	42.918
399.35	43.210
399.71	42.826
400.07	43.322
400.42	43.463
400.78	43.578
401.14	44.275
401.49	42.627
401.85	43.569
402.21	42.882
402.57	44.225
402.92	43.212
403.28	42.243
403.63	42.201
403.99	43.667
404.35	43.083
404.70	44.359
405.06	43.122
405.42	42.849
405.77	42.999
406.13	41.594
406.49	42.297
406.84	43.147
407.20	42.865
407.55	41.969
407.91	43.076
408.27	42.025
408.62	43.761
408.98	41.750
409.34	40.678
409.69	42.128
410.05	41.562
410.40	41.461
410.76	41.042
411.11	40.877
411.47	41.543
411.83	41.008
412.18	42.331
412.54	41.742
412.89	41.003
413.25	42.417
413.60	41.706
413.96	41.412
414.31	42.149
414.67	41.713
415.03	40.996
415.38	42.082
415.74	42.514
416.09	42.536
416.45	42.922
416.80	42.912
417.16	41.502
417.51	41.720
417.87	42.053
418.22	40.401
418.58	42.166
418.93	41.404
419.29	40.912
419.64	41.914
420.00	41.348
420.35	41.870
420.71	42.007
421.06	41.024
421.42	42.026
421.77	41.421
422.12	42.007
422.48	40.883
422.83	42.299
423.19	42.333
423.54	39.934
423.90	41.846
424.25	42.323
424.61	42.542
424.96	41.502
425.31	42.583
425.67	42.649
426.02	41.727
426.38	42.182
426.73	42.568
427.09	42.230
427.44	41.531
427.79	42.081
428.15	43.076
428.50	42.457
428.85	42.622
429.21	41.815
429.56	42.223
429.92	41.770
430.27	42.090
430.62	40.675
430.98	41.916
431.33	40.776
431.68	41.383
432.04	41.749
432.39	43.414
432.74	42.916
433.10	42.802
433.45	42.906
433.80	43.519
434.16	41.776
434.51	42.724
434.86	42.461
435.22	42.301
435.57	43.154
435.92	43.028
436.28	42.569
436.63	42.572
436.98	43.525
437.34	43.493
437.69	41.433
438.04	42.043
438.39	43.024
438.75	42.483
439.10	42.256
439.45	42.227
439.81	42.915
440.16	42.433
440.51	41.385
440.86	44.160
441.22	42.857
441.57	42.205
441.92	42.646
442.27	42.371
442.63	42.581
442.98	42.187
443.33	42.421
443.68	42.455
444.03	41.847
444.39	42.326
444.74	42.495
445.09	42.549
445.44	42.667
445.79	42.836
446.15	42.579
446.50	42.405
446.85	42.131
447.20	42.388
447.55	42.523
447.91	43.207
448.26	43.504
448.61	43.228
448.96	43.627
449.31	43.564
449.66	44.241
450.02	41.869
450.37	43.531
450.72	43.196
451.07	42.699
451.42	42.501
451.77	43.757
452.12	43.392
452.47	44.350
452.83	43.887
453.18	44.144
453.53	43.398
453.88	43.829
454.23	43.056
454.58	42.949
454.93	44.880
455.28	42.350
455.63	43.913
455.98	42.696
456.34	43.222
456.69	43.537
457.04	43.138
457.39	42.400
457.74	42.962
458.09	42.617
458.44	43.264
458.79	42.493
459.14	42.771
459.49	43.318
459.84	42.446
460.19	41.864
460.54	43.020
460.89	43.070
461.24	42.383
461.59	42.800
461.94	43.617
462.29	43.593
462.64	44.095
462.99	43.058
463.34	43.357
463.69	42.952
464.04	43.869
464.39	43.160
464.74	40.797
465.09	43.355
465.44	42.329
465.79	42.297
466.14	41.600
466.49	42.702
466.84	42.085
467.19	42.414
467.54	42.943
467.89	43.075
468.24	42.212
468.59	43.214
468.94	44.082
469.29	43.922
469.64	43.087
469.99	44.216
470.34	44.086
470.68	43.517
471.03	43.029
471.38	43.510
471.73	43.370
472.08	44.227
472.43	44.382
472.78	42.894
473.13	42.240
473.48	43.154
473.83	43.934
474.17	43.222
474.52	42.121
474.87	42.183
475.22	42.661
475.57	42.445
475.92	42.463
476.27	42.165
476.61	42.413
476.96	42.424
477.31	42.931
477.66	44.015
478.01	41.877
478.36	43.306
478.70	41.935
479.05	42.730
479.40	42.609
479.75	42.850
480.10	42.014
480.45	42.624
480.79	42.212
481.14	42.511
481.49	42.086
481.84	42.568
482.19	42.402
482.53	41.370
482.88	42.428
483.23	42.039
483.58	41.741
483.92	43.099
484.27	41.738
484.62	42.657
484.97	41.488
485.31	40.809
485.66	39.800
486.01	39.100
486.36	38.434
486.70	38.566
487.05	39.513
487.40	39.031
487.75	40.223
488.09	39.801
488.44	40.249
488.79	40.646
489.13	41.209
489.48	41.550
489.83	41.284
490.17	40.669
490.52	41.731
490.87	41.638
491.22	41.844
491.56	42.161
491.91	40.591
492.26	42.405
492.60	41.595
492.95	42.093
493.30	42.266
493.64	42.543
493.99	41.771
494.34	42.447
494.68	41.833
495.03	42.209
495.37	42.323
495.72	41.958
496.07	41.959
496.41	41.790
496.76	41.832
497.11	41.517
497.45	41.035
497.80	42.030
498.14	41.933
498.49	41.226
498.84	42.196
499.18	41.179
499.53	41.938
499.87	41.420
500.22	41.916
500.56	42.433
500.91	42.486
501.26	42.398
501.60	41.849
501.95	41.129
502.29	40.889
502.64	40.891
502.98	40.151
503.33	42.227
503.67	41.369
504.02	41.514
504.36	41.538
504.71	41.485
505.06	41.764
505.40	42.630
505.75	41.534
506.09	42.417
506.44	42.340
506.78	42.486
507.13	42.511
507.47	41.921
507.82	42.336
508.16	42.577
508.51	42.029
508.85	42.118
509.19	41.899
509.54	41.699
509.88	42.665
510.23	42.598
510.57	41.940
510.92	44.106
511.26	42.871
511.61	41.654
511.95	42.111
512.30	41.500
512.64	41.745
512.98	42.594
513.33	41.957
513.67	41.895
514.02	42.026
514.36	42.471
514.70	43.360
515.05	42.408
515.39	42.654
515.74	44.232
516.08	43.845
516.42	44.863
516.77	43.947
517.11	42.453
517.46	43.534
517.80	43.146
518.14	43.831
518.49	42.503
518.83	42.802
519.17	43.816
519.52	43.637
519.86	43.815
520.20	43.671
520.55	43.075
520.89	43.333
521.23	43.867
521.58	43.029
521.92	43.265
522.26	43.780
522.61	44.742
522.95	43.784
523.29	45.205
523.64	43.179
523.98	44.073
524.32	44.291
524.66	44.348
525.01	43.846
525.35	44.078
525.69	45.515
526.04	44.438
526.38	44.320
526.72	43.914
527.06	43.347
527.41	45.103
527.75	44.918
528.09	44.070
528.43	44.539
528.78	42.993
529.12	44.913
529.46	44.769
529.80	43.867
530.15	44.137
530.49	42.298
530.83	44.119
531.17	43.419
531.51	43.716
531.86	43.056
532.20	43.140
532.54	43.440
532.88	44.222
533.22	43.815
533.57	45.394
533.91	43.531
534.25	42.931
534.59	43.860
534.93	44.027
535.27	41.605
535.62	43.991
535.96	42.612
536.30	45.765
536.64	43.727
536.98	43.361
537.32	42.625
537.66	44.069
538.01	41.796
538.35	43.918
538.69	43.447
539.03	42.475
539.37	42.476
539.71	43.395
540.05	42.585
540.39	43.836
540.73	43.987
541.07	43.413
541.42	44.590
541.76	43.773
542.10	43.157
542.44	43.329
542.78	43.549
543.12	43.497
543.46	43.672
543.80	43.672
544.14	43.282
544.48	43.613
544.82	43.242
545.16	42.623
545.50	43.577
545.84	44.129
546.18	45.254
546.52	44.721
546.86	43.778
547.20	43.023
547.54	42.939
547.88	42.275
548.22	42.562
548.56	42.015
548.90	42.586
549.24	42.641
549.58	42.397
549.92	43.549
550.26	43.070
550.60	42.582
550.94	45.387
551.28	43.724
551.62	44.069
551.96	43.716
552.30	41.200
552.64	43.948
552.98	42.784
553.32	42.574
553.66	43.779
554.00	41.828
554.34	44.341
554.68	42.675
555.02	42.770
555.36	42.354
555.69	42.801
556.03	41.720
556.37	42.192
556.71	42.829
557.05	41.612
557.39	42.533
557.73	42.588
558.07	43.461
558.41	43.454
558.75	42.681
559.08	43.388
559.42	43.951
559.76	43.478
560.10	43.359
560.44	42.269
560.78	43.031
561.12	42.149
561.45	42.804
561.79	41.760
562.13	42.830
562.47	42.700
562.81	43.396
563.15	41.694
563.48	40.807
563.82	43.356
564.16	42.786
564.50	42.495
564.84	41.581
565.17	40.523
565.51	42.672
565.85	43.307
566.19	42.560
566.52	40.674
566.86	42.440
567.20	41.573
567.54	40.502
567.88	41.680
568.21	39.790
568.55	40.467
568.89	39.827
569.23	39.862
569.56	39.657
569.90	38.627
570.24	38.194
570.57	38.157
570.91	37.036
571.25	37.485
571.59	36.435
571.92	36.410
572.26	36.038
572.60	36.212
572.93	37.493
573.27	37.134
573.61	36.383
573.95	35.807
574.28	36.549
574.62	36.237
574.96	35.262
575.29	35.816
575.63	35.783
575.97	35.273
576.30	34.978
576.64	35.539
576.98	35.825
577.31	35.969
577.65	35.610
577.98	35.116
578.32	34.935
578.66	35.148
578.99	35.263
579.33	35.386
579.67	35.103
580.00	35.428
580.34	35.807
580.67	34.944
581.01	35.462
581.35	35.401
581.68	33.924
582.02	34.478
582.35	34.432
582.69	34.703
583.02	34.510
583.36	35.836
583.70	35.739
584.03	36.242
584.37	35.285
584.70	35.805
585.04	34.808
585.37	35.099
585.71	35.663
586.04	35.157
586.38	35.312
586.72	35.135
587.05	35.512
587.39	35.727
587.72	35.862
588.06	35.187
588.39	35.005
588.73	35.276
589.06	36.300
589.40	36.526
589.73	36.349
590.07	36.445
590.40	36.725
590.73	37.752
591.07	37.723
591.40	36.168
591.74	37.378
592.07	37.063
592.41	37.330
592.74	36.434
593.08	35.449
593.41	35.069
593.75	34.993
594.08	36.187
594.41	35.647
594.75	35.925
595.08	35.734
595.42	36.109
595.75	35.637
596.09	36.670
596.42	36.599
596.75	37.099
597.09	36.277
597.42	35.673
597.75	36.389
598.09	36.356
598.42	36.393
598.76	35.813
599.09	35.859
599.42	34.810
599.76	35.414
600.09	35.186
600.42	35.704
600.76	35.180
601.09	35.554
601.42	35.375
601.76	35.482
602.09	36.056
602.42	35.120
602.76	35.636
603.09	36.161
603.42	36.404
603.76	35.900
604.09	35.613
604.42	35.443
604.76	36.705
605.09	35.918
605.42	36.002
605.75	35.255
606.09	35.769
606.42	35.851
606.75	35.212
607.09	35.334
607.42	35.757
607.75	35.629
608.08	35.987
608.42	35.109
608.75	35.772
609.08	36.428
609.41	35.818
609.75	36.538
610.08	35.701
610.41	35.881
610.74	35.498
611.07	37.153
611.41	36.654
611.74	36.855
612.07	36.272
612.40	36.111
612.73	36.695
613.07	36.746
613.40	36.241
613.73	37.893
614.06	35.350
614.39	37.071
614.72	35.962
615.06	35.955
615.39	36.980
615.72	35.189
616.05	36.263
616.38	36.530
616.71	35.757
617.05	37.177
617.38	37.247
617.71	36.277
618.04	36.960
618.37	36.465
618.70	36.374
619.03	37.302
619.36	38.128
619.69	37.599
620.03	39.204
620.36	37.958
620.69	37.676
621.02	37.636
621.35	37.393
621.68	38.348
622.01	39.410
622.34	38.820
622.67	38.202
623.00	37.985
623.33	37.045
623.66	37.325
623.99	38.493
624.32	38.347
624.65	37.656
624.99	36.984
625.32	37.876
625.65	38.483
625.98	36.123
626.31	38.131
626.64	38.041
626.97	37.337
627.30	38.043
627.63	39.639
627.96	37.559
628.29	39.439
628.62	38.580
628.95	39.362
629.28	40.403
629.61	40.158
629.94	39.067
630.26	40.121
630.59	40.957
630.92	39.821
631.25	40.435
