SpectraSuite Data File
++++++++++++++++++++++++++++++++++++
Date: Tue May 12 16:59:30 PDT 2015
User: schluterlab
Dark Spectrum Present: Yes
Reference Spectrum Present: Yes
Number of Sampled Component Spectra: 1
Spectrometers: USB2E3373
Integration Time (usec): 3000 (USB2E3373)
Spectra Averaged: 3 (USB2E3373)
Boxcar Smoothing: 0 (USB2E3373)
Correct for Electrical Dark: No (USB2E3373)
Strobe/Lamp Enabled: No (USB2E3373)
Correct for Detector Non-linearity: No (USB2E3373)
Correct for Stray Light: No (USB2E3373)
Number of Pixels in Processed Spectrum: 2048
>>>>>Begin Processed Spectral Data<<<<<
178.53	0.000
178.91	-258.333
179.29	-850.000
179.67	-4400.000
180.04	-126.667
180.42	650.000
180.80	1800.000
181.18	0.000
181.56	-237.500
181.94	0.000
182.31	800.000
182.69	-3100.000
183.07	600.000
183.45	-3200.000
183.83	-1600.000
184.20	350.000
184.58	385.714
184.96	-246.154
185.34	-225.000
185.72	1750.000
186.09	-800.000
186.47	-2900.000
186.85	966.667
187.23	620.000
187.61	1850.000
187.98	462.500
188.36	257.143
188.74	375.000
189.12	308.333
189.49	1100.000
189.87	0.000
190.25	525.000
190.63	2800.000
191.00	-225.000
191.38	-4500.000
191.76	-800.000
192.14	487.500
192.51	-2800.000
192.89	1850.000
193.27	1033.333
193.65	-966.667
194.02	-1040.000
194.40	642.857
194.78	-214.286
195.15	233.333
195.53	-3400.000
195.91	-540.000
196.29	4200.000
196.66	212.500
197.04	750.000
197.42	-1500.000
197.79	625.000
198.17	266.667
198.55	0.000
198.92	614.286
199.30	1266.667
199.68	1650.000
200.05	650.000
200.43	-333.333
200.81	227.778
201.18	4000.000
201.56	241.667
201.94	-825.000
202.31	-375.000
202.69	-380.000
203.07	2800.000
203.44	-550.000
203.82	333.333
204.19	660.000
204.57	-1250.000
204.95	-950.000
205.32	-580.000
205.70	516.667
206.08	825.000
206.45	-766.667
206.83	344.444
207.20	184.211
207.58	216.667
207.96	760.000
208.33	0.000
208.71	500.000
209.08	580.000
209.46	-3900.000
209.84	-825.000
210.21	1080.000
210.59	-380.000
210.96	258.333
211.34	-650.000
211.71	363.636
212.09	725.000
212.46	1800.000
212.84	-500.000
213.22	522.222
213.59	-2600.000
213.97	370.000
214.34	900.000
214.72	1200.000
215.09	866.667
215.47	-4000.000
215.84	-330.000
216.22	-437.500
216.59	0.000
216.97	0.000
217.34	1550.000
217.72	-1800.000
218.09	1033.333
218.47	350.000
218.84	675.000
219.22	1133.333
219.59	1100.000
219.97	628.571
220.34	377.778
220.72	1900.000
221.09	2900.000
221.47	308.333
221.84	1300.000
222.22	350.000
222.59	194.444
222.97	278.571
223.34	256.250
223.72	-1700.000
224.09	900.000
224.46	261.538
224.84	-825.000
225.21	411.111
225.59	273.333
225.96	1333.333
226.34	-560.000
226.71	-750.000
227.08	-600.000
227.46	0.000
227.83	-650.000
228.21	-1650.000
228.58	308.333
228.95	900.000
229.33	288.889
229.70	1025.000
230.08	307.692
230.45	4300.000
230.82	-875.000
231.20	-1100.000
231.57	-866.667
231.95	680.000
232.32	350.000
232.69	483.333
233.07	216.667
233.44	-1900.000
233.81	253.333
234.19	174.074
234.56	168.750
234.93	182.353
235.31	240.000
235.68	281.250
236.05	167.857
236.43	118.519
236.80	250.000
237.17	117.241
237.55	121.875
237.92	107.500
238.29	109.091
238.67	156.250
239.04	92.683
239.41	79.167
239.79	95.000
240.16	85.417
240.53	75.410
240.91	65.217
241.28	57.627
241.65	56.061
242.02	64.789
242.40	60.000
242.77	59.341
243.14	44.304
243.51	52.525
243.89	45.794
244.26	42.056
244.63	48.515
245.00	38.532
245.38	35.593
245.75	37.121
246.12	47.407
246.49	32.624
246.87	27.869
247.24	34.000
247.61	37.500
247.98	32.653
248.36	30.303
248.73	33.673
249.10	29.762
249.47	27.500
249.84	25.373
250.22	22.162
250.59	19.500
250.96	28.270
251.33	26.512
251.70	24.554
252.08	27.731
252.45	21.912
252.82	21.293
253.19	19.763
253.56	22.692
253.94	19.565
254.31	24.419
254.68	21.603
255.05	23.103
255.42	24.453
255.79	23.127
256.16	24.407
256.54	24.675
256.91	19.281
257.28	21.739
257.65	15.987
258.02	16.814
258.39	19.771
258.76	24.928
259.14	17.429
259.51	20.700
259.88	17.933
260.25	17.308
260.62	18.356
260.99	15.978
261.36	18.663
261.73	17.287
262.10	19.634
262.47	16.000
262.85	19.467
263.22	18.509
263.59	14.834
263.96	19.298
264.33	18.519
264.70	18.428
265.07	19.024
265.44	19.725
265.81	16.745
266.18	16.018
266.55	17.967
266.92	19.016
267.29	16.447
267.66	18.610
268.03	17.040
268.40	17.125
268.77	15.198
269.14	15.401
269.51	17.149
269.88	16.939
270.25	13.607
270.62	16.738
270.99	17.850
271.36	16.667
271.73	17.191
272.10	16.364
272.47	15.278
272.84	15.170
273.21	15.289
273.58	18.016
273.95	15.811
274.32	16.926
274.69	15.354
275.06	16.393
275.43	15.326
275.80	16.604
276.17	17.096
276.54	16.262
276.91	15.672
277.28	12.774
277.65	15.129
278.02	16.176
278.39	14.568
278.76	15.517
279.13	16.192
279.50	14.364
279.87	15.270
280.23	14.549
280.60	15.876
280.97	15.690
281.34	15.182
281.71	16.870
282.08	15.726
282.45	16.554
282.82	15.050
283.19	14.149
283.56	15.702
283.92	14.821
284.29	13.478
284.66	12.941
285.03	16.584
285.40	13.388
285.77	13.117
286.14	13.313
286.51	15.644
286.87	14.241
287.24	13.664
287.61	14.590
287.98	16.269
288.35	15.259
288.72	14.871
289.08	13.814
289.45	14.787
289.82	14.062
290.19	14.495
290.56	16.739
290.93	13.813
291.29	14.227
291.66	13.983
292.03	13.745
292.40	14.499
292.77	13.092
293.13	14.693
293.50	14.845
293.87	13.279
294.24	15.245
294.60	15.209
294.97	13.846
295.34	13.944
295.71	14.060
296.08	13.867
296.44	15.375
296.81	14.268
297.18	13.308
297.55	14.778
297.91	13.670
298.28	16.063
298.65	13.252
299.02	13.028
299.38	14.748
299.75	14.390
300.12	14.679
300.48	15.808
300.85	15.852
301.22	15.116
301.59	15.566
301.95	13.069
302.32	14.668
302.69	15.498
303.05	15.488
303.42	14.350
303.79	15.493
304.15	13.641
304.52	15.856
304.89	15.778
305.25	15.907
305.62	16.631
305.99	15.652
306.35	15.474
306.72	16.961
307.09	15.735
307.45	15.734
307.82	16.667
308.19	16.701
308.55	16.600
308.92	16.879
309.29	18.343
309.65	17.245
310.02	17.951
310.38	17.049
310.75	17.068
311.12	17.625
311.48	18.629
311.85	18.511
312.22	18.720
312.58	17.979
312.95	19.417
313.31	18.633
313.68	18.668
314.05	20.788
314.41	20.484
314.78	20.076
315.14	21.422
315.51	22.517
315.87	20.438
316.24	21.942
316.61	21.397
316.97	21.468
317.34	22.552
317.70	23.266
318.07	24.555
318.43	23.199
318.80	23.468
319.16	24.476
319.53	24.071
319.89	24.283
320.26	24.674
320.62	26.465
320.99	26.692
321.35	25.974
321.72	28.653
322.08	26.685
322.45	30.245
322.81	28.820
323.18	29.130
323.54	30.749
323.91	32.004
324.27	31.388
324.64	31.488
325.00	33.190
325.37	33.474
325.73	33.642
326.10	34.383
326.46	34.600
326.83	35.200
327.19	36.867
327.56	36.981
327.92	37.787
328.29	38.380
328.65	38.784
329.01	39.521
329.38	39.425
329.74	39.112
330.11	41.182
330.47	40.665
330.84	39.776
331.20	40.948
331.56	41.192
331.93	41.660
332.29	41.241
332.66	42.772
333.02	40.893
333.38	43.106
333.75	42.285
334.11	41.946
334.48	41.368
334.84	42.821
335.20	42.772
335.57	41.310
335.93	42.893
336.29	40.879
336.66	43.568
337.02	42.772
337.38	43.852
337.75	43.497
338.11	43.797
338.47	43.353
338.84	43.184
339.20	42.338
339.56	42.641
339.93	42.977
340.29	43.277
340.65	42.163
341.02	43.926
341.38	44.335
341.74	43.771
342.11	43.907
342.47	43.560
342.83	44.545
343.20	42.522
343.56	43.844
343.92	43.848
344.28	42.026
344.65	43.602
345.01	42.778
345.37	42.388
345.73	43.651
346.10	42.709
346.46	43.780
346.82	42.130
347.19	44.668
347.55	43.091
347.91	43.807
348.27	43.610
348.63	44.225
349.00	43.412
349.36	44.591
349.72	44.801
350.08	43.634
350.45	43.564
350.81	44.190
351.17	43.606
351.53	43.649
351.89	44.134
352.26	44.822
352.62	44.495
352.98	45.092
353.34	44.376
353.70	45.183
354.07	44.769
354.43	45.392
354.79	43.888
355.15	44.870
355.51	43.958
355.87	44.955
356.24	45.497
356.60	44.292
356.96	44.882
357.32	45.290
357.68	44.347
358.04	45.669
358.40	45.427
358.77	47.333
359.13	45.195
359.49	44.033
359.85	45.570
360.21	45.319
360.57	46.569
360.93	46.681
361.29	45.887
361.66	48.024
362.02	47.088
362.38	46.465
362.74	46.355
363.10	46.704
363.46	45.994
363.82	46.353
364.18	46.799
364.54	47.997
364.90	46.452
365.26	47.536
365.62	46.754
365.98	45.217
366.35	47.655
366.71	47.675
367.07	46.416
367.43	48.019
367.79	46.543
368.15	46.540
368.51	48.312
368.87	47.486
369.23	47.748
369.59	47.336
369.95	48.811
370.31	48.392
370.67	48.300
371.03	48.599
371.39	49.030
371.75	48.011
372.11	48.402
372.47	48.767
372.83	48.946
373.19	48.184
373.55	48.591
373.91	48.481
374.27	48.214
374.63	48.814
374.99	49.259
375.35	49.462
375.71	49.208
376.07	49.536
376.42	48.082
376.78	48.748
377.14	50.197
377.50	49.875
377.86	49.712
378.22	48.446
378.58	50.363
378.94	49.849
379.30	50.819
379.66	49.308
380.02	50.205
380.38	48.478
380.74	50.577
381.09	50.117
381.45	49.769
381.81	50.532
382.17	50.549
382.53	51.650
382.89	52.099
383.25	50.622
383.61	49.741
383.97	50.210
384.32	50.934
384.68	52.406
385.04	51.465
385.40	51.661
385.76	50.439
386.12	51.082
386.48	51.307
386.83	51.467
387.19	51.060
387.55	50.883
387.91	51.732
388.27	51.041
388.62	49.765
388.98	51.020
389.34	49.673
389.70	50.354
390.06	52.561
390.42	50.709
390.77	51.106
391.13	50.996
391.49	50.877
391.85	51.446
392.20	50.894
392.56	51.135
392.92	50.646
393.28	51.345
393.64	49.943
393.99	51.334
394.35	50.971
394.71	49.578
395.07	51.034
395.42	50.644
395.78	52.067
396.14	50.964
396.50	51.384
396.85	50.793
397.21	50.120
397.57	51.285
397.92	50.607
398.28	51.793
398.64	50.145
399.00	50.347
399.35	50.939
399.71	51.159
400.07	50.970
400.42	52.418
400.78	51.906
401.14	51.380
401.49	50.922
401.85	51.043
402.21	51.904
402.57	51.227
402.92	52.061
403.28	50.418
403.63	50.088
403.99	50.483
404.35	50.703
404.70	52.274
405.06	49.354
405.42	51.227
405.77	50.276
406.13	49.403
406.49	50.142
406.84	50.592
407.20	50.628
407.55	50.831
407.91	51.308
408.27	50.030
408.62	51.626
408.98	50.917
409.34	51.023
409.69	49.720
410.05	49.791
410.40	50.942
410.76	48.769
411.11	50.829
411.47	50.123
411.83	49.326
412.18	49.215
412.54	50.450
412.89	49.145
413.25	51.083
413.60	50.234
413.96	51.047
414.31	49.410
414.67	51.024
415.03	50.447
415.38	50.726
415.74	51.421
416.09	51.968
416.45	51.002
416.80	50.738
417.16	50.477
417.51	51.210
417.87	50.501
418.22	50.972
418.58	52.166
418.93	49.732
419.29	50.154
419.64	50.636
420.00	51.492
420.35	50.697
420.71	49.592
421.06	50.265
421.42	51.353
421.77	51.694
422.12	49.890
422.48	49.974
422.83	50.725
423.19	50.162
423.54	49.643
423.90	50.963
424.25	51.238
424.61	51.538
424.96	50.819
425.31	51.013
425.67	52.862
426.02	50.084
426.38	50.525
426.73	51.995
427.09	51.483
427.44	51.154
427.79	51.687
428.15	53.388
428.50	52.971
428.85	51.734
429.21	51.756
429.56	50.648
429.92	52.014
430.27	51.234
430.62	50.220
430.98	51.447
431.33	51.764
431.68	49.877
432.04	50.181
432.39	51.647
432.74	52.576
433.10	52.547
433.45	52.441
433.80	52.234
434.16	50.972
434.51	51.961
434.86	52.967
435.22	52.242
435.57	52.934
435.92	53.386
436.28	53.917
436.63	52.296
436.98	54.223
437.34	53.253
437.69	52.296
438.04	52.312
438.39	52.189
438.75	52.283
439.10	53.319
439.45	51.498
439.81	53.383
440.16	53.275
440.51	53.041
440.86	53.048
441.22	52.652
441.57	53.596
441.92	53.455
442.27	51.856
442.63	52.947
442.98	52.478
443.33	53.562
443.68	53.068
444.03	53.723
444.39	52.825
444.74	53.830
445.09	53.397
445.44	52.922
445.79	53.021
446.15	53.474
446.50	54.114
446.85	52.888
447.20	53.035
447.55	53.670
447.91	54.129
448.26	54.047
448.61	53.013
448.96	55.120
449.31	54.620
449.66	54.540
450.02	53.377
450.37	54.026
450.72	54.711
451.07	53.810
451.42	54.713
451.77	54.582
452.12	53.602
452.47	54.800
452.83	54.873
453.18	54.955
453.53	53.937
453.88	55.714
454.23	55.084
454.58	54.196
454.93	53.158
455.28	55.569
455.63	54.846
455.98	52.905
456.34	55.198
456.69	54.451
457.04	55.251
457.39	54.343
457.74	54.673
458.09	53.734
458.44	54.053
458.79	55.279
459.14	52.810
459.49	54.134
459.84	54.783
460.19	53.955
460.54	53.675
460.89	53.518
461.24	53.265
461.59	53.968
461.94	53.664
462.29	54.634
462.64	54.774
462.99	53.999
463.34	54.828
463.69	54.809
464.04	54.750
464.39	54.093
464.74	53.048
465.09	53.337
465.44	53.210
465.79	52.422
466.14	53.312
466.49	53.500
466.84	52.731
467.19	53.193
467.54	50.931
467.89	53.756
468.24	53.793
468.59	53.571
468.94	54.952
469.29	54.001
469.64	53.569
469.99	55.141
470.34	54.269
470.68	54.621
471.03	55.304
471.38	54.702
471.73	54.801
472.08	55.838
472.43	55.059
472.78	54.097
473.13	53.630
473.48	54.279
473.83	53.828
474.17	53.617
474.52	52.429
474.87	52.814
475.22	53.798
475.57	53.935
475.92	54.165
476.27	53.482
476.61	53.727
476.96	52.821
477.31	54.396
477.66	54.804
478.01	53.481
478.36	53.656
478.70	52.804
479.05	54.655
479.40	53.373
479.75	54.518
480.10	52.904
480.45	53.501
480.79	52.811
481.14	52.782
481.49	52.379
481.84	52.287
482.19	52.838
482.53	52.306
482.88	52.195
483.23	52.639
483.58	52.648
483.92	54.388
484.27	53.467
484.62	52.547
484.97	51.772
485.31	50.855
485.66	49.157
486.01	48.010
486.36	47.211
486.70	46.605
487.05	47.777
487.40	48.765
487.75	49.326
488.09	49.972
488.44	50.510
488.79	50.573
489.13	52.333
489.48	51.778
489.83	51.043
490.17	51.445
490.52	53.661
490.87	52.112
491.22	53.103
491.56	53.096
491.91	51.927
492.26	53.630
492.60	53.349
492.95	53.240
493.30	53.230
493.64	52.606
493.99	52.952
494.34	52.532
494.68	52.944
495.03	53.435
495.37	53.354
495.72	53.100
496.07	52.381
496.41	52.042
496.76	52.343
497.11	52.742
497.45	51.688
497.80	53.244
498.14	52.612
498.49	52.043
498.84	54.252
499.18	50.868
499.53	52.641
499.87	51.797
500.22	52.879
500.56	52.461
500.91	52.876
501.26	53.101
501.60	52.960
501.95	51.971
502.29	52.000
502.64	51.301
502.98	51.756
503.33	51.893
503.67	51.700
504.02	51.008
504.36	51.493
504.71	52.696
505.06	53.449
505.40	52.316
505.75	52.572
506.09	52.403
506.44	52.491
506.78	54.112
507.13	52.739
507.47	53.081
507.82	53.187
508.16	53.552
508.51	53.478
508.85	52.279
509.19	52.472
509.54	52.979
509.88	53.655
510.23	51.765
510.57	51.882
510.92	54.396
511.26	53.263
511.61	51.748
511.95	52.663
512.30	52.800
512.64	54.206
512.98	54.126
513.33	53.740
513.67	53.599
514.02	53.662
514.36	53.219
514.70	53.760
515.05	53.436
515.39	55.592
515.74	54.675
516.08	55.610
516.42	56.612
516.77	54.507
517.11	54.987
517.46	54.526
517.80	53.960
518.14	56.169
518.49	54.576
518.83	53.077
519.17	54.576
519.52	55.926
519.86	54.278
520.20	54.740
520.55	54.211
520.89	55.747
521.23	56.893
521.58	55.479
521.92	56.443
522.26	56.220
522.61	56.744
522.95	57.057
523.29	57.251
523.64	53.584
523.98	55.810
524.32	54.902
524.66	55.304
525.01	55.562
525.35	55.451
525.69	57.255
526.04	57.525
526.38	56.563
526.72	54.714
527.06	55.411
527.41	57.437
527.75	56.421
528.09	55.629
528.43	56.742
528.78	55.874
529.12	56.472
529.46	54.939
529.80	55.666
530.15	55.981
530.49	54.272
530.83	56.063
531.17	55.904
531.51	56.162
531.86	54.771
532.20	55.315
532.54	56.372
532.88	55.778
533.22	55.210
533.57	55.949
533.91	54.138
534.25	54.645
534.59	55.380
534.93	54.039
535.27	52.533
535.62	53.267
535.96	53.842
536.30	56.490
536.64	55.466
536.98	54.877
537.32	55.562
537.66	55.740
538.01	55.232
538.35	55.022
538.69	54.794
539.03	54.726
539.37	54.733
539.71	55.000
540.05	55.631
540.39	56.667
540.73	55.949
541.07	53.450
541.42	55.970
541.76	54.007
542.10	54.192
542.44	55.486
542.78	54.500
543.12	53.865
543.46	55.702
543.80	55.201
544.14	54.427
544.48	54.623
544.82	55.596
545.16	53.795
545.50	54.640
545.84	55.429
546.18	57.152
546.52	54.951
546.86	55.319
547.20	54.845
547.54	53.958
547.88	54.380
548.22	53.673
548.56	53.506
548.90	54.508
549.24	55.148
549.58	55.348
549.92	55.337
550.26	56.728
550.60	55.888
550.94	56.581
551.28	56.690
551.62	56.207
551.96	55.608
552.30	54.647
552.64	55.534
552.98	55.284
553.32	55.634
553.66	55.765
554.00	54.891
554.34	57.590
554.68	56.788
555.02	56.280
555.36	55.319
555.69	54.777
556.03	55.350
556.37	56.023
556.71	55.346
557.05	53.932
557.39	55.800
557.73	56.334
558.07	55.399
558.41	56.957
558.75	56.703
559.08	58.327
559.42	57.623
559.76	57.662
560.10	55.747
560.44	55.939
560.78	55.179
561.12	56.961
561.45	54.506
561.79	55.181
562.13	54.833
562.47	55.419
562.81	56.278
563.15	54.880
563.48	54.348
563.82	55.583
564.16	55.597
564.50	53.828
564.84	54.347
565.17	54.308
565.51	56.712
565.85	56.323
566.19	55.060
566.52	54.753
566.86	55.517
567.20	54.326
567.54	53.930
567.88	53.052
568.21	51.772
568.55	52.432
568.89	51.734
569.23	50.949
569.56	49.960
569.90	48.868
570.24	49.029
570.57	48.378
570.91	47.551
571.25	46.649
571.59	45.967
571.92	45.452
572.26	45.903
572.60	45.404
572.93	46.348
573.27	46.870
573.61	45.750
573.95	46.464
574.28	45.153
574.62	45.109
574.96	45.050
575.29	44.487
575.63	44.264
575.97	44.060
576.30	44.141
576.64	44.831
576.98	45.252
577.31	45.263
577.65	44.669
577.98	44.064
578.32	43.589
578.66	43.993
578.99	43.759
579.33	44.362
579.67	44.957
580.00	44.210
580.34	43.943
580.67	44.474
581.01	44.832
581.35	44.425
581.68	43.418
582.02	43.848
582.35	43.517
582.69	44.437
583.02	44.054
583.36	44.653
583.70	45.193
584.03	46.060
584.37	46.012
584.70	45.260
585.04	44.754
585.37	44.387
585.71	45.146
586.04	44.856
586.38	44.889
586.72	45.637
587.05	45.471
587.39	45.714
587.72	45.816
588.06	46.288
588.39	45.624
588.73	46.500
589.06	47.097
589.40	48.294
589.73	47.230
590.07	49.073
590.40	48.258
590.73	49.614
591.07	49.108
591.40	49.381
591.74	49.756
592.07	49.626
592.41	50.080
592.74	48.920
593.08	47.428
593.41	46.828
593.75	46.296
594.08	47.213
594.41	47.768
594.75	47.397
595.08	48.182
595.42	47.959
595.75	47.680
596.09	47.967
596.42	48.252
596.75	50.040
597.09	50.764
597.42	50.980
597.75	49.493
598.09	49.610
598.42	49.204
598.76	48.342
599.09	49.025
599.42	47.958
599.76	47.931
600.09	47.424
600.42	47.790
600.76	47.723
601.09	48.119
601.42	47.730
601.76	47.870
602.09	49.080
602.42	48.022
602.76	48.425
603.09	49.811
603.42	49.101
603.76	48.626
604.09	48.570
604.42	48.701
604.76	49.467
605.09	50.204
605.42	49.086
605.75	49.822
606.09	49.082
606.42	49.906
606.75	49.009
607.09	49.585
607.42	49.297
607.75	50.000
608.08	49.553
608.42	49.958
608.75	49.166
609.08	50.022
609.41	51.136
609.75	50.733
610.08	51.349
610.41	51.076
610.74	50.433
611.07	51.660
611.41	51.854
611.74	51.960
612.07	51.734
612.40	52.778
612.73	52.921
613.07	52.610
613.40	53.484
613.73	52.272
614.06	51.400
614.39	52.071
614.72	51.632
615.06	51.731
615.39	52.129
615.72	51.355
616.05	51.934
616.38	52.867
616.71	51.438
617.05	53.597
617.38	53.034
617.71	55.062
618.04	53.617
618.37	53.696
618.70	54.042
619.03	55.311
619.36	54.585
619.69	56.201
620.03	58.382
620.36	57.225
620.69	57.024
621.02	58.764
621.35	55.516
621.68	59.513
622.01	59.188
622.34	58.048
622.67	57.303
623.00	57.726
623.33	56.950
623.66	56.620
623.99	57.945
624.32	57.588
624.65	56.155
624.99	58.959
625.32	56.981
625.65	58.828
625.98	57.741
626.31	60.682
626.64	58.998
626.97	61.132
627.30	61.335
627.63	60.675
627.96	59.781
628.29	61.551
628.62	61.933
628.95	63.298
629.28	63.453
629.61	62.654
629.94	60.933
630.26	62.912
630.59	62.145
630.92	63.498
631.25	61.741
