SpectraSuite Data File
++++++++++++++++++++++++++++++++++++
Date: Tue May 12 16:47:58 PDT 2015
User: schluterlab
Dark Spectrum Present: Yes
Reference Spectrum Present: Yes
Number of Sampled Component Spectra: 1
Spectrometers: USB2E3373
Integration Time (usec): 3000 (USB2E3373)
Spectra Averaged: 3 (USB2E3373)
Boxcar Smoothing: 0 (USB2E3373)
Correct for Electrical Dark: No (USB2E3373)
Strobe/Lamp Enabled: No (USB2E3373)
Correct for Detector Non-linearity: No (USB2E3373)
Correct for Stray Light: No (USB2E3373)
Number of Pixels in Processed Spectrum: 2048
>>>>>Begin Processed Spectral Data<<<<<
178.53	0.000
178.91	-233.333
179.29	-700.000
179.67	-3600.000
180.04	-133.333
180.42	675.000
180.80	1750.000
181.18	0.000
181.56	-350.000
181.94	0.000
182.31	1133.333
182.69	-2900.000
183.07	614.286
183.45	-2800.000
183.83	-1850.000
184.20	340.000
184.58	528.571
184.96	-215.385
185.34	-166.667
185.72	1850.000
186.09	-750.000
186.47	-2700.000
186.85	1133.333
187.23	520.000
187.61	1800.000
187.98	500.000
188.36	285.714
188.74	316.667
189.12	300.000
189.49	1025.000
189.87	0.000
190.25	375.000
190.63	2300.000
191.00	-200.000
191.38	-3600.000
191.76	-850.000
192.14	537.500
192.51	-2500.000
192.89	2150.000
193.27	1100.000
193.65	-933.333
194.02	-720.000
194.40	500.000
194.78	-192.857
195.15	286.667
195.53	-3100.000
195.91	-560.000
196.29	3300.000
196.66	218.750
197.04	1050.000
197.42	-1600.000
197.79	650.000
198.17	358.333
198.55	0.000
198.92	571.429
199.30	966.667
199.68	1750.000
200.05	583.333
200.43	-466.667
200.81	261.111
201.18	3600.000
201.56	300.000
201.94	-875.000
202.31	-450.000
202.69	-460.000
203.07	3000.000
203.44	-483.333
203.82	316.667
204.19	640.000
204.57	-1350.000
204.95	-425.000
205.32	-840.000
205.70	433.333
206.08	800.000
206.45	-900.000
206.83	322.222
207.20	226.316
207.58	291.667
207.96	900.000
208.33	0.000
208.71	542.857
209.08	860.000
209.46	-2400.000
209.84	-725.000
210.21	780.000
210.59	-580.000
210.96	266.667
211.34	-975.000
211.71	400.000
212.09	875.000
212.46	1800.000
212.84	-533.333
213.22	344.444
213.59	-2800.000
213.97	440.000
214.34	825.000
214.72	1066.667
215.09	933.333
215.47	-2800.000
215.84	-290.000
216.22	-487.500
216.59	0.000
216.97	0.000
217.34	1450.000
217.72	-1550.000
218.09	1200.000
218.47	325.000
218.84	775.000
219.22	1033.333
219.59	966.667
219.97	542.857
220.34	455.556
220.72	1450.000
221.09	3600.000
221.47	275.000
221.84	1100.000
222.22	410.000
222.59	233.333
222.97	228.571
223.34	256.250
223.72	-1450.000
224.09	1033.333
224.46	284.615
224.84	-975.000
225.21	411.111
225.59	273.333
225.96	833.333
226.34	-520.000
226.71	-575.000
227.08	-500.000
227.46	0.000
227.83	-450.000
228.21	-1800.000
228.58	375.000
228.95	1000.000
229.33	244.444
229.70	950.000
230.08	346.154
230.45	2900.000
230.82	-900.000
231.20	-866.667
231.57	-766.667
231.95	520.000
232.32	225.000
232.69	366.667
233.07	225.000
233.44	-1900.000
233.81	220.000
234.19	166.667
234.56	231.250
234.93	158.824
235.31	235.000
235.68	237.500
236.05	164.286
236.43	170.370
236.80	250.000
237.17	172.414
237.55	150.000
237.92	122.500
238.29	124.242
238.67	137.500
239.04	114.634
239.41	81.250
239.79	107.500
240.16	72.917
240.53	81.967
240.91	81.159
241.28	98.305
241.65	80.303
242.02	85.915
242.40	70.000
242.77	67.033
243.14	56.962
243.51	74.747
243.89	58.879
244.26	49.533
244.63	61.386
245.00	58.716
245.38	43.220
245.75	47.727
246.12	54.074
246.49	50.355
246.87	45.902
247.24	48.000
247.61	42.500
247.98	46.939
248.36	44.848
248.73	48.469
249.10	45.833
249.47	41.000
249.84	36.318
250.22	44.865
250.59	36.500
250.96	39.662
251.33	40.930
251.70	44.643
252.08	39.496
252.45	39.841
252.82	38.783
253.19	32.806
253.56	38.462
253.94	38.043
254.31	37.984
254.68	38.328
255.05	38.621
255.42	38.321
255.79	41.368
256.16	40.000
256.54	39.610
256.91	35.948
257.28	35.786
257.65	34.169
258.02	35.398
258.39	37.249
258.76	37.681
259.14	32.000
259.51	37.901
259.88	38.906
260.25	32.143
260.62	33.425
260.99	34.711
261.36	35.655
261.73	34.309
262.10	36.387
262.47	31.250
262.85	31.467
263.22	36.761
263.59	34.015
263.96	35.338
264.33	30.617
264.70	33.415
265.07	35.366
265.44	34.633
265.81	32.547
266.18	33.181
266.55	31.442
266.92	31.767
267.29	34.868
267.66	32.960
268.03	31.390
268.40	30.867
268.77	34.581
269.14	32.321
269.51	32.294
269.88	32.653
270.25	29.158
270.62	32.189
270.99	32.454
271.36	33.740
271.73	31.656
272.10	30.101
272.47	30.952
272.84	30.938
273.21	33.058
273.58	31.781
273.95	32.238
274.32	29.183
274.69	30.906
275.06	32.423
275.43	31.034
275.80	29.434
276.17	31.250
276.54	32.150
276.91	33.022
277.28	28.832
277.65	31.181
278.02	32.169
278.39	27.878
278.76	28.966
279.13	30.605
279.50	31.273
279.87	27.188
280.23	27.624
280.60	28.650
280.97	30.172
281.34	27.723
281.71	29.565
282.08	28.205
282.45	29.223
282.82	30.268
283.19	28.458
283.56	28.099
283.92	29.153
284.29	28.785
284.66	29.076
285.03	29.851
285.40	28.099
285.77	28.086
286.14	29.102
286.51	29.294
286.87	26.899
287.24	28.529
287.61	27.204
287.98	27.313
288.35	27.259
288.72	27.162
289.08	26.276
289.45	27.896
289.82	28.438
290.19	27.526
290.56	28.093
290.93	26.763
291.29	27.486
291.66	27.119
292.03	28.050
292.40	27.100
292.77	25.209
293.13	27.389
293.50	23.887
293.87	24.526
294.24	27.133
294.60	27.725
294.97	28.112
295.34	24.834
295.71	26.150
296.08	25.333
296.44	26.429
296.81	25.931
297.18	24.208
297.55	25.862
297.91	25.123
298.28	24.034
298.65	23.558
299.02	24.367
299.38	24.460
299.75	25.366
300.12	25.115
300.48	24.707
300.85	24.911
301.22	25.349
301.59	23.821
301.95	24.504
302.32	24.796
302.69	25.339
303.05	24.916
303.42	24.664
303.79	24.269
304.15	24.642
304.52	23.467
304.89	24.733
305.25	25.362
305.62	25.160
305.99	24.130
306.35	25.263
306.72	25.598
307.09	24.845
307.45	24.604
307.82	23.045
308.19	24.021
308.55	24.200
308.92	24.436
309.29	24.556
309.65	24.678
310.02	25.152
310.38	23.928
310.75	23.915
311.12	25.000
311.48	24.324
311.85	25.954
312.22	24.928
312.58	24.198
312.95	26.796
313.31	25.468
313.68	26.079
314.05	26.282
314.41	25.233
314.78	27.557
315.14	27.583
315.51	27.247
315.87	26.186
316.24	28.385
316.61	26.947
316.97	26.881
317.34	27.673
317.70	27.919
318.07	27.847
318.43	28.647
318.80	27.758
319.16	28.147
319.53	27.965
319.89	27.867
320.26	30.447
320.62	29.853
320.99	30.887
321.35	29.870
321.72	31.594
322.08	30.102
322.45	30.427
322.81	31.656
323.18	31.528
323.54	32.230
323.91	32.910
324.27	31.742
324.64	31.574
325.00	32.931
325.37	33.137
325.73	32.715
326.10	33.223
326.46	35.260
326.83	33.280
327.19	35.422
327.56	34.585
327.92	34.754
328.29	36.088
328.65	36.644
329.01	35.843
329.38	35.702
329.74	35.354
330.11	37.793
330.47	35.891
330.84	36.842
331.20	36.041
331.56	37.392
331.93	37.297
332.29	35.204
332.66	38.010
333.02	36.512
333.38	37.609
333.75	37.364
334.11	37.416
334.48	36.581
334.84	37.078
335.20	37.211
335.57	36.524
335.93	37.006
336.29	36.567
336.66	37.050
337.02	36.612
337.38	36.457
337.75	36.402
338.11	37.722
338.47	36.749
338.84	35.817
339.20	37.229
339.56	36.585
339.93	36.371
340.29	35.462
340.65	36.714
341.02	36.525
341.38	36.782
341.74	36.379
342.11	36.311
342.47	36.341
342.83	37.162
343.20	36.621
343.56	35.504
343.92	36.581
344.28	36.443
344.65	37.082
345.01	36.032
345.37	34.776
345.73	35.952
346.10	35.857
346.46	36.603
346.82	34.491
347.19	36.553
347.55	35.285
347.91	35.121
348.27	35.167
348.63	36.788
349.00	35.796
349.36	36.420
349.72	36.391
350.08	35.947
350.45	35.644
350.81	35.092
351.17	36.980
351.53	34.873
351.89	36.364
352.26	35.676
352.62	36.124
352.98	35.123
353.34	35.978
353.70	34.709
354.07	35.923
354.43	34.639
354.79	34.169
355.15	35.452
355.51	36.103
355.87	35.015
356.24	35.720
356.60	34.323
356.96	34.875
357.32	34.891
357.68	35.683
358.04	36.094
358.40	35.307
358.77	35.312
359.13	36.411
359.49	34.989
359.85	35.964
360.21	34.918
360.57	34.745
360.93	35.209
361.29	34.632
361.66	36.614
362.02	33.665
362.38	34.416
362.74	35.527
363.10	34.081
363.46	33.702
363.82	35.835
364.18	35.064
364.54	35.336
364.90	35.007
365.26	35.461
365.62	34.530
365.98	34.825
366.35	34.690
366.71	35.531
367.07	34.812
367.43	35.527
367.79	32.979
368.15	34.464
368.51	34.941
368.87	33.832
369.23	34.304
369.59	34.053
369.95	35.874
370.31	34.155
370.67	34.004
371.03	34.454
371.39	34.280
371.75	33.985
372.11	35.622
372.47	35.342
372.83	34.670
373.19	35.161
373.55	35.533
373.91	34.254
374.27	33.929
374.63	35.797
374.99	35.647
375.35	36.290
375.71	35.488
376.07	35.544
376.42	34.847
376.78	34.811
377.14	35.780
377.50	33.271
377.86	34.465
378.22	34.491
378.58	34.564
378.94	34.279
379.30	34.384
379.66	35.160
380.02	34.487
380.38	34.485
380.74	35.813
381.09	34.813
381.45	33.988
381.81	34.279
382.17	35.104
382.53	34.133
382.89	34.654
383.25	34.399
383.61	35.331
383.97	34.913
384.32	34.840
384.68	36.185
385.04	34.467
385.40	35.350
385.76	33.821
386.12	35.312
386.48	36.353
386.83	34.841
387.19	34.511
387.55	35.100
387.91	34.411
388.27	34.384
388.62	35.387
388.98	33.528
389.34	34.503
389.70	34.257
390.06	35.061
390.42	35.780
390.77	34.828
391.13	35.667
391.49	34.422
391.85	34.954
392.20	34.446
392.56	34.289
392.92	34.643
393.28	34.361
393.64	34.002
393.99	34.855
394.35	34.903
394.71	32.992
395.07	34.063
395.42	35.246
395.78	35.534
396.14	34.699
396.50	34.477
396.85	34.268
397.21	34.537
397.57	33.712
397.92	33.738
398.28	33.315
398.64	34.962
399.00	33.725
399.35	33.333
399.71	33.499
400.07	34.646
400.42	34.567
400.78	34.839
401.14	34.410
401.49	34.217
401.85	35.168
402.21	35.208
402.57	34.351
402.92	35.212
403.28	34.248
403.63	33.255
403.99	34.741
404.35	34.642
404.70	34.968
405.06	33.970
405.42	34.231
405.77	33.572
406.13	33.677
406.49	33.428
406.84	33.615
407.20	34.418
407.55	34.831
407.91	34.333
408.27	33.717
408.62	33.767
408.98	33.885
409.34	33.898
409.69	34.039
410.05	34.347
410.40	34.393
410.76	33.085
411.11	34.064
411.47	33.519
411.83	33.158
412.18	33.937
412.54	33.994
412.89	33.923
413.25	34.664
413.60	33.762
413.96	34.650
414.31	34.770
414.67	34.699
415.03	34.994
415.38	34.953
415.74	35.376
416.09	35.415
416.45	35.229
416.80	36.626
417.16	34.882
417.51	35.223
417.87	34.543
418.22	35.419
418.58	34.841
418.93	35.455
419.29	34.504
419.64	35.130
420.00	34.606
420.35	35.250
420.71	34.831
421.06	34.314
421.42	34.197
421.77	35.036
422.12	34.675
422.48	34.001
422.83	34.710
423.19	34.611
423.54	34.888
423.90	34.485
424.25	35.718
424.61	34.533
424.96	34.896
425.31	35.085
425.67	34.905
426.02	34.773
426.38	34.772
426.73	35.512
427.09	34.698
427.44	35.509
427.79	34.763
428.15	35.828
428.50	35.943
428.85	34.862
429.21	35.062
429.56	34.845
429.92	35.505
430.27	34.494
430.62	35.095
430.98	35.080
431.33	34.677
431.68	34.272
432.04	34.972
432.39	35.236
432.74	35.129
433.10	34.994
433.45	35.037
433.80	35.797
434.16	35.260
434.51	35.139
434.86	35.166
435.22	35.062
435.57	36.277
435.92	36.084
436.28	35.253
436.63	35.927
436.98	36.318
437.34	36.130
437.69	36.170
438.04	35.215
438.39	35.610
438.75	36.303
439.10	36.427
439.45	35.387
439.81	36.032
440.16	35.113
440.51	35.079
440.86	36.581
441.22	34.794
441.57	36.430
441.92	35.390
442.27	35.361
442.63	35.569
442.98	34.968
443.33	36.047
443.68	35.362
444.03	35.580
444.39	35.593
444.74	36.646
445.09	36.072
445.44	36.238
445.79	35.673
446.15	35.947
446.50	35.549
446.85	36.155
447.20	36.020
447.55	35.835
447.91	37.187
448.26	35.357
448.61	36.705
448.96	37.309
449.31	36.249
449.66	36.379
450.02	36.197
450.37	36.202
450.72	36.584
451.07	36.707
451.42	37.404
451.77	37.056
452.12	36.869
452.47	36.148
452.83	36.394
453.18	37.297
453.53	37.359
453.88	37.429
454.23	37.769
454.58	37.704
454.93	37.032
455.28	38.005
455.63	37.470
455.98	36.435
456.34	37.812
456.69	38.110
457.04	37.947
457.39	37.371
457.74	37.669
458.09	36.609
458.44	37.459
458.79	37.135
459.14	36.989
459.49	37.146
459.84	37.935
460.19	37.232
460.54	37.550
460.89	37.687
461.24	37.285
461.59	37.018
461.94	37.411
462.29	38.215
462.64	38.442
462.99	38.260
463.34	38.561
463.69	38.838
464.04	37.939
464.39	36.806
464.74	36.694
465.09	37.145
465.44	38.248
465.79	36.908
466.14	36.513
466.49	37.385
466.84	36.343
467.19	37.083
467.54	37.357
467.89	37.617
468.24	37.927
468.59	37.202
468.94	37.923
469.29	37.324
469.64	37.942
469.99	37.853
470.34	39.279
470.68	38.621
471.03	39.693
471.38	38.477
471.73	38.733
472.08	39.008
472.43	39.479
472.78	39.373
473.13	37.359
473.48	37.408
473.83	39.046
474.17	38.602
474.52	38.152
474.87	37.635
475.22	38.492
475.57	37.618
475.92	37.302
476.27	38.466
476.61	38.284
476.96	37.722
477.31	38.715
477.66	38.701
478.01	38.319
478.36	38.363
478.70	37.320
479.05	38.441
479.40	37.897
479.75	39.325
480.10	38.867
480.45	37.722
480.79	37.604
481.14	38.421
481.49	37.328
481.84	38.171
482.19	37.598
482.53	37.022
482.88	38.217
483.23	37.844
483.58	37.837
483.92	37.523
484.27	37.543
484.62	38.031
484.97	36.891
485.31	36.379
485.66	35.688
486.01	34.208
486.36	34.115
486.70	33.832
487.05	34.599
487.40	35.256
487.75	35.425
488.09	35.710
488.44	35.660
488.79	37.036
489.13	37.850
489.48	37.155
489.83	37.031
490.17	36.788
490.52	38.071
490.87	37.802
491.22	38.431
491.56	38.120
491.91	38.441
492.26	37.461
492.60	38.724
492.95	38.514
493.30	38.854
493.64	38.814
493.99	38.372
494.34	38.817
494.68	38.734
495.03	38.976
495.37	38.631
495.72	39.068
496.07	38.634
496.41	38.401
496.76	38.624
497.11	39.117
497.45	38.799
497.80	38.508
498.14	39.667
498.49	39.415
498.84	39.766
499.18	38.254
499.53	39.550
499.87	38.005
500.22	38.738
500.56	39.090
500.91	39.471
501.26	39.458
501.60	38.479
501.95	37.679
502.29	39.111
502.64	38.509
502.98	38.639
503.33	39.599
503.67	38.675
504.02	38.289
504.36	39.321
504.71	40.114
505.06	39.277
505.40	39.027
505.75	39.055
506.09	39.524
506.44	38.910
506.78	39.461
507.13	39.748
507.47	39.738
507.82	39.173
508.16	40.078
508.51	39.855
508.85	39.649
509.19	39.452
509.54	40.088
509.88	40.875
510.23	39.804
510.57	39.237
510.92	40.509
511.26	40.361
511.61	39.537
511.95	39.572
512.30	40.100
512.64	40.395
512.98	40.390
513.33	40.113
513.67	40.290
514.02	39.532
514.36	40.239
514.70	40.427
515.05	40.224
515.39	41.228
515.74	42.592
516.08	41.231
516.42	42.514
516.77	40.800
517.11	40.427
517.46	41.110
517.80	41.016
518.14	42.028
518.49	41.566
518.83	39.945
519.17	41.209
519.52	42.490
519.86	41.253
520.20	41.315
520.55	41.775
520.89	41.724
521.23	41.530
521.58	40.677
521.92	41.633
522.26	41.291
522.61	42.781
522.95	41.922
523.29	41.754
523.64	40.058
523.98	42.195
524.32	41.811
524.66	41.507
525.01	42.663
525.35	41.249
525.69	41.842
526.04	42.237
526.38	42.084
526.72	42.124
527.06	41.987
527.41	42.866
527.75	42.483
528.09	42.023
528.43	42.465
528.78	41.682
529.12	43.107
529.46	42.314
529.80	42.173
530.15	42.310
530.49	40.915
530.83	42.413
531.17	42.374
531.51	41.999
531.86	41.727
532.20	42.151
532.54	42.436
532.88	42.099
533.22	41.926
533.57	41.184
533.91	40.268
534.25	40.565
534.59	41.637
534.93	40.728
535.27	40.011
535.62	41.657
535.96	40.544
536.30	41.560
536.64	41.429
536.98	42.039
537.32	41.187
537.66	43.367
538.01	41.858
538.35	41.797
538.69	41.019
539.03	41.169
539.37	41.505
539.71	40.926
540.05	41.600
540.39	42.075
540.73	41.962
541.07	41.092
541.42	41.294
541.76	41.184
542.10	40.197
542.44	41.895
542.78	40.906
543.12	39.755
543.46	41.416
543.80	42.293
544.14	41.981
544.48	41.119
544.82	42.202
545.16	39.830
545.50	41.303
545.84	41.162
546.18	42.458
546.52	41.246
546.86	42.231
547.20	41.473
547.54	40.595
547.88	40.876
548.22	41.591
548.56	39.305
548.90	39.205
549.24	41.251
549.58	40.464
549.92	41.650
550.26	42.394
550.60	40.852
550.94	42.266
551.28	42.828
551.62	42.552
551.96	42.095
552.30	41.002
552.64	41.877
552.98	39.755
553.32	40.525
553.66	40.130
554.00	41.441
554.34	42.077
554.68	41.465
555.02	42.159
555.36	41.090
555.69	41.099
556.03	39.682
556.37	41.300
556.71	41.786
557.05	39.515
557.39	40.800
557.73	40.836
558.07	41.985
558.41	41.604
558.75	41.860
559.08	41.959
559.42	43.379
559.76	42.552
560.10	41.294
560.44	41.075
560.78	40.473
561.12	40.877
561.45	41.427
561.79	40.200
562.13	39.672
562.47	41.207
562.81	40.989
563.15	39.948
563.48	39.565
563.82	40.674
564.16	41.294
564.50	40.808
564.84	40.547
565.17	38.859
565.51	40.640
565.85	42.196
566.19	40.238
566.52	40.373
566.86	40.922
567.20	39.494
567.54	39.083
567.88	39.802
568.21	38.043
568.55	38.521
568.89	38.093
569.23	37.015
569.56	36.981
569.90	35.645
570.24	36.218
570.57	35.269
570.91	35.101
571.25	35.231
571.59	34.405
571.92	33.961
572.26	34.259
572.60	33.991
572.93	34.704
573.27	34.865
573.61	34.488
573.95	33.790
574.28	34.198
574.62	33.302
574.96	33.454
575.29	33.235
575.63	33.145
575.97	32.838
576.30	33.384
576.64	33.568
576.98	33.411
577.31	34.020
577.65	33.153
577.98	32.884
578.32	32.307
578.66	32.970
578.99	33.312
579.33	32.860
579.67	33.256
580.00	33.180
580.34	33.281
580.67	33.333
581.01	33.224
581.35	32.836
581.68	31.736
582.02	32.227
582.35	32.073
582.69	32.631
583.02	32.392
583.36	32.947
583.70	33.157
584.03	33.855
584.37	33.872
584.70	33.516
585.04	33.048
585.37	32.687
585.71	33.326
586.04	33.077
586.38	33.349
586.72	33.436
587.05	33.299
587.39	32.996
587.72	32.813
588.06	32.903
588.39	33.112
588.73	33.097
589.06	34.374
589.40	34.022
589.73	34.841
590.07	34.317
590.40	35.401
590.73	35.108
591.07	35.560
591.40	35.130
591.74	35.795
592.07	34.900
592.41	35.052
592.74	34.310
593.08	33.203
593.41	33.423
593.75	33.294
594.08	33.323
594.41	33.496
594.75	34.932
595.08	34.225
595.42	33.608
595.75	33.761
596.09	35.002
596.42	33.795
596.75	35.016
597.09	35.865
597.42	34.000
597.75	34.077
598.09	34.592
598.42	34.313
598.76	33.809
599.09	33.910
599.42	33.495
599.76	33.887
600.09	33.492
600.42	33.529
600.76	33.345
601.09	33.897
601.42	32.876
601.76	33.727
602.09	33.628
602.42	32.754
602.76	33.890
603.09	34.465
603.42	34.716
603.76	33.080
604.09	33.768
604.42	33.145
604.76	33.702
605.09	34.082
605.42	33.929
605.75	34.189
606.09	33.894
606.42	33.070
606.75	33.968
607.09	33.597
607.42	34.110
607.75	33.758
608.08	33.347
608.42	34.186
608.75	33.462
609.08	34.228
609.41	34.909
609.75	34.753
610.08	34.622
610.41	33.860
610.74	33.983
611.07	34.743
611.41	34.662
611.74	35.660
612.07	34.875
612.40	34.503
612.73	34.698
613.07	35.124
613.40	36.090
613.73	35.247
614.06	34.000
614.39	34.848
614.72	35.711
615.06	34.421
615.39	34.455
615.72	34.608
616.05	35.058
616.38	34.551
616.71	35.323
617.05	34.926
617.38	34.607
617.71	35.658
618.04	34.941
618.37	35.520
618.70	35.277
619.03	36.691
619.36	35.867
619.69	36.148
620.03	37.769
620.36	37.251
620.69	37.037
621.02	36.957
621.35	36.318
621.68	37.537
622.01	37.786
622.34	36.926
622.67	36.587
623.00	37.168
623.33	36.100
623.66	37.259
623.99	36.781
624.32	36.382
624.65	35.484
624.99	36.849
625.32	36.540
625.65	36.828
625.98	35.565
626.31	38.279
626.64	36.902
626.97	36.343
627.30	36.413
627.63	37.755
627.96	37.559
628.29	38.036
628.62	38.494
628.95	40.514
629.28	39.877
629.61	38.489
629.94	38.634
630.26	38.562
630.59	39.982
630.92	38.565
631.25	39.619
