SpectraSuite Data File
++++++++++++++++++++++++++++++++++++
Date: Wed May 13 21:50:42 PDT 2015
User: schluterlab
Dark Spectrum Present: Yes
Reference Spectrum Present: Yes
Number of Sampled Component Spectra: 1
Spectrometers: USB2E3373
Integration Time (usec): 3000 (USB2E3373)
Spectra Averaged: 3 (USB2E3373)
Boxcar Smoothing: 0 (USB2E3373)
Correct for Electrical Dark: No (USB2E3373)
Strobe/Lamp Enabled: No (USB2E3373)
Correct for Detector Non-linearity: No (USB2E3373)
Correct for Stray Light: No (USB2E3373)
Number of Pixels in Processed Spectrum: 2048
>>>>>Begin Processed Spectral Data<<<<<
178.53	0.000
178.91	500.000
179.29	183.333
179.67	-650.000
180.04	-366.667
180.42	220.000
180.80	1100.000
181.18	250.000
181.56	-625.000
181.94	-175.000
182.31	-45.455
182.69	107.692
183.07	-140.000
183.45	500.000
183.83	155.556
184.20	71.429
184.58	0.000
184.96	566.667
185.34	228.571
185.72	0.000
186.09	-1300.000
186.47	60.000
186.85	260.000
187.23	-450.000
187.61	250.000
187.98	2200.000
188.36	-150.000
188.74	0.000
189.12	-27.273
189.49	-80.000
189.87	183.333
190.25	340.000
190.63	500.000
191.00	-20.000
191.38	80.000
191.76	475.000
192.14	191.667
192.51	-36.842
192.89	366.667
193.27	300.000
193.65	-360.000
194.02	209.091
194.40	310.000
194.78	-1000.000
195.15	140.000
195.53	-260.000
195.91	-125.000
196.29	-333.333
196.66	0.000
197.04	300.000
197.42	-120.000
197.79	30.000
198.17	-87.500
198.55	-433.333
198.92	400.000
199.30	-433.333
199.68	-70.000
200.05	1200.000
200.43	216.667
200.81	-1900.000
201.18	-300.000
201.56	-16.667
201.94	625.000
202.31	-8.696
202.69	-14.286
203.07	-266.667
203.44	-60.000
203.82	-466.667
204.19	-80.000
204.57	0.000
204.95	-200.000
205.32	0.000
205.70	-500.000
206.08	-250.000
206.45	-150.000
206.83	500.000
207.20	-466.667
207.58	0.000
207.96	-1400.000
208.33	-228.571
208.71	-1600.000
209.08	287.500
209.46	600.000
209.84	0.000
210.21	190.000
210.59	1900.000
210.96	320.000
211.34	600.000
211.71	-950.000
212.09	-283.333
212.46	-100.000
212.84	-333.333
213.22	-175.000
213.59	-1500.000
213.97	-1200.000
214.34	-1100.000
214.72	-115.385
215.09	237.500
215.47	211.111
215.84	750.000
216.22	-87.500
216.59	-550.000
216.97	933.333
217.34	222.222
217.72	0.000
218.09	300.000
218.47	100.000
218.84	-142.857
219.22	-225.000
219.59	-300.000
219.97	-225.000
220.34	-225.000
220.72	-80.000
221.09	0.000
221.47	-250.000
221.84	-700.000
222.22	0.000
222.59	1700.000
222.97	-133.333
223.34	-50.000
223.72	-600.000
224.09	-900.000
224.46	-72.727
224.84	0.000
225.21	-71.429
225.59	-450.000
225.96	-100.000
226.34	-100.000
226.71	-100.000
227.08	1000.000
227.46	-75.000
227.83	-600.000
228.21	-43.750
228.58	-350.000
228.95	0.000
229.33	6.250
229.70	-125.000
230.08	-30.769
230.45	-187.500
230.82	-116.667
231.20	285.714
231.57	-325.000
231.95	1600.000
232.32	-58.333
232.69	-76.471
233.07	-2800.000
233.44	-26.087
233.81	-850.000
234.19	4.167
234.56	-106.667
234.93	-20.000
235.31	-73.684
235.68	-123.077
236.05	-92.308
236.43	-94.444
236.80	-42.424
237.17	-140.000
237.55	-82.353
237.92	-68.966
238.29	-66.667
238.67	-22.222
239.04	-51.613
239.41	-23.404
239.79	-14.894
240.16	-13.953
240.53	-21.429
240.91	-7.143
241.28	-3.571
241.65	-9.677
242.02	-17.105
242.40	-4.348
242.77	-28.986
243.14	-17.949
243.51	-5.319
243.89	-4.808
244.26	-4.717
244.63	-8.654
245.00	-10.417
245.38	2.521
245.75	-3.279
246.12	-9.774
246.49	-19.512
246.87	-18.487
247.24	-2.027
247.61	-12.583
247.98	-8.333
248.36	-6.509
248.73	-6.180
249.10	-3.030
249.47	-5.914
249.84	-4.211
250.22	-7.463
250.59	-3.738
250.96	-1.364
251.33	-13.876
251.70	0.418
252.08	-3.766
252.45	-0.823
252.82	-4.563
253.19	-5.837
253.56	-3.237
253.94	2.847
254.31	-2.465
254.68	-4.027
255.05	-2.640
255.42	-4.545
255.79	-1.840
256.16	0.315
256.54	-5.397
256.91	-9.494
257.28	0.314
257.65	-5.732
258.02	-2.639
258.39	-2.924
258.76	-2.326
259.14	-3.693
259.51	-3.652
259.88	-2.439
260.25	-3.889
260.62	-6.180
260.99	-1.592
261.36	0.259
261.73	-4.198
262.10	-5.344
262.47	-3.704
262.85	-1.990
263.22	-5.128
263.59	-2.857
263.96	-2.190
264.33	-4.087
264.70	-2.093
265.07	-2.083
265.44	-2.989
265.81	-2.975
266.18	-2.050
266.55	-3.275
266.92	-1.271
267.29	-3.498
267.66	-1.699
268.03	-0.617
268.40	-4.025
268.77	-2.066
269.14	-1.020
269.51	2.053
269.88	-2.648
270.25	-2.331
270.62	-2.869
270.99	-2.165
271.36	-2.579
271.73	-3.213
272.10	-1.905
272.47	0.192
272.84	0.591
273.21	-0.978
273.58	-3.074
273.95	-1.509
274.32	-1.493
274.69	-1.639
275.06	-0.177
275.43	-2.448
275.80	-1.064
276.17	-3.131
276.54	-2.131
276.91	0.000
277.28	-3.249
277.65	-2.448
278.02	0.357
278.39	-2.664
278.76	0.167
279.13	-2.230
279.50	-2.069
279.87	-1.993
280.23	-0.901
280.60	-0.692
280.97	-0.487
281.34	0.473
281.71	-2.927
282.08	-2.906
282.45	0.164
282.82	-0.160
283.19	-1.067
283.56	-1.094
283.92	-0.612
284.29	-1.248
284.66	-1.647
285.03	-3.909
285.40	-1.813
285.77	-2.102
286.14	-1.824
286.51	0.300
286.87	-2.923
287.24	-2.360
287.61	-2.410
287.98	0.294
288.35	-2.534
288.72	-0.287
289.08	0.142
289.45	-2.203
289.82	0.000
290.19	0.701
290.56	-2.415
290.93	-1.934
291.29	-0.958
291.66	-0.956
292.03	0.272
292.40	-1.346
292.77	0.803
293.13	-0.139
293.50	-0.915
293.87	0.800
294.24	0.132
294.60	0.260
294.97	1.190
295.34	-1.319
295.71	-1.971
296.08	-0.916
296.44	-0.383
296.81	-0.122
297.18	1.500
297.55	0.000
297.91	0.248
298.28	-0.121
298.65	0.493
299.02	-1.221
299.38	-1.227
299.75	-0.962
300.12	-0.465
300.48	-2.222
300.85	0.577
301.22	0.465
301.59	-0.469
301.95	-1.858
302.32	-0.933
302.69	-2.147
303.05	-0.775
303.42	-1.023
303.79	1.262
304.15	-1.533
304.52	1.505
304.89	-0.554
305.25	-1.647
305.62	-0.651
305.99	0.326
306.35	0.627
306.72	1.017
307.09	1.668
307.45	-1.065
307.82	0.000
308.19	-1.567
308.55	-1.228
308.92	1.473
309.29	-0.300
309.65	0.500
310.02	-0.199
310.38	0.000
310.75	0.296
311.12	2.138
311.48	0.099
311.85	0.787
312.22	0.580
312.58	0.000
312.95	0.000
313.31	1.837
313.68	1.336
314.05	1.701
314.41	1.441
314.78	1.803
315.14	1.574
315.51	2.569
315.87	2.132
316.24	2.938
316.61	2.831
316.97	2.130
317.34	2.317
317.70	3.568
318.07	2.751
318.43	2.800
318.80	2.705
319.16	1.945
319.53	3.584
319.89	2.891
320.26	3.604
320.62	3.522
320.99	2.519
321.35	2.993
321.72	3.176
322.08	3.413
322.45	4.440
322.81	3.882
323.18	3.936
323.54	4.152
323.91	3.613
324.27	4.860
324.64	3.833
325.00	3.937
325.37	4.522
325.73	4.461
326.10	4.205
326.46	5.017
326.83	4.773
327.19	5.285
327.56	5.641
327.92	4.425
328.29	5.259
328.65	5.609
329.01	4.134
329.38	6.609
329.74	5.837
330.11	4.509
330.47	4.253
330.84	5.415
331.20	5.209
331.56	4.801
331.93	5.082
332.29	6.255
332.66	5.424
333.02	6.516
333.38	5.614
333.75	5.973
334.11	6.076
334.48	5.318
334.84	4.505
335.20	6.261
335.57	5.744
335.93	4.983
336.29	4.904
336.66	4.274
337.02	5.652
337.38	4.874
337.75	5.599
338.11	4.611
338.47	4.623
338.84	5.498
339.20	5.379
339.56	6.143
339.93	3.976
340.29	5.551
340.65	5.304
341.02	5.990
341.38	6.081
341.74	5.210
342.11	5.533
342.47	4.100
342.83	5.556
343.20	4.822
343.56	5.070
343.92	5.280
344.28	5.114
344.65	3.673
345.01	4.600
345.37	5.510
345.73	5.719
346.10	4.655
346.46	4.553
346.82	4.976
347.19	4.430
347.55	4.685
347.91	4.131
348.27	4.653
348.63	4.888
349.00	4.481
349.36	4.867
349.72	5.414
350.08	5.616
350.45	4.699
350.81	5.321
351.17	5.158
351.53	4.242
351.89	3.654
352.26	4.556
352.62	4.419
352.98	3.834
353.34	5.233
353.70	4.673
354.07	5.098
354.43	4.588
354.79	4.808
355.15	5.202
355.51	4.784
355.87	4.066
356.24	4.254
356.60	4.222
356.96	5.065
357.32	5.186
357.68	4.354
358.04	4.888
358.40	5.736
358.77	5.122
359.13	4.591
359.49	4.391
359.85	5.459
360.21	4.703
360.57	4.867
360.93	4.097
361.29	4.515
361.66	4.632
362.02	4.003
362.38	4.062
362.74	3.988
363.10	4.628
363.46	4.251
363.82	5.322
364.18	3.771
364.54	4.376
364.90	3.902
365.26	3.539
365.62	3.835
365.98	4.413
366.35	3.901
366.71	3.709
367.07	4.252
367.43	4.251
367.79	4.795
368.15	4.219
368.51	4.290
368.87	4.676
369.23	4.199
369.59	4.369
369.95	3.701
370.31	3.835
370.67	2.969
371.03	4.974
371.39	4.755
371.75	4.786
372.11	3.989
372.47	5.191
372.83	4.508
373.19	3.957
373.55	3.829
373.91	4.950
374.27	3.458
374.63	3.841
374.99	3.830
375.35	3.767
375.71	3.261
376.07	4.112
376.42	4.345
376.78	4.557
377.14	4.407
377.50	4.628
377.86	4.382
378.22	3.666
378.58	4.477
378.94	4.125
379.30	3.935
379.66	4.439
380.02	4.841
380.38	3.976
380.74	4.603
381.09	3.981
381.45	4.958
381.81	4.436
382.17	4.600
382.53	4.062
382.89	3.860
383.25	4.568
383.61	4.298
383.97	3.750
384.32	3.466
384.68	3.701
385.04	4.337
385.40	4.483
385.76	4.380
386.12	4.713
386.48	3.950
386.83	4.255
387.19	3.146
387.55	4.905
387.91	3.813
388.27	3.391
388.62	3.683
388.98	3.942
389.34	4.574
389.70	4.335
390.06	4.062
390.42	3.930
390.77	3.587
391.13	4.672
391.49	4.301
391.85	3.706
392.20	4.261
392.56	4.317
392.92	4.272
393.28	4.009
393.64	3.792
393.99	3.672
394.35	4.321
394.71	3.526
395.07	2.893
395.42	4.509
395.78	4.247
396.14	4.439
396.50	3.171
396.85	5.035
397.21	3.683
397.57	3.975
397.92	3.353
398.28	4.456
398.64	3.886
399.00	4.576
399.35	4.427
399.71	3.902
400.07	3.916
400.42	2.759
400.78	3.625
401.14	3.127
401.49	3.475
401.85	3.931
402.21	3.406
402.57	4.660
402.92	4.380
403.28	4.003
403.63	4.340
403.99	3.135
404.35	3.741
404.70	3.323
405.06	4.521
405.42	3.266
405.77	3.975
406.13	3.429
406.49	3.835
406.84	3.663
407.20	4.026
407.55	3.961
407.91	3.508
408.27	3.369
408.62	4.481
408.98	4.007
409.34	3.094
409.69	3.899
410.05	4.664
410.40	3.469
410.76	3.851
411.11	3.794
411.47	3.915
411.83	3.306
412.18	3.086
412.54	4.010
412.89	3.135
413.25	3.245
413.60	3.323
413.96	3.808
414.31	4.131
414.67	4.317
415.03	3.518
415.38	3.303
415.74	3.769
416.09	3.106
416.45	3.144
416.80	3.624
417.16	4.723
417.51	4.153
417.87	3.704
418.22	3.361
418.58	3.942
418.93	4.520
419.29	3.960
419.64	3.880
420.00	3.619
420.35	3.825
420.71	3.778
421.06	4.367
421.42	4.075
421.77	3.815
422.12	3.954
422.48	3.272
422.83	4.017
423.19	3.450
423.54	3.828
423.90	3.444
424.25	3.640
424.61	3.820
424.96	2.720
425.31	3.758
425.67	3.821
426.02	4.417
426.38	3.669
426.73	3.726
427.09	3.502
427.44	4.228
427.79	3.385
428.15	4.220
428.50	3.384
428.85	4.182
429.21	4.108
429.56	4.038
429.92	4.164
430.27	4.039
430.62	4.145
430.98	4.336
431.33	4.138
431.68	4.526
432.04	4.056
432.39	4.099
432.74	3.066
433.10	4.590
433.45	4.201
433.80	4.080
434.16	3.659
434.51	3.859
434.86	4.064
435.22	3.962
435.57	3.808
435.92	3.679
436.28	3.423
436.63	3.637
436.98	3.702
437.34	4.640
437.69	3.955
438.04	4.018
438.39	3.861
438.75	4.350
439.10	4.627
439.45	4.298
439.81	4.557
440.16	5.217
440.51	4.043
440.86	4.861
441.22	3.901
441.57	4.610
441.92	4.510
442.27	4.221
442.63	3.929
442.98	3.356
443.33	4.628
443.68	4.164
444.03	4.471
444.39	5.007
444.74	3.810
445.09	3.469
445.44	5.127
445.79	4.285
446.15	4.548
446.50	4.736
446.85	4.169
447.20	5.332
447.55	4.589
447.91	4.551
448.26	4.288
448.61	4.143
448.96	4.442
449.31	4.854
449.66	4.511
450.02	4.434
450.37	4.230
450.72	4.305
451.07	5.016
451.42	3.993
451.77	4.869
452.12	4.575
452.47	4.842
452.83	4.658
453.18	4.456
453.53	4.477
453.88	5.422
454.23	4.883
454.58	4.902
454.93	4.554
455.28	4.945
455.63	4.741
455.98	4.382
456.34	4.069
456.69	5.176
457.04	5.325
457.39	5.111
457.74	4.488
458.09	4.206
458.44	4.230
458.79	4.833
459.14	4.382
459.49	4.756
459.84	4.340
460.19	4.442
460.54	5.049
460.89	5.349
461.24	4.254
461.59	4.891
461.94	5.057
462.29	4.412
462.64	4.551
462.99	5.835
463.34	5.318
463.69	4.961
464.04	4.862
464.39	5.003
464.74	5.037
465.09	4.836
465.44	5.443
465.79	4.888
466.14	4.219
466.49	4.047
466.84	5.200
467.19	4.395
467.54	5.120
467.89	5.280
468.24	5.224
468.59	4.589
468.94	4.725
469.29	5.023
469.64	4.254
469.99	5.724
470.34	4.720
470.68	3.717
471.03	4.302
471.38	4.798
471.73	4.664
472.08	5.086
472.43	5.145
472.78	5.341
473.13	4.222
473.48	3.979
473.83	4.394
474.17	4.102
474.52	4.595
474.87	4.403
475.22	5.193
475.57	4.406
475.92	4.962
476.27	4.720
476.61	4.926
476.96	4.455
477.31	5.070
477.66	4.746
478.01	4.396
478.36	4.959
478.70	3.974
479.05	5.161
479.40	4.628
479.75	4.729
480.10	4.793
480.45	5.493
480.79	4.878
481.14	5.522
481.49	5.131
481.84	4.147
482.19	4.863
482.53	4.429
482.88	5.129
483.23	4.427
483.58	4.679
483.92	4.815
484.27	4.712
484.62	4.572
484.97	4.811
485.31	4.674
485.66	4.825
486.01	5.188
486.36	5.067
486.70	4.833
487.05	4.892
487.40	4.651
487.75	4.996
488.09	4.973
488.44	4.662
488.79	5.185
489.13	5.209
489.48	4.917
489.83	5.136
490.17	4.539
490.52	5.236
490.87	4.868
491.22	4.757
491.56	4.504
491.91	5.041
492.26	4.981
492.60	4.714
492.95	5.102
493.30	5.039
493.64	3.933
493.99	5.266
494.34	4.480
494.68	4.916
495.03	4.397
495.37	5.207
495.72	4.612
496.07	4.676
496.41	4.352
496.76	5.165
497.11	4.319
497.45	4.572
497.80	4.997
498.14	4.685
498.49	4.286
498.84	4.656
499.18	4.231
499.53	4.677
499.87	4.561
500.22	4.480
500.56	4.263
500.91	5.382
501.26	4.581
501.60	3.971
501.95	4.839
502.29	4.563
502.64	5.207
502.98	5.202
503.33	4.672
503.67	4.382
504.02	4.216
504.36	4.557
504.71	5.081
505.06	4.534
505.40	4.124
505.75	5.137
506.09	4.446
506.44	4.486
506.78	4.672
507.13	4.522
507.47	4.401
507.82	4.605
508.16	4.644
508.51	4.597
508.85	4.095
509.19	4.339
509.54	5.040
509.88	4.247
510.23	4.579
510.57	5.032
510.92	5.119
511.26	4.180
511.61	3.952
511.95	4.465
512.30	3.887
512.64	4.427
512.98	4.654
513.33	4.676
513.67	4.145
514.02	4.618
514.36	4.888
514.70	4.850
515.05	4.623
515.39	4.658
515.74	4.322
516.08	4.307
516.42	4.263
516.77	3.749
517.11	3.645
517.46	4.082
517.80	4.722
518.14	3.552
518.49	4.280
518.83	4.057
519.17	4.518
519.52	3.981
519.86	3.764
520.20	4.124
520.55	4.415
520.89	3.985
521.23	3.910
521.58	4.362
521.92	4.463
522.26	3.709
522.61	5.042
522.95	4.598
523.29	3.937
523.64	4.450
523.98	3.812
524.32	4.600
524.66	4.870
525.01	4.063
525.35	4.608
525.69	4.374
526.04	4.235
526.38	5.035
526.72	4.011
527.06	4.126
527.41	3.375
527.75	3.872
528.09	4.697
528.43	4.478
528.78	3.876
529.12	4.657
529.46	3.967
529.80	3.754
530.15	4.311
530.49	3.571
530.83	4.130
531.17	3.151
531.51	3.304
531.86	3.252
532.20	3.308
532.54	3.517
532.88	4.697
533.22	4.310
533.57	4.172
533.91	4.645
534.25	4.232
534.59	2.960
534.93	3.763
535.27	3.248
535.62	3.816
535.96	4.619
536.30	3.856
536.64	3.144
536.98	3.364
537.32	2.918
537.66	3.597
538.01	3.398
538.35	2.970
538.69	3.144
539.03	3.893
539.37	3.421
539.71	3.820
540.05	2.767
540.39	3.579
540.73	3.352
541.07	3.810
541.42	3.973
541.76	3.045
542.10	3.521
542.44	3.396
542.78	3.539
543.12	4.447
543.46	3.041
543.80	3.734
544.14	3.235
544.48	2.322
544.82	4.304
545.16	2.975
545.50	3.916
545.84	2.384
546.18	3.296
546.52	3.670
546.86	2.686
547.20	2.502
547.54	2.716
547.88	3.981
548.22	3.583
548.56	2.802
548.90	3.045
549.24	3.750
549.58	3.274
549.92	3.742
550.26	3.764
550.60	1.802
550.94	2.463
551.28	2.952
551.62	3.459
551.96	3.660
552.30	2.402
552.64	3.107
552.98	3.267
553.32	2.740
553.66	3.375
554.00	3.024
554.34	2.711
554.68	3.281
555.02	2.994
555.36	2.723
555.69	2.913
556.03	3.288
556.37	2.703
556.71	3.574
557.05	3.469
557.39	2.185
557.73	3.707
558.07	2.261
558.41	3.179
558.75	2.848
559.08	1.203
559.42	3.147
559.76	3.211
560.10	1.691
560.44	4.053
560.78	2.446
561.12	1.892
561.45	3.810
561.79	3.576
562.13	2.532
562.47	3.286
562.81	2.237
563.15	2.408
563.48	3.028
563.82	3.352
564.16	3.114
564.50	3.053
564.84	1.892
565.17	4.172
565.51	3.476
565.85	2.465
566.19	2.781
566.52	2.556
566.86	3.224
567.20	3.177
567.54	3.512
567.88	2.632
568.21	3.205
568.55	3.026
568.89	2.642
569.23	3.116
569.56	3.630
569.90	2.914
570.24	2.780
570.57	3.787
570.91	3.196
571.25	2.484
571.59	3.007
571.92	2.640
572.26	2.970
572.60	2.926
572.93	2.937
573.27	3.219
573.61	3.138
573.95	2.909
574.28	3.171
574.62	3.184
574.96	3.199
575.29	3.009
575.63	2.819
575.97	3.207
576.30	2.946
576.64	3.039
576.98	2.750
577.31	3.350
577.65	2.651
577.98	2.462
578.32	2.942
578.66	3.018
578.99	2.911
579.33	3.223
579.67	2.775
580.00	2.981
580.34	2.884
580.67	3.160
581.01	3.172
581.35	3.006
581.68	3.029
582.02	2.991
582.35	2.958
582.69	2.995
583.02	3.080
583.36	3.227
583.70	3.208
584.03	3.532
584.37	2.787
584.70	2.956
585.04	3.242
585.37	3.038
585.71	2.991
586.04	3.033
586.38	2.815
586.72	2.866
587.05	3.356
587.39	3.041
587.72	3.005
588.06	3.256
588.39	2.967
588.73	2.948
589.06	2.457
589.40	2.890
589.73	2.623
590.07	3.318
590.40	3.218
590.73	3.120
591.07	2.549
591.40	2.652
591.74	2.490
592.07	3.104
592.41	3.175
592.74	3.356
593.08	2.872
593.41	3.308
593.75	2.745
594.08	3.074
594.41	2.596
594.75	3.148
595.08	3.211
595.42	2.720
595.75	3.254
596.09	3.387
596.42	2.900
596.75	3.379
597.09	3.048
597.42	2.871
597.75	2.889
598.09	2.687
598.42	3.579
598.76	3.275
599.09	3.401
599.42	3.248
599.76	3.342
600.09	3.012
600.42	3.352
600.76	3.067
601.09	2.863
601.42	3.097
601.76	3.050
602.09	3.527
602.42	3.137
602.76	2.936
603.09	3.039
603.42	3.159
603.76	3.118
604.09	3.478
604.42	2.763
604.76	3.186
605.09	3.444
605.42	3.599
605.75	2.527
606.09	2.732
606.42	3.200
606.75	2.208
607.09	2.660
607.42	3.021
607.75	2.101
608.08	3.066
608.42	2.812
608.75	3.201
609.08	2.842
609.41	3.279
609.75	2.572
610.08	2.860
610.41	2.964
610.74	2.551
611.07	3.357
611.41	3.480
611.74	3.675
612.07	2.918
612.40	3.243
612.73	2.964
613.07	2.882
613.40	3.194
613.73	2.979
614.06	2.488
614.39	2.613
614.72	3.665
615.06	2.389
615.39	2.925
615.72	2.160
616.05	2.196
616.38	3.036
616.71	2.460
617.05	2.396
617.38	3.327
617.71	2.145
618.04	2.072
618.37	2.650
618.70	2.781
619.03	2.887
619.36	2.847
619.69	3.363
620.03	2.120
620.36	2.505
620.69	2.070
621.02	2.154
621.35	1.799
621.68	2.282
622.01	3.398
622.34	2.300
622.67	3.915
623.00	3.343
623.33	1.720
623.66	1.487
623.99	3.226
624.32	2.641
624.65	2.967
624.99	2.204
625.32	2.763
625.65	2.248
625.98	2.212
626.31	2.776
626.64	2.408
626.97	1.903
627.30	3.678
627.63	2.509
627.96	2.251
628.29	2.698
628.62	3.385
628.95	1.403
629.28	1.576
629.61	2.679
629.94	2.515
630.26	3.054
630.59	2.897
630.92	1.908
631.25	2.575
631.58	3.319
631.91	1.591
632.24	1.537
632.57	1.444
632.90	3.967
633.23	1.918
633.56	3.717
633.89	2.392
634.22	4.240
634.55	3.045
634.88	2.451
635.20	2.750
635.53	1.550
635.86	1.154
636.19	2.978
636.52	0.366
636.85	2.413
637.18	0.974
637.51	2.747
637.83	1.697
638.16	0.533
638.49	1.202
638.82	2.092
639.15	2.261
639.48	1.738
639.81	0.139
640.13	0.845
640.46	2.401
640.79	2.734
641.12	0.296
641.45	0.873
641.77	1.178
642.10	1.362
642.43	2.358
642.76	0.789
643.09	-0.319
643.41	3.349
643.74	1.939
644.07	0.647
644.40	1.658
644.73	1.356
645.05	1.745
645.38	0.332
645.71	2.381
646.04	-0.168
646.36	2.778
646.69	2.273
647.02	1.275
647.35	2.377
647.67	0.185
648.00	-0.725
648.33	1.864
648.66	-0.668
648.98	1.087
649.31	1.380
649.64	-0.313
649.96	2.054
650.29	0.980
650.62	3.295
650.94	0.517
651.27	-0.177
651.60	1.748
651.92	1.613
652.25	2.848
652.58	4.620
652.90	2.862
653.23	1.019
653.56	1.322
653.88	-0.853
654.21	-1.365
