SpectraSuite Data File
++++++++++++++++++++++++++++++++++++
Date: Tue May 12 15:11:07 PDT 2015
User: schluterlab
Dark Spectrum Present: Yes
Reference Spectrum Present: Yes
Number of Sampled Component Spectra: 1
Spectrometers: USB2E3373
Integration Time (usec): 3000 (USB2E3373)
Spectra Averaged: 3 (USB2E3373)
Boxcar Smoothing: 0 (USB2E3373)
Correct for Electrical Dark: No (USB2E3373)
Strobe/Lamp Enabled: No (USB2E3373)
Correct for Detector Non-linearity: No (USB2E3373)
Correct for Stray Light: No (USB2E3373)
Number of Pixels in Processed Spectrum: 2048
>>>>>Begin Processed Spectral Data<<<<<
178.53	0.000
178.91	-125.000
179.29	-575.000
179.67	-1500.000
180.04	-80.000
180.42	625.000
180.80	750.000
181.18	0.000
181.56	-25.000
181.94	0.000
182.31	466.667
182.69	-2300.000
183.07	285.714
183.45	-2400.000
183.83	-1200.000
184.20	290.000
184.58	200.000
184.96	-92.308
185.34	-141.667
185.72	900.000
186.09	-550.000
186.47	-1800.000
186.85	766.667
187.23	380.000
187.61	1000.000
187.98	325.000
188.36	200.000
188.74	283.333
189.12	266.667
189.49	675.000
189.87	0.000
190.25	312.500
190.63	2700.000
191.00	-150.000
191.38	-2100.000
191.76	-275.000
192.14	350.000
192.51	-1800.000
192.89	1050.000
193.27	566.667
193.65	-800.000
194.02	-500.000
194.40	357.143
194.78	-85.714
195.15	133.333
195.53	-1300.000
195.91	-520.000
196.29	2900.000
196.66	206.250
197.04	575.000
197.42	-450.000
197.79	625.000
198.17	208.333
198.55	0.000
198.92	371.429
199.30	766.667
199.68	900.000
200.05	583.333
200.43	-383.333
200.81	200.000
201.18	2800.000
201.56	200.000
201.94	-600.000
202.31	-175.000
202.69	-360.000
203.07	2100.000
203.44	-216.667
203.82	166.667
204.19	560.000
204.57	-1150.000
204.95	-600.000
205.32	-400.000
205.70	333.333
206.08	225.000
206.45	-466.667
206.83	300.000
207.20	100.000
207.58	133.333
207.96	400.000
208.33	0.000
208.71	471.429
209.08	480.000
209.46	-2100.000
209.84	-275.000
210.21	460.000
210.59	-420.000
210.96	191.667
211.34	-400.000
211.71	318.182
212.09	525.000
212.46	850.000
212.84	-350.000
213.22	366.667
213.59	-1500.000
213.97	180.000
214.34	600.000
214.72	733.333
215.09	633.333
215.47	-1800.000
215.84	-170.000
216.22	-187.500
216.59	0.000
216.97	0.000
217.34	700.000
217.72	-950.000
218.09	700.000
218.47	337.500
218.84	650.000
219.22	666.667
219.59	400.000
219.97	314.286
220.34	155.556
220.72	650.000
221.09	2400.000
221.47	166.667
221.84	900.000
222.22	210.000
222.59	200.000
222.97	142.857
223.34	231.250
223.72	-950.000
224.09	633.333
224.46	138.462
224.84	-425.000
225.21	244.444
225.59	160.000
225.96	800.000
226.34	-320.000
226.71	-650.000
227.08	-320.000
227.46	0.000
227.83	-183.333
228.21	-1050.000
228.58	233.333
228.95	825.000
229.33	255.556
229.70	750.000
230.08	253.846
230.45	1700.000
230.82	-300.000
231.20	-300.000
231.57	-566.667
231.95	320.000
232.32	175.000
232.69	400.000
233.07	208.333
233.44	-900.000
233.81	166.667
234.19	103.704
234.56	68.750
234.93	100.000
235.31	120.000
235.68	131.250
236.05	103.571
236.43	88.889
236.80	64.286
237.17	65.517
237.55	59.375
237.92	65.000
238.29	54.545
238.67	65.625
239.04	48.780
239.41	47.917
239.79	40.000
240.16	50.000
240.53	22.951
240.91	31.884
241.28	32.203
241.65	33.333
242.02	39.437
242.40	40.000
242.77	31.868
243.14	17.722
243.51	36.364
243.89	19.626
244.26	14.953
244.63	18.812
245.00	13.761
245.38	8.475
245.75	16.667
246.12	16.296
246.49	14.894
246.87	7.377
247.24	18.000
247.61	15.000
247.98	11.565
248.36	6.061
248.73	13.776
249.10	6.548
249.47	17.500
249.84	12.438
250.22	6.486
250.59	11.500
250.96	15.190
251.33	12.558
251.70	7.589
252.08	14.706
252.45	9.960
252.82	6.844
253.19	9.091
253.56	9.615
253.94	6.884
254.31	8.527
254.68	9.756
255.05	7.931
255.42	6.934
255.79	10.098
256.16	10.169
256.54	8.117
256.91	7.516
257.28	6.020
257.65	3.448
258.02	6.785
258.39	7.450
258.76	9.565
259.14	4.286
259.51	9.329
259.88	6.991
260.25	5.220
260.62	6.027
260.99	3.581
261.36	5.014
261.73	4.521
262.10	9.424
262.47	6.000
262.85	5.867
263.22	6.170
263.59	6.905
263.96	8.772
264.33	5.679
264.70	8.845
265.07	5.122
265.44	8.257
265.81	5.660
266.18	7.551
266.55	2.837
266.92	4.922
267.29	6.140
267.66	5.830
268.03	4.709
268.40	6.554
268.77	8.370
269.14	3.471
269.51	4.232
269.88	7.959
270.25	3.456
270.62	4.936
270.99	7.505
271.36	5.894
271.73	2.516
272.10	3.838
272.47	3.968
272.84	5.389
273.21	3.719
273.58	7.692
273.95	3.696
274.32	7.004
274.69	6.890
275.06	8.015
275.43	5.172
275.80	4.528
276.17	7.169
276.54	8.037
276.91	6.716
277.28	6.204
277.65	4.613
278.02	6.434
278.39	4.856
278.76	6.724
279.13	3.737
279.50	3.818
279.87	2.793
280.23	1.842
280.60	2.555
280.97	4.828
281.34	4.950
281.71	6.435
282.08	5.641
282.45	5.236
282.82	5.017
283.19	4.452
283.56	4.463
283.92	1.954
284.29	5.657
284.66	5.042
285.03	5.307
285.40	4.463
285.77	3.704
286.14	6.656
286.51	4.448
286.87	3.481
287.24	4.655
287.61	5.167
287.98	4.328
288.35	5.333
288.72	4.552
289.08	4.955
289.45	7.165
289.82	5.625
290.19	3.660
290.56	5.531
290.93	4.173
291.29	3.591
291.66	4.520
292.03	5.330
292.40	5.420
292.77	3.482
293.13	3.994
293.50	3.644
293.87	3.794
294.24	5.455
294.60	4.307
294.97	4.755
295.34	4.515
295.71	6.307
296.08	5.867
296.44	5.210
296.81	4.467
297.18	3.676
297.55	4.557
297.91	3.202
298.28	5.314
298.65	3.804
299.02	5.187
299.38	5.036
299.75	4.390
300.12	5.734
300.48	6.089
300.85	5.483
301.22	5.116
301.59	3.892
301.95	3.851
302.32	5.239
302.69	5.317
303.05	5.387
303.42	4.821
303.79	5.850
304.15	6.161
304.52	5.285
304.89	6.183
305.25	6.007
305.62	6.930
305.99	5.109
306.35	5.789
306.72	6.556
307.09	6.418
307.45	7.181
307.82	6.379
308.19	7.526
308.55	6.700
308.92	7.262
309.29	8.580
309.65	7.235
310.02	7.809
310.38	6.580
310.75	7.811
311.12	6.034
311.48	8.012
311.85	8.588
312.22	8.023
312.58	8.746
312.95	8.835
313.31	9.457
313.68	9.381
314.05	10.897
314.41	8.845
314.78	9.091
315.14	11.374
315.51	11.921
315.87	10.949
316.24	11.485
316.61	10.564
316.97	10.183
317.34	11.860
317.70	12.555
318.07	14.235
318.43	13.708
318.80	12.960
319.16	13.462
319.53	14.248
319.89	12.814
320.26	15.922
320.62	15.934
320.99	15.825
321.35	14.842
321.72	16.224
322.08	16.251
322.45	17.166
322.81	17.658
323.18	17.140
323.54	18.467
323.91	20.671
324.27	19.098
324.64	18.945
325.00	20.690
325.37	20.067
325.73	21.669
326.10	21.872
326.46	22.296
326.83	22.560
327.19	23.454
327.56	22.843
327.92	23.361
328.29	25.123
328.65	25.257
329.01	24.636
329.38	25.888
329.74	25.448
330.11	25.630
330.47	26.172
330.84	25.453
331.20	26.819
331.56	27.375
331.93	26.518
332.29	25.765
332.66	28.061
333.02	27.405
333.38	28.709
333.75	27.690
334.11	27.013
334.48	28.547
334.84	26.774
335.20	28.229
335.57	28.967
335.93	27.754
336.29	27.944
336.66	29.674
337.02	28.229
337.38	28.719
337.75	29.561
338.11	28.186
338.47	28.874
338.84	28.704
339.20	27.706
339.56	28.427
339.93	28.177
340.29	28.067
340.65	29.673
341.02	30.410
341.38	29.064
341.74	29.983
342.11	29.132
342.47	28.466
342.83	29.368
343.20	28.698
343.56	28.118
343.92	28.902
344.28	29.984
344.65	29.421
345.01	28.095
345.37	28.926
345.73	28.492
346.10	29.482
346.46	29.266
346.82	29.244
347.19	30.448
347.55	30.445
347.91	29.305
348.27	29.512
348.63	29.589
349.00	30.008
349.36	30.506
349.72	30.810
350.08	30.901
350.45	30.922
350.81	29.511
351.17	30.123
351.53	30.254
351.89	29.915
352.26	29.630
352.62	31.373
352.98	29.985
353.34	31.202
353.70	30.122
354.07	30.769
354.43	31.720
354.79	29.689
355.15	30.628
355.51	31.193
355.87	31.175
356.24	30.947
356.60	31.355
356.96	30.174
357.32	31.198
357.68	31.204
358.04	30.927
358.40	32.159
358.77	31.255
359.13	31.006
359.49	31.431
359.85	31.646
360.21	30.535
360.57	31.460
360.93	32.035
361.29	31.241
361.66	31.693
362.02	30.114
362.38	30.808
362.74	31.776
363.10	32.258
363.46	31.423
363.82	30.505
364.18	32.006
364.54	32.260
364.90	32.798
365.26	32.339
365.62	32.735
365.98	31.865
366.35	31.655
366.71	31.853
367.07	32.150
367.43	32.841
367.79	32.580
368.15	31.004
368.51	32.047
368.87	31.861
369.23	33.056
369.59	32.771
369.95	32.657
370.31	31.485
370.67	32.963
371.03	32.563
371.39	33.033
371.75	32.100
372.11	32.223
372.47	33.082
372.83	32.495
373.19	32.968
373.55	33.540
373.91	31.906
374.27	32.474
374.63	31.254
374.99	32.143
375.35	33.065
375.71	33.971
376.07	33.090
376.42	31.586
376.78	34.232
377.14	32.241
377.50	32.210
377.86	32.928
378.22	32.785
378.58	33.777
378.94	33.675
379.30	33.050
379.66	33.353
380.02	33.490
380.38	32.611
380.74	32.930
381.09	32.944
381.45	31.908
381.81	32.565
382.17	32.234
382.53	32.993
382.89	32.525
383.25	33.215
383.61	32.450
383.97	33.533
384.32	33.454
384.68	33.036
385.04	33.646
385.40	33.155
385.76	32.768
386.12	32.344
386.48	33.191
386.83	32.885
387.19	32.686
387.55	32.744
387.91	33.256
388.27	33.551
388.62	33.040
388.98	32.362
389.34	32.481
389.70	31.899
390.06	33.171
390.42	33.066
390.77	32.678
391.13	32.951
391.49	32.063
391.85	33.169
392.20	32.777
392.56	32.676
392.92	31.275
393.28	31.783
393.64	31.479
393.99	32.721
394.35	32.549
394.71	31.846
395.07	31.326
395.42	32.963
395.78	32.819
396.14	32.711
396.50	32.491
396.85	32.256
397.21	32.130
397.57	32.098
397.92	31.774
398.28	31.881
398.64	31.123
399.00	31.908
399.35	31.938
399.71	31.678
400.07	31.393
400.42	32.299
400.78	32.258
401.14	31.533
401.49	31.394
401.85	31.518
402.21	31.693
402.57	32.555
402.92	31.455
403.28	30.370
403.63	31.077
403.99	31.423
404.35	30.950
404.70	32.546
405.06	31.331
405.42	31.239
405.77	30.595
406.13	30.315
406.49	30.301
406.84	30.908
407.20	30.879
407.55	30.277
407.91	31.015
408.27	30.928
408.62	30.988
408.98	29.864
409.34	29.924
409.69	29.994
410.05	29.338
410.40	29.505
410.76	29.880
411.11	29.739
411.47	29.198
411.83	28.705
412.18	30.254
412.54	29.730
412.89	30.029
413.25	29.989
413.60	29.731
413.96	29.862
414.31	29.752
414.67	29.919
415.03	29.374
415.38	30.095
415.74	30.954
416.09	29.544
416.45	29.606
416.80	30.468
417.16	29.281
417.51	30.064
417.87	29.287
418.22	28.979
418.58	29.172
418.93	28.852
419.29	29.020
419.64	29.740
420.00	30.430
420.35	29.152
420.71	28.646
421.06	28.782
421.42	28.440
421.77	28.706
422.12	29.658
422.48	28.300
422.83	29.241
423.19	29.050
423.54	28.854
423.90	28.822
424.25	29.279
424.61	29.716
424.96	28.233
425.31	29.009
425.67	29.798
426.02	28.099
426.38	28.588
426.73	29.497
427.09	28.173
427.44	28.250
427.79	29.503
428.15	28.992
428.50	28.800
428.85	29.394
429.21	29.011
429.56	27.916
429.92	28.444
430.27	28.737
430.62	27.851
430.98	27.994
431.33	27.974
431.68	27.309
432.04	27.263
432.39	28.595
432.74	28.923
433.10	28.073
433.45	28.547
433.80	29.233
434.16	28.061
434.51	27.451
434.86	28.634
435.22	27.769
435.57	28.275
435.92	28.230
436.28	28.629
436.63	27.661
436.98	29.392
437.34	28.311
437.69	27.940
438.04	27.634
438.39	28.780
438.75	28.285
439.10	27.901
439.45	27.699
439.81	27.877
440.16	27.793
440.51	27.083
440.86	29.174
441.22	27.922
441.57	27.874
441.92	27.937
442.27	28.093
442.63	27.185
442.98	26.940
443.33	28.656
443.68	27.767
444.03	26.720
444.39	27.825
444.74	27.277
445.09	27.593
445.44	27.896
445.79	27.973
446.15	26.842
446.50	27.373
446.85	26.494
447.20	27.512
447.55	26.971
447.91	27.544
448.26	27.050
448.61	28.082
448.96	27.832
449.31	28.108
449.66	27.685
450.02	27.012
450.37	28.484
450.72	27.218
451.07	27.632
451.42	27.208
451.77	27.320
452.12	27.396
452.47	26.549
452.83	27.211
453.18	27.327
453.53	27.827
453.88	27.714
454.23	26.787
454.58	26.748
454.93	27.774
455.28	28.335
455.63	27.364
455.98	26.622
456.34	27.964
456.69	26.768
457.04	26.193
457.39	26.457
457.74	27.477
458.09	26.109
458.44	26.232
458.79	26.844
459.14	26.841
459.49	27.237
459.84	27.174
460.19	27.288
460.54	26.610
460.89	27.559
461.24	26.002
461.59	27.381
461.94	26.241
462.29	26.716
462.64	26.822
462.99	27.063
463.34	27.220
463.69	27.647
464.04	27.404
464.39	26.503
464.74	25.381
465.09	26.117
465.44	26.115
465.79	27.001
466.14	25.172
466.49	26.207
466.84	26.198
467.19	26.596
467.54	25.766
467.89	26.350
468.24	26.346
468.59	25.595
468.94	26.268
469.29	26.145
469.64	26.302
469.99	26.028
470.34	24.794
470.68	25.379
471.03	25.684
471.38	25.033
471.73	25.865
472.08	26.223
472.43	25.202
472.78	25.416
473.13	25.156
473.48	25.978
473.83	24.971
474.17	25.289
474.52	26.007
474.87	24.559
475.22	25.700
475.57	24.921
475.92	24.783
476.27	24.538
476.61	24.826
476.96	24.347
477.31	25.656
477.66	25.497
478.01	25.013
478.36	24.356
478.70	25.012
479.05	25.052
479.40	24.702
479.75	24.926
480.10	24.782
480.45	24.276
480.79	24.194
481.14	23.966
481.49	24.016
481.84	23.967
482.19	24.629
482.53	23.979
482.88	23.970
483.23	24.041
483.58	23.384
483.92	25.000
484.27	23.716
484.62	24.448
484.97	23.685
485.31	23.300
485.66	22.984
486.01	22.396
486.36	21.998
486.70	21.519
487.05	22.010
487.40	22.483
487.75	22.744
488.09	23.324
488.44	22.753
488.79	23.360
489.13	22.919
489.48	23.172
489.83	23.186
490.17	22.543
490.52	23.557
490.87	23.578
491.22	23.183
491.56	23.144
491.91	22.401
492.26	23.964
492.60	23.781
492.95	23.063
493.30	23.476
493.64	22.911
493.99	23.435
494.34	22.636
494.68	22.931
495.03	23.574
495.37	22.918
495.72	22.844
496.07	23.226
496.41	23.067
496.76	22.372
497.11	22.793
497.45	22.665
497.80	23.494
498.14	22.284
498.49	22.284
498.84	22.944
499.18	22.303
499.53	22.646
499.87	22.372
500.22	22.156
500.56	22.052
500.91	22.913
501.26	22.692
501.60	23.270
501.95	22.133
502.29	22.222
502.64	21.659
502.98	22.054
503.33	22.584
503.67	22.296
504.02	21.899
504.36	21.900
504.71	22.611
505.06	21.539
505.40	22.321
505.75	21.328
506.09	21.792
506.44	22.086
506.78	22.353
507.13	22.055
507.47	21.446
507.82	22.920
508.16	22.636
508.51	21.691
508.85	21.605
509.19	22.467
509.54	21.533
509.88	22.178
510.23	22.010
510.57	20.946
510.92	21.878
511.26	22.189
511.61	22.107
511.95	21.901
512.30	22.300
512.64	20.976
512.98	20.554
513.33	21.875
513.67	21.388
514.02	21.195
514.36	21.028
514.70	20.960
515.05	21.257
515.39	21.656
515.74	21.378
516.08	21.296
516.42	22.186
516.77	21.387
517.11	21.280
517.46	21.875
517.80	20.481
518.14	22.085
518.49	21.389
518.83	21.044
519.17	21.353
519.52	21.901
519.86	21.744
520.20	21.479
520.55	20.633
520.89	21.437
521.23	21.904
521.58	20.769
521.92	21.050
522.26	20.794
522.61	20.974
522.95	21.261
523.29	20.877
523.64	20.520
523.98	22.183
524.32	20.415
524.66	21.101
525.01	20.592
525.35	20.330
525.69	20.771
526.04	21.654
526.38	21.248
526.72	20.823
527.06	20.047
527.41	21.282
527.75	20.511
528.09	20.108
528.43	20.744
528.78	20.632
529.12	21.252
529.46	19.755
529.80	20.561
530.15	21.273
530.49	20.217
530.83	21.024
531.17	20.295
531.51	20.356
531.86	19.988
532.20	19.778
532.54	19.146
532.88	20.362
533.22	20.171
533.57	19.890
533.91	19.872
534.25	19.158
534.59	20.058
534.93	19.795
535.27	18.554
535.62	19.253
535.96	19.740
536.30	20.293
536.64	18.944
536.98	19.132
537.32	19.562
537.66	19.196
538.01	20.062
538.35	19.214
538.69	19.053
539.03	19.403
539.37	18.325
539.71	19.012
540.05	19.262
540.39	20.755
540.73	19.430
541.07	18.193
541.42	19.403
541.76	19.790
542.10	19.359
542.44	19.015
542.78	19.194
543.12	19.202
543.46	19.361
543.80	19.612
544.14	20.186
544.48	18.309
544.82	19.266
545.16	18.033
545.50	19.361
545.84	19.381
546.18	18.856
546.52	19.410
546.86	19.923
547.20	18.863
547.54	18.999
547.88	19.647
548.22	18.761
548.56	18.268
548.90	18.802
549.24	19.457
549.58	17.977
549.92	19.319
550.26	19.473
550.60	19.428
550.94	18.860
551.28	18.207
551.62	19.103
551.96	19.122
552.30	18.523
552.64	19.029
552.98	17.784
553.32	17.926
553.66	18.111
554.00	18.340
554.34	19.108
554.68	18.616
555.02	18.805
555.36	18.152
555.69	19.045
556.03	17.771
556.37	17.973
556.71	18.840
557.05	17.759
557.39	18.667
557.73	18.059
558.07	18.243
558.41	17.546
558.75	19.289
559.08	18.013
559.42	18.397
559.76	19.102
560.10	18.100
560.44	18.182
560.78	18.414
561.12	16.910
561.45	18.085
561.79	17.978
562.13	17.751
562.47	17.975
562.81	18.217
563.15	17.195
563.48	16.522
563.82	17.155
564.16	17.910
564.50	17.300
564.84	17.447
565.17	16.934
565.51	17.734
565.85	17.582
566.19	16.845
566.52	16.847
566.86	17.396
567.20	17.303
567.54	16.703
567.88	17.162
568.21	16.575
568.55	16.926
568.89	16.469
569.23	16.264
569.56	15.855
569.90	15.774
570.24	16.014
570.57	15.866
570.91	15.070
571.25	15.510
571.59	15.087
571.92	15.312
572.26	14.933
572.60	15.218
572.93	16.015
573.27	15.594
573.61	15.133
573.95	15.015
574.28	15.075
574.62	15.161
574.96	14.625
575.29	15.214
575.63	14.723
575.97	14.508
576.30	14.629
576.64	14.790
576.98	15.138
577.31	15.319
577.65	15.202
577.98	14.701
578.32	14.361
578.66	14.658
578.99	14.768
579.33	15.133
579.67	14.586
580.00	14.423
580.34	14.506
580.67	14.609
581.01	14.812
581.35	14.689
581.68	14.322
582.02	14.338
582.35	14.372
582.69	14.539
583.02	14.354
583.36	14.554
583.70	14.849
584.03	14.740
584.37	14.513
584.70	14.332
585.04	14.442
585.37	13.999
585.71	14.697
586.04	14.312
586.38	14.532
586.72	15.058
587.05	15.054
587.39	14.210
587.72	14.491
588.06	14.750
588.39	14.534
588.73	14.383
589.06	14.707
589.40	15.180
589.73	14.258
590.07	15.202
590.40	15.366
590.73	15.314
591.07	15.750
591.40	14.651
591.74	15.300
592.07	15.308
592.41	15.148
592.74	14.976
593.08	14.583
593.41	14.452
593.75	14.143
594.08	14.721
594.41	14.663
594.75	14.932
595.08	14.575
595.42	14.944
595.75	14.939
596.09	14.738
596.42	15.149
596.75	15.064
597.09	14.816
597.42	14.531
597.75	14.564
598.09	14.526
598.42	15.055
598.76	14.842
599.09	15.263
599.42	14.775
599.76	15.231
600.09	14.780
600.42	14.330
600.76	14.582
601.09	14.636
601.42	14.819
601.76	14.536
602.09	14.606
602.42	13.863
602.76	14.687
603.09	14.593
603.42	14.972
603.76	14.244
604.09	14.730
604.42	14.200
604.76	15.330
605.09	14.857
605.42	14.791
605.75	14.726
606.09	14.269
606.42	14.581
606.75	15.196
607.09	14.489
607.42	14.665
607.75	14.490
608.08	14.907
608.42	15.268
608.75	14.805
609.08	14.430
609.41	15.045
609.75	14.606
610.08	14.883
610.41	14.537
610.74	15.325
611.07	14.734
611.41	15.431
611.74	14.436
612.07	14.499
612.40	14.620
612.73	15.077
613.07	15.205
613.40	14.687
613.73	15.027
614.06	15.000
614.39	15.000
614.72	14.817
615.06	14.540
615.39	15.000
615.72	14.860
616.05	15.821
616.38	14.815
616.71	14.867
617.05	14.827
617.38	15.225
617.71	14.679
618.04	14.470
618.37	14.286
618.70	14.319
619.03	14.713
619.36	15.892
619.69	15.172
620.03	15.525
620.36	15.671
620.69	15.709
621.02	15.829
621.35	14.971
621.68	15.339
622.01	16.384
622.34	15.004
622.67	15.730
623.00	15.180
623.33	16.397
623.66	14.305
623.99	15.274
624.32	15.718
624.65	15.142
624.99	14.469
625.32	15.030
625.65	15.241
625.98	15.621
626.31	14.763
626.64	14.655
626.97	14.155
627.30	14.984
627.63	15.620
627.96	14.867
628.29	15.099
628.62	15.141
628.95	16.578
629.28	16.652
629.61	14.938
629.94	16.335
630.26	15.685
630.59	16.667
630.92	16.054
631.25	15.956
631.58	16.008
631.91	16.461
632.24	16.035
632.57	15.422
632.90	15.942
633.23	16.789
633.56	15.911
633.89	15.113
634.22	15.070
634.55	16.022
634.88	16.867
635.20	16.143
635.53	17.189
635.86	16.331
