SpectraSuite Data File
++++++++++++++++++++++++++++++++++++
Date: Tue May 12 17:01:33 PDT 2015
User: schluterlab
Dark Spectrum Present: Yes
Reference Spectrum Present: Yes
Number of Sampled Component Spectra: 1
Spectrometers: USB2E3373
Integration Time (usec): 3000 (USB2E3373)
Spectra Averaged: 3 (USB2E3373)
Boxcar Smoothing: 0 (USB2E3373)
Correct for Electrical Dark: No (USB2E3373)
Strobe/Lamp Enabled: No (USB2E3373)
Correct for Detector Non-linearity: No (USB2E3373)
Correct for Stray Light: No (USB2E3373)
Number of Pixels in Processed Spectrum: 2048
>>>>>Begin Processed Spectral Data<<<<<
178.53	0.000
178.91	-291.667
179.29	-575.000
179.67	-3400.000
180.04	-140.000
180.42	800.000
180.80	1850.000
181.18	0.000
181.56	-275.000
181.94	0.000
182.31	1000.000
182.69	-3700.000
183.07	771.429
183.45	-3400.000
183.83	-1950.000
184.20	350.000
184.58	485.714
184.96	-246.154
185.34	-166.667
185.72	1850.000
186.09	-900.000
186.47	-2700.000
186.85	1066.667
187.23	600.000
187.61	2150.000
187.98	537.500
188.36	314.286
188.74	258.333
189.12	308.333
189.49	800.000
189.87	0.000
190.25	462.500
190.63	2200.000
191.00	-225.000
191.38	-3400.000
191.76	-725.000
192.14	500.000
192.51	-3400.000
192.89	1400.000
193.27	900.000
193.65	-1300.000
194.02	-520.000
194.40	442.857
194.78	-150.000
195.15	260.000
195.53	-3200.000
195.91	-740.000
196.29	3500.000
196.66	225.000
197.04	950.000
197.42	-1500.000
197.79	775.000
198.17	400.000
198.55	0.000
198.92	457.143
199.30	1100.000
199.68	1900.000
200.05	583.333
200.43	-466.667
200.81	194.444
201.18	3100.000
201.56	208.333
201.94	-775.000
202.31	-275.000
202.69	-720.000
203.07	3800.000
203.44	-516.667
203.82	350.000
204.19	820.000
204.57	-1450.000
204.95	-625.000
205.32	-700.000
205.70	600.000
206.08	875.000
206.45	-733.333
206.83	377.778
207.20	200.000
207.58	366.667
207.96	560.000
208.33	0.000
208.71	557.143
209.08	620.000
209.46	-3600.000
209.84	-675.000
210.21	760.000
210.59	-640.000
210.96	375.000
211.34	-850.000
211.71	390.909
212.09	750.000
212.46	1800.000
212.84	-483.333
213.22	355.556
213.59	-3400.000
213.97	300.000
214.34	1000.000
214.72	866.667
215.09	966.667
215.47	-3100.000
215.84	-390.000
216.22	-287.500
216.59	0.000
216.97	0.000
217.34	1700.000
217.72	-1450.000
218.09	1166.667
218.47	462.500
218.84	850.000
219.22	1100.000
219.59	733.333
219.97	500.000
220.34	377.778
220.72	1550.000
221.09	4100.000
221.47	300.000
221.84	1233.333
222.22	320.000
222.59	294.444
222.97	228.571
223.34	243.750
223.72	-1550.000
224.09	1100.000
224.46	315.385
224.84	-725.000
225.21	322.222
225.59	300.000
225.96	1466.667
226.34	-680.000
226.71	-725.000
227.08	-660.000
227.46	0.000
227.83	-500.000
228.21	-1550.000
228.58	358.333
228.95	875.000
229.33	311.111
229.70	1000.000
230.08	346.154
230.45	2900.000
230.82	-700.000
231.20	-933.333
231.57	-1033.333
231.95	680.000
232.32	308.333
232.69	550.000
233.07	266.667
233.44	-1550.000
233.81	226.667
234.19	155.556
234.56	231.250
234.93	194.118
235.31	225.000
235.68	293.750
236.05	164.286
236.43	177.778
236.80	342.857
237.17	158.621
237.55	140.625
237.92	130.000
238.29	109.091
238.67	137.500
239.04	121.951
239.41	85.417
239.79	105.000
240.16	110.417
240.53	80.328
240.91	91.304
241.28	86.441
241.65	83.333
242.02	95.775
242.40	90.000
242.77	79.121
243.14	63.291
243.51	68.687
243.89	57.009
244.26	56.075
244.63	67.327
245.00	68.807
245.38	59.322
245.75	61.364
246.12	62.963
246.49	49.645
246.87	57.377
247.24	64.667
247.61	51.875
247.98	65.306
248.36	48.485
248.73	57.143
249.10	55.357
249.47	49.000
249.84	49.254
250.22	54.595
250.59	52.500
250.96	49.367
251.33	50.233
251.70	50.446
252.08	49.580
252.45	50.598
252.82	47.909
253.19	50.198
253.56	48.077
253.94	49.275
254.31	51.163
254.68	53.659
255.05	48.966
255.42	43.796
255.79	45.603
256.16	47.797
256.54	46.104
256.91	45.425
257.28	45.485
257.65	41.379
258.02	45.428
258.39	47.278
258.76	46.957
259.14	42.286
259.51	48.980
259.88	47.720
260.25	44.231
260.62	47.945
260.99	41.047
261.36	44.011
261.73	44.149
262.10	46.073
262.47	43.000
262.85	47.200
263.22	44.987
263.59	44.246
263.96	45.614
264.33	43.210
264.70	44.717
265.07	41.707
265.44	43.807
265.81	43.396
266.18	45.538
266.55	43.735
266.92	45.190
267.29	46.711
267.66	41.031
268.03	41.928
268.40	43.975
268.77	43.612
269.14	44.252
269.51	46.548
269.88	43.061
270.25	44.924
270.62	42.918
270.99	43.205
271.36	44.919
271.73	42.138
272.10	41.212
272.47	41.270
272.84	41.517
273.21	42.769
273.58	42.105
273.95	43.326
274.32	44.553
274.69	45.276
275.06	41.530
275.43	41.954
275.80	40.755
276.17	41.360
276.54	44.112
276.91	43.843
277.28	41.788
277.65	42.066
278.02	41.360
278.39	41.727
278.76	41.207
279.13	41.459
279.50	44.182
279.87	40.223
280.23	39.042
280.60	40.328
280.97	40.517
281.34	41.419
281.71	41.217
282.08	41.709
282.45	39.696
282.82	40.635
283.19	37.997
283.56	38.017
283.92	40.554
284.29	39.601
284.66	38.992
285.03	41.128
285.40	41.322
285.77	37.500
286.14	40.402
286.51	39.264
286.87	38.924
287.24	36.336
287.61	39.058
287.98	37.313
288.35	38.963
288.72	38.240
289.08	37.988
289.45	37.652
289.82	37.656
290.19	35.725
290.56	38.574
290.93	37.122
291.29	38.674
291.66	35.311
292.03	36.466
292.40	35.366
292.77	34.401
293.13	35.806
293.50	36.167
293.87	33.469
294.24	35.664
294.60	36.070
294.97	34.545
295.34	35.458
295.71	32.983
296.08	35.200
296.44	33.672
296.81	31.638
297.18	32.319
297.55	32.635
297.91	31.773
298.28	32.729
298.65	31.779
299.02	29.916
299.38	31.535
299.75	31.951
300.12	31.766
300.48	32.553
300.85	31.228
301.22	30.698
301.59	30.542
301.95	29.988
302.32	31.898
302.69	31.674
303.05	31.201
303.42	30.493
303.79	31.419
304.15	30.693
304.52	29.387
304.89	29.957
305.25	31.702
305.62	31.023
305.99	30.326
306.35	29.579
306.72	30.593
307.09	30.331
307.45	30.517
307.82	30.350
308.19	30.206
308.55	31.000
308.92	30.716
309.29	32.249
309.65	31.021
310.02	31.643
310.38	30.808
310.75	31.340
311.12	30.556
311.48	32.625
311.85	31.489
312.22	31.996
312.58	32.459
312.95	30.777
313.31	31.835
313.68	30.019
314.05	32.601
314.41	32.682
314.78	33.239
315.14	33.365
315.51	33.869
315.87	33.668
316.24	33.707
316.61	33.930
316.97	33.486
317.34	34.591
317.70	35.909
318.07	35.676
318.43	35.062
318.80	36.515
319.16	36.189
319.53	36.106
319.89	36.649
320.26	38.827
320.62	38.370
320.99	37.083
321.35	38.219
321.72	39.089
322.08	40.166
322.45	40.054
322.81	39.067
323.18	40.231
323.54	40.679
323.91	40.163
324.27	40.937
324.64	41.176
325.00	41.293
325.37	40.472
325.73	40.725
326.10	42.419
326.46	41.866
326.83	42.000
327.19	43.133
327.56	42.652
327.92	44.262
328.29	43.372
328.65	43.322
329.01	42.772
329.38	43.316
329.74	42.442
330.11	43.267
330.47	44.416
330.84	43.313
331.20	42.217
331.56	42.746
331.93	43.713
332.29	42.602
332.66	43.112
333.02	43.729
333.38	44.241
333.75	42.702
334.11	44.463
334.48	43.077
334.84	43.497
335.20	44.055
335.57	42.233
335.93	42.725
336.29	42.786
336.66	43.396
337.02	42.173
337.38	43.078
337.75	41.976
338.11	43.797
338.47	42.506
338.84	41.998
339.20	43.377
339.56	42.977
339.93	42.642
340.29	40.504
340.65	41.576
341.02	41.512
341.38	42.118
341.74	42.774
342.11	41.903
342.47	40.771
342.83	42.330
343.20	42.118
343.56	40.508
343.92	40.793
344.28	41.707
344.65	42.461
345.01	41.190
345.37	40.705
345.73	40.714
346.10	40.319
346.46	42.344
346.82	40.201
347.19	41.731
347.55	40.359
347.91	40.106
348.27	40.201
348.63	40.585
349.00	40.213
349.36	40.545
349.72	40.138
350.08	40.683
350.45	39.223
350.81	39.832
351.17	39.522
351.53	40.416
351.89	39.782
352.26	39.456
352.62	39.517
352.98	38.267
353.34	40.678
353.70	39.067
354.07	38.692
354.43	39.708
354.79	38.269
355.15	39.740
355.51	38.595
355.87	38.404
356.24	38.722
356.60	38.737
356.96	37.983
357.32	38.131
357.68	39.207
358.04	39.058
358.40	39.055
358.77	38.467
359.13	38.138
359.49	38.844
359.85	38.794
360.21	37.593
360.57	37.664
360.93	37.879
361.29	37.446
361.66	38.180
362.02	36.790
362.38	37.662
362.74	37.438
363.10	37.588
363.46	36.671
363.82	36.816
364.18	37.198
364.54	37.268
364.90	37.015
365.26	38.376
365.62	36.602
365.98	35.926
366.35	37.448
366.71	37.335
367.07	37.611
367.43	36.803
367.79	36.436
368.15	36.092
368.51	36.733
368.87	36.073
369.23	35.897
369.59	36.817
369.95	37.413
370.31	35.934
370.67	36.294
371.03	36.345
371.39	35.803
371.75	35.939
372.11	36.166
372.47	35.685
372.83	36.778
373.19	36.875
373.55	36.357
373.91	34.530
374.27	35.648
374.63	35.254
374.99	35.580
375.35	35.685
375.71	36.741
376.07	35.809
376.42	34.207
376.78	35.581
377.14	35.911
377.50	34.332
377.86	33.953
378.22	35.161
378.58	35.896
378.94	35.546
379.30	34.748
379.66	35.160
380.02	35.601
380.38	34.836
380.74	35.582
381.09	34.404
381.45	34.913
381.81	33.747
382.17	35.226
382.53	34.733
382.89	34.654
383.25	34.044
383.61	33.718
383.97	33.413
384.32	34.539
384.68	35.056
385.04	33.705
385.40	34.164
385.76	34.172
386.12	34.323
386.48	35.015
386.83	34.352
387.19	34.276
387.55	34.099
387.91	34.296
388.27	33.789
388.62	34.214
388.98	33.061
389.34	33.314
389.70	33.785
390.06	34.024
390.42	34.917
390.77	34.152
391.13	34.400
391.49	34.059
391.85	34.523
392.20	34.327
392.56	33.931
392.92	33.464
393.28	33.296
393.64	33.372
393.99	33.195
394.35	32.666
394.71	32.811
395.07	32.968
395.42	32.728
395.78	34.115
396.14	33.795
396.50	33.032
396.85	33.232
397.21	32.431
397.57	32.576
397.92	32.178
398.28	32.929
398.64	33.042
399.00	32.603
399.35	31.884
399.71	31.623
400.07	32.763
400.42	32.239
400.78	32.317
401.14	32.824
401.49	30.876
401.85	32.793
402.21	32.220
402.57	31.777
402.92	32.061
403.28	31.862
403.63	32.254
403.99	32.388
404.35	32.767
404.70	32.723
405.06	32.004
405.42	31.598
405.77	31.202
406.13	31.670
406.49	31.779
406.84	31.585
407.20	31.336
407.55	31.938
407.91	32.355
408.27	32.444
408.62	31.756
408.98	31.402
409.34	31.502
409.69	31.487
410.05	31.604
410.40	30.801
410.76	31.425
411.11	31.754
411.47	30.988
411.83	30.639
412.18	31.341
412.54	30.931
412.89	31.386
413.25	31.015
413.60	31.484
413.96	31.119
414.31	30.579
414.67	32.464
415.03	31.418
415.38	31.483
415.74	31.522
416.09	31.480
416.45	31.674
416.80	32.649
417.16	30.745
417.51	31.529
417.87	31.101
418.22	30.923
418.58	30.955
418.93	31.053
419.29	30.376
419.64	30.890
420.00	31.981
420.35	30.836
420.71	31.097
421.06	30.606
421.42	31.146
421.77	30.927
422.12	30.816
422.48	30.200
422.83	31.641
423.19	30.238
423.54	30.444
423.90	30.691
424.25	31.040
424.61	30.702
424.96	30.830
425.31	30.378
425.67	30.976
426.02	31.296
426.38	29.988
426.73	31.290
427.09	31.376
427.44	30.557
427.79	31.103
428.15	32.174
428.50	30.971
428.85	31.452
429.21	30.902
429.56	30.359
429.92	29.836
430.27	31.205
430.62	30.739
430.98	30.040
431.33	30.292
431.68	29.827
432.04	30.109
432.39	30.461
432.74	30.445
433.10	30.177
433.45	31.419
433.80	31.164
434.16	29.532
434.51	30.237
434.86	31.355
435.22	30.416
435.57	30.883
435.92	30.791
436.28	31.164
436.63	31.388
436.98	30.687
437.34	29.852
437.69	29.563
438.04	30.753
438.39	30.064
438.75	30.122
439.10	30.059
439.45	30.187
439.81	30.075
440.16	30.490
440.51	30.068
440.86	31.168
441.22	30.465
441.57	30.446
441.92	29.418
442.27	29.794
442.63	30.488
442.98	30.119
443.33	29.298
443.68	30.734
444.03	30.631
444.39	30.556
444.74	30.331
445.09	30.437
445.44	29.968
445.79	29.776
446.15	30.526
446.50	30.169
446.85	29.831
447.20	29.403
447.55	30.071
447.91	30.581
448.26	30.724
448.61	30.735
448.96	30.501
449.31	30.143
449.66	29.900
450.02	29.876
450.37	30.483
450.72	30.854
451.07	30.076
451.42	30.765
451.77	30.584
452.12	29.779
452.47	30.741
452.83	29.803
453.18	30.571
453.53	30.195
453.88	30.914
454.23	30.099
454.58	30.245
454.93	29.430
455.28	30.110
455.63	30.792
455.98	29.385
456.34	31.064
456.69	30.793
457.04	29.475
457.39	29.829
457.74	30.574
458.09	29.141
458.44	30.449
458.79	29.390
459.14	29.569
459.49	29.162
459.84	30.380
460.19	29.322
460.54	30.484
460.89	29.957
461.24	28.637
461.59	29.875
461.94	30.024
462.29	29.805
462.64	29.711
462.99	29.750
463.34	30.136
463.69	30.067
464.04	30.800
464.39	28.964
464.74	28.722
465.09	28.845
465.44	28.781
465.79	29.178
466.14	28.829
466.49	29.680
466.84	28.930
467.19	29.291
467.54	28.829
467.89	29.108
468.24	28.605
468.59	28.988
468.94	28.080
469.29	29.078
469.64	28.939
469.99	28.985
470.34	29.032
470.68	28.276
471.03	29.686
471.38	29.205
471.73	28.870
472.08	29.159
472.43	29.423
472.78	29.193
473.13	27.472
473.48	28.240
473.83	28.504
474.17	29.848
474.52	28.318
474.87	28.312
475.22	28.384
475.57	28.646
475.92	28.462
476.27	28.237
476.61	27.721
476.96	27.429
477.31	28.123
477.66	29.415
478.01	28.004
478.36	28.630
478.70	27.990
479.05	28.452
479.40	28.175
479.75	28.153
480.10	28.267
480.45	27.824
480.79	28.065
481.14	27.580
481.49	27.219
481.84	27.221
482.19	27.817
482.53	27.975
482.88	27.554
483.23	27.740
483.58	28.411
483.92	28.428
484.27	27.783
484.62	28.268
484.97	26.996
485.31	27.346
485.66	27.965
486.01	27.641
486.36	27.326
486.70	26.517
487.05	26.782
487.40	26.567
487.75	26.530
488.09	26.676
488.44	27.024
488.79	26.519
489.13	27.697
489.48	27.367
489.83	26.606
490.17	26.920
490.52	27.390
490.87	26.767
491.22	26.995
491.56	27.053
491.91	26.434
492.26	26.949
492.60	27.380
492.95	26.778
493.30	26.615
493.64	27.314
493.99	26.476
494.34	26.625
494.68	26.073
495.03	27.256
495.37	27.870
495.72	27.413
496.07	26.460
496.41	27.411
496.76	27.142
497.11	28.021
497.45	26.786
497.80	26.460
498.14	26.537
498.49	26.695
498.84	26.963
499.18	25.823
499.53	27.699
499.87	26.730
500.22	27.038
500.56	27.112
500.91	27.458
501.26	26.412
501.60	26.321
501.95	25.672
502.29	26.933
502.64	26.334
502.98	25.567
503.33	26.414
503.67	26.093
504.02	26.019
504.36	26.290
504.71	26.159
505.06	26.654
505.40	26.673
505.75	26.333
506.09	26.365
506.44	25.846
506.78	26.371
507.13	25.933
507.47	26.104
507.82	26.277
508.16	26.801
508.51	26.522
508.85	25.926
509.19	26.334
509.54	25.684
509.88	26.753
510.23	25.686
510.57	24.952
510.92	26.673
511.26	26.255
511.61	25.406
511.95	26.531
512.30	24.800
512.64	25.493
512.98	24.962
513.33	26.076
513.67	25.997
514.02	25.766
514.36	25.078
514.70	25.973
515.05	25.306
515.39	26.206
515.74	25.588
516.08	25.000
516.42	26.557
516.77	25.653
517.11	26.613
517.46	26.131
517.80	24.904
518.14	26.141
518.49	24.807
518.83	24.780
519.17	24.792
519.52	25.505
519.86	24.905
520.20	25.260
520.55	24.816
520.89	24.540
521.23	26.110
521.58	25.703
521.92	24.257
522.26	24.763
522.61	25.312
522.95	24.745
523.29	24.971
523.64	25.202
523.98	25.352
524.32	25.260
524.66	25.449
525.01	24.852
525.35	24.985
525.69	25.707
526.04	25.223
526.38	24.367
526.72	24.224
527.06	24.956
527.41	25.212
527.75	25.198
528.09	24.744
528.43	25.503
528.78	24.627
529.12	25.226
529.46	24.196
529.80	24.533
530.15	25.044
530.49	24.428
530.83	24.375
531.17	25.092
531.51	25.015
531.86	24.396
532.20	24.413
532.54	24.670
532.88	25.172
533.22	24.741
533.57	25.564
533.91	24.476
534.25	24.005
534.59	25.088
534.93	24.460
535.27	24.360
535.62	24.562
535.96	23.995
536.30	26.082
536.64	24.224
536.98	23.851
537.32	25.000
537.66	23.852
538.01	24.954
538.35	24.329
538.69	24.515
539.03	24.565
539.37	24.515
539.71	25.494
540.05	24.431
540.39	24.528
540.73	24.494
541.07	23.588
541.42	24.876
541.76	24.661
542.10	24.044
542.44	25.000
542.78	24.921
543.12	24.049
543.46	24.248
543.80	24.373
544.14	24.582
544.48	23.905
544.82	24.465
545.16	23.558
545.50	24.401
545.84	24.811
546.18	24.707
546.52	25.180
546.86	24.178
547.20	23.385
547.54	23.623
547.88	25.182
548.22	24.590
548.56	23.807
548.90	24.081
549.24	23.689
549.58	23.454
549.92	24.034
550.26	24.882
550.60	24.351
550.94	23.813
551.28	24.138
551.62	24.759
551.96	23.716
552.30	23.336
552.64	23.883
552.98	23.711
553.32	23.239
553.66	23.518
554.00	23.488
554.34	24.101
554.68	24.059
555.02	23.218
555.36	23.537
555.69	24.149
556.03	23.567
556.37	23.773
556.71	24.120
557.05	23.001
557.39	23.667
557.73	24.394
558.07	23.407
558.41	24.195
558.75	23.735
559.08	24.589
559.42	23.622
559.76	23.664
560.10	23.400
560.44	23.557
560.78	24.105
561.12	24.412
561.45	23.154
561.79	22.909
562.13	22.805
562.47	23.102
562.81	23.682
563.15	23.723
563.48	22.360
563.82	23.830
564.16	23.632
564.50	23.086
564.84	22.675
565.17	23.589
565.51	24.323
565.85	23.627
566.19	23.393
566.52	23.285
566.86	23.526
567.20	24.382
567.54	22.926
567.88	23.735
568.21	23.165
568.55	23.687
568.89	23.358
569.23	23.512
569.56	23.562
569.90	23.069
570.24	23.373
570.57	23.589
570.91	23.214
571.25	22.865
571.59	23.181
571.92	22.605
572.26	22.695
572.60	22.938
572.93	23.260
573.27	22.947
573.61	23.200
573.95	23.033
574.28	23.485
574.62	23.032
574.96	22.694
575.29	22.142
575.63	22.709
575.97	22.176
576.30	22.070
576.64	22.549
576.98	22.800
577.31	23.091
577.65	23.074
577.98	22.340
578.32	22.527
578.66	22.706
578.99	23.054
579.33	23.072
579.67	22.571
580.00	22.495
580.34	22.150
580.67	22.506
581.01	22.844
581.35	23.276
581.68	22.369
582.02	22.674
582.35	22.453
582.69	22.723
583.02	22.237
583.36	22.232
583.70	22.250
584.03	22.421
584.37	22.792
584.70	22.095
585.04	22.389
585.37	22.408
585.71	22.899
586.04	22.767
586.38	22.432
586.72	22.445
587.05	22.362
587.39	22.427
587.72	22.640
588.06	22.374
588.39	22.416
588.73	22.746
589.06	22.498
589.40	22.879
589.73	22.288
590.07	22.375
590.40	22.787
590.73	23.503
591.07	22.922
591.40	22.076
591.74	22.565
592.07	21.589
592.41	22.902
592.74	22.190
593.08	22.428
593.41	23.040
593.75	22.225
594.08	22.729
594.41	21.799
594.75	21.644
595.08	22.737
595.42	22.844
595.75	21.816
596.09	23.323
596.42	22.178
596.75	22.796
597.09	23.236
597.42	22.571
597.75	21.866
598.09	21.953
598.42	22.358
598.76	22.282
599.09	23.060
599.42	22.457
599.76	22.592
600.09	22.136
600.42	22.756
600.76	22.434
601.09	21.678
601.42	21.471
601.76	22.163
602.09	21.854
602.42	21.996
602.76	21.670
603.09	22.323
603.42	22.679
603.76	21.945
604.09	22.005
604.42	21.620
604.76	22.126
605.09	21.918
605.42	22.145
605.75	22.385
606.09	22.341
606.42	22.172
606.75	22.620
607.09	22.029
607.42	21.495
607.75	21.815
608.08	22.096
608.42	22.693
608.75	22.294
609.08	22.217
609.41	22.045
609.75	22.848
610.08	22.122
610.41	22.486
610.74	21.948
611.07	22.647
611.41	21.640
611.74	22.371
612.07	21.773
612.40	22.466
612.73	21.767
613.07	21.744
613.40	22.456
613.73	22.267
614.06	21.650
614.39	22.273
614.72	22.250
615.06	22.008
615.39	21.832
615.72	21.733
616.05	22.351
616.38	21.461
616.71	21.867
617.05	21.582
617.38	21.348
617.71	22.328
618.04	22.098
618.37	22.290
618.70	22.229
619.03	21.245
619.36	22.236
619.69	21.966
620.03	23.092
620.36	21.452
620.69	22.989
621.02	22.758
621.35	21.060
621.68	21.755
622.01	23.469
622.34	21.850
622.67	22.893
623.00	22.464
623.33	21.997
623.66	22.089
623.99	22.123
624.32	21.883
624.65	21.659
624.99	21.771
625.32	22.044
625.65	21.517
625.98	20.990
626.31	21.068
626.64	21.716
626.97	20.964
627.30	22.516
627.63	21.664
627.96	22.066
628.29	22.607
628.62	20.274
628.95	21.011
629.28	22.612
629.61	23.023
629.94	21.521
630.26	22.184
630.59	22.074
630.92	21.614
631.25	22.847
