SpectraSuite Data File
++++++++++++++++++++++++++++++++++++
Date: Tue May 12 16:25:31 PDT 2015
User: schluterlab
Dark Spectrum Present: Yes
Reference Spectrum Present: Yes
Number of Sampled Component Spectra: 1
Spectrometers: USB2E3373
Integration Time (usec): 3000 (USB2E3373)
Spectra Averaged: 3 (USB2E3373)
Boxcar Smoothing: 0 (USB2E3373)
Correct for Electrical Dark: No (USB2E3373)
Strobe/Lamp Enabled: No (USB2E3373)
Correct for Detector Non-linearity: No (USB2E3373)
Correct for Stray Light: No (USB2E3373)
Number of Pixels in Processed Spectrum: 2048
>>>>>Begin Processed Spectral Data<<<<<
178.53	0.000
178.91	-216.667
179.29	-600.000
179.67	-3300.000
180.04	-126.667
180.42	750.000
180.80	1500.000
181.18	0.000
181.56	-375.000
181.94	0.000
182.31	933.333
182.69	-3300.000
183.07	542.857
183.45	-2600.000
183.83	-1400.000
184.20	420.000
184.58	571.429
184.96	-261.538
185.34	-250.000
185.72	1150.000
186.09	-750.000
186.47	-3300.000
186.85	1000.000
187.23	520.000
187.61	1550.000
187.98	425.000
188.36	242.857
188.74	308.333
189.12	358.333
189.49	700.000
189.87	0.000
190.25	412.500
190.63	1700.000
191.00	-291.667
191.38	-2500.000
191.76	-725.000
192.14	600.000
192.51	-2400.000
192.89	1500.000
193.27	966.667
193.65	-800.000
194.02	-560.000
194.40	585.714
194.78	-164.286
195.15	300.000
195.53	-2100.000
195.91	-440.000
196.29	3900.000
196.66	225.000
197.04	975.000
197.42	-1000.000
197.79	750.000
198.17	241.667
198.55	0.000
198.92	442.857
199.30	1633.333
199.68	2150.000
200.05	633.333
200.43	-366.667
200.81	211.111
201.18	2800.000
201.56	341.667
201.94	-775.000
202.31	-312.500
202.69	-540.000
203.07	2600.000
203.44	-600.000
203.82	283.333
204.19	680.000
204.57	-1700.000
204.95	-725.000
205.32	-660.000
205.70	600.000
206.08	575.000
206.45	-1000.000
206.83	455.556
207.20	168.421
207.58	300.000
207.96	760.000
208.33	0.000
208.71	671.429
209.08	660.000
209.46	-3100.000
209.84	-650.000
210.21	800.000
210.59	-440.000
210.96	233.333
211.34	-975.000
211.71	381.818
212.09	800.000
212.46	1650.000
212.84	-433.333
213.22	477.778
213.59	-2100.000
213.97	360.000
214.34	900.000
214.72	633.333
215.09	1000.000
215.47	-3200.000
215.84	-250.000
216.22	-425.000
216.59	0.000
216.97	0.000
217.34	1200.000
217.72	-1200.000
218.09	1266.667
218.47	475.000
218.84	850.000
219.22	933.333
219.59	533.333
219.97	514.286
220.34	333.333
220.72	1500.000
221.09	3000.000
221.47	266.667
221.84	1100.000
222.22	350.000
222.59	227.778
222.97	185.714
223.34	262.500
223.72	-1550.000
224.09	1100.000
224.46	269.231
224.84	-675.000
225.21	433.333
225.59	253.333
225.96	1233.333
226.34	-500.000
226.71	-675.000
227.08	-700.000
227.46	0.000
227.83	-500.000
228.21	-1350.000
228.58	391.667
228.95	1075.000
229.33	500.000
229.70	1025.000
230.08	315.385
230.45	2700.000
230.82	-775.000
231.20	-866.667
231.57	-966.667
231.95	580.000
232.32	266.667
232.69	566.667
233.07	283.333
233.44	-1650.000
233.81	226.667
234.19	125.926
234.56	181.250
234.93	217.647
235.31	235.000
235.68	206.250
236.05	128.571
236.43	100.000
236.80	228.571
237.17	148.276
237.55	106.250
237.92	90.000
238.29	121.212
238.67	78.125
239.04	95.122
239.41	70.833
239.79	42.500
240.16	66.667
240.53	62.295
240.91	40.580
241.28	50.847
241.65	45.455
242.02	53.521
242.40	40.000
242.77	49.451
243.14	35.443
243.51	41.414
243.89	33.645
244.26	34.579
244.63	31.683
245.00	33.028
245.38	27.966
245.75	30.303
246.12	34.074
246.49	24.113
246.87	20.492
247.24	30.000
247.61	23.125
247.98	20.408
248.36	16.364
248.73	26.531
249.10	17.857
249.47	18.000
249.84	16.915
250.22	17.297
250.59	15.500
250.96	18.987
251.33	15.349
251.70	16.964
252.08	15.546
252.45	9.960
252.82	12.928
253.19	9.486
253.56	13.077
253.94	15.942
254.31	11.240
254.68	11.847
255.05	12.759
255.42	10.949
255.79	13.029
256.16	13.559
256.54	13.961
256.91	11.765
257.28	11.037
257.65	5.329
258.02	8.850
258.39	11.461
258.76	14.493
259.14	8.286
259.51	11.370
259.88	10.942
260.25	7.692
260.62	8.493
260.99	8.540
261.36	8.635
261.73	7.447
262.10	8.901
262.47	10.000
262.85	8.533
263.22	8.740
263.59	8.951
263.96	8.772
264.33	11.605
264.70	9.828
265.07	8.537
265.44	7.798
265.81	7.311
266.18	6.636
266.55	6.619
266.92	7.159
267.29	7.237
267.66	6.726
268.03	6.502
268.40	7.611
268.77	7.930
269.14	6.941
269.51	6.013
269.88	9.184
270.25	4.752
270.62	5.579
270.99	10.142
271.36	10.163
271.73	7.128
272.10	5.051
272.47	6.548
272.84	4.990
273.21	5.992
273.58	7.692
273.95	4.928
274.32	7.004
274.69	8.071
275.06	8.379
275.43	7.088
275.80	5.660
276.17	7.904
276.54	9.346
276.91	8.396
277.28	5.839
277.65	5.535
278.02	7.353
278.39	6.295
278.76	7.241
279.13	5.872
279.50	4.364
279.87	6.331
280.23	4.604
280.60	4.015
280.97	5.690
281.34	6.766
281.71	6.261
282.08	7.350
282.45	3.885
282.82	7.023
283.19	7.631
283.56	6.281
283.92	6.840
284.29	6.489
284.66	6.050
285.03	4.975
285.40	4.793
285.77	5.556
286.14	7.895
286.51	6.288
286.87	2.690
287.24	4.054
287.61	4.863
287.98	6.119
288.35	5.333
288.72	6.525
289.08	5.856
289.45	5.488
289.82	6.094
290.19	5.124
290.56	7.715
290.93	6.619
291.29	5.939
291.66	4.520
292.03	5.610
292.40	5.420
292.77	4.318
293.13	4.850
293.50	3.509
293.87	4.472
294.24	6.154
294.60	7.537
294.97	6.573
295.34	4.515
295.71	4.993
296.08	5.733
296.44	5.210
296.81	5.955
297.18	3.676
297.55	4.680
297.91	3.695
298.28	4.589
298.65	5.031
299.02	5.066
299.38	4.197
299.75	3.415
300.12	4.702
300.48	6.206
300.85	5.602
301.22	3.953
301.59	4.599
301.95	4.201
302.32	5.471
302.69	4.299
303.05	5.948
303.42	3.363
303.79	5.092
304.15	4.290
304.52	3.805
304.89	5.011
305.25	5.006
305.62	5.330
305.99	3.478
306.35	4.211
306.72	4.475
307.09	4.658
307.45	4.118
307.82	3.395
308.19	4.536
308.55	4.100
308.92	5.790
309.29	4.438
309.65	3.964
310.02	3.854
310.38	4.088
310.75	3.954
311.12	3.257
311.48	4.440
311.85	4.103
312.22	4.585
312.58	3.207
312.95	3.592
313.31	4.869
313.68	3.846
314.05	5.678
314.41	4.469
314.78	3.977
315.14	4.455
315.51	5.487
315.87	4.380
316.24	4.949
316.61	4.655
316.97	3.670
317.34	4.133
317.70	3.951
318.07	5.694
318.43	4.921
318.80	3.940
319.16	4.371
319.53	4.956
319.89	4.570
320.26	5.493
320.62	5.128
320.99	5.529
321.35	4.174
321.72	5.882
322.08	5.540
322.45	5.450
322.81	5.489
323.18	5.595
323.54	5.488
323.91	5.802
324.27	5.659
324.64	4.758
325.00	5.603
325.37	4.806
325.73	4.806
326.10	5.137
326.46	6.028
326.83	4.560
327.19	5.542
327.56	5.192
327.92	5.328
328.29	6.465
328.65	6.592
329.01	5.902
329.38	6.176
329.74	4.697
330.11	5.647
330.47	6.905
330.84	5.349
331.20	5.161
331.56	6.649
331.93	5.731
332.29	4.507
332.66	6.718
333.02	5.326
333.38	5.410
333.75	5.755
334.11	4.782
334.48	5.470
334.84	6.250
335.20	6.245
335.57	5.206
335.93	5.887
336.29	4.478
336.66	6.775
337.02	5.133
337.38	6.019
337.75	5.574
338.11	5.738
338.47	5.927
338.84	6.097
339.20	4.242
339.56	5.803
339.93	5.686
340.29	3.697
340.65	5.197
341.02	7.241
341.38	5.501
341.74	5.731
342.11	3.923
342.47	4.594
342.83	6.235
343.20	5.659
343.56	5.481
343.92	4.707
344.28	5.662
344.65	4.482
345.01	5.238
345.37	4.407
345.73	4.683
346.10	4.701
346.46	5.183
346.82	4.321
347.19	5.951
347.55	3.981
347.91	4.683
348.27	4.415
348.63	4.826
349.00	4.874
349.36	4.825
349.72	5.428
350.08	6.056
350.45	4.798
350.81	5.046
351.17	4.314
351.53	4.080
351.89	5.206
352.26	4.913
352.62	5.430
352.98	5.368
353.34	5.085
353.70	3.899
354.07	5.154
354.43	4.455
354.79	4.404
355.15	5.743
355.51	4.985
355.87	6.099
356.24	5.312
356.60	4.871
356.96	4.625
357.32	5.878
357.68	4.993
358.04	5.015
358.40	4.648
358.77	5.785
359.13	3.904
359.49	4.151
359.85	4.617
360.21	3.418
360.57	4.745
360.93	4.906
361.29	4.545
361.66	4.773
362.02	3.764
362.38	4.618
362.74	5.308
363.10	5.610
363.46	4.213
363.82	5.189
364.18	4.552
364.54	4.006
364.90	5.154
365.26	4.927
365.62	4.006
365.98	4.061
366.35	3.379
366.71	4.580
367.07	4.300
367.43	4.970
367.79	4.920
368.15	4.071
368.51	4.549
368.87	4.144
369.23	5.059
369.59	5.327
369.95	4.056
370.31	4.312
370.67	4.580
371.03	5.322
371.39	4.778
371.75	3.978
372.11	5.982
372.47	4.795
372.83	4.079
373.19	5.552
373.55	4.674
373.91	4.420
374.27	4.960
374.63	4.746
374.99	4.717
375.35	4.167
375.71	4.749
376.07	4.642
376.42	4.412
376.78	5.010
377.14	4.063
377.50	3.995
377.86	4.292
378.22	4.083
378.58	5.387
378.94	4.164
379.30	4.548
379.66	4.154
380.02	4.751
380.38	3.630
380.74	4.671
381.09	4.147
381.45	4.104
381.81	3.842
382.17	4.212
382.53	4.139
382.89	3.726
383.25	4.026
383.61	4.438
383.97	4.079
384.32	3.978
384.68	5.169
385.04	4.689
385.40	4.389
385.76	3.277
386.12	4.205
386.48	4.316
386.83	4.523
387.19	3.887
387.55	4.770
387.91	5.023
388.27	4.581
388.62	4.460
388.98	4.023
389.34	4.224
389.70	4.422
390.06	4.512
390.42	4.442
390.77	4.423
391.13	4.345
391.49	4.779
391.85	4.738
392.20	4.589
392.56	4.898
392.92	4.436
393.28	3.643
393.64	3.498
393.99	4.149
394.35	4.297
394.71	3.860
395.07	4.136
395.42	4.098
395.78	5.244
396.14	4.277
396.50	4.753
396.85	3.780
397.21	3.911
397.57	4.423
397.92	3.755
398.28	3.806
398.64	3.839
399.00	4.062
399.35	3.489
399.71	4.139
400.07	4.737
400.42	3.701
400.78	4.457
401.14	3.347
401.49	4.090
401.85	4.635
402.21	3.632
402.57	3.770
402.92	3.879
403.28	3.640
403.63	4.120
403.99	4.162
404.35	4.982
404.70	3.898
405.06	3.650
405.42	4.010
405.77	4.135
406.13	4.121
406.49	3.013
406.84	4.569
407.20	4.395
407.55	4.492
407.91	4.148
408.27	4.488
408.62	3.903
408.98	4.080
409.34	3.916
409.69	4.169
410.05	3.399
410.40	3.887
410.76	3.778
411.11	3.673
411.47	4.198
411.83	4.394
412.18	3.442
412.54	3.964
412.89	4.189
413.25	3.421
413.60	4.206
413.96	3.232
414.31	3.719
414.67	4.593
415.03	4.023
415.38	3.596
415.74	3.601
416.09	4.122
416.45	5.042
416.80	4.939
417.16	3.692
417.51	3.949
417.87	4.380
418.22	4.131
418.58	3.439
418.93	4.581
419.29	3.635
419.64	4.300
420.00	4.356
420.35	3.717
420.71	4.551
421.06	3.826
421.42	3.915
421.77	3.887
422.12	3.859
422.48	4.109
422.83	4.074
423.19	4.158
423.54	4.059
423.90	3.907
424.25	3.577
424.61	4.121
424.96	3.670
425.31	3.448
425.67	3.648
426.02	3.646
426.38	3.267
426.73	3.875
427.09	4.033
427.44	2.983
427.79	3.602
428.15	4.066
428.50	4.171
428.85	4.703
429.21	4.322
429.56	4.237
429.92	3.580
430.27	4.354
430.62	3.524
430.98	4.192
431.33	3.780
431.68	3.259
432.04	3.621
432.39	3.952
432.74	3.981
433.10	3.710
433.45	3.848
433.80	3.806
434.16	3.941
434.51	3.818
434.86	4.464
435.22	3.187
435.57	3.853
435.92	4.553
436.28	4.147
436.63	4.052
436.98	4.505
437.34	4.110
437.69	3.471
438.04	4.086
438.39	4.145
438.75	4.120
439.10	4.047
439.45	3.957
439.81	4.338
440.16	3.522
440.51	3.941
440.86	4.957
441.22	4.383
441.57	4.094
441.92	3.899
442.27	3.763
442.63	3.201
442.98	3.502
443.33	3.428
443.68	3.823
444.03	3.487
444.39	3.578
444.74	4.037
445.09	4.002
445.44	4.198
445.79	4.142
446.15	4.000
446.50	4.272
446.85	4.233
447.20	3.383
447.55	3.861
447.91	4.688
448.26	3.834
448.61	3.704
448.96	4.357
449.31	4.015
449.66	4.319
450.02	3.890
450.37	4.164
450.72	4.132
451.07	5.061
451.42	5.098
451.77	4.410
452.12	5.162
452.47	4.557
452.83	4.282
453.18	4.685
453.53	4.026
453.88	5.029
454.23	4.242
454.58	4.545
454.93	4.660
455.28	4.284
455.63	4.137
455.98	4.625
456.34	4.438
456.69	3.841
457.04	3.878
457.39	4.171
457.74	4.448
458.09	3.762
458.44	3.834
458.79	4.456
459.14	3.873
459.49	4.304
459.84	4.239
460.19	4.124
460.54	5.413
460.89	4.264
461.24	4.296
461.59	4.989
461.94	3.960
462.29	4.805
462.64	4.648
462.99	4.543
463.34	5.250
463.69	4.537
464.04	4.893
464.39	3.663
464.74	3.810
465.09	4.121
465.44	3.917
465.79	4.083
466.14	4.346
466.49	4.286
466.84	4.181
467.19	4.628
467.54	4.745
467.89	4.519
468.24	3.532
468.59	4.167
468.94	4.287
469.29	4.765
469.64	4.887
469.99	4.306
470.34	4.870
470.68	3.862
471.03	3.736
471.38	4.106
471.73	3.723
472.08	4.436
472.43	4.780
472.78	4.673
473.13	4.631
473.48	4.829
473.83	4.535
474.17	4.073
474.52	4.384
474.87	3.582
475.22	4.112
475.57	4.040
475.92	4.139
476.27	3.808
476.61	3.592
476.96	4.180
477.31	4.473
477.66	4.670
478.01	4.281
478.36	3.965
478.70	4.169
479.05	3.504
479.40	3.571
479.75	4.121
480.10	3.775
480.45	3.828
480.79	3.779
481.14	3.424
481.49	3.797
481.84	4.222
482.19	3.668
482.53	3.996
482.88	4.077
483.23	3.924
483.58	3.546
483.92	4.525
484.27	4.238
484.62	4.075
484.97	3.662
485.31	2.895
485.66	2.952
486.01	3.013
486.36	2.765
486.70	2.630
487.05	3.046
487.40	3.086
487.75	3.216
488.09	3.352
488.44	3.537
488.79	3.332
489.13	3.471
489.48	3.716
489.83	3.420
490.17	3.509
490.52	3.402
490.87	4.052
491.22	3.502
491.56	3.733
491.91	3.898
492.26	3.430
492.60	3.736
492.95	3.942
493.30	4.231
493.64	3.459
493.99	3.891
494.34	3.496
494.68	3.718
495.03	3.817
495.37	4.322
495.72	3.823
496.07	3.729
496.41	3.779
496.76	3.841
497.11	3.770
497.45	3.639
497.80	4.171
498.14	3.837
498.49	3.760
498.84	4.533
499.18	3.565
499.53	3.629
499.87	4.088
500.22	3.685
500.56	3.760
500.91	4.035
501.26	4.364
501.60	3.689
501.95	3.495
502.29	3.956
502.64	3.705
502.98	3.646
503.33	3.742
503.67	4.283
504.02	3.538
504.36	4.027
504.71	3.311
505.06	4.036
505.40	4.024
505.75	3.648
506.09	3.920
506.44	4.182
506.78	3.544
507.13	3.248
507.47	3.542
507.82	4.428
508.16	4.557
508.51	3.671
508.85	4.131
509.19	4.307
509.54	3.809
509.88	4.177
510.23	4.118
510.57	3.571
510.92	3.546
511.26	4.116
511.61	3.840
511.95	4.131
512.30	4.050
512.64	3.790
512.98	3.742
513.33	4.150
513.67	3.988
514.02	3.481
514.36	4.050
514.70	4.000
515.05	3.570
515.39	4.331
515.74	4.538
516.08	3.595
516.42	4.317
516.77	3.893
517.11	3.947
517.46	3.933
517.80	3.987
518.14	4.113
518.49	3.914
518.83	3.462
519.17	4.160
519.52	4.478
519.86	4.905
520.20	4.712
520.55	4.127
520.89	3.908
521.23	4.731
521.58	3.844
521.92	4.140
522.26	4.206
522.61	4.456
522.95	4.144
523.29	4.327
523.64	3.931
523.98	3.815
524.32	3.806
524.66	4.464
525.01	4.556
525.35	3.889
525.69	4.576
526.04	5.235
526.38	3.885
526.72	4.236
527.06	4.080
527.41	4.716
527.75	4.504
528.09	3.371
528.43	4.698
528.78	4.651
529.12	4.395
529.46	3.682
529.80	4.322
530.15	5.068
530.49	3.129
530.83	4.266
531.17	3.444
531.51	4.598
531.86	4.589
532.20	3.708
532.54	3.390
532.88	4.435
533.22	3.656
533.57	3.661
533.91	4.021
534.25	3.808
534.59	4.386
534.93	4.152
535.27	3.756
535.62	3.967
535.96	3.546
536.30	4.144
536.64	3.168
536.98	4.091
537.32	4.938
537.66	3.635
538.01	4.087
538.35	4.304
538.69	4.248
539.03	3.731
539.37	4.126
539.71	4.012
540.05	4.246
540.39	4.465
540.73	3.418
541.07	3.576
541.42	3.794
541.76	3.699
542.10	4.377
542.44	4.613
542.78	4.657
543.12	4.049
543.46	3.885
543.80	4.135
544.14	4.087
544.48	3.954
544.82	3.976
545.16	3.643
545.50	4.241
545.84	4.230
546.18	4.421
546.52	4.525
546.86	4.642
547.20	3.747
547.54	4.623
547.88	4.562
548.22	3.947
548.56	3.889
548.90	4.211
549.24	4.485
549.58	3.995
549.92	4.126
550.26	4.462
550.60	4.258
550.94	4.138
551.28	5.586
551.62	5.172
551.96	3.919
552.30	3.560
552.64	4.401
552.98	3.093
553.32	3.905
553.66	3.844
554.00	3.539
554.34	4.594
554.68	4.906
555.02	4.277
555.36	4.455
555.69	4.581
556.03	4.777
556.37	4.015
556.71	5.085
557.05	3.604
557.39	4.400
557.73	4.245
558.07	4.494
558.41	4.798
558.75	4.993
559.08	4.074
559.42	4.152
559.76	4.775
560.10	3.648
560.44	4.313
560.78	5.243
561.12	3.942
561.45	3.630
561.79	4.494
562.13	3.411
562.47	3.245
562.81	4.164
563.15	4.072
563.48	3.416
563.82	4.803
564.16	4.602
564.50	4.099
564.84	4.316
565.17	3.922
565.51	3.818
565.85	4.010
566.19	3.929
566.52	3.189
566.86	4.495
567.20	4.157
567.54	3.712
567.88	4.069
568.21	3.195
568.55	3.988
568.89	3.878
569.23	3.322
569.56	3.115
569.90	3.414
570.24	3.305
570.57	3.245
570.91	2.933
571.25	3.173
571.59	2.876
571.92	2.826
572.26	2.507
572.60	2.777
572.93	3.048
573.27	2.814
573.61	2.734
573.95	2.515
574.28	2.739
574.62	2.632
574.96	2.758
575.29	2.558
575.63	2.615
575.97	2.605
576.30	2.759
576.64	3.284
576.98	3.018
577.31	3.135
577.65	2.791
577.98	2.732
578.32	2.666
578.66	2.372
578.99	2.622
579.33	2.864
579.67	2.516
580.00	2.568
580.34	2.727
580.67	2.752
581.01	2.809
581.35	2.663
581.68	2.459
582.02	2.484
582.35	2.342
582.69	2.699
583.02	2.443
583.36	2.721
583.70	2.675
584.03	2.834
584.37	2.701
584.70	2.762
585.04	2.593
585.37	2.390
585.71	2.899
586.04	2.736
586.38	2.801
586.72	2.728
587.05	3.165
587.39	2.453
587.72	2.732
588.06	2.508
588.39	2.789
588.73	2.724
589.06	2.539
589.40	2.848
589.73	3.048
590.07	2.951
590.40	3.554
590.73	3.856
591.07	3.605
591.40	3.034
591.74	3.531
592.07	3.203
592.41	3.517
592.74	2.819
593.08	2.507
593.41	2.753
593.75	3.016
594.08	3.388
594.41	3.063
594.75	2.500
595.08	3.086
595.42	3.226
595.75	3.291
596.09	3.684
596.42	2.950
596.75	3.446
597.09	3.673
597.42	3.347
597.75	2.880
598.09	3.488
598.42	3.346
598.76	3.855
599.09	3.089
599.42	3.426
599.76	3.155
600.09	2.915
600.42	3.453
600.76	2.923
601.09	3.072
601.42	3.062
601.76	2.828
602.09	3.422
602.42	3.142
602.76	3.112
603.09	3.733
603.42	3.890
603.76	2.856
604.09	3.076
604.42	3.089
604.76	3.674
605.09	3.429
605.42	3.169
605.75	3.316
606.09	3.137
606.42	3.570
606.75	3.420
607.09	3.277
607.42	3.214
607.75	3.304
608.08	3.046
608.42	3.146
608.75	2.781
609.08	3.080
609.41	3.682
609.75	3.846
610.08	3.192
610.41	3.338
610.74	3.939
611.07	3.547
611.41	3.475
611.74	3.489
612.07	3.565
612.40	3.460
612.73	4.244
613.07	4.004
613.40	3.409
613.73	2.996
614.06	3.500
614.39	3.990
614.72	3.817
615.06	3.066
615.39	3.911
615.72	3.485
616.05	3.666
616.38	3.907
616.71	3.201
617.05	3.460
617.38	3.933
617.71	2.812
618.04	2.973
618.37	3.835
618.70	3.811
619.03	3.236
619.36	3.769
619.69	3.760
620.03	4.501
620.36	3.597
620.69	5.492
621.02	4.891
621.35	3.868
621.68	4.277
622.01	4.797
622.34	3.059
622.67	4.424
623.00	4.016
623.33	4.791
623.66	3.925
623.99	4.178
624.32	4.472
624.65	4.411
624.99	3.719
625.32	4.142
625.65	3.310
625.98	3.626
626.31	4.080
626.64	3.948
626.97	3.979
627.30	3.649
627.63	3.611
627.96	4.304
628.29	3.713
628.62	3.935
628.95	4.699
629.28	5.960
629.61	3.954
629.94	3.630
630.26	5.459
630.59	5.319
630.92	4.933
631.25	5.258
631.58	4.918
631.91	3.901
632.24	4.470
632.57	4.028
632.90	4.969
633.23	4.617
633.56	5.163
633.89	4.180
634.22	4.629
634.55	4.839
634.88	6.024
635.20	5.381
635.53	4.878
635.86	5.593
636.19	5.051
636.52	4.649
636.85	3.560
637.18	5.200
637.51	4.581
637.83	4.691
638.16	6.448
638.49	5.629
638.82	5.399
639.15	4.230
639.48	5.095
639.81	5.250
640.13	5.031
640.46	6.700
640.79	4.811
641.12	5.249
641.45	5.951
641.77	6.737
642.10	6.292
642.43	5.405
642.76	5.256
643.09	5.764
643.41	5.330
643.74	4.460
644.07	5.015
644.40	6.065
644.73	6.607
645.05	7.578
645.38	5.207
645.71	5.766
646.04	7.634
646.36	6.103
646.69	5.120
647.02	6.880
647.35	5.512
647.67	5.024
648.00	6.189
648.33	7.820
648.66	5.000
648.98	5.797
649.31	6.343
649.64	3.873
649.96	5.974
650.29	6.714
650.62	6.922
650.94	8.133
651.27	9.250
651.60	5.321
651.92	5.530
652.25	7.402
652.58	5.816
652.90	6.287
653.23	5.022
653.56	6.528
653.88	6.902
654.21	7.185
654.54	6.589
654.86	6.047
655.19	6.860
655.52	4.770
655.84	2.000
656.17	2.071
