SpectraSuite Data File
++++++++++++++++++++++++++++++++++++
Date: Tue May 12 16:59:51 PDT 2015
User: schluterlab
Dark Spectrum Present: Yes
Reference Spectrum Present: Yes
Number of Sampled Component Spectra: 1
Spectrometers: USB2E3373
Integration Time (usec): 3000 (USB2E3373)
Spectra Averaged: 3 (USB2E3373)
Boxcar Smoothing: 0 (USB2E3373)
Correct for Electrical Dark: No (USB2E3373)
Strobe/Lamp Enabled: No (USB2E3373)
Correct for Detector Non-linearity: No (USB2E3373)
Correct for Stray Light: No (USB2E3373)
Number of Pixels in Processed Spectrum: 2048
>>>>>Begin Processed Spectral Data<<<<<
178.53	0.000
178.91	-225.000
179.29	-825.000
179.67	-3700.000
180.04	-106.667
180.42	550.000
180.80	1550.000
181.18	0.000
181.56	-375.000
181.94	0.000
182.31	1366.667
182.69	-2900.000
183.07	414.286
183.45	-3600.000
183.83	-1500.000
184.20	400.000
184.58	442.857
184.96	-292.308
185.34	-200.000
185.72	1400.000
186.09	-825.000
186.47	-3000.000
186.85	1000.000
187.23	740.000
187.61	1600.000
187.98	437.500
188.36	264.286
188.74	316.667
189.12	358.333
189.49	925.000
189.87	0.000
190.25	575.000
190.63	2800.000
191.00	-166.667
191.38	-4200.000
191.76	-550.000
192.14	512.500
192.51	-3800.000
192.89	2200.000
193.27	1266.667
193.65	-1133.333
194.02	-680.000
194.40	600.000
194.78	-157.143
195.15	240.000
195.53	-3100.000
195.91	-660.000
196.29	3700.000
196.66	262.500
197.04	1000.000
197.42	-1500.000
197.79	775.000
198.17	300.000
198.55	0.000
198.92	471.429
199.30	1166.667
199.68	1600.000
200.05	550.000
200.43	-450.000
200.81	250.000
201.18	4400.000
201.56	325.000
201.94	-600.000
202.31	-350.000
202.69	-620.000
203.07	3600.000
203.44	-633.333
203.82	275.000
204.19	840.000
204.57	-1300.000
204.95	-825.000
205.32	-640.000
205.70	666.667
206.08	775.000
206.45	-933.333
206.83	400.000
207.20	215.789
207.58	316.667
207.96	940.000
208.33	0.000
208.71	614.286
209.08	860.000
209.46	-2800.000
209.84	-825.000
210.21	820.000
210.59	-440.000
210.96	291.667
211.34	-975.000
211.71	381.818
212.09	1125.000
212.46	1700.000
212.84	-483.333
213.22	444.444
213.59	-2800.000
213.97	400.000
214.34	750.000
214.72	1066.667
215.09	866.667
215.47	-3200.000
215.84	-300.000
216.22	-400.000
216.59	0.000
216.97	0.000
217.34	1100.000
217.72	-1850.000
218.09	1466.667
218.47	537.500
218.84	975.000
219.22	1400.000
219.59	1100.000
219.97	471.429
220.34	355.556
220.72	1850.000
221.09	3200.000
221.47	300.000
221.84	1100.000
222.22	340.000
222.59	238.889
222.97	185.714
223.34	256.250
223.72	-1650.000
224.09	1300.000
224.46	261.538
224.84	-950.000
225.21	344.444
225.59	293.333
225.96	1400.000
226.34	-760.000
226.71	-500.000
227.08	-560.000
227.46	0.000
227.83	-400.000
228.21	-1900.000
228.58	383.333
228.95	725.000
229.33	377.778
229.70	900.000
230.08	400.000
230.45	3900.000
230.82	-1025.000
231.20	-966.667
231.57	-1266.667
231.95	780.000
232.32	375.000
232.69	683.333
233.07	300.000
233.44	-1600.000
233.81	233.333
234.19	200.000
234.56	268.750
234.93	247.059
235.31	235.000
235.68	293.750
236.05	196.429
236.43	166.667
236.80	371.429
237.17	217.241
237.55	162.500
237.92	162.500
238.29	172.727
238.67	171.875
239.04	160.976
239.41	120.833
239.79	135.000
240.16	131.250
240.53	95.082
240.91	100.000
241.28	113.559
241.65	112.121
242.02	123.944
242.40	121.429
242.77	90.110
243.14	108.861
243.51	107.071
243.89	91.589
244.26	86.916
244.63	95.050
245.00	89.908
245.38	80.508
245.75	89.394
246.12	94.815
246.49	83.688
246.87	87.705
247.24	80.667
247.61	82.500
247.98	80.272
248.36	75.758
248.73	75.000
249.10	76.786
249.47	81.000
249.84	72.139
250.22	81.081
250.59	76.500
250.96	72.996
251.33	72.093
251.70	79.018
252.08	74.370
252.45	67.729
252.82	66.920
253.19	72.727
253.56	73.077
253.94	71.014
254.31	73.643
254.68	70.732
255.05	68.966
255.42	71.168
255.79	73.290
256.16	69.153
256.54	74.026
256.91	75.163
257.28	72.575
257.65	67.712
258.02	66.667
258.39	67.622
258.76	68.986
259.14	65.714
259.51	70.845
259.88	74.164
260.25	67.033
260.62	68.493
260.99	69.146
261.36	66.017
261.73	69.149
262.10	67.801
262.47	68.750
262.85	67.733
263.22	66.067
263.59	70.077
263.96	65.664
264.33	67.407
264.70	67.076
265.07	69.024
265.44	66.514
265.81	66.509
266.18	66.133
266.55	68.085
266.92	68.680
267.29	68.202
267.66	67.265
268.03	66.143
268.40	67.442
268.77	64.758
269.14	65.510
269.51	67.706
269.88	65.714
270.25	59.611
270.62	64.592
270.99	65.720
271.36	63.618
271.73	62.264
272.10	60.202
272.47	61.508
272.84	61.477
273.21	65.083
273.58	65.385
273.95	62.218
274.32	61.673
274.69	64.567
275.06	64.663
275.43	62.069
275.80	63.962
276.17	63.419
276.54	61.308
276.91	65.672
277.28	62.774
277.65	62.915
278.02	61.029
278.39	61.871
278.76	60.345
279.13	61.032
279.50	63.455
279.87	60.149
280.23	60.037
280.60	64.964
280.97	61.207
281.34	61.881
281.71	59.826
282.08	60.684
282.45	62.162
282.82	61.706
283.19	58.188
283.56	59.835
283.92	63.844
284.29	59.567
284.66	60.504
285.03	58.872
285.40	58.843
285.77	58.333
286.14	58.669
286.51	59.202
286.87	55.696
287.24	56.907
287.61	56.079
287.98	55.075
288.35	57.037
288.72	55.842
289.08	56.757
289.45	55.640
289.82	56.250
290.19	55.344
290.56	58.224
290.93	53.381
291.29	53.591
291.66	51.695
292.03	52.875
292.40	52.033
292.77	51.671
293.13	53.638
293.50	49.528
293.87	47.967
294.24	51.329
294.60	52.355
294.97	53.427
295.34	51.129
295.71	51.248
296.08	50.400
296.44	49.174
296.81	48.139
297.18	47.782
297.55	49.754
297.91	49.261
298.28	47.826
298.65	46.994
299.02	46.803
299.38	48.201
299.75	45.610
300.12	46.789
300.48	47.541
300.85	49.464
301.22	47.674
301.59	45.283
301.95	46.324
302.32	47.846
302.69	47.398
303.05	47.924
303.42	45.516
303.79	46.804
304.15	44.774
304.52	45.877
304.89	44.776
305.25	47.497
305.62	45.522
305.99	46.304
306.35	46.000
306.72	46.826
307.09	45.238
307.45	44.879
307.82	45.576
308.19	46.392
308.55	44.700
308.92	46.909
309.29	46.055
309.65	44.896
310.02	46.552
310.38	44.467
310.75	46.095
311.12	45.881
311.48	47.683
311.85	45.515
312.22	46.705
312.58	46.356
312.95	45.728
313.31	47.097
313.68	47.280
314.05	47.070
314.41	47.486
314.78	48.674
315.14	49.005
315.51	50.520
315.87	48.266
316.24	49.300
316.61	48.881
316.97	50.459
317.34	50.584
317.70	50.307
318.07	52.046
318.43	50.088
318.80	51.664
319.16	50.437
319.53	53.186
319.89	52.330
320.26	54.935
320.62	54.212
320.99	53.861
321.35	52.783
321.72	55.503
322.08	56.879
322.45	54.859
322.81	55.352
323.18	57.460
323.54	57.230
323.91	59.746
324.27	56.676
324.64	58.737
325.00	60.862
325.37	60.708
325.73	62.901
326.10	62.883
326.46	61.519
326.83	62.000
327.19	63.936
327.56	62.220
327.92	63.770
328.29	64.157
328.65	65.240
329.01	65.526
329.38	65.567
329.74	63.706
330.11	66.030
330.47	67.349
330.84	65.056
331.20	64.382
331.56	66.408
331.93	65.783
332.29	64.966
332.66	67.687
333.02	65.292
333.38	65.620
333.75	64.053
334.11	66.107
334.48	66.239
334.84	64.696
335.20	65.184
335.57	65.995
335.93	67.368
336.29	62.023
336.66	65.695
337.02	65.184
337.38	64.058
337.75	65.456
338.11	67.595
338.47	66.638
338.84	64.945
339.20	65.455
339.56	64.256
339.93	65.217
340.29	62.269
340.65	64.627
341.02	63.475
341.38	65.025
341.74	65.947
342.11	66.110
342.47	64.151
342.83	64.561
343.20	64.026
343.56	61.557
343.92	65.566
344.28	65.152
344.65	63.570
345.01	63.492
345.37	63.702
345.73	64.603
346.10	63.028
346.46	63.636
346.82	62.423
347.19	63.601
347.55	63.466
347.91	62.764
348.27	63.439
348.63	64.241
349.00	63.899
349.36	64.514
349.72	64.067
350.08	63.121
350.45	64.204
350.81	63.226
351.17	61.633
351.53	62.895
351.89	63.092
352.26	63.341
352.62	63.047
352.98	63.650
353.34	63.097
353.70	61.850
354.07	63.692
354.43	62.212
354.79	64.161
355.15	62.098
355.51	62.009
355.87	63.554
356.24	62.279
356.60	62.938
356.96	63.685
357.32	61.869
357.68	61.894
358.04	62.234
358.40	61.544
358.77	62.359
359.13	63.063
359.49	63.232
359.85	62.621
360.21	60.847
360.57	63.066
360.93	62.915
361.29	62.121
361.66	64.952
362.02	60.938
362.38	64.069
362.74	63.057
363.10	62.342
363.46	61.740
363.82	62.553
364.18	63.371
364.54	63.305
364.90	62.918
365.26	63.012
365.62	62.776
365.98	61.803
366.35	61.724
366.71	62.526
367.07	63.345
367.43	62.189
367.79	61.902
368.15	61.194
368.51	63.956
368.87	61.889
369.23	63.617
369.59	62.778
369.95	63.846
370.31	62.286
370.67	62.457
371.03	62.955
371.39	64.127
371.75	62.177
372.11	62.339
372.47	61.644
372.83	63.086
373.19	63.537
373.55	62.337
373.91	61.809
374.27	62.963
374.63	62.576
374.99	64.151
375.35	64.449
375.71	63.061
376.07	63.263
376.42	61.509
376.78	62.364
377.14	63.172
377.50	62.547
377.86	63.229
378.22	62.706
378.58	64.831
378.94	63.005
379.30	63.069
379.66	63.034
380.02	63.167
380.38	62.295
380.74	62.918
381.09	63.143
381.45	62.081
381.81	62.648
382.17	62.271
382.53	62.148
382.89	63.631
383.25	64.002
383.61	62.767
383.97	61.608
384.32	62.447
384.68	63.518
385.04	63.482
385.40	63.108
385.76	62.668
386.12	63.142
386.48	62.918
386.83	64.976
387.19	62.544
387.55	62.839
387.91	63.395
388.27	63.831
388.62	61.972
388.98	62.507
389.34	61.987
389.70	62.677
390.06	62.927
390.42	62.862
390.77	62.654
391.13	62.824
391.49	62.008
391.85	63.569
392.20	62.813
392.56	62.903
392.92	61.651
393.28	62.332
393.64	62.099
393.99	62.715
394.35	62.390
394.71	61.037
395.07	62.226
395.42	61.534
395.78	62.431
396.14	64.337
396.50	62.335
396.85	62.012
397.21	62.635
397.57	60.909
397.92	61.121
398.28	62.162
398.64	63.118
399.00	61.304
399.35	61.084
399.71	61.700
400.07	61.530
400.42	62.149
400.78	61.584
401.14	62.478
401.49	60.541
401.85	61.587
402.21	61.394
402.57	61.281
402.92	61.576
403.28	61.456
403.63	60.565
403.99	61.158
404.35	62.075
404.70	61.961
405.06	60.809
405.42	61.879
405.77	60.805
406.13	60.521
406.49	60.091
406.84	60.350
407.20	60.845
407.55	61.231
407.91	60.881
408.27	61.067
408.62	60.142
408.98	59.728
409.34	59.147
409.69	61.730
410.05	59.392
410.40	60.365
410.76	59.588
411.11	60.130
411.47	59.506
411.83	58.817
412.18	61.051
412.54	60.601
412.89	58.702
413.25	60.091
413.60	60.456
413.96	59.605
414.31	60.685
414.67	61.204
415.03	58.940
415.38	60.252
415.74	60.265
416.09	60.337
416.45	60.504
416.80	61.450
417.16	59.580
417.51	60.255
417.87	59.574
418.22	59.903
418.58	61.847
418.93	60.143
419.29	59.704
419.64	60.327
420.00	61.337
420.35	60.163
420.71	59.860
421.06	60.388
421.42	59.067
421.77	59.300
422.12	60.915
422.48	59.373
422.83	60.156
423.19	59.341
423.54	59.024
423.90	60.589
424.25	60.154
424.61	59.837
424.96	60.079
425.31	60.427
425.67	60.774
426.02	58.833
426.38	59.685
426.73	61.481
427.09	59.727
427.44	60.608
427.79	60.263
428.15	60.813
428.50	60.171
428.85	59.788
429.21	59.373
429.56	59.023
429.92	59.473
430.27	59.458
430.62	58.737
430.98	58.882
431.33	59.879
431.68	58.025
432.04	59.338
432.39	60.593
432.74	59.953
433.10	60.133
433.45	60.482
433.80	61.224
434.16	59.432
434.51	61.455
434.86	60.425
435.22	60.292
435.57	60.877
435.92	60.330
436.28	60.714
436.63	60.778
436.98	60.304
437.34	59.989
437.69	59.406
438.04	59.516
438.39	60.362
438.75	60.134
439.10	60.658
439.45	60.882
439.81	61.365
440.16	59.879
440.51	60.755
440.86	61.937
441.22	60.173
441.57	60.682
441.92	60.958
442.27	61.443
442.63	59.959
442.98	60.668
443.33	60.793
443.68	60.513
444.03	60.320
444.39	61.252
444.74	59.524
445.09	60.769
445.44	60.521
445.79	60.526
446.15	60.526
446.50	61.129
446.85	61.305
447.20	60.647
447.55	60.576
447.91	62.280
448.26	60.543
448.61	61.470
448.96	61.874
449.31	61.056
449.66	61.794
450.02	60.616
450.37	62.188
450.72	63.196
451.07	60.791
451.42	62.004
451.77	60.137
452.12	61.656
452.47	62.819
452.83	63.042
453.18	62.222
453.53	61.101
453.88	61.486
454.23	61.592
454.58	61.422
454.93	61.496
455.28	61.995
455.63	63.061
455.98	60.462
456.34	62.067
456.69	62.561
457.04	61.337
457.39	61.200
457.74	62.218
458.09	60.752
458.44	61.501
458.79	61.432
459.14	61.920
459.49	60.362
459.84	63.370
460.19	61.299
460.54	61.311
460.89	62.207
461.24	60.481
461.59	62.358
461.94	62.470
462.29	63.101
462.64	61.369
462.99	61.804
463.34	60.920
463.69	61.645
464.04	62.119
464.39	60.389
464.74	59.613
465.09	60.534
465.44	59.304
465.79	61.187
466.14	59.141
466.49	61.639
466.84	60.033
467.19	59.988
467.54	59.640
467.89	60.094
468.24	61.378
468.59	60.893
468.94	60.266
469.29	60.232
469.64	60.064
469.99	60.861
470.34	60.974
470.68	59.241
471.03	60.107
471.38	61.854
471.73	61.137
472.08	61.057
472.43	61.701
472.78	60.691
473.13	58.636
473.48	60.452
473.83	61.425
474.17	59.939
474.52	59.597
474.87	58.556
475.22	60.194
475.57	59.286
475.92	59.172
476.27	59.140
476.61	58.552
476.96	60.240
477.31	60.566
477.66	61.514
478.01	59.515
478.36	59.990
478.70	59.007
479.05	60.513
479.40	59.276
479.75	59.881
480.10	59.245
480.45	59.290
480.79	59.770
481.14	59.249
481.49	58.646
481.84	59.543
482.19	58.996
482.53	59.596
482.88	59.229
483.23	58.863
483.58	59.695
483.92	59.598
484.27	58.390
484.62	59.338
484.97	58.278
485.31	57.970
485.66	59.067
486.01	57.757
486.36	57.325
486.70	56.567
487.05	57.645
487.40	57.028
487.75	57.495
488.09	57.784
488.44	58.062
488.79	57.897
489.13	58.641
489.48	58.410
489.83	59.299
490.17	57.225
490.52	58.699
490.87	57.802
491.22	58.954
491.56	57.795
491.91	58.199
492.26	57.951
492.60	59.043
492.95	57.499
493.30	59.418
493.64	57.727
493.99	57.379
494.34	58.225
494.68	58.566
495.03	57.925
495.37	58.082
495.72	57.669
496.07	58.131
496.41	56.994
496.76	57.577
497.11	57.584
497.45	56.730
497.80	57.785
498.14	58.206
498.49	57.985
498.84	57.009
499.18	56.536
499.53	57.740
499.87	57.098
500.22	58.498
500.56	57.707
500.91	58.302
501.26	57.832
501.60	57.650
501.95	56.944
502.29	56.800
502.64	56.595
502.98	56.336
503.33	57.149
503.67	58.190
504.02	55.844
504.36	57.240
504.71	56.575
505.06	57.250
505.40	56.341
505.75	56.221
506.09	57.723
506.44	56.673
506.78	57.609
507.13	56.714
507.47	56.914
507.82	57.372
508.16	57.178
508.51	58.164
508.85	55.935
509.19	57.073
509.54	56.152
509.88	56.937
510.23	56.765
510.57	55.454
510.92	57.493
511.26	58.283
511.61	55.441
511.95	55.948
512.30	56.250
512.64	56.231
512.98	57.406
513.33	57.941
513.67	57.017
514.02	56.779
514.36	56.438
514.70	56.053
515.05	57.272
515.39	57.895
515.74	57.354
516.08	55.991
516.42	58.033
516.77	56.213
517.11	55.520
517.46	56.627
517.80	56.636
518.14	56.845
518.49	56.009
518.83	55.604
519.17	56.961
519.52	56.472
519.86	56.240
520.20	55.781
520.55	56.133
520.89	55.690
521.23	56.542
521.58	55.020
521.92	56.618
522.26	56.043
522.61	57.873
522.95	56.877
523.29	56.257
523.64	55.260
523.98	56.103
524.32	55.133
524.66	55.478
525.01	55.740
525.35	54.508
525.69	55.810
526.04	56.157
526.38	56.033
526.72	55.788
527.06	55.766
527.41	55.018
527.75	55.752
528.09	54.666
528.43	55.705
528.78	56.231
529.12	56.773
529.46	55.815
529.80	55.140
530.15	55.569
530.49	56.077
530.83	54.966
531.17	55.351
531.51	56.039
531.86	53.744
532.20	53.461
532.54	54.802
532.88	55.903
533.22	54.235
533.57	56.437
533.91	54.487
534.25	54.414
534.59	55.497
534.93	54.437
535.27	53.728
535.62	54.317
535.96	54.255
536.30	56.368
536.64	53.789
536.98	54.626
537.32	53.937
537.66	54.145
538.01	54.427
538.35	54.398
538.69	53.155
539.03	52.674
539.37	53.277
539.71	55.185
540.05	54.831
540.39	53.711
540.73	53.481
541.07	53.639
541.42	53.545
541.76	54.747
542.10	53.514
542.44	52.805
542.78	54.688
543.12	52.577
543.46	53.822
543.80	53.885
544.14	54.489
544.48	54.197
544.82	53.578
545.16	52.338
545.50	51.998
545.84	52.967
546.18	54.031
546.52	54.623
546.86	54.868
547.20	53.101
547.54	53.008
547.88	52.798
548.22	53.188
548.56	52.033
548.90	52.135
549.24	53.190
549.58	52.835
549.92	53.438
550.26	53.414
550.60	52.628
550.94	54.138
551.28	53.655
551.62	54.345
551.96	52.838
552.30	53.461
552.64	54.239
552.98	52.384
553.32	51.665
553.66	52.117
554.00	51.544
554.34	53.462
554.68	51.747
555.02	51.799
555.36	51.662
555.69	51.702
556.03	52.420
556.37	51.498
556.71	52.673
557.05	50.393
557.39	52.800
557.73	52.426
558.07	52.716
558.41	51.953
558.75	52.052
559.08	53.753
559.42	53.185
559.76	53.100
560.10	49.966
560.44	51.692
560.78	50.831
561.12	53.274
561.45	51.252
561.79	51.248
562.13	51.232
562.47	52.239
562.81	52.375
563.15	51.713
563.48	49.255
563.82	52.402
564.16	51.679
564.50	50.392
564.84	51.125
565.17	50.030
565.51	52.586
565.85	51.511
566.19	50.476
566.52	50.722
566.86	53.065
567.20	51.517
567.54	51.255
567.88	51.330
568.21	49.975
568.55	50.535
568.89	51.369
569.23	49.957
569.56	51.438
569.90	50.305
570.24	49.847
570.57	49.935
570.91	49.891
571.25	48.903
571.59	48.928
571.92	49.381
572.26	48.464
572.60	48.875
572.93	49.540
573.27	48.851
573.61	48.511
573.95	48.630
574.28	48.861
574.62	48.766
574.96	48.011
575.29	47.521
575.63	47.939
575.97	47.760
576.30	47.887
576.64	47.482
576.98	47.829
577.31	48.578
577.65	48.792
577.98	48.451
578.32	47.982
578.66	48.425
578.99	47.535
579.33	48.038
579.67	47.496
580.00	48.154
580.34	47.899
580.67	47.427
581.01	48.365
581.35	47.963
581.68	47.016
582.02	47.749
582.35	47.867
582.69	47.710
583.02	47.643
583.36	48.007
583.70	48.282
584.03	49.068
584.37	48.637
584.70	47.897
585.04	48.085
585.37	46.912
585.71	48.921
586.04	47.660
586.38	47.977
586.72	48.082
587.05	48.507
587.39	47.560
587.72	47.743
588.06	47.355
588.39	48.260
588.73	47.807
589.06	48.205
589.40	48.826
589.73	47.853
590.07	48.730
590.40	48.780
590.73	48.770
591.07	48.880
591.40	48.224
591.74	48.214
592.07	47.712
592.41	47.162
592.74	47.382
593.08	47.949
593.41	47.457
593.75	47.174
594.08	47.367
594.41	47.019
594.75	47.603
595.08	48.045
595.42	47.893
595.75	47.384
596.09	48.523
596.42	46.941
596.75	48.357
597.09	47.709
597.42	46.980
597.75	47.627
598.09	47.558
598.42	46.920
598.76	46.608
599.09	47.665
599.42	46.055
599.76	47.320
600.09	46.136
600.42	46.409
600.76	46.261
601.09	47.187
601.42	46.498
601.76	47.261
602.09	47.277
602.42	46.876
602.76	46.755
603.09	47.398
603.42	47.046
603.76	46.312
604.09	46.001
604.42	46.441
604.76	46.859
605.09	45.959
605.42	46.160
605.75	45.835
606.09	46.289
606.42	46.674
606.75	46.794
607.09	46.506
607.42	47.007
607.75	46.377
608.08	45.979
608.42	46.309
608.75	45.614
609.08	46.238
609.41	46.909
609.75	47.024
610.08	47.257
610.41	45.850
610.74	46.061
611.07	47.158
611.41	46.293
611.74	47.084
612.07	46.050
612.40	46.248
612.73	46.680
613.07	46.832
613.40	47.018
613.73	46.031
614.06	46.300
614.39	46.162
614.72	45.153
615.06	44.609
615.39	46.337
615.72	45.450
616.05	47.112
616.38	45.611
616.71	45.307
617.05	45.360
617.38	46.404
617.71	46.232
618.04	46.831
618.37	46.693
618.70	46.998
619.03	46.215
619.36	46.985
619.69	46.438
620.03	47.880
620.36	47.013
620.69	48.148
621.02	46.603
621.35	44.628
621.68	47.050
622.01	46.863
622.34	46.686
622.67	47.191
623.00	46.562
623.33	47.166
623.66	47.106
623.99	46.096
624.32	45.732
624.65	46.083
624.99	46.721
625.32	46.493
625.65	46.483
625.98	45.119
626.31	45.846
626.64	46.545
626.97	44.759
627.30	46.661
627.63	47.331
627.96	45.853
628.29	46.700
628.62	46.536
628.95	46.809
629.28	48.028
629.61	48.067
629.94	45.981
630.26	46.967
630.59	47.074
630.92	46.099
