SpectraSuite Data File
++++++++++++++++++++++++++++++++++++
Date: Tue May 12 17:17:23 PDT 2015
User: schluterlab
Dark Spectrum Present: Yes
Reference Spectrum Present: Yes
Number of Sampled Component Spectra: 1
Spectrometers: USB2E3373
Integration Time (usec): 3000 (USB2E3373)
Spectra Averaged: 3 (USB2E3373)
Boxcar Smoothing: 0 (USB2E3373)
Correct for Electrical Dark: No (USB2E3373)
Strobe/Lamp Enabled: No (USB2E3373)
Correct for Detector Non-linearity: No (USB2E3373)
Correct for Stray Light: No (USB2E3373)
Number of Pixels in Processed Spectrum: 2048
>>>>>Begin Processed Spectral Data<<<<<
178.53	0.000
178.91	-241.667
179.29	-875.000
179.67	-3500.000
180.04	-153.333
180.42	600.000
180.80	1500.000
181.18	0.000
181.56	-250.000
181.94	0.000
182.31	866.667
182.69	-3000.000
183.07	642.857
183.45	-3800.000
183.83	-1350.000
184.20	300.000
184.58	400.000
184.96	-284.615
185.34	-216.667
185.72	1800.000
186.09	-850.000
186.47	-3200.000
186.85	966.667
187.23	560.000
187.61	1650.000
187.98	450.000
188.36	200.000
188.74	333.333
189.12	366.667
189.49	1025.000
189.87	0.000
190.25	487.500
190.63	2000.000
191.00	-141.667
191.38	-3700.000
191.76	-650.000
192.14	637.500
192.51	-3500.000
192.89	2150.000
193.27	1100.000
193.65	-1266.667
194.02	-640.000
194.40	642.857
194.78	-164.286
195.15	293.333
195.53	-3200.000
195.91	-380.000
196.29	4000.000
196.66	268.750
197.04	700.000
197.42	-1600.000
197.79	675.000
198.17	341.667
198.55	0.000
198.92	628.571
199.30	966.667
199.68	2050.000
200.05	683.333
200.43	-616.667
200.81	211.111
201.18	3500.000
201.56	291.667
201.94	-700.000
202.31	-287.500
202.69	-620.000
203.07	3000.000
203.44	-350.000
203.82	358.333
204.19	600.000
204.57	-1400.000
204.95	-650.000
205.32	-640.000
205.70	583.333
206.08	825.000
206.45	-833.333
206.83	466.667
207.20	215.789
207.58	258.333
207.96	680.000
208.33	0.000
208.71	528.571
209.08	620.000
209.46	-2600.000
209.84	-825.000
210.21	1060.000
210.59	-520.000
210.96	300.000
211.34	-925.000
211.71	409.091
212.09	925.000
212.46	1600.000
212.84	-500.000
213.22	411.111
213.59	-3700.000
213.97	290.000
214.34	925.000
214.72	1033.333
215.09	1166.667
215.47	-3800.000
215.84	-340.000
216.22	-337.500
216.59	0.000
216.97	0.000
217.34	1150.000
217.72	-1550.000
218.09	1066.667
218.47	425.000
218.84	550.000
219.22	1066.667
219.59	1066.667
219.97	557.143
220.34	400.000
220.72	1500.000
221.09	2900.000
221.47	233.333
221.84	1333.333
222.22	300.000
222.59	300.000
222.97	264.286
223.34	218.750
223.72	-1850.000
224.09	933.333
224.46	292.308
224.84	-600.000
225.21	277.778
225.59	240.000
225.96	1133.333
226.34	-620.000
226.71	-875.000
227.08	-660.000
227.46	0.000
227.83	-416.667
228.21	-1450.000
228.58	400.000
228.95	900.000
229.33	300.000
229.70	1125.000
230.08	330.769
230.45	5000.000
230.82	-1025.000
231.20	-1000.000
231.57	-966.667
231.95	780.000
232.32	275.000
232.69	633.333
233.07	333.333
233.44	-1450.000
233.81	300.000
234.19	192.593
234.56	250.000
234.93	217.647
235.31	185.000
235.68	250.000
236.05	185.714
236.43	137.037
236.80	250.000
237.17	155.172
237.55	125.000
237.92	105.000
238.29	133.333
238.67	93.750
239.04	107.317
239.41	70.833
239.79	92.500
240.16	110.417
240.53	68.852
240.91	88.406
241.28	74.576
241.65	86.364
242.02	88.732
242.40	64.286
242.77	65.934
243.14	56.962
243.51	77.778
243.89	54.206
244.26	47.664
244.63	64.356
245.00	63.303
245.38	57.627
245.75	51.515
246.12	51.852
246.49	53.191
246.87	58.197
247.24	51.333
247.61	46.250
247.98	51.701
248.36	40.000
248.73	44.898
249.10	44.048
249.47	41.500
249.84	42.289
250.22	44.865
250.59	47.500
250.96	39.241
251.33	42.791
251.70	40.625
252.08	43.697
252.45	39.841
252.82	36.882
253.19	36.759
253.56	39.231
253.94	41.667
254.31	39.922
254.68	41.115
255.05	40.000
255.42	40.146
255.79	39.088
256.16	38.644
256.54	41.883
256.91	34.967
257.28	34.783
257.65	34.483
258.02	36.283
258.39	40.688
258.76	39.420
259.14	35.429
259.51	39.359
259.88	39.514
260.25	36.813
260.62	38.356
260.99	33.884
261.36	36.769
261.73	34.309
262.10	35.864
262.47	32.750
262.85	37.867
263.22	38.560
263.59	35.038
263.96	36.090
264.33	33.580
264.70	37.101
265.07	36.098
265.44	35.092
265.81	35.849
266.18	36.842
266.55	34.752
266.92	34.004
267.29	35.746
267.66	34.305
268.03	36.323
268.40	34.249
268.77	36.123
269.14	32.755
269.51	35.857
269.88	34.898
270.25	31.533
270.62	33.262
270.99	37.931
271.36	35.163
271.73	32.914
272.10	31.515
272.47	32.937
272.84	32.335
273.21	34.917
273.58	35.020
273.95	33.881
274.32	34.436
274.69	33.661
275.06	33.880
275.43	33.333
275.80	33.208
276.17	30.699
276.54	32.897
276.91	33.022
277.28	32.299
277.65	33.026
278.02	32.353
278.39	32.014
278.76	31.897
279.13	31.851
279.50	34.909
279.87	30.540
280.23	31.860
280.60	34.124
280.97	33.103
281.34	32.508
281.71	31.478
282.08	32.137
282.45	30.405
282.82	30.936
283.19	30.048
283.56	30.413
283.92	31.596
284.29	32.446
284.66	29.916
285.03	31.675
285.40	30.579
285.77	32.099
286.14	29.876
286.51	30.982
286.87	30.696
287.24	27.928
287.61	31.611
287.98	27.612
288.35	29.037
288.72	30.349
289.08	29.129
289.45	29.268
289.82	30.313
290.19	28.551
290.56	29.112
290.93	27.050
291.29	27.762
291.66	29.520
292.03	27.069
292.40	28.455
292.77	27.855
293.13	28.245
293.50	26.586
293.87	26.829
294.24	29.371
294.60	29.206
294.97	30.350
295.34	27.092
295.71	28.647
296.08	28.267
296.44	27.954
296.81	28.040
297.18	26.109
297.55	27.833
297.91	24.754
298.28	27.415
298.65	25.031
299.02	26.417
299.38	26.978
299.75	26.098
300.12	27.294
300.48	27.049
300.85	28.248
301.22	27.093
301.59	24.764
301.95	26.721
302.32	25.844
302.69	27.715
303.05	27.385
303.42	24.552
303.79	27.086
304.15	25.193
304.52	26.956
304.89	26.652
305.25	27.030
305.62	27.186
305.99	25.543
306.35	25.263
306.72	24.766
307.09	26.605
307.45	24.815
307.82	24.897
308.19	26.907
308.55	26.000
308.92	27.478
309.29	26.529
309.65	27.156
310.02	26.471
310.38	27.717
310.75	26.422
311.12	27.299
311.48	28.089
311.85	27.958
312.22	27.889
312.58	28.571
312.95	29.709
313.31	27.622
313.68	29.081
314.05	29.487
314.41	29.609
314.78	29.735
315.14	31.090
315.51	30.464
315.87	30.018
316.24	31.186
316.61	31.334
316.97	30.092
317.34	30.728
317.70	31.080
318.07	32.206
318.43	32.162
318.80	32.399
319.16	32.780
319.53	32.035
319.89	33.513
320.26	34.823
320.62	35.256
320.99	34.604
321.35	34.787
321.72	35.389
322.08	36.103
322.45	36.876
322.81	35.773
323.18	37.300
323.54	37.979
323.91	38.350
324.27	37.843
324.64	37.803
325.00	38.966
325.37	39.882
325.73	40.894
326.10	40.017
326.46	40.628
326.83	39.760
327.19	41.606
327.56	41.134
327.92	42.623
328.29	40.998
328.65	44.863
329.01	43.798
329.38	43.824
329.74	43.382
330.11	43.701
330.47	44.842
330.84	42.537
331.20	43.739
331.56	44.646
331.93	44.739
332.29	43.367
332.66	45.323
333.02	44.072
333.38	45.026
333.75	44.370
334.11	43.372
334.48	45.043
334.84	43.666
335.20	44.996
335.57	43.325
335.93	44.491
336.29	44.196
336.66	45.626
337.02	44.055
337.38	45.056
337.75	44.003
338.11	44.051
338.47	46.063
338.84	45.047
339.20	44.329
339.56	44.743
339.93	45.652
340.29	43.866
340.65	45.767
341.02	45.455
341.38	44.417
341.74	43.937
342.11	44.324
342.47	44.053
342.83	43.888
343.20	43.816
343.56	41.223
343.92	44.261
344.28	44.657
344.65	46.618
345.01	43.571
345.37	42.788
345.73	44.127
346.10	43.984
346.46	44.976
346.82	42.824
347.19	44.513
347.55	42.857
347.91	44.109
348.27	43.067
348.63	44.225
349.00	43.793
349.36	43.113
349.72	43.578
350.08	44.255
350.45	43.869
350.81	44.037
351.17	43.374
351.53	43.264
351.89	42.735
352.26	42.630
352.62	43.363
352.98	43.405
353.34	43.297
353.70	43.043
354.07	43.308
354.43	43.548
354.79	41.913
355.15	43.874
355.51	43.656
355.87	43.449
356.24	44.650
356.60	43.151
356.96	44.049
357.32	42.954
357.68	44.200
358.04	44.909
358.40	43.178
358.77	43.727
359.13	43.468
359.49	43.662
359.85	43.708
360.21	43.239
360.57	43.504
360.93	43.146
361.29	43.362
361.66	43.400
362.02	42.401
362.38	44.372
362.74	43.029
363.10	44.460
363.46	43.094
363.82	42.567
364.18	44.168
364.54	44.206
364.90	43.775
365.26	43.997
365.62	43.370
365.98	43.496
366.35	43.172
366.71	43.303
367.07	43.003
367.43	43.586
367.79	43.218
368.15	43.080
368.51	43.970
368.87	42.799
369.23	42.273
369.59	42.144
369.95	44.615
370.31	42.710
370.67	43.928
371.03	43.417
371.39	43.767
371.75	43.405
372.11	44.392
372.47	43.425
372.83	43.916
373.19	43.523
373.55	43.093
373.91	41.436
374.27	42.328
374.63	43.661
374.99	43.059
375.35	43.817
375.71	43.931
376.07	42.573
376.42	42.519
376.78	43.224
377.14	43.840
377.50	42.509
377.86	43.626
378.22	42.596
378.58	44.249
378.94	43.271
379.30	42.753
379.66	42.505
380.02	43.167
380.38	42.740
380.74	43.945
381.09	43.224
381.45	43.179
381.81	42.612
382.17	43.407
382.53	42.292
382.89	43.051
383.25	41.800
383.61	42.594
383.97	42.711
384.32	42.857
384.68	44.563
385.04	42.966
385.40	42.942
385.76	41.428
386.12	43.414
386.48	42.979
386.83	44.254
387.19	42.638
387.55	41.755
387.91	43.938
388.27	43.902
388.62	42.488
388.98	41.458
389.34	41.642
389.70	41.981
390.06	42.744
390.42	43.245
390.77	42.875
391.13	42.607
391.49	42.347
391.85	43.077
392.20	41.657
392.56	41.219
392.92	41.550
393.28	41.480
393.64	41.915
393.99	41.612
394.35	41.966
394.71	40.712
395.07	41.971
395.42	42.213
395.78	42.011
396.14	41.747
396.50	42.118
396.85	41.646
397.21	41.456
397.57	41.781
397.92	40.959
398.28	40.761
398.64	41.594
399.00	41.154
399.35	40.419
399.71	40.066
400.07	41.438
400.42	41.194
400.78	40.762
401.14	40.458
401.49	41.647
401.85	41.599
402.21	40.480
402.57	42.071
402.92	41.030
403.28	39.141
403.63	39.553
403.99	39.747
404.35	41.559
404.70	41.524
405.06	39.921
405.42	40.455
405.77	41.125
406.13	39.967
406.49	39.966
406.84	39.425
407.20	40.297
407.55	38.892
407.91	40.651
408.27	40.570
408.62	40.035
408.98	40.154
409.34	38.808
409.69	40.884
410.05	39.535
410.40	39.340
410.76	39.439
411.11	39.573
411.47	39.630
411.83	38.840
412.18	39.191
412.54	40.000
412.89	39.292
413.25	39.510
413.60	39.720
413.96	39.437
414.31	39.669
414.67	41.527
415.03	39.336
415.38	40.126
415.74	39.419
416.09	39.600
416.45	40.659
416.80	41.822
417.16	39.465
417.51	39.618
417.87	39.675
418.22	39.186
418.58	40.382
418.93	40.095
419.29	39.556
419.64	39.673
420.00	40.513
420.35	40.012
420.71	40.023
421.06	40.141
421.42	39.551
421.77	40.366
422.12	40.298
422.48	39.445
422.83	39.676
423.19	39.849
423.54	39.824
423.90	40.317
424.25	40.396
424.61	40.221
424.96	38.792
425.31	40.722
425.67	40.404
426.02	40.157
426.38	39.732
426.73	41.238
427.09	40.925
427.44	39.730
427.79	41.166
428.15	41.603
428.50	41.486
428.85	40.917
429.21	40.897
429.56	41.027
429.92	40.080
430.27	40.542
430.62	39.354
430.98	39.371
431.33	39.567
431.68	40.148
432.04	40.248
432.39	40.944
432.74	41.745
433.10	41.085
433.45	42.217
433.80	42.140
434.16	41.408
434.51	41.331
434.86	41.481
435.22	41.869
435.57	41.968
435.92	43.028
436.28	42.396
436.63	41.113
436.98	42.455
437.34	42.295
437.69	40.594
438.04	41.828
438.39	42.207
438.75	42.595
439.10	41.824
439.45	40.871
439.81	41.643
440.16	42.212
440.51	41.329
440.86	43.020
441.22	40.693
441.57	41.155
441.92	42.695
442.27	41.649
442.63	41.565
442.98	41.487
443.33	42.367
443.68	42.354
444.03	41.046
444.39	42.561
444.74	41.408
445.09	41.917
445.44	42.242
445.79	40.887
446.15	41.526
446.50	41.561
446.85	41.235
447.20	41.244
447.55	42.197
447.91	43.261
448.26	41.640
448.61	41.515
448.96	42.974
449.31	42.739
449.66	43.189
450.02	42.085
450.37	44.420
450.72	41.983
451.07	41.594
451.42	42.087
451.77	43.070
452.12	42.371
452.47	43.439
452.83	43.042
453.18	43.724
453.53	42.925
453.88	43.200
454.23	44.102
454.58	42.716
454.93	43.348
455.28	43.758
455.63	44.622
455.98	42.696
456.34	44.377
456.69	43.354
457.04	42.900
457.39	43.543
457.74	43.131
458.09	42.617
458.44	43.045
458.79	43.183
459.14	43.590
459.49	42.356
459.84	43.587
460.19	42.034
460.54	43.533
460.89	44.616
461.24	43.585
461.59	43.311
461.94	41.962
462.29	44.279
462.64	44.221
462.99	43.506
463.34	43.811
463.69	43.981
464.04	43.351
464.39	42.816
464.74	42.556
465.09	43.006
465.44	43.254
465.79	42.842
466.14	41.812
466.49	42.919
466.84	42.140
467.19	43.468
467.54	43.483
467.89	42.840
468.24	43.080
468.59	42.798
468.94	43.237
469.29	42.944
469.64	44.373
469.99	43.895
470.34	43.707
470.68	44.207
471.03	44.096
471.38	43.444
471.73	43.632
472.08	44.357
472.43	44.258
472.78	43.982
473.13	44.305
473.48	43.154
473.83	44.464
474.17	43.343
474.52	43.661
474.87	42.467
475.22	42.947
475.57	43.127
475.92	43.485
476.27	42.601
476.61	43.271
476.96	43.103
477.31	43.548
477.66	44.391
478.01	43.424
478.36	43.718
478.70	42.779
479.05	43.515
479.40	43.006
479.75	43.893
480.10	43.562
480.45	42.484
480.79	43.226
481.14	42.463
481.49	42.132
481.84	42.260
482.19	42.445
482.53	41.722
482.88	42.921
483.23	43.888
483.58	43.761
483.92	43.556
484.27	42.937
484.62	41.935
484.97	42.384
485.31	40.984
485.66	39.800
486.01	38.635
486.36	38.030
486.70	37.925
487.05	39.127
487.40	39.103
487.75	40.301
488.09	39.972
488.44	40.695
488.79	41.097
489.13	42.031
489.48	42.669
489.83	43.536
490.17	41.660
490.52	42.808
490.87	43.190
491.22	43.440
491.56	43.522
491.91	43.683
492.26	42.762
492.60	43.007
492.95	43.045
493.30	43.676
493.64	43.890
493.99	43.247
494.34	42.671
494.68	43.116
495.03	43.871
495.37	42.864
495.72	44.009
496.07	42.588
496.41	43.093
496.76	42.381
497.11	43.445
497.45	43.227
497.80	43.698
498.14	42.256
498.49	43.083
498.84	44.019
499.18	42.962
499.53	42.811
499.87	43.351
500.22	43.482
500.56	43.222
500.91	43.135
501.26	43.914
501.60	43.306
501.95	42.070
502.29	42.844
502.64	42.435
502.98	42.063
503.33	42.628
503.67	42.384
504.02	42.096
504.36	42.534
504.71	42.621
505.06	42.844
505.40	44.080
505.75	42.563
506.09	42.510
506.44	43.233
506.78	43.856
507.13	44.692
507.47	44.299
507.82	42.822
508.16	44.341
508.51	43.188
508.85	43.305
509.19	44.493
509.54	43.066
509.88	43.710
510.23	43.725
510.57	42.471
510.92	43.706
511.26	43.976
511.61	42.541
511.95	43.006
512.30	43.500
512.64	43.458
512.98	44.695
513.33	44.518
513.67	43.345
514.02	43.377
514.36	44.133
514.70	43.787
515.05	44.433
515.39	45.285
515.74	46.364
516.08	44.390
516.42	44.973
516.77	44.640
517.11	43.840
517.46	43.750
517.80	44.184
518.14	46.141
518.49	44.046
518.83	43.791
519.17	45.258
519.52	44.566
519.86	44.360
520.20	44.493
520.55	44.828
520.89	45.057
521.23	45.386
521.58	44.865
521.92	44.082
522.26	44.964
522.61	45.455
522.95	46.186
523.29	44.678
523.64	44.162
523.98	44.660
524.32	44.348
524.66	45.101
525.01	43.787
525.35	44.667
525.69	45.274
526.04	45.330
526.38	44.968
526.72	45.048
527.06	43.820
527.41	44.982
527.75	46.196
528.09	44.732
528.43	45.272
528.78	44.603
529.12	46.358
529.46	44.594
529.80	44.977
530.15	44.019
530.49	44.465
530.83	45.216
531.17	45.264
531.51	44.145
531.86	43.841
532.20	43.758
532.54	44.570
532.88	45.597
533.22	44.363
533.57	44.173
533.91	42.249
534.25	43.104
534.59	44.444
534.93	43.515
535.27	41.605
535.62	42.940
535.96	43.558
536.30	44.790
536.64	42.857
536.98	44.116
537.32	43.688
537.66	43.878
538.01	43.715
538.35	44.230
538.69	43.750
539.03	42.910
539.37	42.476
539.71	43.395
540.05	43.569
540.39	43.459
540.73	42.595
541.07	42.785
541.42	43.035
541.76	43.033
542.10	42.602
542.44	43.641
542.78	42.857
543.12	43.129
543.46	42.857
543.80	42.231
544.14	42.910
544.48	42.397
544.82	43.058
545.16	41.712
545.50	43.331
545.84	43.056
546.18	45.449
546.52	44.590
546.86	43.327
547.20	42.442
547.54	43.002
547.88	42.457
548.22	43.412
548.56	42.133
548.90	41.459
549.24	42.325
549.58	43.363
549.92	44.008
550.26	43.137
550.60	42.914
550.94	43.351
551.28	44.759
551.62	44.828
551.96	43.784
552.30	42.254
552.64	42.783
552.98	41.366
553.32	41.805
553.66	41.433
554.00	42.986
554.34	43.542
554.68	42.070
555.02	43.449
555.36	43.085
555.69	42.081
556.03	42.166
556.37	42.001
556.71	43.416
557.05	41.612
557.39	43.067
557.73	43.801
558.07	42.723
558.41	42.563
558.75	42.750
559.08	43.102
559.42	44.524
559.76	43.264
560.10	42.051
560.44	41.672
560.78	42.008
561.12	42.657
561.45	42.303
561.79	41.823
562.13	41.567
562.47	42.310
562.81	42.290
563.15	41.952
563.48	41.118
563.82	43.044
564.16	41.915
564.50	41.350
564.84	41.216
565.17	40.463
565.51	42.057
565.85	41.888
566.19	40.714
566.52	40.373
566.86	42.032
567.20	40.449
567.54	40.011
567.88	40.323
568.21	38.892
568.55	38.716
568.89	38.002
569.23	36.713
569.56	38.019
569.90	36.004
570.24	36.354
570.57	36.048
570.91	35.195
571.25	35.558
571.59	34.236
571.92	33.988
572.26	34.178
572.60	33.852
572.93	34.761
573.27	34.808
573.61	34.055
573.95	34.163
574.28	33.665
574.62	33.675
574.96	33.341
575.29	33.009
575.63	33.875
575.97	33.544
576.30	33.232
576.64	33.277
576.98	33.643
577.31	33.931
577.65	32.778
577.98	32.904
578.32	31.988
578.66	32.834
578.99	32.935
579.33	33.333
579.67	32.956
580.00	32.447
580.34	33.236
580.67	32.908
581.01	32.916
581.35	32.876
581.68	32.224
582.02	32.511
582.35	31.638
582.69	32.457
583.02	32.430
583.36	33.031
583.70	33.318
584.03	33.681
584.37	32.938
584.70	32.819
585.04	32.191
585.37	32.507
585.71	32.966
586.04	32.851
586.38	33.134
586.72	33.359
587.05	33.350
587.39	33.300
587.72	33.228
588.06	33.102
588.39	33.112
588.73	33.697
589.06	33.761
589.40	34.178
589.73	34.775
590.07	35.793
590.40	35.157
590.73	35.622
591.07	36.509
591.40	35.369
591.74	35.227
592.07	35.150
592.41	35.092
592.74	34.932
593.08	34.147
593.41	32.974
593.75	32.943
594.08	33.600
594.41	34.050
594.75	34.212
595.08	34.088
595.42	34.200
595.75	33.761
596.09	34.029
596.42	34.523
596.75	35.296
597.09	35.411
597.42	35.306
597.75	35.010
598.09	34.181
598.42	34.313
598.76	34.310
599.09	34.388
599.42	33.564
599.76	33.582
600.09	33.525
600.42	33.356
600.76	33.583
601.09	33.725
601.42	33.756
601.76	33.548
602.09	34.180
602.42	33.420
602.76	34.194
603.09	34.842
603.42	35.046
603.76	33.695
604.09	34.057
604.42	33.522
604.76	34.255
605.09	34.122
605.42	34.011
605.75	33.912
606.09	33.627
606.42	34.273
606.75	33.813
607.09	33.202
607.42	32.824
607.75	33.838
608.08	34.119
608.42	34.857
608.75	34.660
609.08	34.800
609.41	34.864
609.75	35.714
610.08	35.117
610.41	34.256
610.74	33.636
611.07	34.607
611.41	34.615
611.74	35.038
612.07	35.356
612.40	35.380
612.73	35.447
613.07	36.391
613.40	34.937
613.73	36.196
614.06	35.300
614.39	35.303
614.72	36.213
615.06	34.866
615.39	34.901
615.72	34.802
616.05	35.008
616.38	34.754
616.71	35.920
617.05	34.596
617.38	35.506
617.71	36.952
618.04	36.007
618.37	35.964
618.70	34.988
619.03	36.569
619.36	38.003
619.69	37.203
620.03	37.639
620.36	36.994
620.69	37.612
621.02	38.179
621.35	37.751
621.68	38.643
622.01	38.893
622.34	37.363
622.67	37.008
623.00	37.645
623.33	37.449
623.66	37.392
623.99	37.945
624.32	37.534
624.65	36.406
624.99	36.714
625.32	37.275
625.65	37.310
625.98	36.820
626.31	38.798
626.64	38.800
626.97	39.403
627.30	38.354
627.63	39.639
627.96	38.732
628.29	39.356
628.62	38.837
628.95	40.869
629.28	39.965
629.61	39.631
629.94	39.326
630.26	39.861
630.59	40.780
630.92	39.731
631.25	40.526
