SpectraSuite Data File
++++++++++++++++++++++++++++++++++++
Date: Tue May 12 17:23:50 PDT 2015
User: schluterlab
Dark Spectrum Present: Yes
Reference Spectrum Present: Yes
Number of Sampled Component Spectra: 1
Spectrometers: USB2E3373
Integration Time (usec): 3000 (USB2E3373)
Spectra Averaged: 3 (USB2E3373)
Boxcar Smoothing: 0 (USB2E3373)
Correct for Electrical Dark: No (USB2E3373)
Strobe/Lamp Enabled: No (USB2E3373)
Correct for Detector Non-linearity: No (USB2E3373)
Correct for Stray Light: No (USB2E3373)
Number of Pixels in Processed Spectrum: 2048
>>>>>Begin Processed Spectral Data<<<<<
178.53	0.000
178.91	-233.333
179.29	-675.000
179.67	-2600.000
180.04	-133.333
180.42	825.000
180.80	1650.000
181.18	0.000
181.56	-312.500
181.94	0.000
182.31	1100.000
182.69	-3400.000
183.07	557.143
183.45	-3500.000
183.83	-1700.000
184.20	350.000
184.58	657.143
184.96	-253.846
185.34	-175.000
185.72	1900.000
186.09	-950.000
186.47	-2800.000
186.85	1133.333
187.23	720.000
187.61	2300.000
187.98	425.000
188.36	257.143
188.74	400.000
189.12	275.000
189.49	725.000
189.87	0.000
190.25	387.500
190.63	2900.000
191.00	-233.333
191.38	-3200.000
191.76	-625.000
192.14	575.000
192.51	-3200.000
192.89	1600.000
193.27	800.000
193.65	-1033.333
194.02	-720.000
194.40	628.571
194.78	-171.429
195.15	200.000
195.53	-2600.000
195.91	-500.000
196.29	3000.000
196.66	212.500
197.04	775.000
197.42	-1250.000
197.79	625.000
198.17	400.000
198.55	0.000
198.92	500.000
199.30	1300.000
199.68	2000.000
200.05	650.000
200.43	-383.333
200.81	183.333
201.18	2500.000
201.56	275.000
201.94	-700.000
202.31	-262.500
202.69	-440.000
203.07	3100.000
203.44	-383.333
203.82	366.667
204.19	580.000
204.57	-1350.000
204.95	-750.000
205.32	-620.000
205.70	583.333
206.08	625.000
206.45	-766.667
206.83	344.444
207.20	236.842
207.58	250.000
207.96	640.000
208.33	0.000
208.71	542.857
209.08	640.000
209.46	-2900.000
209.84	-675.000
210.21	760.000
210.59	-620.000
210.96	275.000
211.34	-900.000
211.71	354.545
212.09	975.000
212.46	1300.000
212.84	-466.667
213.22	355.556
213.59	-2800.000
213.97	350.000
214.34	1025.000
214.72	1166.667
215.09	733.333
215.47	-2700.000
215.84	-260.000
216.22	-337.500
216.59	0.000
216.97	0.000
217.34	1200.000
217.72	-1250.000
218.09	700.000
218.47	300.000
218.84	625.000
219.22	900.000
219.59	566.667
219.97	528.571
220.34	288.889
220.72	1550.000
221.09	3000.000
221.47	266.667
221.84	833.333
222.22	390.000
222.59	233.333
222.97	214.286
223.34	250.000
223.72	-1150.000
224.09	1033.333
224.46	261.538
224.84	-625.000
225.21	400.000
225.59	246.667
225.96	1133.333
226.34	-700.000
226.71	-600.000
227.08	-480.000
227.46	0.000
227.83	-500.000
228.21	-1200.000
228.58	316.667
228.95	800.000
229.33	333.333
229.70	1050.000
230.08	346.154
230.45	3000.000
230.82	-875.000
231.20	-866.667
231.57	-833.333
231.95	720.000
232.32	250.000
232.69	383.333
233.07	283.333
233.44	-1200.000
233.81	193.333
234.19	159.259
234.56	87.500
234.93	164.706
235.31	180.000
235.68	250.000
236.05	157.143
236.43	125.926
236.80	171.429
237.17	148.276
237.55	125.000
237.92	105.000
238.29	84.848
238.67	84.375
239.04	65.854
239.41	47.917
239.79	72.500
240.16	37.500
240.53	36.066
240.91	44.928
241.28	74.576
241.65	40.909
242.02	57.746
242.40	57.143
242.77	40.659
243.14	30.380
243.51	47.475
243.89	25.234
244.26	25.234
244.63	31.683
245.00	35.780
245.38	20.339
245.75	22.727
246.12	28.148
246.49	19.149
246.87	18.033
247.24	21.333
247.61	21.875
247.98	22.449
248.36	11.515
248.73	23.980
249.10	13.690
249.47	22.500
249.84	18.408
250.22	16.757
250.59	15.500
250.96	16.456
251.33	12.093
251.70	14.732
252.08	18.908
252.45	11.554
252.82	12.548
253.19	13.043
253.56	9.615
253.94	13.043
254.31	8.140
254.68	11.847
255.05	12.759
255.42	8.394
255.79	12.052
256.16	9.153
256.54	12.338
256.91	10.784
257.28	13.043
257.65	7.524
258.02	10.914
258.39	12.607
258.76	11.594
259.14	6.000
259.51	11.662
259.88	12.158
260.25	7.967
260.62	12.329
260.99	7.438
261.36	8.914
261.73	7.979
262.10	9.948
262.47	6.750
262.85	7.200
263.22	7.455
263.59	12.532
263.96	10.526
264.33	5.926
264.70	11.057
265.07	9.268
265.44	8.028
265.81	5.896
266.18	9.611
266.55	6.383
266.92	7.606
267.29	6.140
267.66	7.399
268.03	5.605
268.40	7.188
268.77	8.811
269.14	5.640
269.51	7.572
269.88	9.796
270.25	4.968
270.62	6.009
270.99	7.911
271.36	8.130
271.73	6.499
272.10	6.667
272.47	5.754
272.84	8.982
273.21	5.992
273.58	7.287
273.95	6.160
274.32	6.615
274.69	6.890
275.06	7.650
275.43	7.663
275.80	5.472
276.17	7.353
276.54	8.411
276.91	7.649
277.28	5.657
277.65	6.273
278.02	7.169
278.39	5.755
278.76	8.276
279.13	5.872
279.50	6.182
279.87	4.469
280.23	4.972
280.60	5.657
280.97	8.621
281.34	5.281
281.71	6.957
282.08	9.060
282.45	4.730
282.82	5.686
283.19	7.154
283.56	4.793
283.92	5.700
284.29	4.825
284.66	4.706
285.03	5.638
285.40	5.620
285.77	4.167
286.14	6.811
286.51	5.061
286.87	5.696
287.24	5.706
287.61	4.863
287.98	6.716
288.35	4.889
288.72	3.490
289.08	4.805
289.45	5.183
289.82	6.250
290.19	4.685
290.56	6.405
290.93	5.036
291.29	5.525
291.66	4.379
292.03	6.031
292.40	6.775
292.77	4.875
293.13	5.849
293.50	4.184
293.87	5.285
294.24	5.175
294.60	6.326
294.97	5.594
295.34	5.445
295.71	5.125
296.08	5.600
296.44	6.226
296.81	4.467
297.18	4.183
297.55	4.064
297.91	3.571
298.28	4.227
298.65	4.294
299.02	4.101
299.38	4.077
299.75	3.780
300.12	4.931
300.48	5.738
300.85	4.291
301.22	5.581
301.59	4.009
301.95	3.501
302.32	5.006
302.69	4.977
303.05	4.938
303.42	4.372
303.79	4.659
304.15	3.520
304.52	4.334
304.89	5.224
305.25	4.227
305.62	5.757
305.99	2.717
306.35	2.737
306.72	4.266
307.09	3.727
307.45	3.801
307.82	3.498
308.19	4.021
308.55	3.000
308.92	4.907
309.29	4.931
309.65	3.667
310.02	3.753
310.38	3.689
310.75	3.761
311.12	3.352
311.48	4.344
311.85	5.344
312.22	4.011
312.58	3.499
312.95	3.398
313.31	4.213
313.68	3.377
314.05	5.495
314.41	4.749
314.78	4.072
315.14	4.455
315.51	4.068
315.87	3.741
316.24	3.828
316.61	4.476
316.97	3.670
317.34	4.492
317.70	4.829
318.07	4.893
318.43	5.097
318.80	4.816
319.16	4.895
319.53	4.248
319.89	3.495
320.26	4.749
320.62	6.044
320.99	4.004
321.35	5.844
321.72	5.123
322.08	5.448
322.45	4.632
322.81	4.392
323.18	4.707
323.54	6.098
323.91	4.896
324.27	4.686
324.64	4.671
325.00	5.172
325.37	5.059
325.73	4.384
326.10	5.634
326.46	6.193
326.83	3.760
327.19	4.578
327.56	4.473
327.92	5.164
328.29	7.038
328.65	7.106
329.01	5.817
329.38	6.091
329.74	4.270
330.11	5.560
330.47	6.053
330.84	5.263
331.20	5.584
331.56	6.736
331.93	6.159
332.29	4.847
332.66	6.293
333.02	4.725
333.38	5.585
333.75	6.589
334.11	5.956
334.48	5.385
334.84	5.068
335.20	5.646
335.57	5.793
335.93	5.383
336.29	4.975
336.66	6.261
337.02	4.790
337.38	6.363
337.75	5.405
338.11	5.485
338.47	6.012
338.84	6.012
339.20	4.329
339.56	5.467
339.93	5.518
340.29	4.202
340.65	6.287
341.02	5.873
341.38	5.419
341.74	5.316
342.11	4.424
342.47	4.348
342.83	5.496
343.20	4.931
343.56	4.051
343.92	4.955
344.28	5.024
344.65	5.134
345.01	4.524
345.37	4.808
345.73	4.921
346.10	5.498
346.46	5.742
346.82	4.861
347.19	5.564
347.55	4.606
347.91	4.607
348.27	4.028
348.63	4.905
349.00	5.103
349.36	4.825
349.72	4.893
350.08	4.658
350.45	5.103
350.81	4.969
351.17	4.545
351.53	5.004
351.89	5.128
352.26	4.308
352.62	4.676
352.98	4.831
353.34	5.470
353.70	3.823
354.07	4.769
354.43	4.531
354.79	5.239
355.15	4.671
355.51	5.211
355.87	5.572
356.24	4.619
356.60	5.175
356.96	4.094
357.32	5.350
357.68	4.699
358.04	4.559
358.40	5.697
358.77	5.409
359.13	5.030
359.49	5.115
359.85	4.617
360.21	3.343
360.57	4.891
360.93	4.906
361.29	5.123
361.66	4.549
362.02	3.835
362.38	4.545
362.74	4.317
363.10	5.330
363.46	3.729
363.82	5.189
364.18	4.481
364.54	4.506
364.90	4.819
365.26	4.997
365.62	4.765
365.98	3.648
366.35	4.897
366.71	3.747
367.07	4.915
367.43	4.567
367.79	4.322
368.15	4.003
368.51	4.824
368.87	3.872
369.23	4.297
369.59	5.125
369.95	4.755
370.31	4.038
370.67	4.580
371.03	5.182
371.39	4.363
371.75	3.908
372.11	4.827
372.47	5.411
372.83	4.419
373.19	4.866
373.55	4.605
373.91	3.798
374.27	4.828
374.63	4.814
374.99	5.458
375.35	4.435
375.71	4.947
376.07	4.443
376.42	4.284
376.78	4.689
377.14	4.587
377.50	5.056
377.86	4.484
378.22	4.631
378.58	4.903
378.94	4.888
379.30	3.760
379.66	4.034
380.02	5.161
380.38	4.098
380.74	4.960
381.09	4.848
381.45	4.393
381.81	4.374
382.17	4.518
382.53	4.379
382.89	4.317
383.25	3.967
383.61	4.784
383.97	4.079
384.32	4.461
384.68	5.110
385.04	4.807
385.40	4.745
385.76	4.798
386.12	5.195
386.48	4.438
386.83	4.707
387.19	4.535
387.55	4.653
387.91	5.081
388.27	4.224
388.62	4.401
388.98	4.665
389.34	4.283
389.70	4.009
390.06	4.939
390.42	4.688
390.77	4.423
391.13	4.647
391.49	4.658
391.85	4.985
392.20	4.887
392.56	4.600
392.92	3.987
393.28	3.868
393.64	4.300
393.99	4.446
394.35	3.943
394.71	4.041
395.07	3.710
395.42	4.567
395.78	5.305
396.14	5.120
396.50	5.174
396.85	4.512
397.21	4.031
397.57	5.320
397.92	4.333
398.28	3.971
398.64	4.596
399.00	4.115
399.35	4.026
399.71	5.132
400.07	4.737
400.42	4.597
400.78	4.399
401.14	4.287
401.49	4.090
401.85	4.867
402.21	4.159
402.57	4.488
402.92	4.303
403.28	4.236
403.63	4.002
403.99	4.463
404.35	5.041
404.70	5.670
405.06	4.099
405.42	4.668
405.77	4.686
406.13	4.501
406.49	4.207
406.84	4.287
407.20	5.080
407.55	4.308
407.91	5.297
408.27	5.033
408.62	5.027
408.98	4.199
409.34	4.208
409.69	3.609
410.05	3.518
410.40	4.181
410.76	4.350
411.11	4.443
411.47	4.506
411.83	4.452
412.18	4.348
412.54	4.805
412.89	4.543
413.25	4.846
413.60	4.206
413.96	4.189
414.31	4.664
414.67	4.469
415.03	4.853
415.38	4.290
415.74	4.548
416.09	5.309
416.45	5.688
416.80	4.939
417.16	4.583
417.51	5.541
417.87	4.631
418.22	5.103
418.58	4.013
418.93	4.878
419.29	4.313
419.64	4.603
420.00	5.012
420.35	3.833
420.71	4.784
421.06	3.590
421.42	4.951
421.77	4.331
422.12	4.410
422.48	4.879
422.83	4.967
423.19	4.806
423.54	4.114
423.90	5.096
424.25	4.403
424.61	4.875
424.96	3.783
425.31	3.886
425.67	4.938
426.02	4.262
426.38	3.909
426.73	4.049
427.09	4.448
427.44	3.995
427.79	3.774
428.15	4.066
428.50	4.343
428.85	4.762
429.21	4.106
429.56	4.387
429.92	5.271
430.27	4.983
430.62	3.818
430.98	4.541
431.33	3.931
431.68	4.296
432.04	4.294
432.39	4.995
432.74	5.328
433.10	4.596
433.45	5.227
433.80	5.295
434.16	4.572
434.51	4.850
434.86	5.389
435.22	4.106
435.57	4.979
435.92	5.407
436.28	5.530
436.63	5.132
436.98	4.561
437.34	5.137
437.69	4.199
438.04	4.892
438.39	4.962
438.75	4.844
439.10	4.749
439.45	5.370
439.81	5.379
440.16	4.788
440.51	5.011
440.86	4.558
441.22	4.545
441.57	4.619
441.92	4.689
442.27	4.742
442.63	4.929
442.98	4.741
443.33	4.499
443.68	4.829
444.03	4.760
444.39	4.614
444.74	5.072
445.09	4.950
445.44	5.154
445.79	4.581
446.15	5.211
446.50	4.114
446.85	4.980
447.20	4.328
447.55	4.405
447.91	5.381
448.26	5.112
448.61	4.975
448.96	5.556
449.31	5.006
449.66	5.703
450.02	5.402
450.37	5.275
450.72	5.399
451.07	6.748
451.42	5.394
451.77	5.613
452.12	5.672
452.47	5.650
452.83	5.577
453.18	6.366
453.53	6.039
453.88	5.143
454.23	5.288
454.58	5.536
454.93	5.457
455.28	5.141
455.63	5.674
455.98	6.035
456.34	5.897
456.69	5.122
457.04	5.251
457.39	4.800
457.74	5.743
458.09	5.334
458.44	5.531
458.79	5.305
459.14	5.074
459.49	5.493
459.84	5.870
460.19	4.746
460.54	5.470
460.89	5.064
461.24	5.097
461.59	5.726
461.94	5.260
462.29	5.721
462.64	5.967
462.99	6.078
463.34	6.805
463.69	6.957
464.04	5.987
464.39	5.781
464.74	4.924
465.09	5.107
465.44	5.332
465.79	5.498
466.14	5.723
466.49	5.751
466.84	5.797
467.19	6.327
467.54	5.586
467.89	6.984
468.24	5.964
468.59	5.655
468.94	5.857
469.29	6.170
469.64	6.238
469.99	6.620
470.34	5.882
470.68	5.931
471.03	6.204
471.38	5.894
471.73	5.944
472.08	6.523
472.43	6.145
472.78	6.146
473.13	5.069
473.48	6.418
473.83	6.066
474.17	5.471
474.52	6.339
474.87	5.514
475.22	5.711
475.57	5.404
475.92	5.008
476.27	5.223
476.61	5.362
476.96	5.956
477.31	5.758
477.66	6.065
478.01	5.828
478.36	5.819
478.70	5.707
479.05	5.230
479.40	5.456
479.75	5.611
480.10	6.050
480.45	4.809
480.79	5.438
481.14	5.231
481.49	4.849
481.84	5.453
482.19	6.026
482.53	5.051
482.88	5.645
483.23	5.368
483.58	5.341
483.92	5.759
484.27	5.565
484.62	5.688
484.97	5.259
485.31	4.953
485.66	4.402
486.01	4.632
486.36	4.614
486.70	4.488
487.05	4.528
487.40	4.701
487.75	5.083
488.09	5.369
488.44	5.131
488.79	4.825
489.13	5.002
489.48	5.154
489.83	5.421
490.17	5.120
490.52	5.512
490.87	5.862
491.22	6.117
491.56	5.885
491.91	5.600
492.26	6.013
492.60	5.740
492.95	5.936
493.30	5.778
493.64	5.391
493.99	5.769
494.34	5.558
494.68	5.224
495.03	5.748
495.37	6.258
495.72	5.874
496.07	5.391
496.41	5.908
496.76	5.530
497.11	6.255
497.45	5.918
497.80	5.700
498.14	5.825
498.49	5.989
498.84	5.935
499.18	5.165
499.53	5.742
499.87	5.885
500.22	5.573
500.56	6.035
500.91	6.586
501.26	6.293
501.60	5.692
501.95	5.332
502.29	5.911
502.64	5.426
502.98	5.691
503.33	5.746
503.67	6.181
504.02	5.508
504.36	5.747
504.71	5.582
505.06	5.490
505.40	5.896
505.75	5.987
506.09	6.346
506.44	5.686
506.78	6.144
507.13	5.381
507.47	5.240
507.82	6.277
508.16	5.928
508.51	5.072
508.85	6.363
509.19	5.580
509.54	6.201
509.88	5.967
510.23	6.618
510.57	5.550
510.92	6.244
511.26	6.024
511.61	6.007
511.95	7.168
512.30	6.350
512.64	5.763
512.98	6.253
513.33	6.096
513.67	6.629
514.02	6.390
514.36	5.504
514.70	6.347
515.05	6.074
515.39	6.195
515.74	5.960
516.08	6.046
516.42	6.230
516.77	6.400
517.11	6.133
517.46	6.897
517.80	6.499
518.14	6.254
518.49	6.395
518.83	5.549
519.17	7.543
519.52	6.991
519.86	6.267
520.20	6.959
520.55	6.331
520.89	6.264
521.23	7.009
521.58	6.655
521.92	6.239
522.26	5.746
522.61	6.774
522.95	6.246
523.29	7.251
523.64	6.474
523.98	7.101
524.32	6.690
524.66	6.261
525.01	6.095
525.35	6.482
525.69	7.405
526.04	6.841
526.38	6.474
526.72	6.265
527.06	6.387
527.41	7.013
527.75	6.999
528.09	6.321
528.43	7.566
528.78	6.559
529.12	6.623
529.46	6.663
529.80	6.367
530.15	7.189
530.49	6.017
530.83	6.338
531.17	6.212
531.51	7.174
531.86	6.582
532.20	6.613
532.54	6.340
532.88	6.558
533.22	6.703
533.57	6.223
533.91	5.828
534.25	6.117
534.59	6.608
534.93	6.826
535.27	6.204
535.62	5.834
535.96	6.560
536.30	6.947
536.64	6.025
536.98	6.608
537.32	7.188
537.66	6.186
538.01	7.368
538.35	7.112
538.69	6.189
539.03	5.970
539.37	6.371
539.71	6.790
540.05	6.769
540.39	7.170
540.73	6.519
541.07	6.085
541.42	6.779
541.76	5.980
542.10	6.165
542.44	6.920
542.78	6.482
543.12	5.828
543.46	6.767
543.80	7.143
544.14	6.563
544.48	6.022
544.82	6.911
545.16	6.315
545.50	6.454
545.84	6.629
546.18	7.217
546.52	6.754
546.86	7.028
547.20	6.718
547.54	6.270
547.88	6.752
548.22	6.375
548.56	7.130
548.90	6.702
549.24	7.075
549.58	6.379
549.92	7.269
550.26	6.694
550.60	6.653
550.94	6.649
551.28	7.517
551.62	7.241
551.96	7.027
552.30	5.339
552.64	7.249
552.98	5.992
553.32	6.210
553.66	6.840
554.00	6.628
554.34	7.190
554.68	6.653
555.02	6.653
555.36	6.848
555.69	6.872
556.03	7.197
556.37	6.628
556.71	7.366
557.05	6.488
557.39	6.933
557.73	7.749
558.07	6.573
558.41	6.991
558.75	7.592
559.08	7.648
559.42	7.301
559.76	7.983
560.10	5.850
560.44	7.299
560.78	6.905
561.12	6.167
561.45	5.945
561.79	6.367
562.13	6.570
562.47	6.035
562.81	6.181
563.15	7.111
563.48	6.646
563.82	7.236
564.16	6.219
564.50	6.329
564.84	6.201
565.17	6.120
565.51	6.773
565.85	6.539
566.19	6.548
566.52	6.318
566.86	7.589
567.20	5.674
567.54	6.550
567.88	6.938
568.21	6.091
568.55	6.566
568.89	6.204
569.23	5.565
569.56	6.550
569.90	5.893
570.24	5.486
570.57	5.646
570.91	5.647
571.25	5.279
571.59	5.443
571.92	5.194
572.26	4.960
572.60	5.304
572.93	5.463
573.27	5.141
573.61	5.143
573.95	5.005
574.28	5.308
574.62	5.077
574.96	4.995
575.29	4.800
575.63	4.782
575.97	4.820
576.30	4.834
576.64	5.206
576.98	4.667
577.31	5.196
577.65	5.248
577.98	4.734
578.32	4.656
578.66	4.996
578.99	5.035
579.33	5.323
579.67	5.147
580.00	4.838
580.34	5.007
580.67	4.989
581.01	5.223
581.35	4.850
581.68	4.593
582.02	4.702
582.35	4.768
582.69	4.876
583.02	4.810
583.36	5.062
583.70	5.050
584.03	5.419
584.37	4.997
584.70	5.126
585.04	4.925
585.37	5.072
585.71	5.438
586.04	4.703
586.38	4.956
586.72	5.302
587.05	5.430
587.39	5.006
587.72	5.270
588.06	4.867
588.39	5.220
588.73	5.203
589.06	4.873
589.40	5.227
589.73	5.244
590.07	5.388
590.40	5.645
590.73	6.390
591.07	5.996
591.40	5.509
591.74	5.398
592.07	5.200
592.41	5.675
592.74	5.529
593.08	4.915
593.41	5.296
593.75	5.066
594.08	5.852
594.41	5.376
594.75	5.068
595.08	5.727
595.42	5.826
595.75	5.791
596.09	5.596
596.42	5.499
596.75	5.529
597.09	5.613
597.42	5.102
597.75	4.990
598.09	5.499
598.42	5.916
598.76	5.243
599.09	6.068
599.42	5.087
599.76	5.427
600.09	5.763
600.42	5.836
600.76	5.065
601.09	5.385
601.42	5.280
601.76	5.550
602.09	5.703
602.42	5.508
602.76	5.503
603.09	5.543
603.42	5.761
603.76	5.387
604.09	5.139
604.42	5.160
604.76	5.610
605.09	5.633
605.42	5.364
605.75	5.843
606.09	5.471
606.42	5.336
606.75	5.480
607.09	5.093
607.42	5.263
607.75	5.374
608.08	5.808
608.42	5.369
608.75	5.049
609.08	5.367
609.41	5.818
609.75	6.044
610.08	5.576
610.41	4.743
610.74	5.238
611.07	5.457
611.41	5.422
611.74	5.449
612.07	5.491
612.40	5.507
612.73	5.791
613.07	5.778
613.40	5.664
613.73	5.642
614.06	5.150
614.39	6.111
614.72	6.027
615.06	5.638
615.39	5.743
615.72	5.179
616.05	6.178
616.38	5.885
616.71	5.860
617.05	5.656
617.38	5.281
617.71	5.793
618.04	5.665
618.37	5.559
618.70	5.485
619.03	5.922
619.36	6.093
619.69	5.871
620.03	6.719
620.36	5.909
620.69	6.705
621.02	6.182
621.35	5.731
621.68	7.080
622.01	6.199
622.34	4.661
622.67	6.110
623.00	6.739
623.33	6.073
623.66	6.321
623.99	6.301
624.32	5.962
624.65	6.320
624.99	5.747
625.32	6.680
625.65	4.828
625.98	5.927
626.31	5.935
626.64	4.708
626.97	6.044
627.30	5.901
627.63	6.436
627.96	5.947
628.29	6.353
628.62	6.672
628.95	6.294
629.28	7.011
629.61	5.975
629.94	6.309
630.26	6.066
630.59	7.004
630.92	6.996
631.25	7.978
631.58	6.654
631.91	6.470
632.24	6.997
632.57	6.582
632.90	7.039
633.23	8.185
633.56	7.271
633.89	6.324
634.22	6.351
634.55	7.527
634.88	8.105
635.20	7.848
635.53	6.969
635.86	8.054
636.19	7.071
636.52	6.919
636.85	5.502
637.18	8.559
637.51	6.927
637.83	6.064
638.16	7.855
638.49	6.946
638.82	8.685
639.15	7.638
639.48	8.057
639.81	6.105
640.13	7.117
640.46	8.217
640.79	7.802
641.12	7.218
641.45	8.150
641.77	8.719
642.10	7.764
642.43	7.966
642.76	8.381
643.09	7.061
643.41	7.714
643.74	8.345
644.07	7.227
644.40	6.953
644.73	8.709
645.05	9.064
645.38	8.116
645.71	9.712
646.04	8.397
646.36	7.668
646.69	7.200
647.02	7.200
647.35	7.559
647.67	6.807
648.00	8.143
648.33	9.624
648.66	8.182
648.98	8.116
649.31	7.152
649.64	6.777
649.96	7.112
650.29	6.857
650.62	9.573
650.94	9.789
651.27	10.845
651.60	7.825
651.92	8.295
652.25	8.189
652.58	8.652
652.90	7.784
653.23	7.090
653.56	7.270
653.88	7.048
654.21	9.531
654.54	8.785
654.86	8.260
655.19	7.388
655.52	5.963
655.84	3.211
656.17	3.463
