SpectraSuite Data File
++++++++++++++++++++++++++++++++++++
Date: Tue May 12 15:11:11 PDT 2015
User: schluterlab
Dark Spectrum Present: Yes
Reference Spectrum Present: Yes
Number of Sampled Component Spectra: 1
Spectrometers: USB2E3373
Integration Time (usec): 3000 (USB2E3373)
Spectra Averaged: 3 (USB2E3373)
Boxcar Smoothing: 0 (USB2E3373)
Correct for Electrical Dark: No (USB2E3373)
Strobe/Lamp Enabled: No (USB2E3373)
Correct for Detector Non-linearity: No (USB2E3373)
Correct for Stray Light: No (USB2E3373)
Number of Pixels in Processed Spectrum: 2048
>>>>>Begin Processed Spectral Data<<<<<
178.53	0.000
178.91	-158.333
179.29	-600.000
179.67	-2400.000
180.04	-73.333
180.42	475.000
180.80	1200.000
181.18	0.000
181.56	-212.500
181.94	0.000
182.31	633.333
182.69	-1100.000
183.07	357.143
183.45	-2600.000
183.83	-850.000
184.20	370.000
184.58	285.714
184.96	-200.000
185.34	-116.667
185.72	1300.000
186.09	-525.000
186.47	-2500.000
186.85	733.333
187.23	480.000
187.61	1800.000
187.98	262.500
188.36	221.429
188.74	208.333
189.12	300.000
189.49	525.000
189.87	0.000
190.25	375.000
190.63	1200.000
191.00	-191.667
191.38	-2600.000
191.76	-225.000
192.14	425.000
192.51	-1400.000
192.89	1250.000
193.27	900.000
193.65	-666.667
194.02	-520.000
194.40	228.571
194.78	-192.857
195.15	140.000
195.53	-1700.000
195.91	-400.000
196.29	3000.000
196.66	150.000
197.04	575.000
197.42	-500.000
197.79	250.000
198.17	316.667
198.55	0.000
198.92	242.857
199.30	766.667
199.68	1150.000
200.05	533.333
200.43	-266.667
200.81	177.778
201.18	1300.000
201.56	150.000
201.94	-625.000
202.31	-175.000
202.69	-360.000
203.07	2300.000
203.44	-366.667
203.82	233.333
204.19	400.000
204.57	-400.000
204.95	-650.000
205.32	-300.000
205.70	350.000
206.08	600.000
206.45	-533.333
206.83	166.667
207.20	115.789
207.58	133.333
207.96	460.000
208.33	0.000
208.71	471.429
209.08	500.000
209.46	-900.000
209.84	-700.000
210.21	620.000
210.59	-420.000
210.96	233.333
211.34	-550.000
211.71	218.182
212.09	500.000
212.46	1100.000
212.84	-200.000
213.22	333.333
213.59	-1700.000
213.97	170.000
214.34	500.000
214.72	800.000
215.09	733.333
215.47	-1800.000
215.84	-90.000
216.22	-287.500
216.59	0.000
216.97	0.000
217.34	1000.000
217.72	-350.000
218.09	566.667
218.47	275.000
218.84	700.000
219.22	666.667
219.59	700.000
219.97	314.286
220.34	255.556
220.72	1100.000
221.09	1600.000
221.47	133.333
221.84	800.000
222.22	210.000
222.59	166.667
222.97	135.714
223.34	206.250
223.72	-1200.000
224.09	200.000
224.46	169.231
224.84	-725.000
225.21	322.222
225.59	206.667
225.96	866.667
226.34	-440.000
226.71	-175.000
227.08	-320.000
227.46	0.000
227.83	-366.667
228.21	-1150.000
228.58	166.667
228.95	700.000
229.33	266.667
229.70	650.000
230.08	246.154
230.45	2000.000
230.82	-575.000
231.20	-566.667
231.57	-400.000
231.95	260.000
232.32	108.333
232.69	183.333
233.07	183.333
233.44	-1050.000
233.81	220.000
234.19	111.111
234.56	100.000
234.93	105.882
235.31	110.000
235.68	131.250
236.05	92.857
236.43	100.000
236.80	178.571
237.17	96.552
237.55	87.500
237.92	87.500
238.29	81.818
238.67	53.125
239.04	48.780
239.41	39.583
239.79	50.000
240.16	37.500
240.53	40.984
240.91	33.333
241.28	32.203
241.65	40.909
242.02	38.028
242.40	28.571
242.77	30.769
243.14	18.987
243.51	35.354
243.89	23.364
244.26	31.776
244.63	25.743
245.00	8.257
245.38	3.390
245.75	16.667
246.12	24.444
246.49	19.149
246.87	12.295
247.24	22.667
247.61	15.000
247.98	17.687
248.36	13.333
248.73	19.898
249.10	10.714
249.47	17.500
249.84	12.935
250.22	17.297
250.59	15.000
250.96	13.502
251.33	9.767
251.70	12.946
252.08	10.504
252.45	14.343
252.82	9.125
253.19	10.277
253.56	10.769
253.94	13.406
254.31	12.016
254.68	11.847
255.05	10.690
255.42	11.679
255.79	14.332
256.16	9.831
256.54	13.312
256.91	12.092
257.28	11.037
257.65	5.643
258.02	9.440
258.39	10.029
258.76	12.754
259.14	8.000
259.51	12.828
259.88	11.854
260.25	7.143
260.62	8.219
260.99	6.612
261.36	8.635
261.73	6.117
262.10	8.639
262.47	8.000
262.85	7.733
263.22	9.254
263.59	10.742
263.96	11.779
264.33	6.667
264.70	8.354
265.07	6.341
265.44	8.257
265.81	9.434
266.18	8.696
266.55	8.983
266.92	6.264
267.29	8.114
267.66	5.605
268.03	4.260
268.40	9.514
268.77	9.251
269.14	4.772
269.51	5.345
269.88	8.163
270.25	6.911
270.62	7.082
270.99	6.694
271.36	8.333
271.73	7.338
272.10	7.879
272.47	6.746
272.84	8.184
273.21	7.025
273.58	7.692
273.95	4.723
274.32	6.031
274.69	8.661
275.06	9.290
275.43	8.046
275.80	6.604
276.17	8.456
276.54	8.598
276.91	9.142
277.28	6.569
277.65	7.934
278.02	8.088
278.39	8.813
278.76	8.276
279.13	6.406
279.50	7.091
279.87	5.959
280.23	6.814
280.60	6.752
280.97	8.103
281.34	7.261
281.71	6.087
282.08	10.769
282.45	6.081
282.82	7.358
283.19	7.472
283.56	7.438
283.92	6.189
284.29	6.489
284.66	6.218
285.03	8.292
285.40	6.446
285.77	6.481
286.14	7.430
286.51	5.368
286.87	5.696
287.24	6.006
287.61	6.535
287.98	7.463
288.35	7.111
288.72	6.829
289.08	6.607
289.45	6.402
289.82	7.031
290.19	7.321
290.56	8.297
290.93	5.899
291.29	7.182
291.66	6.638
292.03	5.891
292.40	6.911
292.77	6.964
293.13	6.847
293.50	5.398
293.87	6.911
294.24	5.874
294.60	7.672
294.97	6.993
295.34	6.507
295.71	7.227
296.08	6.533
296.44	8.132
296.81	6.576
297.18	6.337
297.55	7.266
297.91	5.172
298.28	6.159
298.65	6.135
299.02	5.669
299.38	6.715
299.75	6.951
300.12	7.339
300.48	7.026
300.85	7.509
301.22	5.698
301.59	6.604
301.95	5.718
302.32	7.451
302.69	7.579
303.05	8.081
303.42	5.830
303.79	6.609
304.15	6.711
304.52	6.977
304.89	6.290
305.25	7.898
305.62	8.635
305.99	6.413
306.35	6.842
306.72	6.972
307.09	7.453
307.45	6.864
307.82	6.996
308.19	8.660
308.55	8.200
308.92	8.145
309.29	10.256
309.65	8.226
310.02	9.229
310.38	7.876
310.75	8.004
311.12	8.429
311.48	9.749
311.85	9.542
312.22	9.838
312.58	9.135
312.95	10.388
313.31	10.393
313.68	9.099
314.05	10.989
314.41	10.428
314.78	11.269
315.14	10.806
315.51	11.542
315.87	10.949
316.24	11.204
316.61	10.654
316.97	11.193
317.34	12.399
317.70	12.291
318.07	12.544
318.43	13.269
318.80	12.347
319.16	12.850
319.53	13.186
319.89	13.799
320.26	14.898
320.62	14.469
320.99	12.774
321.35	13.915
321.72	15.844
322.08	15.235
322.45	14.351
322.81	15.188
323.18	16.696
323.54	16.289
323.91	16.319
324.27	16.180
324.64	15.484
325.00	17.069
325.37	16.442
325.73	16.863
326.10	18.310
326.46	18.662
326.83	17.440
327.19	19.438
327.56	18.371
327.92	18.852
328.29	19.394
328.65	20.205
329.01	18.991
329.38	19.797
329.74	19.300
330.11	19.809
330.47	20.460
330.84	18.464
331.20	19.882
331.56	21.762
331.93	20.274
332.29	20.408
332.66	20.408
333.02	20.790
333.38	19.895
333.75	22.352
334.11	20.889
334.48	21.624
334.84	20.693
335.20	21.300
335.57	20.319
335.93	20.521
336.29	19.735
336.66	22.298
337.02	20.787
337.38	20.120
337.75	21.791
338.11	20.591
338.47	21.253
338.84	21.169
339.20	20.346
339.56	20.942
339.93	21.405
340.29	20.084
340.65	20.536
341.02	21.641
341.38	21.018
341.74	20.764
342.11	19.950
342.47	19.524
342.83	21.165
343.20	20.857
343.56	18.348
343.92	21.222
344.28	20.654
344.65	21.353
345.01	20.317
345.37	20.032
345.73	19.841
346.10	20.797
346.46	20.654
346.82	19.599
347.19	19.784
347.55	20.609
347.91	19.562
348.27	20.062
348.63	19.937
349.00	19.878
349.36	20.467
349.72	21.024
350.08	21.351
350.45	20.640
350.81	20.183
351.17	19.183
351.53	20.092
351.89	20.280
352.26	20.181
352.62	20.362
352.98	19.555
353.34	20.801
353.70	17.890
354.07	20.769
354.43	20.276
354.79	18.527
355.15	19.525
355.51	19.864
355.87	19.729
356.24	21.016
356.60	19.178
356.96	19.636
357.32	19.819
357.68	19.824
358.04	19.377
358.40	19.415
358.77	19.083
359.13	18.994
359.49	18.977
359.85	19.955
360.21	19.316
360.57	19.708
360.93	20.707
361.29	19.841
361.66	20.880
362.02	19.034
362.38	19.913
362.74	20.099
363.10	19.495
363.46	19.130
363.82	20.266
364.18	19.275
364.54	19.313
364.90	19.277
365.26	19.847
365.62	19.475
365.98	20.234
366.35	19.034
366.71	19.292
367.07	18.567
367.43	19.409
367.79	18.949
368.15	19.403
368.51	19.228
368.87	18.546
369.23	18.988
369.59	18.746
369.95	18.392
370.31	18.412
370.67	18.321
371.03	19.328
371.39	19.183
371.75	18.353
372.11	19.579
372.47	19.315
372.83	17.879
373.19	19.808
373.55	19.519
373.91	17.749
374.27	18.981
374.63	19.593
374.99	18.733
375.35	18.683
375.71	19.063
376.07	18.369
376.42	17.455
376.78	18.304
377.14	18.087
377.50	18.851
377.86	19.218
378.22	18.708
378.58	18.644
378.94	19.553
379.30	18.072
379.66	18.302
380.02	18.416
380.38	18.618
380.74	19.319
381.09	18.984
381.45	17.630
381.81	18.144
382.17	18.254
382.53	17.457
382.89	17.504
383.25	18.532
383.61	18.617
383.97	17.996
384.32	17.420
384.68	18.419
385.04	19.754
385.40	18.149
385.76	17.905
386.12	17.440
386.48	17.690
386.83	18.276
387.19	17.845
387.55	17.668
387.91	18.938
388.27	17.728
388.62	17.430
388.98	17.959
389.34	17.549
389.70	17.335
390.06	17.805
390.42	18.445
390.77	18.120
391.13	17.622
391.49	17.423
391.85	16.800
392.20	18.713
392.56	18.160
392.92	17.462
393.28	17.152
393.64	16.514
393.99	16.835
394.35	17.187
394.71	17.069
395.07	17.640
395.42	16.979
395.78	18.384
396.14	18.072
396.50	16.968
396.85	17.073
397.21	16.968
397.57	16.856
397.92	17.678
398.28	16.823
398.64	17.801
399.00	16.676
399.35	15.942
399.71	17.163
400.07	16.667
400.42	17.194
400.78	16.364
401.14	17.146
401.49	16.532
401.85	17.034
402.21	15.934
402.57	16.756
402.92	16.848
403.28	15.752
403.63	15.774
403.99	17.250
404.35	16.647
404.70	16.539
405.06	15.946
405.42	16.637
405.77	16.373
406.13	15.998
406.49	15.918
406.84	15.962
407.20	15.925
407.55	15.385
407.91	16.528
408.27	15.949
408.62	16.854
408.98	15.967
409.34	16.072
409.69	15.868
410.05	15.981
410.40	14.959
410.76	15.570
411.11	14.810
411.47	15.123
411.83	15.641
412.18	15.700
412.54	15.616
412.89	16.047
413.25	15.906
413.60	15.362
413.96	15.141
414.31	15.643
414.67	15.891
415.03	14.879
415.38	15.836
415.74	14.972
416.09	14.991
416.45	15.579
416.80	16.164
417.16	15.468
417.51	15.096
417.87	14.768
418.22	15.674
418.58	15.669
418.93	15.170
419.29	14.664
419.64	14.658
420.00	16.647
420.35	14.634
420.71	15.344
421.06	14.656
421.42	14.911
421.77	15.380
422.12	14.498
422.48	15.306
422.83	15.848
423.19	14.741
423.54	14.482
423.90	15.459
424.25	15.355
424.61	15.380
424.96	14.794
425.31	14.888
425.67	15.095
426.02	14.582
426.38	14.411
426.73	14.864
427.09	15.896
427.44	14.744
427.79	14.408
428.15	15.793
428.50	15.029
428.85	16.049
429.21	15.127
429.56	14.905
429.92	15.614
430.27	14.804
430.62	14.537
430.98	14.721
431.33	14.718
431.68	14.123
432.04	14.744
432.39	15.917
432.74	15.105
433.10	14.618
433.45	15.566
433.80	15.334
434.16	15.922
434.51	15.067
434.86	14.916
435.22	14.911
435.57	14.760
435.92	15.538
436.28	15.611
436.63	15.559
436.98	15.372
437.34	14.840
437.69	14.166
438.04	15.161
438.39	15.003
438.75	14.978
439.10	15.003
439.45	14.528
439.81	15.385
440.16	14.860
440.51	14.414
440.86	15.726
441.22	14.556
441.57	14.803
441.92	14.956
442.27	14.897
442.63	14.634
442.98	14.925
443.33	15.212
443.68	14.940
444.03	15.221
444.39	15.913
444.74	15.114
445.09	14.850
445.44	15.303
445.79	14.474
446.15	15.632
446.50	15.137
446.85	15.986
447.20	14.627
447.55	15.280
447.91	16.090
448.26	15.495
448.61	15.533
448.96	14.760
449.31	15.402
449.66	16.777
450.02	14.479
450.37	15.991
450.72	15.537
451.07	15.649
451.42	15.234
451.77	16.037
452.12	15.201
452.47	16.586
452.83	15.324
453.18	16.396
453.53	15.690
453.88	16.343
454.23	15.863
454.58	15.967
454.93	15.205
455.28	15.912
455.63	15.898
455.98	15.228
456.34	15.502
456.69	16.220
457.04	14.737
457.39	15.029
457.74	15.822
458.09	14.823
458.44	15.334
458.79	16.180
459.14	15.330
459.49	15.968
459.84	15.924
460.19	14.633
460.54	15.613
460.89	15.672
461.24	15.636
461.59	15.873
461.94	15.544
462.29	16.190
462.64	16.457
462.99	15.291
463.34	16.332
463.69	16.515
464.04	16.062
464.39	15.455
464.74	15.182
465.09	15.206
465.44	14.962
465.79	15.623
466.14	15.156
466.49	15.301
466.84	14.827
467.19	15.700
467.54	15.315
467.89	15.317
468.24	15.055
468.59	15.060
468.94	15.399
469.29	16.127
469.64	16.013
469.99	15.810
470.34	15.623
470.68	15.103
471.03	15.544
471.38	16.291
471.73	15.088
472.08	16.047
472.43	15.518
472.78	16.325
473.13	15.269
473.48	15.954
473.83	15.253
474.17	15.805
474.52	15.995
474.87	14.724
475.22	16.162
475.57	14.586
475.92	14.205
476.27	14.635
476.61	14.638
476.96	15.465
477.31	14.499
477.66	14.976
478.01	15.214
478.36	14.985
478.70	14.789
479.05	14.487
479.40	14.385
479.75	14.846
480.10	15.053
480.45	14.006
480.79	14.793
481.14	14.123
481.49	14.364
481.84	14.468
482.19	14.847
482.53	14.141
482.88	14.023
483.23	14.659
483.58	14.587
483.92	15.722
484.27	14.255
484.62	14.346
484.97	14.686
485.31	13.568
485.66	13.943
486.01	13.597
486.36	13.345
486.70	13.135
487.05	13.543
487.40	13.770
487.75	13.615
488.09	14.062
488.44	13.862
488.79	14.335
489.13	13.923
489.48	14.622
489.83	14.345
490.17	14.575
490.52	14.341
490.87	14.483
491.22	14.273
491.56	14.581
491.91	13.575
492.26	14.343
492.60	14.396
492.95	14.001
493.30	14.331
493.64	13.567
493.99	15.206
494.34	13.985
494.68	14.298
495.03	14.683
495.37	14.228
495.72	15.012
496.07	14.420
496.41	14.726
496.76	14.479
497.11	14.482
497.45	14.248
497.80	15.060
498.14	14.008
498.49	14.253
498.84	14.579
499.18	13.894
499.53	14.332
499.87	14.016
500.22	14.187
500.56	13.510
500.91	14.981
501.26	14.424
501.60	13.707
501.95	13.620
502.29	14.044
502.64	13.322
502.98	13.917
503.33	13.942
503.67	14.570
504.02	13.614
504.36	13.620
504.71	14.475
505.06	13.890
505.40	13.851
505.75	14.172
506.09	13.859
506.44	14.051
506.78	14.083
507.13	13.766
507.47	13.877
507.82	14.307
508.16	14.552
508.51	14.010
508.85	13.818
509.19	13.705
509.54	13.965
509.88	14.620
510.23	14.461
510.57	13.417
510.92	14.286
511.26	13.855
511.61	13.392
511.95	14.087
512.30	13.650
512.64	13.551
512.98	14.300
513.33	14.293
513.67	13.931
514.02	14.649
514.36	14.694
514.70	13.333
515.05	13.799
515.39	13.377
515.74	14.161
516.08	14.270
516.42	14.645
516.77	13.973
517.11	14.080
517.46	13.901
517.80	13.708
518.14	14.873
518.49	13.782
518.83	13.242
519.17	13.977
519.52	14.855
519.86	13.842
520.20	14.082
520.55	12.776
520.89	13.736
521.23	14.077
521.58	13.769
521.92	13.703
522.26	13.152
522.61	14.676
522.95	13.393
523.29	14.386
523.64	13.121
523.98	13.908
524.32	13.437
524.66	13.739
525.01	13.550
525.35	13.612
525.69	13.967
526.04	14.218
526.38	13.537
526.72	13.425
527.06	13.661
527.41	14.268
527.75	14.607
528.09	13.245
528.43	14.033
528.78	13.536
529.12	14.750
529.46	13.852
529.80	13.610
530.15	14.084
530.49	13.177
530.83	13.285
531.17	12.977
531.51	14.286
531.86	13.587
532.20	12.608
532.54	13.748
532.88	13.367
533.22	13.894
533.57	13.423
533.91	12.471
534.25	13.503
534.59	12.749
534.93	13.026
535.27	12.464
535.62	12.952
535.96	13.357
536.30	14.260
536.64	12.236
536.98	13.216
537.32	13.312
537.66	12.436
538.01	13.127
538.35	14.286
538.69	13.107
539.03	12.624
539.37	12.682
539.71	13.148
540.05	12.738
540.39	13.711
540.73	13.861
541.07	12.798
541.42	13.557
541.76	13.009
542.10	13.009
542.44	13.217
542.78	13.531
543.12	13.129
543.46	12.218
543.80	12.531
544.14	13.189
544.48	12.470
544.82	12.599
545.16	11.900
545.50	13.460
545.84	12.942
546.18	13.004
546.52	13.443
546.86	13.733
547.20	11.951
547.54	13.110
547.88	13.260
548.22	13.297
548.56	13.023
548.90	12.989
549.24	12.824
549.58	12.436
549.92	12.770
550.26	13.320
550.60	13.107
550.94	12.551
551.28	13.241
551.62	14.069
551.96	12.297
552.30	12.986
552.64	13.074
552.98	11.598
553.32	12.676
553.66	12.443
554.00	13.127
554.34	13.449
554.68	12.903
555.02	13.442
555.36	12.500
555.69	12.238
556.03	12.803
556.37	12.492
556.71	13.364
557.05	11.599
557.39	13.000
557.73	13.208
558.07	11.871
558.41	12.748
558.75	13.269
559.08	12.509
559.42	13.386
559.76	12.117
560.10	12.801
560.44	12.276
560.78	12.852
561.12	12.460
561.45	13.517
561.79	11.798
562.13	11.560
562.47	11.746
562.81	12.427
563.15	11.959
563.48	11.242
563.82	12.040
564.16	12.313
564.50	13.080
564.84	12.158
565.17	12.656
565.51	12.438
565.85	12.523
566.19	11.726
566.52	11.552
566.86	12.726
567.20	12.360
567.54	11.190
567.88	12.415
568.21	11.533
568.55	11.770
568.89	11.998
569.23	11.562
569.56	11.022
569.90	11.283
570.24	11.175
570.57	10.967
570.91	10.764
571.25	10.765
571.59	10.209
571.92	11.114
572.26	10.216
572.60	10.636
572.93	10.926
573.27	10.597
573.61	10.612
573.95	11.056
574.28	10.567
574.62	10.014
574.96	10.330
575.29	10.097
575.63	10.483
575.97	10.200
576.30	10.048
576.64	10.776
576.98	10.402
577.31	10.571
577.65	10.287
577.98	10.275
578.32	10.043
578.66	10.381
578.99	10.552
579.33	10.871
579.67	10.201
580.00	10.227
580.34	10.572
580.67	10.447
581.01	10.819
581.35	10.594
581.68	9.982
582.02	10.554
582.35	9.905
582.69	10.099
583.02	10.345
583.36	10.378
583.70	10.261
584.03	10.589
584.37	10.449
584.70	10.351
585.04	10.207
585.37	9.671
585.71	10.247
586.04	10.445
586.38	10.199
586.72	10.476
587.05	10.885
587.39	10.215
587.72	10.393
588.06	10.430
588.39	10.312
588.73	10.597
589.06	10.009
589.40	10.736
589.73	10.783
590.07	11.084
590.40	11.045
590.73	11.201
591.07	11.195
591.40	11.178
591.74	10.998
592.07	11.148
592.41	11.431
592.74	11.168
593.08	10.677
593.41	10.533
593.75	10.483
594.08	10.471
594.41	10.427
594.75	10.890
595.08	11.283
595.42	10.566
595.75	10.628
596.09	10.775
596.42	10.670
596.75	11.178
597.09	11.184
597.42	10.816
597.75	11.318
598.09	10.751
598.42	11.424
598.76	11.141
599.09	11.181
599.42	10.934
599.76	10.889
600.09	10.814
600.42	10.532
600.76	10.877
601.09	10.632
601.42	10.982
601.76	10.741
602.09	11.405
602.42	10.832
602.76	10.664
603.09	10.784
603.42	11.193
603.76	10.774
604.09	10.170
604.42	11.111
604.76	10.747
605.09	11.143
605.42	11.540
605.75	11.133
606.09	11.362
606.42	10.785
606.75	11.154
607.09	11.015
607.42	10.647
607.75	11.027
608.08	10.764
608.42	10.948
608.75	10.783
609.08	10.867
609.41	11.091
609.75	11.355
610.08	11.241
610.41	11.155
610.74	10.909
611.07	10.732
611.41	10.843
611.74	10.612
612.07	10.549
612.40	10.721
612.73	11.333
613.07	10.796
613.40	11.679
613.73	11.782
614.06	10.550
614.39	11.717
614.72	12.104
615.06	11.078
615.39	11.436
615.72	10.503
616.05	11.452
616.38	10.807
616.71	11.774
617.05	11.312
617.38	11.629
617.71	11.024
618.04	10.937
618.37	11.284
618.70	10.797
619.03	11.416
619.36	11.809
619.69	11.280
620.03	12.590
620.36	12.139
620.69	13.155
621.02	11.753
621.35	11.533
621.68	11.578
622.01	13.284
622.34	10.998
622.67	11.868
623.00	11.777
623.33	11.876
623.66	11.843
623.99	11.644
624.32	11.653
624.65	12.113
624.99	11.359
625.32	11.824
625.65	11.103
625.98	11.088
626.31	11.424
626.64	11.465
626.97	11.706
627.30	12.189
627.63	13.187
627.96	11.502
628.29	12.046
628.62	11.719
628.95	12.500
629.28	12.270
629.61	11.951
629.94	12.792
630.26	12.478
630.59	12.943
630.92	11.031
631.25	13.237
631.58	13.211
631.91	12.750
632.24	11.565
632.57	11.395
632.90	11.905
633.23	13.012
633.56	13.699
633.89	13.076
634.22	12.809
634.55	12.366
634.88	13.801
635.20	12.332
