SpectraSuite Data File
++++++++++++++++++++++++++++++++++++
Date: Tue May 12 16:31:47 PDT 2015
User: schluterlab
Dark Spectrum Present: Yes
Reference Spectrum Present: Yes
Number of Sampled Component Spectra: 1
Spectrometers: USB2E3373
Integration Time (usec): 3000 (USB2E3373)
Spectra Averaged: 3 (USB2E3373)
Boxcar Smoothing: 0 (USB2E3373)
Correct for Electrical Dark: No (USB2E3373)
Strobe/Lamp Enabled: No (USB2E3373)
Correct for Detector Non-linearity: No (USB2E3373)
Correct for Stray Light: No (USB2E3373)
Number of Pixels in Processed Spectrum: 2048
>>>>>Begin Processed Spectral Data<<<<<
178.53	0.000
178.91	-158.333
179.29	-550.000
179.67	-3900.000
180.04	-140.000
180.42	675.000
180.80	1500.000
181.18	0.000
181.56	-212.500
181.94	0.000
182.31	1133.333
182.69	-3700.000
183.07	600.000
183.45	-3300.000
183.83	-1250.000
184.20	240.000
184.58	357.143
184.96	-215.385
185.34	-191.667
185.72	1800.000
186.09	-675.000
186.47	-2900.000
186.85	900.000
187.23	520.000
187.61	1750.000
187.98	425.000
188.36	278.571
188.74	258.333
189.12	341.667
189.49	975.000
189.87	0.000
190.25	462.500
190.63	1500.000
191.00	-208.333
191.38	-3500.000
191.76	-600.000
192.14	475.000
192.51	-2900.000
192.89	1650.000
193.27	1066.667
193.65	-800.000
194.02	-780.000
194.40	571.429
194.78	-171.429
195.15	253.333
195.53	-3600.000
195.91	-500.000
196.29	3900.000
196.66	218.750
197.04	1025.000
197.42	-1150.000
197.79	725.000
198.17	241.667
198.55	0.000
198.92	514.286
199.30	1233.333
199.68	1550.000
200.05	450.000
200.43	-400.000
200.81	166.667
201.18	2900.000
201.56	208.333
201.94	-775.000
202.31	-275.000
202.69	-480.000
203.07	2900.000
203.44	-533.333
203.82	350.000
204.19	620.000
204.57	-1400.000
204.95	-850.000
205.32	-580.000
205.70	666.667
206.08	800.000
206.45	-833.333
206.83	344.444
207.20	189.474
207.58	191.667
207.96	740.000
208.33	0.000
208.71	542.857
209.08	680.000
209.46	-2800.000
209.84	-725.000
210.21	760.000
210.59	-440.000
210.96	333.333
211.34	-800.000
211.71	372.727
212.09	700.000
212.46	1550.000
212.84	-483.333
213.22	411.111
213.59	-2700.000
213.97	320.000
214.34	900.000
214.72	1366.667
215.09	933.333
215.47	-3000.000
215.84	-280.000
216.22	-362.500
216.59	0.000
216.97	0.000
217.34	900.000
217.72	-1300.000
218.09	1133.333
218.47	462.500
218.84	700.000
219.22	733.333
219.59	1266.667
219.97	542.857
220.34	366.667
220.72	1750.000
221.09	2900.000
221.47	258.333
221.84	900.000
222.22	280.000
222.59	244.444
222.97	214.286
223.34	237.500
223.72	-1200.000
224.09	1066.667
224.46	276.923
224.84	-800.000
225.21	411.111
225.59	286.667
225.96	1200.000
226.34	-660.000
226.71	-675.000
227.08	-640.000
227.46	0.000
227.83	-433.333
228.21	-1950.000
228.58	408.333
228.95	800.000
229.33	422.222
229.70	850.000
230.08	369.231
230.45	2800.000
230.82	-925.000
231.20	-900.000
231.57	-1100.000
231.95	700.000
232.32	383.333
232.69	633.333
233.07	325.000
233.44	-1750.000
233.81	240.000
234.19	177.778
234.56	293.750
234.93	229.412
235.31	220.000
235.68	218.750
236.05	182.143
236.43	148.148
236.80	285.714
237.17	155.172
237.55	140.625
237.92	142.500
238.29	148.485
238.67	153.125
239.04	112.195
239.41	110.417
239.79	87.500
240.16	108.333
240.53	81.967
240.91	89.855
241.28	89.831
241.65	86.364
242.02	83.099
242.40	84.286
242.77	75.824
243.14	74.684
243.51	78.788
243.89	59.813
244.26	71.028
244.63	74.257
245.00	66.055
245.38	50.847
245.75	61.364
246.12	66.667
246.49	62.411
246.87	63.115
247.24	62.000
247.61	60.000
247.98	68.707
248.36	58.182
248.73	58.673
249.10	56.548
249.47	53.000
249.84	55.224
250.22	62.703
250.59	54.500
250.96	56.118
251.33	53.953
251.70	54.018
252.08	51.261
252.45	53.386
252.82	48.669
253.19	53.360
253.56	48.846
253.94	51.812
254.31	51.163
254.68	50.523
255.05	52.414
255.42	51.825
255.79	56.352
256.16	51.186
256.54	51.299
256.91	49.020
257.28	52.174
257.65	46.708
258.02	44.838
258.39	47.564
258.76	51.884
259.14	44.571
259.51	52.770
259.88	53.799
260.25	46.429
260.62	45.479
260.99	47.107
261.36	45.125
261.73	47.340
262.10	51.309
262.47	48.250
262.85	46.133
263.22	47.301
263.59	49.105
263.96	48.371
264.33	43.951
264.70	50.369
265.07	48.049
265.44	46.330
265.81	48.349
266.18	48.284
266.55	46.336
266.92	44.743
267.29	45.175
267.66	45.516
268.03	46.637
268.40	45.877
268.77	48.238
269.14	44.685
269.51	48.552
269.88	43.061
270.25	42.765
270.62	45.708
270.99	44.422
271.36	45.528
271.73	43.816
272.10	42.828
272.47	42.262
272.84	43.713
273.21	45.868
273.58	43.725
273.95	47.228
274.32	42.023
274.69	47.441
275.06	43.534
275.43	40.230
275.80	44.717
276.17	44.485
276.54	45.607
276.91	45.149
277.28	42.518
277.65	44.280
278.02	44.118
278.39	42.626
278.76	40.690
279.13	43.950
279.50	43.818
279.87	40.968
280.23	42.726
280.60	44.161
280.97	42.414
281.34	41.254
281.71	41.391
282.08	44.615
282.45	41.723
282.82	40.635
283.19	40.064
283.56	39.669
283.92	42.997
284.29	41.930
284.66	41.176
285.03	41.294
285.40	39.835
285.77	39.043
286.14	39.938
286.51	41.104
286.87	38.608
287.24	37.688
287.61	38.298
287.98	39.104
288.35	37.333
288.72	38.088
289.08	38.739
289.45	39.787
289.82	37.344
290.19	37.775
290.56	40.611
290.93	38.849
291.29	37.707
291.66	37.288
292.03	36.746
292.40	35.908
292.77	35.376
293.13	34.807
293.50	35.762
293.87	33.875
294.24	37.343
294.60	35.801
294.97	37.063
295.34	34.396
295.71	34.297
296.08	36.133
296.44	34.816
296.81	35.112
297.18	34.221
297.55	34.729
297.91	32.389
298.28	33.816
298.65	33.374
299.02	32.690
299.38	34.053
299.75	31.829
300.12	32.569
300.48	34.543
300.85	33.492
301.22	33.372
301.59	32.075
301.95	33.489
302.32	33.295
302.69	33.484
303.05	34.568
303.42	31.726
303.79	32.286
304.15	32.233
304.52	32.347
304.89	32.196
305.25	33.815
305.62	34.009
305.99	33.261
306.35	34.105
306.72	33.195
307.09	33.540
307.45	32.418
307.82	31.893
308.19	32.680
308.55	31.600
308.92	33.072
309.29	34.911
309.65	33.895
310.02	34.280
310.38	34.197
310.75	32.112
311.12	33.716
311.48	34.556
311.85	34.065
312.22	34.384
312.58	33.916
312.95	34.078
313.31	36.142
313.68	35.647
314.05	35.165
314.41	36.778
314.78	37.121
315.14	36.777
315.51	37.938
315.87	37.500
316.24	38.375
316.61	36.616
316.97	37.890
317.34	37.736
317.70	38.718
318.07	39.769
318.43	38.489
318.80	38.179
319.16	39.248
319.53	39.735
319.89	37.724
320.26	42.272
320.62	39.744
320.99	39.847
321.35	41.744
321.72	41.556
322.08	41.367
322.45	43.506
322.81	42.909
323.18	43.250
323.54	43.990
323.91	44.606
324.27	43.590
324.64	44.118
325.00	44.397
325.37	45.194
325.73	45.953
326.10	45.070
326.46	45.417
326.83	45.120
327.19	46.747
327.56	45.288
327.92	48.033
328.29	47.463
328.65	48.545
329.01	47.648
329.38	48.731
329.74	48.847
330.11	49.783
330.47	49.190
330.84	47.714
331.20	50.254
331.56	50.691
331.93	48.760
332.29	48.214
332.66	49.320
333.02	49.742
333.38	51.832
333.75	50.209
334.11	49.916
334.48	50.855
334.84	49.409
335.20	49.957
335.57	49.034
335.93	49.958
336.29	48.673
336.66	51.286
337.02	49.701
337.38	49.527
337.75	51.014
338.11	50.633
338.47	49.958
338.84	49.788
339.20	49.437
339.56	51.220
339.93	50.000
340.29	49.664
340.65	52.557
341.02	49.236
341.38	49.672
341.74	49.419
342.11	49.750
342.47	50.205
342.83	51.025
343.20	49.555
343.56	48.451
343.92	50.454
344.28	48.644
344.65	50.285
345.01	48.413
345.37	48.558
345.73	48.968
346.10	47.331
346.46	50.399
346.82	46.296
347.19	49.150
347.55	48.946
347.91	48.338
348.27	47.715
348.63	47.389
349.00	48.743
349.36	49.494
349.72	47.936
350.08	47.671
350.45	47.829
350.81	48.700
351.17	47.612
351.53	48.037
351.89	47.164
352.26	48.073
352.62	48.265
352.98	48.696
353.34	48.844
353.70	46.407
354.07	45.385
354.43	46.851
354.79	46.014
355.15	46.478
355.51	48.187
355.87	47.967
356.24	47.036
356.60	46.956
356.96	47.309
357.32	47.702
357.68	47.283
358.04	46.960
358.40	47.901
358.77	46.657
359.13	46.246
359.49	46.775
359.85	45.793
360.21	45.468
360.57	44.891
360.93	46.681
361.29	45.310
361.66	47.129
362.02	44.389
362.38	46.320
362.74	45.435
363.10	45.722
363.46	45.028
363.82	45.722
364.18	45.448
364.54	45.923
364.90	44.913
365.26	44.761
365.62	44.613
365.98	45.492
366.35	44.690
366.71	46.357
367.07	43.823
367.43	44.929
367.79	44.614
368.15	43.826
368.51	45.348
368.87	44.090
369.23	45.392
369.59	44.976
369.95	45.455
370.31	44.079
370.67	44.344
371.03	45.238
371.39	44.598
371.75	43.615
372.11	43.848
372.47	42.877
372.83	42.828
373.19	44.071
373.55	43.711
373.91	43.163
374.27	43.254
374.63	44.203
374.99	44.542
375.35	44.153
375.71	43.799
376.07	42.905
376.42	41.432
376.78	44.444
377.14	42.923
377.50	42.884
377.86	42.985
378.22	43.571
378.58	44.794
378.94	42.667
379.30	42.389
379.66	42.565
380.02	42.815
380.38	43.267
380.74	42.503
381.09	43.516
381.45	41.850
381.81	42.021
382.17	42.613
382.53	41.812
382.89	41.987
383.25	42.570
383.61	40.980
383.97	41.572
384.32	42.616
384.68	43.613
385.04	42.849
385.40	42.171
385.76	41.545
386.12	41.991
386.48	41.337
386.83	41.993
387.19	41.755
387.55	41.932
387.91	41.224
388.27	41.939
388.62	41.549
388.98	40.525
389.34	40.155
389.70	40.802
390.06	41.402
390.42	40.716
390.77	41.093
391.13	40.435
391.49	40.714
391.85	41.231
392.20	40.465
392.56	41.278
392.92	41.213
393.28	40.919
393.64	40.654
393.99	40.782
394.35	39.670
394.71	39.385
395.07	39.842
395.42	40.105
395.78	40.531
396.14	41.084
396.50	39.952
396.85	39.573
397.21	39.952
397.57	40.167
397.92	39.168
398.28	40.210
398.64	40.663
399.00	38.963
399.35	38.218
399.71	39.018
400.07	39.726
400.42	39.403
400.78	39.179
401.14	39.107
401.49	39.747
401.85	39.629
402.21	38.840
402.57	39.198
402.92	39.030
403.28	39.439
403.63	38.611
403.99	37.515
404.35	38.687
404.70	39.279
405.06	38.181
405.42	39.019
405.77	38.148
406.13	38.503
406.49	38.488
406.84	37.507
407.20	38.642
407.55	37.415
407.91	38.545
408.27	37.841
408.62	37.966
408.98	37.907
409.34	37.347
409.69	37.959
410.05	38.104
410.40	37.868
410.76	37.722
411.11	38.152
411.47	36.852
411.83	37.083
412.18	36.715
412.54	37.477
412.89	36.873
413.25	37.628
413.60	37.558
413.96	36.565
414.31	37.780
414.67	38.610
415.03	37.995
415.38	37.918
415.74	37.081
416.09	37.477
416.45	37.815
416.80	38.550
417.16	36.474
417.51	37.452
417.87	36.733
418.22	36.877
418.58	38.726
418.93	37.716
419.29	36.784
419.64	36.584
420.00	37.172
420.35	35.656
420.71	35.764
421.06	37.022
421.42	36.039
421.77	36.369
422.12	37.155
422.48	35.696
422.83	36.551
423.19	36.069
423.54	35.326
423.90	36.070
424.25	36.929
424.61	37.551
424.96	36.194
425.31	36.617
425.67	36.532
426.02	37.970
426.38	36.931
426.73	36.842
427.09	37.307
427.44	36.635
427.79	37.050
428.15	37.714
428.50	37.771
428.85	37.566
429.21	36.791
429.56	36.690
429.92	36.499
430.27	36.333
430.62	35.438
430.98	35.130
431.33	35.131
431.68	35.407
432.04	36.265
432.39	37.102
432.74	36.124
433.10	37.099
433.45	36.531
433.80	36.900
434.16	36.942
434.51	36.584
434.86	37.452
435.22	36.089
435.57	37.759
435.92	37.279
436.28	36.290
436.63	35.764
436.98	36.824
437.34	37.329
437.69	36.114
438.04	36.505
438.39	36.194
438.75	35.913
439.10	36.050
439.45	35.726
439.81	36.322
440.16	37.259
440.51	35.248
440.86	36.638
441.22	36.634
441.57	36.640
441.92	35.044
442.27	35.928
442.63	36.992
442.98	36.207
443.33	36.636
443.68	36.720
444.03	36.145
444.39	36.488
444.74	36.077
445.09	37.125
445.44	36.451
445.79	36.257
446.15	36.158
446.50	36.287
446.85	36.554
447.20	35.473
447.55	36.759
447.91	36.494
448.26	35.836
448.61	37.148
448.96	37.146
449.31	36.084
449.66	36.489
450.02	35.656
450.37	36.036
450.72	36.364
451.07	35.428
451.42	37.463
451.77	36.025
452.12	36.529
452.47	36.209
452.83	37.127
453.18	36.096
453.53	37.123
453.88	36.114
454.23	37.188
454.58	36.247
454.93	36.726
455.28	36.597
455.63	36.288
455.98	36.492
456.34	36.596
456.69	36.768
457.04	35.382
457.39	36.514
457.74	35.586
458.09	36.047
458.44	35.597
458.79	36.021
459.14	36.170
459.49	36.353
459.84	36.902
460.19	36.554
460.54	36.980
460.89	35.874
461.24	35.223
461.59	36.224
461.94	35.461
462.29	35.984
462.64	36.432
462.99	35.893
463.34	36.293
463.69	36.479
464.04	36.039
464.39	35.203
464.74	35.287
465.09	35.461
465.44	34.766
465.79	34.622
466.14	35.771
466.49	35.648
466.84	35.674
467.19	35.325
467.54	35.796
467.89	35.622
468.24	35.900
468.59	35.476
468.94	36.171
469.29	35.064
469.64	36.334
469.99	35.668
470.34	36.369
470.68	36.000
471.03	36.024
471.38	35.960
471.73	35.598
472.08	36.204
472.43	36.437
472.78	35.403
473.13	34.981
473.48	36.247
473.83	36.337
474.17	35.380
474.52	35.604
474.87	34.508
475.22	35.465
475.57	35.310
475.92	34.951
476.27	34.385
476.61	34.638
476.96	35.475
477.31	35.424
477.66	35.641
478.01	34.244
478.36	35.427
478.70	34.442
479.05	34.780
479.40	34.524
479.75	35.501
480.10	34.753
480.45	34.921
480.79	35.438
481.14	34.379
481.49	34.675
481.84	34.433
482.19	34.498
482.53	34.343
482.88	34.453
483.23	34.687
483.58	34.919
483.92	35.238
484.27	34.675
484.62	34.211
484.97	33.502
485.31	33.798
485.66	33.158
486.01	32.943
486.36	32.686
486.70	32.550
487.05	33.299
487.40	33.048
487.75	33.610
488.09	32.983
488.44	33.588
488.79	33.738
489.13	34.304
489.48	34.918
489.83	33.820
490.17	33.113
490.52	34.109
490.87	33.879
491.22	33.821
491.56	34.124
491.91	34.005
492.26	33.719
492.60	35.080
492.95	33.983
493.30	34.440
493.64	33.333
493.99	33.363
494.34	33.572
494.68	34.042
495.03	34.755
495.37	33.859
495.72	34.312
496.07	34.367
496.41	34.492
496.76	33.727
497.11	33.976
497.45	33.845
497.80	34.801
498.14	34.258
498.49	33.844
498.84	34.159
499.18	33.821
499.53	33.303
499.87	33.783
500.22	34.132
500.56	34.680
500.91	34.091
501.26	34.221
501.60	34.153
501.95	33.333
502.29	34.222
502.64	34.230
502.98	33.170
503.33	34.477
503.67	33.201
504.02	33.498
504.36	33.348
504.71	33.775
505.06	34.350
505.40	33.739
505.75	33.817
506.09	34.858
506.44	34.539
506.78	33.318
507.13	33.640
507.47	33.479
507.82	34.745
508.16	35.081
508.51	33.913
508.85	33.713
509.19	33.823
509.54	33.301
509.88	34.162
510.23	34.167
510.57	32.336
510.92	34.366
511.26	33.434
511.61	33.087
511.95	33.997
512.30	33.400
512.64	33.749
512.98	34.393
513.33	34.375
513.67	33.868
514.02	33.714
514.36	33.541
514.70	33.173
515.05	33.404
515.39	34.046
515.74	34.992
516.08	33.497
516.42	34.153
516.77	33.547
517.11	33.760
517.46	33.028
517.80	34.353
518.14	34.704
518.49	33.297
518.83	33.352
519.17	33.333
519.52	33.752
519.86	34.005
520.20	33.370
520.55	34.257
520.89	33.621
521.23	34.054
521.58	34.137
521.92	34.227
522.26	33.886
522.61	34.165
522.95	34.535
523.29	34.269
523.64	32.890
523.98	35.563
524.32	33.622
524.66	33.333
525.01	34.260
525.35	33.765
525.69	34.317
526.04	34.087
526.38	33.902
526.72	33.890
527.06	33.412
527.41	34.704
527.75	34.632
528.09	33.955
528.43	34.411
528.78	34.586
529.12	34.256
529.46	33.840
529.80	33.879
530.15	33.294
530.49	34.838
530.83	34.369
531.17	33.579
531.51	33.906
531.86	32.669
532.20	33.375
532.54	33.396
532.88	33.854
533.22	34.918
533.57	34.838
533.91	32.809
534.25	33.641
534.59	34.444
534.93	33.163
535.27	32.555
535.62	33.664
535.96	33.511
536.30	34.430
536.64	33.416
536.98	33.103
537.32	33.812
537.66	34.247
538.01	34.427
538.35	33.999
538.69	33.131
539.03	33.582
539.37	33.192
539.71	33.642
540.05	33.785
540.39	34.277
540.73	34.241
541.07	33.187
541.42	33.333
541.76	33.354
542.10	33.724
542.44	34.040
542.78	32.851
543.12	33.067
543.46	33.333
543.80	33.271
544.14	34.180
544.48	34.307
544.82	34.128
545.16	32.544
545.50	34.173
545.84	33.523
546.18	34.265
546.52	33.639
546.86	34.107
547.20	33.850
547.54	33.312
547.88	33.273
548.22	33.637
548.56	32.233
548.90	32.977
549.24	33.860
549.58	33.505
549.92	33.530
550.26	34.415
550.60	34.198
550.94	34.464
551.28	33.103
551.62	34.552
551.96	33.514
552.30	34.344
552.64	34.110
552.98	33.634
553.32	33.163
553.66	33.876
554.00	32.368
554.34	34.154
554.68	33.132
555.02	33.809
555.36	34.309
555.69	33.508
556.03	34.140
556.37	32.823
556.71	34.485
557.05	32.110
557.39	33.933
557.73	32.547
558.07	34.138
558.41	33.379
558.75	33.926
559.08	35.311
559.42	34.359
559.76	33.927
560.10	33.310
560.44	33.908
560.78	33.120
561.12	34.011
561.45	31.727
561.79	33.895
562.13	33.165
562.47	33.030
562.81	33.377
563.15	33.226
563.48	32.609
563.82	32.813
564.16	33.085
564.50	33.092
564.84	32.948
565.17	32.917
565.51	33.682
565.85	33.621
566.19	33.988
566.52	33.875
566.86	33.508
567.20	33.764
567.54	33.133
567.88	33.125
568.21	32.002
568.55	31.809
568.89	33.029
569.23	32.355
569.56	33.387
569.90	32.124
570.24	32.743
570.57	32.479
570.91	31.420
571.25	31.257
571.59	31.528
571.92	31.028
572.26	30.943
572.60	31.491
572.93	32.202
573.27	31.792
573.61	31.700
573.95	31.823
574.28	32.016
574.62	31.416
574.96	31.058
575.29	31.017
575.63	31.119
575.97	31.086
576.30	31.157
576.64	31.160
576.98	31.460
577.31	31.736
577.65	31.549
577.98	31.018
578.32	30.543
578.66	30.988
578.99	31.403
579.33	31.191
579.67	31.779
580.00	31.071
580.34	31.113
580.67	30.940
581.01	31.666
581.35	31.366
581.68	30.741
582.02	30.844
582.35	31.002
582.69	31.134
583.02	31.189
583.36	31.744
583.70	31.911
584.03	31.916
584.37	32.130
584.70	31.824
585.04	31.549
585.37	30.974
585.71	32.360
586.04	31.879
586.38	31.721
586.72	31.840
587.05	31.781
587.39	31.884
587.72	33.057
588.06	31.686
588.39	31.320
588.73	32.117
589.06	32.186
589.40	32.864
589.73	32.514
590.07	32.876
590.40	32.892
590.73	33.162
591.07	33.928
591.40	32.255
591.74	32.224
592.07	31.988
592.41	32.374
592.74	32.259
593.08	31.966
593.41	31.777
593.75	31.479
594.08	31.845
594.41	31.704
594.75	32.089
595.08	32.133
595.42	32.159
595.75	31.589
596.09	32.847
596.42	32.156
596.75	32.772
597.09	32.109
597.42	32.694
597.75	32.779
598.09	32.745
598.42	32.477
598.76	32.382
599.09	32.402
599.42	31.107
599.76	31.988
600.09	31.254
600.42	31.664
600.76	31.713
601.09	32.654
601.42	32.277
601.76	32.152
602.09	32.634
602.42	31.793
602.76	32.600
603.09	32.655
603.42	32.844
603.76	32.466
604.09	32.429
604.42	32.166
604.76	32.596
605.09	32.327
605.42	32.020
605.75	31.780
606.09	32.555
606.42	32.056
606.75	32.258
607.09	32.017
607.42	32.463
607.75	32.325
608.08	32.006
608.42	33.180
608.75	32.135
609.08	32.776
609.41	32.636
609.75	32.875
610.08	32.959
610.41	32.148
610.74	32.684
611.07	32.515
611.41	32.623
611.74	32.744
612.07	32.803
612.40	33.187
612.73	32.601
613.07	32.742
613.40	32.832
613.73	33.000
614.06	32.950
614.39	33.687
614.72	33.199
615.06	32.542
615.39	32.525
615.72	32.333
616.05	32.948
616.38	32.775
616.71	32.339
617.05	33.059
617.38	32.921
617.71	33.521
618.04	33.146
618.37	32.629
618.70	33.430
619.03	33.150
619.36	33.794
619.69	32.850
620.03	34.312
620.36	33.205
620.69	33.589
621.02	33.628
621.35	32.307
621.68	33.850
622.01	35.424
622.34	33.212
622.67	33.287
623.00	33.833
623.33	32.389
623.66	33.001
623.99	33.767
624.32	33.943
624.65	33.509
624.99	34.212
625.32	33.534
625.65	33.379
625.98	33.752
626.31	34.421
626.64	33.181
626.97	33.818
627.30	34.317
627.63	34.851
627.96	33.881
628.29	34.736
628.62	34.902
628.95	35.284
629.28	35.495
629.61	34.271
629.94	34.659
630.26	34.315
630.59	35.816
630.92	35.067
631.25	35.811
