SpectraSuite Data File
++++++++++++++++++++++++++++++++++++
Date: Tue May 12 16:25:26 PDT 2015
User: schluterlab
Dark Spectrum Present: Yes
Reference Spectrum Present: Yes
Number of Sampled Component Spectra: 1
Spectrometers: USB2E3373
Integration Time (usec): 3000 (USB2E3373)
Spectra Averaged: 3 (USB2E3373)
Boxcar Smoothing: 0 (USB2E3373)
Correct for Electrical Dark: No (USB2E3373)
Strobe/Lamp Enabled: No (USB2E3373)
Correct for Detector Non-linearity: No (USB2E3373)
Correct for Stray Light: No (USB2E3373)
Number of Pixels in Processed Spectrum: 2048
>>>>>Begin Processed Spectral Data<<<<<
178.53	0.000
178.91	-183.333
179.29	-675.000
179.67	-2900.000
180.04	-93.333
180.42	600.000
180.80	1550.000
181.18	0.000
181.56	-350.000
181.94	0.000
182.31	1000.000
182.69	-3300.000
183.07	557.143
183.45	-2800.000
183.83	-1650.000
184.20	330.000
184.58	542.857
184.96	-269.231
185.34	-208.333
185.72	1350.000
186.09	-825.000
186.47	-2800.000
186.85	866.667
187.23	620.000
187.61	1600.000
187.98	562.500
188.36	200.000
188.74	358.333
189.12	358.333
189.49	900.000
189.87	0.000
190.25	475.000
190.63	3000.000
191.00	-191.667
191.38	-3400.000
191.76	-825.000
192.14	537.500
192.51	-2500.000
192.89	1800.000
193.27	1300.000
193.65	-1133.333
194.02	-660.000
194.40	585.714
194.78	-200.000
195.15	300.000
195.53	-3000.000
195.91	-520.000
196.29	4000.000
196.66	231.250
197.04	775.000
197.42	-1850.000
197.79	425.000
198.17	291.667
198.55	0.000
198.92	457.143
199.30	1266.667
199.68	2200.000
200.05	583.333
200.43	-516.667
200.81	194.444
201.18	3100.000
201.56	316.667
201.94	-800.000
202.31	-300.000
202.69	-540.000
203.07	3500.000
203.44	-333.333
203.82	358.333
204.19	520.000
204.57	-1400.000
204.95	-475.000
205.32	-680.000
205.70	400.000
206.08	700.000
206.45	-1100.000
206.83	355.556
207.20	226.316
207.58	216.667
207.96	820.000
208.33	0.000
208.71	514.286
209.08	660.000
209.46	-3200.000
209.84	-900.000
210.21	880.000
210.59	-400.000
210.96	291.667
211.34	-850.000
211.71	481.818
212.09	950.000
212.46	1400.000
212.84	-516.667
213.22	411.111
213.59	-2900.000
213.97	370.000
214.34	850.000
214.72	1200.000
215.09	833.333
215.47	-3900.000
215.84	-270.000
216.22	-362.500
216.59	0.000
216.97	0.000
217.34	1100.000
217.72	-1600.000
218.09	1066.667
218.47	387.500
218.84	625.000
219.22	1033.333
219.59	866.667
219.97	471.429
220.34	422.222
220.72	1600.000
221.09	4100.000
221.47	308.333
221.84	800.000
222.22	380.000
222.59	277.778
222.97	307.143
223.34	212.500
223.72	-1550.000
224.09	833.333
224.46	276.923
224.84	-900.000
225.21	400.000
225.59	246.667
225.96	1433.333
226.34	-660.000
226.71	-500.000
227.08	-460.000
227.46	0.000
227.83	-550.000
228.21	-900.000
228.58	400.000
228.95	750.000
229.33	377.778
229.70	1025.000
230.08	353.846
230.45	3300.000
230.82	-1050.000
231.20	-766.667
231.57	-1033.333
231.95	500.000
232.32	325.000
232.69	566.667
233.07	216.667
233.44	-1850.000
233.81	220.000
234.19	133.333
234.56	181.250
234.93	141.176
235.31	155.000
235.68	187.500
236.05	125.000
236.43	140.741
236.80	207.143
237.17	165.517
237.55	137.500
237.92	112.500
238.29	78.788
238.67	90.625
239.04	90.244
239.41	58.333
239.79	85.000
240.16	68.750
240.53	62.295
240.91	63.768
241.28	67.797
241.65	50.000
242.02	52.113
242.40	51.429
242.77	40.659
243.14	40.506
243.51	57.576
243.89	43.925
244.26	30.841
244.63	38.614
245.00	44.037
245.38	25.424
245.75	37.879
246.12	41.481
246.49	21.277
246.87	36.066
247.24	30.000
247.61	20.000
247.98	27.891
248.36	20.606
248.73	36.224
249.10	19.643
249.47	24.500
249.84	27.861
250.22	23.243
250.59	23.000
250.96	21.941
251.33	20.930
251.70	26.786
252.08	21.429
252.45	17.131
252.82	22.814
253.19	19.763
253.56	15.385
253.94	21.739
254.31	17.442
254.68	20.209
255.05	21.724
255.42	18.248
255.79	18.893
256.16	19.322
256.54	19.805
256.91	16.013
257.28	14.716
257.65	9.718
258.02	15.339
258.39	18.338
258.76	18.841
259.14	14.857
259.51	18.950
259.88	18.845
260.25	16.484
260.62	17.260
260.99	11.846
261.36	13.092
261.73	14.362
262.10	14.398
262.47	18.000
262.85	13.333
263.22	15.681
263.59	14.322
263.96	14.286
264.33	16.049
264.70	15.971
265.07	13.415
265.44	13.073
265.81	14.151
266.18	14.645
266.55	13.475
266.92	13.870
267.29	15.570
267.66	14.574
268.03	13.453
268.40	13.319
268.77	15.419
269.14	11.497
269.51	12.695
269.88	14.898
270.25	10.583
270.62	13.090
270.99	16.430
271.36	13.821
271.73	11.111
272.10	12.929
272.47	13.294
272.84	12.176
273.21	12.603
273.58	13.968
273.95	12.731
274.32	14.786
274.69	15.945
275.06	12.750
275.43	14.559
275.80	12.264
276.17	13.787
276.54	11.776
276.91	14.552
277.28	11.131
277.65	13.469
278.02	13.235
278.39	11.871
278.76	12.931
279.13	12.456
279.50	13.273
279.87	11.732
280.23	11.234
280.60	12.956
280.97	12.069
281.34	12.046
281.71	12.870
282.08	11.966
282.45	12.331
282.82	12.375
283.19	11.288
283.56	10.083
283.92	13.518
284.29	13.145
284.66	11.429
285.03	12.272
285.40	9.421
285.77	11.420
286.14	11.610
286.51	10.276
286.87	9.968
287.24	10.661
287.61	11.094
287.98	9.403
288.35	9.926
288.72	11.533
289.08	10.961
289.45	9.146
289.82	11.094
290.19	10.542
290.56	10.480
290.93	10.360
291.29	11.188
291.66	9.605
292.03	9.958
292.40	11.382
292.77	9.889
293.13	10.699
293.50	9.717
293.87	8.537
294.24	9.231
294.60	9.556
294.97	11.469
295.34	9.562
295.71	9.461
296.08	10.933
296.44	9.784
296.81	8.809
297.18	8.238
297.55	9.483
297.91	8.251
298.28	9.903
298.65	9.816
299.02	9.288
299.38	9.592
299.75	9.146
300.12	10.550
300.48	10.304
300.85	9.654
301.22	10.581
301.59	7.311
301.95	9.335
302.32	9.546
302.69	9.615
303.05	9.652
303.42	7.175
303.79	9.859
304.15	8.801
304.52	7.188
304.89	8.742
305.25	9.121
305.62	8.209
305.99	7.391
306.35	8.737
306.72	8.117
307.09	7.971
307.45	8.659
307.82	7.819
308.19	8.557
308.55	8.300
308.92	9.421
309.29	8.974
309.65	7.334
310.02	8.722
310.38	8.375
310.75	8.679
311.12	8.046
311.48	8.977
311.85	8.302
312.22	9.169
312.58	8.455
312.95	8.058
313.31	9.082
313.68	8.349
314.05	7.875
314.41	8.101
314.78	8.049
315.14	8.436
315.51	8.231
315.87	8.577
316.24	8.964
316.61	8.863
316.97	7.798
317.34	8.446
317.70	9.043
318.07	9.520
318.43	9.315
318.80	8.144
319.16	8.566
319.53	8.230
319.89	8.871
320.26	9.777
320.62	8.974
320.99	10.010
321.35	8.442
321.72	9.772
322.08	8.680
322.45	8.538
322.81	8.509
323.18	9.503
323.54	10.279
323.91	9.791
324.27	9.372
324.64	7.526
325.00	9.655
325.37	9.781
325.73	9.865
326.10	9.114
326.46	9.827
326.83	9.280
327.19	9.478
327.56	8.946
327.92	9.672
328.29	11.047
328.65	9.332
329.01	8.725
329.38	10.152
329.74	7.857
330.11	9.470
330.47	10.656
330.84	9.060
331.20	9.475
331.56	9.326
331.93	9.666
332.29	8.673
332.66	9.524
333.02	7.990
333.38	9.337
333.75	10.509
334.11	8.305
334.48	9.487
334.84	8.784
335.20	9.324
335.57	9.068
335.93	9.504
336.29	8.624
336.66	9.348
337.02	8.640
337.38	9.544
337.75	10.473
338.11	8.692
338.47	9.145
338.84	9.483
339.20	8.658
339.56	8.074
339.93	8.278
340.29	7.311
340.65	9.723
341.02	10.056
341.38	8.867
341.74	8.638
342.11	7.763
342.47	8.532
342.83	9.598
343.20	8.973
343.56	7.625
343.92	8.092
344.28	8.852
344.65	8.883
345.01	8.175
345.37	8.173
345.73	8.413
346.10	7.888
346.46	8.533
346.82	8.565
347.19	9.505
347.55	7.494
347.91	7.704
348.27	7.901
348.63	8.228
349.00	8.530
349.36	8.171
349.72	8.792
350.08	8.540
350.45	7.921
350.81	10.168
351.17	7.011
351.53	7.313
351.89	8.469
352.26	7.634
352.62	7.768
352.98	8.282
353.34	8.629
353.70	6.957
354.07	8.385
354.43	8.986
354.79	7.441
355.15	7.887
355.51	7.628
355.87	8.509
356.24	8.160
356.60	7.839
356.96	7.657
357.32	8.515
357.68	8.003
358.04	8.359
358.40	8.246
358.77	9.091
359.13	7.658
359.49	7.784
359.85	6.999
360.21	7.875
360.57	7.737
360.93	8.369
361.29	7.576
361.66	8.277
362.02	7.102
362.38	8.081
362.74	8.422
363.10	7.504
363.46	6.975
363.82	8.626
364.18	7.468
364.54	8.155
364.90	8.099
365.26	8.258
365.62	7.666
365.98	7.433
366.35	7.310
366.71	7.564
367.07	7.577
367.43	8.126
367.79	7.979
368.15	7.191
368.51	7.512
368.87	6.658
369.23	7.484
369.59	8.159
369.95	7.273
370.31	7.187
370.67	8.466
371.03	8.473
371.39	7.895
371.75	6.629
372.11	8.158
372.47	8.425
372.83	7.342
373.19	8.842
373.55	8.110
373.91	7.459
374.27	7.275
374.63	7.729
374.99	7.615
375.35	7.460
375.71	7.388
376.07	7.958
376.42	7.225
376.78	8.028
377.14	7.929
377.50	7.366
377.86	6.983
378.22	7.556
378.58	8.232
378.94	7.363
379.30	6.731
379.66	6.863
380.02	7.566
380.38	6.206
380.74	7.785
381.09	8.353
381.45	6.705
381.81	6.974
382.17	7.204
382.53	7.319
382.89	7.333
383.25	6.986
383.61	7.378
383.97	6.539
384.32	7.294
384.68	8.497
385.04	7.620
385.40	7.592
385.76	7.899
386.12	7.050
386.48	6.687
386.83	7.518
387.19	7.244
387.55	7.656
387.91	8.025
388.27	7.377
388.62	7.570
388.98	6.880
389.34	7.436
389.70	6.958
390.06	7.317
390.42	6.971
390.77	7.002
391.13	7.725
391.49	7.804
391.85	7.754
392.20	7.509
392.56	7.826
392.92	6.850
393.28	7.063
393.64	6.479
393.99	7.172
394.35	6.886
394.71	7.539
395.07	7.360
395.42	6.674
395.78	7.835
396.14	7.711
396.50	7.762
396.85	7.012
397.21	7.100
397.57	6.635
397.92	6.355
398.28	6.950
398.64	7.563
399.00	7.162
399.35	7.085
399.71	7.450
400.07	6.792
400.42	5.970
400.78	7.097
401.14	7.575
401.49	6.682
401.85	7.879
402.21	6.444
402.57	7.361
402.92	6.000
403.28	6.742
403.63	6.886
403.99	6.815
404.35	8.265
404.70	6.734
405.06	7.131
405.42	7.121
405.77	7.056
406.13	7.104
406.49	6.367
406.84	7.163
407.20	7.648
407.55	6.769
407.91	7.594
408.27	7.520
408.62	6.801
408.98	7.215
409.34	6.663
409.69	6.658
410.05	6.559
410.40	6.596
410.76	5.896
411.11	6.457
411.47	6.914
411.83	5.917
412.18	7.186
412.54	7.147
412.89	6.903
413.25	6.842
413.60	6.893
413.96	7.600
414.31	6.730
414.67	7.014
415.03	6.513
415.38	7.129
415.74	6.254
416.09	7.245
416.45	6.658
416.80	7.569
417.16	7.066
417.51	7.006
417.87	7.009
418.22	7.108
418.58	5.860
418.93	7.258
419.29	6.470
419.64	7.268
420.00	7.637
420.35	7.027
420.71	7.176
421.06	6.298
421.42	6.448
421.77	7.163
422.12	6.009
422.48	7.242
422.83	6.306
423.19	6.587
423.54	6.912
423.90	6.682
424.25	6.659
424.61	6.616
424.96	6.381
425.31	6.623
425.67	6.117
426.02	6.786
426.38	6.709
426.73	6.304
427.09	6.524
427.44	5.909
427.79	6.118
428.15	7.955
428.50	6.914
428.85	7.172
429.21	6.483
429.56	7.129
429.92	6.663
430.27	6.773
430.62	6.363
430.98	7.036
431.33	5.948
431.68	6.173
432.04	6.829
432.39	7.190
432.74	6.557
433.10	6.534
433.45	6.720
433.80	7.060
434.16	6.411
434.51	6.708
434.86	6.805
435.22	6.591
435.57	6.639
435.92	7.513
436.28	7.604
436.63	6.699
436.98	7.489
437.34	6.906
437.69	6.103
438.04	7.527
438.39	7.122
438.75	7.350
439.10	7.016
439.45	6.840
439.81	6.825
440.16	7.375
440.51	6.532
440.86	7.920
441.22	7.305
441.57	6.824
441.92	7.305
442.27	6.495
442.63	6.453
442.98	7.435
443.33	7.231
443.68	7.143
444.03	6.927
444.39	6.073
444.74	6.677
445.09	7.478
445.44	6.270
445.79	6.725
446.15	6.895
446.50	6.909
446.85	6.723
447.20	7.065
447.55	6.308
447.91	7.139
448.26	6.922
448.61	7.629
448.96	6.754
449.31	6.986
449.66	7.586
450.02	6.753
450.37	7.052
450.72	7.328
451.07	7.039
451.42	7.054
451.77	6.987
452.12	6.636
452.47	7.351
452.83	7.493
453.18	8.108
453.53	7.460
453.88	7.257
454.23	6.856
454.58	8.042
454.93	6.928
455.28	7.038
455.63	7.033
455.98	7.501
456.34	7.416
456.69	6.890
457.04	7.041
457.39	7.600
457.74	7.545
458.09	6.682
458.44	7.284
458.79	7.533
459.14	7.201
459.49	7.022
459.84	7.554
460.19	7.175
460.54	6.952
460.89	7.143
461.24	6.644
461.59	7.483
461.94	6.915
462.29	7.265
462.64	7.726
462.99	7.294
463.34	8.684
463.69	7.743
464.04	8.290
464.39	6.812
464.74	6.038
465.09	7.545
465.44	7.671
465.79	7.077
466.14	6.571
466.49	6.782
466.84	7.358
467.19	7.674
467.54	7.508
467.89	7.981
468.24	7.064
468.59	7.440
468.94	7.126
469.29	7.575
469.64	7.846
469.99	7.584
470.34	7.274
470.68	7.586
471.03	7.738
471.38	7.020
471.73	7.838
472.08	7.958
472.43	7.883
472.78	7.554
473.13	6.446
473.48	7.396
473.83	7.892
474.17	7.903
474.52	7.820
474.87	7.049
475.22	6.910
475.57	6.873
475.92	6.490
476.27	7.236
476.61	6.273
476.96	7.628
477.31	6.787
477.66	7.837
478.01	7.220
478.36	7.673
478.70	6.203
479.05	5.910
479.40	6.845
479.75	7.299
480.10	6.970
480.45	6.863
480.79	6.820
481.14	6.562
481.49	6.633
481.84	6.816
482.19	6.769
482.53	6.939
482.88	7.079
483.23	6.134
483.58	6.912
483.92	7.084
484.27	6.892
484.62	7.003
484.97	6.428
485.31	5.964
485.66	5.930
486.01	5.692
486.36	5.562
486.70	5.573
487.05	5.706
487.40	5.722
487.75	6.146
488.09	6.307
488.44	6.628
488.79	6.144
489.13	6.122
489.48	6.712
489.83	6.547
490.17	6.606
490.52	6.417
490.87	6.638
491.22	6.383
491.56	6.983
491.91	7.079
492.26	6.860
492.60	6.424
492.95	6.615
493.30	7.279
493.64	6.649
493.99	6.395
494.34	6.858
494.68	6.950
495.03	7.050
495.37	7.024
495.72	6.527
496.07	6.559
496.41	6.907
496.76	7.092
497.11	7.455
497.45	7.278
497.80	6.766
498.14	7.120
498.49	6.360
498.84	7.757
499.18	6.307
499.53	6.569
499.87	6.469
500.22	7.047
500.56	7.196
500.91	8.117
501.26	7.258
501.60	6.284
501.95	6.541
502.29	6.667
502.64	6.705
502.98	6.892
503.33	6.726
503.67	6.932
504.02	6.583
504.36	6.697
504.71	6.906
505.06	6.804
505.40	7.066
505.75	6.969
506.09	7.373
506.44	7.096
506.78	6.947
507.13	6.447
507.47	6.502
507.82	7.007
508.16	7.545
508.51	6.812
508.85	6.743
509.19	7.293
509.54	7.080
509.88	7.310
510.23	6.912
510.57	6.564
510.92	7.193
511.26	6.426
511.61	6.598
511.95	6.869
512.30	7.550
512.64	6.542
512.98	6.715
513.33	7.172
513.67	7.250
514.02	7.065
514.36	6.490
514.70	6.240
515.05	6.766
515.39	5.976
515.74	6.998
516.08	7.244
516.42	7.322
516.77	6.880
517.11	7.520
517.46	7.274
517.80	6.663
518.14	7.155
518.49	7.001
518.83	6.538
519.17	7.155
519.52	7.428
519.86	7.466
520.20	7.123
520.55	7.179
520.89	6.724
521.23	7.593
521.58	6.827
521.92	8.047
522.26	7.227
522.61	7.130
522.95	8.529
523.29	7.427
523.64	6.705
523.98	6.631
524.32	7.266
524.66	6.435
525.01	6.923
525.35	7.484
525.69	7.285
526.04	7.912
526.38	6.886
526.72	7.100
527.06	7.156
527.41	7.195
527.75	7.486
528.09	7.225
528.43	7.200
528.78	7.156
529.12	7.526
529.46	7.364
529.80	7.185
530.15	7.602
530.49	6.739
530.83	7.069
531.17	7.872
531.51	7.541
531.86	7.246
532.20	6.799
532.54	6.842
532.88	7.058
533.22	7.983
533.57	7.383
533.91	7.401
534.25	7.444
534.59	7.778
534.93	6.940
535.27	6.431
535.62	6.826
535.96	6.738
536.30	7.800
536.64	6.646
536.98	7.489
537.32	7.750
537.66	6.888
538.01	7.740
538.35	7.361
538.69	7.100
539.03	7.152
539.37	6.917
539.71	7.099
540.05	6.462
540.39	7.547
540.73	7.468
541.07	6.023
541.42	7.276
541.76	7.213
542.10	6.597
542.44	7.357
542.78	6.986
543.12	6.687
543.46	7.206
543.80	7.331
544.14	7.492
544.48	6.873
544.82	7.523
545.16	6.800
545.50	6.761
545.84	7.828
546.18	7.087
546.52	6.557
546.86	7.350
547.20	6.783
547.54	7.663
547.88	7.725
548.22	6.375
548.56	7.543
548.90	6.762
549.24	6.822
549.58	6.894
549.92	7.335
550.26	7.370
550.60	6.121
550.94	8.073
551.28	7.724
551.62	7.862
551.96	7.703
552.30	6.328
552.64	7.638
552.98	7.539
553.32	6.338
553.66	6.710
554.00	7.143
554.34	7.124
554.68	7.728
555.02	7.264
555.36	6.981
555.69	7.330
556.03	7.070
556.37	7.648
556.71	7.236
557.05	6.094
557.39	7.533
557.73	7.682
558.07	7.445
558.41	7.608
558.75	7.661
559.08	7.863
559.42	7.516
559.76	7.698
560.10	6.676
560.44	7.167
560.78	7.928
561.12	7.438
561.45	7.134
561.79	6.679
562.13	6.633
562.47	6.489
562.81	7.222
563.15	6.399
563.48	6.708
563.82	6.987
564.16	7.027
564.50	7.354
564.84	6.383
565.17	7.071
565.51	7.020
565.85	6.231
566.19	6.964
566.52	7.160
566.86	6.830
567.20	7.416
567.54	6.223
567.88	7.147
568.21	5.891
568.55	6.420
568.89	6.524
569.23	5.997
569.56	6.070
569.90	6.396
570.24	5.928
570.57	6.067
570.91	5.741
571.25	5.694
571.59	5.274
571.92	5.409
572.26	5.121
572.60	5.110
572.93	5.722
573.27	5.543
573.61	4.846
573.95	5.154
574.28	5.235
574.62	5.286
574.96	4.973
575.29	5.185
575.63	5.206
575.97	5.161
576.30	5.340
576.64	5.546
576.98	5.387
577.31	5.420
577.65	5.414
577.98	5.061
578.32	4.862
578.66	5.171
578.99	5.119
579.33	5.368
579.67	5.077
580.00	4.953
580.34	5.118
580.67	5.145
581.01	5.486
581.35	4.989
581.68	4.955
582.02	4.935
582.35	5.003
582.69	4.684
583.02	5.058
583.36	5.358
583.70	5.096
584.03	5.444
584.37	5.174
584.70	5.250
585.04	4.996
585.37	4.892
585.71	5.124
586.04	5.155
586.38	5.123
586.72	5.560
587.05	5.610
587.39	5.107
587.72	5.343
588.06	5.314
588.39	5.194
588.73	5.366
589.06	5.019
589.40	5.634
589.73	5.834
590.07	5.731
590.40	5.958
590.73	6.537
591.07	5.920
591.40	6.068
591.74	5.804
592.07	5.699
592.41	5.675
592.74	5.566
593.08	5.306
593.41	5.595
593.75	5.271
594.08	6.006
594.41	5.539
594.75	5.445
595.08	5.830
595.42	5.695
595.75	5.693
596.09	5.735
596.42	5.462
596.75	6.250
597.09	5.984
597.42	5.469
597.75	5.355
598.09	5.499
598.42	5.794
598.76	5.937
599.09	6.252
599.42	5.709
599.76	5.868
600.09	5.763
600.42	5.594
600.76	4.997
601.09	5.316
601.42	5.773
601.76	5.478
602.09	5.813
602.42	5.841
602.76	5.844
603.09	5.694
603.42	6.165
603.76	5.712
604.09	5.356
604.42	5.160
604.76	6.006
605.09	5.837
605.42	6.014
605.75	5.567
606.09	5.968
606.42	5.975
606.75	5.441
607.09	5.724
607.42	5.866
607.75	5.732
608.08	5.808
608.42	6.082
608.75	5.434
609.08	5.323
609.41	5.955
609.75	6.410
610.08	5.800
610.41	5.973
610.74	6.234
611.07	5.639
611.41	6.302
611.74	5.784
612.07	6.214
612.40	5.945
612.73	6.790
613.07	6.336
613.40	5.915
613.73	6.041
614.06	6.000
614.39	6.162
614.72	6.781
615.06	5.935
615.39	6.287
615.72	6.292
616.05	6.328
616.38	6.139
616.71	6.457
617.05	6.041
617.38	5.843
617.71	6.187
618.04	6.506
618.37	6.615
618.70	6.062
619.03	6.227
619.36	7.475
619.69	6.464
620.03	7.110
620.36	6.744
620.69	7.471
621.02	6.929
621.35	7.092
621.68	5.900
622.01	7.159
622.34	6.555
622.67	7.584
623.00	6.739
623.33	7.018
623.66	7.585
623.99	6.849
624.32	5.827
624.65	6.583
624.99	6.356
625.32	6.814
625.65	5.724
625.98	6.276
626.31	6.602
626.64	6.378
626.97	6.580
627.30	6.522
627.63	7.457
627.96	7.199
628.29	6.683
628.62	6.501
628.95	8.156
629.28	8.677
629.61	7.469
629.94	6.655
630.26	9.012
630.59	9.220
630.92	7.534
631.25	8.432
631.58	6.847
631.91	7.992
632.24	6.997
632.57	7.466
632.90	7.660
633.23	8.499
633.56	8.957
633.89	7.503
634.22	8.288
634.55	8.065
634.88	8.543
635.20	9.529
635.53	7.782
635.86	8.277
636.19	8.866
636.52	8.000
636.85	6.688
637.18	7.801
637.51	7.039
637.83	6.865
638.16	7.034
638.49	9.341
638.82	7.746
639.15	6.698
639.48	9.242
639.81	7.937
640.13	9.202
640.46	9.861
640.79	8.453
641.12	7.612
641.45	9.314
641.77	10.700
642.10	9.772
642.43	8.393
642.76	9.091
643.09	8.934
643.41	9.677
643.74	9.496
644.07	9.735
644.40	7.396
644.73	9.610
645.05	10.550
645.38	9.648
645.71	9.256
646.04	10.534
646.36	11.581
646.69	8.160
647.02	9.120
647.35	9.764
647.67	9.400
648.00	8.795
648.33	9.774
648.66	9.697
648.98	9.275
649.31	8.367
649.64	7.884
649.96	7.824
650.29	7.857
650.62	11.340
650.94	10.843
651.27	10.367
651.60	10.172
651.92	11.060
652.25	9.449
652.58	8.794
652.90	9.132
653.23	8.419
653.56	9.347
