SpectraSuite Data File
++++++++++++++++++++++++++++++++++++
Date: Tue May 12 16:45:47 PDT 2015
User: schluterlab
Dark Spectrum Present: Yes
Reference Spectrum Present: Yes
Number of Sampled Component Spectra: 1
Spectrometers: USB2E3373
Integration Time (usec): 3000 (USB2E3373)
Spectra Averaged: 3 (USB2E3373)
Boxcar Smoothing: 0 (USB2E3373)
Correct for Electrical Dark: No (USB2E3373)
Strobe/Lamp Enabled: No (USB2E3373)
Correct for Detector Non-linearity: No (USB2E3373)
Correct for Stray Light: No (USB2E3373)
Number of Pixels in Processed Spectrum: 2048
>>>>>Begin Processed Spectral Data<<<<<
178.53	0.000
178.91	-241.667
179.29	-775.000
179.67	-3400.000
180.04	-113.333
180.42	600.000
180.80	1750.000
181.18	0.000
181.56	-237.500
181.94	0.000
182.31	1200.000
182.69	-3000.000
183.07	600.000
183.45	-4200.000
183.83	-1200.000
184.20	370.000
184.58	557.143
184.96	-184.615
185.34	-258.333
185.72	1500.000
186.09	-800.000
186.47	-3000.000
186.85	866.667
187.23	620.000
187.61	1700.000
187.98	500.000
188.36	242.857
188.74	266.667
189.12	375.000
189.49	850.000
189.87	0.000
190.25	525.000
190.63	2700.000
191.00	-175.000
191.38	-3800.000
191.76	-700.000
192.14	500.000
192.51	-2400.000
192.89	1600.000
193.27	1333.333
193.65	-1066.667
194.02	-660.000
194.40	528.571
194.78	-135.714
195.15	233.333
195.53	-1400.000
195.91	-520.000
196.29	4200.000
196.66	256.250
197.04	850.000
197.42	-1500.000
197.79	675.000
198.17	383.333
198.55	0.000
198.92	314.286
199.30	1133.333
199.68	1750.000
200.05	666.667
200.43	-500.000
200.81	216.667
201.18	3400.000
201.56	216.667
201.94	-775.000
202.31	-350.000
202.69	-580.000
203.07	2800.000
203.44	-366.667
203.82	391.667
204.19	520.000
204.57	-1150.000
204.95	-875.000
205.32	-800.000
205.70	400.000
206.08	750.000
206.45	-900.000
206.83	333.333
207.20	189.474
207.58	258.333
207.96	760.000
208.33	0.000
208.71	614.286
209.08	560.000
209.46	-3100.000
209.84	-725.000
210.21	820.000
210.59	-580.000
210.96	308.333
211.34	-925.000
211.71	336.364
212.09	850.000
212.46	1600.000
212.84	-416.667
213.22	533.333
213.59	-3500.000
213.97	290.000
214.34	800.000
214.72	1000.000
215.09	1033.333
215.47	-3500.000
215.84	-340.000
216.22	-362.500
216.59	0.000
216.97	0.000
217.34	1300.000
217.72	-1100.000
218.09	966.667
218.47	412.500
218.84	900.000
219.22	1000.000
219.59	966.667
219.97	428.571
220.34	344.444
220.72	1600.000
221.09	4400.000
221.47	258.333
221.84	933.333
222.22	380.000
222.59	244.444
222.97	207.143
223.34	231.250
223.72	-1900.000
224.09	1066.667
224.46	284.615
224.84	-975.000
225.21	322.222
225.59	300.000
225.96	1333.333
226.34	-820.000
226.71	-650.000
227.08	-420.000
227.46	0.000
227.83	-650.000
228.21	-1800.000
228.58	333.333
228.95	1050.000
229.33	377.778
229.70	1250.000
230.08	330.769
230.45	3000.000
230.82	-1150.000
231.20	-700.000
231.57	-666.667
231.95	540.000
232.32	300.000
232.69	433.333
233.07	375.000
233.44	-1600.000
233.81	173.333
234.19	188.889
234.56	175.000
234.93	241.176
235.31	185.000
235.68	237.500
236.05	150.000
236.43	155.556
236.80	185.714
237.17	162.069
237.55	128.125
237.92	105.000
238.29	151.515
238.67	140.625
239.04	102.439
239.41	89.583
239.79	100.000
240.16	91.667
240.53	70.492
240.91	69.565
241.28	71.186
241.65	72.727
242.02	80.282
242.40	60.000
242.77	65.934
243.14	58.228
243.51	71.717
243.89	57.944
244.26	60.748
244.63	62.376
245.00	56.881
245.38	42.373
245.75	53.030
246.12	59.259
246.49	48.227
246.87	49.180
247.24	56.000
247.61	44.375
247.98	55.102
248.36	50.303
248.73	51.020
249.10	45.833
249.47	45.000
249.84	41.791
250.22	49.189
250.59	41.000
250.96	39.241
251.33	40.000
251.70	46.875
252.08	40.336
252.45	44.622
252.82	36.502
253.19	39.921
253.56	36.923
253.94	36.594
254.31	40.698
254.68	42.509
255.05	39.310
255.42	41.241
255.79	39.739
256.16	37.627
256.54	34.416
256.91	40.850
257.28	37.793
257.65	34.169
258.02	38.643
258.39	40.401
258.76	37.101
259.14	32.857
259.51	36.443
259.88	36.778
260.25	34.341
260.62	37.808
260.99	34.435
261.36	35.376
261.73	34.043
262.10	37.696
262.47	34.500
262.85	34.933
263.22	37.018
263.59	36.829
263.96	34.336
264.33	32.840
264.70	38.329
265.07	35.854
265.44	33.716
265.81	35.613
266.18	35.927
266.55	33.333
266.92	34.228
267.29	33.772
267.66	31.614
268.03	32.063
268.40	32.770
268.77	33.260
269.14	31.887
269.51	34.076
269.88	34.694
270.25	31.749
270.62	29.399
270.99	32.454
271.36	32.520
271.73	32.075
272.10	30.101
272.47	30.754
272.84	30.938
273.21	32.025
273.58	32.389
273.95	32.854
274.32	31.323
274.69	32.677
275.06	32.787
275.43	31.034
275.80	30.189
276.17	28.676
276.54	29.159
276.91	34.328
277.28	29.745
277.65	29.705
278.02	32.904
278.39	31.115
278.76	28.448
279.13	30.605
279.50	30.182
279.87	28.492
280.23	29.650
280.60	30.839
280.97	28.448
281.34	30.693
281.71	32.696
282.08	31.624
282.45	30.236
282.82	31.271
283.19	30.843
283.56	30.248
283.92	31.759
284.29	31.115
284.66	29.748
285.03	31.675
285.40	30.744
285.77	29.321
286.14	29.567
286.51	28.988
286.87	28.639
287.24	29.129
287.61	28.723
287.98	31.343
288.35	29.481
288.72	29.590
289.08	29.129
289.45	29.268
289.82	30.469
290.19	28.551
290.56	29.985
290.93	29.209
291.29	29.972
291.66	29.096
292.03	28.612
292.40	29.133
292.77	29.944
293.13	30.100
293.50	28.475
293.87	27.778
294.24	28.951
294.60	31.090
294.97	31.748
295.34	29.349
295.71	30.355
296.08	30.533
296.44	29.860
296.81	30.769
297.18	28.517
297.55	31.404
297.91	29.187
298.28	30.072
298.65	30.061
299.02	31.001
299.38	28.777
299.75	30.976
300.12	30.390
300.48	30.913
300.85	31.108
301.22	29.535
301.59	30.425
301.95	28.588
302.32	31.315
302.69	30.090
303.05	31.425
303.42	29.484
303.79	30.119
304.15	30.363
304.52	29.493
304.89	30.490
305.25	30.145
305.62	30.384
305.99	30.000
306.35	30.947
306.72	31.426
307.09	30.849
307.45	29.778
307.82	30.761
308.19	31.959
308.55	30.700
308.92	32.777
309.29	31.755
309.65	32.507
310.02	31.643
310.38	32.303
310.75	30.955
311.12	30.364
311.48	30.985
311.85	31.870
312.22	33.429
312.58	31.778
312.95	31.942
313.31	31.648
313.68	31.989
314.05	32.234
314.41	32.309
314.78	33.902
315.14	31.848
315.51	33.207
315.87	33.212
316.24	34.454
316.61	33.393
316.97	32.202
317.34	34.681
317.70	33.011
318.07	33.897
318.43	33.128
318.80	33.975
319.16	33.566
319.53	33.097
319.89	33.961
320.26	36.778
320.62	35.440
320.99	35.844
321.35	34.508
321.72	37.002
322.08	35.919
322.45	36.512
322.81	37.328
323.18	37.478
323.54	39.199
323.91	39.710
324.27	39.876
324.64	39.273
325.00	40.172
325.37	39.123
325.73	41.821
326.10	41.508
326.46	42.031
326.83	40.560
327.19	42.169
327.56	41.534
327.92	42.951
328.29	44.190
328.65	45.120
329.01	43.713
329.38	43.824
329.74	42.955
330.11	42.485
330.47	43.393
330.84	42.882
331.20	44.839
331.56	44.128
331.93	44.654
332.29	42.857
332.66	44.133
333.02	42.784
333.38	43.019
333.75	44.704
334.11	43.960
334.48	44.017
334.84	41.892
335.20	44.568
335.57	43.157
335.93	44.155
336.29	43.118
336.66	44.082
337.02	42.344
337.38	42.132
337.75	42.230
338.11	42.869
338.47	43.184
338.84	42.676
339.20	42.424
339.56	43.314
339.93	42.977
340.29	42.017
340.65	43.001
341.02	42.961
341.38	42.939
341.74	43.023
342.11	43.322
342.47	42.494
342.83	42.166
343.20	42.361
343.56	41.144
343.92	42.444
344.28	42.743
344.65	43.439
345.01	41.032
345.37	41.506
345.73	42.619
346.10	41.514
346.46	42.903
346.82	42.130
347.19	40.958
347.55	41.140
347.91	40.483
348.27	41.208
348.63	40.506
349.00	41.584
349.36	41.167
349.72	40.596
350.08	42.081
350.45	41.203
350.81	42.431
351.17	41.140
351.53	41.493
351.89	41.414
352.26	41.345
352.62	40.121
352.98	41.641
353.34	42.681
353.70	38.991
354.07	40.692
354.43	41.244
354.79	41.230
355.15	42.190
355.51	39.577
355.87	40.964
356.24	40.724
356.60	40.259
356.96	39.651
357.32	40.090
357.68	40.455
358.04	40.653
358.40	41.154
358.77	42.900
359.13	40.465
359.49	40.252
359.85	40.730
360.21	40.416
360.57	40.073
360.93	39.971
361.29	40.404
361.66	40.940
362.02	39.631
362.38	40.332
362.74	39.561
363.10	40.252
363.46	39.227
363.82	39.621
364.18	39.260
364.54	40.415
364.90	40.094
365.26	39.903
365.62	40.055
365.98	39.092
366.35	38.207
366.71	40.250
367.07	39.932
367.43	39.422
367.79	39.694
368.15	38.195
368.51	40.868
368.87	39.402
369.23	39.085
369.59	39.042
369.95	40.909
370.31	39.083
370.67	39.070
371.03	39.636
371.39	39.335
371.75	39.707
372.11	39.497
372.47	39.726
372.83	40.449
373.19	39.479
373.55	39.244
373.91	38.536
374.27	38.558
374.63	39.458
374.99	39.286
375.35	39.449
375.71	40.106
376.07	40.186
376.42	38.619
376.78	40.013
377.14	39.777
377.50	37.890
377.86	39.142
378.22	38.026
378.58	39.165
378.94	39.167
379.30	38.811
379.66	38.952
380.02	40.293
380.38	37.998
380.74	38.466
381.09	38.084
381.45	37.861
381.81	38.180
382.17	37.668
382.53	38.512
382.89	38.675
383.25	38.011
383.61	37.291
383.97	37.852
384.32	38.577
384.68	39.572
385.04	38.042
385.40	37.841
385.76	37.098
386.12	38.652
386.48	39.453
386.83	38.998
387.19	37.456
387.55	38.104
387.91	38.453
388.27	38.073
388.62	37.852
388.98	38.134
389.34	37.180
389.70	37.913
390.06	38.659
390.42	38.680
390.77	37.899
391.13	37.296
391.49	37.931
391.85	38.092
392.20	37.485
392.56	37.993
392.92	37.170
393.28	36.435
393.64	36.353
393.99	37.759
394.35	36.433
394.71	36.550
395.07	37.287
395.42	36.710
395.78	38.556
396.14	38.253
396.50	37.064
396.85	37.134
397.21	36.643
397.57	37.537
397.92	36.222
398.28	37.562
398.64	36.707
399.00	36.077
399.35	36.715
399.71	36.534
400.07	36.701
400.42	36.478
400.78	37.009
401.14	35.819
401.49	36.751
401.85	36.385
402.21	36.028
402.57	36.804
402.92	36.788
403.28	36.038
403.63	35.962
403.99	37.515
404.35	37.163
404.70	37.153
405.06	34.643
405.42	36.984
405.77	36.439
406.13	35.304
406.49	35.532
406.84	35.533
407.20	36.130
407.55	36.923
407.91	37.205
408.27	35.658
408.62	35.600
408.98	35.482
409.34	35.652
409.69	35.843
410.05	35.361
410.40	35.807
410.76	35.890
411.11	35.545
411.47	35.556
411.83	34.271
412.18	35.990
412.54	35.916
412.89	35.575
413.25	36.317
413.60	35.222
413.96	36.146
414.31	34.238
414.67	36.251
415.03	35.121
415.38	35.647
415.74	35.186
416.09	35.978
416.45	37.492
416.80	36.754
417.16	34.564
417.51	35.732
417.87	35.670
418.22	35.905
418.58	35.860
418.93	36.050
419.29	35.120
419.64	35.373
420.00	35.740
420.35	35.540
420.71	35.064
421.06	35.903
421.42	36.327
421.77	35.369
422.12	35.667
422.48	34.412
422.83	35.603
423.19	34.395
423.54	35.326
423.90	35.617
424.25	36.048
424.61	35.984
424.96	35.799
425.31	36.125
425.67	36.027
426.02	36.063
426.38	35.473
426.73	35.801
427.09	35.231
427.44	35.003
427.79	35.963
428.15	37.183
428.50	35.429
428.85	36.214
429.21	35.656
429.56	35.793
429.92	35.256
430.27	35.704
430.62	34.851
430.98	35.629
431.33	34.577
431.68	34.568
432.04	36.524
432.39	36.828
432.74	36.710
433.10	36.656
433.45	36.818
433.80	37.783
434.16	34.682
434.51	35.655
434.86	36.418
435.22	37.061
435.57	36.277
435.92	36.426
436.28	36.060
436.63	35.927
436.98	37.725
437.34	37.100
437.69	35.442
438.04	35.699
438.39	36.427
438.75	36.247
439.10	36.481
439.45	36.461
439.81	37.710
440.16	37.259
440.51	37.500
440.86	37.379
441.22	36.201
441.57	36.693
441.92	36.278
442.27	36.443
442.63	35.976
442.98	36.853
443.33	37.225
443.68	37.374
444.03	36.664
444.39	36.629
444.74	36.128
445.09	37.230
445.44	37.035
445.79	36.745
446.15	36.000
446.50	36.656
446.85	36.504
447.20	36.368
447.55	37.303
447.91	38.199
448.26	37.487
448.61	37.866
448.96	37.800
449.31	37.019
449.66	38.483
450.02	36.629
450.37	37.757
450.72	38.953
451.07	37.987
451.42	38.174
451.77	37.228
452.12	37.663
452.47	38.882
452.83	37.972
453.18	38.919
453.53	38.425
453.88	38.343
454.23	38.873
454.58	37.413
454.93	38.013
455.28	38.739
455.63	38.061
455.98	37.733
456.34	38.663
456.69	38.293
457.04	37.351
457.39	37.200
457.74	38.063
458.09	38.125
458.44	38.719
458.79	37.719
459.14	37.098
459.49	37.656
459.84	37.772
460.19	38.249
460.54	39.601
460.89	38.220
461.24	38.603
461.59	38.265
461.94	38.475
462.29	39.016
462.64	37.814
462.99	39.859
463.34	38.561
463.69	38.838
464.04	38.515
464.39	38.351
464.74	37.397
465.09	37.261
465.44	37.867
465.79	38.323
466.14	37.202
466.49	37.927
466.84	38.350
467.19	38.489
467.54	37.417
467.89	38.263
468.24	38.043
468.59	38.512
468.94	39.674
469.29	38.241
469.64	37.878
469.99	38.817
470.34	39.279
470.68	40.345
471.03	39.026
471.38	40.861
471.73	40.105
472.08	40.117
472.43	39.665
472.78	38.860
473.13	38.235
473.48	39.120
473.83	38.457
474.17	39.210
474.52	39.336
474.87	38.147
475.22	39.349
475.57	38.772
475.92	39.295
476.27	37.758
476.61	38.928
476.96	38.819
477.31	39.434
477.66	40.365
478.01	38.938
478.36	38.980
478.70	38.462
479.05	38.285
479.40	38.988
479.75	38.630
480.10	38.577
480.45	37.955
480.79	37.742
481.14	39.039
481.49	37.511
481.84	38.478
482.19	37.948
482.53	37.769
482.88	38.262
483.23	38.926
483.58	38.510
483.92	38.711
484.27	37.842
484.62	37.394
484.97	37.203
485.31	36.379
485.66	34.765
486.01	33.203
486.36	32.484
486.70	32.698
487.05	33.766
487.40	34.758
487.75	35.425
488.09	35.937
488.44	36.393
488.79	36.654
489.13	37.253
489.48	37.635
489.83	37.531
490.17	37.572
490.52	38.243
490.87	38.707
491.22	38.564
491.56	38.252
491.91	39.875
492.26	39.065
492.60	39.499
492.95	39.601
493.30	38.626
493.64	38.769
493.99	38.685
494.34	38.324
494.68	38.468
495.03	39.380
495.37	39.757
495.72	39.580
496.07	39.263
496.41	38.141
496.76	39.046
497.11	38.817
497.45	38.886
497.80	38.462
498.14	39.205
498.49	38.487
498.84	40.187
499.18	38.803
499.53	39.274
499.87	38.904
500.22	39.245
500.56	39.694
500.91	40.445
501.26	39.688
501.60	38.707
501.95	39.113
502.29	38.133
502.64	38.156
502.98	38.506
503.33	38.797
503.67	38.631
504.02	38.558
504.36	38.914
504.71	39.593
505.06	39.465
505.40	39.401
505.75	38.307
506.09	39.851
506.44	39.380
506.78	40.643
507.13	40.378
507.47	39.641
507.82	40.584
508.16	39.637
508.51	39.903
508.85	38.841
509.19	39.990
509.54	39.160
509.88	41.074
510.23	39.412
510.57	39.141
510.92	40.310
511.26	39.408
511.61	39.143
511.95	39.821
512.30	39.350
512.64	40.395
512.98	39.262
513.33	39.242
513.67	41.222
514.02	40.104
514.36	40.602
514.70	40.960
515.05	40.490
515.39	41.721
515.74	40.787
516.08	40.959
516.42	42.732
516.77	40.853
517.11	41.067
517.46	40.948
517.80	40.907
518.14	42.366
518.49	41.235
518.83	40.330
519.17	41.431
519.52	40.852
519.86	41.417
520.20	41.370
520.55	41.549
520.89	42.299
521.23	41.530
521.58	41.939
521.92	41.866
522.26	41.055
522.61	43.791
522.95	42.943
523.29	42.164
523.64	41.676
523.98	42.723
524.32	40.657
524.66	41.971
525.01	42.071
525.35	41.956
525.69	42.264
526.04	42.951
526.38	42.672
526.72	42.243
527.06	40.686
527.41	42.382
527.75	41.753
528.09	41.963
528.43	42.282
528.78	42.039
529.12	42.866
529.46	40.620
529.80	40.421
530.15	42.015
530.49	41.937
530.83	42.474
531.17	42.005
531.51	40.956
531.86	41.244
532.20	41.780
532.54	41.745
532.88	41.349
533.22	41.438
533.57	41.794
533.91	39.977
534.25	40.392
534.59	41.170
534.93	40.216
535.27	40.068
535.62	40.082
535.96	39.716
536.30	41.865
536.64	41.056
536.98	42.731
537.32	41.500
537.66	40.689
538.01	41.362
538.35	40.487
538.69	39.199
539.03	40.858
539.37	40.231
539.71	41.173
540.05	40.246
540.39	41.321
540.73	40.633
541.07	39.523
541.42	40.858
541.76	41.245
542.10	39.581
542.44	40.524
542.78	40.151
543.12	39.816
543.46	40.100
543.80	40.789
544.14	39.381
544.48	40.633
544.82	40.245
545.16	40.194
545.50	39.889
545.84	40.909
546.18	42.588
546.52	40.852
546.86	40.361
547.20	39.535
547.54	40.279
547.88	39.720
548.22	38.919
548.56	39.599
548.90	38.731
549.24	40.114
549.58	40.593
549.92	39.817
550.26	40.500
550.60	40.253
550.94	41.452
551.28	42.276
551.62	41.724
551.96	39.595
552.30	40.145
552.64	40.453
552.98	39.369
553.32	39.949
553.66	40.586
554.00	39.189
554.34	40.413
554.68	40.927
555.02	41.005
555.36	39.628
555.69	39.594
556.03	40.000
556.37	40.408
556.71	41.330
557.05	39.187
557.39	39.533
557.73	41.644
558.07	41.382
558.41	41.056
558.75	41.108
559.08	42.459
559.42	42.305
559.76	41.910
560.10	40.330
560.44	39.881
560.78	40.601
561.12	39.479
561.45	38.861
561.79	38.826
562.13	39.672
562.47	39.130
562.81	40.208
563.15	40.465
563.48	38.075
563.82	40.299
564.16	39.055
564.50	38.517
564.84	38.541
565.17	39.156
565.51	39.655
565.85	38.988
566.19	39.048
566.52	39.049
566.86	38.237
567.20	37.865
567.54	38.155
567.88	37.402
568.21	37.094
568.55	36.187
568.89	35.858
569.23	34.685
569.56	33.746
569.90	32.699
570.24	32.777
570.57	32.252
570.91	32.137
571.25	31.257
571.59	30.654
571.92	30.436
572.26	30.755
572.60	31.325
572.93	31.484
573.27	31.246
573.61	30.292
573.95	30.279
574.28	30.368
574.62	29.250
574.96	28.865
575.29	28.866
575.63	29.494
575.97	29.479
576.30	29.436
576.64	29.385
576.98	29.719
577.31	29.854
577.65	29.404
577.98	28.844
578.32	28.459
578.66	28.869
578.99	29.180
579.33	29.364
579.67	29.610
580.00	29.466
580.34	28.990
580.67	28.770
581.01	29.493
581.35	27.967
581.68	27.957
582.02	27.276
582.35	27.740
582.69	27.947
583.02	28.116
583.36	28.834
583.70	29.583
584.03	30.276
584.37	29.960
584.70	29.261
585.04	29.003
585.37	29.013
585.71	29.326
586.04	28.804
586.38	29.351
586.72	29.858
587.05	30.005
587.39	29.305
587.72	29.593
588.06	29.178
588.39	29.324
588.73	29.420
589.06	30.347
589.40	31.205
589.73	30.908
590.07	31.194
590.40	31.359
590.73	32.281
591.07	32.372
591.40	32.655
591.74	32.346
592.07	32.404
592.41	31.894
592.74	31.710
593.08	30.339
593.41	30.192
593.75	29.868
594.08	30.089
594.41	30.368
594.75	30.719
595.08	30.898
595.42	31.172
595.75	30.438
596.09	30.900
596.42	31.173
596.75	31.851
597.09	32.563
597.42	32.327
597.75	31.440
598.09	30.735
598.42	31.865
598.76	31.072
599.09	31.078
599.42	30.035
599.76	30.427
600.09	30.339
600.42	30.318
600.76	30.252
601.09	30.790
601.42	29.567
601.76	31.221
602.09	31.236
602.42	30.536
602.76	30.702
603.09	31.259
603.42	30.936
603.76	29.935
604.09	30.547
604.42	30.885
604.76	31.331
605.09	31.388
605.42	32.101
605.75	31.267
606.09	30.375
606.42	30.966
606.75	30.781
607.09	31.149
607.42	30.695
607.75	30.932
608.08	30.707
608.42	31.669
608.75	31.536
609.08	31.544
609.41	33.136
609.75	32.326
610.08	32.194
610.41	31.269
610.74	31.472
611.07	32.469
611.41	31.650
611.74	32.744
612.07	33.719
612.40	33.480
612.73	32.351
613.07	32.945
613.40	33.534
613.73	33.100
614.06	32.300
614.39	33.333
614.72	32.697
615.06	32.245
615.39	32.970
615.72	32.381
616.05	33.651
616.38	33.080
616.71	33.532
617.05	32.619
617.38	33.596
617.71	34.364
618.04	32.361
618.37	33.463
618.70	34.007
619.03	33.822
619.36	34.925
619.69	34.763
620.03	37.312
620.36	35.902
620.69	35.888
621.02	36.481
621.35	36.605
621.68	36.578
622.01	37.196
622.34	36.052
622.67	37.289
623.00	35.807
623.33	36.302
623.66	34.930
623.99	35.548
624.32	36.518
624.65	35.550
624.99	36.038
625.32	36.072
625.65	35.448
625.98	36.053
626.31	37.908
626.64	37.661
626.97	37.950
627.30	38.121
627.63	38.462
627.96	37.559
628.29	38.696
628.62	39.264
628.95	40.426
629.28	41.104
629.61	39.631
629.94	38.721
630.26	40.468
630.59	40.337
630.92	40.090
631.25	40.254
