SpectraSuite Data File
++++++++++++++++++++++++++++++++++++
Date: Tue May 12 16:35:54 PDT 2015
User: schluterlab
Dark Spectrum Present: Yes
Reference Spectrum Present: Yes
Number of Sampled Component Spectra: 1
Spectrometers: USB2E3373
Integration Time (usec): 3000 (USB2E3373)
Spectra Averaged: 3 (USB2E3373)
Boxcar Smoothing: 0 (USB2E3373)
Correct for Electrical Dark: No (USB2E3373)
Strobe/Lamp Enabled: No (USB2E3373)
Correct for Detector Non-linearity: No (USB2E3373)
Correct for Stray Light: No (USB2E3373)
Number of Pixels in Processed Spectrum: 2048
>>>>>Begin Processed Spectral Data<<<<<
178.53	0.000
178.91	-266.667
179.29	-675.000
179.67	-3100.000
180.04	-86.667
180.42	525.000
180.80	1300.000
181.18	0.000
181.56	-300.000
181.94	0.000
182.31	1066.667
182.69	-3500.000
183.07	557.143
183.45	-3700.000
183.83	-1750.000
184.20	420.000
184.58	457.143
184.96	-223.077
185.34	-191.667
185.72	1300.000
186.09	-750.000
186.47	-2800.000
186.85	1166.667
187.23	480.000
187.61	1350.000
187.98	462.500
188.36	221.429
188.74	258.333
189.12	366.667
189.49	925.000
189.87	0.000
190.25	462.500
190.63	2200.000
191.00	-216.667
191.38	-3300.000
191.76	-825.000
192.14	525.000
192.51	-2400.000
192.89	1450.000
193.27	1066.667
193.65	-566.667
194.02	-640.000
194.40	514.286
194.78	-185.714
195.15	240.000
195.53	-2700.000
195.91	-400.000
196.29	3500.000
196.66	275.000
197.04	850.000
197.42	-1700.000
197.79	175.000
198.17	350.000
198.55	0.000
198.92	457.143
199.30	1100.000
199.68	1800.000
200.05	600.000
200.43	-516.667
200.81	194.444
201.18	2800.000
201.56	291.667
201.94	-650.000
202.31	-300.000
202.69	-660.000
203.07	4000.000
203.44	-466.667
203.82	300.000
204.19	580.000
204.57	-950.000
204.95	-825.000
205.32	-560.000
205.70	566.667
206.08	600.000
206.45	-600.000
206.83	322.222
207.20	136.842
207.58	275.000
207.96	600.000
208.33	0.000
208.71	585.714
209.08	640.000
209.46	-1700.000
209.84	-750.000
210.21	880.000
210.59	-620.000
210.96	316.667
211.34	-850.000
211.71	327.273
212.09	800.000
212.46	1250.000
212.84	-333.333
213.22	433.333
213.59	-3000.000
213.97	240.000
214.34	925.000
214.72	1000.000
215.09	1066.667
215.47	-2700.000
215.84	-370.000
216.22	-425.000
216.59	0.000
216.97	0.000
217.34	1900.000
217.72	-1250.000
218.09	1066.667
218.47	400.000
218.84	875.000
219.22	1233.333
219.59	1033.333
219.97	514.286
220.34	455.556
220.72	1300.000
221.09	2800.000
221.47	216.667
221.84	1033.333
222.22	340.000
222.59	233.333
222.97	171.429
223.34	206.250
223.72	-1600.000
224.09	1033.333
224.46	238.462
224.84	-650.000
225.21	433.333
225.59	233.333
225.96	966.667
226.34	-620.000
226.71	-775.000
227.08	-380.000
227.46	0.000
227.83	-583.333
228.21	-1750.000
228.58	350.000
228.95	1000.000
229.33	377.778
229.70	850.000
230.08	330.769
230.45	3400.000
230.82	-925.000
231.20	-500.000
231.57	-1200.000
231.95	440.000
232.32	325.000
232.69	533.333
233.07	258.333
233.44	-1550.000
233.81	233.333
234.19	148.148
234.56	156.250
234.93	152.941
235.31	180.000
235.68	212.500
236.05	146.429
236.43	114.815
236.80	200.000
237.17	117.241
237.55	93.750
237.92	95.000
238.29	112.121
238.67	118.750
239.04	87.805
239.41	60.417
239.79	77.500
240.16	77.083
240.53	62.295
240.91	55.072
241.28	55.932
241.65	40.909
242.02	50.704
242.40	55.714
242.77	39.560
243.14	20.253
243.51	33.333
243.89	28.037
244.26	16.822
244.63	22.772
245.00	30.275
245.38	26.271
245.75	29.545
246.12	25.185
246.49	24.823
246.87	18.852
247.24	18.000
247.61	26.875
247.98	23.129
248.36	15.758
248.73	22.959
249.10	17.262
249.47	20.000
249.84	16.418
250.22	14.054
250.59	13.500
250.96	20.253
251.33	14.419
251.70	18.304
252.08	15.966
252.45	15.139
252.82	11.407
253.19	12.648
253.56	12.692
253.94	13.043
254.31	9.690
254.68	12.892
255.05	13.103
255.42	12.409
255.79	9.446
256.16	12.542
256.54	11.364
256.91	11.438
257.28	11.037
257.65	5.956
258.02	10.324
258.39	10.602
258.76	11.884
259.14	6.857
259.51	10.787
259.88	9.422
260.25	7.692
260.62	8.219
260.99	7.713
261.36	10.306
261.73	6.915
262.10	9.686
262.47	8.250
262.85	6.133
263.22	6.427
263.59	9.719
263.96	8.271
264.33	8.148
264.70	9.337
265.07	9.024
265.44	8.716
265.81	8.019
266.18	8.009
266.55	4.492
266.92	5.593
267.29	7.456
267.66	4.036
268.03	6.278
268.40	8.034
268.77	7.489
269.14	6.941
269.51	6.013
269.88	7.755
270.25	3.888
270.62	7.296
270.99	8.114
271.36	7.520
271.73	5.660
272.10	5.657
272.47	5.952
272.84	5.788
273.21	6.405
273.58	6.073
273.95	5.955
274.32	6.809
274.69	8.071
275.06	8.379
275.43	7.088
275.80	6.038
276.17	6.066
276.54	7.850
276.91	6.343
277.28	5.474
277.65	7.380
278.02	7.353
278.39	6.475
278.76	6.897
279.13	5.694
279.50	6.545
279.87	6.518
280.23	3.683
280.60	4.015
280.97	5.345
281.34	5.281
281.71	5.391
282.08	6.154
282.45	5.236
282.82	5.184
283.19	7.313
283.56	4.628
283.92	4.397
284.29	4.160
284.66	5.378
285.03	5.141
285.40	5.620
285.77	4.167
286.14	7.430
286.51	7.362
286.87	5.696
287.24	3.904
287.61	5.775
287.98	6.418
288.35	5.778
288.72	5.615
289.08	4.204
289.45	7.317
289.82	5.313
290.19	6.003
290.56	6.259
290.93	4.173
291.29	4.696
291.66	4.379
292.03	5.470
292.40	7.453
292.77	5.014
293.13	6.562
293.50	5.938
293.87	5.285
294.24	5.035
294.60	6.595
294.97	6.993
295.34	5.046
295.71	6.307
296.08	6.533
296.44	6.480
296.81	5.707
297.18	5.957
297.55	6.281
297.91	6.034
298.28	7.729
298.65	6.380
299.02	6.634
299.38	6.475
299.75	6.098
300.12	7.225
300.48	8.080
300.85	6.675
301.22	7.093
301.59	6.958
301.95	7.235
302.32	7.451
302.69	6.109
303.05	8.193
303.42	6.839
303.79	7.476
304.15	6.381
304.52	6.342
304.89	7.569
305.25	7.898
305.62	8.742
305.99	6.848
306.35	8.211
306.72	7.700
307.09	8.075
307.45	7.392
307.82	7.510
308.19	8.041
308.55	7.500
308.92	8.832
309.29	8.679
309.65	8.821
310.02	8.012
310.38	8.275
310.75	8.390
311.12	9.004
311.48	9.653
311.85	8.588
312.22	8.883
312.58	8.844
312.95	8.641
313.31	10.019
313.68	9.756
314.05	10.165
314.41	9.311
314.78	9.848
315.14	10.521
315.51	11.069
315.87	10.128
316.24	10.551
316.61	11.370
316.97	9.358
317.34	11.321
317.70	10.799
318.07	11.477
318.43	12.302
318.80	12.172
319.16	12.413
319.53	11.858
319.89	12.366
320.26	13.315
320.62	12.821
320.99	12.393
321.35	12.338
321.72	14.326
322.08	13.573
322.45	13.806
322.81	13.358
323.18	13.854
323.54	15.244
323.91	15.956
324.27	15.915
324.64	14.965
325.00	15.776
325.37	16.695
325.73	16.442
326.10	17.481
326.46	17.176
326.83	15.440
327.19	17.912
327.56	17.013
327.92	18.443
328.29	18.985
328.65	19.349
329.01	18.392
329.38	19.712
329.74	18.873
330.11	19.896
330.47	19.949
330.84	19.068
331.20	19.882
331.56	20.984
331.93	20.359
332.29	19.388
332.66	20.408
333.02	19.330
333.38	20.942
333.75	20.350
334.11	20.050
334.48	20.085
334.84	20.355
335.20	19.247
335.57	20.235
335.93	20.690
336.29	19.983
336.66	20.497
337.02	20.103
337.38	20.550
337.75	20.270
338.11	20.928
338.47	19.983
338.84	20.660
339.20	19.394
339.56	19.092
339.93	20.819
340.29	18.067
340.65	19.950
341.02	19.630
341.38	19.622
341.74	19.934
342.11	19.533
342.47	19.278
342.83	20.180
343.20	19.644
343.56	19.778
343.92	18.580
344.28	20.494
344.65	19.397
345.01	19.683
345.37	18.269
345.73	18.889
346.10	19.203
346.46	19.617
346.82	18.056
347.19	19.243
347.55	18.033
347.91	19.260
348.27	17.351
348.63	19.304
349.00	18.583
349.36	17.977
349.72	19.648
350.08	18.711
350.45	19.650
350.81	19.648
351.17	18.336
351.53	18.322
351.89	18.959
352.26	17.838
352.62	19.306
352.98	18.558
353.34	19.414
353.70	18.272
354.07	18.538
354.43	18.280
354.79	17.540
355.15	18.683
355.51	18.051
355.87	19.051
356.24	19.400
356.60	17.580
356.96	18.347
357.32	19.141
357.68	19.090
358.04	18.921
358.40	19.115
358.77	19.309
359.13	18.468
359.49	17.643
359.85	18.094
360.21	17.459
360.57	17.956
360.93	18.615
361.29	18.038
361.66	19.389
362.02	17.685
362.38	18.254
362.74	18.330
363.10	18.654
363.46	17.680
363.82	18.864
364.18	18.065
364.54	18.312
364.90	18.675
365.26	19.015
365.62	17.610
365.98	18.513
366.35	17.379
366.71	18.737
367.07	17.270
367.43	17.663
367.79	18.285
368.15	17.368
368.51	17.298
368.87	17.799
369.23	18.365
369.59	17.397
369.95	18.112
370.31	16.838
370.67	18.598
371.03	18.067
371.39	17.659
371.75	18.074
372.11	18.219
372.47	19.110
372.83	18.083
373.19	18.300
373.55	18.557
373.91	16.298
374.27	17.526
374.63	18.102
374.99	17.520
375.35	17.339
375.71	18.668
376.07	18.037
376.42	17.008
376.78	18.626
377.14	17.824
377.50	17.291
377.86	16.400
378.22	17.489
378.58	19.007
378.94	18.226
379.30	18.072
379.66	17.580
380.02	17.947
380.38	16.745
380.74	18.512
381.09	17.874
381.45	16.936
381.81	17.021
382.17	17.460
382.53	18.236
382.89	17.504
383.25	17.348
383.61	17.867
383.97	17.457
384.32	16.817
384.68	17.766
385.04	18.464
385.40	16.963
385.76	16.852
386.12	16.945
386.48	16.900
386.83	17.543
387.19	17.609
387.55	17.727
387.91	18.072
388.27	17.252
388.62	17.077
388.98	17.026
389.34	16.657
389.70	17.099
390.06	16.707
390.42	16.656
390.77	17.322
391.13	17.079
391.49	16.999
391.85	17.477
392.20	17.402
392.56	17.921
392.92	16.508
393.28	16.928
393.64	17.259
393.99	17.783
394.35	15.951
394.71	16.466
395.07	16.788
395.42	16.862
395.78	17.767
396.14	18.193
396.50	17.148
396.85	17.561
397.21	16.185
397.57	17.274
397.92	16.464
398.28	16.492
398.64	17.219
399.00	17.210
399.35	16.640
399.71	16.667
400.07	16.610
400.42	17.015
400.78	16.950
401.14	17.499
401.49	16.993
401.85	16.744
402.21	16.169
402.57	16.876
402.92	16.061
403.28	16.050
403.63	16.480
403.99	16.888
404.35	17.233
404.70	15.653
405.06	16.002
405.42	16.397
405.77	16.538
406.13	16.757
406.49	14.952
406.84	15.567
407.20	17.009
407.55	16.615
407.91	16.273
408.27	16.374
408.62	17.150
408.98	16.381
409.34	16.306
409.69	16.179
410.05	16.339
410.40	15.253
410.76	16.085
411.11	16.055
411.47	16.296
411.83	15.641
412.18	16.002
412.54	16.637
412.89	16.106
413.25	16.705
413.60	15.012
413.96	16.038
414.31	15.643
414.67	16.884
415.03	16.539
415.38	15.331
415.74	15.793
416.09	16.240
416.45	16.807
416.80	16.998
417.16	15.213
417.51	16.178
417.87	15.519
418.22	15.553
418.58	15.223
418.93	15.645
419.29	15.588
419.64	15.566
420.00	16.169
420.35	15.157
420.71	15.869
421.06	15.774
421.42	16.120
421.77	16.102
422.12	15.711
422.48	15.819
422.83	15.402
423.19	15.713
423.54	15.414
423.90	16.025
424.25	15.575
424.61	15.322
424.96	14.963
425.31	15.982
425.67	15.825
426.02	15.760
426.38	15.928
426.73	16.426
427.09	15.896
427.44	16.151
427.79	15.437
428.15	16.912
428.50	16.171
428.85	15.814
429.21	16.261
429.56	15.404
429.92	15.912
430.27	15.578
430.62	15.712
430.98	16.018
431.33	15.978
431.68	14.716
432.04	14.951
432.39	16.465
432.74	15.632
433.10	16.279
433.45	16.025
433.80	17.044
434.16	16.027
434.51	16.202
434.86	16.494
435.22	15.235
435.57	15.649
435.92	16.392
436.28	16.993
436.63	16.261
436.98	17.005
437.34	16.039
437.69	15.789
438.04	16.882
438.39	17.104
438.75	15.367
439.10	15.920
439.45	15.659
439.81	16.599
440.16	16.291
440.51	15.709
440.86	16.752
441.22	15.476
441.57	16.325
441.92	16.634
442.27	15.619
442.63	15.752
442.98	15.787
443.33	15.640
443.68	16.600
444.03	15.975
444.39	15.819
444.74	16.460
445.09	16.430
445.44	15.728
445.79	15.838
446.15	16.316
446.50	16.034
446.85	16.335
447.20	15.871
447.55	15.769
447.91	17.208
448.26	16.134
448.61	16.418
448.96	16.394
449.31	16.502
449.66	16.501
450.02	15.937
450.37	16.435
450.72	16.088
451.07	16.579
451.42	16.775
451.77	17.640
452.12	17.187
452.47	17.011
452.83	16.282
453.18	16.817
453.53	16.992
453.88	16.971
454.23	17.897
454.58	16.142
454.93	17.290
455.28	16.952
455.63	17.021
455.98	16.808
456.34	16.535
456.69	16.585
457.04	16.587
457.39	16.743
457.74	16.441
458.09	15.722
458.44	16.320
458.79	16.817
459.14	16.148
459.49	16.195
459.84	16.250
460.19	16.949
460.54	17.151
460.89	16.471
461.24	15.979
461.59	16.893
461.94	16.608
462.29	16.076
462.64	17.085
462.99	16.251
463.34	17.369
463.69	17.241
464.04	17.156
464.39	16.943
464.74	16.178
465.09	16.483
465.44	16.649
465.79	15.841
466.14	16.004
466.49	16.007
466.84	16.834
467.19	17.750
467.54	15.856
467.89	16.315
468.24	15.808
468.59	15.952
468.94	16.787
469.29	16.066
469.64	16.527
469.99	17.159
470.34	15.939
470.68	17.103
471.03	17.211
471.38	16.556
471.73	17.178
472.08	17.221
472.43	16.387
472.78	16.901
473.13	15.144
473.48	17.421
473.83	16.667
474.17	17.021
474.52	15.699
474.87	15.691
475.22	16.048
475.57	16.369
475.92	16.198
476.27	15.832
476.61	16.568
476.96	16.040
477.31	16.504
477.66	17.445
478.01	16.091
478.36	15.757
478.70	16.526
479.05	15.743
479.40	15.625
479.75	16.981
480.10	16.505
480.45	15.966
480.79	16.267
481.14	15.216
481.49	15.416
481.84	16.183
482.19	16.550
482.53	16.074
482.88	15.860
483.23	15.246
483.58	16.203
483.92	16.545
484.27	15.668
484.62	15.832
484.97	15.388
485.31	14.789
485.66	14.338
486.01	13.839
486.36	13.609
486.70	13.530
487.05	13.909
487.40	14.530
487.75	14.575
488.09	14.773
488.44	14.500
488.79	15.064
489.13	14.856
489.48	15.461
489.83	15.513
490.17	16.020
490.52	15.719
490.87	15.862
491.22	16.312
491.56	15.810
491.91	15.278
492.26	15.768
492.60	15.854
492.95	15.406
493.30	15.605
493.64	15.499
493.99	16.011
494.34	15.912
494.68	15.405
495.03	16.300
495.37	16.434
495.72	16.550
496.07	16.442
496.41	15.812
496.76	15.618
497.11	15.853
497.45	15.651
497.80	16.172
498.14	15.626
498.49	16.017
498.84	16.215
499.18	15.174
499.53	15.296
499.87	15.094
500.22	16.306
500.56	15.599
500.91	16.790
501.26	15.388
501.60	15.619
501.95	15.412
502.29	16.489
502.64	15.262
502.98	14.896
503.33	15.546
503.67	15.673
504.02	15.226
504.36	15.430
504.71	15.563
505.06	15.861
505.40	15.676
505.75	15.622
506.09	15.679
506.44	15.602
506.78	15.879
507.13	16.190
507.47	15.381
507.82	15.961
508.16	16.414
508.51	15.942
508.85	15.764
509.19	15.663
509.54	15.967
509.88	16.211
510.23	15.833
510.57	15.444
510.92	15.235
511.26	16.114
511.61	15.805
511.95	16.526
512.30	15.850
512.64	15.472
512.98	15.428
513.33	16.189
513.67	16.209
514.02	15.688
514.36	15.524
514.70	15.787
515.05	15.237
515.39	16.009
515.74	16.402
516.08	16.340
516.42	16.448
516.77	15.947
517.11	16.107
517.46	16.218
517.80	16.111
518.14	16.338
518.49	15.380
518.83	15.604
519.17	16.417
519.52	16.057
519.86	17.057
520.20	16.438
520.55	16.563
520.89	15.632
521.23	16.297
521.58	15.835
521.92	15.510
522.26	16.114
522.61	16.637
522.95	16.276
523.29	15.906
523.64	16.243
523.98	16.843
524.32	16.148
524.66	15.768
525.01	16.272
525.35	16.264
525.69	16.556
526.04	16.776
526.38	16.127
526.72	16.229
527.06	15.908
527.41	16.808
527.75	16.677
528.09	14.931
528.43	16.351
528.78	15.802
529.12	15.533
529.46	16.131
529.80	15.946
530.15	16.559
530.49	15.162
530.83	15.539
531.17	16.175
531.51	16.677
531.86	16.486
532.20	16.255
532.54	15.505
532.88	15.865
533.22	16.027
533.57	16.473
533.91	14.744
534.25	15.291
534.59	15.848
534.93	15.586
535.27	14.456
535.62	15.169
535.96	15.071
536.30	16.271
536.64	15.342
536.98	15.481
537.32	15.688
537.66	15.434
538.01	16.037
538.35	16.032
538.69	14.806
539.03	15.672
539.37	14.806
539.71	15.000
540.05	15.200
540.39	16.289
540.73	15.696
541.07	14.366
541.42	15.734
541.76	16.338
542.10	15.906
542.44	15.898
542.78	15.356
543.12	15.031
543.46	15.539
543.80	15.351
544.14	16.037
544.48	14.781
544.82	15.841
545.16	14.997
545.50	15.550
545.84	16.162
546.18	16.255
546.52	16.590
546.86	15.925
547.20	15.568
547.54	15.579
547.88	14.294
548.22	15.968
548.56	15.027
548.90	15.718
549.24	15.856
549.58	15.786
549.92	16.176
550.26	14.875
550.60	15.968
550.94	16.757
551.28	16.414
551.62	15.931
551.96	15.541
552.30	15.096
552.64	15.987
552.98	14.691
553.32	15.685
553.66	14.984
554.00	15.315
554.34	15.912
554.68	14.583
555.02	15.479
555.36	14.894
555.69	15.576
556.03	15.796
556.37	14.850
556.71	15.971
557.05	14.482
557.39	15.467
557.73	16.375
558.07	15.023
558.41	14.668
558.75	15.937
559.08	16.583
559.42	15.032
559.76	15.039
560.10	14.659
560.44	14.599
560.78	15.857
561.12	15.067
561.45	14.518
561.79	14.295
562.13	15.035
562.47	15.769
562.81	14.314
563.15	14.803
563.48	14.161
563.82	15.845
564.16	15.361
564.50	14.587
564.84	14.103
565.17	15.211
565.51	15.148
565.85	14.682
566.19	15.417
566.52	13.899
566.86	14.361
567.20	14.888
567.54	14.138
567.88	13.772
568.21	13.380
568.55	13.813
568.89	14.051
569.23	12.899
569.56	12.939
569.90	12.720
570.24	12.743
570.57	12.492
570.91	12.637
571.25	12.040
571.59	12.267
571.92	11.868
572.26	11.671
572.60	11.858
572.93	12.220
573.27	11.775
573.61	11.749
573.95	11.529
574.28	11.779
574.62	11.062
574.96	11.370
575.29	11.048
575.63	11.260
575.97	11.052
576.30	11.263
576.64	11.092
576.98	11.029
577.31	11.624
577.65	11.141
577.98	10.872
578.32	10.888
578.66	11.120
578.99	11.160
579.33	11.592
579.67	10.939
580.00	11.098
580.34	11.287
580.67	11.253
581.01	11.389
581.35	10.952
581.68	10.741
582.02	10.820
582.35	10.457
582.69	11.057
583.02	10.842
583.36	10.757
583.70	11.229
584.03	11.832
584.37	11.358
584.70	11.023
585.04	10.826
585.37	10.798
585.71	11.213
586.04	11.259
586.38	11.013
586.72	11.120
587.05	11.580
587.39	11.075
587.72	11.442
588.06	11.075
588.39	11.208
588.73	11.550
589.06	11.789
589.40	11.581
589.73	11.439
590.07	11.874
590.40	11.986
590.73	12.596
591.07	12.827
591.40	11.537
591.74	11.729
592.07	11.606
592.41	12.350
592.74	11.571
593.08	11.100
593.41	10.802
593.75	11.274
594.08	11.210
594.41	11.632
594.75	11.473
595.08	11.557
595.42	11.784
595.75	11.978
596.09	11.644
596.42	11.326
596.75	12.260
597.09	11.969
597.42	11.388
597.75	11.805
598.09	12.023
598.42	11.465
598.76	11.989
599.09	11.990
599.42	11.107
599.76	11.703
600.09	11.390
600.42	11.464
600.76	11.115
601.09	11.253
601.42	11.651
601.76	11.171
602.09	11.295
602.42	11.349
602.76	11.537
603.09	11.652
603.42	11.450
603.76	11.352
604.09	11.183
604.42	11.337
604.76	11.576
605.09	11.959
605.42	11.377
605.75	11.449
606.09	11.400
606.42	11.762
606.75	11.426
607.09	11.962
607.42	11.330
607.75	11.306
608.08	11.454
608.42	11.829
608.75	11.040
609.08	11.395
609.41	11.818
609.75	11.630
610.08	11.466
610.41	11.594
610.74	11.818
611.07	12.142
611.41	11.909
611.74	11.616
612.07	12.187
612.40	12.086
612.73	11.682
613.07	12.468
613.40	11.830
613.73	11.982
614.06	11.850
614.39	12.475
614.72	12.104
615.06	11.622
615.39	11.931
615.72	11.762
616.05	12.155
616.38	11.872
616.71	11.720
617.05	12.136
617.38	11.573
617.71	11.924
618.04	12.731
618.37	11.618
618.70	12.587
619.03	12.332
619.36	13.128
619.69	12.533
620.03	13.242
620.36	12.845
620.69	13.155
621.02	12.704
621.35	12.679
621.68	13.348
622.01	14.022
622.34	13.110
622.67	12.921
623.00	13.547
623.33	12.955
623.66	12.774
623.99	12.123
624.32	12.331
624.65	12.837
624.99	12.508
625.32	12.558
625.65	12.483
625.98	12.762
626.31	12.389
626.64	12.528
626.97	12.242
627.30	13.276
627.63	13.422
627.96	12.363
628.29	12.954
628.62	13.345
628.95	13.741
629.28	14.110
629.61	14.236
629.94	14.520
630.26	13.951
630.59	14.273
630.92	14.350
631.25	14.687
631.58	14.368
631.91	14.938
632.24	13.508
632.57	13.752
632.90	14.700
633.23	15.530
633.56	14.331
633.89	15.434
634.22	15.608
634.55	13.978
