SpectraSuite Data File
++++++++++++++++++++++++++++++++++++
Date: Tue May 12 16:03:27 PDT 2015
User: schluterlab
Dark Spectrum Present: Yes
Reference Spectrum Present: Yes
Number of Sampled Component Spectra: 1
Spectrometers: USB2E3373
Integration Time (usec): 3000 (USB2E3373)
Spectra Averaged: 3 (USB2E3373)
Boxcar Smoothing: 0 (USB2E3373)
Correct for Electrical Dark: No (USB2E3373)
Strobe/Lamp Enabled: No (USB2E3373)
Correct for Detector Non-linearity: No (USB2E3373)
Correct for Stray Light: No (USB2E3373)
Number of Pixels in Processed Spectrum: 2048
>>>>>Begin Processed Spectral Data<<<<<
178.53	0.000
178.91	-216.667
179.29	-625.000
179.67	-3400.000
180.04	-213.333
180.42	550.000
180.80	1650.000
181.18	0.000
181.56	-312.500
181.94	0.000
182.31	1133.333
182.69	-2800.000
183.07	642.857
183.45	-4600.000
183.83	-2100.000
184.20	330.000
184.58	428.571
184.96	-207.692
185.34	-258.333
185.72	2100.000
186.09	-750.000
186.47	-3500.000
186.85	1166.667
187.23	700.000
187.61	1650.000
187.98	575.000
188.36	264.286
188.74	366.667
189.12	400.000
189.49	1000.000
189.87	0.000
190.25	525.000
190.63	3600.000
191.00	-225.000
191.38	-4200.000
191.76	-700.000
192.14	550.000
192.51	-2900.000
192.89	1550.000
193.27	1000.000
193.65	-1033.333
194.02	-780.000
194.40	571.429
194.78	-228.571
195.15	300.000
195.53	-3500.000
195.91	-520.000
196.29	5100.000
196.66	306.250
197.04	775.000
197.42	-1950.000
197.79	900.000
198.17	383.333
198.55	0.000
198.92	557.143
199.30	1300.000
199.68	2050.000
200.05	616.667
200.43	-466.667
200.81	255.556
201.18	3800.000
201.56	266.667
201.94	-900.000
202.31	-387.500
202.69	-480.000
203.07	2200.000
203.44	-466.667
203.82	316.667
204.19	720.000
204.57	-1600.000
204.95	-1025.000
205.32	-700.000
205.70	616.667
206.08	900.000
206.45	-1033.333
206.83	444.444
207.20	173.684
207.58	258.333
207.96	860.000
208.33	0.000
208.71	500.000
209.08	720.000
209.46	-2700.000
209.84	-975.000
210.21	940.000
210.59	-640.000
210.96	333.333
211.34	-1125.000
211.71	318.182
212.09	950.000
212.46	1950.000
212.84	-500.000
213.22	466.667
213.59	-3600.000
213.97	380.000
214.34	1050.000
214.72	1133.333
215.09	1166.667
215.47	-3200.000
215.84	-460.000
216.22	-387.500
216.59	0.000
216.97	0.000
217.34	1850.000
217.72	-1300.000
218.09	1400.000
218.47	487.500
218.84	950.000
219.22	1000.000
219.59	1333.333
219.97	542.857
220.34	500.000
220.72	1050.000
221.09	3300.000
221.47	208.333
221.84	1100.000
222.22	400.000
222.59	244.444
222.97	207.143
223.34	243.750
223.72	-1700.000
224.09	1566.667
224.46	300.000
224.84	-650.000
225.21	400.000
225.59	340.000
225.96	900.000
226.34	-680.000
226.71	-1075.000
227.08	-520.000
227.46	0.000
227.83	-533.333
228.21	-1400.000
228.58	391.667
228.95	925.000
229.33	322.222
229.70	1225.000
230.08	384.615
230.45	3600.000
230.82	-925.000
231.20	-1033.333
231.57	-1133.333
231.95	760.000
232.32	291.667
232.69	583.333
233.07	308.333
233.44	-2000.000
233.81	253.333
234.19	133.333
234.56	218.750
234.93	211.765
235.31	230.000
235.68	287.500
236.05	200.000
236.43	181.481
236.80	300.000
237.17	155.172
237.55	137.500
237.92	117.500
238.29	148.485
238.67	193.750
239.04	117.073
239.41	89.583
239.79	90.000
240.16	97.917
240.53	90.164
240.91	75.362
241.28	103.390
241.65	84.848
242.02	84.507
242.40	72.857
242.77	73.626
243.14	69.620
243.51	82.828
243.89	61.682
244.26	69.159
244.63	72.277
245.00	67.890
245.38	59.322
245.75	59.091
246.12	65.185
246.49	53.901
246.87	58.197
247.24	57.333
247.61	52.500
247.98	55.102
248.36	51.515
248.73	58.163
249.10	50.000
249.47	53.000
249.84	43.284
250.22	50.811
250.59	54.000
250.96	50.633
251.33	46.512
251.70	53.571
252.08	46.639
252.45	44.622
252.82	43.346
253.19	43.874
253.56	46.923
253.94	45.652
254.31	45.349
254.68	46.341
255.05	46.552
255.42	45.985
255.79	46.254
256.16	46.441
256.54	47.078
256.91	41.503
257.28	45.151
257.65	43.887
258.02	43.953
258.39	43.840
258.76	42.029
259.14	40.000
259.51	43.732
259.88	44.681
260.25	39.560
260.62	43.836
260.99	43.251
261.36	44.290
261.73	39.628
262.10	41.361
262.47	44.000
262.85	38.933
263.22	38.303
263.59	40.921
263.96	41.103
264.33	36.296
264.70	42.998
265.07	42.927
265.44	40.596
265.81	42.925
266.18	40.046
266.55	42.080
266.92	41.163
267.29	37.939
267.66	41.031
268.03	38.117
268.40	37.844
268.77	42.291
269.14	39.262
269.51	39.644
269.88	38.776
270.25	36.501
270.62	41.631
270.99	38.540
271.36	39.634
271.73	38.365
272.10	39.394
272.47	36.508
272.84	35.729
273.21	36.983
273.58	41.903
273.95	36.550
274.32	38.716
274.69	39.173
275.06	39.344
275.43	36.973
275.80	37.736
276.17	36.949
276.54	37.570
276.91	38.619
277.28	37.591
277.65	34.871
278.02	35.294
278.39	37.410
278.76	36.034
279.13	35.587
279.50	35.091
279.87	35.568
280.23	36.096
280.60	37.591
280.97	38.276
281.34	37.624
281.71	35.826
282.08	35.556
282.45	34.291
282.82	35.786
283.19	36.089
283.56	35.207
283.92	38.111
284.29	35.275
284.66	35.294
285.03	36.153
285.40	36.033
285.77	34.877
286.14	35.913
286.51	34.509
286.87	33.544
287.24	34.835
287.61	34.498
287.98	32.388
288.35	34.667
288.72	33.232
289.08	34.384
289.45	32.774
289.82	36.094
290.19	33.236
290.56	33.479
290.93	33.381
291.29	31.906
291.66	32.768
292.03	33.380
292.40	31.707
292.77	30.780
293.13	32.810
293.50	31.849
293.87	30.623
294.24	32.727
294.60	31.494
294.97	31.469
295.34	30.412
295.71	32.194
296.08	31.067
296.44	30.368
296.81	30.521
297.18	29.658
297.55	32.143
297.91	29.926
298.28	30.918
298.65	27.853
299.02	29.674
299.38	29.736
299.75	29.268
300.12	30.161
300.48	29.274
300.85	30.513
301.22	29.186
301.59	27.594
301.95	28.705
302.32	29.802
302.69	30.204
303.05	30.864
303.42	28.587
303.79	30.661
304.15	29.263
304.52	28.224
304.89	30.171
305.25	28.031
305.62	29.104
305.99	27.609
306.35	29.895
306.72	28.512
307.09	28.571
307.45	27.244
307.82	28.704
308.19	28.454
308.55	28.500
308.92	28.950
309.29	31.065
309.65	31.021
310.02	29.209
310.38	29.511
310.75	28.447
311.12	28.736
311.48	30.888
311.85	31.679
312.22	30.181
312.58	30.904
312.95	31.553
313.31	30.243
313.68	31.051
314.05	32.418
314.41	31.378
314.78	32.576
315.14	33.365
315.51	33.396
315.87	32.664
316.24	33.894
316.61	32.319
316.97	32.569
317.34	34.052
317.70	35.294
318.07	35.409
318.43	34.886
318.80	35.727
319.16	36.538
319.53	36.726
319.89	36.201
320.26	38.827
320.62	36.538
320.99	38.227
321.35	37.848
321.72	40.038
322.08	39.335
322.45	40.054
322.81	40.805
323.18	40.142
323.54	41.725
323.91	43.518
324.27	42.617
324.64	40.917
325.00	42.845
325.37	44.519
325.73	44.604
326.10	44.822
326.46	45.004
326.83	44.640
327.19	46.185
327.56	45.687
327.92	46.967
328.29	47.463
328.65	47.774
329.01	47.476
329.38	48.223
329.74	46.456
330.11	48.393
330.47	49.872
330.84	47.282
331.20	49.154
331.56	50.173
331.93	49.444
332.29	48.554
332.66	49.490
333.02	49.055
333.38	50.436
333.75	51.209
334.11	49.916
334.48	50.171
334.84	48.818
335.20	49.530
335.57	48.531
335.93	49.958
336.29	49.585
336.66	50.515
337.02	50.556
337.38	49.183
337.75	49.916
338.11	49.705
338.47	49.619
338.84	47.756
339.20	49.784
339.56	49.285
339.93	48.328
340.29	48.992
340.65	49.790
341.02	48.351
341.38	48.604
341.74	49.585
342.11	50.501
342.47	50.041
342.83	51.354
343.20	48.666
343.56	47.975
343.92	49.959
344.28	49.601
344.65	50.041
345.01	48.175
345.37	48.317
345.73	49.603
346.10	47.809
346.46	49.442
346.82	49.614
347.19	49.459
347.55	48.165
347.91	47.961
348.27	48.490
348.63	48.418
349.00	48.667
349.36	49.650
349.72	48.777
350.08	49.224
350.45	49.886
350.81	49.083
351.17	49.461
351.53	49.885
351.89	49.184
352.26	47.619
352.62	47.813
352.98	48.620
353.34	50.462
353.70	48.777
354.07	50.077
354.43	49.155
354.79	47.608
355.15	50.077
355.51	49.547
355.87	49.021
356.24	48.961
356.60	48.250
356.96	49.356
357.32	48.907
357.68	50.000
358.04	50.076
358.40	48.801
358.77	48.610
359.13	48.724
359.49	48.332
359.85	49.814
360.21	47.177
360.57	48.321
360.93	49.134
361.29	49.278
361.66	49.441
362.02	48.580
362.38	48.557
362.74	48.195
363.10	49.299
363.46	48.412
363.82	48.808
364.18	49.004
364.54	49.428
364.90	48.996
365.26	49.341
365.62	48.343
365.98	49.071
366.35	48.000
366.71	50.035
367.07	48.737
367.43	48.422
367.79	48.737
368.15	48.915
368.51	49.345
368.87	48.777
369.23	47.401
369.59	49.899
369.95	49.231
370.31	47.639
370.67	49.480
371.03	49.370
371.39	49.792
371.75	50.035
372.11	48.810
372.47	50.137
372.83	49.422
373.19	50.514
373.55	49.966
373.91	48.066
374.27	48.611
374.63	49.831
374.99	50.539
375.35	49.933
375.71	50.000
376.07	48.541
376.42	49.105
376.78	51.509
377.14	49.607
377.50	48.564
377.86	49.071
378.22	49.726
378.58	50.605
378.94	50.151
379.30	49.303
379.66	49.007
380.02	49.853
380.38	49.239
380.74	50.058
381.09	49.708
381.45	48.324
381.81	49.882
382.17	49.084
382.53	49.610
382.89	49.852
383.25	48.905
383.61	49.395
383.97	49.070
384.32	50.090
384.68	50.267
385.04	49.707
385.40	48.873
385.76	48.508
386.12	49.845
386.48	49.970
386.83	49.328
387.19	50.000
387.55	48.763
387.91	48.730
388.27	49.970
388.62	49.178
388.98	48.746
389.34	48.245
389.70	47.347
390.06	49.268
390.42	49.722
390.77	49.386
391.13	49.970
391.49	49.002
391.85	49.969
392.20	48.689
392.56	48.327
392.92	48.905
393.28	47.870
393.64	48.624
393.99	48.488
394.35	47.499
394.71	47.467
395.07	49.148
395.42	48.361
395.78	49.537
396.14	48.976
396.50	48.195
396.85	48.780
397.21	48.736
397.57	47.519
397.92	48.758
398.28	49.366
398.64	48.982
399.00	46.927
399.35	47.343
399.71	47.848
400.07	49.087
400.42	48.299
400.78	49.091
401.14	48.972
401.49	47.926
401.85	47.856
402.21	47.217
402.57	48.773
402.92	47.152
403.28	48.150
403.63	47.440
403.99	47.467
404.35	47.538
404.70	48.494
405.06	47.221
405.42	47.277
405.77	46.913
406.13	46.204
406.49	46.106
406.84	46.926
407.20	47.374
407.55	47.815
407.91	48.117
408.27	47.605
408.62	46.954
408.98	46.895
409.34	47.224
409.69	47.106
410.05	47.466
410.40	46.231
410.76	46.193
411.11	47.038
411.47	46.049
411.83	45.460
412.18	46.075
412.54	47.568
412.89	45.605
413.25	46.522
413.60	46.671
413.96	47.098
414.31	47.285
414.67	47.548
415.03	46.424
415.38	47.003
415.74	46.873
416.09	46.471
416.45	46.283
416.80	47.338
417.16	46.340
417.51	46.433
417.87	46.370
418.22	45.565
418.58	47.834
418.93	46.104
419.29	46.334
419.64	45.851
420.00	47.315
420.35	47.213
420.71	45.741
421.06	46.380
421.42	45.769
421.77	45.974
422.12	46.968
422.48	45.557
422.83	47.210
423.19	46.058
423.54	45.529
423.90	45.583
424.25	45.460
424.61	47.301
424.96	45.850
425.31	45.758
425.67	46.689
426.02	45.766
426.38	45.449
426.73	46.674
427.09	47.390
427.44	46.033
427.79	46.998
428.15	47.319
428.50	46.971
428.85	47.737
429.21	46.407
429.56	45.663
429.92	46.445
430.27	45.525
430.62	46.304
430.98	45.409
431.33	46.673
431.68	45.926
432.04	45.680
432.39	47.036
432.74	47.365
433.10	47.065
433.45	47.444
433.80	47.601
434.16	47.031
434.51	46.904
434.86	46.489
435.22	48.136
435.57	47.125
435.92	47.524
436.28	47.523
436.63	47.758
436.98	47.804
437.34	48.002
437.69	45.801
438.04	47.742
438.39	47.636
438.75	47.606
439.10	46.951
439.45	46.297
439.81	48.120
440.16	46.505
440.51	46.340
440.86	47.578
441.22	46.753
441.57	47.454
441.92	46.742
442.27	47.887
442.63	47.612
442.98	45.582
443.33	46.974
443.68	47.133
444.03	46.560
444.39	46.563
444.74	46.843
445.09	47.815
445.44	46.546
445.79	48.197
446.15	47.895
446.50	47.257
446.85	47.012
447.20	45.970
447.55	47.906
447.91	48.375
448.26	47.391
448.61	47.982
448.96	49.129
449.31	46.920
449.66	47.896
450.02	45.867
450.37	47.418
450.72	47.879
451.07	46.481
451.42	49.140
451.77	48.797
452.12	47.362
452.47	47.084
452.83	48.056
453.18	47.868
453.53	47.247
453.88	47.771
454.23	48.286
454.58	48.543
454.93	47.333
455.28	47.552
455.63	48.936
455.98	47.039
456.34	48.146
456.69	48.415
457.04	47.971
457.39	47.200
457.74	48.142
458.09	47.501
458.44	47.809
458.79	47.321
459.14	46.754
459.49	47.622
459.84	48.641
460.19	46.723
460.54	47.179
460.89	48.081
461.24	46.964
461.59	47.902
461.94	47.695
462.29	47.712
462.64	48.932
462.99	47.601
463.34	47.959
463.69	48.578
464.04	48.935
464.39	48.197
464.74	47.011
465.09	47.649
465.44	47.552
465.79	47.795
466.14	47.377
466.49	47.206
466.84	46.656
467.19	46.866
467.54	47.387
467.89	47.183
468.24	47.944
468.59	47.560
468.94	48.370
469.29	47.526
469.64	47.910
469.99	48.779
470.34	47.691
470.68	47.862
471.03	49.700
471.38	49.073
471.73	48.465
472.08	48.598
472.43	48.417
472.78	49.168
473.13	45.995
473.48	48.472
473.83	48.351
474.17	47.660
474.52	47.571
474.87	46.390
475.22	48.487
475.57	46.957
475.92	47.164
476.27	46.409
476.61	48.097
476.96	47.179
477.31	47.301
477.66	47.826
478.01	47.241
478.36	47.013
478.70	47.097
479.05	46.548
479.40	47.024
479.75	47.666
480.10	47.483
480.45	46.779
480.79	46.728
481.14	46.600
481.49	46.249
481.84	46.834
482.19	47.118
482.53	45.718
482.88	46.909
483.23	47.046
483.58	47.621
483.92	47.486
484.27	46.318
484.62	46.859
484.97	45.656
485.31	44.925
485.66	45.467
486.01	44.661
486.36	43.607
486.70	42.874
487.05	43.391
487.40	43.875
487.75	44.372
488.09	44.631
488.44	44.646
488.79	45.470
489.13	46.099
489.48	47.103
489.83	46.497
490.17	45.417
490.52	46.813
490.87	45.690
491.22	46.853
491.56	46.377
491.91	45.654
492.26	46.459
492.60	46.378
492.95	46.760
493.30	46.360
493.64	46.451
493.99	46.243
494.34	46.347
494.68	45.950
495.03	46.340
495.37	46.961
495.72	46.900
496.07	45.822
496.41	46.612
496.76	46.982
497.11	46.744
497.45	46.559
497.80	47.498
498.14	46.325
498.49	46.286
498.84	47.570
499.18	45.932
499.53	46.762
499.87	46.002
500.22	46.799
500.56	46.750
500.91	46.429
501.26	46.164
501.60	45.674
501.95	45.654
502.29	45.244
502.64	45.082
502.98	45.620
503.33	45.880
503.67	46.181
504.02	45.410
504.36	46.109
504.71	46.641
505.06	46.035
505.40	46.467
505.75	45.790
506.09	46.897
506.44	46.476
506.78	46.408
507.13	47.213
507.47	46.288
507.82	46.667
508.16	46.546
508.51	46.667
508.85	45.347
509.19	47.039
509.54	46.729
509.88	47.539
510.23	47.402
510.57	45.222
510.92	48.302
511.26	47.339
511.61	46.135
511.95	45.645
512.30	46.150
512.64	46.677
512.98	47.002
513.33	48.463
513.67	46.090
514.02	47.221
514.36	46.729
514.70	47.307
515.05	46.137
515.39	48.026
515.74	49.098
516.08	47.004
516.42	48.306
516.77	46.027
517.11	47.147
517.46	45.744
517.80	45.877
518.14	46.704
518.49	46.858
518.83	46.758
519.17	47.587
519.52	47.023
519.86	47.575
520.20	46.575
520.55	46.750
520.89	47.011
521.23	48.014
521.58	47.791
521.92	47.289
522.26	46.623
522.61	47.118
522.95	47.928
523.29	48.538
523.64	46.301
523.98	47.594
524.32	47.463
524.66	48.058
525.01	47.515
525.35	47.555
525.69	47.261
526.04	47.591
526.38	47.263
526.72	47.434
527.06	47.014
527.41	47.582
527.75	47.474
528.09	46.598
528.43	47.468
528.78	46.929
529.12	47.983
529.46	46.639
529.80	45.619
530.15	46.730
530.49	46.209
530.83	47.105
531.17	46.986
531.51	45.923
531.86	45.411
532.20	46.415
532.54	47.269
532.88	46.846
533.22	47.349
533.57	46.858
533.91	46.503
534.25	45.355
534.59	46.316
534.93	45.506
535.27	45.020
535.62	46.324
535.96	45.863
536.30	47.715
536.64	45.901
536.98	45.626
537.32	45.938
537.66	46.747
538.01	46.254
538.35	46.600
538.69	44.903
539.03	45.833
539.37	45.146
539.71	45.926
540.05	45.846
540.39	45.031
540.73	46.329
541.07	45.859
541.42	45.647
541.76	46.301
542.10	45.129
542.44	45.387
542.78	44.808
543.12	45.031
543.46	45.489
543.80	46.742
544.14	45.759
544.48	45.073
544.82	44.832
545.16	44.262
545.50	45.667
545.84	46.402
546.18	47.594
546.52	46.098
546.86	46.099
547.20	45.672
547.54	45.155
547.88	45.255
548.22	45.598
548.56	44.137
548.90	44.484
549.24	45.483
549.58	44.781
549.92	45.252
550.26	45.842
550.60	45.709
550.94	47.829
551.28	46.069
551.62	47.034
551.96	45.608
552.30	44.430
552.64	45.955
552.98	44.652
553.32	44.174
553.66	45.668
554.00	44.659
554.34	46.205
554.68	45.027
555.02	45.485
555.36	45.279
555.69	44.634
556.03	44.841
556.37	44.423
556.71	45.828
557.05	44.758
557.39	44.267
557.73	45.889
558.07	45.607
558.41	45.511
558.75	45.964
559.08	47.534
559.42	45.598
559.76	46.258
560.10	44.460
560.44	44.592
560.78	45.844
561.12	45.582
561.45	45.056
561.79	43.633
562.13	44.662
562.47	45.101
562.81	46.064
563.15	44.732
563.48	42.422
563.82	43.980
564.16	43.843
564.50	41.953
564.84	45.046
565.17	43.078
565.51	45.382
565.85	44.232
566.19	45.060
566.52	43.442
566.86	44.250
567.20	44.157
567.54	43.886
567.88	43.140
568.21	41.787
568.55	42.899
568.89	42.062
569.23	41.199
569.56	40.575
569.90	40.029
570.24	40.273
570.57	39.714
570.91	39.314
571.25	39.680
571.59	39.481
571.92	38.375
572.26	38.787
572.60	38.906
572.93	39.505
573.27	39.316
573.61	38.657
573.95	39.119
574.28	39.312
574.62	38.635
574.96	38.201
575.29	37.695
575.63	38.210
575.97	37.975
576.30	37.509
576.64	38.823
576.98	38.240
577.31	39.194
577.65	38.609
577.98	37.733
578.32	37.976
578.66	38.142
578.99	38.095
579.33	38.069
579.67	37.780
580.00	38.432
580.34	37.550
580.67	37.651
581.01	37.854
581.35	37.746
581.68	37.776
582.02	37.412
582.35	36.925
582.69	37.437
583.02	37.412
583.36	37.503
583.70	38.529
584.03	38.628
584.37	38.264
584.70	38.393
585.04	37.687
585.37	37.714
585.71	39.011
586.04	37.260
586.38	37.683
586.72	37.864
587.05	37.854
587.39	37.750
587.72	38.546
588.06	37.596
588.39	38.025
588.73	37.537
589.06	38.284
589.40	38.998
589.73	38.414
590.07	39.602
590.40	40.000
590.73	40.764
591.07	40.228
591.40	39.760
591.74	40.463
592.07	39.684
592.41	39.329
592.74	38.631
593.08	38.184
593.41	38.630
593.75	38.184
594.08	38.128
594.41	37.667
594.75	37.945
595.08	38.306
595.42	38.216
595.75	37.710
596.09	38.999
596.42	38.274
596.75	40.104
597.09	40.198
597.42	39.347
597.75	38.215
598.09	38.736
598.42	38.433
598.76	38.165
599.09	38.948
599.42	38.131
599.76	37.687
600.09	38.271
600.42	37.707
600.76	38.205
601.09	38.523
601.42	37.804
601.76	38.811
602.09	38.852
602.42	38.189
602.76	38.672
603.09	38.575
603.42	37.835
603.76	37.961
604.09	38.509
604.42	38.267
604.76	39.154
605.09	39.347
605.42	38.805
605.75	38.689
606.09	39.365
606.42	37.956
606.75	38.127
607.09	38.452
607.42	37.927
607.75	37.619
608.08	38.302
608.42	37.584
608.75	38.810
609.08	38.055
609.41	39.409
609.75	39.560
610.08	38.984
610.41	38.340
610.74	38.745
611.07	39.063
611.41	39.574
611.74	40.488
612.07	38.776
612.40	39.425
612.73	39.341
613.07	39.432
613.40	39.649
613.73	39.441
614.06	38.950
614.39	39.495
614.72	39.879
615.06	38.526
615.39	38.861
615.72	39.593
616.05	38.875
616.38	38.813
616.71	39.175
617.05	40.198
617.38	40.337
617.71	39.651
618.04	39.484
618.37	40.245
618.70	39.896
619.03	40.049
619.36	39.950
619.69	40.106
620.03	41.031
620.36	41.554
620.69	40.549
621.02	41.916
621.35	40.043
621.68	41.298
622.01	41.550
622.34	42.170
622.67	40.239
623.00	40.640
623.33	41.363
623.66	41.118
623.99	41.233
624.32	40.176
624.65	40.290
624.99	40.906
625.32	40.080
625.65	40.069
625.98	39.888
626.31	42.656
626.64	41.382
626.97	42.617
627.30	42.158
627.63	41.209
627.96	40.376
628.29	42.244
628.62	41.831
628.95	43.617
629.28	42.507
629.61	44.112
629.94	42.092
630.26	42.981
630.59	42.021
630.92	42.152
