SpectraSuite Data File
++++++++++++++++++++++++++++++++++++
Date: Tue May 12 15:22:38 PDT 2015
User: schluterlab
Dark Spectrum Present: Yes
Reference Spectrum Present: Yes
Number of Sampled Component Spectra: 1
Spectrometers: USB2E3373
Integration Time (usec): 3000 (USB2E3373)
Spectra Averaged: 3 (USB2E3373)
Boxcar Smoothing: 0 (USB2E3373)
Correct for Electrical Dark: No (USB2E3373)
Strobe/Lamp Enabled: No (USB2E3373)
Correct for Detector Non-linearity: No (USB2E3373)
Correct for Stray Light: No (USB2E3373)
Number of Pixels in Processed Spectrum: 2048
>>>>>Begin Processed Spectral Data<<<<<
178.53	0.000
178.91	-158.333
179.29	-825.000
179.67	-4000.000
180.04	-113.333
180.42	625.000
180.80	1550.000
181.18	0.000
181.56	-212.500
181.94	0.000
182.31	1000.000
182.69	-2600.000
183.07	585.714
183.45	-3900.000
183.83	-1650.000
184.20	290.000
184.58	414.286
184.96	-292.308
185.34	-141.667
185.72	1500.000
186.09	-775.000
186.47	-2900.000
186.85	666.667
187.23	460.000
187.61	1900.000
187.98	425.000
188.36	164.286
188.74	341.667
189.12	375.000
189.49	775.000
189.87	0.000
190.25	437.500
190.63	2400.000
191.00	-183.333
191.38	-3500.000
191.76	-775.000
192.14	512.500
192.51	-2200.000
192.89	2100.000
193.27	1166.667
193.65	-866.667
194.02	-680.000
194.40	600.000
194.78	-214.286
195.15	286.667
195.53	-3200.000
195.91	-620.000
196.29	3900.000
196.66	243.750
197.04	975.000
197.42	-1400.000
197.79	300.000
198.17	275.000
198.55	0.000
198.92	385.714
199.30	1133.333
199.68	1900.000
200.05	750.000
200.43	-383.333
200.81	183.333
201.18	2500.000
201.56	308.333
201.94	-850.000
202.31	-312.500
202.69	-380.000
203.07	2300.000
203.44	-533.333
203.82	291.667
204.19	660.000
204.57	-1250.000
204.95	-650.000
205.32	-920.000
205.70	650.000
206.08	750.000
206.45	-966.667
206.83	400.000
207.20	205.263
207.58	275.000
207.96	680.000
208.33	0.000
208.71	685.714
209.08	740.000
209.46	-3900.000
209.84	-700.000
210.21	780.000
210.59	-520.000
210.96	291.667
211.34	-1025.000
211.71	318.182
212.09	850.000
212.46	1750.000
212.84	-366.667
213.22	366.667
213.59	-2200.000
213.97	350.000
214.34	850.000
214.72	1333.333
215.09	966.667
215.47	-4100.000
215.84	-340.000
216.22	-250.000
216.59	0.000
216.97	0.000
217.34	1300.000
217.72	-1100.000
218.09	1133.333
218.47	400.000
218.84	900.000
219.22	1433.333
219.59	900.000
219.97	528.571
220.34	322.222
220.72	1400.000
221.09	2800.000
221.47	300.000
221.84	1000.000
222.22	300.000
222.59	183.333
222.97	192.857
223.34	237.500
223.72	-1450.000
224.09	1166.667
224.46	315.385
224.84	-925.000
225.21	411.111
225.59	280.000
225.96	1366.667
226.34	-680.000
226.71	-425.000
227.08	-640.000
227.46	0.000
227.83	-466.667
228.21	-1600.000
228.58	241.667
228.95	1050.000
229.33	300.000
229.70	975.000
230.08	307.692
230.45	2900.000
230.82	-875.000
231.20	-466.667
231.57	-1066.667
231.95	560.000
232.32	291.667
232.69	600.000
233.07	275.000
233.44	-1300.000
233.81	193.333
234.19	200.000
234.56	156.250
234.93	182.353
235.31	160.000
235.68	212.500
236.05	146.429
236.43	140.741
236.80	207.143
237.17	117.241
237.55	125.000
237.92	100.000
238.29	127.273
238.67	137.500
239.04	92.683
239.41	81.250
239.79	112.500
240.16	79.167
240.53	86.885
240.91	79.710
241.28	72.881
241.65	74.242
242.02	74.648
242.40	77.143
242.77	69.231
243.14	74.684
243.51	64.646
243.89	56.075
244.26	48.598
244.63	65.347
245.00	59.633
245.38	56.780
245.75	46.212
246.12	63.704
246.49	46.809
246.87	49.180
247.24	49.333
247.61	44.375
247.98	53.061
248.36	49.697
248.73	51.020
249.10	45.238
249.47	40.500
249.84	49.254
250.22	45.946
250.59	45.500
250.96	41.350
251.33	39.535
251.70	46.875
252.08	44.538
252.45	41.833
252.82	39.163
253.19	37.154
253.56	40.000
253.94	40.217
254.31	44.961
254.68	38.328
255.05	38.276
255.42	40.146
255.79	39.739
256.16	36.610
256.54	41.558
256.91	36.928
257.28	38.127
257.65	32.915
258.02	34.808
258.39	37.822
258.76	39.130
259.14	30.857
259.51	39.067
259.88	37.690
260.25	33.242
260.62	33.151
260.99	32.782
261.36	34.819
261.73	35.106
262.10	37.173
262.47	33.500
262.85	34.133
263.22	36.247
263.59	35.294
263.96	36.341
264.33	33.333
264.70	32.924
265.07	35.366
265.44	35.550
265.81	33.255
266.18	35.469
266.55	37.352
266.92	33.333
267.29	35.746
267.66	32.287
268.03	34.978
268.40	32.558
268.77	31.278
269.14	32.755
269.51	33.853
269.88	32.041
270.25	28.294
270.62	33.691
270.99	34.077
271.36	33.130
271.73	30.398
272.10	29.899
272.47	30.556
272.84	31.737
273.21	31.612
273.58	34.211
273.95	29.158
274.32	32.101
274.69	32.677
275.06	32.058
275.43	29.885
275.80	31.321
276.17	31.985
276.54	31.589
276.91	33.396
277.28	31.022
277.65	30.812
278.02	28.860
278.39	29.856
278.76	30.517
279.13	30.071
279.50	29.636
279.87	28.864
280.23	29.650
280.60	29.380
280.97	28.966
281.34	29.373
281.71	29.739
282.08	31.795
282.45	27.872
282.82	30.602
283.19	30.207
283.56	28.926
283.92	29.153
284.29	30.116
284.66	28.403
285.03	30.680
285.40	27.934
285.77	27.469
286.14	27.709
286.51	29.755
286.87	26.899
287.24	24.925
287.61	29.635
287.98	27.015
288.35	28.444
288.72	28.073
289.08	27.628
289.45	27.896
289.82	28.125
290.19	28.990
290.56	28.530
290.93	27.482
291.29	25.414
291.66	26.271
292.03	26.227
292.40	27.371
292.77	25.348
293.13	25.392
293.50	26.316
293.87	22.087
294.24	25.455
294.60	25.303
294.97	26.014
295.34	24.303
295.71	24.836
296.08	24.400
296.44	24.142
296.81	23.697
297.18	22.053
297.55	22.783
297.91	24.015
298.28	23.068
298.65	22.454
299.02	22.557
299.38	23.621
299.75	21.829
300.12	23.165
300.48	23.419
300.85	23.600
301.22	23.256
301.59	23.349
301.95	23.104
302.32	21.886
302.69	22.964
303.05	22.896
303.42	23.094
303.79	22.644
304.15	21.122
304.52	22.727
304.89	21.642
305.25	21.913
305.62	23.241
305.99	22.391
306.35	21.895
306.72	22.997
307.09	22.360
307.45	20.697
307.82	21.708
308.19	22.062
308.55	22.000
308.92	22.767
309.29	22.880
309.65	20.218
310.02	22.211
310.38	20.937
310.75	20.540
311.12	21.839
311.48	23.456
311.85	22.137
312.22	22.350
312.58	22.352
312.95	20.583
313.31	22.191
313.68	22.514
314.05	23.535
314.41	23.091
314.78	22.254
315.14	23.507
315.51	23.746
315.87	21.533
316.24	22.689
316.61	22.292
316.97	21.743
317.34	23.181
317.70	22.827
318.07	24.377
318.43	23.989
318.80	23.818
319.16	23.776
319.53	23.451
319.89	23.118
320.26	25.605
320.62	25.916
320.99	24.309
321.35	26.160
321.72	25.237
322.08	24.561
322.45	25.159
322.81	25.069
323.18	25.400
323.54	26.394
323.91	28.105
324.27	28.028
324.64	25.952
325.00	27.328
325.37	27.572
325.73	29.005
326.10	28.998
326.46	27.415
326.83	27.680
327.19	28.916
327.56	27.955
327.92	29.918
328.29	30.442
328.65	30.908
329.01	29.855
329.38	30.457
329.74	30.060
330.11	31.451
330.47	30.776
330.84	29.681
331.20	31.557
331.56	31.865
331.93	31.565
332.29	30.612
332.66	31.803
333.02	31.014
333.38	32.635
333.75	32.027
334.11	32.131
334.48	31.453
334.84	31.841
335.20	32.678
335.57	30.563
335.93	31.876
336.29	31.509
336.66	33.791
337.02	32.250
337.38	33.362
337.75	33.277
338.11	33.080
338.47	33.108
338.84	31.753
339.20	31.948
339.56	32.632
339.93	32.358
340.29	31.092
340.65	32.272
341.02	33.226
341.38	33.087
341.74	32.807
342.11	31.970
342.47	32.404
342.83	32.732
343.20	32.983
343.56	32.089
343.92	31.709
344.28	33.094
344.65	33.659
345.01	31.190
345.37	31.891
345.73	32.698
346.10	31.474
346.46	32.775
346.82	31.636
347.19	33.771
347.55	32.319
347.91	32.779
348.27	31.836
348.63	32.041
349.00	32.140
349.36	34.008
349.72	33.333
350.08	33.773
350.45	32.597
350.81	32.034
351.17	31.972
351.53	31.640
351.89	32.401
352.26	31.897
352.62	32.881
352.98	32.209
353.34	34.052
353.70	32.339
354.07	32.462
354.43	32.719
354.79	31.587
355.15	31.240
355.51	31.949
355.87	33.358
356.24	33.487
356.60	32.725
356.96	33.738
357.32	33.233
357.68	33.333
358.04	33.663
358.40	32.984
358.77	32.832
359.13	32.883
359.49	34.025
359.85	33.433
360.21	31.278
360.57	33.139
360.93	33.694
361.29	33.622
361.66	33.855
362.02	31.960
362.38	33.189
362.74	32.555
363.10	34.011
363.46	32.459
363.82	32.959
364.18	32.930
364.54	33.548
364.90	33.333
365.26	34.490
365.62	33.771
365.98	33.242
366.35	33.862
366.71	32.894
367.07	31.877
367.43	33.580
367.79	34.043
368.15	32.904
368.51	34.321
368.87	33.288
369.23	32.294
369.59	33.378
369.95	33.566
370.31	32.375
370.67	33.865
371.03	34.174
371.39	33.726
371.75	33.985
372.11	33.651
372.47	33.836
372.83	33.787
373.19	34.064
373.55	34.021
373.91	33.564
374.27	32.937
374.63	33.492
374.99	34.164
375.35	34.140
375.71	33.311
376.07	33.886
376.42	32.225
376.78	33.976
377.14	33.290
377.50	33.583
377.86	33.504
378.22	32.480
378.58	33.414
378.94	32.891
379.30	32.929
379.66	33.353
380.02	34.076
380.38	33.314
380.74	33.506
381.09	32.652
381.45	32.370
381.81	32.033
382.17	32.112
382.53	31.254
382.89	31.993
383.25	31.735
383.61	32.680
383.97	32.573
384.32	33.454
384.68	33.571
385.04	31.536
385.40	32.740
385.76	31.422
386.12	31.664
386.48	33.070
386.83	32.641
387.19	32.391
387.55	31.743
387.91	31.640
388.27	31.172
388.62	32.160
388.98	31.370
389.34	30.637
389.70	32.134
390.06	31.463
390.42	31.339
390.77	31.757
391.13	31.261
391.49	30.309
391.85	31.200
392.20	31.526
392.56	30.227
392.92	30.320
393.28	30.605
393.64	29.874
393.99	29.638
394.35	29.606
394.71	30.881
395.07	29.684
395.42	30.152
395.78	30.228
396.14	30.241
396.50	30.205
396.85	30.488
397.21	29.904
397.57	30.066
397.92	29.752
398.28	29.564
398.64	29.727
399.00	28.648
399.35	28.824
399.71	28.366
400.07	28.482
400.42	29.015
400.78	28.680
401.14	29.947
401.49	28.744
401.85	29.316
402.21	28.002
402.57	28.725
402.92	28.545
403.28	27.924
403.63	27.840
403.99	28.589
404.35	29.074
404.70	28.470
405.06	27.569
405.42	28.067
405.77	27.784
406.13	27.874
406.49	26.549
406.84	27.242
407.20	28.311
407.55	28.554
407.91	28.207
408.27	28.441
408.62	27.321
408.98	27.085
409.34	26.768
409.69	27.318
410.05	27.490
410.40	26.914
410.76	26.674
411.11	27.607
411.47	26.852
411.83	25.659
412.18	27.476
412.54	26.727
412.89	26.136
413.25	27.195
413.60	26.928
413.96	27.050
414.31	27.391
414.67	27.188
415.03	27.395
415.38	27.886
415.74	26.911
416.09	26.983
416.45	29.412
416.80	28.608
417.16	26.798
417.51	28.280
417.87	27.597
418.22	27.096
418.58	28.662
418.93	28.376
419.29	27.172
419.64	28.044
420.00	28.222
420.35	26.945
420.71	28.063
421.06	28.605
421.42	27.461
421.77	28.429
422.12	28.556
422.48	28.505
422.83	28.739
423.19	28.456
423.54	28.524
423.90	29.105
424.25	30.435
424.61	29.541
424.96	28.684
425.31	29.611
425.67	29.405
426.02	29.389
426.38	28.996
426.73	30.711
427.09	31.317
427.44	31.401
427.79	30.989
428.15	31.232
428.50	32.171
428.85	31.452
429.21	31.280
429.56	31.206
429.92	31.029
430.27	31.882
430.62	30.886
430.98	31.487
431.33	31.502
431.68	30.963
432.04	31.609
432.39	32.656
432.74	32.787
433.10	33.056
433.45	33.257
433.80	34.363
434.16	33.106
434.51	33.643
434.86	34.458
435.22	35.008
435.57	34.558
435.92	34.035
436.28	35.138
436.63	35.008
436.98	35.417
437.34	35.616
437.69	34.826
438.04	35.806
438.39	35.610
438.75	36.136
439.10	35.132
439.45	35.613
439.81	35.454
440.16	35.553
440.51	36.712
440.86	37.721
441.22	35.985
441.57	37.533
441.92	36.624
442.27	36.031
442.63	37.297
442.98	37.823
443.33	38.029
443.68	37.374
444.03	37.041
444.39	37.947
444.74	37.785
445.09	37.335
445.44	37.673
445.79	38.109
446.15	38.474
446.50	38.291
446.85	38.247
447.20	37.313
447.55	39.695
447.91	39.744
448.26	39.244
448.61	40.077
448.96	40.686
449.31	39.879
449.66	40.199
450.02	39.762
450.37	39.978
450.72	39.614
451.07	40.430
451.42	41.020
451.77	40.779
452.12	41.293
452.47	40.279
452.83	40.845
453.18	42.042
453.53	40.320
453.88	40.971
454.23	41.662
454.58	41.492
454.93	40.589
455.28	42.350
455.63	42.139
455.98	41.737
456.34	42.736
456.69	42.439
457.04	41.826
457.39	42.114
457.74	42.342
458.09	41.774
458.44	42.990
458.79	42.653
459.14	41.626
459.49	41.959
459.84	43.261
460.19	41.977
460.54	42.450
460.89	43.443
461.24	42.440
461.59	43.254
461.94	43.262
462.29	43.307
462.64	43.593
462.99	42.610
463.34	44.394
463.69	43.860
464.04	42.602
464.39	43.446
464.74	42.321
465.09	43.645
465.44	42.927
465.79	43.658
466.14	42.501
466.49	42.702
466.84	42.531
467.19	43.644
467.54	43.183
467.89	43.251
468.24	44.065
468.59	43.155
468.94	43.720
469.29	43.861
469.64	44.051
469.99	44.216
470.34	44.972
470.68	45.034
471.03	45.764
471.38	45.033
471.73	45.069
472.08	44.814
472.43	44.755
472.78	44.110
473.13	43.179
473.48	44.254
473.83	44.346
474.17	45.350
474.52	44.372
474.87	43.889
475.22	44.774
475.57	44.124
475.92	44.865
476.27	44.178
476.61	45.147
476.96	44.514
477.31	45.450
477.66	45.089
478.01	44.662
478.36	45.314
478.70	44.814
479.05	44.508
479.40	45.437
479.75	45.730
480.10	44.821
480.45	44.538
480.79	44.286
481.14	44.650
481.49	44.282
481.84	43.536
482.19	44.716
482.53	44.928
482.88	45.161
483.23	44.204
483.58	44.345
483.92	45.841
484.27	45.034
484.62	44.822
484.97	44.293
485.31	43.669
485.66	43.226
486.01	41.499
486.36	40.826
486.70	40.358
487.05	41.482
487.40	41.880
487.75	42.765
488.09	43.324
488.44	43.085
488.79	43.943
489.13	44.532
489.48	45.146
489.83	45.329
490.17	44.591
490.52	45.866
490.87	45.345
491.22	46.055
491.56	45.674
491.91	45.475
492.26	45.212
492.60	46.059
492.95	45.537
493.30	46.042
493.64	45.957
493.99	45.528
494.34	44.913
494.68	46.392
495.03	46.295
495.37	46.105
495.72	46.014
496.07	45.777
496.41	45.699
496.76	45.125
497.11	45.501
497.45	45.419
497.80	47.127
498.14	46.972
498.49	46.704
498.84	46.589
499.18	45.293
499.53	46.256
499.87	45.642
500.22	46.845
500.56	45.915
500.91	46.429
501.26	46.532
501.60	46.403
501.95	45.654
502.29	45.911
502.64	45.170
502.98	45.087
503.33	46.503
503.67	45.740
504.02	45.858
504.36	45.385
504.71	46.547
505.06	47.114
505.40	46.373
505.75	47.007
506.09	46.617
506.44	47.368
506.78	47.590
507.13	47.988
507.47	46.676
507.82	47.348
508.16	47.771
508.51	46.715
508.85	47.293
509.19	47.626
509.54	47.559
509.88	48.235
510.23	48.137
510.57	46.959
510.92	47.153
511.26	48.343
511.61	46.283
511.95	48.581
512.30	47.800
512.64	47.300
512.98	48.027
513.33	47.746
513.67	47.903
514.02	47.377
514.36	47.767
514.70	47.467
515.05	48.322
515.39	48.794
515.74	48.989
516.08	47.549
516.42	49.016
516.77	48.533
517.11	49.280
517.46	47.899
517.80	48.170
518.14	49.859
518.49	48.677
518.83	47.802
519.17	48.808
519.52	50.137
519.86	48.120
520.20	49.096
520.55	49.124
520.89	49.138
521.23	49.766
521.58	49.225
521.92	49.096
522.26	48.578
522.61	49.970
522.95	50.270
523.29	49.181
523.64	47.977
523.98	48.709
524.32	49.712
524.66	48.580
525.01	47.870
525.35	47.731
525.69	49.789
526.04	48.721
526.38	48.087
526.72	48.687
527.06	49.083
527.41	49.214
527.75	48.448
528.09	47.742
528.43	49.725
528.78	49.434
529.12	49.488
529.46	46.990
529.80	46.846
530.15	47.555
530.49	47.954
530.83	48.020
531.17	48.401
531.51	48.437
531.86	47.101
532.20	46.415
532.54	47.646
532.88	48.407
533.22	47.898
533.57	47.834
533.91	47.436
534.25	45.643
534.59	46.901
534.93	46.189
535.27	45.589
535.62	46.674
535.96	47.518
536.30	48.080
536.64	47.640
536.98	46.444
537.32	47.562
537.66	47.003
538.01	47.430
538.35	47.349
538.69	46.784
539.03	45.958
539.37	47.573
539.71	48.272
540.05	46.892
540.39	48.113
540.73	46.899
541.07	47.553
541.42	47.637
541.76	47.226
542.10	47.719
542.44	46.696
542.78	47.074
543.12	46.810
543.46	46.617
543.80	46.805
544.14	46.378
544.48	47.019
544.82	46.667
545.16	46.509
545.50	46.220
545.84	47.664
546.18	47.659
546.52	48.197
546.86	48.034
547.20	46.835
547.54	46.548
547.88	46.898
548.22	46.145
548.56	45.669
548.90	45.374
549.24	46.368
549.58	46.714
549.92	48.265
550.26	48.682
550.60	47.305
550.94	49.254
551.28	48.345
551.62	48.690
551.96	47.838
552.30	47.924
552.64	47.961
552.98	47.165
553.32	47.119
553.66	46.971
554.00	47.555
554.34	49.134
554.68	47.984
555.02	49.151
555.36	47.274
555.69	48.298
556.03	47.452
556.37	47.482
556.71	48.110
557.05	46.723
557.39	49.067
557.73	48.720
558.07	48.759
558.41	48.869
558.75	48.974
559.08	50.393
559.42	49.821
559.76	49.608
560.10	48.383
560.44	49.569
560.78	49.808
561.12	49.269
561.45	47.622
561.79	48.439
562.13	47.442
562.47	48.475
562.81	48.926
563.15	47.705
563.48	46.708
563.82	47.973
564.16	48.197
564.50	46.172
564.84	47.538
565.17	45.752
565.51	48.276
565.85	48.550
566.19	46.429
566.52	47.052
566.86	48.103
567.20	47.809
567.54	46.507
567.88	46.218
568.21	44.383
568.55	45.282
568.89	44.708
569.23	43.615
569.56	43.211
569.90	42.544
570.24	41.295
570.57	41.499
570.91	40.936
571.25	40.540
571.59	39.848
571.92	40.205
572.26	39.191
572.60	40.072
572.93	41.116
573.27	40.322
573.61	40.417
573.95	39.517
574.28	39.409
574.62	38.938
574.96	38.020
575.29	37.808
575.63	38.045
575.97	38.096
576.30	37.965
576.64	38.458
576.98	38.658
577.31	38.835
577.65	38.359
577.98	37.599
578.32	37.244
578.66	37.403
578.99	37.823
579.33	38.633
579.67	38.380
580.00	38.776
580.34	38.377
580.67	38.345
581.01	38.973
581.35	38.144
581.68	38.192
582.02	37.929
582.35	37.293
582.69	37.872
583.02	38.328
583.36	39.253
583.70	39.982
584.03	40.691
584.37	40.611
584.70	40.109
585.04	39.924
585.37	39.427
585.71	40.607
586.04	39.453
586.38	40.316
586.72	40.463
587.05	40.299
587.39	40.683
587.72	40.546
588.06	40.402
588.39	41.274
588.73	40.616
589.06	42.253
589.40	41.565
589.73	42.281
590.07	43.171
590.40	43.206
590.73	44.473
591.07	43.643
591.40	43.393
591.74	43.344
592.07	43.885
592.41	43.445
592.74	42.365
593.08	42.383
593.41	42.280
593.75	41.083
594.08	42.316
594.41	42.424
594.75	42.500
595.08	43.038
595.42	42.627
595.75	42.317
596.09	43.900
596.42	43.409
596.75	44.191
597.09	44.366
597.42	44.612
597.75	44.138
598.09	43.455
598.42	43.656
598.76	43.755
599.09	43.876
599.42	41.730
599.76	42.673
600.09	43.085
600.42	42.369
600.76	42.828
601.09	43.045
601.42	42.626
601.76	42.284
602.09	43.194
602.42	42.736
602.76	43.567
603.09	44.193
603.42	43.009
603.76	42.769
604.09	43.395
604.42	43.578
604.76	44.212
605.09	43.959
605.42	44.332
605.75	43.782
606.09	43.420
606.42	42.916
606.75	43.257
607.09	43.190
607.42	43.270
607.75	43.312
608.08	43.582
608.42	44.253
608.75	44.373
609.08	44.215
609.41	45.227
609.75	45.375
610.08	44.919
610.41	44.708
610.74	43.766
611.07	44.338
611.41	44.625
611.74	44.551
612.07	45.424
612.40	45.224
612.73	45.781
613.07	44.602
613.40	45.363
613.73	45.232
614.06	44.350
614.39	45.657
614.72	45.706
615.06	44.362
615.39	45.099
615.72	44.288
616.05	45.907
616.38	44.546
616.71	46.229
617.05	46.183
617.38	45.506
617.71	46.119
618.04	46.831
618.37	46.581
618.70	46.189
619.03	46.703
619.36	47.613
619.69	48.483
620.03	48.402
620.36	48.234
620.69	49.553
621.02	47.962
621.35	47.278
621.68	49.041
622.01	50.111
622.34	48.871
622.67	49.087
623.00	48.468
623.33	49.055
623.66	48.636
623.99	48.836
624.32	48.984
624.65	47.663
624.99	49.020
625.32	47.963
625.65	48.966
625.98	48.745
626.31	51.335
626.64	49.431
626.97	48.738
627.30	50.854
627.63	51.884
627.96	48.435
628.29	51.568
628.62	50.727
628.95	52.837
629.28	52.848
629.61	51.054
629.94	50.648
630.26	51.473
630.59	53.369
630.92	52.287
631.25	52.131
