SpectraSuite Data File
++++++++++++++++++++++++++++++++++++
Date: Wed May 13 21:50:11 PDT 2015
User: schluterlab
Dark Spectrum Present: Yes
Reference Spectrum Present: Yes
Number of Sampled Component Spectra: 1
Spectrometers: USB2E3373
Integration Time (usec): 3000 (USB2E3373)
Spectra Averaged: 3 (USB2E3373)
Boxcar Smoothing: 0 (USB2E3373)
Correct for Electrical Dark: No (USB2E3373)
Strobe/Lamp Enabled: No (USB2E3373)
Correct for Detector Non-linearity: No (USB2E3373)
Correct for Stray Light: No (USB2E3373)
Number of Pixels in Processed Spectrum: 2048
>>>>>Begin Processed Spectral Data<<<<<
178.53	0.000
178.91	650.000
179.29	200.000
179.67	-150.000
180.04	-633.333
180.42	140.000
180.80	1000.000
181.18	300.000
181.56	-300.000
181.94	-200.000
182.31	-81.818
182.69	107.692
183.07	-40.000
183.45	216.667
183.83	177.778
184.20	200.000
184.58	-100.000
184.96	533.333
185.34	314.286
185.72	0.000
186.09	-1700.000
186.47	-260.000
186.85	100.000
187.23	100.000
187.61	450.000
187.98	1000.000
188.36	-50.000
188.74	0.000
189.12	-72.727
189.49	30.000
189.87	100.000
190.25	340.000
190.63	1100.000
191.00	-340.000
191.38	260.000
191.76	450.000
192.14	150.000
192.51	-26.316
192.89	466.667
193.27	600.000
193.65	-120.000
194.02	163.636
194.40	60.000
194.78	-400.000
195.15	140.000
195.53	-100.000
195.91	12.500
196.29	-433.333
196.66	0.000
197.04	500.000
197.42	-140.000
197.79	-20.000
198.17	0.000
198.55	-766.667
198.92	425.000
199.30	-166.667
199.68	-40.000
200.05	500.000
200.43	133.333
200.81	-700.000
201.18	-60.000
201.56	-83.333
201.94	600.000
202.31	0.000
202.69	-128.571
203.07	-700.000
203.44	-260.000
203.82	-333.333
204.19	-10.000
204.57	0.000
204.95	-283.333
205.32	0.000
205.70	-350.000
206.08	-400.000
206.45	-300.000
206.83	200.000
207.20	-233.333
207.58	-100.000
207.96	-2300.000
208.33	28.571
208.71	-1700.000
209.08	250.000
209.46	475.000
209.84	0.000
210.21	190.000
210.59	1600.000
210.96	440.000
211.34	300.000
211.71	-400.000
212.09	-116.667
212.46	-170.000
212.84	-33.333
213.22	-200.000
213.59	-700.000
213.97	-800.000
214.34	-850.000
214.72	0.000
215.09	275.000
215.47	188.889
215.84	600.000
216.22	25.000
216.59	150.000
216.97	333.333
217.34	144.444
217.72	0.000
218.09	233.333
218.47	-1000.000
218.84	-185.714
219.22	-137.500
219.59	-200.000
219.97	-50.000
220.34	0.000
220.72	-100.000
221.09	0.000
221.47	-150.000
221.84	300.000
222.22	0.000
222.59	300.000
222.97	-333.333
223.34	-50.000
223.72	0.000
224.09	-200.000
224.46	-36.364
224.84	-62.500
225.21	-100.000
225.59	-375.000
225.96	-150.000
226.34	-80.000
226.71	-171.429
227.08	850.000
227.46	-75.000
227.83	0.000
228.21	-56.250
228.58	-275.000
228.95	-17.647
229.33	-25.000
229.70	-75.000
230.08	-53.846
230.45	-162.500
230.82	-66.667
231.20	342.857
231.57	-100.000
231.95	1000.000
232.32	0.000
232.69	-5.882
233.07	-1200.000
233.44	0.000
233.81	-650.000
234.19	20.833
234.56	-66.667
234.93	20.000
235.31	-42.105
235.68	-84.615
236.05	-30.769
236.43	-22.222
236.80	15.152
237.17	-53.333
237.55	-41.176
237.92	37.931
238.29	11.111
238.67	8.333
239.04	64.516
239.41	6.383
239.79	27.660
240.16	32.558
240.53	35.714
240.91	32.143
241.28	25.000
241.65	35.484
242.02	31.579
242.40	37.681
242.77	30.435
243.14	34.615
243.51	31.915
243.89	25.962
244.26	46.226
244.63	32.692
245.00	50.000
245.38	40.336
245.75	36.066
246.12	33.083
246.49	38.211
246.87	34.454
247.24	43.243
247.61	33.775
247.98	39.744
248.36	44.379
248.73	39.326
249.10	36.869
249.47	33.871
249.84	43.158
250.22	38.806
250.59	40.187
250.96	41.364
251.33	34.928
251.70	39.749
252.08	39.749
252.45	40.741
252.82	37.262
253.19	38.132
253.56	39.928
253.94	44.128
254.31	42.606
254.68	43.624
255.05	41.584
255.42	41.958
255.79	43.558
256.16	39.432
256.54	44.444
256.91	39.557
257.28	44.340
257.65	41.720
258.02	43.695
258.39	42.982
258.76	40.698
259.14	42.898
259.51	41.011
259.88	40.650
260.25	43.889
260.62	42.135
260.99	38.992
261.36	43.782
261.73	39.506
262.10	39.949
262.47	42.469
262.85	40.547
263.22	46.923
263.59	41.299
263.96	43.066
264.33	40.865
264.70	45.116
265.07	43.287
265.44	43.678
265.81	42.105
266.18	43.736
266.55	43.886
266.92	41.737
267.29	39.712
267.66	41.401
268.03	42.593
268.40	39.831
268.77	40.496
269.14	42.857
269.51	44.559
269.88	41.141
270.25	44.492
270.62	40.369
270.99	40.945
271.36	42.857
271.73	42.570
272.10	43.619
272.47	40.883
272.84	41.732
273.21	39.922
273.58	45.697
273.95	38.113
274.32	40.672
274.69	39.344
275.06	39.046
275.43	40.678
275.80	39.539
276.17	39.411
276.54	39.254
276.91	38.850
277.28	40.614
277.65	40.385
278.02	38.750
278.39	41.208
278.76	39.967
279.13	41.166
279.50	38.966
279.87	40.580
280.23	40.360
280.60	39.446
280.97	39.286
281.34	39.117
281.71	38.211
282.08	38.120
282.45	38.852
282.82	40.895
283.19	39.939
283.56	40.469
283.92	40.367
284.29	40.718
284.66	41.516
285.03	37.134
285.40	38.520
285.77	42.643
286.14	38.754
286.51	39.880
286.87	38.000
287.24	40.118
287.61	39.608
287.98	38.971
288.35	37.258
288.72	38.451
289.08	39.316
289.45	38.179
289.82	38.427
290.19	36.886
290.56	36.932
290.93	36.050
291.29	35.294
291.66	36.475
292.03	35.967
292.40	35.128
292.77	34.270
293.13	34.868
293.50	35.425
293.87	37.467
294.24	35.979
294.60	34.460
294.97	36.111
295.34	32.718
295.71	34.297
296.08	32.853
296.44	33.291
296.81	32.765
297.18	32.875
297.55	32.311
297.91	33.043
298.28	33.051
298.65	32.635
299.02	34.799
299.38	32.761
299.75	31.851
300.12	31.977
300.48	30.994
300.85	32.217
301.22	31.940
301.59	31.455
301.95	32.172
302.32	32.089
302.69	30.621
303.05	32.780
303.42	31.477
303.79	31.020
304.15	32.311
304.52	33.763
304.89	31.783
305.25	32.602
305.62	32.430
305.99	30.141
306.35	32.497
306.72	31.434
307.09	32.221
307.45	32.055
307.82	31.263
308.19	31.034
308.55	33.367
308.92	32.220
309.29	31.532
309.65	31.469
310.02	32.306
310.38	32.419
310.75	32.051
311.12	32.070
311.48	31.355
311.85	31.791
312.22	34.333
312.58	32.657
312.95	33.831
313.31	32.691
313.68	34.447
314.05	33.837
314.41	33.910
314.78	35.484
315.14	33.981
315.51	35.680
315.87	36.052
316.24	35.537
316.61	35.890
316.97	36.111
317.34	36.185
317.70	36.931
318.07	38.598
318.43	38.392
318.80	38.482
319.16	38.815
319.53	37.276
319.89	38.663
320.26	40.018
320.62	40.130
320.99	42.054
321.35	38.915
321.72	41.193
322.08	39.391
322.45	42.183
322.81	42.791
323.18	42.129
323.54	44.495
323.91	43.360
324.27	44.374
324.64	43.380
325.00	44.269
325.37	43.601
325.73	44.276
326.10	45.332
326.46	44.482
326.83	46.036
327.19	46.098
327.56	47.220
327.92	46.420
328.29	49.082
328.65	48.817
329.01	48.901
329.38	50.609
329.74	47.811
330.11	50.045
330.47	47.830
330.84	49.188
331.20	49.103
331.56	49.457
331.93	49.354
332.29	50.391
332.66	47.881
333.02	49.783
333.38	50.789
333.75	48.464
334.11	50.608
334.48	50.654
334.84	50.000
335.20	49.914
335.57	48.825
335.93	50.773
336.29	51.401
336.66	49.145
337.02	50.522
337.38	48.651
337.75	48.751
338.11	48.676
338.47	49.743
338.84	48.883
339.20	50.705
339.56	49.147
339.93	50.389
340.29	48.762
340.65	48.503
341.02	50.416
341.38	50.591
341.74	50.000
342.11	49.628
342.47	49.121
342.83	50.245
343.20	50.592
343.56	49.959
343.92	49.066
344.28	50.812
344.65	50.122
345.01	49.233
345.37	50.987
345.73	52.533
346.10	50.722
346.46	48.862
346.82	50.642
347.19	49.209
347.55	50.242
347.91	50.896
348.27	51.104
348.63	51.603
349.00	48.664
349.36	50.471
349.72	49.652
350.08	49.922
350.45	51.449
350.81	50.391
351.17	49.192
351.53	50.275
351.89	49.801
352.26	49.807
352.62	50.388
352.98	50.319
353.34	50.564
353.70	50.545
354.07	49.804
354.43	50.544
354.79	52.404
355.15	50.854
355.51	51.253
355.87	51.446
356.24	50.401
356.60	51.290
356.96	50.422
357.32	50.851
357.68	51.490
358.04	51.901
358.40	50.930
358.77	50.612
359.13	51.362
359.49	50.795
359.85	50.872
360.21	50.810
360.57	51.407
360.93	51.973
361.29	52.406
361.66	51.253
362.02	50.778
362.38	51.329
362.74	51.632
363.10	51.555
363.46	51.945
363.82	51.885
364.18	52.647
364.54	51.641
364.90	51.080
365.26	51.875
365.62	50.923
365.98	50.961
366.35	51.844
366.71	51.213
367.07	52.020
367.43	52.334
367.79	52.884
368.15	52.461
368.51	51.195
368.87	53.105
369.23	51.459
369.59	50.810
369.95	51.451
370.31	52.301
370.67	52.571
371.03	52.784
371.39	52.307
371.75	52.929
372.11	52.493
372.47	53.136
372.83	51.803
373.19	53.813
373.55	53.540
373.91	52.687
374.27	51.936
374.63	53.414
374.99	53.064
375.35	52.329
375.71	52.378
376.07	52.844
376.42	52.941
376.78	53.236
377.14	55.051
377.50	53.259
377.86	54.382
378.22	52.402
378.58	53.342
378.94	53.813
379.30	53.342
379.66	53.761
380.02	52.941
380.38	52.470
380.74	53.497
381.09	53.378
381.45	53.144
381.81	53.666
382.17	52.363
382.53	53.292
382.89	52.774
383.25	53.272
383.61	53.874
383.97	53.312
384.32	53.623
384.68	54.534
385.04	51.924
385.40	54.296
385.76	52.311
386.12	55.584
386.48	53.730
386.83	53.630
387.19	53.979
387.55	53.832
387.91	54.859
388.27	53.206
388.62	54.682
388.98	54.568
389.34	53.822
389.70	53.663
390.06	52.500
390.42	53.995
390.77	52.787
391.13	54.356
391.49	52.119
391.85	53.355
392.20	54.511
392.56	54.984
392.92	54.359
393.28	53.225
393.64	54.679
393.99	51.591
394.35	54.630
394.71	53.590
395.07	51.887
395.42	54.235
395.78	52.510
396.14	53.519
396.50	54.027
396.85	54.621
397.21	52.247
397.57	52.422
397.92	52.934
398.28	52.792
398.64	52.763
399.00	53.404
399.35	53.575
399.71	53.640
400.07	53.253
400.42	53.292
400.78	51.964
401.14	53.219
401.49	52.247
401.85	54.423
402.21	52.817
402.57	52.851
402.92	53.066
403.28	53.033
403.63	52.759
403.99	53.359
404.35	53.429
404.70	51.843
405.06	53.259
405.42	53.204
405.77	53.168
406.13	51.543
406.49	53.325
406.84	51.587
407.20	51.983
407.55	53.831
407.91	52.151
408.27	51.279
408.62	53.407
408.98	51.541
409.34	51.609
409.69	53.476
410.05	52.612
410.40	51.856
410.76	53.309
411.11	52.799
411.47	54.944
411.83	52.402
412.18	52.582
412.54	53.759
412.89	52.476
413.25	51.563
413.60	53.417
413.96	52.871
414.31	53.514
414.67	53.714
415.03	53.180
415.38	52.312
415.74	53.281
416.09	53.734
416.45	53.657
416.80	51.879
417.16	53.441
417.51	52.378
417.87	54.365
418.22	52.553
418.58	52.628
418.93	53.358
419.29	54.455
419.64	54.008
420.00	54.349
420.35	53.078
420.71	52.468
421.06	54.305
421.42	54.866
421.77	54.798
422.12	53.926
422.48	53.653
422.83	54.873
423.19	55.147
423.54	54.417
423.90	53.682
424.25	54.188
424.61	54.405
424.96	53.933
425.31	54.066
425.67	53.968
426.02	55.006
426.38	55.473
426.73	54.673
427.09	54.221
427.44	54.727
427.79	55.998
428.15	54.985
428.50	55.408
428.85	55.535
429.21	55.037
429.56	56.270
429.92	54.815
430.27	56.084
430.62	55.614
430.98	55.791
431.33	55.615
431.68	56.496
432.04	57.296
432.39	55.600
432.74	56.223
433.10	56.479
433.45	56.982
433.80	56.264
434.16	56.745
434.51	55.978
434.86	56.655
435.22	57.046
435.57	55.344
435.92	58.504
436.28	54.895
436.63	57.159
436.98	57.403
437.34	58.364
437.69	56.612
438.04	55.008
438.39	57.721
438.75	57.271
439.10	57.837
439.45	57.869
439.81	57.697
440.16	57.681
440.51	57.134
440.86	57.084
441.22	58.577
441.57	57.321
441.92	57.491
442.27	58.171
442.63	57.481
442.98	58.218
443.33	58.916
443.68	57.143
444.03	57.576
444.39	59.048
444.74	58.200
445.09	58.866
445.44	59.155
445.79	58.854
446.15	57.737
446.50	58.425
446.85	59.754
447.20	59.488
447.55	58.646
447.91	58.820
448.26	58.376
448.61	59.379
448.96	59.396
449.31	58.481
449.66	58.762
450.02	57.931
450.37	60.223
450.72	58.324
451.07	59.749
451.42	58.266
451.77	59.586
452.12	57.457
452.47	59.458
452.83	58.726
453.18	59.644
453.53	60.214
453.88	58.313
454.23	59.518
454.58	59.191
454.93	59.140
455.28	58.767
455.63	59.888
455.98	60.438
456.34	58.423
456.69	58.466
457.04	58.824
457.39	58.689
457.74	59.186
458.09	60.190
458.44	59.694
458.79	57.990
459.14	58.876
459.49	59.451
459.84	57.497
460.19	58.343
460.54	58.637
460.89	59.797
461.24	58.878
461.59	59.300
461.94	58.976
462.29	59.743
462.64	60.884
462.99	58.685
463.34	59.599
463.69	59.794
464.04	57.623
464.39	59.610
464.74	59.398
465.09	58.524
465.44	58.810
465.79	59.517
466.14	59.407
466.49	60.352
466.84	58.338
467.19	59.936
467.54	59.365
467.89	59.334
468.24	58.636
468.59	59.720
468.94	59.004
469.29	60.344
469.64	58.717
469.99	61.724
470.34	58.867
470.68	58.364
471.03	59.379
471.38	58.484
471.73	59.191
472.08	60.481
472.43	60.026
472.78	59.364
473.13	57.916
473.48	58.447
473.83	58.945
474.17	59.375
474.52	59.547
474.87	59.349
475.22	59.360
475.57	59.119
475.92	58.506
476.27	59.091
476.61	58.550
476.96	59.680
477.31	58.522
477.66	59.266
478.01	58.956
478.36	58.801
478.70	59.613
479.05	60.377
479.40	58.242
479.75	59.936
480.10	57.573
480.45	59.490
480.79	58.586
481.14	59.524
481.49	58.658
481.84	58.200
482.19	57.897
482.53	58.857
482.88	58.293
483.23	58.855
483.58	58.365
483.92	59.387
484.27	57.548
484.62	57.967
484.97	59.063
485.31	58.830
485.66	56.245
486.01	57.086
486.36	57.173
486.70	57.591
487.05	59.394
487.40	58.434
487.75	58.513
488.09	57.679
488.44	57.939
488.79	59.387
489.13	57.177
489.48	58.658
489.83	58.151
490.17	57.830
490.52	59.187
490.87	57.904
491.22	58.596
491.56	60.326
491.91	58.761
492.26	58.559
492.60	58.105
492.95	57.677
493.30	56.783
493.64	57.314
493.99	58.889
494.34	58.382
494.68	58.138
495.03	59.042
495.37	57.859
495.72	58.446
496.07	59.279
496.41	57.183
496.76	58.318
497.11	57.277
497.45	58.414
497.80	59.566
498.14	58.892
498.49	58.548
498.84	58.401
499.18	58.785
499.53	59.183
499.87	57.108
500.22	59.980
500.56	57.773
500.91	57.948
501.26	58.276
501.60	57.696
501.95	57.547
502.29	57.816
502.64	58.245
502.98	57.900
503.33	59.027
503.67	57.692
504.02	57.843
504.36	58.593
504.71	58.181
505.06	59.348
505.40	59.485
505.75	58.698
506.09	58.355
506.44	59.677
506.78	58.151
507.13	58.004
507.47	58.696
507.82	58.817
508.16	59.631
508.51	57.386
508.85	58.683
509.19	58.413
509.54	58.016
509.88	58.280
510.23	58.000
510.57	59.746
510.92	58.675
511.26	58.526
511.61	58.452
511.95	58.986
512.30	58.301
512.64	59.818
512.98	57.119
513.33	58.535
513.67	58.603
514.02	59.236
514.36	58.202
514.70	59.065
515.05	59.801
515.39	58.962
515.74	59.443
516.08	58.820
516.42	58.237
516.77	58.934
517.11	59.671
517.46	60.384
517.80	60.956
518.14	59.706
518.49	59.072
518.83	59.368
519.17	58.313
519.52	60.374
519.86	59.684
520.20	58.945
520.55	58.147
520.89	58.507
521.23	60.769
521.58	58.217
521.92	59.397
522.26	58.816
522.61	60.116
522.95	58.484
523.29	59.111
523.64	58.932
523.98	59.085
524.32	59.546
524.66	58.636
525.01	60.813
525.35	59.052
525.69	60.437
526.04	58.502
526.38	59.528
526.72	58.909
527.06	58.930
527.41	58.173
527.75	57.877
528.09	59.769
528.43	60.176
528.78	58.463
529.12	59.832
529.46	59.885
529.80	60.259
530.15	58.687
530.49	60.782
530.83	59.648
531.17	60.205
531.51	58.125
531.86	58.469
532.20	58.994
532.54	59.586
532.88	59.224
533.22	59.865
533.57	59.404
533.91	59.097
534.25	59.570
534.59	57.593
534.93	60.204
535.27	58.662
535.62	58.553
535.96	58.556
536.30	59.907
536.64	59.945
536.98	58.234
537.32	58.790
537.66	59.450
538.01	56.935
538.35	57.735
538.69	57.726
539.03	57.785
539.37	57.009
539.71	59.004
540.05	57.895
540.39	57.743
540.73	58.380
541.07	57.483
541.42	57.172
541.76	58.254
542.10	56.804
542.44	58.420
542.78	57.876
543.12	58.491
543.46	57.498
543.80	58.045
544.14	60.289
544.48	56.868
544.82	57.297
545.16	57.268
545.50	58.744
545.84	57.083
546.18	56.802
546.52	57.163
546.86	56.961
547.20	57.541
547.54	59.828
547.88	58.435
548.22	58.111
548.56	57.705
548.90	57.578
549.24	58.125
549.58	56.441
549.92	58.841
550.26	59.114
550.60	58.634
550.94	58.657
551.28	57.305
551.62	57.820
551.96	57.467
552.30	59.243
552.64	57.627
552.98	59.659
553.32	59.697
553.66	60.235
554.00	57.955
554.34	59.414
554.68	59.657
555.02	58.608
555.36	60.136
555.69	59.359
556.03	59.328
556.37	58.037
556.71	57.744
557.05	58.672
557.39	57.950
557.73	59.758
558.07	57.573
558.41	57.911
558.75	58.814
559.08	58.460
559.42	60.976
559.76	58.104
560.10	60.799
560.44	60.059
560.78	59.496
561.12	58.655
561.45	58.912
561.79	58.735
562.13	59.001
562.47	58.000
562.81	58.947
563.15	58.286
563.48	57.605
563.82	57.934
564.16	57.346
564.50	57.938
564.84	57.703
565.17	58.411
565.51	57.754
565.85	57.295
566.19	58.675
566.52	58.257
566.86	57.585
567.20	58.033
567.54	56.477
567.88	57.335
568.21	56.545
568.55	57.277
568.89	56.231
569.23	55.500
569.56	55.987
569.90	55.943
570.24	55.379
570.57	55.408
570.91	56.092
571.25	55.446
571.59	54.991
571.92	54.855
572.26	56.400
572.60	55.621
572.93	55.983
573.27	54.631
573.61	55.802
573.95	54.865
574.28	55.427
574.62	54.653
574.96	55.340
575.29	55.140
575.63	54.742
575.97	55.190
576.30	55.039
576.64	54.991
576.98	56.181
577.31	55.013
577.65	54.142
577.98	55.928
578.32	54.148
578.66	55.809
578.99	55.117
579.33	55.472
579.67	55.932
580.00	55.602
580.34	55.041
580.67	55.708
581.01	54.431
581.35	54.936
581.68	55.139
582.02	55.622
582.35	56.358
582.69	55.845
583.02	55.073
583.36	56.042
583.70	56.248
584.03	56.430
584.37	55.328
584.70	55.553
585.04	55.879
585.37	55.966
585.71	55.306
586.04	56.216
586.38	55.880
586.72	56.420
587.05	57.248
587.39	56.150
587.72	56.676
588.06	56.224
588.39	56.395
588.73	56.258
589.06	57.549
589.40	56.553
589.73	55.587
590.07	56.617
590.40	57.478
590.73	57.374
591.07	57.209
591.40	56.826
591.74	56.959
592.07	57.873
592.41	58.001
592.74	56.790
593.08	56.410
593.41	57.290
593.75	56.331
594.08	58.066
594.41	57.587
594.75	57.234
595.08	58.215
595.42	56.764
595.75	57.592
596.09	57.198
596.42	57.353
596.75	57.262
597.09	57.734
597.42	58.367
597.75	57.600
598.09	57.741
598.42	58.076
598.76	57.053
599.09	58.543
599.42	57.213
599.76	56.816
600.09	57.191
600.42	57.439
600.76	56.541
601.09	57.439
601.42	57.428
601.76	57.104
602.09	58.127
602.42	58.110
602.76	58.012
603.09	59.138
603.42	57.137
603.76	57.755
604.09	57.352
604.42	57.304
604.76	58.926
605.09	59.266
605.42	59.694
605.75	57.259
606.09	56.664
606.42	58.105
606.75	57.186
607.09	58.466
607.42	57.180
607.75	57.856
608.08	59.197
608.42	58.529
608.75	59.054
609.08	58.354
609.41	58.619
609.75	57.943
610.08	58.087
610.41	59.572
610.74	58.470
611.07	56.363
611.41	59.519
611.74	58.437
612.07	56.696
612.40	58.541
612.73	58.013
613.07	58.537
613.40	59.196
613.73	58.722
614.06	58.485
614.39	58.477
614.72	58.745
615.06	59.056
615.39	58.885
615.72	58.531
616.05	58.615
616.38	59.622
616.71	59.268
617.05	60.012
617.38	58.657
617.71	59.375
618.04	59.110
618.37	59.054
618.70	59.702
619.03	59.313
619.36	59.359
619.69	59.357
620.03	58.728
620.36	58.316
620.69	59.600
621.02	59.308
621.35	59.199
621.68	59.739
622.01	59.547
622.34	59.873
622.67	60.454
623.00	59.650
623.33	61.032
623.66	59.108
623.99	60.315
624.32	58.694
624.65	61.424
624.99	60.397
625.32	60.568
625.65	59.457
625.98	61.137
626.31	60.163
626.64	59.845
626.97	60.813
627.30	59.025
627.63	59.862
627.96	58.528
628.29	62.512
628.62	62.282
628.95	60.521
629.28	62.660
629.61	60.478
629.94	61.412
630.26	60.690
630.59	60.939
630.92	60.442
631.25	58.702
631.58	62.206
631.91	60.233
632.24	60.483
632.57	62.556
