SpectraSuite Data File
++++++++++++++++++++++++++++++++++++
Date: Tue May 12 16:40:27 PDT 2015
User: schluterlab
Dark Spectrum Present: Yes
Reference Spectrum Present: Yes
Number of Sampled Component Spectra: 1
Spectrometers: USB2E3373
Integration Time (usec): 3000 (USB2E3373)
Spectra Averaged: 3 (USB2E3373)
Boxcar Smoothing: 0 (USB2E3373)
Correct for Electrical Dark: No (USB2E3373)
Strobe/Lamp Enabled: No (USB2E3373)
Correct for Detector Non-linearity: No (USB2E3373)
Correct for Stray Light: No (USB2E3373)
Number of Pixels in Processed Spectrum: 2048
>>>>>Begin Processed Spectral Data<<<<<
178.53	0.000
178.91	-191.667
179.29	-450.000
179.67	-3200.000
180.04	-160.000
180.42	525.000
180.80	1600.000
181.18	0.000
181.56	-312.500
181.94	0.000
182.31	966.667
182.69	-3700.000
183.07	628.571
183.45	-3800.000
183.83	-2000.000
184.20	310.000
184.58	500.000
184.96	-238.462
185.34	-191.667
185.72	1600.000
186.09	-975.000
186.47	-2300.000
186.85	766.667
187.23	640.000
187.61	1550.000
187.98	412.500
188.36	300.000
188.74	300.000
189.12	275.000
189.49	800.000
189.87	0.000
190.25	512.500
190.63	2900.000
191.00	-200.000
191.38	-2800.000
191.76	-575.000
192.14	475.000
192.51	-2900.000
192.89	1850.000
193.27	866.667
193.65	-1166.667
194.02	-580.000
194.40	485.714
194.78	-214.286
195.15	266.667
195.53	-2400.000
195.91	-520.000
196.29	3200.000
196.66	268.750
197.04	825.000
197.42	-1450.000
197.79	400.000
198.17	341.667
198.55	0.000
198.92	357.143
199.30	1000.000
199.68	1700.000
200.05	716.667
200.43	-366.667
200.81	188.889
201.18	2600.000
201.56	225.000
201.94	-600.000
202.31	-375.000
202.69	-520.000
203.07	3400.000
203.44	-366.667
203.82	308.333
204.19	540.000
204.57	-1200.000
204.95	-800.000
205.32	-880.000
205.70	433.333
206.08	675.000
206.45	-900.000
206.83	333.333
207.20	189.474
207.58	291.667
207.96	740.000
208.33	0.000
208.71	600.000
209.08	480.000
209.46	-2000.000
209.84	-875.000
210.21	980.000
210.59	-700.000
210.96	350.000
211.34	-825.000
211.71	327.273
212.09	800.000
212.46	1550.000
212.84	-333.333
213.22	388.889
213.59	-2900.000
213.97	320.000
214.34	875.000
214.72	1033.333
215.09	800.000
215.47	-4000.000
215.84	-370.000
216.22	-337.500
216.59	0.000
216.97	0.000
217.34	1300.000
217.72	-1900.000
218.09	1700.000
218.47	412.500
218.84	650.000
219.22	1266.667
219.59	700.000
219.97	628.571
220.34	344.444
220.72	1800.000
221.09	2000.000
221.47	225.000
221.84	966.667
222.22	370.000
222.59	238.889
222.97	264.286
223.34	243.750
223.72	-1900.000
224.09	1533.333
224.46	230.769
224.84	-825.000
225.21	433.333
225.59	193.333
225.96	1533.333
226.34	-660.000
226.71	-650.000
227.08	-680.000
227.46	0.000
227.83	-533.333
228.21	-1450.000
228.58	408.333
228.95	875.000
229.33	244.444
229.70	975.000
230.08	407.692
230.45	3500.000
230.82	-850.000
231.20	-700.000
231.57	-1066.667
231.95	440.000
232.32	316.667
232.69	633.333
233.07	200.000
233.44	-1400.000
233.81	320.000
234.19	177.778
234.56	243.750
234.93	211.765
235.31	225.000
235.68	206.250
236.05	160.714
236.43	151.852
236.80	221.429
237.17	155.172
237.55	131.250
237.92	120.000
238.29	118.182
238.67	134.375
239.04	131.707
239.41	89.583
239.79	100.000
240.16	110.417
240.53	77.049
240.91	88.406
241.28	93.220
241.65	86.364
242.02	83.099
242.40	80.000
242.77	72.527
243.14	81.013
243.51	83.838
243.89	70.093
244.26	65.421
244.63	72.277
245.00	69.725
245.38	60.169
245.75	57.576
246.12	66.667
246.49	63.830
246.87	66.393
247.24	68.000
247.61	56.875
247.98	62.585
248.36	56.364
248.73	62.245
249.10	58.333
249.47	51.000
249.84	58.209
250.22	60.000
250.59	56.000
250.96	55.696
251.33	53.488
251.70	54.911
252.08	51.681
252.45	47.809
252.82	48.669
253.19	46.640
253.56	51.923
253.94	50.000
254.31	52.713
254.68	50.523
255.05	48.621
255.42	55.474
255.79	45.928
256.16	49.153
256.54	50.325
256.91	50.327
257.28	51.171
257.65	46.708
258.02	46.018
258.39	47.851
258.76	48.696
259.14	44.286
259.51	50.729
259.88	48.632
260.25	43.681
260.62	48.219
260.99	45.730
261.36	49.025
261.73	49.734
262.10	46.859
262.47	44.750
262.85	45.067
263.22	47.301
263.59	46.803
263.96	47.118
264.33	43.210
264.70	45.946
265.07	45.366
265.44	44.954
265.81	47.170
266.18	46.911
266.55	44.917
266.92	46.085
267.29	44.518
267.66	47.534
268.03	43.274
268.40	43.129
268.77	43.612
269.14	46.421
269.51	43.875
269.88	46.327
270.25	44.276
270.62	42.918
270.99	45.842
271.36	43.902
271.73	46.331
272.10	45.051
272.47	41.468
272.84	44.112
273.21	43.182
273.58	44.332
273.95	44.969
274.32	44.163
274.69	45.669
275.06	42.987
275.43	43.295
275.80	42.642
276.17	43.934
276.54	43.551
276.91	47.201
277.28	42.336
277.65	45.387
278.02	43.015
278.39	44.065
278.76	43.448
279.13	43.594
279.50	44.545
279.87	44.320
280.23	42.541
280.60	41.971
280.97	43.276
281.34	42.574
281.71	42.783
282.08	41.368
282.45	42.905
282.82	43.144
283.19	41.335
283.56	40.661
283.92	42.345
284.29	43.428
284.66	41.345
285.03	42.786
285.40	40.331
285.77	39.506
286.14	42.724
286.51	41.104
286.87	38.449
287.24	38.438
287.61	39.970
287.98	39.552
288.35	39.556
288.72	39.454
289.08	39.189
289.45	38.262
289.82	38.125
290.19	37.628
290.56	39.592
290.93	39.856
291.29	37.569
291.66	37.429
292.03	38.569
292.40	36.314
292.77	37.744
293.13	36.947
293.50	35.897
293.87	35.230
294.24	36.364
294.60	37.685
294.97	36.084
295.34	35.325
295.71	36.268
296.08	34.800
296.44	36.213
296.81	34.119
297.18	34.601
297.55	34.852
297.91	32.143
298.28	34.179
298.65	33.497
299.02	31.966
299.38	33.573
299.75	32.805
300.12	32.454
300.48	33.607
300.85	34.207
301.22	33.372
301.59	33.137
301.95	31.622
302.32	35.390
302.69	34.163
303.05	34.456
303.42	32.063
303.79	33.044
304.15	32.123
304.52	30.550
304.89	31.663
305.25	31.702
305.62	33.475
305.99	30.978
306.35	32.211
306.72	31.113
307.09	31.573
307.45	31.785
307.82	32.202
308.19	33.505
308.55	31.800
308.92	32.287
309.29	32.249
309.65	32.507
310.02	32.657
310.38	31.406
310.75	32.015
311.12	31.992
311.48	32.432
311.85	32.252
312.22	32.474
312.58	32.362
312.95	31.748
313.31	33.708
313.68	31.144
314.05	33.608
314.41	33.054
314.78	34.375
315.14	33.460
315.51	33.396
315.87	33.212
316.24	33.333
316.61	32.408
316.97	33.945
317.34	35.220
317.70	35.382
318.07	34.431
318.43	35.237
318.80	35.026
319.16	34.703
319.53	35.398
319.89	34.409
320.26	36.127
320.62	34.982
320.99	35.081
321.35	36.364
321.72	35.674
322.08	36.196
322.45	35.967
322.81	36.505
323.18	37.478
323.54	38.240
323.91	37.987
324.27	37.224
324.64	36.938
325.00	37.759
325.37	36.003
325.73	36.931
326.10	37.200
326.46	36.416
326.83	36.400
327.19	37.831
327.56	38.898
327.92	39.016
328.29	37.971
328.65	39.469
329.01	38.152
329.38	38.663
329.74	37.660
330.11	39.010
330.47	38.619
330.84	37.964
331.20	37.310
331.56	38.428
331.93	42.002
332.29	36.139
332.66	37.755
333.02	38.144
333.38	38.569
333.75	37.865
334.11	37.584
334.48	37.521
334.84	37.162
335.20	38.666
335.57	38.455
335.93	36.922
336.29	37.231
336.66	38.250
337.02	37.553
337.38	38.005
337.75	37.838
338.11	38.143
338.47	38.019
338.84	37.257
339.20	36.190
339.56	36.922
339.93	36.789
340.29	36.471
340.65	37.469
341.02	37.329
341.38	37.356
341.74	37.292
342.11	36.811
342.47	37.572
342.83	37.736
343.20	35.893
343.56	35.743
343.92	36.994
344.28	36.364
344.65	36.675
345.01	36.349
345.37	36.458
345.73	36.032
346.10	35.777
346.46	36.284
346.82	35.571
347.19	35.781
347.55	36.222
347.91	35.952
348.27	35.476
348.63	36.076
349.00	36.405
349.36	36.965
349.72	37.003
350.08	36.335
350.45	36.405
350.81	35.780
351.17	34.129
351.53	34.950
351.89	35.587
352.26	35.072
352.62	35.370
352.98	35.736
353.34	37.211
353.70	35.398
354.07	36.308
354.43	35.253
354.79	35.080
355.15	35.605
355.51	35.121
355.87	35.843
356.24	36.028
356.60	36.377
356.96	35.254
357.32	34.288
357.68	35.609
358.04	35.182
358.40	36.507
358.77	34.786
359.13	35.435
359.49	35.211
359.85	35.220
360.21	34.918
360.57	34.745
360.93	35.570
361.29	35.354
361.66	35.347
362.02	34.304
362.38	35.786
362.74	34.183
363.10	35.484
363.46	34.254
363.82	34.853
364.18	35.633
364.54	36.052
364.90	35.274
365.26	36.225
365.62	34.254
365.98	33.586
366.35	35.034
366.71	34.351
367.07	34.949
367.43	35.326
367.79	34.109
368.15	33.582
368.51	34.183
368.87	35.054
369.23	34.304
369.59	34.255
369.95	36.014
370.31	33.744
370.67	34.629
371.03	33.473
371.39	34.903
371.75	34.264
372.11	34.738
372.47	35.000
372.83	34.466
373.19	35.915
373.55	34.639
373.91	33.909
374.27	33.069
374.63	33.627
374.99	34.232
375.35	35.013
375.71	34.367
376.07	33.687
376.42	33.887
376.78	35.260
377.14	34.338
377.50	35.268
377.86	33.696
378.22	33.760
378.58	34.806
378.94	34.218
379.30	34.081
379.66	34.557
380.02	34.018
380.38	32.904
380.74	34.544
381.09	33.586
381.45	33.526
381.81	33.452
382.17	33.639
382.53	33.413
382.89	33.767
383.25	33.866
383.61	34.006
383.97	34.133
384.32	34.539
384.68	34.343
385.04	33.822
385.40	34.935
385.76	33.177
386.12	34.137
386.48	34.468
386.83	33.619
387.19	32.744
387.55	33.628
387.91	33.083
388.27	33.730
388.62	33.920
388.98	32.362
389.34	33.076
389.70	32.665
390.06	34.329
390.42	33.683
390.77	32.862
391.13	33.796
391.49	33.636
391.85	33.600
392.20	33.611
392.56	33.513
392.92	32.734
393.28	33.520
393.64	32.454
393.99	33.491
394.35	32.666
394.71	32.811
395.07	33.090
395.42	33.489
395.78	34.300
396.14	33.434
396.50	33.093
396.85	32.622
397.21	33.213
397.57	32.576
397.92	32.525
398.28	32.653
398.64	33.915
399.00	32.710
399.35	31.991
399.71	32.506
400.07	33.162
400.42	32.239
400.78	33.138
401.14	32.413
401.49	31.797
401.85	33.256
402.21	33.099
402.57	32.555
402.92	33.455
403.28	32.100
403.63	33.196
403.99	32.328
404.35	32.884
404.70	33.314
405.06	31.780
405.42	32.496
405.77	32.084
406.13	31.236
406.49	31.836
406.84	30.626
407.20	32.420
407.55	31.938
407.91	32.100
408.27	32.565
408.62	31.520
408.98	30.869
409.34	31.210
409.69	32.794
410.05	32.260
410.40	31.390
410.76	31.082
411.11	32.701
411.47	32.037
411.83	31.342
412.18	31.884
412.54	32.312
412.89	31.386
413.25	32.098
413.60	31.776
413.96	32.136
414.31	32.290
414.67	32.713
415.03	32.375
415.38	33.186
415.74	32.660
416.09	32.230
416.45	32.773
416.80	33.483
417.16	31.700
417.51	32.484
417.87	31.852
418.22	30.316
418.58	32.866
418.93	32.719
419.29	31.731
419.64	32.162
420.00	32.578
420.35	31.359
420.71	31.214
421.06	31.901
421.42	31.721
421.77	32.426
422.12	32.525
422.48	31.433
422.83	32.478
423.19	31.587
423.54	31.761
423.90	31.993
424.25	32.141
424.61	32.095
424.96	32.863
425.31	32.020
425.67	33.782
426.02	32.305
426.38	30.805
426.73	33.025
427.09	31.791
427.44	31.570
427.79	32.533
428.15	32.764
428.50	32.800
428.85	32.687
429.21	32.145
429.56	31.954
429.92	31.576
430.27	31.592
430.62	31.522
430.98	32.735
431.33	31.804
431.68	31.753
432.04	32.230
432.39	33.315
432.74	33.021
433.10	31.561
433.45	32.970
433.80	32.267
434.16	32.055
434.51	31.682
434.86	32.771
435.22	32.469
435.57	32.839
435.92	33.295
436.28	33.065
436.63	33.279
436.98	33.221
437.34	33.333
437.69	32.419
438.04	33.333
438.39	33.275
438.75	32.851
439.10	32.542
439.45	31.995
439.81	33.950
440.16	34.122
440.51	32.151
440.86	33.561
441.22	32.738
441.57	34.016
441.92	33.564
442.27	32.320
442.63	33.028
442.98	32.974
443.33	32.780
443.68	32.093
444.03	33.365
444.39	33.522
444.74	33.644
445.09	33.070
445.44	32.572
445.79	33.236
446.15	33.316
446.50	32.911
446.85	32.869
447.20	33.134
447.55	33.768
447.91	33.564
448.26	34.026
448.61	34.052
448.96	34.150
449.31	34.543
449.66	34.441
450.02	33.657
450.37	33.926
450.72	34.160
451.07	34.148
451.42	33.847
451.77	34.250
452.12	34.770
452.47	34.083
452.83	34.873
453.18	34.955
453.53	34.044
453.88	33.886
454.23	34.515
454.58	34.033
454.93	33.476
455.28	33.048
455.63	33.747
455.98	34.405
456.34	35.015
456.69	34.329
457.04	34.069
457.39	33.429
457.74	34.234
458.09	33.857
458.44	34.337
458.79	34.164
459.14	33.333
459.49	33.069
459.84	35.707
460.19	35.085
460.54	34.644
460.89	34.542
461.24	32.932
461.59	34.410
461.94	33.392
462.29	33.524
462.64	34.548
462.99	34.677
463.34	34.802
463.69	33.757
464.04	34.427
464.39	33.314
464.74	33.880
465.09	33.546
465.44	33.950
465.79	33.696
466.14	33.015
466.49	33.641
466.84	33.501
467.19	33.392
467.54	33.634
467.89	33.803
468.24	34.163
468.59	33.333
468.94	33.937
469.29	33.598
469.64	34.148
469.99	33.483
470.34	34.219
470.68	33.172
471.03	33.889
471.38	33.510
471.73	33.965
472.08	35.029
472.43	34.637
472.78	34.891
473.13	32.040
473.48	33.680
473.83	33.804
474.17	34.164
474.52	33.353
474.87	32.973
475.22	34.723
475.57	33.526
475.92	33.878
476.27	32.644
476.61	33.029
476.96	33.177
477.31	34.036
477.66	33.816
478.01	33.987
478.36	33.471
478.70	33.002
479.05	32.636
479.40	33.234
479.75	32.771
480.10	33.301
480.45	33.613
480.79	33.410
481.14	33.143
481.49	33.120
481.84	32.762
482.19	32.183
482.53	32.938
482.88	33.289
483.23	32.837
483.58	33.393
483.92	34.278
484.27	33.305
484.62	33.998
484.97	31.671
485.31	31.985
485.66	32.288
486.01	32.385
486.36	32.500
486.70	32.451
487.05	32.325
487.40	32.479
487.75	32.339
488.09	32.358
488.44	32.632
488.79	32.211
489.13	32.773
489.48	32.761
489.83	32.402
490.17	32.040
490.52	32.601
490.87	33.060
491.22	31.871
491.56	33.158
491.91	32.975
492.26	31.893
492.60	33.576
492.95	32.170
493.30	32.575
493.64	32.659
493.99	32.513
494.34	33.079
494.68	32.271
495.03	32.510
495.37	32.373
495.72	33.147
496.07	32.300
496.41	32.537
496.76	32.377
497.11	32.434
497.45	32.661
497.80	32.715
498.14	32.825
498.49	31.708
498.84	33.458
499.18	31.901
499.53	33.027
499.87	33.019
500.22	33.164
500.56	33.287
500.91	32.699
501.26	32.338
501.60	31.876
501.95	32.437
502.29	32.222
502.64	31.892
502.98	31.792
503.33	31.849
503.67	31.788
504.02	31.572
504.36	32.534
504.71	32.781
505.06	32.098
505.40	32.195
505.75	32.086
506.09	32.338
506.44	31.767
506.78	32.987
507.13	32.816
507.47	32.557
507.82	32.019
508.16	33.121
508.51	31.546
508.85	32.336
509.19	31.865
509.54	31.592
509.88	33.018
510.23	31.961
510.57	30.743
510.92	31.868
511.26	31.576
511.61	31.561
511.95	31.956
512.30	31.250
512.64	31.101
512.98	31.266
513.33	30.891
513.67	31.849
514.02	31.273
514.36	31.464
514.70	31.627
515.05	31.113
515.39	31.743
515.74	32.750
516.08	32.462
516.42	32.240
516.77	31.413
517.11	31.893
517.46	31.519
517.80	30.857
518.14	32.338
518.49	31.808
518.83	31.099
519.17	31.559
519.52	31.185
519.86	31.499
520.20	31.726
520.55	31.713
520.89	31.667
521.23	31.776
521.58	31.153
521.92	31.662
522.26	31.694
522.61	32.145
522.95	32.673
523.29	32.222
523.64	31.329
523.98	31.162
524.32	30.565
524.66	31.014
525.01	31.183
525.35	31.880
525.69	31.969
526.04	31.767
526.38	31.607
526.72	31.623
527.06	31.165
527.41	33.132
527.75	32.441
528.09	30.825
528.43	32.215
528.78	31.664
529.12	31.186
529.46	30.976
529.80	31.250
530.15	30.819
530.49	30.325
530.83	31.505
531.17	31.058
531.51	31.147
531.86	30.676
532.20	29.975
532.54	30.069
532.88	31.793
533.22	31.261
533.57	31.483
533.91	30.886
534.25	29.890
534.59	30.936
534.93	30.489
535.27	29.368
535.62	30.980
535.96	29.965
536.30	31.749
536.64	31.242
536.98	31.152
537.32	31.437
537.66	30.804
538.01	31.084
538.35	31.067
538.69	31.007
539.03	31.157
539.37	30.340
539.71	30.617
540.05	31.077
540.39	31.069
540.73	30.949
541.07	30.678
541.42	29.975
541.76	30.888
542.10	29.716
542.44	29.800
542.78	30.082
543.12	30.491
543.46	30.388
543.80	30.263
544.14	30.836
544.48	30.292
544.82	30.948
545.16	29.265
545.50	29.809
545.84	30.429
546.18	31.469
546.52	30.689
546.86	30.948
547.20	29.457
547.54	30.526
547.88	29.684
548.22	29.812
548.56	29.346
548.90	30.130
549.24	31.080
549.58	30.799
549.92	29.928
550.26	31.237
550.60	29.874
550.94	30.665
551.28	30.207
551.62	30.276
551.96	29.257
552.30	28.411
552.64	30.291
552.98	28.866
553.32	29.257
553.66	29.772
554.00	30.566
554.34	31.358
554.68	30.712
555.02	30.346
555.36	29.787
555.69	29.974
556.03	29.745
556.37	29.509
556.71	30.183
557.05	29.292
557.39	29.733
557.73	30.054
558.07	30.315
558.41	29.678
558.75	29.891
559.08	30.665
559.42	29.205
559.76	30.506
560.10	29.938
560.44	29.263
560.78	29.923
561.12	30.070
561.45	29.537
561.79	29.713
562.13	29.248
562.47	29.591
562.81	29.603
563.15	29.412
563.48	27.702
563.82	29.881
564.16	30.037
564.50	29.958
564.84	30.091
565.17	29.234
565.51	29.865
565.85	29.735
566.19	29.048
566.52	29.242
566.86	29.189
567.20	29.831
567.54	30.131
567.88	30.882
568.21	28.757
568.55	29.912
568.89	28.786
569.23	29.163
569.56	29.553
569.90	28.997
570.24	28.859
570.57	28.650
570.91	28.206
571.25	28.381
571.59	28.342
571.92	28.041
572.26	27.978
572.60	28.270
572.93	28.723
573.27	28.518
573.61	28.452
573.95	28.337
574.28	28.696
574.62	28.714
574.96	28.187
575.29	28.028
575.63	27.656
575.97	28.067
576.30	27.664
576.64	28.217
576.98	28.094
577.31	29.003
577.65	28.238
577.98	27.785
578.32	28.177
578.66	27.955
578.99	28.362
579.33	28.327
579.67	27.718
580.00	28.090
580.34	28.051
580.67	27.964
581.01	28.725
581.35	28.165
581.68	28.264
582.02	27.909
582.35	28.158
582.69	28.644
583.02	28.326
583.36	28.306
583.70	27.853
584.03	28.958
584.37	28.496
584.70	27.967
585.04	28.075
585.37	27.773
585.71	28.472
586.04	28.103
586.38	27.508
586.72	27.671
587.05	28.410
587.39	28.369
587.72	28.275
588.06	28.532
588.39	28.327
588.73	27.949
589.06	28.480
589.40	29.171
589.73	28.155
590.07	29.032
590.40	28.537
590.73	29.526
591.07	28.918
591.40	28.184
591.74	28.977
592.07	28.203
592.41	28.457
592.74	28.231
593.08	27.962
593.41	28.007
593.75	27.760
594.08	27.903
594.41	28.055
594.75	27.740
595.08	28.224
595.42	28.670
595.75	28.167
596.09	28.537
596.42	27.822
596.75	28.806
597.09	28.601
597.42	27.592
597.75	27.262
598.09	27.165
598.42	27.866
598.76	28.643
599.09	27.988
599.42	27.474
599.76	27.917
600.09	28.169
600.42	27.521
600.76	26.785
601.09	27.718
601.42	27.948
601.76	27.999
602.09	28.182
602.42	27.135
602.76	27.970
603.09	28.394
603.42	28.183
603.76	27.513
604.09	27.253
604.42	26.629
604.76	27.776
605.09	28.367
605.42	27.509
605.75	27.240
606.09	27.812
606.42	27.734
606.75	27.400
607.09	27.398
607.42	27.561
607.75	27.309
608.08	26.929
608.42	27.559
608.75	27.086
609.08	27.629
609.41	27.773
609.75	27.289
610.08	28.192
610.41	27.580
610.74	27.273
611.07	27.876
611.41	27.804
611.74	28.011
612.07	27.938
612.40	27.583
612.73	27.858
613.07	28.282
613.40	28.271
613.73	27.259
614.06	27.300
614.39	28.333
614.72	27.172
615.06	26.756
615.39	27.426
615.72	26.476
616.05	27.524
616.38	27.448
616.71	27.075
617.05	27.787
617.38	27.191
617.71	27.840
618.04	27.762
618.37	27.460
618.70	26.848
619.03	27.595
619.36	27.513
619.69	26.847
620.03	28.637
620.36	27.296
620.69	28.161
621.02	26.970
621.35	27.292
621.68	27.139
622.01	27.970
622.34	26.730
622.67	27.317
623.00	27.025
623.33	27.598
623.66	26.680
623.99	28.219
624.32	27.304
624.65	26.662
624.99	28.465
625.32	27.255
625.65	26.621
625.98	26.848
626.31	28.042
626.64	27.259
626.97	26.626
627.30	27.252
627.63	28.728
627.96	26.839
628.29	28.630
628.62	26.091
628.95	27.837
629.28	28.571
629.61	27.856
629.94	27.744
630.26	27.730
630.59	27.571
630.92	27.982
631.25	27.471
