SpectraSuite Data File
++++++++++++++++++++++++++++++++++++
Date: Tue May 12 16:31:56 PDT 2015
User: schluterlab
Dark Spectrum Present: Yes
Reference Spectrum Present: Yes
Number of Sampled Component Spectra: 1
Spectrometers: USB2E3373
Integration Time (usec): 3000 (USB2E3373)
Spectra Averaged: 3 (USB2E3373)
Boxcar Smoothing: 0 (USB2E3373)
Correct for Electrical Dark: No (USB2E3373)
Strobe/Lamp Enabled: No (USB2E3373)
Correct for Detector Non-linearity: No (USB2E3373)
Correct for Stray Light: No (USB2E3373)
Number of Pixels in Processed Spectrum: 2048
>>>>>Begin Processed Spectral Data<<<<<
178.53	0.000
178.91	-258.333
179.29	-850.000
179.67	-3300.000
180.04	-126.667
180.42	450.000
180.80	2050.000
181.18	0.000
181.56	-250.000
181.94	0.000
182.31	933.333
182.69	-3000.000
183.07	557.143
183.45	-3400.000
183.83	-1250.000
184.20	410.000
184.58	457.143
184.96	-176.923
185.34	-300.000
185.72	1950.000
186.09	-775.000
186.47	-3400.000
186.85	1066.667
187.23	760.000
187.61	2350.000
187.98	462.500
188.36	264.286
188.74	308.333
189.12	300.000
189.49	875.000
189.87	0.000
190.25	525.000
190.63	2300.000
191.00	-250.000
191.38	-3800.000
191.76	-900.000
192.14	475.000
192.51	-2600.000
192.89	1850.000
193.27	833.333
193.65	-800.000
194.02	-760.000
194.40	457.143
194.78	-135.714
195.15	266.667
195.53	-2700.000
195.91	-480.000
196.29	4000.000
196.66	231.250
197.04	775.000
197.42	-1250.000
197.79	525.000
198.17	283.333
198.55	0.000
198.92	471.429
199.30	1033.333
199.68	1800.000
200.05	500.000
200.43	-466.667
200.81	166.667
201.18	3300.000
201.56	358.333
201.94	-950.000
202.31	-325.000
202.69	-420.000
203.07	2900.000
203.44	-600.000
203.82	325.000
204.19	720.000
204.57	-1350.000
204.95	-625.000
205.32	-600.000
205.70	516.667
206.08	650.000
206.45	-666.667
206.83	377.778
207.20	200.000
207.58	275.000
207.96	640.000
208.33	0.000
208.71	542.857
209.08	660.000
209.46	-2900.000
209.84	-725.000
210.21	880.000
210.59	-720.000
210.96	250.000
211.34	-875.000
211.71	400.000
212.09	1100.000
212.46	1650.000
212.84	-350.000
213.22	422.222
213.59	-2400.000
213.97	200.000
214.34	1000.000
214.72	933.333
215.09	866.667
215.47	-2800.000
215.84	-260.000
216.22	-362.500
216.59	0.000
216.97	0.000
217.34	1600.000
217.72	-1400.000
218.09	900.000
218.47	475.000
218.84	900.000
219.22	1233.333
219.59	833.333
219.97	471.429
220.34	433.333
220.72	1850.000
221.09	3500.000
221.47	225.000
221.84	1033.333
222.22	250.000
222.59	250.000
222.97	185.714
223.34	250.000
223.72	-1800.000
224.09	1166.667
224.46	238.462
224.84	-700.000
225.21	355.556
225.59	246.667
225.96	933.333
226.34	-640.000
226.71	-575.000
227.08	-340.000
227.46	0.000
227.83	-433.333
228.21	-1650.000
228.58	300.000
228.95	900.000
229.33	300.000
229.70	1100.000
230.08	269.231
230.45	3100.000
230.82	-850.000
231.20	-700.000
231.57	-933.333
231.95	620.000
232.32	325.000
232.69	500.000
233.07	266.667
233.44	-1650.000
233.81	226.667
234.19	155.556
234.56	200.000
234.93	205.882
235.31	215.000
235.68	268.750
236.05	167.857
236.43	166.667
236.80	235.714
237.17	162.069
237.55	121.875
237.92	90.000
238.29	145.455
238.67	103.125
239.04	92.683
239.41	83.333
239.79	100.000
240.16	102.083
240.53	91.803
240.91	72.464
241.28	81.356
241.65	96.970
242.02	87.324
242.40	80.000
242.77	65.934
243.14	70.886
243.51	75.758
243.89	65.421
244.26	55.140
244.63	61.386
245.00	50.459
245.38	46.610
245.75	50.758
246.12	59.259
246.49	53.901
246.87	43.443
247.24	54.667
247.61	50.000
247.98	52.381
248.36	44.848
248.73	52.551
249.10	48.214
249.47	43.500
249.84	45.274
250.22	50.811
250.59	42.000
250.96	43.460
251.33	41.860
251.70	41.964
252.08	39.496
252.45	41.036
252.82	38.023
253.19	40.316
253.56	40.769
253.94	37.319
254.31	38.372
254.68	41.463
255.05	40.345
255.42	38.686
255.79	40.391
256.16	36.949
256.54	37.987
256.91	41.503
257.28	36.120
257.65	34.169
258.02	39.528
258.39	41.834
258.76	34.203
259.14	31.429
259.51	37.026
259.88	36.778
260.25	33.791
260.62	36.986
260.99	35.537
261.36	37.883
261.73	35.372
262.10	38.220
262.47	34.000
262.85	34.133
263.22	34.447
263.59	34.015
263.96	35.088
264.33	35.802
264.70	38.084
265.07	34.390
265.44	34.862
265.81	32.547
266.18	37.300
266.55	33.333
266.92	33.781
267.29	33.114
267.66	32.063
268.03	34.753
268.40	32.347
268.77	35.022
269.14	34.490
269.51	34.521
269.88	34.490
270.25	33.477
270.62	33.906
270.99	34.888
271.36	32.520
271.73	34.172
272.10	30.505
272.47	31.944
272.84	29.940
273.21	29.959
273.58	35.223
273.95	30.390
274.32	34.047
274.69	32.874
275.06	33.698
275.43	31.801
275.80	33.962
276.17	31.618
276.54	32.523
276.91	33.022
277.28	31.934
277.65	32.841
278.02	31.801
278.39	30.576
278.76	32.586
279.13	28.648
279.50	32.364
279.87	28.305
280.23	31.860
280.60	33.394
280.97	30.345
281.34	29.868
281.71	32.000
282.08	30.256
282.45	30.574
282.82	29.599
283.19	30.843
283.56	28.926
283.92	30.619
284.29	29.617
284.66	29.076
285.03	31.177
285.40	28.099
285.77	28.395
286.14	30.186
286.51	29.755
286.87	26.741
287.24	27.177
287.61	31.155
287.98	27.313
288.35	29.037
288.72	27.314
289.08	30.781
289.45	29.878
289.82	28.281
290.19	28.697
290.56	29.549
290.93	28.777
291.29	26.519
291.66	28.249
292.03	26.367
292.40	27.100
292.77	24.234
293.13	27.817
293.50	26.721
293.87	23.577
294.24	26.294
294.60	26.649
294.97	25.734
295.34	25.896
295.71	24.704
296.08	24.933
296.44	25.921
296.81	24.442
297.18	23.954
297.55	25.246
297.91	22.906
298.28	25.362
298.65	24.663
299.02	25.090
299.38	23.741
299.75	24.512
300.12	25.803
300.48	26.932
300.85	25.745
301.22	24.884
301.59	22.877
301.95	24.271
302.32	24.214
302.69	24.208
303.05	26.487
303.42	22.758
303.79	25.135
304.15	22.552
304.52	24.419
304.89	24.733
305.25	23.804
305.62	26.226
305.99	22.826
306.35	24.947
306.72	25.286
307.09	24.741
307.45	24.182
307.82	24.588
308.19	24.948
308.55	24.600
308.92	26.300
309.29	25.247
309.65	25.966
310.02	26.471
310.38	24.028
310.75	25.940
311.12	24.808
311.48	27.124
311.85	26.145
312.22	26.457
312.58	26.433
312.95	27.767
313.31	27.247
313.68	26.829
314.05	28.755
314.41	28.957
314.78	28.504
315.14	29.384
315.51	29.139
315.87	29.197
316.24	30.439
316.61	28.290
316.97	29.450
317.34	31.357
317.70	30.114
318.07	30.961
318.43	31.195
318.80	30.998
319.16	30.857
319.53	30.973
319.89	32.168
320.26	33.333
320.62	33.883
320.99	34.223
321.35	32.839
321.72	35.579
322.08	34.441
322.45	33.515
322.81	33.852
323.18	35.346
323.54	35.279
323.91	36.537
324.27	35.809
324.64	36.332
325.00	37.500
325.37	36.256
325.73	38.027
326.10	38.194
326.46	38.150
326.83	37.440
327.19	39.116
327.56	39.137
327.92	40.082
328.29	40.344
328.65	41.353
329.01	40.547
329.38	41.371
329.74	41.332
330.11	42.919
330.47	42.285
330.84	41.156
331.20	43.147
331.56	44.473
331.93	43.456
332.29	41.837
332.66	43.707
333.02	44.244
333.38	43.717
333.75	44.120
334.11	44.295
334.48	43.932
334.84	43.159
335.20	44.825
335.57	42.653
335.93	45.585
336.29	43.781
336.66	45.712
337.02	43.456
337.38	44.196
337.75	44.426
338.11	43.713
338.47	44.539
338.84	43.522
339.20	44.242
339.56	44.071
339.93	42.726
340.29	43.193
340.65	45.013
341.02	42.800
341.38	43.268
341.74	44.186
342.11	43.907
342.47	44.053
342.83	44.627
343.20	44.462
343.56	41.938
343.92	43.105
344.28	44.577
344.65	44.662
345.01	43.651
345.37	42.228
345.73	44.524
346.10	43.665
346.46	42.903
346.82	41.512
347.19	42.968
347.55	42.389
347.91	42.145
348.27	42.060
348.63	43.671
349.00	44.021
349.36	43.346
349.72	42.508
350.08	42.158
350.45	43.564
350.81	43.425
351.17	42.142
351.53	43.110
351.89	42.890
352.26	42.026
352.62	42.609
352.98	43.021
353.34	42.296
353.70	41.667
354.07	43.385
354.43	41.859
354.79	42.065
355.15	42.726
355.51	41.616
355.87	42.319
356.24	43.418
356.60	41.857
356.96	43.139
357.32	41.974
357.68	42.291
358.04	41.565
358.40	42.129
358.77	43.351
359.13	42.643
359.49	41.512
359.85	42.964
360.21	40.936
360.57	42.117
360.93	41.631
361.29	41.198
361.66	44.892
362.02	41.122
362.38	41.631
362.74	42.534
363.10	42.146
363.46	42.334
363.82	42.076
364.18	42.745
364.54	42.561
364.90	41.566
365.26	41.221
365.62	41.091
365.98	39.986
366.35	41.517
366.71	42.679
367.07	41.775
367.43	39.355
367.79	40.891
368.15	40.570
368.51	41.971
368.87	41.644
369.23	41.303
369.59	40.931
369.95	42.308
370.31	41.410
370.67	40.458
371.03	41.877
371.39	41.551
371.75	40.963
372.11	41.061
372.47	41.849
372.83	40.789
373.19	41.124
373.55	41.100
373.91	40.677
374.27	39.881
374.63	40.475
374.99	41.105
375.35	40.927
375.71	40.435
376.07	41.313
376.42	39.834
376.78	40.848
377.14	40.564
377.50	40.886
377.86	40.487
378.22	40.585
378.58	39.770
378.94	39.891
379.30	39.903
379.66	40.397
380.02	40.938
380.38	39.871
380.74	40.542
381.09	40.245
381.45	40.058
381.81	40.012
382.17	40.049
382.53	39.472
382.89	39.976
383.25	40.616
383.61	39.481
383.97	38.572
384.32	39.120
384.68	40.166
385.04	40.387
385.40	40.036
385.76	38.912
386.12	39.889
386.48	39.271
386.83	40.220
387.19	38.163
387.55	39.635
387.91	38.741
388.27	40.274
388.62	39.437
388.98	38.601
389.34	39.679
389.70	38.502
390.06	39.085
390.42	38.927
390.77	39.373
391.13	40.193
391.49	38.959
391.85	39.077
392.20	39.035
392.56	39.367
392.92	37.619
393.28	38.285
393.64	37.959
393.99	37.463
394.35	37.257
394.71	37.937
395.07	38.078
395.42	37.354
395.78	38.927
396.14	39.157
396.50	38.869
396.85	38.293
397.21	37.786
397.57	37.717
397.92	36.626
398.28	37.176
398.64	37.929
399.00	36.237
399.35	37.574
399.71	37.086
400.07	36.872
400.42	36.716
400.78	37.243
401.14	37.405
401.49	37.385
401.85	37.370
402.21	37.317
402.57	37.582
402.92	36.970
403.28	37.053
403.63	36.904
403.99	37.394
404.35	38.511
404.70	37.685
405.06	35.654
405.42	35.966
405.77	35.943
406.13	36.171
406.49	35.475
406.84	35.195
407.20	36.986
407.55	36.431
407.91	36.758
408.27	36.689
408.62	36.783
408.98	35.659
409.34	36.295
409.69	36.341
410.05	36.076
410.40	35.689
410.76	35.146
411.11	36.078
411.47	36.852
411.83	36.028
412.18	35.266
412.54	35.916
412.89	35.870
413.25	36.317
413.60	35.572
413.96	35.907
414.31	35.596
414.67	36.189
415.03	35.313
415.38	35.079
415.74	35.313
416.09	36.165
416.45	37.039
416.80	36.626
417.16	35.455
417.51	36.115
417.87	34.981
418.22	35.298
418.58	35.414
418.93	35.515
419.29	35.182
419.64	34.706
420.00	35.501
420.35	35.714
420.71	35.648
421.06	34.844
421.42	36.327
421.77	36.646
422.12	35.502
422.48	36.415
422.83	35.268
423.19	35.691
423.54	35.710
423.90	36.240
424.25	35.498
424.61	35.868
424.96	34.839
425.31	35.796
425.67	36.644
426.02	35.109
426.38	34.306
426.73	36.090
427.09	36.121
427.44	36.466
427.79	35.735
428.15	35.828
428.50	36.743
428.85	36.508
429.21	36.953
429.56	34.895
429.92	35.803
430.27	36.478
430.62	34.998
430.98	34.980
431.33	34.929
431.68	35.506
432.04	36.265
432.39	35.456
432.74	37.002
433.10	35.604
433.45	37.852
433.80	36.680
434.16	35.260
434.51	37.203
434.86	36.745
435.22	36.143
435.57	37.463
435.92	37.962
436.28	36.982
436.63	36.737
436.98	37.387
437.34	36.473
437.69	36.226
438.04	36.452
438.39	36.953
438.75	36.470
439.10	36.535
439.45	36.405
439.81	37.883
440.16	36.819
440.51	36.205
440.86	37.607
441.22	36.959
441.57	37.270
441.92	37.167
442.27	36.959
442.63	36.382
442.98	36.153
443.33	36.476
443.68	36.419
444.03	37.182
444.39	37.806
444.74	37.215
445.09	37.599
445.44	37.354
445.79	37.573
446.15	36.895
446.50	37.395
446.85	37.052
447.20	36.915
447.55	37.466
447.91	38.412
448.26	37.540
448.61	37.811
448.96	38.998
449.31	38.119
449.66	38.206
450.02	38.898
450.37	37.812
450.72	37.906
451.07	37.522
451.42	38.056
451.77	38.087
452.12	38.344
452.47	38.335
452.83	38.366
453.18	40.120
453.53	38.721
453.88	38.343
454.23	38.757
454.58	38.228
454.93	37.216
455.28	38.678
455.63	37.648
455.98	38.071
456.34	38.845
456.69	38.232
457.04	38.484
457.39	39.029
457.74	38.345
458.09	37.282
458.44	37.842
458.79	38.674
459.14	37.643
459.49	38.052
459.84	38.424
460.19	38.644
460.54	37.265
460.89	37.953
461.24	36.999
461.59	38.322
461.94	37.884
462.29	38.787
462.64	38.505
462.99	38.708
463.34	38.561
463.69	38.899
464.04	39.896
464.39	38.237
464.74	37.397
465.09	38.770
465.44	37.758
465.79	38.596
466.14	36.672
466.49	37.547
466.84	38.796
467.19	38.489
467.54	38.438
467.89	38.380
468.24	39.027
468.59	37.381
468.94	37.983
469.29	38.424
469.64	38.714
469.99	38.625
470.34	39.279
470.68	38.828
471.03	39.159
471.38	39.801
471.73	38.798
472.08	40.574
472.43	40.286
472.78	39.245
473.13	38.173
473.48	37.836
473.83	39.223
474.17	39.757
474.52	38.270
474.87	38.658
475.22	38.778
475.57	38.405
475.92	38.171
476.27	36.888
476.61	38.177
476.96	38.192
477.31	39.692
477.66	39.238
478.01	37.958
478.36	38.568
478.70	37.816
479.05	38.703
479.40	38.194
479.75	38.679
480.10	37.948
480.45	38.469
480.79	37.604
481.14	37.470
481.49	37.466
481.84	36.631
482.19	37.380
482.53	37.286
482.88	37.679
483.23	38.295
483.58	38.779
483.92	38.803
484.27	37.714
484.62	37.606
484.97	36.541
485.31	35.612
485.66	33.737
486.01	32.999
486.36	32.562
486.70	32.648
487.05	33.746
487.40	34.212
487.75	35.062
488.09	34.915
488.44	36.393
488.79	36.515
489.13	36.991
489.48	37.155
489.83	37.823
490.17	36.375
490.52	38.028
490.87	37.457
491.22	37.544
491.56	37.549
491.91	36.873
492.26	38.441
492.60	38.132
492.95	38.287
493.30	38.626
493.64	37.736
493.99	37.791
494.34	38.144
494.68	38.158
495.03	37.988
495.37	37.416
495.72	39.021
496.07	37.736
496.41	37.576
496.76	36.260
497.11	37.961
497.45	37.747
497.80	37.859
498.14	37.540
498.49	38.951
498.84	37.897
499.18	37.340
499.53	37.988
499.87	36.568
500.22	37.863
500.56	37.419
500.91	38.961
501.26	37.850
501.60	37.067
501.95	37.276
502.29	37.467
502.64	37.362
502.98	36.994
503.33	37.238
503.67	36.777
504.02	37.080
504.36	38.100
504.71	38.836
505.06	37.870
505.40	37.857
505.75	37.325
506.09	37.517
506.44	38.158
506.78	38.705
507.13	38.100
507.47	37.797
507.82	38.151
508.16	38.951
508.51	37.778
508.85	38.984
509.19	38.179
509.54	38.184
509.88	38.339
510.23	38.431
510.57	37.162
510.92	38.062
511.26	38.755
511.61	38.552
511.95	37.880
512.30	38.650
512.64	38.318
512.98	39.108
513.33	38.166
513.67	38.685
514.02	38.597
514.36	39.616
514.70	39.147
515.05	39.531
515.39	40.241
515.74	40.897
516.08	40.087
516.42	40.328
516.77	38.293
517.11	39.467
517.46	38.631
517.80	39.978
518.14	40.676
518.49	38.479
518.83	39.341
519.17	38.325
519.52	40.743
519.86	39.510
520.20	39.890
520.55	40.079
520.89	40.115
521.23	39.486
521.58	40.046
521.92	39.650
522.26	39.929
522.61	40.939
522.95	40.420
523.29	40.234
523.64	40.578
523.98	40.904
524.32	39.216
524.66	40.174
525.01	40.769
525.35	39.658
525.69	40.638
526.04	40.750
526.38	40.612
526.72	40.095
527.06	40.331
527.41	40.508
527.75	41.388
528.09	40.036
528.43	40.879
528.78	41.145
529.12	41.601
529.46	40.503
529.80	39.720
530.15	39.835
530.49	38.929
530.83	40.463
531.17	40.283
531.51	40.098
531.86	38.889
532.20	39.679
532.54	41.180
532.88	40.600
533.22	39.427
533.57	40.574
533.91	38.170
534.25	38.604
534.59	40.292
534.93	39.590
535.27	38.873
535.62	38.623
535.96	37.707
536.30	40.463
536.64	40.124
536.98	38.389
537.32	40.812
537.66	39.222
538.01	39.257
538.35	39.613
538.69	39.199
539.03	38.433
539.37	38.532
539.71	39.321
540.05	38.031
540.39	39.308
540.73	39.430
541.07	38.519
541.42	38.495
541.76	38.841
542.10	38.163
542.44	39.152
542.78	38.578
543.12	38.405
543.46	38.095
543.80	38.910
544.14	38.452
544.48	38.443
544.82	38.165
545.16	38.191
545.50	39.336
545.84	38.889
546.18	39.662
546.52	38.885
546.86	39.781
547.20	38.566
547.54	37.935
547.88	38.382
548.22	37.462
548.56	38.480
548.90	37.485
549.24	37.903
549.58	39.497
549.92	39.096
550.26	39.351
550.60	39.920
550.94	39.824
551.28	39.931
551.62	39.931
551.96	39.932
552.30	38.695
552.64	38.964
552.98	38.724
553.32	38.604
553.66	38.371
554.00	38.353
554.34	39.547
554.68	39.382
555.02	39.036
555.36	38.431
555.69	39.267
556.03	38.471
556.37	38.368
556.71	39.765
557.05	36.763
557.39	38.267
557.73	40.836
558.07	38.900
558.41	39.479
558.75	39.466
559.08	40.529
559.42	40.301
559.76	40.699
560.10	39.160
560.44	37.757
560.78	38.875
561.12	38.589
561.45	38.173
561.79	38.390
562.13	38.471
562.47	38.741
562.81	37.866
563.15	38.526
563.48	37.267
563.82	39.177
564.16	37.376
564.50	36.528
564.84	38.116
565.17	38.087
565.51	38.485
565.85	38.125
566.19	38.155
566.52	36.522
566.86	38.062
567.20	37.472
567.54	37.009
567.88	36.881
568.21	35.796
568.55	35.603
568.89	34.854
569.23	34.254
569.56	34.105
569.90	32.519
570.24	31.891
570.57	32.122
570.91	30.858
571.25	30.753
571.59	30.429
571.92	29.763
572.26	30.323
572.60	30.519
572.93	30.794
573.27	31.304
573.61	30.319
573.95	29.631
574.28	30.247
574.62	29.576
574.96	29.114
575.29	29.092
575.63	29.164
575.97	29.041
576.30	29.587
576.64	29.847
576.98	29.092
577.31	29.093
577.65	29.363
577.98	28.632
578.32	28.234
578.66	29.082
578.99	29.306
579.33	29.499
579.67	29.218
580.00	29.030
580.34	28.945
580.67	28.814
581.01	29.010
581.35	28.523
581.68	27.957
582.02	28.043
582.35	28.007
582.69	28.435
583.02	28.689
583.36	29.087
583.70	29.675
584.03	30.450
584.37	29.606
584.70	29.734
585.04	29.479
585.37	28.697
585.71	29.775
586.04	28.239
586.38	29.351
586.72	29.627
587.05	29.439
587.39	29.709
587.72	29.080
588.06	29.898
588.39	30.143
588.73	29.883
589.06	30.143
589.40	30.861
589.73	31.039
590.07	31.572
590.40	31.777
590.73	32.501
591.07	32.068
591.40	32.415
591.74	32.670
592.07	32.404
592.41	32.334
592.74	31.344
593.08	30.469
593.41	30.521
593.75	29.693
594.08	30.551
594.41	30.824
594.75	30.582
595.08	30.727
595.42	30.941
595.75	30.833
596.09	31.213
596.42	31.500
596.75	32.652
597.09	32.398
597.42	31.061
597.75	31.481
598.09	32.212
598.42	31.457
598.76	31.457
599.09	31.372
599.42	30.761
599.76	30.902
600.09	30.949
600.42	30.490
600.76	30.591
601.09	30.135
601.42	30.271
601.76	30.827
602.09	31.236
602.42	31.165
602.76	31.992
603.09	31.448
603.42	31.376
603.76	31.200
604.09	30.908
604.42	30.847
604.76	31.490
605.09	31.837
605.42	31.369
605.75	31.307
606.09	31.370
606.42	31.041
606.75	31.597
607.09	30.557
607.42	31.699
607.75	31.170
608.08	32.006
608.42	32.131
608.75	31.279
609.08	31.808
609.41	32.091
609.75	33.196
610.08	32.149
610.41	32.499
610.74	32.641
611.07	32.879
611.41	33.040
611.74	33.174
612.07	33.141
612.40	33.480
612.73	33.849
613.07	33.452
613.40	32.331
613.73	33.999
614.06	32.900
614.39	33.485
614.72	31.743
615.06	32.493
615.39	33.218
615.72	32.333
616.05	33.601
616.38	33.587
616.71	34.183
617.05	33.278
617.38	33.652
617.71	33.915
618.04	35.053
618.37	34.019
618.70	34.296
619.03	34.249
619.36	35.050
619.69	34.828
620.03	37.965
620.36	35.581
620.69	36.718
621.02	36.549
621.35	36.032
621.68	36.873
622.01	38.007
622.34	36.052
622.67	36.938
623.00	36.419
623.33	35.560
623.66	35.662
623.99	35.753
624.32	36.450
624.65	35.023
624.99	35.835
625.32	36.005
625.65	36.345
625.98	36.123
626.31	38.279
626.64	36.902
626.97	38.409
627.30	37.422
627.63	37.755
627.96	37.793
628.29	40.099
628.62	38.580
628.95	39.184
629.28	40.403
629.61	39.895
629.94	40.363
630.26	39.688
630.59	40.160
630.92	39.283
631.25	40.888
