SpectraSuite Data File
++++++++++++++++++++++++++++++++++++
Date: Tue May 12 15:20:36 PDT 2015
User: schluterlab
Dark Spectrum Present: Yes
Reference Spectrum Present: Yes
Number of Sampled Component Spectra: 1
Spectrometers: USB2E3373
Integration Time (usec): 3000 (USB2E3373)
Spectra Averaged: 3 (USB2E3373)
Boxcar Smoothing: 0 (USB2E3373)
Correct for Electrical Dark: No (USB2E3373)
Strobe/Lamp Enabled: No (USB2E3373)
Correct for Detector Non-linearity: No (USB2E3373)
Correct for Stray Light: No (USB2E3373)
Number of Pixels in Processed Spectrum: 2048
>>>>>Begin Processed Spectral Data<<<<<
178.53	0.000
178.91	-275.000
179.29	-800.000
179.67	-3300.000
180.04	-106.667
180.42	725.000
180.80	1100.000
181.18	0.000
181.56	-512.500
181.94	0.000
182.31	966.667
182.69	-3000.000
183.07	600.000
183.45	-2900.000
183.83	-1500.000
184.20	300.000
184.58	400.000
184.96	-238.462
185.34	-250.000
185.72	1550.000
186.09	-625.000
186.47	-3100.000
186.85	900.000
187.23	420.000
187.61	1950.000
187.98	375.000
188.36	235.714
188.74	341.667
189.12	383.333
189.49	900.000
189.87	0.000
190.25	375.000
190.63	2300.000
191.00	-200.000
191.38	-4500.000
191.76	-725.000
192.14	562.500
192.51	-3200.000
192.89	2150.000
193.27	1266.667
193.65	-1200.000
194.02	-700.000
194.40	528.571
194.78	-142.857
195.15	213.333
195.53	-2500.000
195.91	-600.000
196.29	4400.000
196.66	243.750
197.04	700.000
197.42	-1800.000
197.79	650.000
198.17	366.667
198.55	0.000
198.92	571.429
199.30	1266.667
199.68	1400.000
200.05	500.000
200.43	-333.333
200.81	172.222
201.18	3600.000
201.56	258.333
201.94	-450.000
202.31	-212.500
202.69	-500.000
203.07	2700.000
203.44	-400.000
203.82	275.000
204.19	520.000
204.57	-900.000
204.95	-800.000
205.32	-620.000
205.70	500.000
206.08	825.000
206.45	-433.333
206.83	366.667
207.20	173.684
207.58	325.000
207.96	760.000
208.33	0.000
208.71	414.286
209.08	480.000
209.46	-3400.000
209.84	-750.000
210.21	880.000
210.59	-740.000
210.96	300.000
211.34	-900.000
211.71	381.818
212.09	875.000
212.46	2000.000
212.84	-433.333
213.22	422.222
213.59	-2900.000
213.97	260.000
214.34	800.000
214.72	900.000
215.09	1033.333
215.47	-2800.000
215.84	-300.000
216.22	-362.500
216.59	0.000
216.97	0.000
217.34	1050.000
217.72	-1400.000
218.09	1033.333
218.47	387.500
218.84	825.000
219.22	1000.000
219.59	500.000
219.97	471.429
220.34	288.889
220.72	1500.000
221.09	3700.000
221.47	300.000
221.84	1100.000
222.22	250.000
222.59	222.222
222.97	142.857
223.34	256.250
223.72	-1500.000
224.09	1233.333
224.46	315.385
224.84	-525.000
225.21	344.444
225.59	253.333
225.96	1033.333
226.34	-560.000
226.71	-650.000
227.08	-420.000
227.46	0.000
227.83	-400.000
228.21	-1650.000
228.58	350.000
228.95	900.000
229.33	400.000
229.70	850.000
230.08	384.615
230.45	4300.000
230.82	-950.000
231.20	-900.000
231.57	-1066.667
231.95	580.000
232.32	333.333
232.69	566.667
233.07	258.333
233.44	-1400.000
233.81	220.000
234.19	162.963
234.56	237.500
234.93	158.824
235.31	190.000
235.68	250.000
236.05	157.143
236.43	118.519
236.80	264.286
237.17	155.172
237.55	134.375
237.92	120.000
238.29	136.364
238.67	137.500
239.04	121.951
239.41	81.250
239.79	100.000
240.16	127.083
240.53	80.328
240.91	81.159
241.28	94.915
241.65	90.909
242.02	95.775
242.40	88.571
242.77	72.527
243.14	64.557
243.51	84.848
243.89	61.682
244.26	73.832
244.63	60.396
245.00	66.055
245.38	63.559
245.75	67.424
246.12	65.926
246.49	59.574
246.87	66.393
247.24	66.667
247.61	61.250
247.98	63.946
248.36	54.545
248.73	62.245
249.10	53.571
249.47	58.500
249.84	55.224
250.22	52.973
250.59	52.500
250.96	51.899
251.33	54.419
251.70	51.786
252.08	53.782
252.45	49.801
252.82	48.289
253.19	45.455
253.56	50.769
253.94	46.377
254.31	49.225
254.68	48.432
255.05	51.724
255.42	51.095
255.79	49.837
256.16	48.814
256.54	47.078
256.91	49.346
257.28	45.819
257.65	44.514
258.02	45.723
258.39	47.278
258.76	46.087
259.14	42.000
259.51	44.315
259.88	50.760
260.25	43.956
260.62	44.932
260.99	42.424
261.36	47.075
261.73	47.606
262.10	47.906
262.47	45.500
262.85	45.600
263.22	46.272
263.59	45.013
263.96	45.614
264.33	44.198
264.70	45.209
265.07	44.878
265.44	42.431
265.81	42.689
266.18	41.648
266.55	44.681
266.92	42.506
267.29	46.053
267.66	43.274
268.03	43.049
268.40	41.649
268.77	45.154
269.14	40.564
269.51	44.098
269.88	42.041
270.25	40.389
270.62	43.348
270.99	41.988
271.36	44.512
271.73	42.977
272.10	42.626
272.47	43.056
272.84	39.721
273.21	43.802
273.58	42.510
273.95	43.121
274.32	42.218
274.69	43.307
275.06	41.712
275.43	41.571
275.80	40.000
276.17	40.625
276.54	43.738
276.91	45.336
277.28	39.964
277.65	42.066
278.02	40.625
278.39	41.007
278.76	39.655
279.13	37.722
279.50	41.636
279.87	39.106
280.23	37.753
280.60	43.066
280.97	43.276
281.34	37.294
281.71	42.087
282.08	38.803
282.45	38.851
282.82	40.134
283.19	39.587
283.56	37.190
283.92	42.997
284.29	39.601
284.66	40.000
285.03	39.469
285.40	40.661
285.77	38.272
286.14	39.628
286.51	41.718
286.87	39.241
287.24	37.988
287.61	39.058
287.98	37.612
288.35	37.333
288.72	37.936
289.08	38.288
289.45	37.043
289.82	38.906
290.19	38.214
290.56	38.574
290.93	39.137
291.29	35.635
291.66	37.571
292.03	37.307
292.40	37.805
292.77	37.465
293.13	39.087
293.50	36.437
293.87	36.314
294.24	38.741
294.60	37.147
294.97	38.322
295.34	37.052
295.71	37.188
296.08	37.733
296.44	36.086
296.81	37.097
297.18	35.868
297.55	36.576
297.91	34.729
298.28	36.594
298.65	34.479
299.02	35.706
299.38	35.612
299.75	36.829
300.12	35.206
300.48	38.056
300.85	36.591
301.22	35.581
301.59	35.024
301.95	37.223
302.32	37.020
302.69	37.104
303.05	36.251
303.42	36.996
303.79	36.186
304.15	34.983
304.52	34.884
304.89	36.247
305.25	38.710
305.62	36.461
305.99	35.217
306.35	38.211
306.72	36.524
307.09	38.509
307.45	36.642
307.82	35.597
308.19	35.670
308.55	36.500
308.92	37.586
309.29	37.673
309.65	37.463
310.02	37.931
310.38	36.291
310.75	36.837
311.12	38.027
311.48	38.707
311.85	37.405
312.22	39.064
312.58	37.318
312.95	39.029
313.31	39.045
313.68	37.617
314.05	38.462
314.41	37.709
314.78	40.341
315.14	40.284
315.51	39.924
315.87	39.690
316.24	40.896
316.61	40.734
316.97	39.633
317.34	40.791
317.70	40.913
318.07	40.658
318.43	41.388
318.80	40.718
319.16	42.133
319.53	42.301
319.89	40.950
320.26	43.669
320.62	41.758
320.99	42.803
321.35	41.651
321.72	42.884
322.08	43.213
322.45	44.233
322.81	44.190
323.18	43.872
323.54	42.334
323.91	45.059
324.27	44.562
324.64	45.156
325.00	46.293
325.37	44.941
325.73	45.110
326.10	45.899
326.46	46.821
326.83	45.280
327.19	46.586
327.56	46.086
327.92	47.131
328.29	48.527
328.65	46.490
329.01	46.792
329.38	46.870
329.74	46.712
330.11	47.785
330.47	47.315
330.84	46.764
331.20	47.631
331.56	48.705
331.93	49.615
332.29	47.109
332.66	48.554
333.02	47.251
333.38	47.295
333.75	47.456
334.11	47.399
334.48	49.231
334.84	48.311
335.20	48.845
335.57	48.531
335.93	48.108
336.29	47.844
336.66	48.799
337.02	48.589
337.38	48.323
337.75	48.395
338.11	47.932
338.47	49.196
338.84	48.857
339.20	48.312
339.56	48.612
339.93	47.993
340.29	47.731
340.65	49.455
341.02	48.512
341.38	49.261
341.74	48.920
342.11	48.164
342.47	48.318
342.83	49.631
343.20	49.394
343.56	48.292
343.92	49.876
344.28	49.123
344.65	50.041
345.01	48.651
345.37	48.638
345.73	50.079
346.10	48.446
346.46	50.558
346.82	48.148
347.19	50.000
347.55	49.336
347.91	50.378
348.27	48.490
348.63	49.842
349.00	49.505
349.36	51.518
349.72	49.083
350.08	50.932
350.45	49.353
350.81	50.612
351.17	49.461
351.53	49.269
351.89	50.816
352.26	50.567
352.62	50.905
352.98	49.770
353.34	51.541
353.70	49.694
354.07	50.846
354.43	51.843
354.79	50.190
355.15	50.230
355.51	49.773
355.87	51.280
356.24	51.193
356.60	50.152
356.96	51.478
357.32	50.867
357.68	51.689
358.04	50.988
358.40	51.949
358.77	50.639
359.13	52.027
359.49	52.113
359.85	52.792
360.21	51.857
360.57	51.241
360.93	52.165
361.29	52.886
361.66	53.318
362.02	51.491
362.38	52.597
362.74	52.442
363.10	52.735
363.46	51.934
363.82	52.805
364.18	52.347
364.54	53.362
364.90	52.544
365.26	53.227
365.62	53.315
365.98	52.030
366.35	52.276
366.71	54.407
367.07	53.106
367.43	52.317
367.79	52.527
368.15	51.696
368.51	53.963
368.87	53.397
369.23	53.638
369.59	52.596
369.95	54.755
370.31	54.620
370.67	53.296
371.03	54.972
371.39	54.848
371.75	53.594
372.11	53.365
372.47	54.658
372.83	55.201
373.19	54.489
373.55	54.639
373.91	53.384
374.27	54.101
374.63	54.508
374.99	55.054
375.35	56.048
375.71	54.551
376.07	55.172
376.42	54.604
376.78	57.161
377.14	56.750
377.50	54.744
377.86	56.310
378.22	56.246
378.58	55.751
378.94	55.763
379.30	55.913
379.66	55.930
380.02	56.246
380.38	55.855
380.74	56.920
381.09	56.308
381.45	55.145
381.81	56.915
382.17	56.227
382.53	56.269
382.89	56.830
383.25	57.253
383.61	56.138
383.97	56.089
384.32	57.263
384.68	57.873
385.04	56.389
385.40	57.414
385.76	56.056
386.12	57.885
386.48	57.933
386.83	57.213
387.19	56.596
387.55	57.126
387.91	57.852
388.27	58.596
388.62	57.453
388.98	57.609
389.34	55.503
389.70	56.899
390.06	57.256
390.42	57.495
390.77	57.740
391.13	57.514
391.49	57.471
391.85	58.646
392.20	56.496
392.56	57.527
392.92	56.990
393.28	56.166
393.64	56.537
393.99	55.602
394.35	56.386
394.71	57.419
395.07	56.630
395.42	57.377
395.78	57.927
396.14	58.133
396.50	57.762
396.85	58.049
397.21	58.785
397.57	58.159
397.92	56.326
398.28	56.812
398.64	57.417
399.00	56.815
399.35	55.824
399.71	57.119
400.07	57.249
400.42	57.313
400.78	57.361
401.14	57.663
401.49	57.085
401.85	57.300
402.21	56.005
402.57	57.271
402.92	56.485
403.28	56.325
403.63	55.032
403.99	56.031
404.35	56.624
404.70	58.358
405.06	55.587
405.42	55.835
405.77	55.347
406.13	55.043
406.49	55.486
406.84	54.992
407.20	56.792
407.55	55.877
407.91	56.988
408.27	55.852
408.62	55.056
408.98	57.244
409.34	54.822
409.69	55.632
410.05	55.695
410.40	56.125
410.76	55.295
411.11	54.562
411.47	55.556
411.83	53.427
412.18	53.200
412.54	55.736
412.89	53.805
413.25	55.131
413.60	54.673
413.96	54.877
414.31	54.368
414.67	55.121
415.03	55.875
415.38	55.899
415.74	53.506
416.09	55.278
416.45	54.945
416.80	55.933
417.16	53.533
417.51	55.732
417.87	55.069
418.22	54.192
418.58	54.459
418.93	53.956
419.29	53.112
419.64	54.452
420.00	54.415
420.35	54.297
420.71	53.851
421.06	53.502
421.42	54.462
421.77	53.914
422.12	53.473
422.48	53.416
422.83	53.962
423.19	53.294
423.54	53.209
423.90	54.077
424.25	54.595
424.61	53.163
424.96	53.077
425.31	54.078
425.67	54.602
426.02	53.954
426.38	52.859
426.73	53.962
427.09	54.211
427.44	53.517
427.79	52.830
428.15	55.274
428.50	53.029
428.85	54.262
429.21	53.052
429.56	52.792
429.92	53.754
430.27	53.169
430.62	51.640
430.98	52.046
431.33	52.470
431.68	51.951
432.04	52.923
432.39	53.513
432.74	52.752
433.10	53.544
433.45	53.935
433.80	54.661
434.16	51.655
434.51	53.664
434.86	52.803
435.22	53.431
435.57	53.705
435.92	53.614
436.28	53.917
436.63	52.242
436.98	54.279
437.34	52.854
437.69	53.695
438.04	51.935
438.39	52.890
438.75	53.619
439.10	51.808
439.45	52.289
439.81	52.689
440.16	52.119
440.51	50.845
440.86	53.390
441.22	52.435
441.57	52.546
441.92	52.221
442.27	51.907
442.63	51.270
442.98	51.293
443.33	52.437
443.68	51.962
444.03	51.414
444.39	51.460
444.74	51.087
445.09	52.343
445.44	52.285
445.79	51.706
446.15	52.316
446.50	52.162
446.85	51.942
447.20	50.647
447.55	51.332
447.91	51.145
448.26	50.479
448.61	51.189
448.96	52.505
449.31	51.320
449.66	50.720
450.02	50.513
450.37	51.749
450.72	52.176
451.07	51.658
451.42	50.622
451.77	51.375
452.12	50.993
452.47	51.337
452.83	50.930
453.18	49.610
453.53	50.977
453.88	49.943
454.23	51.249
454.58	50.991
454.93	48.927
455.28	50.428
455.63	50.768
455.98	50.141
456.34	51.307
456.69	49.817
457.04	49.165
457.39	49.886
457.74	50.563
458.09	49.074
458.44	49.890
458.79	50.080
459.14	48.663
459.49	50.510
459.84	49.837
460.19	48.870
460.54	49.801
460.89	49.041
461.24	48.396
461.59	49.320
461.94	49.173
462.29	49.085
462.64	48.995
462.99	48.496
463.34	48.218
463.69	49.304
464.04	49.280
464.39	48.598
464.74	47.773
465.09	49.100
465.44	47.878
465.79	47.904
466.14	46.423
466.49	48.671
466.84	47.603
467.19	48.096
467.54	47.027
467.89	47.711
468.24	47.887
468.59	47.619
468.94	47.101
469.29	46.915
469.64	47.203
469.99	47.044
470.34	46.553
470.68	47.517
471.03	47.498
471.38	46.954
471.73	46.114
472.08	47.358
472.43	47.238
472.78	47.247
473.13	46.183
473.48	47.188
473.83	46.643
474.17	46.687
474.52	46.268
474.87	45.424
475.22	46.202
475.57	45.750
475.92	44.865
476.27	44.995
476.61	45.630
476.96	45.037
477.31	45.913
477.66	46.538
478.01	44.507
478.36	45.675
478.70	45.112
479.05	46.653
479.40	44.841
479.75	44.588
480.10	44.869
480.45	44.631
480.79	44.885
481.14	44.603
481.49	43.641
481.84	44.371
482.19	44.803
482.53	44.620
482.88	43.907
483.23	43.978
483.58	43.941
483.92	44.196
484.27	43.793
484.62	43.421
484.97	43.319
485.31	42.588
485.66	43.068
486.01	42.820
486.36	41.898
486.70	40.736
487.05	40.853
487.40	42.094
487.75	41.935
488.09	41.591
488.44	41.969
488.79	42.242
489.13	42.628
489.48	42.749
489.83	42.327
490.17	41.618
490.52	41.904
490.87	41.983
491.22	42.686
491.56	42.468
491.91	41.577
492.26	40.713
492.60	41.595
492.95	42.229
493.30	41.674
493.64	42.093
493.99	41.816
494.34	41.596
494.68	42.143
495.03	41.626
495.37	41.423
495.72	40.932
496.07	40.791
496.41	41.486
496.76	40.481
497.11	40.146
497.45	41.210
497.80	40.547
498.14	40.499
498.49	40.436
498.84	40.047
499.18	40.265
499.53	39.642
499.87	40.476
500.22	39.843
500.56	41.133
500.91	41.141
501.26	41.249
501.60	40.073
501.95	40.009
502.29	40.178
502.64	39.965
502.98	39.707
503.33	40.223
503.67	39.691
504.02	38.871
504.36	39.231
504.71	39.688
505.06	39.840
505.40	39.307
505.75	39.196
506.09	39.711
506.44	39.897
506.78	40.170
507.13	39.603
507.47	39.592
507.82	39.757
508.16	39.931
508.51	39.372
508.85	38.699
509.19	39.599
509.54	37.842
509.88	39.035
510.23	38.529
510.57	38.562
510.92	39.111
511.26	38.705
511.61	37.715
511.95	38.576
512.30	37.550
512.64	38.577
512.98	37.724
513.33	38.473
513.67	37.804
514.02	38.701
514.36	37.487
514.70	38.293
515.05	37.240
515.39	39.803
515.74	38.928
516.08	37.636
516.42	38.579
516.77	37.387
517.11	37.280
517.46	38.200
517.80	37.302
518.14	37.803
518.49	38.589
518.83	37.253
519.17	36.606
519.52	37.739
519.86	37.493
520.20	38.685
520.55	36.461
520.89	37.184
521.23	37.734
521.58	37.235
521.92	37.026
522.26	37.500
522.61	37.314
522.95	37.898
523.29	37.018
523.64	36.069
523.98	36.972
524.32	36.448
524.66	36.812
525.01	37.160
525.35	35.298
525.69	36.665
526.04	37.061
526.38	36.551
526.72	35.919
527.06	36.073
527.41	37.787
527.75	36.701
528.09	35.039
528.43	36.425
528.78	36.732
529.12	36.303
529.46	35.593
529.80	35.339
530.15	35.298
530.49	34.657
530.83	36.563
531.17	35.178
531.51	35.561
531.86	36.111
532.20	35.167
532.54	35.405
532.88	37.039
533.22	35.771
533.57	35.815
533.91	34.033
534.25	34.391
534.59	36.491
534.93	33.902
535.27	34.092
535.62	34.072
535.96	34.515
536.30	36.015
536.64	34.534
536.98	33.984
537.32	34.500
537.66	33.992
538.01	35.356
538.35	34.623
538.69	33.617
539.03	34.080
539.37	33.374
539.71	34.691
540.05	34.154
540.39	35.346
540.73	34.367
541.07	33.375
541.42	34.017
541.76	33.909
542.10	34.094
542.44	34.040
542.78	33.669
543.12	33.558
543.46	33.960
543.80	34.398
544.14	33.746
544.48	33.151
544.82	33.272
545.16	33.151
545.50	33.313
545.84	34.028
546.18	34.070
546.52	33.574
546.86	34.365
547.20	33.592
547.54	32.172
547.88	32.299
548.22	33.758
548.56	32.823
548.90	32.088
549.24	32.660
549.58	32.603
549.92	33.268
550.26	33.266
550.60	32.868
550.94	34.261
551.28	33.862
551.62	34.414
551.96	32.500
552.30	32.894
552.64	33.333
552.98	32.603
553.32	32.330
553.66	31.726
554.00	31.660
554.34	33.222
554.68	32.191
555.02	32.994
555.36	32.247
555.69	31.937
556.03	31.847
556.37	32.250
556.71	32.203
557.05	31.389
557.39	31.467
557.73	31.536
558.07	32.663
558.41	32.762
558.75	32.695
559.08	33.024
559.42	32.856
559.76	33.500
560.10	31.796
560.44	31.851
560.78	32.353
561.12	31.151
561.45	30.726
561.79	31.336
562.13	30.954
562.47	31.408
562.81	32.075
563.15	31.222
563.48	30.373
563.82	31.441
564.16	31.530
564.50	31.465
564.84	31.368
565.17	31.254
565.51	32.759
565.85	32.696
566.19	31.548
566.52	30.987
566.86	32.516
567.20	31.910
567.54	30.895
567.88	31.612
568.21	30.005
568.55	30.739
568.89	30.976
569.23	30.328
569.56	30.631
569.90	30.399
570.24	30.733
570.57	30.532
570.91	29.641
571.25	30.368
571.59	30.203
571.92	29.682
572.26	29.137
572.60	29.325
572.93	29.816
573.27	30.126
573.61	29.751
573.95	29.109
574.28	29.859
574.62	29.157
574.96	28.843
575.29	29.137
575.63	29.211
575.97	28.627
576.30	28.423
576.64	29.068
576.98	29.301
577.31	29.295
577.65	28.863
577.98	29.325
578.32	28.684
578.66	28.616
578.99	28.844
579.33	28.823
579.67	28.595
580.00	28.205
580.34	28.789
580.67	28.658
581.01	28.659
581.35	28.960
581.68	28.626
582.02	28.793
582.35	28.359
582.69	28.452
583.02	28.383
583.36	28.791
583.70	29.006
584.03	28.635
584.37	29.278
584.70	28.589
585.04	28.242
585.37	28.291
585.71	29.146
586.04	27.945
586.38	27.987
586.72	28.520
587.05	28.435
587.39	28.774
587.72	28.861
588.06	28.284
588.39	28.301
588.73	28.385
589.06	28.538
589.40	28.638
589.73	28.712
590.07	29.135
590.40	29.895
590.73	28.975
591.07	29.450
591.40	28.623
591.74	28.774
592.07	28.286
592.41	29.017
592.74	28.634
593.08	27.995
593.41	28.217
593.75	27.848
594.08	28.334
594.41	28.022
594.75	28.288
595.08	28.361
595.42	28.736
595.75	28.628
596.09	28.363
596.42	28.405
596.75	29.087
597.09	28.683
597.42	29.184
597.75	28.682
598.09	28.149
598.42	28.274
598.76	27.911
599.09	28.356
599.42	27.301
599.76	28.087
600.09	27.864
600.42	28.039
600.76	28.280
601.09	27.442
601.42	27.526
601.76	27.999
602.09	28.035
602.42	27.505
602.76	28.387
603.09	28.205
603.42	28.037
603.76	27.910
604.09	27.543
604.42	27.797
604.76	28.052
605.09	28.000
605.42	27.875
605.75	28.030
606.09	27.391
606.42	27.245
606.75	27.555
607.09	27.319
607.42	27.521
607.75	27.946
608.08	27.457
608.42	27.810
608.75	27.129
609.08	27.629
609.41	28.318
609.75	28.297
610.08	27.563
610.41	27.844
610.74	26.883
611.07	28.513
611.41	27.804
611.74	27.677
612.07	28.324
612.40	28.119
612.73	27.509
613.07	27.978
613.40	28.170
613.73	28.208
614.06	27.700
614.39	28.030
614.72	27.223
615.06	28.091
615.39	27.079
615.72	26.573
616.05	28.327
616.38	27.905
616.71	27.564
617.05	27.018
617.38	27.584
617.71	27.728
618.04	27.594
618.37	26.737
618.70	27.367
619.03	27.350
619.36	27.827
619.69	27.309
620.03	28.963
620.36	27.810
620.69	28.480
621.02	27.514
621.35	27.292
621.68	27.065
622.01	28.339
622.34	26.730
622.67	28.230
623.00	27.774
623.33	27.328
623.66	27.013
623.99	28.151
624.32	27.710
624.65	26.662
624.99	27.857
625.32	27.522
625.65	26.345
625.98	27.406
626.31	27.967
626.64	27.866
626.97	26.626
627.30	27.795
627.63	28.336
627.96	27.074
628.29	28.300
628.62	27.374
628.95	26.773
629.28	27.783
629.61	26.801
629.94	27.831
630.26	27.383
630.59	28.989
630.92	27.444
631.25	27.380
