SpectraSuite Data File
++++++++++++++++++++++++++++++++++++
Date: Tue May 12 16:03:30 PDT 2015
User: schluterlab
Dark Spectrum Present: Yes
Reference Spectrum Present: Yes
Number of Sampled Component Spectra: 1
Spectrometers: USB2E3373
Integration Time (usec): 3000 (USB2E3373)
Spectra Averaged: 3 (USB2E3373)
Boxcar Smoothing: 0 (USB2E3373)
Correct for Electrical Dark: No (USB2E3373)
Strobe/Lamp Enabled: No (USB2E3373)
Correct for Detector Non-linearity: No (USB2E3373)
Correct for Stray Light: No (USB2E3373)
Number of Pixels in Processed Spectrum: 2048
>>>>>Begin Processed Spectral Data<<<<<
178.53	0.000
178.91	-225.000
179.29	-625.000
179.67	-3600.000
180.04	-180.000
180.42	725.000
180.80	2250.000
181.18	0.000
181.56	-475.000
181.94	0.000
182.31	1100.000
182.69	-3300.000
183.07	628.571
183.45	-3600.000
183.83	-1850.000
184.20	420.000
184.58	428.571
184.96	-330.769
185.34	-250.000
185.72	1550.000
186.09	-1050.000
186.47	-3300.000
186.85	1066.667
187.23	580.000
187.61	2050.000
187.98	525.000
188.36	250.000
188.74	341.667
189.12	325.000
189.49	850.000
189.87	0.000
190.25	587.500
190.63	2900.000
191.00	-250.000
191.38	-3300.000
191.76	-750.000
192.14	562.500
192.51	-3200.000
192.89	1350.000
193.27	1066.667
193.65	-1000.000
194.02	-940.000
194.40	500.000
194.78	-164.286
195.15	280.000
195.53	-3800.000
195.91	-600.000
196.29	4300.000
196.66	212.500
197.04	875.000
197.42	-1950.000
197.79	550.000
198.17	291.667
198.55	0.000
198.92	514.286
199.30	1500.000
199.68	2150.000
200.05	800.000
200.43	-516.667
200.81	227.778
201.18	3800.000
201.56	266.667
201.94	-800.000
202.31	-337.500
202.69	-500.000
203.07	4600.000
203.44	-616.667
203.82	383.333
204.19	540.000
204.57	-1100.000
204.95	-875.000
205.32	-760.000
205.70	783.333
206.08	800.000
206.45	-1033.333
206.83	488.889
207.20	136.842
207.58	333.333
207.96	640.000
208.33	0.000
208.71	542.857
209.08	580.000
209.46	-3400.000
209.84	-975.000
210.21	800.000
210.59	-740.000
210.96	333.333
211.34	-875.000
211.71	400.000
212.09	875.000
212.46	1500.000
212.84	-633.333
213.22	455.556
213.59	-3100.000
213.97	280.000
214.34	1175.000
214.72	1066.667
215.09	1033.333
215.47	-2900.000
215.84	-310.000
216.22	-337.500
216.59	0.000
216.97	0.000
217.34	1550.000
217.72	-1500.000
218.09	1166.667
218.47	512.500
218.84	925.000
219.22	1466.667
219.59	1166.667
219.97	614.286
220.34	433.333
220.72	1550.000
221.09	3300.000
221.47	300.000
221.84	1133.333
222.22	340.000
222.59	288.889
222.97	292.857
223.34	275.000
223.72	-1400.000
224.09	1433.333
224.46	261.538
224.84	-925.000
225.21	577.778
225.59	313.333
225.96	1333.333
226.34	-660.000
226.71	-650.000
227.08	-540.000
227.46	0.000
227.83	-566.667
228.21	-1700.000
228.58	425.000
228.95	1000.000
229.33	433.333
229.70	1000.000
230.08	384.615
230.45	4100.000
230.82	-925.000
231.20	-966.667
231.57	-1100.000
231.95	520.000
232.32	266.667
232.69	616.667
233.07	258.333
233.44	-2000.000
233.81	286.667
234.19	166.667
234.56	325.000
234.93	270.588
235.31	240.000
235.68	393.750
236.05	196.429
236.43	151.852
236.80	357.143
237.17	193.103
237.55	153.125
237.92	145.000
238.29	166.667
238.67	153.125
239.04	158.537
239.41	127.083
239.79	125.000
240.16	127.083
240.53	104.918
240.91	88.406
241.28	106.780
241.65	87.879
242.02	100.000
242.40	120.000
242.77	83.516
243.14	101.266
243.51	94.949
243.89	83.178
244.26	74.766
244.63	92.079
245.00	75.229
245.38	72.034
245.75	67.424
246.12	77.037
246.49	70.213
246.87	70.492
247.24	79.333
247.61	70.000
247.98	76.871
248.36	67.879
248.73	65.816
249.10	69.643
249.47	64.500
249.84	60.199
250.22	68.108
250.59	70.500
250.96	59.916
251.33	67.442
251.70	66.518
252.08	62.605
252.45	60.956
252.82	59.316
253.19	58.893
253.56	61.154
253.94	56.884
254.31	56.589
254.68	59.233
255.05	57.241
255.42	60.219
255.79	59.935
256.16	62.034
256.54	59.740
256.91	56.209
257.28	61.204
257.65	53.605
258.02	55.752
258.39	57.307
258.76	56.812
259.14	56.857
259.51	56.560
259.88	59.271
260.25	53.571
260.62	55.616
260.99	54.545
261.36	55.432
261.73	57.447
262.10	56.806
262.47	51.500
262.85	56.267
263.22	55.270
263.59	56.010
263.96	52.130
264.33	54.815
264.70	56.511
265.07	52.195
265.44	53.899
265.81	55.425
266.18	55.835
266.55	53.901
266.92	55.034
267.29	53.070
267.66	53.363
268.03	54.260
268.40	52.008
268.77	52.643
269.14	49.892
269.51	53.007
269.88	51.633
270.25	52.268
270.62	51.288
270.99	51.521
271.36	53.862
271.73	50.524
272.10	51.515
272.47	50.992
272.84	50.499
273.21	50.000
273.58	54.858
273.95	52.156
274.32	50.778
274.69	53.937
275.06	50.455
275.43	50.383
275.80	49.057
276.17	48.529
276.54	51.402
276.91	50.373
277.28	48.905
277.65	51.292
278.02	49.081
278.39	49.640
278.76	50.690
279.13	47.509
279.50	51.273
279.87	49.162
280.23	49.355
280.60	49.453
280.97	47.759
281.34	49.010
281.71	49.043
282.08	48.718
282.45	47.635
282.82	50.167
283.19	48.490
283.56	47.934
283.92	48.534
284.29	46.589
284.66	45.882
285.03	51.244
285.40	47.273
285.77	44.290
286.14	46.904
286.51	47.086
286.87	44.937
287.24	42.342
287.61	44.225
287.98	45.672
288.35	44.444
288.72	43.703
289.08	42.492
289.45	45.427
289.82	45.781
290.19	41.288
290.56	43.814
290.93	44.460
291.29	42.818
291.66	41.949
292.03	40.813
292.40	41.870
292.77	41.922
293.13	41.227
293.50	41.026
293.87	41.463
294.24	42.657
294.60	41.992
294.97	41.259
295.34	41.567
295.71	38.633
296.08	40.400
296.44	39.390
296.81	39.578
297.18	37.769
297.55	39.778
297.91	37.808
298.28	38.043
298.65	36.933
299.02	37.877
299.38	38.010
299.75	36.951
300.12	36.239
300.48	40.047
300.85	38.379
301.22	37.791
301.59	36.439
301.95	38.506
302.32	38.650
302.69	36.878
303.05	38.159
303.42	35.987
303.79	38.137
304.15	35.424
304.52	36.575
304.89	35.928
305.25	38.487
305.62	36.141
305.99	36.630
306.35	36.421
306.72	37.045
307.09	36.439
307.45	36.642
307.82	36.523
308.19	39.072
308.55	37.300
308.92	37.095
309.29	39.250
309.65	38.057
310.02	38.742
310.38	37.388
310.75	38.669
311.12	36.207
311.48	39.865
311.85	37.882
312.22	38.491
312.58	38.290
312.95	39.903
313.31	41.292
313.68	39.024
314.05	39.011
314.41	41.061
314.78	42.045
315.14	42.085
315.51	41.438
315.87	39.781
316.24	43.044
316.61	41.719
316.97	42.110
317.34	43.576
317.70	43.810
318.07	43.416
318.43	43.585
318.80	44.046
319.16	43.094
319.53	44.779
319.89	44.265
320.26	48.790
320.62	47.619
320.99	46.902
321.35	47.310
321.72	48.008
322.08	48.015
322.45	48.683
322.81	50.229
323.18	51.776
323.54	50.697
323.91	52.221
324.27	51.282
324.64	53.287
325.00	52.931
325.37	53.204
325.73	53.626
326.10	53.935
326.46	52.931
326.83	55.200
327.19	54.859
327.56	55.112
327.92	56.803
328.29	56.219
328.65	58.476
329.01	57.742
329.38	57.107
329.74	57.387
330.11	58.558
330.47	58.227
330.84	56.169
331.20	57.530
331.56	58.808
331.93	58.597
332.29	55.442
332.66	59.269
333.02	58.333
333.38	59.424
333.75	58.966
334.11	59.144
334.48	60.085
334.84	58.024
335.20	59.196
335.57	57.935
335.93	58.284
336.29	57.297
336.66	59.863
337.02	58.169
337.38	58.469
337.75	59.206
338.11	58.312
338.47	58.764
338.84	59.356
339.20	59.048
339.56	58.368
339.93	57.860
340.29	57.647
340.65	58.843
341.02	59.131
341.38	58.621
341.74	58.721
342.11	57.513
342.47	57.670
342.83	59.721
343.20	58.610
343.56	56.871
343.92	59.538
344.28	56.778
344.65	61.043
345.01	57.540
345.37	56.330
345.73	56.270
346.10	57.849
346.46	58.373
346.82	56.327
347.19	57.032
347.55	55.347
347.91	56.193
348.27	57.010
348.63	57.041
349.00	56.283
349.36	58.677
349.72	58.257
350.08	58.307
350.45	57.578
350.81	58.180
351.17	56.471
351.53	57.352
351.89	56.643
352.26	57.218
352.62	57.240
352.98	57.439
353.34	57.781
353.70	56.193
354.07	56.462
354.43	58.218
354.79	55.733
355.15	57.198
355.51	56.042
355.87	55.798
356.24	56.890
356.60	56.088
356.96	57.013
357.32	57.046
357.68	55.874
358.04	56.763
358.40	55.697
358.77	56.950
359.13	56.456
359.49	56.709
359.85	57.185
360.21	57.207
360.57	55.620
360.93	56.999
361.29	58.009
361.66	57.569
362.02	56.250
362.38	56.205
362.74	55.485
363.10	57.013
363.46	54.351
363.82	56.171
364.18	57.397
364.54	57.225
364.90	55.221
365.26	57.529
365.62	56.630
365.98	56.091
366.35	56.207
366.71	55.864
367.07	55.836
367.43	57.220
367.79	56.051
368.15	55.563
368.51	55.617
368.87	55.774
369.23	55.301
369.59	55.293
369.95	56.713
370.31	55.510
370.67	55.309
371.03	56.303
371.39	56.163
371.75	56.525
372.11	56.084
372.47	56.438
372.83	56.220
373.19	56.683
373.55	56.289
373.91	54.834
374.27	54.630
374.63	55.322
374.99	56.739
375.35	57.930
375.71	56.135
376.07	55.438
376.42	54.987
376.78	57.739
377.14	56.160
377.50	55.493
377.86	55.541
378.22	55.759
378.58	56.598
378.94	56.729
379.30	56.458
379.66	56.773
380.02	56.070
380.38	56.030
380.74	55.767
381.09	56.542
381.45	55.260
381.81	55.496
382.17	55.006
382.53	55.069
382.89	56.062
383.25	55.891
383.61	55.389
383.97	55.909
384.32	56.239
384.68	56.506
385.04	55.041
385.40	56.287
385.76	55.705
386.12	56.030
386.48	55.319
386.83	55.807
387.19	55.595
387.55	55.536
387.91	55.023
388.27	56.454
388.62	54.519
388.98	54.519
389.34	54.967
389.70	55.483
390.06	55.000
390.42	54.843
390.77	55.098
391.13	55.281
391.49	56.019
391.85	55.877
392.20	54.291
392.56	53.704
392.92	52.948
393.28	54.709
393.64	54.186
393.99	55.127
394.35	53.384
394.71	53.679
395.07	54.136
395.42	54.450
395.78	55.953
396.14	54.940
396.50	54.031
396.85	53.171
397.21	54.212
397.57	53.736
397.92	53.380
398.28	53.558
398.64	54.218
399.00	53.501
399.35	53.838
399.71	52.483
400.07	52.797
400.42	54.687
400.78	53.490
401.14	53.787
401.49	53.399
401.85	52.144
402.21	52.021
402.57	53.321
402.92	54.364
403.28	52.088
403.63	51.324
403.99	52.895
404.35	52.521
404.70	53.455
405.06	52.162
405.42	52.902
405.77	51.764
406.13	52.115
406.49	50.938
406.84	51.833
407.20	51.712
407.55	53.108
407.91	53.095
408.27	51.061
408.62	51.922
408.98	53.282
409.34	50.847
409.69	50.965
410.05	52.415
410.40	51.943
410.76	51.288
411.11	50.237
411.47	51.605
411.83	50.264
412.18	52.114
412.54	51.111
412.89	51.327
413.25	52.566
413.60	51.694
413.96	51.885
414.31	51.122
414.67	52.700
415.03	51.149
415.38	50.410
415.74	51.169
416.09	51.843
416.45	51.390
416.80	52.021
417.16	51.814
417.51	50.955
417.87	50.876
418.22	50.425
418.58	51.720
418.93	51.398
419.29	50.709
419.64	51.423
420.00	50.418
420.35	51.510
420.71	50.700
421.06	50.559
421.42	51.353
421.77	51.305
422.12	51.047
422.48	50.539
422.83	50.781
423.19	50.918
423.54	50.411
423.90	51.755
424.25	51.624
424.61	52.351
424.96	51.496
425.31	51.067
425.67	51.852
426.02	51.374
426.38	51.109
426.73	50.896
427.09	51.068
427.44	51.829
427.79	51.744
428.15	53.624
428.50	52.686
428.85	51.558
429.21	51.594
429.56	50.748
429.92	50.472
430.27	50.314
430.62	50.514
430.98	50.699
431.33	50.554
431.68	50.963
432.04	51.009
432.39	51.317
432.74	50.703
433.10	53.101
433.45	52.039
433.80	52.841
434.16	51.287
434.51	52.064
434.86	52.259
435.22	52.188
435.57	52.579
435.92	52.647
436.28	51.152
436.63	51.648
436.98	52.646
437.34	52.340
437.69	50.952
438.04	52.957
438.39	52.481
438.75	51.392
439.10	52.617
439.45	50.876
439.81	51.995
440.16	52.779
440.51	50.619
440.86	53.447
441.22	51.461
441.57	51.706
441.92	52.024
442.27	52.680
442.63	52.337
442.98	52.317
443.33	53.348
443.68	51.157
444.03	51.791
444.39	52.825
444.74	52.484
445.09	52.870
445.44	52.497
445.79	52.778
446.15	52.474
446.50	52.057
446.85	51.544
447.20	52.438
447.55	53.290
447.91	52.957
448.26	53.461
448.61	54.561
448.96	52.941
449.31	53.410
449.66	53.710
450.02	52.728
450.37	52.693
450.72	53.829
451.07	53.694
451.42	53.290
451.77	53.723
452.12	52.864
452.47	52.309
452.83	53.690
453.18	53.814
453.53	53.996
453.88	53.429
454.23	53.283
454.58	53.205
454.93	53.096
455.28	54.162
455.63	53.605
455.98	52.284
456.34	54.468
456.69	53.293
457.04	52.745
457.39	53.486
457.74	53.829
458.09	53.285
458.44	52.355
458.79	52.732
459.14	52.973
459.49	53.341
459.84	54.728
460.19	53.164
460.54	53.561
460.89	53.358
461.24	51.947
461.59	53.231
461.94	52.896
462.29	53.204
462.64	54.397
462.99	52.399
463.34	52.495
463.69	52.753
464.04	52.907
464.39	52.318
464.74	52.345
465.09	53.337
465.44	51.959
465.79	52.150
466.14	52.199
466.49	53.554
466.84	53.567
467.19	52.724
467.54	51.592
467.89	52.700
468.24	53.040
468.59	53.869
468.94	53.382
469.29	53.207
469.64	52.733
469.99	53.021
470.34	52.309
470.68	53.172
471.03	53.636
471.38	53.907
471.73	53.103
472.08	54.207
472.43	54.562
472.78	54.225
473.13	51.564
473.48	52.384
473.83	53.298
474.17	52.340
474.52	53.021
474.87	51.677
475.22	52.770
475.57	52.256
475.92	52.274
476.27	51.959
476.61	53.887
476.96	52.299
477.31	52.956
477.66	52.550
478.01	52.604
478.36	53.038
478.70	52.060
479.05	53.661
479.40	51.835
479.75	52.085
480.10	52.614
480.45	52.194
480.79	52.535
481.14	52.116
481.49	51.784
481.84	50.880
482.19	51.790
482.53	51.471
482.88	52.912
483.23	51.105
483.58	53.007
483.92	52.057
484.27	51.156
484.62	52.292
484.97	50.604
485.31	51.378
485.66	50.685
486.01	50.056
486.36	49.262
486.70	49.301
487.05	48.934
487.40	49.644
487.75	51.037
488.09	50.227
488.44	51.243
488.79	51.232
489.13	51.400
489.48	51.538
489.83	51.668
490.17	50.578
490.52	51.766
490.87	51.034
491.22	51.640
491.56	51.954
491.91	51.165
492.26	50.913
492.60	51.253
492.95	52.333
493.30	50.682
493.64	51.123
493.99	51.878
494.34	50.784
494.68	51.439
495.03	51.414
495.37	50.653
495.72	51.888
496.07	51.078
496.41	51.043
496.76	50.274
497.11	50.643
497.45	51.337
497.80	51.390
498.14	50.023
498.49	52.136
498.84	51.495
499.18	50.366
499.53	51.677
499.87	50.943
500.22	50.944
500.56	51.300
500.91	51.670
501.26	50.666
501.60	51.275
501.95	50.314
502.29	50.178
502.64	50.154
502.98	49.889
503.33	50.869
503.67	50.552
504.02	50.694
504.36	49.955
504.71	51.419
505.06	51.056
505.40	50.445
505.75	50.608
506.09	51.797
506.44	50.799
506.78	50.992
507.13	51.478
507.47	50.946
507.82	50.852
508.16	51.788
508.51	52.222
508.85	50.142
509.19	51.297
509.54	51.025
509.88	52.163
510.23	50.637
510.57	49.807
510.92	51.099
511.26	52.259
511.61	50.763
511.95	51.319
512.30	50.150
512.64	51.298
512.98	50.538
513.33	51.127
513.67	51.165
514.02	51.792
514.36	51.246
514.70	50.773
515.05	50.400
515.39	51.590
515.74	52.324
516.08	51.416
516.42	52.568
516.77	50.987
517.11	50.720
517.46	51.724
517.80	50.628
518.14	52.676
518.49	50.772
518.83	50.055
519.17	51.525
519.52	51.393
519.86	51.771
520.20	50.082
520.55	51.781
520.89	50.977
521.23	50.935
521.58	51.348
521.92	50.437
522.26	51.481
522.61	51.812
522.95	51.471
523.29	51.462
523.64	51.734
523.98	51.761
524.32	50.750
524.66	51.246
525.01	50.710
525.35	51.031
525.69	52.679
526.04	51.517
526.38	51.560
526.72	51.014
527.06	51.567
527.41	51.935
527.75	51.978
528.09	49.849
528.43	51.129
528.78	51.103
529.12	51.896
529.46	51.373
529.80	51.110
530.15	51.326
530.49	49.940
530.83	51.005
531.17	49.938
531.51	50.399
531.86	50.302
532.20	49.876
532.54	50.031
532.88	51.218
533.22	50.091
533.57	51.678
533.91	49.242
534.25	49.740
534.59	50.175
534.93	48.692
535.27	48.890
535.62	49.650
535.96	49.823
536.30	51.615
536.64	49.814
536.98	51.227
537.32	50.812
537.66	50.383
538.01	49.474
538.35	50.281
538.69	49.636
539.03	49.689
539.37	49.333
539.71	50.062
540.05	49.046
540.39	49.811
540.73	50.380
541.07	49.310
541.42	51.244
541.76	49.137
542.10	49.445
542.44	49.626
542.78	49.717
543.12	48.773
543.46	49.060
543.80	49.499
544.14	49.536
544.48	48.783
544.82	49.664
545.16	48.270
545.50	49.846
545.84	50.694
546.18	49.740
546.52	50.557
546.86	49.130
547.20	49.419
547.54	49.462
547.88	48.175
548.22	49.545
548.56	48.497
548.90	47.094
549.24	48.642
549.58	47.552
549.92	50.098
550.26	49.966
550.60	49.634
550.94	50.407
551.28	50.759
551.62	50.759
551.96	48.919
552.30	48.583
552.64	49.709
552.98	47.874
553.32	49.104
553.66	47.948
554.00	48.842
554.34	49.001
554.68	47.513
555.02	48.676
555.36	49.136
555.69	48.953
556.03	48.280
556.37	49.012
556.71	48.501
557.05	47.379
557.39	48.667
557.73	48.248
558.07	49.229
558.41	49.006
558.75	49.795
559.08	51.394
559.42	48.318
559.76	49.964
560.10	48.727
560.44	47.379
560.78	48.402
561.12	48.633
561.45	47.559
561.79	47.940
562.13	48.326
562.47	47.631
562.81	48.731
563.15	48.933
563.48	45.652
563.82	48.596
564.16	48.507
564.50	46.715
564.84	47.720
565.17	46.762
565.51	48.030
565.85	48.735
566.19	47.143
566.52	46.931
566.86	47.752
567.20	47.079
567.54	47.325
567.88	48.305
568.21	46.630
568.55	45.428
568.89	46.533
569.23	45.772
569.56	45.927
569.90	44.880
570.24	45.451
570.57	45.003
570.91	44.743
571.25	44.514
571.59	44.106
571.92	43.945
572.26	43.881
572.60	43.543
572.93	44.595
573.27	44.371
573.61	43.828
573.95	43.800
574.28	44.571
574.62	43.898
574.96	43.648
575.29	43.265
575.63	43.463
575.97	43.330
576.30	43.027
576.64	43.031
576.98	43.441
577.31	43.830
577.65	43.669
577.98	43.083
578.32	43.082
578.66	42.788
578.99	43.570
579.33	43.550
579.67	42.996
580.00	43.064
580.34	43.295
580.67	42.975
581.01	43.625
581.35	42.775
581.68	43.291
582.02	42.848
582.35	42.580
582.69	43.200
583.02	43.424
583.36	43.978
583.70	43.740
584.03	44.196
584.37	43.715
584.70	43.668
585.04	43.469
585.37	42.628
585.71	43.528
586.04	43.116
586.38	43.859
586.72	43.835
587.05	43.464
587.39	43.489
587.72	43.547
588.06	43.928
588.39	43.603
588.73	43.503
589.06	43.858
589.40	44.476
589.73	43.723
590.07	44.509
590.40	43.798
590.73	45.465
591.07	44.478
591.40	45.190
591.74	44.318
592.07	43.636
592.41	44.484
592.74	44.013
593.08	43.229
593.41	42.968
593.75	43.016
594.08	42.716
594.41	42.652
594.75	43.390
595.08	43.381
595.42	43.779
595.75	43.073
596.09	43.969
596.42	43.736
596.75	44.631
597.09	44.366
597.42	43.959
597.75	43.043
598.09	43.578
598.42	43.778
598.76	42.791
599.09	43.840
599.42	42.734
599.76	43.453
600.09	42.915
600.42	42.921
600.76	42.930
601.09	43.321
601.42	43.506
601.76	42.714
602.09	43.819
602.42	43.290
602.76	42.581
603.09	44.382
603.42	43.303
603.76	43.167
604.09	42.888
604.42	43.239
604.76	43.619
605.09	43.388
605.42	42.991
605.75	43.822
606.09	43.076
606.42	42.240
606.75	43.762
607.09	42.006
607.42	43.190
607.75	42.635
608.08	43.298
608.42	44.044
608.75	43.047
609.08	43.115
609.41	44.455
609.75	44.139
610.08	43.480
610.41	43.303
610.74	43.506
611.07	43.656
611.41	44.115
611.74	43.451
612.07	43.545
612.40	44.250
612.73	43.135
613.07	43.335
613.40	43.659
613.73	44.683
614.06	42.650
614.39	43.838
614.72	43.345
615.06	43.175
615.39	42.970
615.72	42.740
616.05	43.948
616.38	42.060
616.71	43.625
617.05	43.328
617.38	43.764
617.71	44.432
618.04	44.027
618.37	43.580
618.70	43.187
619.03	43.407
619.36	43.970
619.69	43.470
620.03	44.227
620.36	44.573
620.69	45.530
621.02	45.584
621.35	43.553
621.68	44.690
622.01	45.756
622.34	43.190
622.67	44.944
623.00	43.363
623.33	43.455
623.66	43.713
623.99	44.726
624.32	43.631
624.65	43.186
624.99	43.881
625.32	43.754
625.65	42.138
625.98	43.724
626.31	46.291
626.64	43.508
626.97	42.999
627.30	44.332
627.63	45.604
627.96	44.523
628.29	46.205
628.62	44.654
628.95	45.035
629.28	46.450
629.61	45.694
629.94	45.808
630.26	44.281
630.59	45.656
630.92	44.395
