SpectraSuite Data File
++++++++++++++++++++++++++++++++++++
Date: Tue May 12 17:18:25 PDT 2015
User: schluterlab
Dark Spectrum Present: Yes
Reference Spectrum Present: Yes
Number of Sampled Component Spectra: 1
Spectrometers: USB2E3373
Integration Time (usec): 3000 (USB2E3373)
Spectra Averaged: 3 (USB2E3373)
Boxcar Smoothing: 0 (USB2E3373)
Correct for Electrical Dark: No (USB2E3373)
Strobe/Lamp Enabled: No (USB2E3373)
Correct for Detector Non-linearity: No (USB2E3373)
Correct for Stray Light: No (USB2E3373)
Number of Pixels in Processed Spectrum: 2048
>>>>>Begin Processed Spectral Data<<<<<
178.53	0.000
178.91	-233.333
179.29	-725.000
179.67	-4400.000
180.04	-126.667
180.42	725.000
180.80	1200.000
181.18	0.000
181.56	-312.500
181.94	0.000
182.31	766.667
182.69	-3200.000
183.07	542.857
183.45	-3200.000
183.83	-1800.000
184.20	320.000
184.58	614.286
184.96	-346.154
185.34	-266.667
185.72	1750.000
186.09	-825.000
186.47	-3000.000
186.85	933.333
187.23	620.000
187.61	1500.000
187.98	462.500
188.36	192.857
188.74	391.667
189.12	308.333
189.49	1050.000
189.87	0.000
190.25	612.500
190.63	2500.000
191.00	-183.333
191.38	-3800.000
191.76	-600.000
192.14	525.000
192.51	-2400.000
192.89	2050.000
193.27	900.000
193.65	-1133.333
194.02	-800.000
194.40	628.571
194.78	-185.714
195.15	226.667
195.53	-2400.000
195.91	-480.000
196.29	2500.000
196.66	256.250
197.04	850.000
197.42	-2000.000
197.79	700.000
198.17	316.667
198.55	0.000
198.92	585.714
199.30	1100.000
199.68	2200.000
200.05	633.333
200.43	-466.667
200.81	150.000
201.18	3100.000
201.56	275.000
201.94	-700.000
202.31	-212.500
202.69	-500.000
203.07	2500.000
203.44	-450.000
203.82	300.000
204.19	600.000
204.57	-1050.000
204.95	-825.000
205.32	-720.000
205.70	466.667
206.08	700.000
206.45	-900.000
206.83	311.111
207.20	184.211
207.58	216.667
207.96	700.000
208.33	0.000
208.71	600.000
209.08	800.000
209.46	-3300.000
209.84	-650.000
210.21	740.000
210.59	-760.000
210.96	266.667
211.34	-900.000
211.71	445.455
212.09	625.000
212.46	1600.000
212.84	-516.667
213.22	400.000
213.59	-2900.000
213.97	330.000
214.34	925.000
214.72	1333.333
215.09	833.333
215.47	-2900.000
215.84	-240.000
216.22	-400.000
216.59	0.000
216.97	0.000
217.34	1650.000
217.72	-1150.000
218.09	1000.000
218.47	387.500
218.84	825.000
219.22	1200.000
219.59	866.667
219.97	542.857
220.34	344.444
220.72	1450.000
221.09	2500.000
221.47	341.667
221.84	866.667
222.22	360.000
222.59	277.778
222.97	221.429
223.34	231.250
223.72	-900.000
224.09	1466.667
224.46	253.846
224.84	-425.000
225.21	488.889
225.59	266.667
225.96	1166.667
226.34	-700.000
226.71	-875.000
227.08	-520.000
227.46	0.000
227.83	-433.333
228.21	-1550.000
228.58	350.000
228.95	1225.000
229.33	355.556
229.70	1075.000
230.08	353.846
230.45	3500.000
230.82	-975.000
231.20	-700.000
231.57	-1200.000
231.95	580.000
232.32	208.333
232.69	666.667
233.07	250.000
233.44	-1350.000
233.81	273.333
234.19	129.630
234.56	200.000
234.93	200.000
235.31	210.000
235.68	256.250
236.05	171.429
236.43	155.556
236.80	221.429
237.17	127.586
237.55	137.500
237.92	102.500
238.29	109.091
238.67	109.375
239.04	90.244
239.41	54.167
239.79	77.500
240.16	91.667
240.53	52.459
240.91	43.478
241.28	64.407
241.65	63.636
242.02	56.338
242.40	65.714
242.77	54.945
243.14	39.241
243.51	59.596
243.89	41.121
244.26	29.907
244.63	33.663
245.00	34.862
245.38	27.966
245.75	37.121
246.12	35.556
246.49	36.879
246.87	25.410
247.24	37.333
247.61	32.500
247.98	31.973
248.36	29.091
248.73	27.551
249.10	26.190
249.47	28.000
249.84	27.861
250.22	28.108
250.59	33.000
250.96	30.802
251.33	24.651
251.70	25.446
252.08	21.008
252.45	21.912
252.82	23.954
253.19	22.925
253.56	22.308
253.94	23.913
254.31	21.318
254.68	20.209
255.05	21.379
255.42	22.993
255.79	21.824
256.16	21.017
256.54	23.701
256.91	17.320
257.28	20.736
257.65	17.868
258.02	22.124
258.39	22.923
258.76	19.710
259.14	18.571
259.51	21.283
259.88	22.188
260.25	18.956
260.62	21.644
260.99	17.080
261.36	19.499
261.73	18.351
262.10	21.204
262.47	19.500
262.85	18.133
263.22	22.879
263.59	21.228
263.96	19.298
264.33	19.753
264.70	18.919
265.07	17.317
265.44	18.119
265.81	18.868
266.18	20.824
266.55	17.258
266.92	19.239
267.29	18.421
267.66	19.058
268.03	16.368
268.40	20.507
268.77	18.722
269.14	16.703
269.51	18.263
269.88	17.959
270.25	16.199
270.62	17.597
270.99	19.473
271.36	18.089
271.73	15.723
272.10	16.364
272.47	16.865
272.84	14.970
273.21	15.083
273.58	18.623
273.95	17.043
274.32	16.148
274.69	18.504
275.06	19.126
275.43	15.517
275.80	16.792
276.17	17.647
276.54	16.822
276.91	16.604
277.28	15.511
277.65	17.159
278.02	17.647
278.39	16.906
278.76	17.759
279.13	14.235
279.50	17.818
279.87	16.387
280.23	17.495
280.60	16.971
280.97	15.862
281.34	14.851
281.71	17.565
282.08	15.897
282.45	14.527
282.82	15.552
283.19	16.375
283.56	15.372
283.92	16.775
284.29	15.141
284.66	15.294
285.03	16.252
285.40	13.554
285.77	12.191
286.14	15.944
286.51	15.644
286.87	13.608
287.24	13.213
287.61	14.438
287.98	14.776
288.35	13.778
288.72	14.112
289.08	14.414
289.45	13.567
289.82	13.906
290.19	12.738
290.56	15.575
290.93	13.237
291.29	13.950
291.66	12.571
292.03	12.903
292.40	13.550
292.77	14.206
293.13	13.409
293.50	12.686
293.87	11.382
294.24	14.825
294.60	13.728
294.97	12.448
295.34	13.811
295.71	13.929
296.08	14.000
296.44	12.706
296.81	12.531
297.18	11.407
297.55	11.700
297.91	10.837
298.28	12.681
298.65	12.147
299.02	12.063
299.38	11.751
299.75	10.976
300.12	13.532
300.48	12.061
300.85	12.396
301.22	12.791
301.59	10.024
301.95	11.319
302.32	12.573
302.69	10.633
303.05	12.009
303.42	10.650
303.79	11.268
304.15	11.111
304.52	11.945
304.89	11.301
305.25	13.014
305.62	11.940
305.99	9.457
306.35	10.105
306.72	11.446
307.09	11.180
307.45	10.982
307.82	10.700
308.19	11.649
308.55	10.400
308.92	11.187
309.29	11.440
309.65	10.704
310.02	11.359
310.38	10.469
310.75	10.415
311.12	9.674
311.48	10.811
311.85	11.546
312.22	10.315
312.58	10.107
312.95	10.485
313.31	10.487
313.68	10.319
314.05	11.813
314.41	10.615
314.78	10.227
315.14	10.332
315.51	11.447
315.87	11.770
316.24	11.111
316.61	11.638
316.97	10.000
317.34	10.692
317.70	9.482
318.07	10.854
318.43	10.984
318.80	9.982
319.16	10.402
319.53	10.265
319.89	10.484
320.26	12.011
320.62	11.447
320.99	10.486
321.35	11.132
321.72	11.670
322.08	11.542
322.45	10.445
322.81	10.796
323.18	12.256
323.54	11.237
323.91	11.786
324.27	11.671
324.64	10.467
325.00	11.121
325.37	11.467
325.73	11.298
326.10	11.930
326.46	12.304
326.83	10.480
327.19	10.522
327.56	11.262
327.92	11.721
328.29	12.602
328.65	11.901
329.01	12.233
329.38	12.690
329.74	11.187
330.11	11.468
330.47	11.935
330.84	12.252
331.20	11.591
331.56	11.313
331.93	11.035
332.29	11.395
332.66	12.160
333.02	11.426
333.38	11.344
333.75	11.760
334.11	11.997
334.48	11.880
334.84	11.233
335.20	12.062
335.57	12.175
335.93	12.111
336.29	11.277
336.66	12.007
337.02	10.351
337.38	11.350
337.75	11.402
338.11	11.730
338.47	11.262
338.84	11.008
339.20	10.563
339.56	10.934
339.93	12.375
340.29	10.588
340.65	12.154
341.02	11.907
341.38	11.166
341.74	11.213
342.11	9.683
342.47	10.336
342.83	11.321
343.20	11.318
343.56	9.929
343.92	10.405
344.28	10.686
344.65	10.432
345.01	9.921
345.37	10.577
345.73	10.317
346.10	10.837
346.46	10.766
346.82	9.182
347.19	11.437
347.55	10.539
347.91	10.272
348.27	9.837
348.63	9.889
349.00	10.739
349.36	10.895
349.72	10.321
350.08	10.714
350.45	11.120
350.81	10.780
351.17	9.553
351.53	9.777
351.89	11.267
352.26	10.506
352.62	10.256
352.98	11.503
353.34	10.709
353.70	9.862
354.07	9.923
354.43	10.292
354.79	9.795
355.15	10.184
355.51	9.970
355.87	10.768
356.24	10.393
356.60	10.198
356.96	9.780
357.32	10.550
357.68	10.573
358.04	10.942
358.40	10.795
358.77	10.068
359.13	10.285
359.49	10.675
359.85	10.052
360.21	10.104
360.57	10.511
360.93	10.390
361.29	9.524
361.66	9.918
362.02	9.659
362.38	9.885
362.74	10.403
363.10	10.519
363.46	9.461
363.82	10.659
364.18	9.104
364.54	9.728
364.90	10.375
365.26	9.924
365.62	10.566
365.98	9.566
366.35	9.931
366.71	10.618
367.07	10.171
367.43	9.604
367.79	10.040
368.15	9.159
368.51	10.062
368.87	9.443
369.23	9.563
369.59	9.373
369.95	10.000
370.31	9.925
370.67	9.785
371.03	10.784
371.39	10.042
371.75	9.072
372.11	9.789
372.47	11.164
372.83	9.925
373.19	11.035
373.55	10.515
373.91	9.254
374.27	10.450
374.63	9.424
374.99	9.771
375.35	10.417
375.71	9.894
376.07	9.947
376.42	9.271
376.78	9.827
377.14	8.585
377.50	9.363
377.86	9.161
378.22	9.750
378.58	10.714
378.94	9.837
379.30	9.096
379.66	9.693
380.02	10.029
380.38	8.548
380.74	10.554
381.09	9.521
381.45	9.480
381.81	8.333
382.17	9.158
382.53	9.238
382.89	9.284
383.25	8.644
383.61	9.625
383.97	9.358
384.32	9.765
384.68	10.814
385.04	9.555
385.40	9.609
385.76	9.538
386.12	9.524
386.48	9.301
386.83	9.169
387.19	9.541
387.55	9.305
387.91	9.988
388.27	9.994
388.62	9.742
388.98	9.038
389.34	9.161
389.70	9.080
390.06	9.451
390.42	9.130
390.77	9.275
391.13	9.958
391.49	9.740
391.85	8.985
392.20	9.654
392.56	10.215
392.92	8.871
393.28	9.697
393.64	9.002
393.99	8.714
394.35	9.064
394.71	8.384
395.07	9.185
395.42	8.841
395.78	9.500
396.14	9.819
396.50	9.567
396.85	8.841
397.21	8.845
397.57	9.564
397.92	9.070
398.28	8.770
398.64	9.191
399.00	8.872
399.35	8.481
399.71	9.492
400.07	9.703
400.42	8.418
400.78	9.501
401.14	8.925
401.49	9.159
401.85	9.560
402.21	9.022
402.57	9.156
402.92	9.091
403.28	8.592
403.63	9.064
403.99	9.590
404.35	9.730
404.70	8.801
405.06	8.647
405.42	8.917
405.77	9.151
406.13	8.948
406.49	8.641
406.84	8.855
407.20	9.018
407.55	8.800
407.91	9.509
408.27	9.824
408.62	9.166
408.98	9.758
409.34	8.708
409.69	8.401
410.05	9.064
410.40	8.775
410.76	8.185
411.11	8.353
411.47	9.012
411.83	9.022
412.18	8.092
412.54	9.189
412.89	8.319
413.25	9.578
413.60	9.112
413.96	9.336
414.31	8.501
414.67	9.249
415.03	8.812
415.38	9.338
415.74	8.970
416.09	9.244
416.45	9.502
416.80	9.301
417.16	9.166
417.51	8.854
417.87	9.199
418.22	9.052
418.58	8.662
418.93	8.983
419.29	8.071
419.64	9.267
420.00	10.263
420.35	8.479
420.71	9.218
421.06	8.829
421.42	9.442
421.77	9.273
422.12	8.875
422.48	8.834
422.83	8.929
423.19	9.125
423.54	8.886
423.90	9.117
424.25	9.026
424.61	9.402
424.96	8.526
425.31	8.867
425.67	9.203
426.02	8.693
426.38	8.226
426.73	9.370
427.09	9.015
427.44	8.554
427.79	8.977
428.15	9.252
428.50	9.943
428.85	9.171
429.21	8.806
429.56	8.824
429.92	8.603
430.27	9.047
430.62	8.664
430.98	8.633
431.33	7.762
431.68	7.753
432.04	9.002
432.39	9.550
432.74	9.426
433.10	9.081
433.45	8.788
433.80	8.825
434.16	9.038
434.51	9.185
434.86	9.635
435.22	8.428
435.57	8.477
435.92	9.334
436.28	8.756
436.63	9.346
436.98	9.178
437.34	8.904
437.69	8.623
438.04	9.086
438.39	9.515
438.75	9.410
439.10	9.498
439.45	9.214
439.81	9.601
440.16	9.521
440.51	9.403
440.86	9.459
441.22	9.145
441.57	9.344
441.92	9.131
442.27	9.227
442.63	8.638
442.98	8.405
443.33	9.427
443.68	8.753
444.03	8.341
444.39	8.898
444.74	9.006
445.09	8.952
445.44	8.874
445.79	9.503
446.15	9.105
446.50	8.808
446.85	9.114
447.20	8.109
447.55	8.048
447.91	9.590
448.26	9.478
448.61	8.955
448.96	9.150
449.31	8.966
449.66	9.690
450.02	8.968
450.37	9.439
450.72	9.091
451.07	9.308
451.42	9.129
451.77	9.507
452.12	9.926
452.47	10.267
452.83	9.690
453.18	9.610
453.53	10.361
453.88	10.057
454.23	10.575
454.58	8.974
454.93	9.442
455.28	9.792
455.63	10.284
455.98	9.645
456.34	9.605
456.69	9.817
457.04	9.666
457.39	9.543
457.74	9.910
458.09	9.096
458.44	9.419
458.79	9.072
459.14	9.384
459.49	9.513
459.84	9.783
460.19	10.000
460.54	10.256
460.89	10.128
461.24	9.450
461.59	10.204
461.94	9.929
462.29	9.897
462.64	9.925
462.99	9.853
463.34	10.888
463.69	10.829
464.04	10.132
464.39	9.330
464.74	9.379
465.09	10.737
465.44	9.358
465.79	9.744
466.14	9.433
466.49	9.712
466.84	9.588
467.19	10.721
467.54	10.090
467.89	10.094
468.24	9.612
468.59	9.762
468.94	10.326
469.29	10.507
469.64	10.547
469.99	10.154
470.34	9.930
470.68	10.345
471.03	10.340
471.38	10.331
471.73	11.039
472.08	10.437
472.43	10.428
472.78	10.691
473.13	9.512
473.48	10.086
473.83	10.424
474.17	9.726
474.52	10.012
474.87	9.892
475.22	9.880
475.57	10.283
475.92	9.709
476.27	9.576
476.61	9.651
476.96	10.972
477.31	9.974
477.66	10.574
478.01	10.624
478.36	9.423
478.70	9.380
479.05	9.310
479.40	10.119
479.75	10.179
480.10	9.632
480.45	9.430
480.79	9.447
481.14	9.938
481.49	8.600
481.84	9.894
482.19	9.607
482.53	10.145
482.88	9.677
483.23	9.427
483.58	8.618
483.92	9.689
484.27	9.675
484.62	9.423
484.97	9.583
485.31	9.313
485.66	8.329
486.01	7.868
486.36	7.752
486.70	7.644
487.05	8.020
487.40	8.405
487.75	8.610
488.09	8.807
488.44	8.923
488.79	8.886
489.13	9.556
489.48	9.668
489.83	9.049
490.17	9.538
490.52	10.207
490.87	9.828
491.22	9.441
491.56	10.408
491.91	9.543
492.26	9.933
492.60	10.023
492.95	9.470
493.30	10.100
493.64	9.838
493.99	10.152
494.34	9.996
494.68	10.181
495.03	10.283
495.37	10.536
495.72	10.023
496.07	9.883
496.41	9.687
496.76	9.920
497.11	10.540
497.45	10.127
497.80	10.195
498.14	10.402
498.49	10.028
498.84	10.794
499.18	9.506
499.53	9.968
499.87	9.973
500.22	10.088
500.56	9.331
500.91	10.993
501.26	10.749
501.60	9.791
501.95	9.677
502.29	9.867
502.64	9.837
502.98	9.071
503.33	9.755
503.67	9.757
504.02	9.270
504.36	9.774
504.71	9.886
505.06	9.948
505.40	9.920
505.75	9.916
506.09	10.733
506.44	9.962
506.78	10.397
507.13	9.743
507.47	10.286
507.82	10.560
508.16	10.191
508.51	10.145
508.85	10.351
509.19	10.377
509.54	10.937
509.88	11.387
510.23	10.245
510.57	10.232
510.92	10.989
511.26	10.944
511.61	9.995
511.95	10.353
512.30	11.350
512.64	9.865
512.98	10.097
513.33	10.246
513.67	11.393
514.02	10.857
514.36	11.163
514.70	9.867
515.05	10.123
515.39	10.800
515.74	11.536
516.08	10.675
516.42	11.257
516.77	10.560
517.11	11.200
517.46	10.776
517.80	10.213
518.14	11.718
518.49	10.309
518.83	10.165
519.17	11.370
519.52	11.087
519.86	11.390
520.20	12.000
520.55	10.967
520.89	11.149
521.23	11.565
521.58	10.786
521.92	10.496
522.26	10.900
522.61	11.111
522.95	11.471
523.29	10.994
523.64	10.578
523.98	11.385
524.32	11.246
524.66	11.768
525.01	11.302
525.35	11.903
525.69	11.198
526.04	12.255
526.38	11.595
526.72	11.098
527.06	11.827
527.41	11.911
527.75	11.382
528.09	10.596
528.43	11.836
528.78	11.866
529.12	11.439
529.46	11.455
529.80	10.981
530.15	12.198
530.49	11.432
530.83	11.761
531.17	10.578
531.51	11.343
531.86	11.715
532.20	11.125
532.54	11.299
532.88	10.931
533.22	11.822
533.57	11.348
533.91	11.189
534.25	10.560
534.59	11.170
534.93	10.808
535.27	10.985
535.62	11.260
535.96	11.288
536.30	11.152
536.64	10.745
536.98	10.699
537.32	11.812
537.66	11.480
538.01	11.331
538.35	11.915
538.69	11.165
539.03	10.759
539.37	11.226
539.71	10.617
540.05	11.015
540.39	11.635
540.73	11.013
541.07	10.979
541.42	11.132
541.76	11.036
542.10	11.529
542.44	11.160
542.78	11.454
543.12	10.982
543.46	10.840
543.80	10.965
544.14	11.765
544.48	10.766
544.82	11.131
545.16	11.050
545.50	11.063
545.84	11.301
546.18	12.354
546.52	11.082
546.86	12.250
547.20	10.788
547.54	11.590
547.88	11.679
548.22	10.200
548.56	11.432
548.90	11.329
549.24	11.434
549.58	11.018
549.92	11.002
550.26	11.427
550.60	11.710
550.94	11.330
551.28	11.931
551.62	12.690
551.96	11.622
552.30	9.756
552.64	12.104
552.98	10.954
553.32	10.948
553.66	11.336
554.00	11.261
554.34	11.518
554.68	11.223
555.02	11.337
555.36	11.702
555.69	11.518
556.03	11.401
556.37	11.026
556.71	11.604
557.05	10.813
557.39	11.667
557.73	10.916
558.07	11.804
558.41	11.652
558.75	12.791
559.08	12.152
559.42	12.384
559.76	11.974
560.10	10.736
560.44	11.546
560.78	12.468
561.12	11.761
561.45	9.762
561.79	11.236
562.13	10.171
562.47	11.421
562.81	10.410
563.15	11.441
563.48	10.435
563.82	11.291
564.16	11.007
564.50	11.272
564.84	11.429
565.17	11.289
565.51	11.515
565.85	11.289
566.19	11.131
566.52	10.650
566.86	11.442
567.20	11.011
567.54	10.371
567.88	10.746
568.21	9.885
568.55	9.825
568.89	10.173
569.23	9.491
569.56	9.824
569.90	9.738
570.24	9.097
570.57	9.020
570.91	8.300
571.25	8.541
571.59	8.235
571.92	8.181
572.26	7.951
572.60	8.109
572.93	8.626
573.27	8.156
573.61	8.175
573.95	8.367
574.28	8.071
574.62	7.848
574.96	7.618
575.29	7.607
575.63	7.868
575.97	7.814
576.30	7.846
576.64	8.003
576.98	7.824
577.31	7.928
577.65	8.038
577.98	7.350
578.32	7.509
578.66	7.543
578.99	7.783
579.33	8.097
579.67	7.893
580.00	7.544
580.34	7.778
580.67	7.763
581.01	8.010
581.35	7.633
581.68	7.251
582.02	7.503
582.35	6.960
582.69	7.435
583.02	7.463
583.36	7.783
583.70	7.978
584.03	8.029
584.37	8.127
584.70	7.813
585.04	7.947
585.37	7.845
585.71	8.225
586.04	7.732
586.38	7.661
586.72	7.722
587.05	8.363
587.39	7.939
587.72	8.002
588.06	7.872
588.39	7.958
588.73	7.627
589.06	7.966
589.40	8.670
589.73	8.555
590.07	8.442
590.40	8.920
590.73	9.181
591.07	9.602
591.40	9.102
591.74	9.050
592.07	8.777
592.41	9.233
592.74	8.751
593.08	8.431
593.41	8.498
593.75	7.701
594.08	8.747
594.41	8.765
594.75	8.253
595.08	8.882
595.42	9.118
595.75	8.852
596.09	8.863
596.42	8.813
596.75	9.535
597.09	8.791
597.42	8.653
597.75	8.682
598.09	8.330
598.42	9.262
598.76	9.175
599.09	8.827
599.42	8.581
599.76	8.379
600.09	8.475
600.42	8.874
600.76	8.328
601.09	8.284
601.42	8.624
601.76	8.629
602.09	9.014
602.42	8.799
602.76	9.070
603.09	9.238
603.42	8.734
603.76	8.858
604.09	8.650
604.42	8.927
604.76	8.811
605.09	8.857
605.42	9.427
605.75	8.567
606.09	9.181
606.42	8.606
606.75	8.822
607.09	9.080
607.42	9.321
607.75	8.678
608.08	8.611
608.42	8.977
608.75	8.387
609.08	8.975
609.41	9.045
609.75	9.661
610.08	8.318
610.41	9.135
610.74	8.918
611.07	9.095
611.41	9.592
611.74	9.178
612.07	9.345
612.40	9.600
612.73	10.185
613.07	9.782
613.40	9.223
613.73	9.186
614.06	8.850
614.39	8.990
614.72	9.292
615.06	9.298
615.39	9.950
615.72	9.051
616.05	9.643
616.38	9.386
616.71	9.387
617.05	9.940
617.38	10.225
617.71	10.292
618.04	9.647
618.37	10.506
618.70	9.584
619.03	10.440
619.36	10.678
619.69	11.214
620.03	10.828
620.36	10.790
620.69	11.175
621.02	11.073
621.35	10.888
621.68	11.136
622.01	11.070
622.34	10.634
622.67	10.955
623.00	10.756
623.33	11.336
623.66	11.244
623.99	11.301
624.32	10.772
624.65	10.467
624.99	11.021
625.32	10.955
625.65	10.207
625.98	10.948
626.31	11.350
626.64	10.934
626.97	10.482
627.30	11.335
627.63	11.695
627.96	11.659
628.29	11.799
628.62	11.805
628.95	11.348
629.28	12.708
629.61	12.039
629.94	11.668
630.26	11.698
630.59	14.273
630.92	13.632
631.25	13.418
631.58	13.211
631.91	12.274
632.24	12.148
632.57	11.297
632.90	14.389
633.23	13.326
633.56	12.750
633.89	12.755
634.22	13.886
634.55	13.441
634.88	14.020
635.20	14.238
635.53	13.821
635.86	14.430
636.19	14.254
636.52	11.459
636.85	12.513
637.18	13.976
637.51	12.067
637.83	12.586
638.16	13.951
638.49	13.772
638.82	14.437
639.15	14.336
639.48	14.810
639.81	13.553
640.13	14.724
640.46	15.803
640.79	14.434
641.12	14.173
641.45	15.395
641.77	15.324
642.10	16.466
642.43	13.798
