SpectraSuite Data File
++++++++++++++++++++++++++++++++++++
Date: Tue May 12 15:34:58 PDT 2015
User: schluterlab
Dark Spectrum Present: Yes
Reference Spectrum Present: Yes
Number of Sampled Component Spectra: 1
Spectrometers: USB2E3373
Integration Time (usec): 3000 (USB2E3373)
Spectra Averaged: 3 (USB2E3373)
Boxcar Smoothing: 0 (USB2E3373)
Correct for Electrical Dark: No (USB2E3373)
Strobe/Lamp Enabled: No (USB2E3373)
Correct for Detector Non-linearity: No (USB2E3373)
Correct for Stray Light: No (USB2E3373)
Number of Pixels in Processed Spectrum: 2048
>>>>>Begin Processed Spectral Data<<<<<
178.53	0.000
178.91	-308.333
179.29	-675.000
179.67	-3700.000
180.04	-126.667
180.42	775.000
180.80	2100.000
181.18	0.000
181.56	-287.500
181.94	0.000
182.31	1200.000
182.69	-3500.000
183.07	600.000
183.45	-3100.000
183.83	-1550.000
184.20	360.000
184.58	542.857
184.96	-246.154
185.34	-266.667
185.72	1650.000
186.09	-1025.000
186.47	-2700.000
186.85	1066.667
187.23	780.000
187.61	2000.000
187.98	425.000
188.36	264.286
188.74	375.000
189.12	391.667
189.49	625.000
189.87	0.000
190.25	512.500
190.63	2900.000
191.00	-183.333
191.38	-3500.000
191.76	-700.000
192.14	562.500
192.51	-3300.000
192.89	1850.000
193.27	1033.333
193.65	-1200.000
194.02	-820.000
194.40	528.571
194.78	-214.286
195.15	306.667
195.53	-2500.000
195.91	-460.000
196.29	4000.000
196.66	293.750
197.04	850.000
197.42	-1500.000
197.79	850.000
198.17	308.333
198.55	0.000
198.92	614.286
199.30	1300.000
199.68	2050.000
200.05	633.333
200.43	-400.000
200.81	227.778
201.18	3800.000
201.56	266.667
201.94	-700.000
202.31	-325.000
202.69	-600.000
203.07	3200.000
203.44	-550.000
203.82	316.667
204.19	620.000
204.57	-1750.000
204.95	-750.000
205.32	-880.000
205.70	500.000
206.08	750.000
206.45	-900.000
206.83	377.778
207.20	268.421
207.58	266.667
207.96	800.000
208.33	0.000
208.71	714.286
209.08	660.000
209.46	-2500.000
209.84	-675.000
210.21	800.000
210.59	-500.000
210.96	375.000
211.34	-775.000
211.71	300.000
212.09	1075.000
212.46	1600.000
212.84	-416.667
213.22	400.000
213.59	-4200.000
213.97	360.000
214.34	1150.000
214.72	1233.333
215.09	1066.667
215.47	-3500.000
215.84	-250.000
216.22	-400.000
216.59	0.000
216.97	0.000
217.34	1900.000
217.72	-1300.000
218.09	1366.667
218.47	412.500
218.84	825.000
219.22	1200.000
219.59	866.667
219.97	542.857
220.34	444.444
220.72	1550.000
221.09	2500.000
221.47	308.333
221.84	1133.333
222.22	330.000
222.59	272.222
222.97	292.857
223.34	212.500
223.72	-1450.000
224.09	1266.667
224.46	315.385
224.84	-850.000
225.21	400.000
225.59	293.333
225.96	1366.667
226.34	-800.000
226.71	-1125.000
227.08	-600.000
227.46	0.000
227.83	-583.333
228.21	-2000.000
228.58	366.667
228.95	1025.000
229.33	366.667
229.70	1025.000
230.08	346.154
230.45	3900.000
230.82	-775.000
231.20	-1100.000
231.57	-1233.333
231.95	600.000
232.32	308.333
232.69	600.000
233.07	275.000
233.44	-1550.000
233.81	280.000
234.19	166.667
234.56	250.000
234.93	241.176
235.31	205.000
235.68	281.250
236.05	139.286
236.43	170.370
236.80	342.857
237.17	162.069
237.55	156.250
237.92	150.000
238.29	172.727
238.67	168.750
239.04	126.829
239.41	85.417
239.79	115.000
240.16	118.750
240.53	77.049
240.91	72.464
241.28	118.644
241.65	95.455
242.02	105.634
242.40	81.429
242.77	74.725
243.14	75.949
243.51	95.960
243.89	78.505
244.26	69.159
244.63	80.198
245.00	76.147
245.38	62.712
245.75	67.424
246.12	74.074
246.49	60.284
246.87	69.672
247.24	58.667
247.61	63.125
247.98	61.905
248.36	63.030
248.73	64.286
249.10	60.119
249.47	54.500
249.84	62.687
250.22	58.378
250.59	54.500
250.96	57.384
251.33	55.814
251.70	60.714
252.08	50.000
252.45	58.167
252.82	53.232
253.19	54.941
253.56	51.154
253.94	50.000
254.31	53.101
254.68	53.310
255.05	51.379
255.42	55.474
255.79	52.443
256.16	51.525
256.54	53.247
256.91	49.346
257.28	51.505
257.65	48.276
258.02	50.737
258.39	50.716
258.76	53.043
259.14	49.429
259.51	53.936
259.88	54.711
260.25	44.780
260.62	47.671
260.99	47.383
261.36	47.354
261.73	46.809
262.10	50.524
262.47	49.000
262.85	48.000
263.22	48.072
263.59	45.780
263.96	47.118
264.33	46.667
264.70	51.106
265.07	49.024
265.44	49.541
265.81	48.113
266.18	47.368
266.55	49.409
266.92	48.098
267.29	47.588
267.66	44.170
268.03	46.413
268.40	44.186
268.77	46.696
269.14	45.119
269.51	45.212
269.88	44.898
270.25	41.901
270.62	47.425
270.99	47.262
271.36	45.325
271.73	45.073
272.10	46.667
272.47	44.246
272.84	44.511
273.21	43.182
273.58	47.368
273.95	46.407
274.32	43.385
274.69	46.457
275.06	43.352
275.43	44.253
275.80	44.906
276.17	44.485
276.54	43.925
276.91	46.269
277.28	42.336
277.65	43.542
278.02	42.647
278.39	44.245
278.76	44.655
279.13	43.416
279.50	44.000
279.87	43.389
280.23	43.831
280.60	43.978
280.97	41.724
281.34	42.079
281.71	43.652
282.08	41.538
282.45	41.385
282.82	40.301
283.19	41.176
283.56	41.488
283.92	45.277
284.29	44.426
284.66	41.176
285.03	43.615
285.40	43.471
285.77	39.660
286.14	41.486
286.51	40.184
286.87	38.608
287.24	38.889
287.61	39.058
287.98	38.657
288.35	40.148
288.72	39.757
289.08	42.042
289.45	40.091
289.82	39.219
290.19	40.264
290.56	39.884
290.93	38.849
291.29	36.464
291.66	37.147
292.03	39.130
292.40	36.585
292.77	37.604
293.13	37.946
293.50	36.707
293.87	37.127
294.24	37.902
294.60	36.608
294.97	39.021
295.34	35.591
295.71	36.794
296.08	36.533
296.44	35.451
296.81	35.360
297.18	34.347
297.55	36.084
297.91	33.744
298.28	35.024
298.65	34.601
299.02	34.741
299.38	35.252
299.75	35.610
300.12	37.041
300.48	34.895
300.85	35.995
301.22	33.721
301.59	34.198
301.95	33.606
302.32	35.274
302.69	34.502
303.05	35.802
303.42	34.081
303.79	34.995
304.15	33.993
304.52	34.249
304.89	34.861
305.25	34.705
305.62	35.714
305.99	33.696
306.35	32.947
306.72	34.547
307.09	34.990
307.45	34.530
307.82	35.905
308.19	34.639
308.55	33.700
308.92	34.838
309.29	35.897
309.65	35.382
310.02	35.497
310.38	34.796
310.75	33.462
311.12	32.184
311.48	36.776
311.85	35.782
312.22	34.193
312.58	33.819
312.95	36.117
313.31	35.768
313.68	35.460
314.05	37.363
314.41	34.730
314.78	36.174
315.14	37.536
315.51	38.221
315.87	36.405
316.24	37.535
316.61	36.705
316.97	38.165
317.34	38.814
317.70	38.455
318.07	39.502
318.43	37.786
318.80	39.317
319.16	37.587
319.53	38.850
319.89	37.993
320.26	39.385
320.62	39.469
320.99	40.801
321.35	39.703
321.72	41.556
322.08	41.367
322.45	40.054
322.81	41.537
323.18	41.741
323.54	43.380
323.91	44.515
324.27	44.209
324.64	43.166
325.00	45.259
325.37	44.182
325.73	45.278
326.10	47.804
326.46	47.812
326.83	46.640
327.19	47.631
327.56	47.524
327.92	47.951
328.29	50.000
328.65	50.771
329.01	50.727
329.38	49.408
329.74	50.043
330.11	50.217
330.47	52.515
330.84	48.576
331.20	51.354
331.56	50.518
331.93	51.411
332.29	51.361
332.66	53.571
333.02	51.632
333.38	52.007
333.75	54.212
334.11	51.007
334.48	52.735
334.84	50.929
335.20	52.524
335.57	51.805
335.93	52.145
336.29	51.078
336.66	54.460
337.02	53.208
337.38	53.912
337.75	54.223
338.11	53.840
338.47	52.244
338.84	52.244
339.20	51.861
339.56	52.817
339.93	52.425
340.29	52.689
340.65	51.802
341.02	51.167
341.38	52.956
341.74	51.578
342.11	53.506
342.47	52.912
342.83	53.404
343.20	52.870
343.56	49.881
343.92	51.363
344.28	51.834
344.65	52.404
345.01	51.190
345.37	51.202
345.73	53.175
346.10	51.474
346.46	52.472
346.82	50.000
347.19	51.623
347.55	51.522
347.91	51.284
348.27	50.891
348.63	51.028
349.00	52.171
349.36	51.362
349.72	52.141
350.08	52.795
350.45	52.171
350.81	52.446
351.17	53.005
351.53	52.810
351.89	50.272
352.26	51.172
352.62	49.774
352.98	52.147
353.34	51.618
353.70	50.076
354.07	52.154
354.43	51.767
354.79	50.266
355.15	51.378
355.51	51.284
355.87	51.355
356.24	51.501
356.60	51.294
356.96	51.327
357.32	50.113
357.68	52.570
358.04	51.900
358.40	49.775
358.77	52.066
359.13	51.351
359.49	51.223
359.85	51.601
360.21	50.371
360.57	50.438
360.93	50.072
361.29	52.525
361.66	52.796
362.02	50.426
362.38	51.587
362.74	52.725
363.10	52.104
363.46	51.657
363.82	50.842
364.18	51.494
364.54	52.718
364.90	51.339
365.26	51.978
365.62	52.279
365.98	50.929
366.35	52.207
366.71	51.700
367.07	51.672
367.43	50.974
367.79	50.665
368.15	50.678
368.51	51.895
368.87	50.340
369.23	51.074
369.59	50.438
369.95	51.329
370.31	51.198
370.67	52.186
371.03	51.611
371.39	50.762
371.75	50.872
372.11	50.374
372.47	52.260
372.83	51.122
373.19	52.022
373.55	51.478
373.91	50.207
374.27	50.595
374.63	51.864
374.99	52.695
375.35	53.495
375.71	51.385
376.07	52.056
376.42	50.128
376.78	50.931
377.14	51.507
377.50	51.998
377.86	51.121
378.22	50.213
378.58	52.179
378.94	51.298
379.30	52.577
379.66	51.174
380.02	51.730
380.38	50.527
380.74	52.076
381.09	52.570
381.45	51.156
381.81	51.714
382.17	51.343
382.53	51.410
382.89	51.153
383.25	51.155
383.61	51.009
383.97	51.410
384.32	52.080
384.68	52.941
385.04	52.755
385.40	51.957
385.76	51.551
386.12	51.020
386.48	52.219
386.83	52.995
387.19	52.415
387.55	51.590
387.91	52.079
388.27	52.469
388.62	51.291
388.98	51.195
389.34	51.695
389.70	50.531
390.06	52.744
390.42	51.635
390.77	52.457
391.13	52.686
391.49	51.906
391.85	53.169
392.20	52.980
392.56	52.031
392.92	51.376
393.28	51.289
393.64	51.778
393.99	51.630
394.35	52.031
394.71	50.362
395.07	52.068
395.42	51.698
395.78	52.869
396.14	52.229
396.50	51.504
396.85	51.037
397.21	52.407
397.57	52.361
397.92	50.664
398.28	51.517
398.64	51.658
399.00	50.508
399.35	50.349
399.71	52.373
400.07	50.685
400.42	51.701
400.78	52.962
401.14	51.615
401.49	51.094
401.85	51.738
402.21	52.255
402.57	52.962
402.92	50.727
403.28	50.835
403.63	51.913
403.99	51.809
404.35	52.286
404.70	52.688
405.06	51.881
405.42	50.808
405.77	52.370
406.13	51.302
406.49	50.199
406.84	50.085
407.20	52.283
407.55	52.062
407.91	52.776
408.27	51.607
408.62	51.981
408.98	50.680
409.34	50.789
409.69	52.645
410.05	50.805
410.40	51.119
410.76	51.059
411.11	51.126
411.47	50.556
411.83	51.201
412.18	51.027
412.54	51.712
412.89	50.796
413.25	50.285
413.60	51.343
413.96	52.364
414.31	51.830
414.67	52.886
415.03	52.554
415.38	51.924
415.74	52.874
416.09	50.843
416.45	52.683
416.80	53.239
417.16	51.305
417.51	50.127
417.87	52.378
418.22	52.126
418.58	52.548
418.93	51.874
419.29	51.818
419.64	52.574
420.00	53.222
420.35	51.684
420.71	52.042
421.06	51.854
421.42	52.447
421.77	52.748
422.12	53.914
422.48	52.131
422.83	52.232
423.19	51.350
423.54	52.167
423.90	52.831
424.25	52.504
424.61	53.221
424.96	52.513
425.31	52.053
425.67	53.199
426.02	53.057
426.38	52.042
426.73	53.152
427.09	53.677
427.44	52.898
427.79	53.631
428.15	54.803
428.50	53.371
428.85	54.380
429.21	53.431
429.56	52.592
429.92	53.257
430.27	53.507
430.62	52.961
430.98	52.944
431.33	53.931
431.68	52.938
432.04	53.182
432.39	53.677
432.74	55.094
433.10	54.540
433.45	55.887
433.80	56.205
434.16	54.388
434.51	55.057
434.86	54.818
435.22	54.781
435.57	55.483
435.92	56.915
436.28	55.703
436.63	55.321
436.98	56.306
437.34	55.879
437.69	54.927
438.04	55.753
438.39	55.225
438.75	55.122
439.10	55.801
439.45	54.946
439.81	56.738
440.16	56.577
440.51	55.236
440.86	56.923
441.22	55.249
441.57	56.850
441.92	56.417
442.27	56.340
442.63	55.945
442.98	56.519
443.33	56.186
443.68	56.388
444.03	55.938
444.39	56.827
444.74	56.004
445.09	56.714
445.44	57.226
445.79	57.310
446.15	55.789
446.50	56.487
446.85	56.673
447.20	56.219
447.55	57.640
447.91	57.059
448.26	57.242
448.61	57.546
448.96	58.224
449.31	57.536
449.66	59.025
450.02	57.050
450.37	58.356
450.72	59.118
451.07	58.173
451.42	57.261
451.77	58.591
452.12	57.119
452.47	58.809
452.83	58.423
453.18	58.679
453.53	58.792
453.88	59.429
454.23	59.094
454.58	59.382
454.93	58.492
455.28	60.220
455.63	59.929
455.98	58.827
456.34	59.939
456.69	58.476
457.04	59.905
457.39	58.800
457.74	60.135
458.09	58.731
458.44	58.050
458.79	58.196
459.14	59.029
459.49	59.230
459.84	59.837
460.19	59.605
460.54	58.063
460.89	59.915
461.24	58.477
461.59	58.787
461.94	58.629
462.29	59.439
462.64	59.925
462.99	60.333
463.34	59.754
463.69	59.710
464.04	59.988
464.39	60.046
464.74	58.441
465.09	58.793
465.44	58.923
465.79	59.118
466.14	58.347
466.49	61.205
466.84	57.971
467.19	60.164
467.54	58.198
467.89	58.392
468.24	59.988
468.59	60.238
468.94	60.205
469.29	59.133
469.64	60.193
469.99	59.254
470.34	60.531
470.68	59.172
471.03	61.508
471.38	60.199
471.73	60.614
472.08	61.448
472.43	61.266
472.78	60.819
473.13	59.887
473.48	60.024
473.83	60.188
474.17	60.304
474.52	59.005
474.87	59.181
475.22	59.452
475.57	58.604
475.92	59.683
476.27	58.107
476.61	59.946
476.96	58.307
477.31	59.486
477.66	59.367
478.01	60.495
478.36	59.320
478.70	59.653
479.05	59.728
479.40	59.970
479.75	58.987
480.10	59.390
480.45	59.524
480.79	58.157
481.14	59.154
481.49	57.914
481.84	58.883
482.19	59.476
482.53	58.498
482.88	59.095
483.23	59.044
483.58	60.099
483.92	60.558
484.27	58.861
484.62	59.550
484.97	57.577
485.31	58.912
485.66	58.250
486.01	56.231
486.36	55.321
486.70	54.069
487.05	54.579
487.40	56.054
487.75	57.028
488.09	57.330
488.44	57.393
488.79	57.445
489.13	58.007
489.48	58.570
489.83	58.299
490.17	57.762
490.52	59.475
490.87	58.362
491.22	60.727
491.56	59.201
491.91	59.633
492.26	58.174
492.60	60.182
492.95	59.175
493.30	60.100
493.64	59.075
493.99	59.079
494.34	60.108
494.68	58.920
495.03	58.419
495.37	59.388
495.72	60.420
496.07	58.446
496.41	58.992
496.76	57.873
497.11	57.969
497.45	59.053
497.80	58.573
498.14	59.917
498.49	58.960
498.84	59.626
499.18	59.049
499.53	59.761
499.87	59.704
500.22	59.880
500.56	58.496
500.91	59.137
501.26	57.786
501.60	58.880
501.95	58.154
502.29	58.400
502.64	58.491
502.98	58.115
503.33	58.842
503.67	58.455
504.02	58.083
504.36	58.959
504.71	59.177
505.06	59.409
505.40	59.148
505.75	58.045
506.09	58.796
506.44	58.882
506.78	60.208
507.13	58.604
507.47	58.515
507.82	59.513
508.16	60.265
508.51	59.420
508.85	58.927
509.19	59.080
509.54	59.912
509.88	59.274
510.23	58.431
510.57	57.867
510.92	59.291
511.26	58.986
511.61	57.607
511.95	58.089
512.30	57.150
512.64	58.827
512.98	59.252
513.33	58.607
513.67	58.881
514.02	58.753
514.36	58.463
514.70	59.520
515.05	60.202
515.39	60.307
515.74	60.361
516.08	59.259
516.42	60.984
516.77	60.053
517.11	59.360
517.46	59.052
517.80	58.383
518.14	59.606
518.49	59.647
518.83	58.571
519.17	59.401
519.52	60.076
519.86	59.564
520.20	59.562
520.55	59.016
520.89	60.517
521.23	60.339
521.58	59.667
521.92	60.525
522.26	58.709
522.61	59.477
522.95	60.781
523.29	60.058
523.64	59.133
523.98	59.272
524.32	58.939
524.66	59.420
525.01	58.225
525.35	60.695
525.69	60.506
526.04	60.500
526.38	59.564
526.72	60.024
527.06	58.072
527.41	60.580
527.75	60.134
528.09	58.700
528.43	60.220
528.78	59.511
529.12	60.566
529.46	59.088
529.80	59.521
530.15	58.397
530.49	58.303
530.83	58.501
531.17	59.041
531.51	58.492
531.86	58.575
532.20	58.900
532.54	58.945
532.88	59.650
533.22	58.318
533.57	58.267
533.91	58.100
534.25	56.376
534.59	58.187
534.93	57.452
535.27	56.118
535.62	56.359
535.96	57.861
536.30	58.318
536.64	58.137
536.98	58.402
537.32	57.312
537.66	59.439
538.01	57.523
538.35	57.018
538.69	57.282
539.03	57.463
539.37	56.432
539.71	57.531
540.05	57.292
540.39	57.547
540.73	57.025
541.07	57.340
541.42	57.214
541.76	57.460
542.10	56.782
542.44	57.294
542.78	58.087
543.12	55.767
543.46	56.767
543.80	56.203
544.14	57.399
544.48	56.813
544.82	57.798
545.16	55.070
545.50	56.915
545.84	56.692
546.18	58.388
546.52	58.426
546.86	56.673
547.20	56.266
547.54	55.415
547.88	56.144
548.22	56.466
548.56	54.920
548.90	55.042
549.24	57.991
549.58	56.057
549.92	57.433
550.26	56.795
550.60	56.154
550.94	58.073
551.28	57.862
551.62	57.586
551.96	56.351
552.30	55.636
552.64	56.505
552.98	56.186
553.32	54.673
553.66	55.700
554.00	55.277
554.34	57.989
554.68	56.384
555.02	56.008
555.36	55.053
555.69	55.236
556.03	54.522
556.37	55.641
556.71	56.910
557.05	54.325
557.39	55.400
557.73	56.334
558.07	56.003
558.41	55.175
558.75	54.993
559.08	56.183
559.42	57.480
559.76	55.239
560.10	56.435
560.44	54.280
560.78	55.691
561.12	55.245
561.45	55.006
561.79	54.307
562.13	55.212
562.47	54.835
562.81	55.368
563.15	55.010
563.48	53.665
563.82	54.835
564.16	55.224
564.50	53.225
564.84	55.562
565.17	53.298
565.51	54.988
565.85	55.336
566.19	53.393
566.52	54.753
566.86	53.882
567.20	53.090
567.54	51.965
567.88	53.312
568.21	51.573
568.55	51.946
568.89	51.323
569.23	51.812
569.56	51.158
569.90	50.090
570.24	50.358
570.57	49.481
570.91	49.204
571.25	48.517
571.59	48.393
571.92	47.551
572.26	47.466
572.60	47.515
572.93	48.505
573.27	48.018
573.61	48.349
573.95	47.560
574.28	48.061
574.62	47.066
574.96	46.496
575.29	46.570
575.63	46.478
575.97	46.568
576.30	46.495
576.64	47.142
576.98	46.738
577.31	47.144
577.65	46.647
577.98	46.527
578.32	46.499
578.66	46.093
578.99	45.962
579.33	46.031
579.67	46.504
580.00	46.366
580.34	46.334
580.67	46.398
581.01	47.005
581.35	46.512
581.68	45.859
582.02	45.882
582.35	45.324
582.69	45.621
583.02	45.734
583.36	46.277
583.70	46.783
584.03	47.576
584.37	47.653
584.70	46.653
585.04	46.395
585.37	45.875
585.71	46.742
586.04	46.032
586.38	46.684
586.72	46.332
587.05	47.221
587.39	47.054
587.72	46.524
588.06	46.213
588.39	46.315
588.73	46.663
589.06	46.367
589.40	48.388
589.73	47.099
590.07	48.010
590.40	48.990
590.73	49.100
591.07	49.260
591.40	48.942
591.74	48.133
592.07	47.712
592.41	47.042
592.74	47.492
593.08	46.908
593.41	46.619
593.75	46.061
594.08	46.474
594.41	46.465
594.75	46.952
595.08	47.428
595.42	47.136
595.75	46.792
596.09	47.028
596.42	46.795
596.75	47.997
597.09	47.173
597.42	47.388
597.75	47.140
598.09	46.697
598.42	47.205
598.76	46.530
599.09	46.966
599.42	46.505
599.76	46.303
600.09	45.017
600.42	46.340
600.76	46.057
601.09	46.186
601.42	45.864
601.76	45.865
602.09	46.210
602.42	46.100
602.76	46.679
603.09	47.775
603.42	46.679
603.76	45.445
604.09	46.507
604.42	47.043
604.76	47.373
605.09	46.245
605.42	46.648
605.75	46.190
606.09	46.251
606.42	46.374
606.75	46.133
607.09	45.914
607.42	46.525
607.75	46.855
608.08	45.938
608.42	46.938
608.75	46.769
609.08	46.854
609.41	46.818
609.75	47.482
610.08	47.617
610.41	47.519
610.74	46.364
611.07	47.158
611.41	47.359
611.74	47.036
612.07	47.399
612.40	47.466
612.73	48.677
613.07	47.339
613.40	48.271
613.73	47.928
614.06	47.700
614.39	47.778
614.72	47.363
615.06	45.500
615.39	47.376
615.72	46.515
616.05	46.760
616.38	46.119
616.71	47.477
617.05	47.776
617.38	48.258
617.71	48.763
618.04	48.626
618.37	48.082
618.70	48.499
619.03	48.291
619.36	49.121
619.69	48.417
620.03	50.750
620.36	48.683
620.69	49.361
621.02	50.204
621.35	49.570
621.68	50.295
622.01	50.332
622.34	51.129
622.67	49.157
623.00	48.809
623.33	49.460
623.66	48.902
623.99	50.753
624.32	48.238
624.65	48.190
624.99	49.966
625.32	49.432
625.65	48.759
625.98	47.978
626.31	49.629
626.64	49.051
626.97	49.503
627.30	50.078
627.63	51.177
627.96	50.626
628.29	51.568
628.62	49.872
628.95	50.887
629.28	51.008
629.61	52.285
629.94	51.340
630.26	50.780
630.59	52.039
630.92	50.583
