SpectraSuite Data File
++++++++++++++++++++++++++++++++++++
Date: Tue May 12 15:28:52 PDT 2015
User: schluterlab
Dark Spectrum Present: Yes
Reference Spectrum Present: Yes
Number of Sampled Component Spectra: 1
Spectrometers: USB2E3373
Integration Time (usec): 3000 (USB2E3373)
Spectra Averaged: 3 (USB2E3373)
Boxcar Smoothing: 0 (USB2E3373)
Correct for Electrical Dark: No (USB2E3373)
Strobe/Lamp Enabled: No (USB2E3373)
Correct for Detector Non-linearity: No (USB2E3373)
Correct for Stray Light: No (USB2E3373)
Number of Pixels in Processed Spectrum: 2048
>>>>>Begin Processed Spectral Data<<<<<
178.53	0.000
178.91	-316.667
179.29	-675.000
179.67	-3800.000
180.04	-120.000
180.42	775.000
180.80	2000.000
181.18	0.000
181.56	-362.500
181.94	0.000
182.31	1233.333
182.69	-3800.000
183.07	528.571
183.45	-4100.000
183.83	-2000.000
184.20	490.000
184.58	628.571
184.96	-346.154
185.34	-250.000
185.72	1850.000
186.09	-800.000
186.47	-2700.000
186.85	1100.000
187.23	760.000
187.61	1750.000
187.98	500.000
188.36	264.286
188.74	341.667
189.12	350.000
189.49	1200.000
189.87	0.000
190.25	537.500
190.63	2700.000
191.00	-250.000
191.38	-4000.000
191.76	-800.000
192.14	600.000
192.51	-2900.000
192.89	2150.000
193.27	1200.000
193.65	-1133.333
194.02	-760.000
194.40	557.143
194.78	-235.714
195.15	293.333
195.53	-3800.000
195.91	-700.000
196.29	4500.000
196.66	237.500
197.04	1000.000
197.42	-1500.000
197.79	800.000
198.17	441.667
198.55	0.000
198.92	457.143
199.30	1300.000
199.68	1850.000
200.05	700.000
200.43	-566.667
200.81	200.000
201.18	3500.000
201.56	325.000
201.94	-750.000
202.31	-375.000
202.69	-600.000
203.07	2800.000
203.44	-350.000
203.82	416.667
204.19	720.000
204.57	-1500.000
204.95	-725.000
205.32	-680.000
205.70	733.333
206.08	825.000
206.45	-666.667
206.83	488.889
207.20	194.737
207.58	258.333
207.96	900.000
208.33	0.000
208.71	542.857
209.08	700.000
209.46	-4200.000
209.84	-775.000
210.21	940.000
210.59	-600.000
210.96	316.667
211.34	-1100.000
211.71	427.273
212.09	1025.000
212.46	1750.000
212.84	-566.667
213.22	411.111
213.59	-2500.000
213.97	390.000
214.34	1000.000
214.72	1366.667
215.09	1233.333
215.47	-2800.000
215.84	-380.000
216.22	-525.000
216.59	0.000
216.97	0.000
217.34	1800.000
217.72	-1250.000
218.09	1200.000
218.47	600.000
218.84	900.000
219.22	1133.333
219.59	1066.667
219.97	585.714
220.34	477.778
220.72	1550.000
221.09	3900.000
221.47	316.667
221.84	1333.333
222.22	390.000
222.59	305.556
222.97	264.286
223.34	237.500
223.72	-1650.000
224.09	1266.667
224.46	330.769
224.84	-950.000
225.21	344.444
225.59	260.000
225.96	1200.000
226.34	-600.000
226.71	-825.000
227.08	-600.000
227.46	0.000
227.83	-533.333
228.21	-1450.000
228.58	400.000
228.95	1050.000
229.33	500.000
229.70	1000.000
230.08	415.385
230.45	4400.000
230.82	-850.000
231.20	-766.667
231.57	-1300.000
231.95	680.000
232.32	300.000
232.69	650.000
233.07	275.000
233.44	-1650.000
233.81	226.667
234.19	162.963
234.56	200.000
234.93	217.647
235.31	235.000
235.68	318.750
236.05	150.000
236.43	144.444
236.80	171.429
237.17	151.724
237.55	125.000
237.92	110.000
238.29	124.242
238.67	134.375
239.04	121.951
239.41	83.333
239.79	82.500
240.16	110.417
240.53	77.049
240.91	44.928
241.28	81.356
241.65	69.697
242.02	76.056
242.40	55.714
242.77	57.143
243.14	44.304
243.51	57.576
243.89	57.009
244.26	53.271
244.63	52.475
245.00	57.798
245.38	51.695
245.75	50.000
246.12	48.148
246.49	35.461
246.87	44.262
247.24	43.333
247.61	47.500
247.98	48.299
248.36	31.515
248.73	45.918
249.10	36.310
249.47	36.000
249.84	35.821
250.22	39.459
250.59	38.000
250.96	32.911
251.33	37.674
251.70	37.054
252.08	35.294
252.45	30.677
252.82	34.221
253.19	32.016
253.56	28.462
253.94	35.145
254.31	29.070
254.68	29.268
255.05	30.000
255.42	29.927
255.79	29.967
256.16	30.169
256.54	30.519
256.91	28.105
257.28	27.759
257.65	24.138
258.02	27.434
258.39	28.940
258.76	30.435
259.14	25.429
259.51	28.571
259.88	27.964
260.25	25.275
260.62	21.096
260.99	25.620
261.36	27.855
261.73	27.394
262.10	25.393
262.47	25.750
262.85	25.067
263.22	28.535
263.59	25.320
263.96	26.316
264.33	25.679
264.70	27.518
265.07	27.317
265.44	22.936
265.81	25.236
266.18	23.799
266.55	22.695
266.92	24.385
267.29	26.096
267.66	22.646
268.03	23.543
268.40	23.044
268.77	23.568
269.14	22.993
269.51	23.608
269.88	24.694
270.25	19.222
270.62	24.034
270.99	23.327
271.36	24.187
271.73	21.803
272.10	20.000
272.47	22.421
272.84	19.960
273.21	20.248
273.58	22.874
273.95	23.819
274.32	20.817
274.69	23.031
275.06	22.587
275.43	22.989
275.80	21.132
276.17	21.875
276.54	23.178
276.91	23.507
277.28	20.438
277.65	22.325
278.02	21.691
278.39	20.863
278.76	21.207
279.13	21.530
279.50	21.455
279.87	20.298
280.23	18.416
280.60	21.168
280.97	21.379
281.34	20.462
281.71	21.565
282.08	19.829
282.45	18.750
282.82	19.565
283.19	21.622
283.56	18.678
283.92	22.150
284.29	21.797
284.66	21.513
285.03	20.896
285.40	19.174
285.77	18.673
286.14	20.588
286.51	20.092
286.87	19.778
287.24	18.769
287.61	20.821
287.98	22.985
288.35	20.000
288.72	19.272
289.08	22.072
289.45	21.189
289.82	20.469
290.19	20.644
290.56	21.980
290.93	20.719
291.29	20.856
291.66	20.621
292.03	18.934
292.40	20.325
292.77	20.334
293.13	22.111
293.50	19.838
293.87	20.190
294.24	20.559
294.60	21.938
294.97	22.517
295.34	19.788
295.71	21.551
296.08	21.600
296.44	22.363
296.81	20.596
297.18	20.913
297.55	21.429
297.91	21.182
298.28	21.860
298.65	22.454
299.02	20.024
299.38	21.823
299.75	19.756
300.12	20.872
300.48	22.365
300.85	21.097
301.22	21.744
301.59	21.108
301.95	20.653
302.32	21.769
302.69	21.267
303.05	23.793
303.42	22.197
303.79	22.644
304.15	22.112
304.52	21.670
304.89	23.028
305.25	22.469
305.62	23.561
305.99	21.630
306.35	23.263
306.72	23.309
307.09	22.464
307.45	22.914
307.82	22.942
308.19	22.990
308.55	22.900
308.92	24.534
309.29	23.471
309.65	23.885
310.02	24.645
310.38	23.729
310.75	24.397
311.12	24.138
311.48	26.641
311.85	26.336
312.22	27.125
312.58	26.919
312.95	25.437
313.31	27.154
313.68	25.516
314.05	27.106
314.41	26.629
314.78	27.367
315.14	27.204
315.51	29.896
315.87	28.011
316.24	28.852
316.61	28.380
316.97	29.174
317.34	29.290
317.70	30.202
318.07	29.893
318.43	30.316
318.80	31.261
319.16	31.031
319.53	31.504
319.89	30.197
320.26	33.147
320.62	32.601
320.99	33.746
321.35	33.395
321.72	35.389
322.08	35.826
322.45	35.059
322.81	36.048
323.18	36.234
323.54	35.801
323.91	36.718
324.27	36.958
324.64	37.284
325.00	37.759
325.37	38.533
325.73	39.798
326.10	40.514
326.46	40.215
326.83	40.560
327.19	41.767
327.56	40.335
327.92	42.869
328.29	42.635
328.65	44.178
329.01	43.456
329.38	43.232
329.74	42.272
330.11	43.962
330.47	44.331
330.84	42.450
331.20	43.993
331.56	45.164
331.93	44.910
332.29	45.663
332.66	45.068
333.02	42.955
333.38	46.422
333.75	43.620
334.11	44.631
334.48	45.556
334.84	45.017
335.20	44.568
335.57	44.249
335.93	44.575
336.29	43.781
336.66	45.369
337.02	44.739
337.38	45.658
337.75	44.257
338.11	46.329
338.47	44.708
338.84	44.962
339.20	45.541
339.56	45.753
339.93	44.314
340.29	43.529
340.65	45.348
341.02	45.133
341.38	45.484
341.74	46.512
342.11	45.409
342.47	45.283
342.83	46.021
343.20	46.888
343.56	43.844
343.92	46.325
344.28	45.534
344.65	47.351
345.01	45.952
345.37	46.795
345.73	45.714
346.10	46.773
346.46	47.129
346.82	44.830
347.19	45.981
347.55	46.058
347.91	43.580
348.27	44.926
348.63	45.411
349.00	46.611
349.36	45.447
349.72	46.024
350.08	45.963
350.45	47.068
350.81	46.560
351.17	45.069
351.53	46.497
351.89	45.843
352.26	45.503
352.62	45.852
352.98	46.626
353.34	46.918
353.70	46.177
354.07	47.462
354.43	46.313
354.79	45.482
355.15	46.784
355.51	45.997
355.87	46.913
356.24	46.035
356.60	47.184
356.96	45.868
357.32	47.702
357.68	47.577
358.04	48.024
358.40	46.627
358.77	47.934
359.13	47.823
359.49	46.331
359.85	47.729
360.21	46.954
360.57	47.737
360.93	47.691
361.29	48.268
361.66	49.217
362.02	45.384
362.38	47.763
362.74	48.408
363.10	48.036
363.46	47.997
363.82	48.527
364.18	48.364
364.54	49.428
364.90	47.456
365.26	48.439
365.62	47.997
365.98	47.557
366.35	48.276
366.71	48.716
367.07	47.918
367.43	47.817
367.79	48.205
368.15	47.897
368.51	49.345
368.87	48.030
369.23	48.302
369.59	48.078
369.95	49.720
370.31	49.144
370.67	49.410
371.03	48.669
371.39	49.515
371.75	49.616
372.11	48.199
372.47	50.000
372.83	50.986
373.19	49.349
373.55	50.172
373.91	49.171
374.27	49.868
374.63	49.898
374.99	48.989
375.35	49.731
375.71	50.066
376.07	49.735
376.42	48.274
376.78	49.711
377.14	50.328
377.50	50.375
377.86	49.904
378.22	50.518
378.58	51.937
378.94	49.849
379.30	50.576
379.66	49.729
380.02	50.264
380.38	49.941
380.74	50.461
381.09	51.402
381.45	49.480
381.81	50.296
382.17	50.488
382.53	50.870
382.89	50.325
383.25	51.924
383.61	49.625
383.97	49.910
384.32	50.211
384.68	52.228
385.04	51.055
385.40	50.712
385.76	49.678
386.12	50.155
386.48	51.672
386.83	50.733
387.19	49.764
387.55	51.001
387.91	50.462
388.27	50.863
388.62	51.761
388.98	50.671
389.34	49.316
389.70	51.061
390.06	50.183
390.42	50.586
390.77	49.693
391.13	51.841
391.49	49.486
391.85	50.954
392.20	50.358
392.56	50.179
392.92	48.961
393.28	49.608
393.64	49.083
393.99	50.089
394.35	48.087
394.71	49.216
395.07	49.453
395.42	49.415
395.78	49.846
396.14	50.120
396.50	49.639
396.85	48.659
397.21	48.977
397.57	48.834
397.92	48.296
398.28	49.200
398.64	49.273
399.00	47.622
399.35	47.772
399.71	47.958
400.07	48.516
400.42	48.418
400.78	47.625
401.14	47.504
401.49	47.350
401.85	47.625
402.21	48.096
402.57	48.414
402.92	46.848
403.28	46.420
403.63	47.734
403.99	46.924
404.35	45.955
404.70	47.549
405.06	45.705
405.42	46.978
405.77	46.141
406.13	45.662
406.49	44.628
406.84	45.798
407.20	45.833
407.55	45.600
407.91	46.905
408.27	45.907
408.62	45.240
408.98	45.772
409.34	44.594
409.69	45.240
410.05	44.842
410.40	44.346
410.76	44.305
411.11	44.727
411.47	44.753
411.83	43.644
412.18	44.444
412.54	45.225
412.89	45.074
413.25	45.040
413.60	44.860
413.96	45.183
414.31	44.687
414.67	45.313
415.03	44.955
415.38	45.110
415.74	44.536
416.09	45.659
416.45	44.602
416.80	46.248
417.16	44.812
417.51	44.841
417.87	44.681
418.22	44.897
418.58	44.268
418.93	45.747
419.29	44.301
419.64	45.851
420.00	45.465
420.35	45.645
420.71	44.516
421.06	45.438
421.42	44.560
421.77	45.253
422.12	44.983
422.48	44.427
422.83	45.759
423.19	46.112
423.54	45.145
423.90	45.980
424.25	45.460
424.61	46.953
424.96	45.059
425.31	46.251
425.67	47.419
426.02	46.663
426.38	46.966
426.73	47.137
427.09	47.212
427.44	47.271
427.79	46.998
428.15	48.026
428.50	48.057
428.85	47.208
429.21	47.056
429.56	46.261
429.92	47.887
430.27	47.799
430.62	45.081
430.98	48.303
431.33	46.724
431.68	46.963
432.04	47.646
432.39	48.573
432.74	49.532
433.10	49.336
433.45	49.339
433.80	49.917
434.16	48.450
434.51	48.710
434.86	48.938
435.22	48.838
435.57	49.022
435.92	50.598
436.28	49.712
436.63	49.487
436.98	50.394
437.34	50.514
437.69	49.272
438.04	49.731
438.39	49.621
438.75	51.169
439.10	50.513
439.45	49.237
439.81	50.896
440.16	49.587
440.51	49.268
440.86	50.883
441.22	49.784
441.57	49.764
441.92	50.049
442.27	50.052
442.63	50.152
442.98	50.216
443.33	49.920
443.68	50.201
444.03	49.859
444.39	50.565
444.74	50.466
445.09	50.974
445.44	50.159
445.79	50.341
446.15	50.053
446.50	50.264
446.85	50.349
447.20	49.851
447.55	51.822
447.91	51.359
448.26	50.426
448.61	50.802
448.96	51.525
449.31	51.045
449.66	51.495
450.02	50.405
450.37	51.416
450.72	52.231
451.07	52.007
451.42	51.512
451.77	52.062
452.12	51.730
452.47	51.701
452.83	51.324
453.18	51.772
453.53	52.753
453.88	52.514
454.23	51.598
454.58	50.874
454.93	50.889
455.28	51.652
455.63	52.778
455.98	50.592
456.34	52.401
456.69	52.622
457.04	52.208
457.39	51.943
457.74	51.126
458.09	50.870
458.44	51.424
458.79	51.671
459.14	51.282
459.49	51.019
459.84	52.174
460.19	51.243
460.54	52.080
460.89	52.292
461.24	50.802
461.59	51.984
461.94	52.128
462.29	52.346
462.64	53.266
462.99	51.887
463.34	52.884
463.69	52.208
464.04	53.425
464.39	51.173
464.74	50.528
465.09	51.248
465.44	50.762
465.79	50.735
466.14	50.609
466.49	51.492
466.84	50.836
467.19	51.494
467.54	52.132
467.89	52.876
468.24	52.519
468.59	51.964
468.94	52.959
469.29	52.108
469.64	52.540
469.99	53.535
470.34	53.194
470.68	54.000
471.03	53.702
471.38	51.921
471.73	53.560
472.08	54.925
472.43	53.693
472.78	53.457
473.13	53.129
473.48	51.834
473.83	52.297
474.17	52.584
474.52	52.666
474.87	52.473
475.22	53.055
475.57	52.046
475.92	51.814
476.27	52.067
476.61	51.796
476.96	52.508
477.31	53.162
477.66	54.750
478.01	52.347
478.36	53.038
478.70	53.300
479.05	53.870
479.40	53.026
479.75	53.873
480.10	54.066
480.45	51.914
480.79	52.120
481.14	52.829
481.49	51.830
481.84	52.551
482.19	51.834
482.53	51.032
482.88	51.389
483.23	52.684
483.58	53.142
483.92	52.697
484.27	52.140
484.62	52.462
484.97	51.071
485.31	50.750
485.66	49.974
486.01	48.903
486.36	47.755
486.70	46.490
487.05	47.492
487.40	49.027
487.75	49.767
488.09	49.574
488.44	49.681
488.79	50.885
489.13	51.586
489.48	51.978
489.83	52.669
490.17	52.271
490.52	51.378
490.87	52.371
491.22	53.236
491.56	53.667
491.91	52.778
492.26	53.318
492.60	53.895
492.95	53.013
493.30	53.230
493.64	52.561
493.99	53.354
494.34	52.577
494.68	53.475
495.03	53.660
495.37	53.624
495.72	53.706
496.07	53.324
496.41	52.172
496.76	51.456
497.11	53.213
497.45	53.091
497.80	53.197
498.14	53.999
498.49	54.085
498.84	53.972
499.18	52.331
499.53	53.881
499.87	53.010
500.22	54.353
500.56	53.389
500.91	54.499
501.26	53.927
501.60	53.734
501.95	53.271
502.29	53.289
502.64	52.933
502.98	53.490
503.33	55.278
503.67	53.687
504.02	54.366
504.36	55.113
504.71	54.588
505.06	54.904
505.40	54.282
505.75	53.882
506.09	54.690
506.44	54.464
506.78	55.955
507.13	55.889
507.47	55.944
507.82	56.691
508.16	56.100
508.51	55.652
508.85	55.935
509.19	56.730
509.54	56.104
509.88	57.384
510.23	56.569
510.57	55.405
510.92	57.742
511.26	58.434
511.61	55.982
511.95	56.745
512.30	56.300
512.64	56.750
512.98	58.739
513.33	57.428
513.67	58.467
514.02	57.870
514.36	59.294
514.70	57.653
515.05	58.018
515.39	58.936
515.74	60.798
516.08	59.205
516.42	60.383
516.77	59.253
517.11	58.613
517.46	58.136
517.80	60.459
518.14	60.620
518.49	59.813
518.83	58.956
519.17	60.011
519.52	60.677
519.86	59.891
520.20	61.151
520.55	60.034
520.89	60.977
521.23	61.273
521.58	61.159
521.92	60.408
522.26	61.374
522.61	62.151
522.95	61.742
523.29	60.760
523.64	61.445
523.98	61.972
524.32	61.015
524.66	61.913
525.01	62.367
525.35	60.754
525.69	61.409
526.04	62.046
526.38	61.507
526.72	61.337
527.06	61.620
527.41	62.455
527.75	62.751
528.09	61.710
528.43	63.514
528.78	62.850
529.12	63.215
529.46	61.192
529.80	61.040
530.15	61.049
530.49	60.048
530.83	61.670
531.17	63.469
531.51	62.906
531.86	61.051
532.20	61.619
532.54	63.340
532.88	63.335
533.22	62.645
533.57	62.843
533.91	60.548
534.25	60.415
534.59	62.047
534.93	60.580
535.27	60.216
535.62	59.452
535.96	60.106
536.30	62.279
536.64	62.112
536.98	61.108
537.32	61.062
537.66	61.735
538.01	60.929
538.35	62.445
538.69	61.286
539.03	60.759
539.37	60.680
539.71	61.728
540.05	61.231
540.39	61.509
540.73	62.089
541.07	60.163
541.42	60.448
541.76	61.837
542.10	61.036
542.44	61.845
542.78	61.548
543.12	60.982
543.46	61.466
543.80	60.902
544.14	61.734
544.48	61.010
544.82	59.878
545.16	60.231
545.50	60.910
545.84	60.795
546.18	62.874
546.52	63.148
546.86	62.411
547.20	62.468
547.54	61.178
547.88	61.800
548.22	60.109
548.56	60.813
548.90	60.024
549.24	61.150
549.58	58.892
549.92	62.803
550.26	64.030
550.60	62.409
550.94	63.772
551.28	63.724
551.62	64.552
551.96	61.486
552.30	62.755
552.64	62.589
552.98	62.500
553.32	61.652
553.66	61.303
554.00	61.454
554.34	63.449
554.68	62.769
555.02	63.815
555.36	62.301
555.69	63.024
556.03	61.720
556.37	62.333
556.71	62.973
557.05	61.271
557.39	63.467
557.73	62.399
558.07	62.911
558.41	62.509
558.75	62.927
559.08	64.332
559.42	65.140
559.76	64.077
560.10	63.042
560.44	63.371
560.78	63.427
561.12	63.064
561.45	61.327
561.79	62.110
562.13	60.644
562.47	62.751
562.81	62.785
563.15	63.219
563.48	60.373
563.82	63.693
564.16	61.754
564.50	60.518
564.84	60.912
565.17	61.497
565.51	62.931
565.85	61.999
566.19	62.024
566.52	61.613
566.86	62.580
567.20	60.674
567.54	59.825
567.88	60.824
568.21	58.512
568.55	58.949
568.89	57.710
569.23	57.118
569.56	57.827
569.90	55.480
570.24	55.503
570.57	55.191
570.91	55.164
571.25	54.656
571.59	53.356
571.92	52.530
572.26	52.965
572.60	53.180
572.93	53.795
573.27	54.825
573.61	52.815
573.95	52.440
574.28	53.175
574.62	52.608
574.96	51.944
575.29	51.460
575.63	51.284
575.97	51.777
576.30	51.455
576.64	53.515
576.98	51.985
577.31	52.654
577.65	51.874
577.98	51.203
578.32	51.417
578.66	50.875
578.99	51.794
579.33	52.120
579.67	52.481
580.00	51.846
580.34	52.503
580.67	51.924
581.01	52.535
581.35	52.594
581.68	51.356
582.02	50.950
582.35	51.196
582.69	51.611
583.02	51.918
583.36	52.584
583.70	53.862
584.03	54.735
584.37	54.240
584.70	52.799
585.04	53.010
585.37	52.412
585.71	53.640
586.04	53.086
586.38	53.148
586.72	53.333
587.05	53.706
587.39	54.362
587.72	53.842
588.06	54.135
588.39	54.427
588.73	55.162
589.06	54.975
589.40	56.620
589.73	55.162
590.07	56.726
590.40	56.899
590.73	58.685
591.07	57.381
591.40	57.206
591.74	57.752
592.07	56.822
592.41	57.794
592.74	56.573
593.08	55.664
593.41	55.895
593.75	54.173
594.08	55.220
594.41	55.523
594.75	56.130
595.08	57.647
595.42	56.781
595.75	56.828
596.09	57.456
596.42	57.028
596.75	59.135
597.09	58.027
597.42	58.367
597.75	57.606
598.09	57.571
598.42	56.793
598.76	56.785
599.09	57.117
599.42	55.571
599.76	56.242
600.09	55.288
600.42	56.077
600.76	55.608
601.09	56.748
601.42	56.177
601.76	56.928
602.09	56.917
602.42	56.562
602.76	57.685
603.09	58.032
603.42	57.688
603.76	57.122
604.09	57.329
604.42	56.535
604.76	57.527
605.09	58.327
605.42	57.416
605.75	56.692
606.09	57.039
606.42	57.046
606.75	57.015
607.09	56.810
607.42	57.774
607.75	57.166
608.08	56.986
608.42	58.809
608.75	57.980
609.08	58.953
609.41	58.545
609.75	59.478
610.08	58.948
610.41	57.532
610.74	57.835
611.07	59.300
611.41	58.619
611.74	59.273
612.07	58.815
612.40	60.185
612.73	61.458
613.07	60.314
613.40	60.351
613.73	60.409
614.06	59.100
614.39	60.101
614.72	59.468
615.06	58.259
615.39	59.010
615.72	57.938
616.05	60.773
616.38	59.665
616.71	61.584
617.05	60.132
617.38	61.067
617.71	61.699
618.04	60.684
618.37	62.034
618.70	62.240
619.03	62.576
619.36	63.505
619.69	63.654
620.03	64.905
620.36	63.263
620.69	64.304
621.02	64.538
621.35	65.186
621.68	65.413
622.01	67.380
622.34	65.113
622.67	64.817
623.00	63.581
623.33	62.821
623.66	63.739
623.99	64.178
624.32	64.499
624.65	62.739
624.99	63.827
625.32	63.727
625.65	64.345
625.98	65.342
626.31	64.985
626.64	67.654
626.97	65.493
627.30	67.236
627.63	68.053
627.96	66.510
628.29	67.822
628.62	67.066
628.95	68.794
629.28	70.289
629.61	68.981
629.94	68.712
630.26	68.111
630.59	69.415
630.92	69.417
