SpectraSuite Data File
++++++++++++++++++++++++++++++++++++
Date: Tue May 12 15:20:39 PDT 2015
User: schluterlab
Dark Spectrum Present: Yes
Reference Spectrum Present: Yes
Number of Sampled Component Spectra: 1
Spectrometers: USB2E3373
Integration Time (usec): 3000 (USB2E3373)
Spectra Averaged: 3 (USB2E3373)
Boxcar Smoothing: 0 (USB2E3373)
Correct for Electrical Dark: No (USB2E3373)
Strobe/Lamp Enabled: No (USB2E3373)
Correct for Detector Non-linearity: No (USB2E3373)
Correct for Stray Light: No (USB2E3373)
Number of Pixels in Processed Spectrum: 2048
>>>>>Begin Processed Spectral Data<<<<<
178.53	0.000
178.91	-175.000
179.29	-700.000
179.67	-2800.000
180.04	-113.333
180.42	575.000
180.80	1250.000
181.18	0.000
181.56	-350.000
181.94	0.000
182.31	900.000
182.69	-3000.000
183.07	585.714
183.45	-3400.000
183.83	-1450.000
184.20	330.000
184.58	428.571
184.96	-238.462
185.34	-150.000
185.72	1550.000
186.09	-750.000
186.47	-2900.000
186.85	1033.333
187.23	480.000
187.61	1150.000
187.98	437.500
188.36	221.429
188.74	283.333
189.12	283.333
189.49	950.000
189.87	0.000
190.25	462.500
190.63	2400.000
191.00	-150.000
191.38	-2600.000
191.76	-850.000
192.14	537.500
192.51	-2700.000
192.89	1450.000
193.27	966.667
193.65	-1366.667
194.02	-700.000
194.40	542.857
194.78	-235.714
195.15	233.333
195.53	-2900.000
195.91	-720.000
196.29	3900.000
196.66	143.750
197.04	750.000
197.42	-1200.000
197.79	525.000
198.17	316.667
198.55	0.000
198.92	528.571
199.30	1166.667
199.68	1700.000
200.05	550.000
200.43	-450.000
200.81	233.333
201.18	2800.000
201.56	291.667
201.94	-950.000
202.31	-250.000
202.69	-520.000
203.07	3100.000
203.44	-400.000
203.82	308.333
204.19	560.000
204.57	-950.000
204.95	-625.000
205.32	-760.000
205.70	400.000
206.08	925.000
206.45	-800.000
206.83	366.667
207.20	194.737
207.58	233.333
207.96	520.000
208.33	0.000
208.71	500.000
209.08	680.000
209.46	-2600.000
209.84	-750.000
210.21	860.000
210.59	-600.000
210.96	316.667
211.34	-900.000
211.71	363.636
212.09	750.000
212.46	1550.000
212.84	-383.333
213.22	366.667
213.59	-2400.000
213.97	320.000
214.34	925.000
214.72	1366.667
215.09	933.333
215.47	-3000.000
215.84	-380.000
216.22	-400.000
216.59	0.000
216.97	0.000
217.34	850.000
217.72	-1300.000
218.09	1300.000
218.47	375.000
218.84	825.000
219.22	1066.667
219.59	1066.667
219.97	614.286
220.34	400.000
220.72	1350.000
221.09	3100.000
221.47	241.667
221.84	1266.667
222.22	330.000
222.59	255.556
222.97	207.143
223.34	206.250
223.72	-1650.000
224.09	933.333
224.46	238.462
224.84	-750.000
225.21	477.778
225.59	280.000
225.96	900.000
226.34	-480.000
226.71	-550.000
227.08	-460.000
227.46	0.000
227.83	-633.333
228.21	-1150.000
228.58	408.333
228.95	925.000
229.33	188.889
229.70	850.000
230.08	276.923
230.45	4000.000
230.82	-1200.000
231.20	-800.000
231.57	-566.667
231.95	540.000
232.32	266.667
232.69	466.667
233.07	225.000
233.44	-1950.000
233.81	213.333
234.19	170.370
234.56	193.750
234.93	182.353
235.31	195.000
235.68	262.500
236.05	167.857
236.43	114.815
236.80	292.857
237.17	134.483
237.55	103.125
237.92	125.000
238.29	142.424
238.67	140.625
239.04	109.756
239.41	97.917
239.79	115.000
240.16	68.750
240.53	83.607
240.91	68.116
241.28	101.695
241.65	80.303
242.02	85.915
242.40	74.286
242.77	80.220
243.14	55.696
243.51	83.838
243.89	64.486
244.26	68.224
244.63	68.317
245.00	64.220
245.38	59.322
245.75	56.818
246.12	62.963
246.49	58.156
246.87	52.459
247.24	61.333
247.61	56.250
247.98	58.503
248.36	54.545
248.73	55.612
249.10	52.976
249.47	52.500
249.84	46.269
250.22	51.892
250.59	51.500
250.96	45.992
251.33	53.488
251.70	49.554
252.08	46.639
252.45	46.614
252.82	46.008
253.19	47.826
253.56	45.000
253.94	43.116
254.31	46.899
254.68	46.690
255.05	47.241
255.42	45.985
255.79	46.906
256.16	49.492
256.54	50.974
256.91	43.791
257.28	45.819
257.65	41.693
258.02	37.758
258.39	44.986
258.76	44.928
259.14	40.857
259.51	46.356
259.88	49.848
260.25	43.407
260.62	41.370
260.99	43.526
261.36	44.290
261.73	43.085
262.10	42.932
262.47	42.000
262.85	41.867
263.22	40.874
263.59	40.921
263.96	41.353
264.33	42.716
264.70	46.683
265.07	43.659
265.44	41.743
265.81	40.566
266.18	42.792
266.55	40.662
266.92	42.282
267.29	43.860
267.66	40.583
268.03	41.031
268.40	40.803
268.77	43.392
269.14	39.696
269.51	41.203
269.88	39.796
270.25	38.445
270.62	42.060
270.99	38.742
271.36	39.634
271.73	39.832
272.10	40.404
272.47	41.071
272.84	38.523
273.21	40.083
273.58	41.093
273.95	40.246
274.32	41.051
274.69	40.551
275.06	40.437
275.43	37.739
275.80	39.811
276.17	38.235
276.54	38.879
276.91	41.231
277.28	37.409
277.65	39.483
278.02	39.338
278.39	36.331
278.76	38.621
279.13	38.612
279.50	38.909
279.87	37.989
280.23	38.858
280.60	41.058
280.97	38.793
281.34	36.964
281.71	37.565
282.08	38.462
282.45	37.669
282.82	35.786
283.19	36.407
283.56	37.190
283.92	37.459
284.29	37.937
284.66	36.639
285.03	38.972
285.40	35.868
285.77	37.037
286.14	37.771
286.51	36.196
286.87	35.601
287.24	35.736
287.61	35.714
287.98	38.955
288.35	35.407
288.72	35.660
289.08	39.790
289.45	38.110
289.82	37.656
290.19	34.700
290.56	37.846
290.93	37.554
291.29	34.807
291.66	34.605
292.03	35.344
292.40	34.959
292.77	34.680
293.13	35.235
293.50	35.493
293.87	34.824
294.24	38.601
294.60	36.070
294.97	37.902
295.34	34.794
295.71	35.611
296.08	35.067
296.44	35.705
296.81	34.988
297.18	34.728
297.55	35.345
297.91	34.606
298.28	35.145
298.65	34.847
299.02	32.569
299.38	35.612
299.75	35.366
300.12	33.830
300.48	35.480
300.85	35.042
301.22	35.233
301.59	34.788
301.95	32.555
302.32	35.739
302.69	35.973
303.05	36.139
303.42	34.978
303.79	35.320
304.15	35.094
304.52	34.778
304.89	34.861
305.25	37.931
305.62	36.567
305.99	34.674
306.35	34.632
306.72	35.692
307.09	34.783
307.45	35.903
307.82	35.905
308.19	34.639
308.55	35.800
308.92	36.605
309.29	37.377
309.65	37.066
310.02	36.511
310.38	35.892
310.75	35.101
311.12	36.207
311.48	36.486
311.85	36.641
312.22	38.300
312.58	36.832
312.95	37.864
313.31	38.483
313.68	37.242
314.05	39.011
314.41	38.175
314.78	39.205
315.14	38.294
315.51	40.776
315.87	38.504
316.24	40.243
316.61	39.033
316.97	39.358
317.34	39.712
317.70	40.825
318.07	40.658
318.43	39.807
318.80	40.193
319.16	39.860
319.53	41.416
319.89	39.606
320.26	41.527
320.62	41.117
320.99	41.468
321.35	41.002
321.72	43.548
322.08	43.121
322.45	42.598
322.81	43.458
323.18	42.096
323.54	43.293
323.91	44.696
324.27	42.352
324.64	43.339
325.00	44.741
325.37	44.688
325.73	44.941
326.10	45.899
326.46	45.665
326.83	44.320
327.19	46.185
327.56	45.767
327.92	47.541
328.29	47.054
328.65	47.175
329.01	48.589
329.38	46.024
329.74	45.944
330.11	47.003
330.47	47.826
330.84	46.074
331.20	46.870
331.56	48.014
331.93	48.503
332.29	46.259
332.66	47.364
333.02	47.079
333.38	49.215
333.75	47.706
334.11	46.980
334.48	46.923
334.84	47.466
335.20	49.444
335.57	45.340
335.93	47.435
336.29	46.766
336.66	48.199
337.02	49.701
337.38	47.034
337.75	48.733
338.11	48.439
338.47	47.841
338.84	46.486
339.20	46.753
339.56	47.687
339.93	48.913
340.29	46.723
340.65	47.779
341.02	47.868
341.38	48.851
341.74	49.252
342.11	48.080
342.47	47.662
342.83	48.482
343.20	47.696
343.56	47.180
343.92	48.555
344.28	49.203
344.65	48.166
345.01	47.857
345.37	49.760
345.73	47.698
346.10	48.845
346.46	48.405
346.82	48.071
347.19	49.382
347.55	47.385
347.91	47.205
348.27	47.018
348.63	49.209
349.00	47.525
349.36	48.560
349.72	49.618
350.08	49.068
350.45	49.581
350.81	49.083
351.17	48.767
351.53	49.038
351.89	49.184
352.26	47.543
352.62	49.321
352.98	49.847
353.34	49.230
353.70	48.930
354.07	50.154
354.43	49.539
354.79	48.368
355.15	49.617
355.51	49.773
355.87	50.301
356.24	49.885
356.60	49.543
356.96	50.644
357.32	48.757
357.68	49.706
358.04	50.152
358.40	50.975
358.77	50.639
359.13	50.751
359.49	49.815
359.85	51.080
360.21	51.412
360.57	50.876
360.93	50.505
361.29	52.381
361.66	51.603
362.02	50.852
362.38	51.371
362.74	52.866
363.10	51.753
363.46	51.657
363.82	52.525
364.18	52.560
364.54	52.074
364.90	52.075
365.26	52.325
365.62	53.108
365.98	51.273
366.35	52.828
366.71	52.741
367.07	52.765
367.43	51.444
367.79	52.327
368.15	51.289
368.51	51.206
368.87	52.649
369.23	53.777
369.59	52.933
369.95	53.846
370.31	52.225
370.67	52.325
371.03	53.011
371.39	54.501
371.75	53.315
372.11	53.569
372.47	54.178
372.83	54.317
373.19	53.804
373.55	52.509
373.91	54.351
374.27	54.101
374.63	55.458
374.99	56.132
375.35	56.384
375.71	54.947
376.07	55.836
376.42	53.325
376.78	55.556
377.14	56.750
377.50	55.243
377.86	55.669
378.22	54.906
378.58	55.811
378.94	55.824
379.30	55.367
379.66	56.051
380.02	55.484
380.38	55.679
380.74	56.517
381.09	56.893
381.45	54.393
381.81	55.674
382.17	54.945
382.53	56.029
382.89	56.475
383.25	56.365
383.61	54.697
383.97	56.449
384.32	56.420
384.68	56.506
385.04	56.506
385.40	56.940
385.76	56.466
386.12	58.256
386.48	57.143
386.83	57.641
387.19	56.890
387.55	57.656
387.91	57.159
388.27	57.109
388.62	56.103
388.98	57.201
389.34	56.454
389.70	56.958
390.06	58.110
390.42	57.927
390.77	59.091
391.13	58.721
391.49	57.653
391.85	57.723
392.20	57.628
392.56	57.826
392.92	57.945
393.28	57.567
393.64	56.938
393.99	57.202
394.35	57.387
394.71	56.634
395.07	57.603
395.42	57.963
395.78	58.606
396.14	58.253
396.50	57.762
396.85	57.439
397.21	57.040
397.57	57.322
397.92	58.174
398.28	57.363
398.64	57.068
399.00	57.616
399.35	56.790
399.71	57.230
400.07	56.050
400.42	57.612
400.78	57.654
401.14	56.371
401.49	56.394
401.85	56.721
402.21	56.766
402.57	58.229
402.92	58.242
403.28	57.100
403.63	56.798
403.99	56.936
404.35	57.268
404.70	57.826
405.06	56.317
405.42	56.972
405.77	56.725
406.13	56.128
406.49	56.055
406.84	55.048
407.20	56.393
407.55	56.800
407.91	58.264
408.27	56.701
408.62	56.712
408.98	57.244
409.34	56.166
409.69	55.756
410.05	55.993
410.40	55.536
410.76	55.524
411.11	56.339
411.47	55.617
411.83	55.888
412.18	55.254
412.54	55.015
412.89	55.634
413.25	55.302
413.60	56.250
413.96	55.835
414.31	56.021
414.67	56.363
415.03	56.130
415.38	56.845
415.74	55.843
416.09	56.465
416.45	56.949
416.80	56.382
417.16	54.933
417.51	56.624
417.87	57.071
418.22	56.075
418.58	55.796
418.93	54.908
419.29	54.159
419.64	54.755
420.00	56.444
420.35	55.981
420.71	54.434
421.06	55.562
421.42	55.095
421.77	55.469
422.12	56.174
422.48	54.032
422.83	55.915
423.19	53.888
423.54	55.074
423.90	55.663
424.25	55.311
424.61	55.543
424.96	54.150
425.31	54.406
425.67	54.377
426.02	54.122
426.38	54.551
426.73	54.829
427.09	55.635
427.44	55.881
427.79	55.575
428.15	55.038
428.50	54.914
428.85	54.615
429.21	54.187
429.56	54.686
429.92	54.301
430.27	53.846
430.62	53.647
430.98	54.291
431.33	54.536
431.68	52.099
432.04	53.337
432.39	54.885
432.74	54.742
433.10	54.430
433.45	55.141
433.80	55.764
434.16	54.388
434.51	53.044
434.86	54.219
435.22	54.025
435.57	54.179
435.92	55.378
436.28	54.435
436.63	54.079
436.98	54.899
437.34	53.710
437.69	53.471
438.04	53.333
438.39	54.641
438.75	54.176
439.10	55.100
439.45	52.685
439.81	54.540
440.16	54.210
440.51	53.378
440.86	54.188
441.22	53.517
441.57	52.913
441.92	52.715
442.27	52.835
442.63	53.709
442.98	51.724
443.33	53.401
443.68	53.119
444.03	53.346
444.39	53.107
444.74	53.364
445.09	52.607
445.44	52.869
445.79	53.265
446.15	53.158
446.50	53.270
446.85	52.141
447.20	52.488
447.55	52.964
447.91	52.424
448.26	51.384
448.61	52.294
448.96	53.922
449.31	53.410
449.66	52.769
450.02	51.432
450.37	52.804
450.72	52.782
451.07	51.832
451.42	52.401
451.77	52.749
452.12	52.581
452.47	52.309
452.83	52.451
453.18	53.333
453.53	52.102
453.88	51.543
454.23	52.063
454.58	51.166
454.93	51.747
455.28	51.408
455.63	51.891
455.98	51.607
456.34	52.401
456.69	51.341
457.04	50.895
457.39	51.029
457.74	50.901
458.09	50.983
458.44	51.369
458.79	51.353
459.14	50.682
459.49	52.039
459.84	51.304
460.19	50.791
460.54	51.054
460.89	51.279
461.24	50.745
461.59	50.737
461.94	49.764
462.29	50.515
462.64	50.879
462.99	50.416
463.34	50.421
463.69	50.998
464.04	50.835
464.39	49.742
464.74	50.000
465.09	49.913
465.44	49.946
465.79	49.156
466.14	49.020
466.49	50.407
466.84	48.662
467.19	50.146
467.54	48.889
467.89	49.002
468.24	49.508
468.59	48.750
468.94	49.336
469.29	48.809
469.64	48.553
469.99	48.972
470.34	48.450
470.68	48.138
471.03	49.433
471.38	48.675
471.73	48.792
472.08	49.511
472.43	47.921
472.78	48.464
473.13	48.436
473.48	48.594
473.83	47.939
474.17	48.632
474.52	47.927
474.87	47.925
475.22	49.172
475.57	47.849
475.92	47.266
476.27	47.008
476.61	47.775
476.96	46.499
477.31	46.530
477.66	47.289
478.01	47.086
478.36	47.013
478.70	46.352
479.05	47.594
479.40	46.230
479.75	47.418
480.10	45.837
480.45	46.125
480.79	45.853
481.14	45.934
481.49	45.791
481.84	45.383
482.19	46.026
482.53	45.542
482.88	45.475
483.23	45.692
483.58	45.646
483.92	45.430
484.27	44.777
484.62	46.095
484.97	45.033
485.31	44.646
485.66	44.702
486.01	44.587
486.36	43.110
486.70	42.167
487.05	43.127
487.40	43.542
487.75	43.620
488.09	43.381
488.44	43.881
488.79	43.457
489.13	44.308
489.48	44.746
489.83	44.245
490.17	42.775
490.52	43.626
490.87	43.534
491.22	44.326
491.56	43.522
491.91	43.548
492.26	42.227
492.60	43.827
492.95	43.498
493.30	43.039
493.64	42.677
493.99	43.023
494.34	43.254
494.68	42.895
495.03	42.928
495.37	42.638
495.72	43.543
496.07	42.588
496.41	42.615
496.76	42.718
497.11	42.288
497.45	42.218
497.80	42.817
498.14	41.563
498.49	42.015
498.84	42.150
499.18	41.545
499.53	42.306
499.87	41.689
500.22	42.331
500.56	41.458
500.91	42.115
501.26	42.352
501.60	41.758
501.95	40.905
502.29	41.422
502.64	41.464
502.98	40.818
503.33	41.782
503.67	40.927
504.02	40.170
504.36	41.041
504.71	42.479
505.06	40.310
505.40	40.992
505.75	41.113
506.09	41.484
506.44	40.977
506.78	42.250
507.13	42.172
507.47	40.611
507.82	41.606
508.16	42.283
508.51	41.787
508.85	40.931
509.19	41.116
509.54	40.332
509.88	40.278
510.23	40.049
510.57	40.251
510.92	40.410
511.26	40.964
511.61	39.734
511.95	39.970
512.30	40.150
512.64	39.772
512.98	39.928
513.33	39.600
513.67	40.031
514.02	41.143
514.36	39.200
514.70	39.253
515.05	40.330
515.39	40.351
515.74	40.733
516.08	40.414
516.42	40.710
516.77	40.107
517.11	40.053
517.46	38.955
517.80	39.705
518.14	41.127
518.49	39.581
518.83	39.011
519.17	39.046
519.52	39.268
519.86	39.510
520.20	39.562
520.55	40.136
520.89	39.598
521.23	39.778
521.58	39.931
521.92	38.601
522.26	39.336
522.61	40.582
522.95	39.339
523.29	38.304
523.64	38.092
523.98	39.613
524.32	38.581
524.66	39.710
525.01	38.994
525.35	38.126
525.69	38.230
526.04	40.274
526.38	38.905
526.72	37.589
527.06	37.729
527.41	38.996
527.75	38.101
528.09	38.591
528.43	37.462
528.78	38.163
529.12	38.772
529.46	38.282
529.80	37.734
530.15	37.419
530.49	37.966
530.83	37.477
531.17	37.884
531.51	37.646
531.86	37.077
532.20	36.156
532.54	37.037
532.88	37.477
533.22	37.965
533.57	37.828
533.91	36.072
534.25	36.411
534.59	37.368
534.93	36.405
535.27	35.857
535.62	36.523
535.96	37.470
536.30	37.051
536.64	36.522
536.98	36.627
537.32	37.437
537.66	36.416
538.01	36.656
538.35	37.056
538.69	35.862
539.03	34.826
539.37	35.983
539.71	36.481
540.05	35.815
540.39	36.541
540.73	36.139
541.07	35.634
541.42	35.634
541.76	35.573
542.10	35.943
542.44	36.471
542.78	35.431
543.12	35.767
543.46	35.965
543.80	36.529
544.14	35.913
544.48	34.428
544.82	35.719
545.16	34.244
545.50	35.648
545.84	35.859
546.18	36.086
546.52	36.262
546.86	35.654
547.20	34.432
547.54	34.452
547.88	34.672
548.22	34.851
548.56	33.883
548.90	33.274
549.24	35.250
549.58	33.698
549.92	35.429
550.26	35.632
550.60	35.263
550.94	36.092
551.28	35.034
551.62	35.379
551.96	35.338
552.30	34.212
552.64	35.793
552.98	33.119
553.32	32.843
553.66	34.007
554.00	33.784
554.34	34.554
554.68	34.476
555.02	34.352
555.36	33.178
555.69	34.359
556.03	33.694
556.37	34.289
556.71	35.854
557.05	33.552
557.39	33.400
557.73	34.771
558.07	34.004
558.41	33.927
558.75	34.747
559.08	35.811
559.42	34.073
559.76	33.571
560.10	32.622
560.44	33.245
560.78	34.271
561.12	34.520
561.45	32.979
561.79	33.521
562.13	32.723
562.47	33.744
562.81	32.726
563.15	33.613
563.48	31.615
563.82	34.124
564.16	33.769
564.50	32.248
564.84	33.982
565.17	31.373
565.51	34.421
565.85	33.683
566.19	32.798
566.52	32.250
566.86	34.209
567.20	32.247
567.54	33.188
567.88	32.394
568.21	32.252
568.55	31.858
568.89	32.619
569.23	32.183
569.56	31.949
569.90	31.621
570.24	32.129
570.57	32.252
570.91	31.544
571.25	31.020
571.59	31.134
571.92	30.920
572.26	30.270
572.60	30.797
572.93	30.966
573.27	30.643
573.61	30.536
573.95	30.802
574.28	31.071
574.62	30.112
574.96	30.154
575.29	29.726
575.63	30.106
575.97	29.649
576.30	29.790
576.64	30.212
576.98	29.765
577.31	30.325
577.65	30.362
577.98	29.709
578.32	29.923
578.66	29.821
578.99	30.417
579.33	29.612
579.67	29.518
580.00	29.603
580.34	29.660
580.67	29.396
581.01	30.327
581.35	29.537
581.68	29.494
582.02	29.777
582.35	29.312
582.69	29.497
583.02	29.299
583.36	29.614
583.70	30.159
584.03	30.375
584.37	29.758
584.70	29.709
585.04	29.669
585.37	28.877
585.71	29.798
586.04	29.053
586.38	29.208
586.72	29.498
587.05	29.748
587.39	29.178
587.72	29.397
588.06	29.476
588.39	29.580
588.73	29.229
589.06	29.618
589.40	29.859
589.73	29.597
590.07	30.577
590.40	29.930
590.73	30.665
591.07	30.323
591.40	29.621
591.74	29.383
592.07	29.243
592.41	29.776
592.74	29.074
593.08	28.906
593.41	28.875
593.75	28.521
594.08	29.042
594.41	29.163
594.75	28.870
595.08	29.801
595.42	28.966
595.75	29.385
596.09	29.510
596.42	29.497
596.75	29.327
597.09	29.715
597.42	29.592
597.75	29.452
598.09	28.847
598.42	29.906
598.76	28.604
599.09	29.680
599.42	28.374
599.76	29.240
600.09	28.475
600.42	29.144
600.76	28.688
601.09	29.134
601.42	28.370
601.76	29.717
602.09	28.550
602.42	28.651
602.76	28.577
603.09	29.035
603.42	29.064
603.76	28.344
604.09	27.904
604.42	28.362
604.76	29.316
605.09	28.898
605.42	29.256
605.75	28.780
606.09	28.653
606.42	28.673
606.75	28.372
607.09	28.227
607.42	28.526
607.75	28.264
608.08	28.392
608.42	28.314
608.75	28.455
609.08	27.717
609.41	28.682
609.75	29.167
610.08	28.732
610.41	29.205
610.74	28.874
611.07	28.558
611.41	28.406
611.74	28.585
612.07	28.998
612.40	29.581
612.73	28.557
613.07	29.397
613.40	29.424
613.73	28.507
614.06	28.200
614.39	28.535
614.72	27.524
615.06	27.300
615.39	28.614
615.72	27.202
616.05	27.926
616.38	28.716
616.71	27.727
617.05	27.512
617.38	27.472
617.71	28.515
618.04	27.874
618.37	28.849
618.70	28.002
619.03	27.961
619.36	28.580
619.69	28.496
620.03	28.898
620.36	28.645
620.69	28.799
621.02	28.804
621.35	27.937
621.68	28.761
622.01	30.480
622.34	28.551
622.67	28.862
623.00	28.046
623.33	28.745
623.66	28.077
623.99	28.904
624.32	28.862
624.65	27.584
624.99	27.519
625.32	28.123
625.65	27.517
625.98	27.197
626.31	29.303
626.64	28.398
626.97	28.233
627.30	28.571
627.63	29.356
627.96	28.795
628.29	27.393
628.62	27.802
628.95	28.369
629.28	29.185
629.61	28.998
629.94	28.436
630.26	30.069
630.59	29.521
630.92	28.879
631.25	29.556
