SpectraSuite Data File
++++++++++++++++++++++++++++++++++++
Date: Tue May 12 17:08:06 PDT 2015
User: schluterlab
Dark Spectrum Present: Yes
Reference Spectrum Present: Yes
Number of Sampled Component Spectra: 1
Spectrometers: USB2E3373
Integration Time (usec): 3000 (USB2E3373)
Spectra Averaged: 3 (USB2E3373)
Boxcar Smoothing: 0 (USB2E3373)
Correct for Electrical Dark: No (USB2E3373)
Strobe/Lamp Enabled: No (USB2E3373)
Correct for Detector Non-linearity: No (USB2E3373)
Correct for Stray Light: No (USB2E3373)
Number of Pixels in Processed Spectrum: 2048
>>>>>Begin Processed Spectral Data<<<<<
178.53	0.000
178.91	-266.667
179.29	-975.000
179.67	-3300.000
180.04	-186.667
180.42	625.000
180.80	1650.000
181.18	0.000
181.56	-287.500
181.94	0.000
182.31	1166.667
182.69	-3100.000
183.07	542.857
183.45	-4200.000
183.83	-1350.000
184.20	310.000
184.58	500.000
184.96	-184.615
185.34	-208.333
185.72	1750.000
186.09	-800.000
186.47	-3400.000
186.85	1033.333
187.23	720.000
187.61	2000.000
187.98	462.500
188.36	235.714
188.74	325.000
189.12	358.333
189.49	950.000
189.87	0.000
190.25	412.500
190.63	2700.000
191.00	-225.000
191.38	-2400.000
191.76	-650.000
192.14	587.500
192.51	-2800.000
192.89	1500.000
193.27	733.333
193.65	-900.000
194.02	-780.000
194.40	600.000
194.78	-214.286
195.15	286.667
195.53	-2700.000
195.91	-880.000
196.29	4600.000
196.66	162.500
197.04	750.000
197.42	-1200.000
197.79	625.000
198.17	316.667
198.55	0.000
198.92	585.714
199.30	1266.667
199.68	2100.000
200.05	500.000
200.43	-433.333
200.81	244.444
201.18	3100.000
201.56	283.333
201.94	-700.000
202.31	-437.500
202.69	-440.000
203.07	2300.000
203.44	-416.667
203.82	358.333
204.19	700.000
204.57	-1400.000
204.95	-725.000
205.32	-820.000
205.70	533.333
206.08	925.000
206.45	-966.667
206.83	444.444
207.20	215.789
207.58	275.000
207.96	560.000
208.33	0.000
208.71	571.429
209.08	580.000
209.46	-2600.000
209.84	-725.000
210.21	700.000
210.59	-520.000
210.96	325.000
211.34	-975.000
211.71	345.455
212.09	850.000
212.46	1500.000
212.84	-516.667
213.22	288.889
213.59	-3100.000
213.97	290.000
214.34	775.000
214.72	1300.000
215.09	1000.000
215.47	-2700.000
215.84	-430.000
216.22	-412.500
216.59	0.000
216.97	0.000
217.34	1500.000
217.72	-1350.000
218.09	1466.667
218.47	400.000
218.84	800.000
219.22	966.667
219.59	700.000
219.97	557.143
220.34	444.444
220.72	1250.000
221.09	2700.000
221.47	300.000
221.84	966.667
222.22	410.000
222.59	322.222
222.97	257.143
223.34	193.750
223.72	-1600.000
224.09	1133.333
224.46	307.692
224.84	-675.000
225.21	244.444
225.59	286.667
225.96	1400.000
226.34	-620.000
226.71	-625.000
227.08	-600.000
227.46	0.000
227.83	-500.000
228.21	-1350.000
228.58	416.667
228.95	975.000
229.33	388.889
229.70	800.000
230.08	338.462
230.45	3300.000
230.82	-950.000
231.20	-733.333
231.57	-700.000
231.95	580.000
232.32	283.333
232.69	700.000
233.07	241.667
233.44	-1550.000
233.81	233.333
234.19	148.148
234.56	168.750
234.93	176.471
235.31	195.000
235.68	250.000
236.05	146.429
236.43	166.667
236.80	250.000
237.17	120.690
237.55	131.250
237.92	110.000
238.29	109.091
238.67	90.625
239.04	92.683
239.41	66.667
239.79	77.500
240.16	83.333
240.53	54.098
240.91	69.565
241.28	71.186
241.65	39.394
242.02	64.789
242.40	70.000
242.77	49.451
243.14	48.101
243.51	50.505
243.89	39.252
244.26	41.121
244.63	47.525
245.00	38.532
245.38	35.593
245.75	38.636
246.12	37.778
246.49	28.369
246.87	27.049
247.24	38.000
247.61	34.375
247.98	37.415
248.36	26.667
248.73	31.122
249.10	26.190
249.47	33.500
249.84	21.891
250.22	27.568
250.59	24.500
250.96	27.004
251.33	26.047
251.70	28.125
252.08	30.672
252.45	25.498
252.82	25.095
253.19	22.925
253.56	23.462
253.94	23.551
254.31	22.481
254.68	26.481
255.05	26.207
255.42	24.453
255.79	25.081
256.16	21.695
256.54	24.351
256.91	22.876
257.28	22.074
257.65	19.749
258.02	22.124
258.39	21.777
258.76	20.870
259.14	21.714
259.51	19.534
259.88	20.365
260.25	17.582
260.62	22.466
260.99	17.080
261.36	18.106
261.73	18.883
262.10	20.942
262.47	17.500
262.85	17.333
263.22	19.023
263.59	20.205
263.96	19.799
264.33	17.037
264.70	17.936
265.07	17.317
265.44	17.202
265.81	16.981
266.18	18.993
266.55	18.676
266.92	17.002
267.29	18.421
267.66	17.040
268.03	17.489
268.40	18.393
268.77	17.621
269.14	16.269
269.51	17.817
269.88	18.776
270.25	14.039
270.62	17.811
270.99	17.444
271.36	18.293
271.73	16.143
272.10	17.374
272.47	13.889
272.84	14.571
273.21	16.322
273.58	18.219
273.95	15.195
274.32	17.315
274.69	17.126
275.06	17.668
275.43	16.667
275.80	14.906
276.17	17.831
276.54	16.449
276.91	17.351
277.28	16.058
277.65	14.760
278.02	13.787
278.39	16.727
278.76	15.172
279.13	13.879
279.50	18.364
279.87	15.642
280.23	14.365
280.60	15.693
280.97	14.828
281.34	14.686
281.71	15.826
282.08	15.897
282.45	15.203
282.82	15.385
283.19	15.262
283.56	15.041
283.92	16.612
284.29	14.975
284.66	13.950
285.03	15.423
285.40	13.719
285.77	15.895
286.14	16.254
286.51	15.644
286.87	14.082
287.24	13.814
287.61	14.742
287.98	15.821
288.35	14.963
288.72	14.112
289.08	13.814
289.45	16.768
289.82	16.875
290.19	14.641
290.56	15.429
290.93	14.245
291.29	14.779
291.66	14.972
292.03	14.586
292.40	15.583
292.77	14.624
293.13	16.120
293.50	14.710
293.87	13.686
294.24	15.804
294.60	14.805
294.97	14.685
295.34	15.007
295.71	14.980
296.08	14.800
296.44	15.629
296.81	14.516
297.18	13.435
297.55	14.655
297.91	14.532
298.28	15.459
298.65	16.074
299.02	14.837
299.38	14.868
299.75	13.902
300.12	14.908
300.48	15.457
300.85	14.422
301.22	16.047
301.59	13.679
301.95	13.886
302.32	13.853
302.69	15.611
303.05	15.713
303.42	13.341
303.79	16.035
304.15	15.182
304.52	14.799
304.89	15.885
305.25	14.572
305.62	15.352
305.99	14.457
306.35	14.000
306.72	15.505
307.09	14.700
307.45	15.206
307.82	14.918
308.19	15.155
308.55	16.000
308.92	15.800
309.29	16.174
309.65	15.362
310.02	16.024
310.38	14.457
310.75	14.079
311.12	15.134
311.48	15.830
311.85	16.126
312.22	15.855
312.58	16.229
312.95	16.699
313.31	16.479
313.68	15.291
314.05	17.033
314.41	14.898
314.78	16.288
315.14	16.777
315.51	17.313
315.87	16.880
316.24	16.527
316.61	16.652
316.97	16.055
317.34	17.969
317.70	17.471
318.07	17.972
318.43	17.663
318.80	17.776
319.16	17.745
319.53	17.788
319.89	17.563
320.26	19.088
320.62	18.040
320.99	18.494
321.35	18.831
321.72	18.975
322.08	19.575
322.45	18.892
322.81	18.207
323.18	19.716
323.54	19.948
323.91	20.127
324.27	19.187
324.64	19.723
325.00	19.914
325.37	19.983
325.73	20.658
326.10	21.872
326.46	21.635
326.83	20.000
327.19	21.928
327.56	21.406
327.92	20.656
328.29	21.440
328.65	23.202
329.01	22.070
329.38	21.997
329.74	22.374
330.11	22.328
330.47	22.421
330.84	21.484
331.20	22.673
331.56	22.798
331.93	23.439
332.29	21.429
332.66	22.704
333.02	21.649
333.38	22.251
333.75	22.769
334.11	22.987
334.48	23.248
334.84	21.453
335.20	22.583
335.57	21.411
335.93	21.194
336.29	22.139
336.66	23.928
337.02	20.787
337.38	22.356
337.75	22.804
338.11	22.363
338.47	22.693
338.84	22.185
339.20	22.078
339.56	22.708
339.93	22.408
340.29	21.933
340.65	23.135
341.02	22.607
341.38	22.906
341.74	21.595
342.11	21.703
342.47	22.231
342.83	22.477
343.20	23.201
343.56	22.002
343.92	21.552
344.28	21.930
344.65	22.983
345.01	22.063
345.37	21.234
345.73	21.825
346.10	22.470
346.46	22.648
346.82	21.682
347.19	22.798
347.55	21.390
347.91	22.205
348.27	22.386
348.63	21.440
349.00	22.620
349.36	22.646
349.72	21.942
350.08	23.059
350.45	21.782
350.81	22.936
351.17	21.957
351.53	22.633
351.89	21.989
352.26	22.676
352.62	21.644
352.98	21.856
353.34	22.881
353.70	21.560
354.07	22.769
354.43	21.813
354.79	22.096
355.15	22.282
355.51	21.601
355.87	21.913
356.24	22.094
356.60	21.689
356.96	22.441
357.32	22.758
357.68	21.880
358.04	22.568
358.40	22.414
358.77	22.915
359.13	21.622
359.49	21.942
359.85	22.115
360.21	21.842
360.57	22.190
360.93	22.655
361.29	22.727
361.66	22.968
362.02	21.662
362.38	22.367
362.74	22.151
363.10	23.001
363.46	21.685
363.82	23.633
364.18	22.546
364.54	22.961
364.90	22.691
365.26	23.317
365.62	22.307
365.98	22.712
366.35	22.069
366.71	22.554
367.07	22.662
367.43	23.036
367.79	22.340
368.15	21.777
368.51	23.019
368.87	21.264
369.23	22.869
369.59	22.252
369.95	23.636
370.31	21.766
370.67	23.040
371.03	23.739
371.39	24.169
371.75	22.959
372.11	23.929
372.47	23.493
372.83	23.521
373.19	24.400
373.55	22.749
373.91	21.685
374.27	22.751
374.63	22.508
374.99	23.518
375.35	23.925
375.71	24.274
376.07	22.679
376.42	22.954
376.78	23.057
377.14	23.394
377.50	23.658
377.86	23.382
378.22	23.400
378.58	24.274
378.94	24.080
379.30	24.318
379.66	24.022
380.02	24.282
380.38	24.005
380.74	24.856
381.09	23.890
381.45	22.948
381.81	23.286
382.17	23.199
382.53	23.695
382.89	24.837
383.25	24.038
383.61	23.343
383.97	23.695
384.32	23.810
384.68	25.431
385.04	24.619
385.40	24.733
385.76	23.932
386.12	25.603
386.48	24.438
386.83	24.694
387.19	23.616
387.55	23.557
387.91	24.942
388.27	24.390
388.62	24.824
388.98	23.732
389.34	24.569
389.70	23.703
390.06	24.146
390.42	24.059
390.77	24.324
391.13	25.045
391.49	24.622
391.85	25.292
392.20	23.957
392.56	25.388
392.92	23.975
393.28	24.608
393.64	24.255
393.99	23.889
394.35	24.485
394.71	24.849
395.07	24.574
395.42	24.180
395.78	25.108
396.14	25.060
396.50	23.706
396.85	25.000
397.21	25.511
397.57	24.925
397.92	23.744
398.28	24.379
398.64	25.131
399.00	23.624
399.35	24.638
399.71	24.724
400.07	24.486
400.42	23.821
400.78	24.223
401.14	23.723
401.49	23.733
401.85	24.508
402.21	23.843
402.57	24.895
402.92	24.303
403.28	24.165
403.63	24.485
403.99	24.065
404.35	24.795
404.70	24.454
405.06	22.740
405.42	23.100
405.77	24.421
406.13	23.482
406.49	23.991
406.84	23.576
407.20	24.201
407.55	23.877
407.91	24.825
408.27	24.318
408.62	24.423
408.98	24.483
409.34	23.787
409.69	24.456
410.05	23.733
410.40	23.969
410.76	23.583
411.11	24.052
411.47	23.025
411.83	23.843
412.18	23.490
412.54	24.384
412.89	23.009
413.25	24.629
413.60	24.007
413.96	23.160
414.31	23.908
414.67	24.767
415.03	24.074
415.38	24.858
415.74	23.942
416.09	24.547
416.45	26.050
416.80	26.171
417.16	24.507
417.51	24.841
417.87	24.718
418.22	24.544
418.58	25.032
418.93	25.521
419.29	24.214
419.64	25.500
420.00	25.119
420.35	24.564
420.71	25.321
421.06	24.367
421.42	25.043
421.77	25.541
422.12	24.862
422.48	24.910
422.83	26.228
423.19	25.270
423.54	25.672
423.90	25.878
424.25	25.647
424.61	26.001
424.96	25.071
425.31	25.287
425.67	26.543
426.02	25.911
426.38	25.496
426.73	26.027
427.09	25.860
427.44	25.549
427.79	26.129
428.15	26.753
428.50	26.229
428.85	27.748
429.21	26.040
429.56	26.570
429.92	26.902
430.27	26.899
430.62	25.893
430.98	26.397
431.33	26.512
431.68	26.173
432.04	26.953
432.39	28.046
432.74	27.635
433.10	27.187
433.45	28.030
433.80	27.634
434.16	28.271
434.51	28.173
434.86	27.708
435.22	28.363
435.57	27.267
435.92	28.173
436.28	28.514
436.63	28.147
436.98	28.660
437.34	28.425
437.69	28.275
438.04	28.978
438.39	28.255
438.75	28.118
439.10	28.980
439.45	27.586
439.81	28.687
440.16	28.509
440.51	28.941
440.86	29.630
441.22	27.814
441.57	29.081
441.92	28.332
442.27	28.247
442.63	28.811
442.98	28.933
443.33	28.816
443.68	29.678
444.03	28.228
444.39	28.814
444.74	29.762
445.09	29.331
445.44	29.224
445.79	29.435
446.15	29.158
446.50	29.061
446.85	29.532
447.20	29.104
447.55	29.527
447.91	30.155
448.26	28.914
448.61	29.685
448.96	30.719
449.31	29.923
449.66	30.952
450.02	29.065
450.37	29.872
450.72	30.248
451.07	30.541
451.42	30.053
451.77	30.241
452.12	29.949
452.47	29.405
452.83	29.859
453.18	30.871
453.53	30.491
453.88	31.086
454.23	31.087
454.58	29.895
454.93	31.024
455.28	30.783
455.63	30.792
455.98	30.288
456.34	31.550
456.69	30.488
457.04	31.384
457.39	30.400
457.74	30.856
458.09	29.815
458.44	30.011
458.79	31.034
459.14	30.987
459.49	31.087
459.84	30.870
460.19	30.339
460.54	31.624
460.89	31.130
461.24	31.271
461.59	30.952
461.94	31.324
462.29	31.064
462.64	31.219
462.99	30.774
463.34	30.784
463.69	31.579
464.04	31.146
464.39	31.025
464.74	30.246
465.09	30.296
465.44	30.740
465.79	29.995
466.14	30.896
466.49	30.657
466.84	31.048
467.19	30.931
467.54	30.931
467.89	31.338
468.24	31.152
468.59	31.310
468.94	31.280
469.29	31.888
469.64	30.932
469.99	31.877
470.34	30.930
470.68	31.034
471.03	32.021
471.38	32.318
471.73	33.050
472.08	32.746
472.43	32.154
472.78	31.818
473.13	31.164
473.48	32.763
473.83	32.214
474.17	32.280
474.52	31.694
474.87	31.211
475.22	32.496
475.57	31.007
475.92	31.732
476.27	31.012
476.61	31.206
476.96	31.661
477.31	32.134
477.66	31.830
478.01	31.305
478.36	32.080
478.70	30.968
479.05	31.642
479.40	32.440
479.75	32.522
480.10	31.510
480.45	30.906
480.79	31.935
481.14	31.194
481.49	31.473
481.84	31.486
482.19	31.921
482.53	31.181
482.88	31.407
483.23	30.853
483.58	31.732
483.92	32.358
484.27	31.721
484.62	30.942
484.97	30.736
485.31	30.171
485.66	29.441
486.01	28.609
486.36	28.119
486.70	28.226
487.05	28.305
487.40	29.368
487.75	29.020
488.09	29.006
488.44	30.242
488.79	30.684
489.13	30.944
489.48	31.562
489.83	30.984
490.17	30.471
490.52	32.300
490.87	31.940
491.22	32.890
491.56	32.411
491.91	32.303
492.26	32.294
492.60	32.483
492.95	31.672
493.30	31.847
493.64	32.570
493.99	31.440
494.34	31.869
494.68	32.094
495.03	32.510
495.37	32.508
495.72	32.494
496.07	32.345
496.41	32.276
496.76	31.659
497.11	32.605
497.45	32.091
497.80	32.437
498.14	32.686
498.49	32.916
498.84	32.290
499.18	32.038
499.53	32.981
499.87	32.255
500.22	33.395
500.56	32.126
500.91	32.699
501.26	32.292
501.60	32.013
501.95	32.841
502.29	33.067
502.64	31.187
502.98	32.237
503.33	33.007
503.67	32.053
504.02	32.333
504.36	32.941
504.71	32.829
505.06	34.022
505.40	33.552
505.75	32.928
506.09	33.084
506.44	33.506
506.78	33.932
507.13	33.059
507.47	32.606
507.82	33.479
508.16	33.660
508.51	32.705
508.85	33.476
509.19	33.186
509.54	32.568
509.88	33.267
510.23	32.990
510.57	32.819
510.92	33.966
511.26	33.484
511.61	33.580
511.95	33.201
512.30	33.500
512.64	33.074
512.98	33.214
513.33	33.914
513.67	33.351
514.02	33.870
514.36	33.541
514.70	33.973
515.05	34.044
515.39	34.759
515.74	34.281
516.08	35.240
516.42	35.738
516.77	33.920
517.11	34.827
517.46	34.159
517.80	34.899
518.14	35.831
518.49	33.848
518.83	34.121
519.17	35.219
519.52	34.899
519.86	34.823
520.20	35.397
520.55	35.218
520.89	35.517
521.23	36.624
521.58	34.366
521.92	35.510
522.26	35.664
522.61	35.948
522.95	37.177
523.29	35.673
523.64	35.491
523.98	35.622
524.32	35.294
524.66	35.652
525.01	35.148
525.35	35.415
525.69	36.484
526.04	36.645
526.38	35.962
526.72	35.263
527.06	35.837
527.41	36.215
527.75	35.606
528.09	35.280
528.43	35.204
528.78	36.017
529.12	37.146
529.46	35.301
529.80	35.981
530.15	35.887
530.49	35.379
530.83	35.344
531.17	36.408
531.51	35.745
531.86	35.386
532.20	35.229
532.54	36.158
532.88	35.915
533.22	35.954
533.57	36.730
533.91	34.674
534.25	33.930
534.59	35.497
534.93	34.869
535.27	34.092
535.62	34.539
535.96	34.279
536.30	36.197
536.64	34.783
536.98	35.368
537.32	35.500
537.66	34.503
538.01	34.923
538.35	34.810
538.69	34.466
539.03	34.888
539.37	35.012
539.71	33.642
540.05	34.769
540.39	35.786
540.73	35.316
541.07	34.504
541.42	35.634
541.76	34.772
542.10	34.525
542.44	35.474
542.78	35.053
543.12	34.417
543.46	34.524
543.80	35.589
544.14	35.418
544.48	34.550
544.82	34.312
545.16	34.244
545.50	34.726
545.84	33.649
546.18	35.696
546.52	35.541
546.86	35.525
547.20	35.465
547.54	34.769
547.88	35.158
548.22	34.730
548.56	34.590
548.90	34.520
549.24	34.934
549.58	34.601
549.92	35.298
550.26	35.024
550.60	35.196
550.94	36.296
551.28	35.931
551.62	36.000
551.96	35.878
552.30	35.069
552.64	35.275
552.98	34.343
553.32	34.827
553.66	35.505
554.00	35.907
554.34	37.284
554.68	35.349
555.02	36.320
555.36	35.505
555.69	34.620
556.03	34.331
556.37	35.373
556.71	36.441
557.05	35.256
557.39	35.333
557.73	36.388
558.07	36.419
558.41	35.230
558.75	35.773
559.08	36.741
559.42	35.934
559.76	36.422
560.10	35.650
560.44	36.231
560.78	35.934
561.12	35.855
561.45	35.044
561.79	35.206
562.13	34.618
562.47	35.691
562.81	35.068
563.15	35.553
563.48	33.851
563.82	34.747
564.16	34.328
564.50	34.659
564.84	34.650
565.17	33.987
565.51	35.222
565.85	35.163
566.19	34.702
566.52	35.018
566.86	35.085
567.20	34.213
567.54	33.352
567.88	33.490
568.21	32.701
568.55	32.588
568.89	32.162
569.23	32.097
569.56	32.268
569.90	30.758
570.24	30.733
570.57	30.500
570.91	29.860
571.25	29.004
571.59	29.047
571.92	29.090
572.26	29.164
572.60	28.631
572.93	29.155
573.27	29.179
573.61	28.695
573.95	28.611
574.28	28.478
574.62	28.249
574.96	27.690
575.29	27.598
575.63	27.892
575.97	27.580
576.30	27.639
576.64	28.290
576.98	28.094
577.31	28.130
577.65	27.489
577.98	26.958
578.32	26.826
578.66	27.411
578.99	27.984
579.33	27.537
579.67	27.856
580.00	27.150
580.34	27.604
580.67	27.427
581.01	27.913
581.35	27.390
581.68	27.197
582.02	27.192
582.35	26.987
582.69	27.581
583.02	27.314
583.36	27.673
583.70	27.969
584.03	28.884
584.37	28.041
584.70	28.241
585.04	27.576
585.37	27.412
585.71	27.551
586.04	27.787
586.38	28.274
586.72	28.623
587.05	28.847
587.39	28.799
587.72	28.495
588.06	28.284
588.39	28.019
588.73	28.575
589.06	29.180
589.40	28.764
589.73	29.367
590.07	30.371
590.40	30.976
590.73	29.967
591.07	30.892
591.40	30.659
591.74	30.804
592.07	29.950
592.41	30.496
592.74	29.843
593.08	29.069
593.41	28.217
593.75	28.843
594.08	29.473
594.41	29.782
594.75	29.897
595.08	30.041
595.42	30.086
595.75	29.714
596.09	30.136
596.42	29.862
596.75	30.849
597.09	30.871
597.42	29.878
597.75	30.588
598.09	30.283
598.42	29.621
598.76	30.378
599.09	30.232
599.42	30.138
599.76	29.545
600.09	28.678
600.42	29.351
600.76	29.606
601.09	29.997
601.42	29.602
601.76	28.965
602.09	30.132
602.42	29.945
602.76	30.019
603.09	30.505
603.42	30.202
603.76	29.863
604.09	29.786
604.42	30.584
604.76	30.304
605.09	30.122
605.42	30.516
605.75	30.004
606.09	29.686
606.42	30.515
606.75	30.043
607.09	29.175
607.42	29.851
607.75	29.777
608.08	29.773
608.42	30.872
608.75	30.252
609.08	29.916
609.41	30.909
609.75	31.410
610.08	31.025
610.41	30.830
610.74	30.909
611.07	31.287
611.41	31.511
611.74	31.262
612.07	31.118
612.40	32.212
612.73	32.002
613.07	31.678
613.40	32.331
613.73	31.503
614.06	31.300
614.39	32.374
614.72	31.040
615.06	30.415
615.39	30.891
615.72	30.203
616.05	32.396
616.38	32.065
616.71	32.393
617.05	32.180
617.38	32.191
617.71	32.283
618.04	31.744
618.37	31.795
618.70	32.217
619.03	32.967
619.36	34.171
619.69	33.509
620.03	35.225
620.36	33.462
620.69	35.057
621.02	35.734
621.35	33.596
621.68	34.661
622.01	35.572
622.34	34.013
622.67	34.199
623.00	34.309
623.33	33.941
623.66	33.733
623.99	34.110
624.32	34.350
624.65	33.706
624.99	34.821
625.32	34.335
625.65	33.310
625.98	34.100
626.31	34.644
626.64	33.789
626.97	34.353
627.30	35.481
627.63	35.400
627.96	35.915
628.29	36.799
628.62	35.586
628.95	37.943
629.28	37.686
629.61	36.380
629.94	36.906
630.26	36.482
630.59	37.057
630.92	36.413
631.25	35.721
