SpectraSuite Data File
++++++++++++++++++++++++++++++++++++
Date: Tue May 12 16:31:41 PDT 2015
User: schluterlab
Dark Spectrum Present: Yes
Reference Spectrum Present: Yes
Number of Sampled Component Spectra: 1
Spectrometers: USB2E3373
Integration Time (usec): 3000 (USB2E3373)
Spectra Averaged: 3 (USB2E3373)
Boxcar Smoothing: 0 (USB2E3373)
Correct for Electrical Dark: No (USB2E3373)
Strobe/Lamp Enabled: No (USB2E3373)
Correct for Detector Non-linearity: No (USB2E3373)
Correct for Stray Light: No (USB2E3373)
Number of Pixels in Processed Spectrum: 2048
>>>>>Begin Processed Spectral Data<<<<<
178.53	0.000
178.91	-241.667
179.29	-675.000
179.67	-3200.000
180.04	-106.667
180.42	575.000
180.80	1250.000
181.18	0.000
181.56	-300.000
181.94	0.000
182.31	900.000
182.69	-1800.000
183.07	585.714
183.45	-3500.000
183.83	-1650.000
184.20	410.000
184.58	442.857
184.96	-223.077
185.34	-266.667
185.72	1650.000
186.09	-850.000
186.47	-3000.000
186.85	966.667
187.23	720.000
187.61	1250.000
187.98	475.000
188.36	250.000
188.74	341.667
189.12	458.333
189.49	900.000
189.87	0.000
190.25	500.000
190.63	2000.000
191.00	-200.000
191.38	-3400.000
191.76	-750.000
192.14	400.000
192.51	-2300.000
192.89	1600.000
193.27	1133.333
193.65	-1000.000
194.02	-900.000
194.40	471.429
194.78	-221.429
195.15	213.333
195.53	-1800.000
195.91	-520.000
196.29	3800.000
196.66	237.500
197.04	900.000
197.42	-1700.000
197.79	675.000
198.17	375.000
198.55	0.000
198.92	400.000
199.30	900.000
199.68	2150.000
200.05	683.333
200.43	-450.000
200.81	227.778
201.18	3000.000
201.56	283.333
201.94	-550.000
202.31	-312.500
202.69	-400.000
203.07	2600.000
203.44	-483.333
203.82	308.333
204.19	640.000
204.57	-1600.000
204.95	-825.000
205.32	-660.000
205.70	650.000
206.08	750.000
206.45	-900.000
206.83	333.333
207.20	200.000
207.58	308.333
207.96	940.000
208.33	0.000
208.71	500.000
209.08	580.000
209.46	-3200.000
209.84	-1000.000
210.21	900.000
210.59	-600.000
210.96	358.333
211.34	-1100.000
211.71	345.455
212.09	900.000
212.46	1500.000
212.84	-366.667
213.22	455.556
213.59	-2300.000
213.97	240.000
214.34	750.000
214.72	1000.000
215.09	1200.000
215.47	-2800.000
215.84	-310.000
216.22	-412.500
216.59	0.000
216.97	0.000
217.34	1100.000
217.72	-1350.000
218.09	1233.333
218.47	387.500
218.84	725.000
219.22	1100.000
219.59	866.667
219.97	471.429
220.34	333.333
220.72	1700.000
221.09	2300.000
221.47	291.667
221.84	966.667
222.22	350.000
222.59	266.667
222.97	192.857
223.34	225.000
223.72	-1550.000
224.09	1100.000
224.46	207.692
224.84	-725.000
225.21	377.778
225.59	240.000
225.96	1266.667
226.34	-640.000
226.71	-1050.000
227.08	-480.000
227.46	0.000
227.83	-600.000
228.21	-1600.000
228.58	308.333
228.95	900.000
229.33	433.333
229.70	1000.000
230.08	284.615
230.45	3400.000
230.82	-1050.000
231.20	-933.333
231.57	-966.667
231.95	520.000
232.32	216.667
232.69	533.333
233.07	341.667
233.44	-1350.000
233.81	293.333
234.19	174.074
234.56	225.000
234.93	194.118
235.31	185.000
235.68	200.000
236.05	132.143
236.43	137.037
236.80	257.143
237.17	168.966
237.55	140.625
237.92	130.000
238.29	93.939
238.67	137.500
239.04	68.293
239.41	85.417
239.79	105.000
240.16	95.833
240.53	73.770
240.91	75.362
241.28	74.576
241.65	68.182
242.02	67.606
242.40	68.571
242.77	51.648
243.14	62.025
243.51	48.485
243.89	49.533
244.26	35.514
244.63	53.465
245.00	50.459
245.38	44.068
245.75	45.455
246.12	39.259
246.49	36.879
246.87	35.246
247.24	45.333
247.61	41.250
247.98	36.735
248.36	32.727
248.73	35.714
249.10	32.143
249.47	34.000
249.84	26.866
250.22	28.649
250.59	31.000
250.96	30.802
251.33	30.233
251.70	32.143
252.08	31.513
252.45	32.271
252.82	29.278
253.19	32.016
253.56	28.462
253.94	30.435
254.31	29.070
254.68	32.056
255.05	34.138
255.42	30.292
255.79	27.362
256.16	29.492
256.54	29.545
256.91	25.817
257.28	25.418
257.65	25.078
258.02	28.614
258.39	26.934
258.76	26.957
259.14	25.143
259.51	27.114
259.88	31.915
260.25	25.824
260.62	27.123
260.99	25.344
261.36	23.120
261.73	27.394
262.10	26.963
262.47	25.000
262.85	24.800
263.22	25.964
263.59	24.552
263.96	26.817
264.33	25.926
264.70	25.799
265.07	23.659
265.44	22.477
265.81	27.830
266.18	24.485
266.55	24.586
266.92	23.490
267.29	23.684
267.66	22.197
268.03	23.991
268.40	24.736
268.77	24.009
269.14	21.475
269.51	23.831
269.88	25.510
270.25	20.734
270.62	24.249
270.99	25.963
271.36	24.187
271.73	22.642
272.10	23.434
272.47	22.024
272.84	21.357
273.21	22.934
273.58	24.291
273.95	23.819
274.32	23.735
274.69	22.441
275.06	22.769
275.43	22.222
275.80	20.755
276.17	22.059
276.54	21.682
276.91	24.067
277.28	21.533
277.65	24.723
278.02	22.978
278.39	23.561
278.76	22.586
279.13	22.420
279.50	22.545
279.87	22.346
280.23	21.915
280.60	20.073
280.97	21.034
281.34	23.432
281.71	21.043
282.08	23.590
282.45	21.791
282.82	21.070
283.19	21.940
283.56	22.149
283.92	23.779
284.29	23.461
284.66	19.664
285.03	21.725
285.40	21.157
285.77	20.833
286.14	21.981
286.51	22.086
286.87	20.886
287.24	20.871
287.61	19.605
287.98	21.194
288.35	19.259
288.72	19.727
289.08	21.021
289.45	20.274
289.82	20.000
290.19	20.937
290.56	20.233
290.93	18.993
291.29	19.751
291.66	17.938
292.03	19.916
292.40	18.835
292.77	16.713
293.13	19.686
293.50	19.433
293.87	18.293
294.24	18.462
294.60	18.708
294.97	19.441
295.34	18.194
295.71	17.740
296.08	18.000
296.44	17.662
296.81	16.998
297.18	18.124
297.55	17.611
297.91	15.887
298.28	17.754
298.65	16.564
299.02	17.612
299.38	16.067
299.75	17.439
300.12	15.252
300.48	17.564
300.85	17.402
301.22	16.512
301.59	15.684
301.95	17.036
302.32	16.647
302.69	16.290
303.05	18.406
303.42	14.910
303.79	17.443
304.15	16.172
304.52	16.913
304.89	15.352
305.25	15.684
305.62	15.245
305.99	14.130
306.35	15.895
306.72	16.129
307.09	16.356
307.45	15.523
307.82	15.638
308.19	15.567
308.55	15.900
308.92	17.468
309.29	16.864
309.65	15.758
310.02	16.329
310.38	14.357
310.75	15.333
311.12	15.996
311.48	17.085
311.85	16.317
312.22	16.332
312.58	15.841
312.95	16.602
313.31	15.543
313.68	15.291
314.05	16.850
314.41	16.387
314.78	16.383
315.14	17.536
315.51	15.705
315.87	17.062
316.24	17.087
316.61	17.278
316.97	17.064
317.34	18.149
317.70	18.349
318.07	18.950
318.43	19.947
318.80	20.140
319.16	20.542
319.53	19.469
319.89	19.176
320.26	22.253
320.62	21.429
320.99	21.354
321.35	22.263
321.72	24.288
322.08	21.791
322.45	23.070
322.81	23.788
323.18	25.488
323.54	26.742
323.91	26.927
324.27	26.348
324.64	27.336
325.00	28.966
325.37	28.668
325.73	29.933
326.10	30.820
326.46	29.397
326.83	31.200
327.19	32.530
327.56	32.668
327.92	33.033
328.29	34.452
328.65	35.873
329.01	35.329
329.38	36.717
329.74	35.611
330.11	36.751
330.47	38.107
330.84	37.877
331.20	37.986
331.56	38.946
331.93	39.949
332.29	38.520
332.66	39.286
333.02	39.347
333.38	40.140
333.75	40.867
334.11	39.178
334.48	41.111
334.84	41.132
335.20	41.317
335.57	40.890
335.93	40.118
336.29	40.630
336.66	42.796
337.02	42.173
337.38	41.874
337.75	41.892
338.11	42.532
338.47	42.845
338.84	42.676
339.20	43.117
339.56	41.884
339.93	42.140
340.29	42.437
340.65	43.420
341.02	43.846
341.38	41.544
341.74	44.601
342.11	42.988
342.47	43.888
342.83	44.627
343.20	44.058
343.56	43.129
343.92	43.765
344.28	43.620
344.65	44.254
345.01	43.810
345.37	43.670
345.73	43.175
346.10	43.665
346.46	44.418
346.82	43.056
347.19	45.440
347.55	45.043
347.91	43.882
348.27	44.229
348.63	46.123
349.00	45.849
349.36	46.304
349.72	45.183
350.08	46.429
350.45	46.154
350.81	45.795
351.17	44.838
351.53	45.881
351.89	45.610
352.26	44.520
352.62	45.324
352.98	45.552
353.34	46.225
353.70	44.878
354.07	47.000
354.43	45.853
354.79	45.634
355.15	47.090
355.51	46.375
355.87	45.934
356.24	46.189
356.60	45.738
356.96	46.171
357.32	45.667
357.68	46.256
358.04	47.644
358.40	45.727
358.77	46.807
359.13	46.096
359.49	46.405
359.85	48.995
360.21	46.285
360.57	46.569
360.93	46.970
361.29	47.258
361.66	49.068
362.02	47.301
362.38	48.773
362.74	49.469
363.10	48.948
363.46	48.273
363.82	48.107
364.18	49.218
364.54	49.070
364.90	49.264
365.26	49.133
365.62	48.688
365.98	48.176
366.35	48.897
366.71	48.647
367.07	48.328
367.43	48.825
367.79	48.271
368.15	48.507
368.51	50.655
368.87	49.253
369.23	50.104
369.59	48.550
369.95	49.790
370.31	48.939
370.67	48.855
371.03	50.980
371.39	51.177
371.75	51.151
372.11	49.150
372.47	50.959
372.83	50.374
373.19	50.583
373.55	50.241
373.91	50.829
374.27	50.132
374.63	50.373
374.99	51.550
375.35	51.680
375.71	50.396
376.07	51.459
376.42	50.767
376.78	50.739
377.14	50.852
377.50	50.624
377.86	50.609
378.22	52.041
378.58	52.058
378.94	51.901
379.30	51.183
379.66	52.559
380.02	51.437
380.38	50.703
380.74	52.422
381.09	51.752
381.45	51.098
381.81	51.359
382.17	50.061
382.53	51.590
382.89	52.218
383.25	50.918
383.61	49.971
383.97	52.070
384.32	52.019
384.68	52.763
385.04	51.700
385.40	50.949
385.76	51.785
386.12	52.690
386.48	51.733
386.83	52.139
387.19	52.002
387.55	52.238
387.91	51.848
388.27	52.112
388.62	50.763
388.98	51.545
389.34	50.089
389.70	50.354
390.06	51.585
390.42	51.450
390.77	51.106
391.13	50.875
391.49	49.970
391.85	52.123
392.20	50.954
392.56	50.836
392.92	50.084
393.28	50.897
393.64	50.516
393.99	50.504
394.35	50.265
394.71	49.216
395.07	49.818
395.42	51.112
395.78	51.820
396.14	50.663
396.50	51.504
396.85	50.549
397.21	50.903
397.57	51.464
397.92	48.354
398.28	50.303
398.64	49.913
399.00	49.599
399.35	49.919
399.71	49.338
400.07	49.429
400.42	50.388
400.78	50.557
401.14	48.914
401.49	48.560
401.85	48.320
402.21	49.151
402.57	49.611
402.92	49.394
403.28	48.329
403.63	48.381
403.99	49.759
404.35	49.121
404.70	49.616
405.06	49.467
405.42	48.594
405.77	48.401
406.13	47.993
406.49	49.233
406.84	47.941
407.20	49.087
407.55	49.600
407.91	49.138
408.27	49.121
408.62	46.895
408.98	47.605
409.34	47.224
409.69	47.978
410.05	46.989
410.40	47.173
410.76	47.338
411.11	47.453
411.47	46.852
411.83	46.924
412.18	47.645
412.54	47.808
412.89	46.844
413.25	47.149
413.60	47.605
413.96	48.235
414.31	47.934
414.67	47.610
415.03	46.679
415.38	48.707
415.74	47.631
416.09	47.720
416.45	48.481
416.80	49.519
417.16	46.913
417.51	48.535
417.87	47.497
418.22	48.481
418.58	48.408
418.93	48.007
419.29	48.614
419.64	48.758
420.00	48.508
420.35	48.955
420.71	48.133
421.06	47.911
421.42	48.129
421.77	48.862
422.12	49.173
422.48	48.793
422.83	49.665
423.19	49.136
423.54	48.382
423.90	49.264
424.25	50.413
424.61	51.074
424.96	49.915
425.31	50.192
425.67	50.898
426.02	50.533
426.38	50.525
426.73	52.111
427.09	51.957
427.44	49.747
427.79	51.572
428.15	52.976
428.50	53.086
428.85	51.382
429.21	52.458
429.56	51.894
429.92	51.666
430.27	52.056
430.62	51.150
430.98	52.844
431.33	51.966
431.68	51.358
432.04	52.923
432.39	52.689
432.74	54.098
433.10	53.045
433.45	54.337
433.80	54.937
434.16	53.389
434.51	54.438
434.86	55.634
435.22	55.429
435.57	54.594
435.92	55.037
436.28	55.933
436.63	55.429
436.98	55.912
437.34	56.678
437.69	55.711
438.04	55.323
438.39	56.509
438.75	55.624
439.10	56.557
439.45	56.246
439.81	56.160
440.16	57.017
440.51	56.194
440.86	57.550
441.22	56.494
441.57	56.483
441.92	57.256
442.27	57.165
442.63	58.333
442.98	57.812
443.33	57.633
443.68	56.891
444.03	56.692
444.39	58.804
444.74	58.023
445.09	57.557
445.44	57.651
445.79	58.041
446.15	58.263
446.50	59.230
446.85	58.765
447.20	57.910
447.55	59.217
447.91	60.362
448.26	58.466
448.61	60.641
448.96	59.804
449.31	59.901
449.66	59.025
450.02	58.563
450.37	60.911
450.72	61.543
451.07	60.326
451.42	60.107
451.77	60.481
452.12	60.011
452.47	61.300
452.83	61.183
453.18	61.201
453.53	62.522
453.88	60.629
454.23	60.023
454.58	60.490
454.93	60.270
455.28	61.873
455.63	61.111
455.98	59.616
456.34	60.365
456.69	61.280
457.04	62.053
457.39	61.143
457.74	60.642
458.09	60.135
458.44	61.720
458.79	61.804
459.14	61.429
459.49	60.759
459.84	61.902
460.19	61.356
460.54	60.456
460.89	61.034
461.24	59.908
461.59	62.245
461.94	60.225
462.29	61.213
462.64	62.437
462.99	61.932
463.34	62.346
463.69	61.827
464.04	61.485
464.39	60.790
464.74	60.785
465.09	61.637
465.44	61.317
465.79	60.806
466.14	60.413
466.49	62.018
466.84	61.204
467.19	61.687
467.54	61.802
467.89	61.385
468.24	62.420
468.59	63.095
468.94	62.742
469.29	62.370
469.64	62.958
469.99	61.247
470.34	63.251
470.68	63.310
471.03	62.308
471.38	63.576
471.73	62.965
472.08	65.623
472.43	63.811
472.78	63.188
473.13	62.578
473.48	62.408
473.83	63.251
474.17	63.891
474.52	61.671
474.87	60.659
475.22	63.906
475.57	61.910
475.92	62.085
476.27	59.848
476.61	62.359
476.96	62.382
477.31	63.033
477.66	63.822
478.01	62.403
478.36	62.770
478.70	61.787
479.05	62.657
479.40	62.302
479.75	62.314
480.10	63.650
480.45	62.605
480.79	61.705
481.14	62.054
481.49	61.162
481.84	62.225
482.19	62.009
482.53	61.001
482.88	62.186
483.23	63.194
483.58	62.208
483.92	63.117
484.27	61.515
484.62	62.691
484.97	61.200
485.31	60.481
485.66	60.121
486.01	59.431
486.36	58.024
486.70	58.885
487.05	59.289
487.40	59.449
487.75	59.466
488.09	60.227
488.44	61.185
488.79	61.125
489.13	62.075
489.48	63.843
489.83	62.886
490.17	61.932
490.52	63.307
490.87	62.672
491.22	63.298
491.56	63.285
491.91	62.455
492.26	62.984
492.60	64.191
492.95	62.256
493.30	62.784
493.64	64.196
493.99	63.283
494.34	62.976
494.68	63.435
495.03	63.179
495.37	64.205
495.72	63.776
496.07	63.657
496.41	62.598
496.76	62.896
497.11	61.097
497.45	63.525
497.80	65.060
498.14	62.644
498.49	63.278
498.84	64.393
499.18	63.483
499.53	63.803
499.87	63.073
500.22	64.993
500.56	63.788
500.91	65.028
501.26	64.263
501.60	64.481
501.95	64.247
502.29	62.978
502.64	63.344
502.98	62.383
503.33	64.365
503.67	62.958
504.02	64.219
504.36	63.258
504.71	64.664
505.06	64.289
505.40	65.512
505.75	63.845
506.09	63.602
506.44	65.179
506.78	64.603
507.13	65.342
507.47	64.968
507.82	65.353
508.16	65.703
508.51	65.362
508.85	64.910
509.19	65.492
509.54	64.258
509.88	65.738
510.23	65.196
510.57	64.237
510.92	66.084
511.26	67.219
511.61	64.549
511.95	65.107
512.30	64.500
512.64	66.719
512.98	66.222
513.33	65.676
513.67	65.821
514.02	66.390
514.36	66.044
514.70	66.240
515.05	66.755
515.39	67.050
515.74	67.141
516.08	65.741
516.42	67.814
516.77	66.453
517.11	67.040
517.46	66.649
517.80	66.357
518.14	68.394
518.49	66.152
518.83	66.154
519.17	67.665
519.52	67.832
519.86	67.956
520.20	65.808
520.55	68.231
520.89	66.897
521.23	67.874
521.58	67.871
521.92	67.522
522.26	67.417
522.61	69.103
522.95	69.249
523.29	68.655
523.64	66.647
523.98	67.606
524.32	67.416
524.66	67.478
525.01	68.580
525.35	68.120
525.69	68.332
526.04	67.638
526.38	67.216
526.72	67.840
527.06	67.416
527.41	69.166
527.75	68.107
528.09	67.911
528.43	68.151
528.78	67.561
529.12	69.536
529.46	68.030
529.80	67.991
530.15	67.649
530.49	67.870
530.83	67.946
531.17	68.696
531.51	68.976
531.86	67.089
532.20	66.316
532.54	69.115
532.88	68.020
533.22	67.154
533.57	68.334
533.91	65.851
534.25	65.551
534.59	68.363
534.93	65.700
535.27	64.997
535.62	65.111
535.96	67.435
536.30	68.982
536.64	67.205
536.98	67.841
537.32	68.125
537.66	66.645
538.01	66.997
538.35	68.559
538.69	67.476
539.03	66.107
539.37	67.172
539.71	67.531
540.05	66.154
540.39	68.491
540.73	67.785
541.07	66.248
541.42	67.910
541.76	67.448
542.10	66.954
542.44	68.953
542.78	68.974
543.12	67.117
543.46	66.479
543.80	68.233
544.14	67.307
544.48	66.727
544.82	67.523
545.16	65.331
545.50	67.425
545.84	68.687
546.18	69.051
546.52	68.197
546.86	69.181
547.20	66.731
547.54	66.751
547.88	68.187
548.22	68.245
548.56	67.177
548.90	65.362
549.24	68.857
549.58	68.170
549.92	69.679
550.26	69.236
550.60	68.130
550.94	70.421
551.28	71.586
551.62	71.241
551.96	70.878
552.30	68.820
552.64	70.485
552.98	69.845
553.32	67.222
553.66	69.577
554.00	70.463
554.34	71.305
554.68	69.355
555.02	70.401
555.36	69.747
555.69	69.764
556.03	68.662
556.37	68.897
556.71	71.186
557.05	69.004
557.39	69.333
557.73	69.609
558.07	69.886
558.41	71.556
558.75	70.588
559.08	73.338
559.42	72.011
559.76	72.416
560.10	71.851
560.44	71.002
560.78	70.332
561.12	70.312
561.45	71.464
561.79	71.411
562.13	70.120
562.47	70.344
562.81	70.072
563.15	71.493
563.48	68.944
563.82	71.553
564.16	71.517
564.50	69.319
564.84	70.334
565.17	69.697
565.51	72.475
565.85	70.944
566.19	70.179
566.52	70.939
566.86	71.045
567.20	70.000
567.54	69.596
567.88	71.101
568.21	67.149
568.55	67.704
568.89	66.150
569.23	67.515
569.56	66.613
569.90	65.505
570.24	65.656
570.57	64.925
570.91	64.618
571.25	63.493
571.59	63.367
571.92	62.809
572.26	62.480
572.60	62.983
572.93	63.600
573.27	64.216
573.61	62.805
573.95	63.621
574.28	63.282
574.62	62.739
574.96	61.890
575.29	61.852
575.63	61.413
575.97	61.271
576.30	61.453
576.64	62.199
576.98	62.201
577.31	62.912
577.65	62.182
577.98	61.555
578.32	61.573
578.66	62.111
578.99	61.716
579.33	62.810
579.67	61.920
580.00	62.646
580.34	61.958
580.67	62.550
581.01	63.331
581.35	62.532
581.68	62.025
582.02	61.621
582.35	62.306
582.69	62.615
583.02	62.875
583.36	63.700
583.70	64.330
584.03	64.778
584.37	64.791
584.70	64.344
585.04	64.121
585.37	63.999
585.71	64.989
586.04	64.323
586.38	64.879
586.72	65.174
587.05	65.697
587.39	65.714
587.72	65.894
588.06	65.433
588.39	66.479
588.73	66.031
589.06	67.406
589.40	67.105
589.73	67.191
590.07	69.526
590.40	69.268
590.73	69.849
591.07	69.677
591.40	69.820
591.74	69.683
592.07	69.343
592.41	69.265
592.74	68.912
593.08	68.815
593.41	67.744
593.75	66.676
594.08	68.648
594.41	68.557
594.75	69.007
595.08	69.102
595.42	68.334
595.75	68.937
596.09	69.343
596.42	69.701
596.75	71.114
597.09	72.348
597.42	70.122
597.75	70.020
598.09	69.758
598.42	69.237
598.76	68.967
599.09	69.180
599.42	69.308
599.76	68.996
600.09	68.847
600.42	68.646
600.76	69.069
601.09	69.796
601.42	69.307
601.76	70.354
602.09	70.272
602.42	69.834
602.76	70.247
603.09	70.965
603.42	70.055
603.76	70.427
604.09	70.829
604.42	70.094
604.76	70.644
605.09	71.633
605.42	70.825
605.75	69.483
606.09	71.347
606.42	70.688
606.75	71.162
607.09	70.549
607.42	71.957
607.75	70.820
608.08	71.243
608.42	71.435
608.75	71.930
609.08	71.755
609.41	73.409
609.75	74.359
610.08	73.112
610.41	72.156
610.74	71.905
611.07	72.578
611.41	73.170
611.74	73.805
612.07	72.592
612.40	73.928
612.73	75.037
613.07	73.543
613.40	73.784
613.73	75.587
614.06	73.350
614.39	74.747
614.72	73.330
615.06	72.107
615.39	73.020
615.72	72.265
616.05	74.636
616.38	73.719
616.71	74.932
617.05	74.025
617.38	75.337
617.71	75.928
618.04	75.659
618.37	75.598
618.70	75.635
619.03	77.534
619.36	77.827
619.69	78.562
620.03	79.452
620.36	77.585
620.69	79.821
621.02	79.959
621.35	78.725
621.68	78.687
622.01	81.033
622.34	79.971
622.67	79.354
623.00	78.761
623.33	78.812
623.66	78.177
623.99	79.863
624.32	78.049
624.65	77.551
624.99	79.784
625.32	78.758
625.65	78.207
625.98	78.452
626.31	81.454
626.64	78.360
626.97	80.796
627.30	81.211
627.63	82.496
627.96	81.221
628.29	82.096
628.62	81.352
628.95	84.309
629.28	82.209
629.61	82.250
629.94	82.541
630.26	83.882
630.59	84.220
630.92	82.960
631.25	85.403
