SpectraSuite Data File
++++++++++++++++++++++++++++++++++++
Date: Tue May 12 17:22:26 PDT 2015
User: schluterlab
Dark Spectrum Present: Yes
Reference Spectrum Present: Yes
Number of Sampled Component Spectra: 1
Spectrometers: USB2E3373
Integration Time (usec): 3000 (USB2E3373)
Spectra Averaged: 3 (USB2E3373)
Boxcar Smoothing: 0 (USB2E3373)
Correct for Electrical Dark: No (USB2E3373)
Strobe/Lamp Enabled: No (USB2E3373)
Correct for Detector Non-linearity: No (USB2E3373)
Correct for Stray Light: No (USB2E3373)
Number of Pixels in Processed Spectrum: 2048
>>>>>Begin Processed Spectral Data<<<<<
178.53	0.000
178.91	-241.667
179.29	-825.000
179.67	-3700.000
180.04	-186.667
180.42	850.000
180.80	1800.000
181.18	0.000
181.56	-375.000
181.94	0.000
182.31	1000.000
182.69	-2300.000
183.07	557.143
183.45	-3400.000
183.83	-1700.000
184.20	320.000
184.58	385.714
184.96	-223.077
185.34	-133.333
185.72	1550.000
186.09	-975.000
186.47	-3500.000
186.85	1033.333
187.23	620.000
187.61	1600.000
187.98	500.000
188.36	292.857
188.74	350.000
189.12	300.000
189.49	625.000
189.87	0.000
190.25	437.500
190.63	2300.000
191.00	-158.333
191.38	-3700.000
191.76	-525.000
192.14	475.000
192.51	-1800.000
192.89	1600.000
193.27	1133.333
193.65	-1166.667
194.02	-880.000
194.40	528.571
194.78	-157.143
195.15	286.667
195.53	-2900.000
195.91	-500.000
196.29	3300.000
196.66	256.250
197.04	525.000
197.42	-1250.000
197.79	550.000
198.17	275.000
198.55	0.000
198.92	600.000
199.30	1266.667
199.68	1950.000
200.05	733.333
200.43	-500.000
200.81	250.000
201.18	2800.000
201.56	266.667
201.94	-875.000
202.31	-312.500
202.69	-260.000
203.07	3300.000
203.44	-533.333
203.82	241.667
204.19	480.000
204.57	-1300.000
204.95	-750.000
205.32	-660.000
205.70	550.000
206.08	800.000
206.45	-666.667
206.83	411.111
207.20	194.737
207.58	200.000
207.96	800.000
208.33	0.000
208.71	542.857
209.08	520.000
209.46	-2700.000
209.84	-750.000
210.21	780.000
210.59	-500.000
210.96	316.667
211.34	-950.000
211.71	436.364
212.09	775.000
212.46	1800.000
212.84	-500.000
213.22	400.000
213.59	-2300.000
213.97	440.000
214.34	875.000
214.72	1166.667
215.09	1200.000
215.47	-2500.000
215.84	-280.000
216.22	-387.500
216.59	0.000
216.97	0.000
217.34	1750.000
217.72	-1550.000
218.09	1100.000
218.47	412.500
218.84	800.000
219.22	1366.667
219.59	800.000
219.97	500.000
220.34	466.667
220.72	1900.000
221.09	4000.000
221.47	233.333
221.84	1166.667
222.22	410.000
222.59	266.667
222.97	178.571
223.34	237.500
223.72	-1450.000
224.09	1100.000
224.46	346.154
224.84	-750.000
225.21	433.333
225.59	273.333
225.96	1266.667
226.34	-540.000
226.71	-1100.000
227.08	-580.000
227.46	0.000
227.83	-433.333
228.21	-1200.000
228.58	308.333
228.95	1050.000
229.33	411.111
229.70	950.000
230.08	361.538
230.45	2300.000
230.82	-775.000
231.20	-666.667
231.57	-1000.000
231.95	620.000
232.32	325.000
232.69	466.667
233.07	258.333
233.44	-1800.000
233.81	200.000
234.19	188.889
234.56	206.250
234.93	223.529
235.31	245.000
235.68	231.250
236.05	171.429
236.43	137.037
236.80	292.857
237.17	189.655
237.55	140.625
237.92	137.500
238.29	148.485
238.67	146.875
239.04	129.268
239.41	83.333
239.79	130.000
240.16	108.333
240.53	93.443
240.91	86.957
241.28	94.915
241.65	95.455
242.02	91.549
242.40	92.857
242.77	71.429
243.14	77.215
243.51	84.848
243.89	70.093
244.26	71.963
244.63	79.208
245.00	70.642
245.38	64.407
245.75	70.455
246.12	73.333
246.49	62.411
246.87	66.393
247.24	62.000
247.61	75.000
247.98	61.224
248.36	60.606
248.73	64.286
249.10	63.690
249.47	61.000
249.84	60.199
250.22	55.135
250.59	62.000
250.96	56.962
251.33	58.605
251.70	55.804
252.08	56.723
252.45	51.793
252.82	51.711
253.19	51.383
253.56	55.385
253.94	53.261
254.31	61.240
254.68	53.310
255.05	57.586
255.42	54.015
255.79	51.792
256.16	51.186
256.54	60.065
256.91	52.614
257.28	56.187
257.65	50.784
258.02	52.212
258.39	50.430
258.76	51.594
259.14	48.286
259.51	52.770
259.88	55.319
260.25	46.703
260.62	50.959
260.99	50.138
261.36	52.646
261.73	50.266
262.10	52.356
262.47	48.000
262.85	50.400
263.22	50.386
263.59	49.872
263.96	50.877
264.33	50.617
264.70	46.929
265.07	51.951
265.44	50.688
265.81	50.000
266.18	50.114
266.55	50.827
266.92	53.020
267.29	52.412
267.66	49.552
268.03	49.327
268.40	50.529
268.77	50.000
269.14	49.458
269.51	48.552
269.88	50.204
270.25	46.652
270.62	50.429
270.99	49.087
271.36	48.374
271.73	50.524
272.10	45.859
272.47	46.429
272.84	47.505
273.21	48.347
273.58	48.785
273.95	49.076
274.32	46.887
274.69	48.819
275.06	45.537
275.43	46.743
275.80	44.340
276.17	45.588
276.54	47.290
276.91	50.000
277.28	45.438
277.65	46.679
278.02	44.301
278.39	44.784
278.76	46.379
279.13	45.552
279.50	45.636
279.87	44.320
280.23	45.120
280.60	47.445
280.97	47.241
281.34	44.884
281.71	45.391
282.08	46.838
282.45	44.088
282.82	45.652
283.19	46.582
283.56	46.281
283.92	45.114
284.29	43.760
284.66	44.874
285.03	43.947
285.40	44.298
285.77	43.056
286.14	44.427
286.51	43.712
286.87	41.614
287.24	39.640
287.61	42.097
287.98	40.448
288.35	41.333
288.72	43.854
289.08	42.643
289.45	40.549
289.82	41.250
290.19	40.996
290.56	40.757
290.93	41.727
291.29	39.779
291.66	38.983
292.03	39.411
292.40	38.211
292.77	38.301
293.13	39.943
293.50	37.382
293.87	36.992
294.24	40.000
294.60	37.954
294.97	39.441
295.34	35.989
295.71	36.531
296.08	37.200
296.44	36.595
296.81	35.608
297.18	34.601
297.55	37.562
297.91	34.236
298.28	36.111
298.65	35.337
299.02	33.776
299.38	34.173
299.75	34.024
300.12	33.486
300.48	35.480
300.85	34.923
301.22	35.698
301.59	33.608
301.95	35.123
302.32	34.459
302.69	34.842
303.05	35.466
303.42	36.547
303.79	34.778
304.15	33.663
304.52	32.347
304.89	33.795
305.25	34.705
305.62	34.009
305.99	32.717
306.35	34.632
306.72	33.507
307.09	34.161
307.45	34.213
307.82	33.230
308.19	34.021
308.55	32.300
308.92	34.838
309.29	35.010
309.65	33.994
310.02	34.990
310.38	33.998
310.75	34.233
311.12	35.249
311.48	35.811
311.85	34.160
312.22	36.008
312.58	34.305
312.95	34.563
313.31	37.172
313.68	37.430
314.05	37.088
314.41	36.406
314.78	38.920
315.14	38.957
315.51	39.640
315.87	39.142
316.24	39.309
316.61	39.928
316.97	38.440
317.34	41.240
317.70	40.825
318.07	42.260
318.43	42.707
318.80	42.207
319.16	43.881
319.53	43.186
319.89	43.280
320.26	45.717
320.62	45.971
320.99	46.139
321.35	46.846
321.72	49.526
322.08	48.753
322.45	49.228
322.81	49.771
323.18	51.421
323.54	51.394
323.91	55.576
324.27	55.438
324.64	54.585
325.00	54.569
325.37	56.071
325.73	58.263
326.10	59.735
326.46	58.712
326.83	60.240
327.19	61.767
327.56	63.339
327.92	63.934
328.29	63.584
328.65	66.182
329.01	64.414
329.38	65.905
329.74	63.962
330.11	67.680
330.47	67.263
330.84	66.005
331.20	66.836
331.56	69.862
331.93	69.119
332.29	68.793
332.66	71.769
333.02	68.385
333.38	70.070
333.75	68.891
334.11	69.463
334.48	72.222
334.84	70.017
335.20	71.001
335.57	69.857
335.93	70.395
336.29	70.730
336.66	73.413
337.02	71.942
337.38	72.313
337.75	72.551
338.11	72.996
338.47	74.005
338.84	70.449
339.20	73.680
339.56	73.591
339.93	71.823
340.29	72.857
340.65	74.099
341.02	73.693
341.38	72.906
341.74	73.256
342.11	74.124
342.47	71.698
342.83	75.964
343.20	74.535
343.56	72.836
343.92	74.649
344.28	71.770
344.65	75.795
345.01	76.032
345.37	73.798
345.73	73.889
346.10	74.343
346.46	75.518
346.82	73.611
347.19	75.039
347.55	74.317
347.91	73.867
348.27	75.136
348.63	74.288
349.00	74.791
349.36	75.798
349.72	75.076
350.08	75.854
350.45	74.105
350.81	76.070
351.17	76.271
351.53	75.366
351.89	75.214
352.26	74.906
352.62	75.339
352.98	76.380
353.34	75.347
353.70	74.924
354.07	75.462
354.43	75.192
354.79	74.867
355.15	77.795
355.51	75.680
355.87	75.828
356.24	76.982
356.60	74.201
356.96	74.981
357.32	74.830
357.68	75.330
358.04	75.608
358.40	75.637
358.77	75.657
359.13	77.703
359.49	75.241
359.85	77.290
360.21	76.895
360.57	77.007
360.93	77.056
361.29	76.768
361.66	77.927
362.02	75.568
362.38	77.994
362.74	75.938
363.10	76.858
363.46	74.586
363.82	77.630
364.18	76.671
364.54	77.110
364.90	77.376
365.26	76.544
365.62	77.210
365.98	76.669
366.35	77.241
366.71	76.891
367.07	76.724
367.43	76.629
367.79	75.864
368.15	75.170
368.51	78.360
368.87	76.427
369.23	77.685
369.59	77.073
369.95	79.161
370.31	74.743
370.67	76.891
371.03	76.541
371.39	76.247
371.75	77.181
372.11	77.226
372.47	77.466
372.83	77.498
373.19	75.942
373.55	76.082
373.91	76.174
374.27	77.315
374.63	77.017
374.99	76.887
375.35	78.629
375.71	77.573
376.07	77.653
376.42	75.639
376.78	77.521
377.14	78.375
377.50	75.343
377.86	77.194
378.22	77.331
378.58	78.874
378.94	76.645
379.30	75.804
379.66	79.169
380.02	78.065
380.38	77.108
380.74	77.509
381.09	76.752
381.45	76.301
381.81	76.123
382.17	77.473
382.53	77.265
382.89	77.351
383.25	77.798
383.61	76.311
383.97	77.085
384.32	77.275
384.68	76.827
385.04	78.781
385.40	76.987
385.76	77.355
386.12	78.788
386.48	78.602
386.83	77.995
387.19	76.384
387.55	76.031
387.91	77.425
388.27	77.573
388.62	76.761
388.98	76.735
389.34	75.669
389.70	77.064
390.06	77.561
390.42	75.879
390.77	76.843
391.13	77.188
391.49	75.439
391.85	75.815
392.20	77.056
392.56	74.851
392.92	75.632
393.28	77.242
393.64	75.803
393.99	75.756
394.35	75.338
394.71	75.452
395.07	75.365
395.42	75.293
395.78	76.249
396.14	75.663
396.50	74.428
396.85	75.427
397.21	76.053
397.57	77.167
397.92	73.772
398.28	75.455
398.64	74.520
399.00	72.849
399.35	73.591
399.71	73.841
400.07	74.772
400.42	76.119
400.78	74.194
401.14	73.635
401.49	74.424
401.85	73.291
402.21	72.759
402.57	74.267
402.92	73.697
403.28	72.852
403.63	72.572
403.99	73.281
404.35	73.681
404.70	74.483
405.06	72.375
405.42	73.309
405.77	72.271
406.13	70.770
406.49	71.404
406.84	71.179
407.20	72.203
407.55	72.185
407.91	73.133
408.27	72.165
408.62	71.674
408.98	71.200
409.34	71.011
409.69	72.060
410.05	71.795
410.40	70.730
410.76	70.292
411.11	70.024
411.47	68.889
411.83	68.131
412.18	69.626
412.54	70.270
412.89	68.968
413.25	69.156
413.60	69.217
413.96	68.761
414.31	70.189
414.67	70.205
415.03	69.668
415.38	68.644
415.74	69.362
416.09	68.270
416.45	69.554
416.80	69.083
417.16	68.109
417.51	68.344
417.87	67.960
418.22	67.922
418.58	68.854
418.93	66.449
419.29	66.297
419.64	67.777
420.00	67.840
420.35	67.305
420.71	67.153
421.06	67.275
421.42	67.933
421.77	67.240
422.12	66.648
422.48	65.639
422.83	66.908
423.19	66.199
423.54	65.661
423.90	66.421
424.25	66.098
424.61	66.976
424.96	65.330
425.31	66.229
425.67	67.340
426.02	66.293
426.38	64.177
426.73	65.761
427.09	66.370
427.44	65.504
427.79	65.352
428.15	65.351
428.50	64.457
428.85	64.727
429.21	64.398
429.56	63.360
429.92	64.446
430.27	64.199
430.62	62.898
430.98	64.022
431.33	63.659
431.68	62.519
432.04	62.804
432.39	63.941
432.74	64.344
433.10	63.068
433.45	64.216
433.80	65.472
434.16	62.848
434.51	63.158
434.86	63.636
435.22	63.047
435.57	64.019
435.92	63.916
436.28	63.306
436.63	62.237
436.98	63.908
437.34	62.386
437.69	62.318
438.04	62.957
438.39	62.464
438.75	62.472
439.10	61.630
439.45	61.391
439.81	62.175
440.16	62.190
440.51	62.106
440.86	61.140
441.22	60.065
441.57	61.575
441.92	61.303
442.27	60.412
442.63	60.823
442.98	59.806
443.33	60.525
443.68	61.419
444.03	60.886
444.39	61.205
444.74	60.663
445.09	60.611
445.44	59.936
445.79	60.916
446.15	59.579
446.50	61.234
446.85	59.213
447.20	59.552
447.55	60.250
447.91	60.256
448.26	58.147
448.61	60.697
448.96	59.314
449.31	59.021
449.66	59.967
450.02	57.699
450.37	59.134
450.72	59.835
451.07	58.581
451.42	59.099
451.77	58.534
452.12	58.990
452.47	58.019
452.83	59.493
453.18	59.880
453.53	59.266
453.88	58.629
454.23	57.292
454.58	57.517
454.93	57.388
455.28	57.895
455.63	58.333
455.98	56.571
456.34	57.933
456.69	57.134
457.04	57.399
457.39	57.371
457.74	56.532
458.09	56.766
458.44	57.065
458.79	57.347
459.14	56.847
459.49	56.455
459.84	57.391
460.19	56.497
460.54	56.068
460.89	57.356
461.24	56.816
461.59	55.385
461.94	56.206
462.29	57.037
462.64	57.035
462.99	55.918
463.34	55.152
463.69	55.596
464.04	56.995
464.39	55.524
464.74	53.341
465.09	55.369
465.44	55.169
465.79	54.219
466.14	54.054
466.49	54.856
466.84	55.128
467.19	54.833
467.54	52.733
467.89	54.225
468.24	54.893
468.59	54.643
468.94	53.623
469.29	55.712
469.64	54.469
469.99	54.563
470.34	54.522
470.68	54.276
471.03	54.436
471.38	52.914
471.73	52.711
472.08	54.729
472.43	53.445
472.78	52.753
473.13	52.628
473.48	54.156
473.83	52.532
474.17	52.827
474.52	53.377
474.87	51.904
475.22	53.398
475.57	51.941
475.92	51.661
476.27	52.394
476.61	51.635
476.96	52.717
477.31	51.877
477.66	53.355
478.01	51.109
478.36	51.493
478.70	50.819
479.05	52.720
479.40	52.282
479.75	52.135
480.10	52.275
480.45	50.514
480.79	50.415
481.14	51.688
481.49	50.091
481.84	50.088
482.19	50.786
482.53	50.154
482.88	51.165
483.23	50.519
483.58	50.269
483.92	50.137
484.27	49.743
484.62	50.467
484.97	49.591
485.31	49.180
485.66	48.708
486.01	48.586
486.36	48.159
486.70	48.430
487.05	49.076
487.40	49.027
487.75	48.003
488.09	48.892
488.44	48.821
488.79	48.212
489.13	48.824
489.48	49.021
489.83	48.540
490.17	47.564
490.52	48.880
490.87	47.931
491.22	49.202
491.56	48.353
491.91	48.432
492.26	47.973
492.60	49.112
492.95	48.165
493.30	47.907
493.64	47.889
493.99	48.390
494.34	47.916
494.68	47.720
495.03	48.092
495.37	47.591
495.72	48.205
496.07	47.350
496.41	47.480
496.76	47.024
497.11	47.901
497.45	47.611
497.80	46.988
498.14	47.989
498.49	46.565
498.84	47.477
499.18	46.207
499.53	46.945
499.87	46.765
500.22	47.812
500.56	46.704
500.91	47.217
501.26	47.313
501.60	46.266
501.95	47.043
502.29	46.133
502.64	45.126
502.98	45.576
503.33	44.989
503.67	45.386
504.02	45.858
504.36	45.023
504.71	46.074
505.06	45.941
505.40	45.999
505.75	45.837
506.09	45.964
506.44	45.583
506.78	46.172
507.13	46.777
507.47	44.978
507.82	46.813
508.16	46.203
508.51	46.135
508.85	45.252
509.19	45.815
509.54	45.752
509.88	45.748
510.23	45.539
510.57	44.546
510.92	46.204
511.26	45.733
511.61	44.756
511.95	45.097
512.30	45.100
512.64	44.548
512.98	45.566
513.33	45.697
513.67	44.485
514.02	45.299
514.36	44.133
514.70	45.227
515.05	44.166
515.39	45.833
515.74	45.544
516.08	44.826
516.42	46.339
516.77	44.373
517.11	44.960
517.46	44.127
517.80	45.330
518.14	45.239
518.49	44.873
518.83	43.736
519.17	43.483
519.52	44.948
519.86	45.886
520.20	44.548
520.55	43.980
520.89	43.448
521.23	45.093
521.58	44.349
521.92	44.373
522.26	43.424
522.61	45.455
522.95	44.685
523.29	43.918
523.64	43.295
523.98	44.073
524.32	43.483
524.66	45.449
525.01	42.959
525.35	44.726
525.69	44.852
526.04	44.795
526.38	44.026
526.72	43.377
527.06	44.175
527.41	44.559
527.75	44.614
528.09	42.685
528.43	44.173
528.78	43.948
529.12	45.455
529.46	43.016
529.80	42.523
530.15	43.135
530.49	43.622
530.83	43.144
531.17	42.128
531.51	43.532
531.86	42.572
532.20	42.089
532.54	43.063
532.88	43.660
533.22	43.754
533.57	43.380
533.91	42.424
534.25	42.412
534.59	43.977
534.93	41.866
535.27	42.402
535.62	42.357
535.96	42.317
536.30	43.998
536.64	43.168
536.98	42.102
537.32	43.313
537.66	42.538
538.01	42.539
538.35	42.670
538.69	43.022
539.03	42.475
539.37	42.233
539.71	43.025
540.05	42.092
540.39	43.270
540.73	42.405
541.07	42.158
541.42	41.791
541.76	42.540
542.10	42.540
542.44	42.456
542.78	42.039
543.12	40.798
543.46	42.293
543.80	42.669
544.14	42.229
544.48	41.667
544.82	42.385
545.16	41.287
545.50	42.286
545.84	41.540
546.18	43.628
546.52	42.820
546.86	41.328
547.20	40.439
547.54	40.595
547.88	41.545
548.22	40.741
548.56	40.189
548.90	40.391
549.24	42.198
549.58	41.173
549.92	41.257
550.26	41.244
550.60	40.452
550.94	40.773
551.28	41.241
551.62	42.345
551.96	39.797
552.30	39.684
552.64	41.489
552.98	40.464
553.32	41.165
553.66	41.238
554.00	40.476
554.34	41.345
554.68	41.196
555.02	40.530
555.36	39.229
555.69	40.183
556.03	40.064
556.37	39.834
556.71	41.786
557.05	39.581
557.39	40.467
557.73	39.892
558.07	40.979
558.41	40.370
558.75	40.766
559.08	40.672
559.42	40.515
559.76	41.411
560.10	39.298
560.44	39.217
560.78	40.921
561.12	39.860
561.45	40.363
561.79	39.950
562.13	39.672
562.47	40.753
562.81	40.013
563.15	39.560
563.48	38.261
563.82	39.925
564.16	40.672
564.50	38.698
564.84	40.000
565.17	38.562
565.51	40.887
565.85	40.407
566.19	39.464
566.52	39.049
566.86	39.988
567.20	39.382
567.54	38.755
567.88	40.532
568.21	38.642
568.55	39.251
568.89	37.956
569.23	38.697
569.56	39.497
569.90	38.088
570.24	38.876
570.57	38.709
570.91	38.253
571.25	38.138
571.59	38.156
571.92	37.594
572.26	37.763
572.60	37.462
572.93	38.844
573.27	38.225
573.61	38.170
573.95	38.073
574.28	38.197
574.62	38.263
574.96	37.364
575.29	37.197
575.63	37.432
575.97	37.463
576.30	37.307
576.64	37.387
576.98	37.520
577.31	37.245
577.65	37.734
577.98	37.310
578.32	37.413
578.66	37.714
578.99	37.634
579.33	37.618
579.67	37.157
580.00	36.597
580.34	36.902
580.67	36.756
581.01	37.503
581.35	36.891
581.68	36.709
582.02	37.312
582.35	37.059
582.69	37.245
583.02	37.259
583.36	37.777
583.70	37.537
584.03	38.330
584.37	38.213
584.70	37.298
585.04	36.831
585.37	37.196
585.71	37.348
586.04	37.508
586.38	37.180
586.72	36.860
587.05	36.541
587.39	37.143
587.72	37.058
588.06	36.677
588.39	37.359
588.73	36.802
589.06	37.088
589.40	37.903
589.73	37.529
590.07	38.538
590.40	38.153
590.73	37.863
591.07	38.027
591.40	38.044
591.74	38.149
592.07	37.646
592.41	37.330
592.74	37.202
593.08	36.458
593.41	37.343
593.75	36.457
594.08	36.649
594.41	36.950
594.75	36.712
595.08	36.900
595.42	36.801
595.75	37.315
596.09	37.609
596.42	36.781
596.75	37.179
597.09	36.938
597.42	36.122
597.75	36.268
598.09	36.643
598.42	36.108
598.76	36.430
599.09	36.889
599.42	36.194
599.76	36.465
600.09	36.441
600.42	36.257
600.76	36.132
601.09	36.900
601.42	35.938
601.76	36.377
602.09	36.277
602.42	35.601
602.76	36.167
603.09	36.425
603.42	36.844
603.76	36.262
604.09	35.143
604.42	36.158
604.76	36.744
605.09	36.082
605.42	36.449
605.75	36.321
606.09	36.151
606.42	36.227
606.75	35.911
607.09	35.334
607.42	36.400
607.75	35.470
608.08	36.353
608.42	35.487
608.75	35.986
609.08	35.416
609.41	35.773
609.75	36.447
610.08	36.061
610.41	35.222
610.74	35.628
611.07	36.926
611.41	36.469
611.74	36.042
612.07	35.838
612.40	35.721
612.73	36.146
613.07	36.087
613.40	36.642
613.73	36.146
614.06	35.600
614.39	36.010
614.72	35.510
615.06	35.509
615.39	36.139
615.72	34.802
616.05	36.514
616.38	35.363
616.71	36.896
617.05	35.859
617.38	36.966
617.71	36.108
618.04	35.782
618.37	35.242
618.70	35.393
619.03	34.982
619.36	36.055
619.69	35.950
620.03	36.269
620.36	35.774
620.69	36.845
621.02	36.685
621.35	35.172
621.68	35.914
622.01	37.269
622.34	36.125
622.67	36.447
623.00	35.943
623.33	34.683
623.66	35.595
623.99	36.438
624.32	36.992
624.65	36.011
624.99	36.308
625.32	35.605
625.65	34.621
625.98	35.704
626.31	36.869
626.64	35.839
626.97	35.348
627.30	36.568
627.63	36.892
627.96	34.898
628.29	36.469
628.62	36.698
628.95	35.638
629.28	37.336
629.61	37.170
629.94	36.646
630.26	36.742
630.59	37.323
630.92	35.964
631.25	36.718
