SpectraSuite Data File
++++++++++++++++++++++++++++++++++++
Date: Tue May 12 16:50:20 PDT 2015
User: schluterlab
Dark Spectrum Present: Yes
Reference Spectrum Present: Yes
Number of Sampled Component Spectra: 1
Spectrometers: USB2E3373
Integration Time (usec): 3000 (USB2E3373)
Spectra Averaged: 3 (USB2E3373)
Boxcar Smoothing: 0 (USB2E3373)
Correct for Electrical Dark: No (USB2E3373)
Strobe/Lamp Enabled: No (USB2E3373)
Correct for Detector Non-linearity: No (USB2E3373)
Correct for Stray Light: No (USB2E3373)
Number of Pixels in Processed Spectrum: 2048
>>>>>Begin Processed Spectral Data<<<<<
178.53	0.000
178.91	-283.333
179.29	-775.000
179.67	-3300.000
180.04	-166.667
180.42	850.000
180.80	1600.000
181.18	0.000
181.56	-362.500
181.94	0.000
182.31	1166.667
182.69	-3500.000
183.07	685.714
183.45	-4100.000
183.83	-1300.000
184.20	460.000
184.58	500.000
184.96	-284.615
185.34	-350.000
185.72	1400.000
186.09	-775.000
186.47	-3200.000
186.85	900.000
187.23	660.000
187.61	1700.000
187.98	562.500
188.36	300.000
188.74	358.333
189.12	333.333
189.49	750.000
189.87	0.000
190.25	412.500
190.63	3600.000
191.00	-116.667
191.38	-4000.000
191.76	-700.000
192.14	537.500
192.51	-2100.000
192.89	1750.000
193.27	1066.667
193.65	-900.000
194.02	-800.000
194.40	671.429
194.78	-185.714
195.15	286.667
195.53	-3900.000
195.91	-700.000
196.29	3900.000
196.66	268.750
197.04	1300.000
197.42	-1450.000
197.79	475.000
198.17	241.667
198.55	0.000
198.92	528.571
199.30	1466.667
199.68	1700.000
200.05	700.000
200.43	-616.667
200.81	261.111
201.18	3500.000
201.56	325.000
201.94	-1000.000
202.31	-362.500
202.69	-620.000
203.07	3600.000
203.44	-400.000
203.82	350.000
204.19	720.000
204.57	-1400.000
204.95	-900.000
205.32	-800.000
205.70	616.667
206.08	875.000
206.45	-1166.667
206.83	411.111
207.20	242.105
207.58	316.667
207.96	700.000
208.33	0.000
208.71	614.286
209.08	780.000
209.46	-4400.000
209.84	-1075.000
210.21	900.000
210.59	-620.000
210.96	391.667
211.34	-975.000
211.71	445.455
212.09	900.000
212.46	1750.000
212.84	-583.333
213.22	366.667
213.59	-2800.000
213.97	320.000
214.34	875.000
214.72	1100.000
215.09	1000.000
215.47	-3800.000
215.84	-380.000
216.22	-475.000
216.59	0.000
216.97	0.000
217.34	2000.000
217.72	-2250.000
218.09	1166.667
218.47	575.000
218.84	1075.000
219.22	1500.000
219.59	1133.333
219.97	471.429
220.34	422.222
220.72	1650.000
221.09	3800.000
221.47	316.667
221.84	1100.000
222.22	360.000
222.59	216.667
222.97	321.429
223.34	250.000
223.72	-1750.000
224.09	1566.667
224.46	238.462
224.84	-675.000
225.21	433.333
225.59	253.333
225.96	1466.667
226.34	-640.000
226.71	-475.000
227.08	-640.000
227.46	0.000
227.83	-583.333
228.21	-1450.000
228.58	350.000
228.95	1250.000
229.33	422.222
229.70	1100.000
230.08	292.308
230.45	3300.000
230.82	-875.000
231.20	-933.333
231.57	-1100.000
231.95	740.000
232.32	350.000
232.69	583.333
233.07	275.000
233.44	-1200.000
233.81	273.333
234.19	159.259
234.56	206.250
234.93	270.588
235.31	200.000
235.68	187.500
236.05	150.000
236.43	137.037
236.80	242.857
237.17	158.621
237.55	134.375
237.92	110.000
238.29	115.152
238.67	106.250
239.04	109.756
239.41	93.750
239.79	97.500
240.16	81.250
240.53	68.852
240.91	62.319
241.28	86.441
241.65	74.242
242.02	78.873
242.40	87.143
242.77	53.846
243.14	44.304
243.51	53.535
243.89	55.140
244.26	51.402
244.63	55.446
245.00	47.706
245.38	45.763
245.75	37.879
246.12	44.444
246.49	43.262
246.87	28.689
247.24	37.333
247.61	41.250
247.98	45.578
248.36	36.970
248.73	46.429
249.10	32.143
249.47	37.500
249.84	34.328
250.22	44.324
250.59	31.500
250.96	32.911
251.33	37.209
251.70	40.625
252.08	31.092
252.45	32.271
252.82	29.278
253.19	31.621
253.56	27.692
253.94	30.435
254.31	31.395
254.68	30.662
255.05	29.655
255.42	31.022
255.79	30.619
256.16	29.492
256.54	30.844
256.91	26.144
257.28	29.431
257.65	26.332
258.02	26.549
258.39	26.361
258.76	31.014
259.14	28.286
259.51	29.155
259.88	27.356
260.25	25.000
260.62	27.397
260.99	25.620
261.36	26.741
261.73	26.330
262.10	25.131
262.47	25.000
262.85	27.467
263.22	25.707
263.59	24.552
263.96	27.820
264.33	27.654
264.70	27.273
265.07	25.366
265.44	25.688
265.81	25.000
266.18	24.943
266.55	26.714
266.92	24.385
267.29	26.316
267.66	23.094
268.03	23.318
268.40	24.736
268.77	24.229
269.14	22.777
269.51	25.612
269.88	24.286
270.25	21.598
270.62	24.678
270.99	27.992
271.36	26.626
271.73	22.851
272.10	23.838
272.47	24.603
272.84	23.952
273.21	23.554
273.58	25.101
273.95	25.873
274.32	23.346
274.69	25.984
275.06	24.590
275.43	23.563
275.80	20.755
276.17	25.368
276.54	24.299
276.91	24.627
277.28	23.905
277.65	24.354
278.02	23.713
278.39	24.101
278.76	24.138
279.13	22.420
279.50	23.818
279.87	22.160
280.23	23.389
280.60	23.540
280.97	23.966
281.34	22.112
281.71	23.304
282.08	24.444
282.45	22.466
282.82	21.237
283.19	24.006
283.56	20.992
283.92	23.127
284.29	22.962
284.66	22.353
285.03	22.720
285.40	22.149
285.77	23.148
286.14	24.303
286.51	22.086
286.87	20.886
287.24	20.571
287.61	23.556
287.98	21.791
288.35	21.630
288.72	20.334
289.08	22.222
289.45	21.799
289.82	21.875
290.19	21.962
290.56	21.689
290.93	21.151
291.29	20.442
291.66	20.904
292.03	20.617
292.40	21.138
292.77	21.170
293.13	20.542
293.50	20.108
293.87	18.699
294.24	22.517
294.60	20.861
294.97	21.818
295.34	20.186
295.71	21.419
296.08	20.933
296.44	21.093
296.81	20.471
297.18	19.772
297.55	21.552
297.91	18.842
298.28	21.981
298.65	20.613
299.02	20.989
299.38	21.823
299.75	21.341
300.12	19.954
300.48	21.429
300.85	22.288
301.22	21.977
301.59	22.170
301.95	19.603
302.32	21.304
302.69	21.719
303.05	20.875
303.42	21.188
303.79	21.993
304.15	22.002
304.52	20.825
304.89	21.642
305.25	22.914
305.62	22.708
305.99	21.739
306.35	22.316
306.72	22.060
307.09	22.567
307.45	21.647
307.82	22.840
308.19	22.784
308.55	22.800
308.92	24.141
309.29	24.556
309.65	22.894
310.02	24.341
310.38	23.629
310.75	23.433
311.12	24.521
311.48	26.158
311.85	25.859
312.22	25.788
312.58	25.559
312.95	25.922
313.31	26.685
313.68	27.486
314.05	28.663
314.41	27.281
314.78	28.125
315.14	29.384
315.51	28.855
315.87	28.467
316.24	28.478
316.61	28.559
316.97	28.716
317.34	30.189
317.70	30.817
318.07	31.050
318.43	31.107
318.80	31.874
319.16	32.080
319.53	33.186
319.89	32.348
320.26	34.730
320.62	34.890
320.99	34.128
321.35	34.230
321.72	36.243
322.08	35.272
322.45	35.967
322.81	37.054
323.18	35.702
323.54	38.937
323.91	38.803
324.27	37.843
324.64	37.803
325.00	38.966
325.37	38.870
325.73	40.051
326.10	40.597
326.46	41.618
326.83	39.360
327.19	40.321
327.56	42.412
327.92	41.230
328.29	42.553
328.65	43.921
329.01	42.857
329.38	43.063
329.74	42.101
330.11	43.962
330.47	43.990
330.84	42.192
331.20	42.301
331.56	43.869
331.93	44.996
332.29	41.667
332.66	44.133
333.02	42.612
333.38	43.630
333.75	43.536
334.11	44.211
334.48	43.932
334.84	43.074
335.20	43.456
335.57	42.653
335.93	44.323
336.29	44.030
336.66	44.683
337.02	43.199
337.38	42.734
337.75	44.172
338.11	43.882
338.47	43.353
338.84	42.337
339.20	43.636
339.56	42.893
339.93	43.395
340.29	43.193
340.65	44.007
341.02	42.639
341.38	44.253
341.74	44.103
342.11	43.155
342.47	42.740
342.83	44.135
343.20	44.058
343.56	40.429
343.92	42.362
344.28	43.301
344.65	43.521
345.01	43.095
345.37	41.106
345.73	42.619
346.10	42.789
346.46	42.344
346.82	41.281
347.19	42.736
347.55	40.671
347.91	41.541
348.27	42.835
348.63	43.196
349.00	41.889
349.36	42.879
349.72	41.743
350.08	41.537
350.45	41.508
350.81	42.508
351.17	42.373
351.53	42.648
351.89	41.103
352.26	43.008
352.62	42.308
352.98	42.791
353.34	42.527
353.70	41.820
354.07	42.769
354.43	41.475
354.79	40.926
355.15	42.420
355.51	41.843
355.87	42.018
356.24	41.955
356.60	41.629
356.96	41.395
357.32	42.502
357.68	41.850
358.04	42.401
358.40	42.654
358.77	42.374
359.13	42.492
359.49	41.660
359.85	42.517
360.21	40.490
360.57	41.387
360.93	41.126
361.29	42.496
361.66	41.536
362.02	39.986
362.38	40.693
362.74	41.614
363.10	41.935
363.46	41.022
363.82	41.725
364.18	42.603
364.54	42.275
364.90	42.905
365.26	42.332
365.62	42.887
365.98	41.087
366.35	40.966
366.71	41.638
367.07	40.683
367.43	41.773
367.79	40.957
368.15	40.502
368.51	41.351
368.87	41.168
369.23	40.956
369.59	41.672
369.95	43.007
370.31	40.452
370.67	41.360
371.03	41.597
371.39	41.898
371.75	42.219
372.11	40.857
372.47	42.466
372.83	41.740
373.19	41.535
373.55	41.443
373.91	40.746
374.27	41.601
374.63	41.017
374.99	41.981
375.35	41.465
375.71	41.953
376.07	40.981
376.42	40.921
376.78	40.655
377.14	41.678
377.50	41.136
377.86	40.295
378.22	41.012
378.58	42.433
378.94	40.374
379.30	41.722
379.66	41.060
380.02	40.938
380.38	40.398
380.74	42.330
381.09	41.472
381.45	40.000
381.81	40.780
382.17	41.026
382.53	40.372
382.89	40.568
383.25	40.497
383.61	40.403
383.97	40.432
384.32	40.265
384.68	41.117
385.04	40.445
385.40	40.510
385.76	39.731
386.12	41.126
386.48	40.426
386.83	40.403
387.19	39.870
387.55	39.870
387.91	39.781
388.27	39.738
388.62	40.141
388.98	39.708
389.34	39.560
389.70	39.682
390.06	40.122
390.42	39.729
390.77	39.865
391.13	40.072
391.49	38.899
391.85	40.677
392.20	39.869
392.56	39.964
392.92	39.304
393.28	39.630
393.64	38.761
393.99	40.308
394.35	38.258
394.71	38.661
395.07	38.625
395.42	39.227
395.78	39.173
396.14	39.096
396.50	38.568
396.85	38.415
397.21	38.087
397.57	38.553
397.92	37.724
398.28	38.996
398.64	38.569
399.00	37.627
399.35	37.359
399.71	38.521
400.07	38.299
400.42	38.209
400.78	38.944
401.14	39.401
401.49	37.615
401.85	38.992
402.21	37.024
402.57	38.061
402.92	37.152
403.28	35.859
403.63	37.610
403.99	38.661
404.35	38.863
404.70	38.275
405.06	35.710
405.42	37.882
405.77	38.148
406.13	36.931
406.49	37.180
406.84	36.661
407.20	37.100
407.55	36.862
407.91	37.524
408.27	37.962
408.62	37.611
408.98	37.256
409.34	36.996
409.69	36.963
410.05	36.673
410.40	36.749
410.76	36.634
411.11	37.204
411.47	36.235
411.83	36.497
412.18	36.353
412.54	36.517
412.89	35.693
413.25	37.229
413.60	36.449
413.96	35.607
414.31	36.482
414.67	38.051
415.03	37.484
415.38	37.476
415.74	37.208
416.09	37.102
416.45	37.427
416.80	38.422
417.16	35.837
417.51	37.325
417.87	36.108
418.22	37.485
418.58	37.580
418.93	37.061
419.29	35.305
419.64	38.098
420.00	37.828
420.35	37.573
420.71	36.464
421.06	37.905
421.42	37.536
421.77	38.145
422.12	37.652
422.48	37.904
422.83	38.672
423.19	37.581
423.54	37.246
423.90	39.581
424.25	37.810
424.61	38.131
424.96	38.001
425.31	38.259
425.67	38.328
426.02	38.474
426.38	38.623
426.73	39.098
427.09	39.561
427.44	38.829
427.79	38.536
428.15	40.424
428.50	39.829
428.85	39.800
429.21	39.006
429.56	38.784
429.92	39.483
430.27	38.849
430.62	39.697
430.98	39.022
431.33	39.163
431.68	38.469
432.04	40.093
432.39	40.889
432.74	41.101
433.10	40.587
433.45	40.781
433.80	40.871
434.16	39.727
434.51	40.609
434.86	41.481
435.22	40.357
435.57	41.909
435.92	41.776
436.28	41.647
436.63	41.437
436.98	42.624
437.34	41.895
437.69	41.377
438.04	42.366
438.39	42.323
438.75	41.982
439.10	42.795
439.45	41.945
439.81	41.932
440.16	42.157
440.51	43.018
440.86	43.932
441.22	42.045
441.57	42.572
441.92	43.090
442.27	42.938
442.63	41.972
442.98	42.295
443.33	42.528
443.68	42.656
444.03	42.554
444.39	43.126
444.74	42.909
445.09	43.549
445.44	43.252
445.79	43.177
446.15	43.105
446.50	44.673
446.85	43.177
447.20	43.184
447.55	43.611
447.91	44.965
448.26	44.036
448.61	44.666
448.96	44.336
449.31	44.389
449.66	45.460
450.02	43.814
450.37	45.808
450.72	44.463
451.07	44.968
451.42	44.932
451.77	45.475
452.12	45.661
452.47	46.294
452.83	45.803
453.18	45.285
453.53	46.181
453.88	45.371
454.23	44.974
454.58	45.629
454.93	45.064
455.28	46.879
455.63	47.104
455.98	45.347
456.34	47.234
456.69	46.707
457.04	45.883
457.39	45.886
457.74	46.059
458.09	45.424
458.44	45.400
458.79	45.782
459.14	45.117
459.49	45.527
459.84	46.957
460.19	45.650
460.54	46.838
460.89	46.482
461.24	45.246
461.59	46.372
461.94	45.981
462.29	46.453
462.64	46.734
462.99	47.217
463.34	47.505
463.69	47.913
464.04	47.208
464.39	46.880
464.74	45.897
465.09	45.676
465.44	45.865
465.79	45.618
466.14	45.893
466.49	46.446
466.84	45.652
467.19	45.811
467.54	47.387
467.89	46.479
468.24	47.829
468.59	46.190
468.94	47.343
469.29	46.060
469.64	47.974
469.99	47.686
470.34	47.375
470.68	46.552
471.03	48.032
471.38	47.881
471.73	47.681
472.08	50.033
472.43	48.045
472.78	48.271
473.13	47.247
473.48	48.472
473.83	47.468
474.17	48.511
474.52	48.400
474.87	46.958
475.22	47.459
475.57	47.377
475.92	47.164
476.27	46.518
476.61	47.721
476.96	47.544
477.31	48.175
477.66	50.081
478.01	47.189
478.36	47.631
478.70	47.395
479.05	47.856
479.40	47.470
479.75	47.716
480.10	47.967
480.45	47.152
480.79	46.820
481.14	46.981
481.49	46.889
481.84	46.218
482.19	47.642
482.53	47.255
482.88	47.401
483.23	47.136
483.58	48.070
483.92	47.761
484.27	46.490
484.62	47.411
484.97	46.747
485.31	44.716
485.66	44.781
486.01	43.434
486.36	42.768
486.70	42.561
487.05	43.025
487.40	43.637
487.75	44.787
488.09	44.744
488.44	45.315
488.79	45.540
489.13	47.219
489.48	48.142
489.83	47.164
490.17	46.614
490.52	48.148
490.87	47.672
491.22	48.227
491.56	47.650
491.91	48.073
492.26	47.617
492.60	49.476
492.95	48.120
493.30	47.816
493.64	47.484
493.99	48.390
494.34	48.229
494.68	47.587
495.03	48.137
495.37	48.402
495.72	48.951
496.07	47.978
496.41	47.611
496.76	48.164
497.11	47.558
497.45	47.611
497.80	48.517
498.14	47.850
498.49	48.700
498.84	48.972
499.18	47.943
499.53	48.829
499.87	47.844
500.22	48.641
500.56	47.725
500.91	49.026
501.26	47.956
501.60	48.452
501.95	47.984
502.29	48.089
502.64	47.243
502.98	47.932
503.33	47.795
503.67	47.903
504.02	47.783
504.36	48.778
504.71	48.061
505.06	48.663
505.40	48.152
505.75	48.831
506.09	48.903
506.44	48.825
506.78	49.102
507.13	50.218
507.47	48.180
507.82	49.684
508.16	50.220
508.51	48.696
508.85	47.768
509.19	49.878
509.54	49.121
509.88	48.831
510.23	48.725
510.57	48.456
510.92	49.900
511.26	49.699
511.61	48.449
511.95	48.532
512.30	48.150
512.64	49.585
512.98	50.436
513.33	49.334
513.67	49.767
514.02	49.455
514.36	49.948
514.70	51.413
515.05	49.387
515.39	50.768
515.74	50.137
516.08	50.871
516.42	52.240
516.77	50.187
517.11	50.880
517.46	49.569
517.80	50.191
518.14	51.042
518.49	50.717
518.83	50.714
519.17	51.470
519.52	50.573
519.86	50.136
520.20	50.904
520.55	50.650
520.89	51.609
521.23	52.220
521.58	52.381
521.92	50.204
522.26	50.829
522.61	51.990
522.95	50.571
523.29	51.404
523.64	51.329
523.98	51.291
524.32	50.692
524.66	50.435
525.01	50.651
525.35	49.971
525.69	52.077
526.04	50.506
526.38	49.912
526.72	50.895
527.06	50.325
527.41	52.358
527.75	51.004
528.09	51.054
528.43	51.373
528.78	50.924
529.12	52.438
529.46	48.977
529.80	49.650
530.15	50.265
530.49	50.181
530.83	51.737
531.17	49.815
531.51	49.969
531.86	49.879
532.20	48.888
532.54	50.534
532.88	51.156
533.22	50.152
533.57	50.458
533.91	48.776
534.25	48.875
534.59	49.766
534.93	47.838
535.27	47.695
535.62	47.783
535.96	48.522
536.30	50.884
536.64	50.311
536.98	50.031
537.32	49.250
537.66	49.362
538.01	48.545
538.35	49.095
538.69	49.272
539.03	48.197
539.37	47.391
539.71	49.198
540.05	48.554
540.39	48.491
540.73	48.481
541.07	48.871
541.42	48.259
541.76	48.705
542.10	48.027
542.44	48.130
542.78	49.717
543.12	47.423
543.46	49.436
543.80	48.622
544.14	48.978
544.48	48.540
544.82	48.073
545.16	47.541
545.50	48.679
545.84	48.232
546.18	49.870
546.52	47.934
546.86	47.969
547.20	47.868
547.54	48.068
547.88	46.655
548.22	48.209
548.56	46.435
548.90	47.331
549.24	49.147
549.58	47.745
549.92	48.134
550.26	49.358
550.60	49.102
550.94	49.050
551.28	49.310
551.62	49.931
551.96	47.770
552.30	47.726
552.64	49.773
552.98	48.325
553.32	48.143
553.66	48.599
554.00	48.906
554.34	49.268
554.68	48.387
555.02	48.473
555.36	48.138
555.69	48.691
556.03	48.535
556.37	48.247
556.71	49.804
557.05	47.641
557.39	49.000
557.73	48.989
558.07	48.223
558.41	49.006
558.75	50.137
559.08	50.608
559.42	49.821
559.76	49.394
560.10	48.039
560.44	48.042
560.78	48.146
561.12	48.379
561.45	47.810
561.79	46.317
562.13	46.684
562.47	47.242
562.81	47.755
563.15	47.253
563.48	46.335
563.82	48.659
564.16	47.575
564.50	46.534
564.84	46.930
565.17	45.752
565.51	47.968
565.85	47.131
566.19	46.667
566.52	44.946
566.86	46.818
567.20	45.281
567.54	44.760
567.88	46.062
568.21	44.234
568.55	44.212
568.89	43.704
569.23	42.062
569.56	42.732
569.90	41.682
570.24	40.273
570.57	40.655
570.91	39.594
571.25	39.027
571.59	39.397
571.92	38.402
572.26	38.652
572.60	38.101
572.93	39.189
573.27	38.283
573.61	38.116
573.95	38.322
574.28	38.051
574.62	37.913
574.96	37.297
575.29	37.061
575.63	37.291
575.97	37.415
576.30	38.092
576.64	37.485
576.98	37.660
577.31	37.536
577.65	37.359
577.98	36.406
578.32	36.268
578.66	36.178
578.99	36.522
579.33	36.897
579.67	36.949
580.00	36.758
580.34	36.768
580.67	36.622
581.01	37.174
581.35	35.878
581.68	36.112
582.02	35.979
582.35	35.754
582.69	36.410
583.02	36.266
583.36	37.039
583.70	37.699
584.03	38.081
584.37	37.532
584.70	37.323
585.04	37.116
585.37	36.767
585.71	36.854
586.04	36.740
586.38	37.228
586.72	37.555
587.05	37.777
587.39	38.104
587.72	37.595
588.06	37.050
588.39	37.027
588.73	37.728
589.06	38.313
589.40	38.873
589.73	38.774
590.07	39.533
590.40	39.965
590.73	40.947
591.07	40.266
591.40	39.441
591.74	39.813
592.07	40.890
592.41	40.328
592.74	38.484
593.08	37.695
593.41	38.480
593.75	37.189
594.08	38.312
594.41	37.602
594.75	38.870
595.08	38.134
595.42	37.953
595.75	38.138
596.09	39.381
596.42	38.602
596.75	40.545
597.09	39.909
597.42	39.224
597.75	39.351
598.09	39.270
598.42	39.372
598.76	38.782
599.09	38.727
599.42	38.062
599.76	37.720
600.09	37.898
600.42	37.914
600.76	38.137
601.09	37.694
601.42	37.980
601.76	37.809
602.09	38.742
602.42	37.375
602.76	38.710
603.09	39.178
603.42	38.459
603.76	38.395
604.09	37.894
604.42	38.757
604.76	37.890
605.09	38.816
605.42	38.683
605.75	38.966
606.09	38.791
606.42	37.580
606.75	38.282
607.09	37.979
607.42	38.690
607.75	38.336
608.08	38.018
608.42	38.045
608.75	38.511
609.08	38.803
609.41	39.682
609.75	39.835
610.08	38.849
610.41	38.647
610.74	38.874
611.07	39.154
611.41	39.759
611.74	40.535
612.07	39.162
612.40	40.205
612.73	40.040
613.07	40.345
613.40	41.754
613.73	39.840
614.06	39.150
614.39	40.303
614.72	39.679
615.06	38.971
615.39	38.762
615.72	38.480
616.05	39.327
616.38	39.117
616.71	39.826
617.05	39.978
617.38	39.888
617.71	40.607
618.04	40.662
618.37	39.689
618.70	39.434
619.03	40.781
619.36	41.520
619.69	42.084
620.03	42.727
620.36	41.875
620.69	41.635
621.02	41.101
621.35	42.622
621.68	42.920
622.01	43.911
622.34	43.409
622.67	42.978
623.00	42.546
623.33	42.105
623.66	41.051
623.99	42.055
624.32	42.344
624.65	41.475
624.99	42.732
625.32	42.017
625.65	42.069
625.98	41.423
626.31	41.766
626.64	42.293
626.97	41.775
627.30	41.071
627.63	43.485
627.96	41.941
628.29	44.142
628.62	44.482
628.95	46.188
629.28	46.100
629.61	43.761
629.94	43.734
630.26	43.934
630.59	46.277
630.92	45.291
