SpectraSuite Data File
++++++++++++++++++++++++++++++++++++
Date: Tue May 12 15:16:20 PDT 2015
User: schluterlab
Dark Spectrum Present: Yes
Reference Spectrum Present: Yes
Number of Sampled Component Spectra: 1
Spectrometers: USB2E3373
Integration Time (usec): 3000 (USB2E3373)
Spectra Averaged: 3 (USB2E3373)
Boxcar Smoothing: 0 (USB2E3373)
Correct for Electrical Dark: No (USB2E3373)
Strobe/Lamp Enabled: No (USB2E3373)
Correct for Detector Non-linearity: No (USB2E3373)
Correct for Stray Light: No (USB2E3373)
Number of Pixels in Processed Spectrum: 2048
>>>>>Begin Processed Spectral Data<<<<<
178.53	0.000
178.91	-175.000
179.29	-575.000
179.67	-3600.000
180.04	-146.667
180.42	475.000
180.80	1400.000
181.18	0.000
181.56	-312.500
181.94	0.000
182.31	1100.000
182.69	-2500.000
183.07	485.714
183.45	-3400.000
183.83	-1150.000
184.20	300.000
184.58	400.000
184.96	-238.462
185.34	-216.667
185.72	1750.000
186.09	-500.000
186.47	-1900.000
186.85	833.333
187.23	520.000
187.61	1550.000
187.98	375.000
188.36	250.000
188.74	308.333
189.12	291.667
189.49	850.000
189.87	0.000
190.25	500.000
190.63	2100.000
191.00	-158.333
191.38	-2300.000
191.76	-475.000
192.14	387.500
192.51	-2300.000
192.89	1350.000
193.27	933.333
193.65	-1000.000
194.02	-720.000
194.40	485.714
194.78	-178.571
195.15	246.667
195.53	-3400.000
195.91	-500.000
196.29	2500.000
196.66	237.500
197.04	1050.000
197.42	-1100.000
197.79	600.000
198.17	308.333
198.55	0.000
198.92	385.714
199.30	933.333
199.68	1850.000
200.05	433.333
200.43	-533.333
200.81	161.111
201.18	2100.000
201.56	233.333
201.94	-425.000
202.31	-312.500
202.69	-500.000
203.07	3300.000
203.44	-516.667
203.82	266.667
204.19	560.000
204.57	-1100.000
204.95	-625.000
205.32	-580.000
205.70	616.667
206.08	600.000
206.45	-666.667
206.83	377.778
207.20	184.211
207.58	316.667
207.96	580.000
208.33	0.000
208.71	471.429
209.08	640.000
209.46	-2500.000
209.84	-650.000
210.21	780.000
210.59	-500.000
210.96	275.000
211.34	-1000.000
211.71	372.727
212.09	650.000
212.46	1600.000
212.84	-383.333
213.22	388.889
213.59	-2500.000
213.97	280.000
214.34	775.000
214.72	900.000
215.09	933.333
215.47	-2700.000
215.84	-150.000
216.22	-387.500
216.59	0.000
216.97	0.000
217.34	1300.000
217.72	-950.000
218.09	700.000
218.47	437.500
218.84	750.000
219.22	1066.667
219.59	800.000
219.97	571.429
220.34	355.556
220.72	1350.000
221.09	2600.000
221.47	258.333
221.84	600.000
222.22	290.000
222.59	194.444
222.97	214.286
223.34	237.500
223.72	-1550.000
224.09	1166.667
224.46	238.462
224.84	-725.000
225.21	288.889
225.59	273.333
225.96	1033.333
226.34	-480.000
226.71	-450.000
227.08	-600.000
227.46	0.000
227.83	-433.333
228.21	-1150.000
228.58	341.667
228.95	825.000
229.33	333.333
229.70	875.000
230.08	300.000
230.45	2800.000
230.82	-750.000
231.20	-966.667
231.57	-800.000
231.95	560.000
232.32	283.333
232.69	366.667
233.07	325.000
233.44	-1450.000
233.81	173.333
234.19	103.704
234.56	156.250
234.93	164.706
235.31	190.000
235.68	262.500
236.05	132.143
236.43	140.741
236.80	185.714
237.17	103.448
237.55	87.500
237.92	105.000
238.29	127.273
238.67	100.000
239.04	80.488
239.41	72.917
239.79	80.000
240.16	81.250
240.53	57.377
240.91	75.362
241.28	69.492
241.65	57.576
242.02	57.746
242.40	65.714
242.77	50.549
243.14	48.101
243.51	61.616
243.89	64.486
244.26	45.794
244.63	45.545
245.00	42.202
245.38	27.966
245.75	48.485
246.12	42.222
246.49	39.716
246.87	30.328
247.24	47.333
247.61	39.375
247.98	38.095
248.36	30.909
248.73	36.224
249.10	32.738
249.47	36.000
249.84	30.348
250.22	28.649
250.59	32.000
250.96	32.068
251.33	31.163
251.70	34.375
252.08	30.672
252.45	28.685
252.82	26.996
253.19	30.830
253.56	25.769
253.94	27.899
254.31	25.581
254.68	26.829
255.05	27.586
255.42	25.912
255.79	29.316
256.16	29.492
256.54	26.299
256.91	26.144
257.28	26.087
257.65	23.511
258.02	25.074
258.39	30.946
258.76	29.275
259.14	22.857
259.51	27.988
259.88	27.660
260.25	25.275
260.62	24.110
260.99	23.691
261.36	24.234
261.73	25.266
262.10	24.869
262.47	24.750
262.85	23.200
263.22	24.422
263.59	25.831
263.96	27.820
264.33	20.988
264.70	27.764
265.07	25.854
265.44	24.771
265.81	23.821
266.18	24.943
266.55	22.931
266.92	22.148
267.29	26.535
267.66	23.543
268.03	23.318
268.40	22.833
268.77	25.330
269.14	20.174
269.51	22.494
269.88	23.673
270.25	20.518
270.62	25.536
270.99	27.789
271.36	22.154
271.73	22.642
272.10	22.222
272.47	21.429
272.84	20.559
273.21	23.554
273.58	24.696
273.95	20.739
274.32	23.346
274.69	24.213
275.06	22.587
275.43	20.498
275.80	20.943
276.17	23.713
276.54	21.682
276.91	22.015
277.28	23.175
277.65	23.247
278.02	22.426
278.39	23.921
278.76	21.897
279.13	21.886
279.50	21.636
279.87	20.857
280.23	22.836
280.60	22.628
280.97	21.207
281.34	21.122
281.71	21.217
282.08	23.932
282.45	18.919
282.82	23.077
283.19	20.827
283.56	20.992
283.92	23.616
284.29	20.133
284.66	20.000
285.03	21.227
285.40	20.661
285.77	20.216
286.14	21.672
286.51	21.626
286.87	18.354
287.24	20.871
287.61	19.453
287.98	20.746
288.35	20.148
288.72	21.396
289.08	18.318
289.45	19.970
289.82	19.844
290.19	20.059
290.56	21.252
290.93	19.712
291.29	19.199
291.66	19.633
292.03	20.196
292.40	20.732
292.77	19.081
293.13	19.829
293.50	17.949
293.87	19.512
294.24	18.182
294.60	18.439
294.97	21.259
295.34	18.725
295.71	20.631
296.08	20.267
296.44	19.441
296.81	19.603
297.18	17.997
297.55	19.212
297.91	17.488
298.28	18.841
298.65	19.509
299.02	19.300
299.38	20.024
299.75	17.927
300.12	19.610
300.48	19.438
300.85	18.594
301.22	18.372
301.59	17.571
301.95	18.670
302.32	18.161
302.69	19.118
303.05	21.773
303.42	17.713
303.79	19.935
304.15	19.252
304.52	19.345
304.89	20.682
305.25	20.245
305.62	19.829
305.99	18.478
306.35	19.474
306.72	18.939
307.09	19.358
307.45	19.219
307.82	20.473
308.19	20.825
308.55	20.200
308.92	21.786
309.29	21.696
309.65	20.416
310.02	20.487
310.38	19.442
310.75	21.119
311.12	21.264
311.48	22.490
311.85	20.802
312.22	22.254
312.58	21.380
312.95	21.553
313.31	22.004
313.68	21.857
314.05	23.535
314.41	22.905
314.78	23.674
315.14	23.412
315.51	23.841
315.87	22.628
316.24	23.343
316.61	23.814
316.97	23.486
317.34	24.438
317.70	25.198
318.07	25.979
318.43	25.220
318.80	24.168
319.16	25.787
319.53	24.602
319.89	25.448
320.26	27.933
320.62	26.648
320.99	28.122
321.35	26.252
321.72	28.748
322.08	28.163
322.45	28.974
322.81	28.271
323.18	29.751
323.54	29.878
323.91	30.553
324.27	30.416
324.64	29.844
325.00	32.414
325.37	32.462
325.73	32.462
326.10	34.714
326.46	33.691
326.83	33.760
327.19	34.859
327.56	34.585
327.92	36.148
328.29	35.761
328.65	37.243
329.01	36.869
329.38	36.717
329.74	36.892
330.11	39.357
330.47	40.153
330.84	36.756
331.20	39.171
331.56	39.724
331.93	38.922
332.29	38.435
332.66	38.350
333.02	37.543
333.38	39.529
333.75	40.951
334.11	38.926
334.48	40.855
334.84	39.105
335.20	40.719
335.57	39.043
335.93	39.781
336.29	39.552
336.66	40.223
337.02	39.350
337.38	40.241
337.75	40.625
338.11	41.181
338.47	40.813
338.84	41.406
339.20	39.394
339.56	39.613
339.93	40.301
340.29	40.252
340.65	39.983
341.02	40.467
341.38	40.722
341.74	40.947
342.11	41.402
342.47	40.115
342.83	43.068
343.20	41.310
343.56	39.476
343.92	41.288
344.28	39.952
344.65	41.402
345.01	40.635
345.37	40.705
345.73	41.032
346.10	39.920
346.46	41.388
346.82	40.895
347.19	41.422
347.55	40.749
347.91	41.465
348.27	40.899
348.63	41.297
349.00	41.203
349.36	42.023
349.72	41.055
350.08	42.547
350.45	41.508
350.81	41.055
351.17	41.217
351.53	40.878
351.89	40.482
352.26	41.194
352.62	41.554
352.98	41.871
353.34	41.371
353.70	42.202
354.07	42.538
354.43	41.167
354.79	41.154
355.15	42.956
355.51	41.843
355.87	42.470
356.24	42.494
356.60	41.705
356.96	42.002
357.32	41.598
357.68	40.749
358.04	42.401
358.40	41.754
358.77	42.074
359.13	42.042
359.49	41.142
359.85	42.293
360.21	40.490
360.57	40.876
360.93	42.063
361.29	41.270
361.66	42.356
362.02	41.335
362.38	41.991
362.74	43.383
363.10	42.006
363.46	41.160
363.82	42.567
364.18	42.959
364.54	41.917
364.90	42.503
365.26	42.262
365.62	41.713
365.98	42.189
366.35	41.586
366.71	42.609
367.07	42.526
367.43	42.310
367.79	42.686
368.15	42.266
368.51	43.212
368.87	41.712
369.23	42.204
369.59	42.953
369.95	43.706
370.31	43.053
370.67	43.234
371.03	43.908
371.39	43.006
371.75	43.894
372.11	43.712
372.47	41.644
372.83	42.896
373.19	42.769
373.55	43.093
373.91	43.025
374.27	43.717
374.63	42.983
374.99	43.329
375.35	43.011
375.71	43.206
376.07	43.501
376.42	41.752
376.78	43.866
377.14	44.495
377.50	43.446
377.86	43.177
378.22	44.668
378.58	44.794
378.94	43.030
379.30	42.874
379.66	44.250
380.02	43.636
380.38	42.389
380.74	43.195
381.09	43.808
381.45	43.526
381.81	43.676
382.17	43.834
382.53	43.191
382.89	42.342
383.25	43.280
383.61	43.112
383.97	43.671
384.32	43.460
384.68	44.979
385.04	43.611
385.40	42.527
385.76	43.944
386.12	43.599
386.48	44.073
386.83	45.049
387.19	42.580
387.55	42.874
387.91	43.476
388.27	43.129
388.62	43.310
388.98	43.265
389.34	42.951
389.70	42.983
390.06	44.024
390.42	43.368
390.77	43.735
391.13	42.849
391.49	43.194
391.85	42.831
392.20	43.147
392.56	42.712
392.92	43.010
393.28	42.265
393.64	42.431
393.99	41.909
394.35	42.260
394.71	42.340
395.07	42.701
395.42	41.979
395.78	42.936
396.14	43.434
396.50	43.502
396.85	43.476
397.21	43.321
397.57	42.379
397.92	42.114
398.28	42.140
398.64	42.408
399.00	41.956
399.35	41.546
399.71	42.550
400.07	41.267
400.42	41.731
400.78	42.874
401.14	42.866
401.49	41.647
401.85	42.236
402.21	41.769
402.57	43.268
402.92	43.091
403.28	42.959
403.63	41.260
403.99	42.340
404.35	42.028
404.70	43.650
405.06	41.325
405.42	41.951
405.77	42.282
406.13	40.944
406.49	41.217
406.84	40.214
407.20	42.066
407.55	41.908
407.91	42.183
408.27	41.601
408.62	41.336
408.98	41.928
409.34	40.795
409.69	41.693
410.05	41.145
410.40	40.224
410.76	40.927
411.11	41.351
411.47	41.852
411.83	39.250
412.18	40.640
412.54	41.441
412.89	40.826
413.25	41.505
413.60	40.829
413.96	41.113
414.31	40.319
414.67	42.148
415.03	40.996
415.38	41.009
415.74	41.377
416.09	39.913
416.45	41.435
416.80	41.116
417.16	40.484
417.51	40.064
417.87	41.615
418.22	39.186
418.58	40.892
418.93	40.690
419.29	39.864
419.64	40.581
420.00	41.169
420.35	41.521
420.71	40.490
421.06	40.200
421.42	40.242
421.77	39.867
422.12	40.187
422.48	39.651
422.83	41.016
423.19	38.121
423.54	39.495
423.90	41.110
424.25	39.901
424.61	39.292
424.96	40.316
425.31	40.175
425.67	40.404
426.02	40.325
426.38	39.848
426.73	39.560
427.09	41.400
427.44	39.561
427.79	40.652
428.15	40.837
428.50	40.000
428.85	40.388
429.21	40.249
429.56	39.382
429.92	40.278
430.27	39.816
430.62	38.815
430.98	38.872
431.33	39.667
431.68	38.765
432.04	39.834
432.39	40.724
432.74	40.515
433.10	39.756
433.45	39.977
433.80	39.989
434.16	39.254
434.51	39.732
434.86	40.555
435.22	40.573
435.57	40.486
435.92	40.979
436.28	40.035
436.63	39.438
436.98	40.766
437.34	40.240
437.69	38.746
438.04	40.860
438.39	40.689
438.75	39.866
439.10	40.313
439.45	39.062
439.81	39.965
440.16	39.791
440.51	39.696
440.86	40.342
441.22	40.152
441.57	40.735
441.92	39.832
442.27	39.639
442.63	40.091
442.98	38.308
443.33	39.743
443.68	38.984
444.03	39.491
444.39	39.171
444.74	38.975
445.09	39.336
445.44	39.957
445.79	40.351
446.15	39.789
446.50	39.241
446.85	38.894
447.20	38.607
447.55	39.750
447.91	39.957
448.26	39.244
448.61	40.022
448.96	40.577
449.31	38.889
449.66	39.701
450.02	38.898
450.37	39.867
450.72	40.110
451.07	39.151
451.42	39.834
451.77	40.493
452.12	39.762
452.47	39.915
452.83	40.225
453.18	40.180
453.53	38.603
453.88	40.057
454.23	39.977
454.58	39.510
454.93	40.037
455.28	40.942
455.63	39.007
455.98	39.932
456.34	39.878
456.69	39.695
457.04	39.678
457.39	39.257
457.74	39.358
458.09	39.023
458.44	38.992
458.79	39.576
459.14	38.953
459.49	39.015
459.84	39.620
460.19	39.379
460.54	39.031
460.89	39.392
461.24	38.774
461.59	39.399
461.94	39.007
462.29	39.016
462.64	39.008
462.99	39.283
463.34	39.598
463.69	39.867
464.04	40.127
464.39	38.695
464.74	38.218
465.09	39.698
465.44	39.282
465.79	38.596
466.14	39.269
466.49	38.307
466.84	37.904
467.19	38.371
467.54	38.859
467.89	38.908
468.24	39.433
468.59	38.988
468.94	38.466
469.29	38.424
469.64	38.714
469.99	38.946
470.34	38.393
470.68	37.586
471.03	40.427
471.38	39.735
471.73	38.602
472.08	39.922
472.43	39.541
472.78	38.860
473.13	37.797
473.48	38.142
473.83	38.751
474.17	38.602
474.52	37.974
474.87	37.464
475.22	38.150
475.57	37.775
475.92	37.455
476.27	37.432
476.61	36.729
476.96	38.506
477.31	38.201
477.66	38.218
478.01	37.597
478.36	38.877
478.70	37.469
479.05	38.441
479.40	37.500
479.75	37.885
480.10	38.045
480.45	37.535
480.79	37.512
481.14	37.137
481.49	37.237
481.84	37.335
482.19	37.162
482.53	36.978
482.88	37.366
483.23	36.536
483.58	37.567
483.92	37.934
484.27	36.687
484.62	37.394
484.97	35.645
485.31	35.612
485.66	35.055
486.01	34.338
486.36	33.199
486.70	33.059
487.05	33.239
487.40	34.663
487.75	34.751
488.09	35.057
488.44	35.468
488.79	35.821
489.13	35.797
489.48	36.596
489.83	36.322
490.17	35.549
490.52	35.831
490.87	36.681
491.22	37.145
491.56	36.320
491.91	36.066
492.26	35.991
492.60	35.900
492.95	36.112
493.30	36.215
493.64	36.658
493.99	36.449
494.34	36.351
494.68	35.812
495.03	35.788
495.37	36.155
495.72	36.923
496.07	36.523
496.41	35.317
496.76	35.711
497.11	35.818
497.45	35.116
497.80	36.469
498.14	35.229
498.49	35.887
498.84	36.542
499.18	35.009
499.53	37.115
499.87	35.939
500.22	36.435
500.56	36.165
500.91	36.039
501.26	36.059
501.60	35.656
501.95	35.663
502.29	35.244
502.64	34.760
502.98	35.082
503.33	34.388
503.67	34.879
504.02	34.931
504.36	35.294
504.71	35.430
505.06	34.866
505.40	34.581
505.75	35.407
506.09	35.698
506.44	35.855
506.78	35.775
507.13	35.628
507.47	35.129
507.82	35.669
508.16	35.963
508.51	35.942
508.85	35.185
509.19	35.781
509.54	35.254
509.88	36.151
510.23	35.686
510.57	35.135
510.92	36.364
511.26	35.442
511.61	35.204
511.95	34.694
512.30	35.000
512.64	34.995
512.98	34.700
513.33	35.605
513.67	35.629
514.02	35.481
514.36	34.112
514.70	35.307
515.05	33.777
515.39	37.116
515.74	35.867
516.08	34.858
516.42	36.120
516.77	34.560
517.11	34.987
517.46	34.806
517.80	34.407
518.14	35.944
518.49	35.116
518.83	34.121
519.17	35.441
519.52	36.537
519.86	35.204
520.20	35.178
520.55	35.048
520.89	34.885
521.23	35.572
521.58	35.169
521.92	35.510
522.26	34.419
522.61	35.948
522.95	36.096
523.29	35.146
523.64	34.277
523.98	35.387
524.32	34.429
524.66	35.130
525.01	34.852
525.35	34.944
525.69	35.340
526.04	35.158
526.38	34.550
526.72	35.143
527.06	34.891
527.41	36.094
527.75	35.240
528.09	34.196
528.43	35.876
528.78	35.480
529.12	35.882
529.46	34.833
529.80	34.346
530.15	34.826
530.49	33.815
530.83	34.491
531.17	34.625
531.51	34.948
531.86	33.696
532.20	33.436
532.54	35.217
532.88	35.166
533.22	34.674
533.57	34.289
533.91	33.508
534.25	32.660
534.59	33.333
534.93	33.220
535.27	32.783
535.62	32.614
535.96	33.452
536.30	34.247
536.64	35.031
536.98	33.732
537.32	34.000
537.66	33.610
538.01	33.313
538.35	34.435
538.69	33.070
539.03	33.085
539.37	32.767
539.71	33.210
540.05	33.354
540.39	33.899
540.73	33.354
541.07	32.434
541.42	33.893
541.76	33.600
542.10	32.922
542.44	33.229
542.78	32.662
543.12	32.577
543.46	33.396
543.80	33.020
544.14	33.437
544.48	33.029
544.82	33.761
545.16	32.119
545.50	33.497
545.84	33.586
546.18	33.745
546.52	33.574
546.86	34.043
547.20	33.204
547.54	32.489
547.88	32.847
548.22	32.848
548.56	31.291
548.90	32.028
549.24	32.912
549.58	32.216
549.92	31.893
550.26	32.928
550.60	33.333
550.94	33.243
551.28	32.759
551.62	34.069
551.96	33.176
552.30	31.378
552.64	32.362
552.98	31.701
553.32	32.138
553.66	31.270
554.00	31.210
554.34	32.557
554.68	32.863
555.02	32.111
555.36	31.582
555.69	33.573
556.03	31.529
556.37	31.358
556.71	33.312
557.05	30.996
557.39	31.133
557.73	32.278
558.07	32.059
558.41	32.762
558.75	32.490
559.08	33.024
559.42	32.283
559.76	32.502
560.10	32.416
560.44	31.387
560.78	31.650
561.12	31.786
561.45	31.414
561.79	31.211
562.13	31.017
562.47	31.343
562.81	32.141
563.15	31.092
563.48	30.248
563.82	31.691
564.16	31.654
564.50	30.621
564.84	31.185
565.17	30.600
565.51	32.020
565.85	32.079
566.19	31.012
566.52	30.325
566.86	31.115
567.20	31.124
567.54	30.841
567.88	30.256
568.21	29.955
568.55	29.572
568.89	29.745
569.23	29.292
569.56	29.473
569.90	28.494
570.24	28.961
570.57	28.066
570.91	27.613
571.25	27.610
571.59	26.791
571.92	26.749
572.26	26.577
572.60	26.520
572.93	27.113
573.27	26.910
573.61	26.584
573.95	26.270
574.28	26.491
574.62	26.036
574.96	26.266
575.29	25.334
575.63	25.724
575.97	25.779
576.30	25.639
576.64	26.344
576.98	25.981
577.31	26.047
577.65	25.781
577.98	25.380
578.32	25.192
578.66	24.981
578.99	25.362
579.33	25.507
579.67	25.917
580.00	25.705
580.34	25.838
580.67	25.168
581.01	25.631
581.35	25.403
581.68	25.063
582.02	24.575
582.35	24.611
582.69	24.935
583.02	24.890
583.36	25.290
583.70	25.594
584.03	26.647
584.37	25.972
584.70	25.056
585.04	25.387
585.37	24.977
585.71	25.596
586.04	24.915
586.38	25.305
586.72	25.689
587.05	25.965
587.39	25.664
587.72	25.592
588.06	25.776
588.39	25.384
588.73	25.661
589.06	25.824
589.40	25.853
589.73	26.680
590.07	26.596
590.40	26.899
590.73	27.947
591.07	27.249
591.40	26.387
591.74	26.705
592.07	26.290
592.41	27.178
592.74	26.547
593.08	26.172
593.41	25.583
593.75	25.359
594.08	25.685
594.41	26.458
594.75	25.856
595.08	25.960
595.42	26.959
595.75	26.423
596.09	26.382
596.42	27.094
596.75	27.003
597.09	26.868
597.42	27.020
597.75	26.288
598.09	26.057
598.42	26.357
598.76	26.176
599.09	26.149
599.42	25.433
599.76	25.611
600.09	25.119
600.42	25.932
600.76	25.357
601.09	25.544
601.42	25.695
601.76	25.564
602.09	26.122
602.42	25.915
602.76	25.806
603.09	26.546
603.42	26.349
603.76	25.560
604.09	25.878
604.42	25.537
604.76	26.235
605.09	25.837
605.42	26.168
605.75	26.490
606.09	26.090
606.42	25.742
606.75	26.467
607.09	25.227
607.42	25.753
607.75	26.314
608.08	25.142
608.42	26.133
608.75	25.503
609.08	26.353
609.41	26.045
609.75	26.969
610.08	25.809
610.41	25.780
610.74	25.974
611.07	26.512
611.41	26.506
611.74	27.151
612.07	26.397
612.40	26.365
612.73	27.459
613.07	27.015
613.40	26.566
613.73	26.810
614.06	26.100
614.39	26.515
614.72	26.419
615.06	25.569
615.39	25.000
615.72	25.750
616.05	27.423
616.38	26.078
616.71	26.370
617.05	26.304
617.38	25.843
617.71	27.053
618.04	27.201
618.37	26.681
618.70	26.501
619.03	27.350
619.36	28.392
619.69	27.243
620.03	27.332
620.36	27.553
620.69	28.480
621.02	28.193
621.35	27.364
621.68	28.319
622.01	28.487
622.34	28.478
622.67	27.809
623.00	27.434
623.33	27.126
623.66	26.880
623.99	28.219
624.32	28.117
624.65	26.860
624.99	27.924
625.32	26.587
625.65	26.966
625.98	27.406
626.31	27.967
626.64	27.031
626.97	28.998
627.30	28.183
627.63	28.807
627.96	27.621
628.29	29.043
628.62	27.887
628.95	29.433
629.28	29.360
629.61	28.559
629.94	28.695
630.26	29.029
630.59	29.610
630.92	28.789
631.25	28.921
