SpectraSuite Data File
++++++++++++++++++++++++++++++++++++
Date: Wed May 13 21:47:03 PDT 2015
User: schluterlab
Dark Spectrum Present: Yes
Reference Spectrum Present: Yes
Number of Sampled Component Spectra: 1
Spectrometers: USB2E3373
Integration Time (usec): 3000 (USB2E3373)
Spectra Averaged: 3 (USB2E3373)
Boxcar Smoothing: 0 (USB2E3373)
Correct for Electrical Dark: No (USB2E3373)
Strobe/Lamp Enabled: No (USB2E3373)
Correct for Detector Non-linearity: No (USB2E3373)
Correct for Stray Light: No (USB2E3373)
Number of Pixels in Processed Spectrum: 2048
>>>>>Begin Processed Spectral Data<<<<<
178.53	0.000
178.91	650.000
179.29	175.000
179.67	-550.000
180.04	-633.333
180.42	200.000
180.80	1300.000
181.18	350.000
181.56	-475.000
181.94	-200.000
182.31	-9.091
182.69	76.923
183.07	-140.000
183.45	300.000
183.83	55.556
184.20	100.000
184.58	0.000
184.96	300.000
185.34	328.571
185.72	0.000
186.09	-300.000
186.47	-260.000
186.85	80.000
187.23	50.000
187.61	300.000
187.98	500.000
188.36	-75.000
188.74	0.000
189.12	-9.091
189.49	20.000
189.87	225.000
190.25	260.000
190.63	800.000
191.00	-220.000
191.38	240.000
191.76	250.000
192.14	150.000
192.51	26.316
192.89	466.667
193.27	175.000
193.65	-100.000
194.02	145.455
194.40	120.000
194.78	-900.000
195.15	200.000
195.53	-160.000
195.91	-125.000
196.29	-33.333
196.66	0.000
197.04	350.000
197.42	-120.000
197.79	70.000
198.17	-25.000
198.55	-300.000
198.92	150.000
199.30	-433.333
199.68	0.000
200.05	150.000
200.43	183.333
200.81	-1100.000
201.18	-20.000
201.56	-266.667
201.94	625.000
202.31	39.130
202.69	-28.571
203.07	-200.000
203.44	-280.000
203.82	-400.000
204.19	30.000
204.57	0.000
204.95	-166.667
205.32	0.000
205.70	-100.000
206.08	-150.000
206.45	-100.000
206.83	425.000
207.20	-466.667
207.58	-130.000
207.96	-400.000
208.33	-142.857
208.71	-2000.000
209.08	225.000
209.46	425.000
209.84	0.000
210.21	140.000
210.59	1700.000
210.96	280.000
211.34	1400.000
211.71	-700.000
212.09	-183.333
212.46	-120.000
212.84	-200.000
213.22	75.000
213.59	-900.000
213.97	-750.000
214.34	-700.000
214.72	-38.462
215.09	150.000
215.47	133.333
215.84	250.000
216.22	25.000
216.59	-100.000
216.97	433.333
217.34	144.444
217.72	0.000
218.09	400.000
218.47	-1000.000
218.84	-114.286
219.22	-75.000
219.59	66.667
219.97	0.000
220.34	37.500
220.72	-120.000
221.09	0.000
221.47	-83.333
221.84	400.000
222.22	0.000
222.59	900.000
222.97	-33.333
223.34	-83.333
223.72	-200.000
224.09	-900.000
224.46	-72.727
224.84	-25.000
225.21	-128.571
225.59	-375.000
225.96	-100.000
226.34	-30.000
226.71	-157.143
227.08	450.000
227.46	-37.500
227.83	-1000.000
228.21	-18.750
228.58	-350.000
228.95	-17.647
229.33	18.750
229.70	-12.500
230.08	38.462
230.45	-112.500
230.82	-58.333
231.20	257.143
231.57	-325.000
231.95	900.000
232.32	0.000
232.69	52.941
233.07	-1600.000
233.44	-21.739
233.81	-150.000
234.19	45.833
234.56	-46.667
234.93	-20.000
235.31	10.526
235.68	-92.308
236.05	53.846
236.43	-16.667
236.80	-3.030
237.17	-80.000
237.55	0.000
237.92	-10.345
238.29	-51.852
238.67	-13.889
239.04	-9.677
239.41	10.638
239.79	12.766
240.16	11.628
240.53	8.929
240.91	3.571
241.28	1.786
241.65	3.226
242.02	0.000
242.40	15.942
242.77	-4.348
243.14	12.821
243.51	10.638
243.89	14.423
244.26	26.415
244.63	14.423
245.00	12.500
245.38	9.244
245.75	13.115
246.12	12.030
246.49	9.756
246.87	4.202
247.24	16.216
247.61	13.907
247.98	14.103
248.36	10.059
248.73	1.124
249.10	10.606
249.47	13.978
249.84	15.263
250.22	22.388
250.59	13.551
250.96	20.909
251.33	7.177
251.70	17.573
252.08	17.573
252.45	14.403
252.82	19.011
253.19	15.175
253.56	13.669
253.94	17.438
254.31	14.437
254.68	17.114
255.05	19.472
255.42	13.287
255.79	16.871
256.16	19.243
256.54	15.238
256.91	10.443
257.28	18.868
257.65	13.376
258.02	17.595
258.39	17.544
258.76	14.244
259.14	21.875
259.51	14.607
259.88	15.447
260.25	18.056
260.62	14.607
260.99	19.629
261.36	19.948
261.73	17.037
262.10	14.758
262.47	13.086
262.85	16.169
263.22	16.923
263.59	16.623
263.96	19.465
264.33	15.144
264.70	17.209
265.07	18.981
265.44	18.851
265.81	17.849
266.18	17.768
266.55	17.031
266.92	15.678
267.29	17.284
267.66	19.321
268.03	19.342
268.40	14.831
268.77	16.116
269.14	20.204
269.51	18.686
269.88	17.312
270.25	18.644
270.62	17.623
270.99	16.732
271.36	17.262
271.73	19.277
272.10	15.619
272.47	16.315
272.84	19.094
273.21	16.830
273.58	18.648
273.95	16.981
274.32	16.978
274.69	19.308
275.06	19.081
275.43	18.267
275.80	17.730
276.17	16.943
276.54	16.874
276.91	14.634
277.28	17.148
277.65	15.559
278.02	18.750
278.39	16.341
278.76	17.057
279.13	16.810
279.50	17.414
279.87	16.667
280.23	15.856
280.60	16.609
280.97	15.584
281.34	17.192
281.71	14.959
282.08	16.923
282.45	17.705
282.82	17.252
283.19	19.360
283.56	16.094
283.92	19.725
284.29	17.161
284.66	15.815
285.03	17.590
285.40	16.918
285.77	17.417
286.14	18.237
286.51	18.291
286.87	16.615
287.24	17.552
287.61	16.265
287.98	16.912
288.35	16.393
288.72	16.930
289.08	17.094
289.45	14.831
289.82	18.154
290.19	18.093
290.56	16.619
290.93	16.851
291.29	15.595
291.66	16.803
292.03	17.166
292.40	16.958
292.77	16.867
293.13	16.179
293.50	14.902
293.87	16.267
294.24	15.873
294.60	15.475
294.97	17.989
295.34	13.588
295.71	15.243
296.08	15.445
296.44	15.306
296.81	14.007
297.18	14.500
297.55	15.094
297.91	17.391
298.28	15.133
298.65	14.039
299.02	16.728
299.38	14.110
299.75	14.183
300.12	13.837
300.48	13.333
300.85	15.242
301.22	14.402
301.59	13.967
301.95	14.402
302.32	14.119
302.69	13.559
303.05	15.282
303.42	14.432
303.79	15.457
304.15	14.458
304.52	14.731
304.89	14.175
305.25	14.599
305.62	15.076
305.99	15.234
306.35	15.883
306.72	14.751
307.09	15.016
307.45	14.590
307.82	13.263
308.19	13.271
308.55	14.125
308.92	15.521
309.29	13.814
309.65	14.685
310.02	14.513
310.38	14.837
310.75	14.398
311.12	14.966
311.48	14.738
311.85	15.453
312.22	15.667
312.58	14.010
312.95	14.030
313.31	14.601
313.68	14.313
314.05	15.217
314.41	14.409
314.78	14.991
315.14	15.463
315.51	15.224
315.87	15.014
316.24	15.611
316.61	16.256
316.97	15.185
317.34	14.795
317.70	16.146
318.07	16.149
318.43	15.808
318.80	14.136
319.16	14.324
319.53	14.785
319.89	15.628
320.26	14.418
320.62	15.385
320.99	14.535
321.35	14.593
321.72	15.688
322.08	15.037
322.45	14.431
322.81	15.250
323.18	15.206
323.54	15.523
323.91	16.260
324.27	15.572
324.64	15.592
325.00	15.661
325.37	16.297
325.73	14.562
326.10	16.569
326.46	15.719
326.83	15.858
327.19	15.772
327.56	15.794
327.92	15.607
328.29	16.277
328.65	15.688
329.01	14.160
329.38	15.652
329.74	16.223
330.11	15.329
330.47	14.670
330.84	15.704
331.20	14.774
331.56	14.946
331.93	15.504
332.29	16.681
332.66	15.847
333.02	15.986
333.38	15.877
333.75	15.017
334.11	15.451
334.48	15.606
334.84	14.753
335.20	15.609
335.57	13.925
335.93	15.636
336.29	14.186
336.66	15.385
337.02	15.478
337.38	14.447
337.75	14.556
338.11	14.176
338.47	14.555
338.84	15.464
339.20	15.520
339.56	14.932
339.93	14.347
340.29	15.371
340.65	15.654
341.02	16.306
341.38	15.034
341.74	14.538
342.11	14.121
342.47	14.310
342.83	14.297
343.20	13.875
343.56	14.473
343.92	14.622
344.28	14.692
344.65	15.020
345.01	13.640
345.37	14.885
345.73	14.869
346.10	15.329
346.46	14.146
346.82	15.169
347.19	14.478
347.55	14.863
347.91	14.108
348.27	14.038
348.63	13.782
349.00	13.994
349.36	14.835
349.72	14.617
350.08	14.353
350.45	14.174
350.81	15.180
351.17	15.012
351.53	15.240
351.89	13.979
352.26	13.436
352.62	14.109
352.98	13.099
353.34	13.607
353.70	14.019
354.07	13.804
354.43	14.152
354.79	15.625
355.15	13.199
355.51	13.440
355.87	14.621
356.24	13.804
356.60	14.073
356.96	13.200
357.32	14.009
357.68	13.980
358.04	13.887
358.40	14.574
358.77	14.220
359.13	14.397
359.49	13.929
359.85	13.495
360.21	14.109
360.57	13.460
360.93	13.505
361.29	14.508
361.66	14.579
362.02	13.936
362.38	13.737
362.74	13.561
363.10	13.811
363.46	13.401
363.82	14.265
364.18	13.343
364.54	13.640
364.90	13.449
365.26	13.305
365.62	13.920
365.98	14.093
366.35	13.972
366.71	13.409
367.07	13.820
367.43	14.007
367.79	14.246
368.15	13.643
368.51	13.221
368.87	14.585
369.23	13.381
369.59	14.588
369.95	13.353
370.31	13.459
370.67	13.613
371.03	14.254
371.39	14.407
371.75	13.643
372.11	14.103
372.47	13.410
372.83	14.078
373.19	13.309
373.55	13.295
373.91	14.215
374.27	13.762
374.63	13.300
374.99	13.092
375.35	13.973
375.71	13.927
376.07	14.462
376.42	13.904
376.78	14.531
377.14	13.898
377.50	14.342
377.86	13.546
378.22	13.401
378.58	13.367
378.94	15.000
379.30	13.804
379.66	14.242
380.02	14.093
380.38	15.120
380.74	13.867
381.09	14.415
381.45	14.208
381.81	13.802
382.17	14.052
382.53	14.277
382.89	13.329
383.25	14.321
383.61	15.375
383.97	13.250
384.32	13.800
384.68	14.250
385.04	13.806
385.40	14.197
385.76	14.355
386.12	15.300
386.48	14.608
386.83	13.892
387.19	14.127
387.55	14.224
387.91	14.760
388.27	13.933
388.62	13.858
388.98	14.643
389.34	13.534
389.70	14.408
390.06	13.812
390.42	14.175
390.77	14.029
391.13	13.384
391.49	14.105
391.85	14.377
392.20	13.471
392.56	14.476
392.92	14.277
393.28	13.829
393.64	13.700
393.99	13.341
394.35	14.321
394.71	14.808
395.07	12.767
395.42	13.102
395.78	14.157
396.14	14.141
396.50	13.951
396.85	14.659
397.21	13.296
397.57	13.975
397.92	13.713
398.28	15.116
398.64	14.390
399.00	14.342
399.35	14.132
399.71	13.803
400.07	13.373
400.42	13.918
400.78	13.716
401.14	13.427
401.49	13.901
401.85	13.575
402.21	14.489
402.57	14.531
402.92	14.831
403.28	14.447
403.63	13.453
403.99	13.820
404.35	14.152
404.70	13.293
405.06	14.210
405.42	13.442
405.77	14.171
406.13	13.771
406.49	13.421
406.84	13.919
407.20	13.973
407.55	13.571
407.91	14.692
408.27	13.475
408.62	13.996
408.98	13.502
409.34	13.304
409.69	13.320
410.05	13.993
410.40	13.086
410.76	13.959
411.11	14.490
411.47	15.262
411.83	13.288
412.18	13.917
412.54	14.599
412.89	12.915
413.25	13.392
413.60	14.044
413.96	13.233
414.31	14.057
414.67	13.524
415.03	13.464
415.38	13.078
415.74	13.905
416.09	14.012
416.45	14.354
416.80	14.765
417.16	14.507
417.51	13.664
417.87	13.161
418.22	14.350
418.58	13.798
418.93	14.375
419.29	13.531
419.64	13.740
420.00	13.651
420.35	13.568
420.71	14.321
421.06	14.945
421.42	14.720
421.77	13.699
422.12	13.983
422.48	13.850
422.83	13.822
423.19	14.146
423.54	14.370
423.90	14.074
424.25	14.385
424.61	14.664
424.96	14.548
425.31	14.021
425.67	13.757
426.02	15.489
426.38	14.490
426.73	14.111
427.09	13.946
427.44	14.797
427.79	13.955
428.15	14.312
428.50	13.897
428.85	14.514
429.21	14.069
429.56	14.612
429.92	14.159
430.27	14.519
430.62	14.900
430.98	13.908
431.33	13.810
431.68	14.271
432.04	14.028
432.39	13.915
432.74	13.918
433.10	15.107
433.45	14.852
433.80	14.138
434.16	14.637
434.51	14.837
434.86	14.429
435.22	13.922
435.57	13.821
435.92	14.174
436.28	14.294
436.63	14.723
436.98	14.865
437.34	14.591
437.69	14.109
438.04	14.035
438.39	14.633
438.75	14.899
439.10	15.211
439.45	15.678
439.81	14.594
440.16	15.362
440.51	14.685
440.86	15.590
441.22	14.745
441.57	14.859
441.92	15.448
442.27	14.665
442.63	14.370
442.98	14.699
443.33	15.011
443.68	15.129
444.03	15.201
444.39	15.568
444.74	15.019
445.09	15.804
445.44	15.549
445.79	14.662
446.15	16.195
446.50	15.088
446.85	16.462
447.20	15.264
447.55	15.053
447.91	15.056
448.26	15.552
448.61	15.593
448.96	15.888
449.31	15.991
449.66	16.079
450.02	15.804
450.37	15.041
450.72	16.131
451.07	16.050
451.42	15.284
451.77	15.642
452.12	16.162
452.47	16.204
452.83	15.212
453.18	15.786
453.53	16.078
453.88	16.024
454.23	16.687
454.58	16.483
454.93	15.074
455.28	16.442
455.63	15.471
455.98	15.520
456.34	16.402
456.69	16.102
457.04	15.851
457.39	15.935
457.74	14.961
458.09	15.699
458.44	15.746
458.79	15.761
459.14	14.775
459.49	16.098
459.84	16.122
460.19	15.486
460.54	17.275
460.89	15.991
461.24	15.845
461.59	15.882
461.94	16.688
462.29	14.767
462.64	15.699
462.99	16.432
463.34	15.953
463.69	16.753
464.04	15.786
464.39	16.290
464.74	16.032
465.09	15.995
465.44	16.442
465.79	16.216
466.14	16.078
466.49	16.598
466.84	17.035
467.19	15.796
467.54	17.045
467.89	15.965
468.24	16.656
468.59	16.189
468.94	16.092
469.29	15.664
469.64	17.225
469.99	17.034
470.34	16.251
470.68	16.059
471.03	16.502
471.38	16.342
471.73	16.187
472.08	16.289
472.43	16.095
472.78	16.768
473.13	15.501
473.48	16.438
473.83	16.761
474.17	16.341
474.52	16.893
474.87	15.621
475.22	17.029
475.57	16.564
475.92	16.412
476.27	16.434
476.61	16.308
476.96	15.877
477.31	15.858
477.66	16.441
478.01	16.264
478.36	16.621
478.70	17.025
479.05	17.092
479.40	16.277
479.75	17.216
480.10	16.063
480.45	16.430
480.79	16.476
481.14	16.515
481.49	16.724
481.84	16.211
482.19	16.396
482.53	16.667
482.88	16.107
483.23	16.121
483.58	16.588
483.92	16.099
484.27	16.057
484.62	16.201
484.97	16.508
485.31	16.411
485.66	16.135
486.01	16.071
486.36	16.519
486.70	16.307
487.05	16.835
487.40	16.684
487.75	16.767
488.09	16.234
488.44	16.193
488.79	17.070
489.13	16.700
489.48	16.375
489.83	16.525
490.17	16.387
490.52	16.830
490.87	16.690
491.22	16.816
491.56	16.627
491.91	16.515
492.26	17.311
492.60	16.354
492.95	17.104
493.30	16.473
493.64	15.588
493.99	16.908
494.34	17.341
494.68	16.897
495.03	16.749
495.37	16.837
495.72	16.140
496.07	16.464
496.41	16.752
496.76	16.545
497.11	16.808
497.45	16.586
497.80	17.062
498.14	16.877
498.49	16.541
498.84	16.852
499.18	16.426
499.53	15.903
499.87	16.060
500.22	17.073
500.56	17.101
500.91	17.304
501.26	17.586
501.60	15.686
501.95	16.627
502.29	16.553
502.64	16.972
502.98	16.667
503.33	16.545
503.67	16.504
504.02	16.765
504.36	16.394
504.71	16.616
505.06	17.575
505.40	16.443
505.75	17.345
506.09	16.147
506.44	17.288
506.78	17.268
507.13	17.100
507.47	16.967
507.82	17.425
508.16	16.887
508.51	16.890
508.85	17.055
509.19	17.249
509.54	17.051
509.88	17.366
510.23	16.579
510.57	16.261
510.92	17.026
511.26	17.272
511.61	16.081
511.95	16.814
512.30	16.102
512.64	17.367
512.98	16.787
513.33	16.958
513.67	17.320
514.02	16.990
514.36	16.798
514.70	16.975
515.05	17.437
515.39	17.335
515.74	17.762
516.08	16.519
516.42	17.051
516.77	16.110
517.11	16.402
517.46	16.807
517.80	18.099
518.14	15.983
518.49	16.878
518.83	16.826
519.17	15.843
519.52	17.189
519.86	16.636
520.20	17.101
520.55	17.351
520.89	16.825
521.23	17.115
521.58	17.257
521.92	16.845
522.26	16.331
522.61	16.484
522.95	17.487
523.29	17.079
523.64	16.529
523.98	16.328
524.32	17.202
524.66	16.818
525.01	16.514
525.35	17.380
525.69	16.634
526.04	17.199
526.38	17.591
526.72	15.911
527.06	16.248
527.41	16.281
527.75	16.155
528.09	17.903
528.43	17.503
528.78	16.796
529.12	16.818
529.46	17.083
529.80	16.117
530.15	16.731
530.49	17.385
530.83	16.114
531.17	17.192
531.51	16.453
531.86	17.005
532.20	16.609
532.54	16.138
532.88	16.746
533.22	16.498
533.57	16.954
533.91	17.419
534.25	16.667
534.59	16.474
534.93	16.518
535.27	17.006
535.62	16.184
535.96	17.892
536.30	16.822
536.64	16.678
536.98	15.837
537.32	16.726
537.66	16.502
538.01	16.436
538.35	15.470
538.69	15.719
539.03	17.181
539.37	16.164
539.71	15.757
540.05	15.655
540.39	15.967
540.73	16.760
541.07	15.578
541.42	16.700
541.76	16.712
542.10	15.978
542.44	15.038
542.78	16.586
543.12	16.577
543.46	15.135
543.80	16.090
544.14	16.724
544.48	15.395
544.82	16.005
545.16	16.024
545.50	16.745
545.84	15.708
546.18	16.129
546.52	15.737
546.86	15.477
547.20	17.441
547.54	16.011
547.88	15.992
548.22	15.505
548.56	16.077
548.90	15.832
549.24	16.111
549.58	16.014
549.92	17.461
550.26	17.269
550.60	15.766
550.94	15.970
551.28	15.594
551.62	16.842
551.96	16.032
552.30	16.448
552.64	16.525
552.98	16.264
553.32	16.294
553.66	16.214
554.00	16.775
554.34	15.165
554.68	16.779
555.02	16.018
555.36	16.566
555.69	14.931
556.03	16.226
556.37	15.861
556.71	16.608
557.05	16.015
557.39	15.448
557.73	17.322
558.07	14.469
558.41	16.881
558.75	16.320
559.08	15.317
559.42	16.444
559.76	15.596
560.10	15.527
560.44	16.581
560.78	15.540
561.12	16.398
561.45	15.918
561.79	16.437
562.13	15.963
562.47	16.571
562.81	15.657
563.15	16.856
563.48	16.380
563.82	15.321
564.16	15.978
564.50	16.079
564.84	16.081
565.17	16.424
565.51	15.374
565.85	14.524
566.19	15.960
566.52	16.055
566.86	15.992
567.20	15.638
567.54	15.774
567.88	15.230
568.21	15.481
568.55	16.119
568.89	15.304
569.23	15.720
569.56	15.144
569.90	15.452
570.24	15.307
570.57	15.490
570.91	15.646
571.25	15.255
571.59	15.183
571.92	14.843
572.26	15.593
572.60	14.844
572.93	15.401
573.27	15.244
573.61	15.577
573.95	14.807
574.28	15.133
574.62	15.552
574.96	15.207
575.29	14.895
575.63	15.306
575.97	15.489
576.30	14.950
576.64	15.169
576.98	15.414
577.31	15.027
577.65	14.734
577.98	14.877
578.32	14.896
578.66	14.960
578.99	15.141
579.33	14.793
579.67	15.097
580.00	15.031
580.34	14.857
580.67	14.797
581.01	14.902
581.35	14.778
581.68	15.105
582.02	14.919
582.35	15.399
582.69	14.686
583.02	14.807
583.36	15.477
583.70	15.345
584.03	15.152
584.37	15.082
584.70	15.100
585.04	14.973
585.37	14.970
585.71	15.292
586.04	15.063
586.38	15.128
586.72	14.892
587.05	15.228
587.39	15.178
587.72	14.947
588.06	14.856
588.39	15.057
588.73	14.681
589.06	14.646
589.40	15.445
589.73	15.056
590.07	15.166
590.40	14.805
590.73	15.316
591.07	15.462
591.40	14.957
591.74	15.385
592.07	15.290
592.41	15.230
592.74	15.702
593.08	15.214
593.41	15.318
593.75	15.149
594.08	15.060
594.41	15.210
594.75	14.880
595.08	15.646
595.42	15.247
595.75	15.076
596.09	15.089
596.42	15.441
596.75	15.884
597.09	15.833
597.42	15.388
597.75	15.556
598.09	14.891
598.42	15.570
598.76	15.155
599.09	15.366
599.42	14.766
599.76	14.983
600.09	14.797
600.42	14.878
600.76	14.967
601.09	15.217
601.42	15.210
601.76	14.865
602.09	15.971
602.42	16.220
602.76	14.975
603.09	15.729
603.42	15.674
603.76	14.926
604.09	15.375
604.42	14.483
604.76	15.146
605.09	15.677
605.42	15.655
605.75	14.433
606.09	14.652
606.42	15.544
606.75	14.675
607.09	15.381
607.42	14.974
607.75	15.011
608.08	15.645
608.42	14.433
608.75	14.572
609.08	14.993
609.41	15.301
609.75	14.977
610.08	15.187
610.41	15.160
610.74	15.303
611.07	15.331
611.41	15.507
611.74	15.735
612.07	15.320
612.40	15.838
612.73	14.929
613.07	15.244
613.40	15.584
613.73	15.222
614.06	15.478
614.39	14.397
614.72	15.325
615.06	15.333
615.39	14.238
615.72	14.363
616.05	15.315
616.38	15.292
616.71	14.697
617.05	14.926
617.38	15.034
617.71	15.135
618.04	14.991
618.37	14.953
618.70	14.618
619.03	15.189
619.36	15.302
619.69	14.327
620.03	14.064
620.36	15.101
620.69	14.061
621.02	15.308
621.35	13.982
621.68	15.485
622.01	14.887
622.34	13.561
622.67	15.270
623.00	15.729
623.33	14.734
623.66	14.870
623.99	14.779
624.32	14.967
624.65	14.837
624.99	13.740
625.32	14.638
625.65	14.574
625.98	15.008
626.31	14.367
626.64	15.305
626.97	15.052
627.30	14.713
627.63	15.052
627.96	15.152
628.29	14.605
628.62	15.667
628.95	14.830
629.28	14.975
629.61	15.885
629.94	14.894
630.26	15.369
630.59	15.085
630.92	14.558
631.25	15.448
631.58	14.561
631.91	14.104
632.24	13.392
632.57	13.889
632.90	14.936
