SpectraSuite Data File
++++++++++++++++++++++++++++++++++++
Date: Tue May 12 15:16:28 PDT 2015
User: schluterlab
Dark Spectrum Present: Yes
Reference Spectrum Present: Yes
Number of Sampled Component Spectra: 1
Spectrometers: USB2E3373
Integration Time (usec): 3000 (USB2E3373)
Spectra Averaged: 3 (USB2E3373)
Boxcar Smoothing: 0 (USB2E3373)
Correct for Electrical Dark: No (USB2E3373)
Strobe/Lamp Enabled: No (USB2E3373)
Correct for Detector Non-linearity: No (USB2E3373)
Correct for Stray Light: No (USB2E3373)
Number of Pixels in Processed Spectrum: 2048
>>>>>Begin Processed Spectral Data<<<<<
178.53	0.000
178.91	-191.667
179.29	-600.000
179.67	-3800.000
180.04	-113.333
180.42	650.000
180.80	1600.000
181.18	0.000
181.56	-262.500
181.94	0.000
182.31	933.333
182.69	-2100.000
183.07	514.286
183.45	-2700.000
183.83	-1500.000
184.20	320.000
184.58	371.429
184.96	-238.462
185.34	-266.667
185.72	1250.000
186.09	-600.000
186.47	-3000.000
186.85	833.333
187.23	740.000
187.61	1350.000
187.98	312.500
188.36	221.429
188.74	300.000
189.12	333.333
189.49	750.000
189.87	0.000
190.25	437.500
190.63	1400.000
191.00	-125.000
191.38	-3000.000
191.76	-900.000
192.14	462.500
192.51	-2000.000
192.89	1800.000
193.27	900.000
193.65	-966.667
194.02	-620.000
194.40	471.429
194.78	-150.000
195.15	206.667
195.53	-2200.000
195.91	-580.000
196.29	3200.000
196.66	262.500
197.04	475.000
197.42	-1150.000
197.79	650.000
198.17	258.333
198.55	0.000
198.92	385.714
199.30	966.667
199.68	1800.000
200.05	650.000
200.43	-316.667
200.81	183.333
201.18	2000.000
201.56	175.000
201.94	-525.000
202.31	-300.000
202.69	-360.000
203.07	1900.000
203.44	-400.000
203.82	275.000
204.19	280.000
204.57	-1250.000
204.95	-650.000
205.32	-520.000
205.70	400.000
206.08	750.000
206.45	-566.667
206.83	377.778
207.20	184.211
207.58	175.000
207.96	540.000
208.33	0.000
208.71	514.286
209.08	580.000
209.46	-2800.000
209.84	-900.000
210.21	840.000
210.59	-560.000
210.96	250.000
211.34	-700.000
211.71	327.273
212.09	850.000
212.46	1600.000
212.84	-283.333
213.22	344.444
213.59	-2900.000
213.97	350.000
214.34	1175.000
214.72	900.000
215.09	1033.333
215.47	-2800.000
215.84	-210.000
216.22	-387.500
216.59	0.000
216.97	0.000
217.34	1000.000
217.72	-1850.000
218.09	1000.000
218.47	400.000
218.84	1050.000
219.22	1133.333
219.59	666.667
219.97	328.571
220.34	411.111
220.72	1100.000
221.09	3900.000
221.47	216.667
221.84	600.000
222.22	290.000
222.59	211.111
222.97	192.857
223.34	181.250
223.72	-1000.000
224.09	1033.333
224.46	192.308
224.84	-600.000
225.21	322.222
225.59	266.667
225.96	1466.667
226.34	-580.000
226.71	-550.000
227.08	-540.000
227.46	0.000
227.83	-583.333
228.21	-1650.000
228.58	300.000
228.95	900.000
229.33	277.778
229.70	925.000
230.08	246.154
230.45	3300.000
230.82	-775.000
231.20	-633.333
231.57	-1133.333
231.95	340.000
232.32	208.333
232.69	516.667
233.07	266.667
233.44	-1350.000
233.81	206.667
234.19	140.741
234.56	150.000
234.93	105.882
235.31	195.000
235.68	212.500
236.05	107.143
236.43	111.111
236.80	192.857
237.17	89.655
237.55	100.000
237.92	90.000
238.29	127.273
238.67	93.750
239.04	87.805
239.41	64.583
239.79	75.000
240.16	54.167
240.53	36.066
240.91	55.072
241.28	62.712
241.65	48.485
242.02	54.930
242.40	67.143
242.77	43.956
243.14	39.241
243.51	40.404
243.89	48.598
244.26	35.514
244.63	39.604
245.00	32.110
245.38	33.898
245.75	33.333
246.12	37.037
246.49	35.461
246.87	19.672
247.24	27.333
247.61	28.750
247.98	24.490
248.36	25.455
248.73	27.551
249.10	29.167
249.47	24.000
249.84	22.886
250.22	23.243
250.59	23.000
250.96	24.473
251.33	23.721
251.70	25.893
252.08	23.109
252.45	25.498
252.82	21.673
253.19	21.344
253.56	19.615
253.94	21.014
254.31	20.543
254.68	19.164
255.05	23.103
255.42	16.058
255.79	20.195
256.16	18.983
256.54	21.753
256.91	15.359
257.28	21.070
257.65	14.107
258.02	18.289
258.39	18.911
258.76	19.130
259.14	17.429
259.51	20.991
259.88	18.237
260.25	17.308
260.62	21.644
260.99	15.152
261.36	16.713
261.73	19.681
262.10	16.754
262.47	18.000
262.85	20.000
263.22	19.023
263.59	16.880
263.96	20.802
264.33	15.309
264.70	21.130
265.07	17.317
265.44	17.661
265.81	18.868
266.18	18.535
266.55	15.130
266.92	14.765
267.29	16.667
267.66	16.143
268.03	15.695
268.40	16.490
268.77	18.502
269.14	15.618
269.51	14.922
269.88	16.531
270.25	14.039
270.62	13.948
270.99	19.067
271.36	16.667
271.73	15.933
272.10	13.939
272.47	15.079
272.84	15.569
273.21	15.496
273.58	15.789
273.95	14.579
274.32	16.732
274.69	16.732
275.06	14.390
275.43	14.559
275.80	13.585
276.17	15.441
276.54	15.888
276.91	17.537
277.28	15.328
277.65	15.498
278.02	16.176
278.39	13.849
278.76	15.000
279.13	14.769
279.50	15.091
279.87	13.780
280.23	14.180
280.60	16.058
280.97	15.000
281.34	15.512
281.71	15.130
282.08	14.188
282.45	15.372
282.82	16.555
283.19	15.898
283.56	13.719
283.92	14.821
284.29	13.478
284.66	13.782
285.03	16.252
285.40	12.231
285.77	14.043
286.14	15.635
286.51	14.417
286.87	12.658
287.24	13.964
287.61	14.438
287.98	15.373
288.35	15.259
288.72	13.202
289.08	15.315
289.45	14.024
289.82	13.906
290.19	13.470
290.56	16.157
290.93	14.245
291.29	15.193
291.66	14.407
292.03	13.464
292.40	14.092
292.77	13.788
293.13	13.695
293.50	12.955
293.87	12.466
294.24	14.406
294.60	13.997
294.97	14.825
295.34	14.741
295.71	13.403
296.08	14.933
296.44	14.994
296.81	14.268
297.18	13.561
297.55	13.793
297.91	13.177
298.28	13.164
298.65	14.233
299.02	13.631
299.38	14.748
299.75	12.927
300.12	15.367
300.48	14.637
300.85	14.541
301.22	13.837
301.59	14.151
301.95	14.119
302.32	14.435
302.69	13.009
303.05	15.039
303.42	14.126
303.79	15.276
304.15	14.631
304.52	14.693
304.89	15.032
305.25	13.348
305.62	14.606
305.99	11.739
306.35	14.000
306.72	14.776
307.09	13.768
307.45	14.572
307.82	13.889
308.19	14.948
308.55	13.600
308.92	14.917
309.29	16.174
309.65	14.470
310.02	15.619
310.38	14.556
310.75	13.983
311.12	13.697
311.48	15.927
311.85	13.931
312.22	15.950
312.58	14.577
312.95	14.563
313.31	15.730
313.68	14.071
314.05	15.201
314.41	14.898
314.78	15.625
315.14	16.019
315.51	15.989
315.87	15.602
316.24	13.632
316.61	15.398
316.97	14.312
317.34	15.633
317.70	15.364
318.07	14.769
318.43	15.817
318.80	14.974
319.16	15.647
319.53	15.664
319.89	14.964
320.26	16.387
320.62	15.476
320.99	15.825
321.35	16.048
321.72	16.603
322.08	14.497
322.45	15.895
322.81	15.371
323.18	17.052
323.54	16.115
323.91	17.316
324.27	15.650
324.64	14.879
325.00	15.517
325.37	16.020
325.73	16.610
326.10	16.073
326.46	16.268
326.83	15.920
327.19	15.422
327.56	15.735
327.92	15.902
328.29	17.185
328.65	16.610
329.01	15.312
329.38	16.159
329.74	15.542
330.11	15.986
330.47	17.391
330.84	15.272
331.20	15.567
331.56	16.839
331.93	16.339
332.29	15.816
332.66	15.986
333.02	15.893
333.38	15.445
333.75	16.180
334.11	15.352
334.48	15.897
334.84	16.216
335.20	16.339
335.57	15.449
335.93	15.307
336.29	15.008
336.66	15.695
337.02	15.825
337.38	15.133
337.75	15.456
338.11	16.456
338.47	16.257
338.84	15.834
339.20	14.978
339.56	15.559
339.93	15.050
340.29	15.882
340.65	15.507
341.02	15.527
341.38	15.025
341.74	15.698
342.11	15.609
342.47	14.520
342.83	15.669
343.20	15.683
343.56	15.091
343.92	14.203
344.28	15.470
344.65	15.566
345.01	14.921
345.37	14.343
345.73	14.841
346.10	14.343
346.46	15.072
346.82	13.503
347.19	15.533
347.55	15.301
347.91	15.030
348.27	14.485
348.63	14.557
349.00	14.395
349.36	14.630
349.72	14.067
350.08	14.441
350.45	14.851
350.81	15.138
351.17	14.407
351.53	13.395
351.89	14.530
352.26	14.664
352.62	13.952
352.98	14.801
353.34	15.100
353.70	13.914
354.07	14.923
354.43	13.902
354.79	14.427
355.15	13.783
355.51	14.048
355.87	15.136
356.24	14.088
356.60	13.470
356.96	13.343
357.32	14.619
357.68	13.289
358.04	13.982
358.40	15.142
358.77	14.876
359.13	14.264
359.49	13.640
359.85	13.924
360.21	12.704
360.57	14.599
360.93	13.997
361.29	14.358
361.66	13.945
362.02	13.849
362.38	13.276
362.74	14.579
363.10	13.815
363.46	13.536
363.82	13.464
364.18	13.798
364.54	14.020
364.90	14.592
365.26	13.949
365.62	14.434
365.98	14.040
366.35	13.034
366.71	14.226
367.07	14.403
367.43	14.036
367.79	13.630
368.15	13.026
368.51	13.301
368.87	13.043
369.23	13.167
369.59	14.093
369.95	13.007
370.31	13.689
370.67	13.255
371.03	14.216
371.39	13.643
371.75	13.608
372.11	13.052
372.47	14.041
372.83	14.072
373.19	14.805
373.55	13.333
373.91	12.983
374.27	13.558
374.63	12.746
374.99	13.410
375.35	13.105
375.71	12.929
376.07	13.594
376.42	12.852
376.78	13.616
377.14	13.303
377.50	12.297
377.86	12.620
378.22	13.528
378.58	13.983
378.94	12.794
379.30	13.341
379.66	13.064
380.02	13.607
380.38	12.588
380.74	14.475
381.09	13.201
381.45	12.775
381.81	12.116
382.17	12.393
382.53	12.418
382.89	13.069
383.25	11.782
383.61	12.622
383.97	12.478
384.32	12.899
384.68	13.547
385.04	12.837
385.40	12.218
385.76	12.405
386.12	12.740
386.48	12.827
386.83	12.469
387.19	12.780
387.55	12.603
387.91	12.587
388.27	12.849
388.62	12.265
388.98	12.128
389.34	12.195
389.70	12.441
390.06	12.439
390.42	12.030
390.77	12.162
391.13	12.492
391.49	12.644
391.85	12.862
392.20	12.813
392.56	12.246
392.92	11.454
393.28	11.323
393.64	11.869
393.99	12.389
394.35	12.125
394.71	11.942
395.07	11.740
395.42	12.939
395.78	12.647
396.14	12.831
396.50	12.214
396.85	12.012
397.21	12.635
397.57	12.014
397.92	11.727
398.28	11.307
398.64	11.576
399.00	11.758
399.35	11.863
399.71	12.252
400.07	12.158
400.42	11.284
400.78	12.258
401.14	11.509
401.49	11.578
401.85	11.587
402.21	11.072
402.57	11.430
402.92	11.818
403.28	10.800
403.63	10.889
403.99	11.158
404.35	11.723
404.70	11.518
405.06	10.893
405.42	11.909
405.77	11.301
406.13	11.009
406.49	10.745
406.84	10.660
407.20	11.815
407.55	10.954
407.91	12.380
408.27	11.037
408.62	11.059
408.98	11.473
409.34	11.163
409.69	10.890
410.05	10.614
410.40	10.777
410.76	11.048
411.11	11.671
411.47	10.185
411.83	10.896
412.18	10.568
412.54	10.871
412.89	10.914
413.25	11.288
413.60	11.390
413.96	10.952
414.31	10.449
414.67	11.670
415.03	10.345
415.38	11.609
415.74	10.486
416.09	11.243
416.45	11.248
416.80	11.802
417.16	10.376
417.51	10.955
417.87	10.576
418.22	10.632
418.58	10.764
418.93	11.362
419.29	11.275
419.64	11.448
420.00	11.158
420.35	11.266
420.71	10.443
421.06	10.477
421.42	10.535
421.77	11.383
422.12	10.970
422.48	10.991
422.83	11.830
423.19	10.259
423.54	11.081
423.90	11.608
424.25	11.062
424.61	11.376
424.96	10.841
425.31	10.564
425.67	11.336
426.02	11.497
426.38	11.027
426.73	11.047
427.09	11.329
427.44	11.536
427.79	10.863
428.15	11.491
428.50	11.886
428.85	11.817
429.21	11.615
429.56	11.316
429.92	11.437
430.27	11.224
430.62	11.160
430.98	10.978
431.33	10.887
431.68	10.370
432.04	10.760
432.39	11.910
432.74	11.593
433.10	11.019
433.45	11.660
433.80	11.693
434.16	11.456
434.51	11.507
434.86	11.214
435.22	11.183
435.57	12.092
435.92	11.952
436.28	12.039
436.63	11.453
436.98	11.824
437.34	11.530
437.69	12.206
438.04	11.344
438.39	11.559
438.75	12.082
439.10	11.549
439.45	11.532
439.81	12.030
440.16	11.447
440.51	12.162
440.86	12.137
441.22	11.310
441.57	11.654
441.92	11.402
442.27	11.289
442.63	11.331
442.98	11.800
443.33	12.105
443.68	12.173
444.03	11.734
444.39	12.147
444.74	12.008
445.09	12.112
445.44	11.371
445.79	11.598
446.15	11.526
446.50	11.709
446.85	12.052
447.20	10.995
447.55	12.017
447.91	12.893
448.26	12.460
448.61	11.609
448.96	11.819
449.31	12.266
449.66	12.569
450.02	11.507
450.37	11.827
450.72	12.231
451.07	12.216
451.42	12.152
451.77	12.314
452.12	12.195
452.47	12.515
452.83	12.507
453.18	12.673
453.53	12.137
453.88	11.943
454.23	13.074
454.58	12.646
454.93	11.772
455.28	12.729
455.63	11.998
455.98	11.844
456.34	12.948
456.69	11.829
457.04	12.172
457.39	12.229
457.74	13.119
458.09	12.802
458.44	12.705
458.79	12.202
459.14	11.784
459.49	12.741
459.84	12.391
460.19	12.599
460.54	13.162
460.89	12.420
461.24	12.199
461.59	12.868
461.94	11.879
462.29	12.414
462.64	12.626
462.99	12.860
463.34	12.443
463.69	13.551
464.04	13.184
464.39	12.879
464.74	12.544
465.09	12.304
465.44	12.622
465.79	11.704
466.14	11.553
466.49	12.859
466.84	12.430
467.19	12.595
467.54	12.492
467.89	12.735
468.24	12.334
468.59	12.381
468.94	12.681
469.29	12.767
469.64	13.698
469.99	13.560
470.34	12.777
470.68	12.552
471.03	13.342
471.38	13.510
471.73	13.129
472.08	13.112
472.43	13.097
472.78	13.380
473.13	12.766
473.48	13.203
473.83	12.839
474.17	13.070
474.52	12.678
474.87	11.768
475.22	12.164
475.57	13.116
475.92	12.366
476.27	12.187
476.61	13.083
476.96	12.539
477.31	11.979
477.66	12.775
478.01	12.635
478.36	12.616
478.70	11.762
479.05	12.448
479.40	12.450
479.75	12.562
480.10	12.536
480.45	11.951
480.79	12.581
481.14	11.460
481.49	12.763
481.84	11.829
482.19	12.664
482.53	12.297
482.88	12.231
483.23	12.449
483.58	12.208
483.92	12.386
484.27	12.029
484.62	12.139
484.97	11.804
485.31	11.615
485.66	11.307
486.01	10.547
486.36	10.362
486.70	10.077
487.05	10.599
487.40	10.897
487.75	10.996
488.09	11.080
488.44	11.058
488.79	11.316
489.13	12.393
489.48	12.026
489.83	11.802
490.17	12.139
490.52	12.059
490.87	12.543
491.22	12.500
491.56	12.648
491.91	12.186
492.26	12.027
492.60	12.437
492.95	12.370
493.30	12.602
493.64	12.983
493.99	12.746
494.34	12.371
494.68	12.483
495.03	12.708
495.37	12.607
495.72	12.774
496.07	12.534
496.41	12.120
496.76	12.410
497.11	12.939
497.45	12.582
497.80	12.651
498.14	12.668
498.49	12.628
498.84	13.037
499.18	12.569
499.53	12.127
499.87	13.073
500.22	12.713
500.56	12.581
500.91	12.523
501.26	12.448
501.60	12.158
501.95	11.514
502.29	11.956
502.64	12.439
502.98	12.139
503.33	12.339
503.67	12.583
504.02	11.912
504.36	12.624
504.71	12.535
505.06	12.201
505.40	12.401
505.75	11.740
506.09	12.599
506.44	12.453
506.78	13.091
507.13	12.506
507.47	12.518
507.82	13.236
508.16	13.572
508.51	12.754
508.85	12.583
509.19	12.580
509.54	12.207
509.88	12.979
510.23	12.696
510.57	11.969
510.92	13.137
511.26	12.701
511.61	12.802
511.95	12.743
512.30	12.800
512.64	12.357
512.98	12.660
513.33	12.705
513.67	13.102
514.02	12.364
514.36	12.305
514.70	13.227
515.05	12.840
515.39	12.610
515.74	13.723
516.08	12.527
516.42	13.716
516.77	12.960
517.11	12.800
517.46	13.308
517.80	13.108
518.14	12.676
518.49	13.837
518.83	12.088
519.17	12.923
519.52	12.835
519.86	12.916
520.20	13.973
520.55	12.549
520.89	13.276
521.23	13.960
521.58	13.196
521.92	12.245
522.26	13.211
522.61	13.607
522.95	13.514
523.29	14.152
523.64	12.197
523.98	12.969
524.32	12.976
524.66	13.449
525.01	13.373
525.35	13.435
525.69	13.967
526.04	13.266
526.38	13.479
526.72	12.530
527.06	13.838
527.41	13.301
527.75	13.512
528.09	13.064
528.43	14.643
528.78	13.238
529.12	13.787
529.46	13.092
529.80	12.383
530.15	13.082
530.49	13.057
530.83	12.736
531.17	13.100
531.51	13.918
531.86	12.862
532.20	13.659
532.54	12.680
532.88	12.804
533.22	13.711
533.57	13.423
533.91	12.821
534.25	12.637
534.59	13.041
534.93	13.197
535.27	12.863
535.62	13.302
535.96	12.293
536.30	12.980
536.64	12.671
536.98	13.405
537.32	13.875
537.66	13.138
538.01	13.375
538.35	13.350
538.69	12.318
539.03	13.060
539.37	12.318
539.71	13.025
540.05	12.677
540.39	13.270
540.73	13.861
541.07	12.986
541.42	12.500
541.76	13.009
542.10	12.947
542.44	12.968
542.78	13.027
543.12	12.086
543.46	12.719
543.80	12.469
544.14	12.755
544.48	12.287
544.82	13.089
545.16	12.508
545.50	13.030
545.84	14.268
546.18	12.939
546.52	13.049
546.86	13.282
547.20	13.307
547.54	13.173
547.88	12.713
548.22	11.840
548.56	13.023
548.90	12.693
549.24	13.392
549.58	12.887
549.92	13.163
550.26	13.455
550.60	12.176
550.94	12.687
551.28	13.379
551.62	14.276
551.96	12.230
552.30	12.657
552.64	12.492
552.98	12.758
553.32	12.548
553.66	12.313
554.00	13.578
554.34	13.316
554.68	12.903
555.02	13.035
555.36	13.098
555.69	13.154
556.03	12.930
556.37	13.257
556.71	13.494
557.05	12.582
557.39	13.600
557.73	13.208
558.07	13.213
558.41	13.023
558.75	14.501
559.08	13.295
559.42	13.601
559.76	13.542
560.10	12.526
560.44	12.873
560.78	12.980
561.12	13.541
561.45	12.703
561.79	12.172
562.13	12.129
562.47	12.589
562.81	12.687
563.15	13.316
563.48	12.484
563.82	13.225
564.16	12.624
564.50	12.538
564.84	12.401
565.17	12.597
565.51	13.300
565.85	12.647
566.19	13.393
566.52	12.395
566.86	13.193
567.20	12.978
567.54	11.681
567.88	12.937
568.21	11.433
568.55	12.695
568.89	11.679
569.23	10.958
569.56	11.821
569.90	10.816
570.24	10.903
570.57	10.740
570.91	10.172
571.25	10.320
571.59	10.237
571.92	10.065
572.26	9.730
572.60	9.497
572.93	10.265
573.27	9.736
573.61	9.881
573.95	9.661
574.28	9.792
574.62	9.525
574.96	9.200
575.29	9.192
575.63	9.352
575.97	9.494
576.30	9.643
576.64	9.730
576.98	9.334
577.31	9.518
577.65	9.454
577.98	9.332
578.32	9.048
578.66	9.137
578.99	9.524
579.33	9.562
579.67	9.070
580.00	9.356
580.34	9.410
580.67	9.329
581.01	9.831
581.35	9.282
581.68	8.861
582.02	8.986
582.35	8.800
582.69	8.846
583.02	9.296
583.36	9.281
583.70	9.846
584.03	9.868
584.37	9.944
584.70	9.654
585.04	9.565
585.37	9.265
585.71	9.371
586.04	9.631
586.38	9.241
586.72	9.858
587.05	9.779
587.39	9.886
587.72	9.734
588.06	9.610
588.39	9.877
588.73	9.589
589.06	10.330
589.40	10.516
589.73	10.554
590.07	10.089
590.40	10.801
590.73	11.054
591.07	11.537
591.40	10.579
591.74	10.795
592.07	10.483
592.41	10.831
592.74	10.399
593.08	9.961
593.41	9.904
593.75	9.839
594.08	10.225
594.41	10.199
594.75	9.863
595.08	10.597
595.42	10.895
595.75	10.563
596.09	10.358
596.42	10.306
596.75	10.657
597.09	10.730
597.42	10.612
597.75	10.913
598.09	10.341
598.42	10.730
598.76	10.678
599.09	10.445
599.42	10.000
599.76	10.753
600.09	9.695
600.42	10.463
600.76	10.061
601.09	10.321
601.42	10.278
601.76	10.383
602.09	10.449
602.42	10.499
602.76	10.436
603.09	10.370
603.42	10.752
603.76	10.701
604.09	10.351
604.42	10.094
604.76	10.944
605.09	10.408
605.42	11.093
605.75	10.580
606.09	10.329
606.42	10.560
606.75	10.455
607.09	10.028
607.42	10.325
607.75	10.987
608.08	10.073
608.42	10.738
608.75	10.184
609.08	10.559
609.41	11.136
609.75	10.943
610.08	11.286
610.41	11.023
610.74	10.952
611.07	11.278
611.41	11.168
611.74	11.138
612.07	10.983
612.40	11.014
612.73	10.734
613.07	11.353
613.40	12.080
613.73	11.233
614.06	10.450
614.39	11.364
614.72	11.552
615.06	11.474
615.39	11.238
615.72	11.133
616.05	10.799
616.38	11.010
616.71	11.015
617.05	10.928
617.38	10.562
617.71	11.530
618.04	11.273
618.37	11.340
618.70	11.432
619.03	11.783
619.36	12.500
619.69	12.665
620.03	12.851
620.36	12.267
620.69	12.708
621.02	11.957
621.35	12.106
621.68	12.316
622.01	13.506
622.34	11.872
622.67	13.132
623.00	13.410
623.33	12.551
623.66	12.442
623.99	12.945
624.32	12.466
624.65	12.113
624.99	12.103
625.32	12.291
625.65	11.379
625.98	11.855
626.31	12.611
626.64	12.680
626.97	13.007
627.30	11.879
627.63	13.736
627.96	12.989
628.29	12.376
628.62	13.003
628.95	13.298
629.28	13.760
629.61	13.445
629.94	13.397
630.26	13.951
630.59	13.387
630.92	12.197
631.25	15.322
631.58	14.272
631.91	13.606
632.24	14.383
632.57	13.654
