SpectraSuite Data File
++++++++++++++++++++++++++++++++++++
Date: Tue May 12 16:32:02 PDT 2015
User: schluterlab
Dark Spectrum Present: Yes
Reference Spectrum Present: Yes
Number of Sampled Component Spectra: 1
Spectrometers: USB2E3373
Integration Time (usec): 3000 (USB2E3373)
Spectra Averaged: 3 (USB2E3373)
Boxcar Smoothing: 0 (USB2E3373)
Correct for Electrical Dark: No (USB2E3373)
Strobe/Lamp Enabled: No (USB2E3373)
Correct for Detector Non-linearity: No (USB2E3373)
Correct for Stray Light: No (USB2E3373)
Number of Pixels in Processed Spectrum: 2048
>>>>>Begin Processed Spectral Data<<<<<
178.53	0.000
178.91	-216.667
179.29	-725.000
179.67	-3600.000
180.04	-140.000
180.42	575.000
180.80	1750.000
181.18	0.000
181.56	-350.000
181.94	0.000
182.31	1133.333
182.69	-3000.000
183.07	542.857
183.45	-3700.000
183.83	-1350.000
184.20	320.000
184.58	485.714
184.96	-223.077
185.34	-183.333
185.72	1200.000
186.09	-625.000
186.47	-1900.000
186.85	1066.667
187.23	460.000
187.61	1350.000
187.98	462.500
188.36	257.143
188.74	333.333
189.12	350.000
189.49	1050.000
189.87	0.000
190.25	462.500
190.63	2400.000
191.00	-216.667
191.38	-2800.000
191.76	-725.000
192.14	637.500
192.51	-2500.000
192.89	1600.000
193.27	766.667
193.65	-1066.667
194.02	-660.000
194.40	542.857
194.78	-228.571
195.15	200.000
195.53	-2900.000
195.91	-600.000
196.29	4100.000
196.66	306.250
197.04	700.000
197.42	-1550.000
197.79	575.000
198.17	283.333
198.55	0.000
198.92	528.571
199.30	1333.333
199.68	1850.000
200.05	650.000
200.43	-550.000
200.81	211.111
201.18	4500.000
201.56	316.667
201.94	-725.000
202.31	-262.500
202.69	-540.000
203.07	3700.000
203.44	-583.333
203.82	333.333
204.19	520.000
204.57	-1400.000
204.95	-725.000
205.32	-540.000
205.70	366.667
206.08	650.000
206.45	-766.667
206.83	366.667
207.20	189.474
207.58	241.667
207.96	740.000
208.33	0.000
208.71	585.714
209.08	780.000
209.46	-2600.000
209.84	-750.000
210.21	1020.000
210.59	-860.000
210.96	325.000
211.34	-1025.000
211.71	381.818
212.09	875.000
212.46	1600.000
212.84	-333.333
213.22	500.000
213.59	-2700.000
213.97	330.000
214.34	1150.000
214.72	1600.000
215.09	800.000
215.47	-3000.000
215.84	-290.000
216.22	-412.500
216.59	0.000
216.97	0.000
217.34	1200.000
217.72	-1200.000
218.09	1233.333
218.47	462.500
218.84	925.000
219.22	1133.333
219.59	933.333
219.97	571.429
220.34	311.111
220.72	1700.000
221.09	3100.000
221.47	350.000
221.84	1133.333
222.22	300.000
222.59	266.667
222.97	250.000
223.34	243.750
223.72	-1400.000
224.09	1333.333
224.46	300.000
224.84	-1000.000
225.21	388.889
225.59	246.667
225.96	966.667
226.34	-920.000
226.71	-850.000
227.08	-800.000
227.46	0.000
227.83	-700.000
228.21	-1750.000
228.58	350.000
228.95	1000.000
229.33	344.444
229.70	925.000
230.08	330.769
230.45	4000.000
230.82	-1025.000
231.20	-1000.000
231.57	-866.667
231.95	700.000
232.32	275.000
232.69	433.333
233.07	383.333
233.44	-2100.000
233.81	266.667
234.19	192.593
234.56	218.750
234.93	264.706
235.31	255.000
235.68	243.750
236.05	210.714
236.43	155.556
236.80	271.429
237.17	134.483
237.55	190.625
237.92	122.500
238.29	139.394
238.67	181.250
239.04	136.585
239.41	135.417
239.79	115.000
240.16	112.500
240.53	106.557
240.91	94.203
241.28	123.729
241.65	95.455
242.02	118.310
242.40	104.286
242.77	82.418
243.14	83.544
243.51	90.909
243.89	79.439
244.26	88.785
244.63	100.990
245.00	86.239
245.38	73.729
245.75	73.485
246.12	81.481
246.49	75.887
246.87	77.869
247.24	83.333
247.61	79.375
247.98	71.429
248.36	66.667
248.73	71.429
249.10	75.000
249.47	68.000
249.84	69.652
250.22	71.892
250.59	66.500
250.96	64.135
251.33	66.977
251.70	68.304
252.08	64.706
252.45	62.550
252.82	61.977
253.19	71.542
253.56	63.846
253.94	63.043
254.31	69.380
254.68	66.551
255.05	62.759
255.42	67.153
255.79	64.169
256.16	68.814
256.54	64.935
256.91	68.301
257.28	65.217
257.65	67.398
258.02	63.127
258.39	59.885
258.76	64.348
259.14	60.571
259.51	67.638
259.88	68.997
260.25	62.363
260.62	60.822
260.99	60.331
261.36	66.017
261.73	62.500
262.10	62.042
262.47	61.250
262.85	62.400
263.22	62.982
263.59	64.962
263.96	59.900
264.33	61.481
264.70	63.636
265.07	63.659
265.44	61.239
265.81	61.792
266.18	61.327
266.55	62.411
266.92	59.732
267.29	63.596
267.66	61.211
268.03	64.350
268.40	59.197
268.77	62.335
269.14	59.870
269.51	59.465
269.88	63.061
270.25	58.747
270.62	60.730
270.99	58.418
271.36	60.772
271.73	61.006
272.10	60.000
272.47	59.127
272.84	57.485
273.21	59.711
273.58	61.741
273.95	57.906
274.32	58.949
274.69	59.646
275.06	58.652
275.43	59.195
275.80	60.377
276.17	58.088
276.54	58.318
276.91	59.515
277.28	55.839
277.65	60.148
278.02	58.640
278.39	56.835
278.76	56.379
279.13	56.050
279.50	58.545
279.87	58.845
280.23	57.643
280.60	58.029
280.97	58.621
281.34	56.106
281.71	56.000
282.08	55.897
282.45	56.757
282.82	58.027
283.19	56.757
283.56	57.686
283.92	55.212
284.29	55.241
284.66	54.454
285.03	52.405
285.40	54.876
285.77	52.623
286.14	54.489
286.51	54.908
286.87	54.272
287.24	52.252
287.61	53.799
287.98	52.985
288.35	49.778
288.72	52.504
289.08	52.703
289.45	50.000
289.82	52.188
290.19	50.073
290.56	52.402
290.93	51.799
291.29	49.309
291.66	50.989
292.03	48.948
292.40	45.664
292.77	47.493
293.13	48.645
293.50	46.829
293.87	46.477
294.24	49.930
294.60	47.376
294.97	49.371
295.34	45.153
295.71	45.335
296.08	47.200
296.44	46.379
296.81	45.037
297.18	46.388
297.55	46.552
297.91	44.951
298.28	45.773
298.65	43.681
299.02	42.823
299.38	44.245
299.75	45.000
300.12	44.151
300.48	46.019
300.85	46.246
301.22	44.419
301.59	45.165
301.95	43.057
302.32	44.005
302.69	43.665
303.05	44.444
303.42	42.937
303.79	44.529
304.15	46.205
304.52	44.715
304.89	43.923
305.25	46.051
305.62	44.670
305.99	43.913
306.35	44.000
306.72	45.265
307.09	45.756
307.45	46.040
307.82	45.679
308.19	47.010
308.55	44.400
308.92	46.516
309.29	47.535
309.65	45.788
310.02	47.160
310.38	46.361
310.75	47.348
311.12	47.126
311.48	48.263
311.85	48.092
312.22	48.042
312.58	48.785
312.95	50.583
313.31	50.000
313.68	49.250
314.05	51.557
314.41	52.048
314.78	52.936
315.14	52.038
315.51	54.588
315.87	52.190
316.24	55.462
316.61	53.715
316.97	54.128
317.34	54.897
317.70	55.399
318.07	54.982
318.43	56.942
318.80	58.406
319.16	58.217
319.53	57.257
319.89	57.975
320.26	60.335
320.62	61.264
320.99	59.771
321.35	58.905
321.72	62.903
322.08	62.789
322.45	62.579
322.81	63.952
323.18	65.187
323.54	65.331
323.91	65.277
324.27	64.898
324.64	64.360
325.00	68.362
325.37	67.707
325.73	68.887
326.10	69.677
326.46	70.355
326.83	68.800
327.19	71.486
327.56	70.288
327.92	72.541
328.29	72.422
328.65	73.116
329.01	74.679
329.38	73.604
329.74	70.880
330.11	73.675
330.47	74.254
330.84	71.872
331.20	72.589
331.56	74.957
331.93	73.824
332.29	72.364
332.66	74.745
333.02	72.165
333.38	74.695
333.75	72.227
334.11	74.832
334.48	73.504
334.84	72.889
335.20	73.225
335.57	73.300
335.93	74.685
336.29	72.388
336.66	76.072
337.02	73.738
337.38	73.517
337.75	75.084
338.11	74.008
338.47	74.428
338.84	74.005
339.20	74.719
339.56	72.077
339.93	73.328
340.29	72.185
340.65	73.931
341.02	72.405
341.38	74.466
341.74	74.252
342.11	74.958
342.47	74.487
342.83	75.882
343.20	72.272
343.56	70.929
343.92	74.319
344.28	71.930
344.65	74.246
345.01	72.460
345.37	73.558
345.73	72.778
346.10	73.147
346.46	73.684
346.82	72.608
347.19	73.648
347.55	73.692
347.91	72.130
348.27	71.882
348.63	74.130
349.00	72.887
349.36	73.930
349.72	71.177
350.08	74.068
350.45	72.506
350.81	72.936
351.17	71.649
351.53	73.364
351.89	74.281
352.26	71.958
352.62	71.870
352.98	73.160
353.34	74.037
353.70	71.942
354.07	73.692
354.43	73.963
354.79	72.361
355.15	74.196
355.51	73.792
355.87	73.645
356.24	74.288
356.60	72.603
356.96	73.313
357.32	72.419
357.68	75.110
358.04	74.392
358.40	73.838
358.77	75.056
359.13	73.724
359.49	75.315
359.85	74.237
360.21	73.700
360.57	73.285
360.93	74.747
361.29	75.397
361.66	75.690
362.02	73.864
362.38	74.675
362.74	75.938
363.10	74.825
363.46	72.928
363.82	74.194
364.18	75.320
364.54	75.250
364.90	74.364
365.26	75.920
365.62	74.171
365.98	76.187
366.35	74.207
366.71	74.948
367.07	75.154
367.43	74.547
367.79	73.737
368.15	75.170
368.51	77.602
368.87	75.747
369.23	77.477
369.59	75.657
369.95	76.294
370.31	75.496
370.67	76.475
371.03	77.171
371.39	76.801
371.75	76.483
372.11	76.615
372.47	76.644
372.83	76.615
373.19	76.422
373.55	76.838
373.91	75.622
374.27	75.794
374.63	76.542
374.99	77.965
375.35	78.226
375.71	77.441
376.07	77.387
376.42	76.471
376.78	78.227
377.14	79.227
377.50	77.341
377.86	78.411
378.22	78.123
378.58	78.087
378.94	78.153
379.30	78.290
379.66	79.771
380.02	80.235
380.38	78.864
380.74	80.450
381.09	79.965
381.45	78.844
381.81	79.196
382.17	78.999
382.53	78.704
382.89	80.367
383.25	79.929
383.61	77.983
383.97	80.204
384.32	79.807
384.68	81.224
385.04	80.070
385.40	79.359
385.76	79.286
386.12	79.159
386.48	81.763
386.83	82.335
387.19	80.801
387.55	80.035
387.91	79.734
388.27	81.916
388.62	80.340
388.98	80.583
389.34	80.190
389.70	81.309
390.06	81.646
390.42	80.382
390.77	80.405
391.13	82.016
391.49	79.613
391.85	81.231
392.20	80.751
392.56	80.705
392.92	81.246
393.28	80.045
393.64	79.587
393.99	82.573
394.35	80.283
394.71	80.097
395.07	80.474
395.42	80.913
395.78	83.220
396.14	83.373
396.50	82.371
396.85	81.890
397.21	81.588
397.57	81.411
397.92	81.109
398.28	80.971
398.64	81.152
399.00	80.973
399.35	81.106
399.71	81.126
400.07	79.795
400.42	82.448
400.78	80.821
401.14	81.679
401.49	80.991
401.85	81.808
402.21	82.250
402.57	82.166
402.92	80.848
403.28	79.356
403.63	80.989
403.99	81.484
404.35	81.067
404.70	81.985
405.06	79.506
405.42	81.029
405.77	80.650
406.13	80.369
406.49	80.898
406.84	79.019
407.20	81.336
407.55	81.723
407.91	80.281
408.27	80.412
408.62	81.076
408.98	80.189
409.34	78.726
409.69	80.585
410.05	80.978
410.40	80.389
410.76	79.279
411.11	80.746
411.47	79.444
411.83	79.672
412.18	81.099
412.54	80.420
412.89	80.000
413.25	80.901
413.60	79.206
413.96	80.192
414.31	80.460
414.67	82.371
415.03	80.524
415.38	81.893
415.74	81.301
416.09	80.700
416.45	80.931
416.80	83.451
417.16	80.522
417.51	81.083
417.87	80.601
418.22	81.288
418.58	81.529
418.93	80.845
419.29	79.852
419.64	79.406
420.00	81.802
420.35	81.765
420.71	81.214
421.06	80.518
421.42	81.980
421.77	81.177
422.12	82.194
422.48	80.277
422.83	81.529
423.19	82.775
423.54	80.636
423.90	82.616
424.25	82.223
424.61	82.414
424.96	82.722
425.31	81.773
425.67	82.772
426.02	82.389
426.38	83.139
426.73	83.285
427.09	83.511
427.44	82.386
427.79	83.934
428.15	84.915
428.50	83.657
428.85	83.774
429.21	82.226
429.56	81.954
429.92	83.491
430.27	82.874
430.62	81.743
430.98	83.733
431.33	82.258
431.68	82.667
432.04	82.928
432.39	83.205
432.74	83.899
433.10	84.385
433.45	85.468
433.80	85.604
434.16	83.500
434.51	85.036
434.86	84.976
435.22	85.251
435.57	86.307
435.92	86.056
436.28	86.521
436.63	83.901
436.98	86.655
437.34	84.989
437.69	84.546
438.04	86.075
438.39	84.063
438.75	83.575
439.10	85.537
439.45	84.624
439.81	86.408
440.16	86.957
440.51	85.360
440.86	85.641
441.22	85.335
441.57	86.719
441.92	86.673
442.27	86.443
442.63	84.451
442.98	85.237
443.33	87.467
443.68	86.217
444.03	85.957
444.39	85.970
444.74	86.698
445.09	87.414
445.44	87.088
445.79	86.404
446.15	86.895
446.50	86.814
446.85	86.554
447.20	87.114
447.55	88.418
447.91	88.119
448.26	86.422
448.61	88.281
448.96	87.473
449.31	88.669
449.66	88.040
450.02	87.304
450.37	87.562
450.72	88.815
451.07	87.144
451.42	89.034
451.77	88.660
452.12	87.578
452.47	88.821
452.83	90.141
453.18	88.468
453.53	88.040
453.88	87.314
454.23	88.088
454.58	87.354
454.93	87.370
455.28	88.066
455.63	89.184
455.98	87.479
456.34	88.754
456.69	88.537
457.04	89.320
457.39	88.229
457.74	90.203
458.09	86.356
458.44	88.116
458.79	87.374
459.14	86.961
459.49	88.448
459.84	88.587
460.19	87.458
460.54	86.040
460.89	88.593
461.24	86.827
461.59	88.776
461.94	88.416
462.29	87.757
462.64	88.568
462.99	89.635
463.34	86.455
463.69	88.264
464.04	88.601
464.39	88.380
464.74	86.987
465.09	87.812
465.44	87.432
465.79	87.534
466.14	85.056
466.49	87.466
466.84	87.625
467.19	86.350
467.54	87.387
467.89	88.674
468.24	86.914
468.59	87.798
468.94	86.413
469.29	87.416
469.64	87.074
469.99	87.147
470.34	86.022
470.68	87.241
471.03	89.393
471.38	87.483
471.73	86.153
472.08	89.563
472.43	88.144
472.78	87.004
473.13	86.358
473.48	87.775
473.83	88.221
474.17	87.781
474.52	85.190
474.87	85.389
475.22	87.836
475.57	85.310
475.92	85.897
476.27	84.548
476.61	85.737
476.96	84.222
477.31	87.044
477.66	88.567
478.01	85.405
478.36	86.921
478.70	85.310
479.05	88.128
479.40	86.508
479.75	86.693
480.10	85.382
480.45	86.928
480.79	86.359
481.14	86.400
481.49	84.126
481.84	84.872
482.19	86.769
482.53	84.146
482.88	84.498
483.23	85.611
483.58	86.580
483.92	86.517
484.27	84.589
484.62	85.654
484.97	84.651
485.31	84.827
485.66	83.922
486.01	83.203
486.36	83.082
486.70	82.854
487.05	82.579
487.40	82.977
487.75	84.103
488.09	83.040
488.44	82.600
488.79	84.658
489.13	84.211
489.48	84.259
489.83	84.320
490.17	83.031
490.52	86.219
490.87	83.879
491.22	86.037
491.56	84.146
491.91	84.185
492.26	84.499
492.60	84.738
492.95	84.051
493.30	83.985
493.64	83.603
493.99	83.900
494.34	83.281
494.68	83.621
495.03	84.598
495.37	83.701
495.72	85.734
496.07	83.513
496.41	82.711
496.76	81.680
497.11	82.776
497.45	82.990
497.80	84.569
498.14	82.524
498.49	83.333
498.84	83.879
499.18	81.810
499.53	83.647
499.87	84.097
500.22	84.661
500.56	83.751
500.91	83.024
501.26	83.831
501.60	82.514
501.95	83.244
502.29	81.511
502.64	81.517
502.98	82.659
503.33	82.673
503.67	81.987
504.02	82.176
504.36	80.905
504.71	83.964
505.06	82.403
505.40	81.142
505.75	82.086
506.09	81.661
506.44	82.331
506.78	83.129
507.13	82.259
507.47	81.659
507.82	82.871
508.16	82.117
508.51	82.899
508.85	81.434
509.19	82.770
509.54	80.811
509.88	83.143
510.23	82.647
510.57	79.247
510.92	81.019
511.26	82.179
511.61	80.601
511.95	80.986
512.30	80.850
512.64	81.568
512.98	81.240
513.33	81.660
513.67	80.321
514.02	82.130
514.36	81.620
514.70	80.853
515.05	81.673
515.39	81.908
515.74	83.051
516.08	81.046
516.42	82.732
516.77	81.173
517.11	79.947
517.46	81.681
517.80	80.939
518.14	82.930
518.49	79.493
518.83	80.275
519.17	80.532
519.52	80.666
519.86	80.872
520.20	82.356
520.55	81.402
520.89	80.000
521.23	82.243
521.58	81.124
521.92	80.641
522.26	81.398
522.61	81.046
522.95	81.862
523.29	80.292
523.64	78.208
523.98	82.042
524.32	78.604
524.66	79.884
525.01	80.710
525.35	79.316
525.69	80.975
526.04	81.440
526.38	80.224
526.72	81.146
527.06	79.066
527.41	81.076
527.75	80.706
528.09	79.350
528.43	80.171
528.78	80.978
529.12	81.758
529.46	79.836
529.80	80.082
530.15	78.727
530.49	78.881
530.83	80.683
531.17	79.951
531.51	79.460
531.86	77.657
532.20	77.812
532.54	80.226
532.88	78.264
533.22	79.403
533.57	79.500
533.91	77.273
534.25	77.380
534.59	78.713
534.93	76.792
535.27	76.494
535.62	76.896
535.96	77.187
536.30	80.256
536.64	76.957
536.98	78.980
537.32	76.375
537.66	78.125
538.01	75.294
538.35	77.542
538.69	76.699
539.03	76.990
539.37	75.728
539.71	78.148
540.05	76.862
540.39	76.918
540.73	77.152
541.07	76.851
541.42	76.119
541.76	75.771
542.10	76.819
542.44	76.995
542.78	76.023
543.12	75.706
543.46	75.063
543.80	75.940
544.14	77.833
544.48	75.365
544.82	76.330
545.16	75.288
545.50	75.968
545.84	74.811
546.18	77.308
546.52	77.115
546.86	75.435
547.20	75.194
547.54	74.794
547.88	75.000
548.22	75.410
548.56	74.425
548.90	73.784
549.24	76.058
549.58	75.387
549.92	75.508
550.26	76.673
550.60	75.050
550.94	76.323
551.28	76.552
551.62	77.310
551.96	74.392
552.30	74.357
552.64	76.181
552.98	74.807
553.32	73.752
553.66	75.114
554.00	74.260
554.34	76.165
554.68	74.395
555.02	75.356
555.36	72.739
555.69	74.280
556.03	73.822
556.37	73.869
556.71	75.033
557.05	72.477
557.39	73.000
557.73	73.113
558.07	74.983
558.41	75.051
558.75	73.393
559.08	74.553
559.42	75.519
559.76	74.555
560.10	75.017
560.44	72.196
560.78	74.297
561.12	73.808
561.45	72.966
561.79	72.472
562.13	73.594
562.47	72.356
562.81	74.431
563.15	73.368
563.48	69.317
563.82	73.612
564.16	74.316
564.50	69.982
564.84	72.280
565.17	70.826
565.51	74.076
565.85	74.769
566.19	72.857
566.52	71.360
566.86	72.913
567.20	72.360
567.54	72.817
567.88	73.031
568.21	71.093
568.55	71.158
568.89	70.575
569.23	70.578
569.56	71.885
569.90	69.745
570.24	69.915
570.57	69.565
570.91	68.830
571.25	68.713
571.59	68.331
571.92	68.003
572.26	67.898
572.60	68.786
572.93	69.436
573.27	68.495
573.61	67.813
573.95	67.729
574.28	68.444
574.62	68.584
574.96	66.930
575.29	67.693
575.63	66.313
575.97	66.991
576.30	66.717
576.64	67.113
576.98	66.427
577.31	67.772
577.65	67.805
577.98	67.289
578.32	66.980
578.66	66.680
578.99	66.604
579.33	66.464
579.67	65.820
580.00	67.278
580.34	65.937
580.67	66.577
581.01	66.623
581.35	66.865
581.68	66.166
582.02	66.122
582.35	66.689
582.69	66.986
583.02	66.387
583.36	66.484
583.70	66.129
584.03	67.114
584.37	67.264
584.70	66.360
585.04	66.548
585.37	65.149
585.71	66.989
586.04	65.431
586.38	66.890
586.72	65.997
587.05	65.517
587.39	66.523
587.72	67.309
588.06	66.476
588.39	66.121
588.73	66.249
589.06	66.589
589.40	67.136
589.73	65.782
590.07	66.609
590.40	67.073
590.73	68.087
591.07	67.438
591.40	66.547
591.74	66.599
592.07	66.389
592.41	65.667
592.74	66.020
593.08	65.462
593.41	65.200
593.75	63.719
594.08	65.229
594.41	64.386
594.75	65.582
595.08	65.398
595.42	65.668
595.75	65.581
596.09	65.728
596.42	64.822
596.75	66.026
597.09	65.332
597.42	65.388
597.75	64.706
598.09	64.341
598.42	64.341
598.76	63.955
599.09	64.840
599.42	63.875
599.76	63.297
600.09	63.458
600.42	63.847
600.76	64.854
601.09	63.618
601.42	63.992
601.76	64.769
602.09	64.312
602.42	63.068
602.76	63.985
603.09	65.271
603.42	64.294
603.76	63.449
604.09	64.423
604.42	63.616
604.76	64.441
605.09	63.184
605.42	62.373
605.75	62.614
606.09	64.728
606.42	63.472
606.75	62.534
607.09	62.653
607.42	63.278
607.75	62.142
608.08	63.038
608.42	63.423
608.75	63.714
609.08	63.308
609.41	63.182
609.75	63.462
610.08	63.984
610.41	62.978
610.74	62.338
611.07	62.801
611.41	63.299
611.74	63.480
612.07	63.825
612.40	63.938
612.73	63.105
613.07	62.798
613.40	63.308
613.73	63.255
614.06	62.250
614.39	63.687
614.72	63.486
615.06	60.979
615.39	61.931
615.72	62.633
616.05	62.531
616.38	62.709
616.71	61.910
617.05	62.383
617.38	62.472
617.71	62.823
618.04	63.320
618.37	62.924
618.70	61.374
619.03	61.905
619.36	63.819
619.69	61.609
620.03	64.188
620.36	63.327
620.69	63.729
621.02	64.062
621.35	62.106
621.68	62.316
622.01	64.576
622.34	63.875
622.67	63.694
623.00	60.585
623.33	62.551
623.66	61.677
623.99	62.945
624.32	63.008
624.65	61.554
624.99	63.354
625.32	62.659
625.65	60.966
625.98	62.273
626.31	63.279
626.64	60.972
626.97	61.897
627.30	61.568
627.63	62.716
627.96	62.207
628.29	62.624
628.62	60.821
628.95	62.057
629.28	62.051
629.61	63.708
629.94	62.748
630.26	62.045
630.59	63.741
630.92	60.628
