SpectraSuite Data File
++++++++++++++++++++++++++++++++++++
Date: Tue May 12 17:17:08 PDT 2015
User: schluterlab
Dark Spectrum Present: Yes
Reference Spectrum Present: Yes
Number of Sampled Component Spectra: 1
Spectrometers: USB2E3373
Integration Time (usec): 3000 (USB2E3373)
Spectra Averaged: 3 (USB2E3373)
Boxcar Smoothing: 0 (USB2E3373)
Correct for Electrical Dark: No (USB2E3373)
Strobe/Lamp Enabled: No (USB2E3373)
Correct for Detector Non-linearity: No (USB2E3373)
Correct for Stray Light: No (USB2E3373)
Number of Pixels in Processed Spectrum: 2048
>>>>>Begin Processed Spectral Data<<<<<
178.53	0.000
178.91	-233.333
179.29	-800.000
179.67	-3000.000
180.04	-86.667
180.42	625.000
180.80	1500.000
181.18	0.000
181.56	-375.000
181.94	0.000
182.31	933.333
182.69	-3900.000
183.07	514.286
183.45	-3100.000
183.83	-1200.000
184.20	460.000
184.58	342.857
184.96	-200.000
185.34	-133.333
185.72	1850.000
186.09	-850.000
186.47	-3400.000
186.85	1033.333
187.23	740.000
187.61	1500.000
187.98	487.500
188.36	235.714
188.74	325.000
189.12	308.333
189.49	875.000
189.87	0.000
190.25	462.500
190.63	3200.000
191.00	-275.000
191.38	-3500.000
191.76	-675.000
192.14	575.000
192.51	-3300.000
192.89	1550.000
193.27	1166.667
193.65	-1000.000
194.02	-600.000
194.40	500.000
194.78	-235.714
195.15	213.333
195.53	-3800.000
195.91	-480.000
196.29	4900.000
196.66	218.750
197.04	800.000
197.42	-1250.000
197.79	650.000
198.17	316.667
198.55	0.000
198.92	414.286
199.30	1033.333
199.68	1900.000
200.05	566.667
200.43	-616.667
200.81	188.889
201.18	4200.000
201.56	350.000
201.94	-900.000
202.31	-325.000
202.69	-520.000
203.07	3200.000
203.44	-466.667
203.82	333.333
204.19	800.000
204.57	-1250.000
204.95	-750.000
205.32	-520.000
205.70	416.667
206.08	975.000
206.45	-633.333
206.83	244.444
207.20	163.158
207.58	333.333
207.96	720.000
208.33	0.000
208.71	557.143
209.08	700.000
209.46	-2900.000
209.84	-600.000
210.21	920.000
210.59	-460.000
210.96	275.000
211.34	-675.000
211.71	472.727
212.09	950.000
212.46	2100.000
212.84	-400.000
213.22	355.556
213.59	-3200.000
213.97	330.000
214.34	925.000
214.72	1166.667
215.09	833.333
215.47	-3100.000
215.84	-280.000
216.22	-450.000
216.59	0.000
216.97	0.000
217.34	1400.000
217.72	-1650.000
218.09	1000.000
218.47	487.500
218.84	775.000
219.22	1100.000
219.59	800.000
219.97	514.286
220.34	311.111
220.72	1900.000
221.09	2800.000
221.47	275.000
221.84	1333.333
222.22	440.000
222.59	266.667
222.97	228.571
223.34	181.250
223.72	-1600.000
224.09	1533.333
224.46	307.692
224.84	-550.000
225.21	388.889
225.59	280.000
225.96	1400.000
226.34	-640.000
226.71	-600.000
227.08	-500.000
227.46	0.000
227.83	-466.667
228.21	-1800.000
228.58	333.333
228.95	1125.000
229.33	377.778
229.70	1100.000
230.08	376.923
230.45	3900.000
230.82	-1100.000
231.20	-1000.000
231.57	-1066.667
231.95	580.000
232.32	275.000
232.69	466.667
233.07	266.667
233.44	-1750.000
233.81	240.000
234.19	166.667
234.56	237.500
234.93	188.235
235.31	220.000
235.68	256.250
236.05	167.857
236.43	166.667
236.80	221.429
237.17	148.276
237.55	103.125
237.92	135.000
238.29	109.091
238.67	146.875
239.04	80.488
239.41	91.667
239.79	120.000
240.16	81.250
240.53	65.574
240.91	65.217
241.28	69.492
241.65	71.212
242.02	74.648
242.40	72.857
242.77	64.835
243.14	62.025
243.51	63.636
243.89	54.206
244.26	60.748
244.63	55.446
245.00	49.541
245.38	50.000
245.75	53.788
246.12	47.407
246.49	46.099
246.87	46.721
247.24	49.333
247.61	43.750
247.98	47.619
248.36	32.121
248.73	44.898
249.10	41.071
249.47	41.500
249.84	41.791
250.22	42.162
250.59	39.000
250.96	39.662
251.33	36.279
251.70	39.732
252.08	36.975
252.45	35.857
252.82	30.038
253.19	35.968
253.56	37.308
253.94	34.783
254.31	32.558
254.68	37.979
255.05	36.897
255.42	33.577
255.79	34.853
256.16	34.576
256.54	34.740
256.91	34.314
257.28	33.779
257.65	32.915
258.02	31.563
258.39	31.232
258.76	33.333
259.14	30.286
259.51	36.443
259.88	34.043
260.25	33.242
260.62	31.233
260.99	30.579
261.36	29.248
261.73	28.723
262.10	35.864
262.47	30.750
262.85	30.133
263.22	31.105
263.59	31.458
263.96	31.579
264.33	28.889
264.70	33.415
265.07	31.951
265.44	32.339
265.81	29.245
266.18	33.181
266.55	31.678
266.92	30.872
267.29	32.895
267.66	30.493
268.03	30.269
268.40	29.387
268.77	30.617
269.14	30.152
269.51	30.512
269.88	30.612
270.25	29.374
270.62	30.901
270.99	30.629
271.36	31.911
271.73	32.704
272.10	29.495
272.47	28.373
272.84	27.745
273.21	28.719
273.58	29.352
273.95	27.721
274.32	30.739
274.69	34.055
275.06	29.144
275.43	29.119
275.80	28.868
276.17	29.044
276.54	30.280
276.91	29.478
277.28	27.372
277.65	28.782
278.02	27.941
278.39	28.237
278.76	30.345
279.13	29.715
279.50	29.273
279.87	27.561
280.23	27.256
280.60	30.474
280.97	27.241
281.34	28.383
281.71	27.478
282.08	28.376
282.45	26.351
282.82	26.923
283.19	28.299
283.56	27.769
283.92	28.013
284.29	26.456
284.66	25.546
285.03	29.353
285.40	26.777
285.77	25.154
286.14	29.102
286.51	28.221
286.87	25.475
287.24	26.426
287.61	26.292
287.98	25.373
288.35	24.000
288.72	26.404
289.08	24.474
289.45	26.372
289.82	26.563
290.19	24.451
290.56	26.492
290.93	26.906
291.29	25.276
291.66	23.729
292.03	25.245
292.40	27.642
292.77	22.006
293.13	26.819
293.50	24.022
293.87	25.203
294.24	25.315
294.60	24.764
294.97	25.594
295.34	22.842
295.71	24.310
296.08	23.867
296.44	24.142
296.81	23.821
297.18	22.814
297.55	23.645
297.91	21.675
298.28	22.826
298.65	24.049
299.02	22.799
299.38	22.062
299.75	21.585
300.12	23.165
300.48	23.419
300.85	22.646
301.22	23.140
301.59	22.877
301.95	22.054
302.32	22.584
302.69	23.869
303.05	23.345
303.42	22.422
303.79	23.727
304.15	23.102
304.52	22.304
304.89	22.495
305.25	23.026
305.62	22.175
305.99	22.826
306.35	21.895
306.72	22.685
307.09	22.567
307.45	23.020
307.82	21.091
308.19	23.402
308.55	22.700
308.92	23.258
309.29	24.753
309.65	23.885
310.02	25.051
310.38	23.031
310.75	23.915
311.12	24.234
311.48	24.903
311.85	24.809
312.22	25.788
312.58	24.295
312.95	26.019
313.31	25.094
313.68	24.390
314.05	26.099
314.41	26.723
314.78	25.852
315.14	26.351
315.51	25.733
315.87	26.369
316.24	27.638
316.61	27.037
316.97	26.514
317.34	28.212
317.70	27.919
318.07	29.715
318.43	28.647
318.80	27.758
319.16	28.934
319.53	28.761
319.89	29.928
320.26	32.030
320.62	31.593
320.99	30.029
321.35	31.540
321.72	33.207
322.08	33.518
322.45	33.515
322.81	32.296
323.18	34.103
323.54	32.840
323.91	35.721
324.27	33.687
324.64	34.343
325.00	36.552
325.37	36.341
325.73	37.521
326.10	36.537
326.46	37.985
326.83	36.640
327.19	38.715
327.56	38.419
327.92	39.508
328.29	40.344
328.65	39.555
329.01	39.264
329.38	40.017
329.74	40.137
330.11	41.182
330.47	42.370
330.84	39.603
331.20	39.763
331.56	42.746
331.93	41.916
332.29	41.241
332.66	41.837
333.02	41.581
333.38	43.281
333.75	43.119
334.11	40.940
334.48	41.368
334.84	40.794
335.20	42.087
335.57	42.989
335.93	41.968
336.29	41.625
336.66	43.310
337.02	40.120
337.38	42.132
337.75	43.412
338.11	42.700
338.47	42.252
338.84	41.998
339.20	42.597
339.56	42.304
339.93	41.054
340.29	41.261
340.65	41.492
341.02	42.156
341.38	42.200
341.74	42.110
342.11	43.155
342.47	43.068
342.83	43.888
343.20	43.088
343.56	41.779
343.92	41.949
344.28	42.663
344.65	42.869
345.01	41.429
345.37	41.827
345.73	41.825
346.10	41.514
346.46	42.026
346.82	41.127
347.19	42.890
347.55	40.827
347.91	41.541
348.27	41.518
348.63	42.563
349.00	41.813
349.36	43.580
349.72	42.049
350.08	43.401
350.45	42.346
350.81	43.119
351.17	41.988
351.53	41.339
351.89	43.046
352.26	42.252
352.62	43.967
352.98	43.021
353.34	43.143
353.70	42.278
354.07	43.538
354.43	43.932
354.79	42.521
355.15	43.185
355.51	42.372
355.87	43.072
356.24	42.648
356.60	42.846
356.96	43.139
357.32	42.276
357.68	43.465
358.04	43.389
358.40	44.603
358.77	44.102
359.13	42.568
359.49	43.291
359.85	42.964
360.21	42.942
360.57	43.723
360.93	42.785
361.29	44.228
361.66	45.414
362.02	42.614
362.38	42.352
362.74	45.223
363.10	43.548
363.46	42.749
363.82	43.829
364.18	45.235
364.54	45.136
364.90	43.507
365.26	43.997
365.62	44.959
365.98	44.253
366.35	43.448
366.71	44.969
367.07	44.232
367.43	44.191
367.79	44.348
368.15	44.301
368.51	44.314
368.87	41.984
369.23	45.461
369.59	44.639
369.95	46.294
370.31	44.490
370.67	45.316
371.03	46.779
371.39	45.222
371.75	44.941
372.11	45.207
372.47	45.959
372.83	44.596
373.19	45.031
373.55	44.948
373.91	44.682
374.27	45.040
374.63	46.102
374.99	46.968
375.35	44.825
375.71	45.515
376.07	45.889
376.42	43.606
376.78	46.307
377.14	47.641
377.50	45.755
377.86	45.932
378.22	45.521
378.58	46.973
378.94	45.987
379.30	45.785
379.66	45.274
380.02	46.569
380.38	45.843
380.74	46.886
381.09	46.846
381.45	44.971
381.81	46.809
382.17	46.520
382.53	46.311
382.89	46.067
383.25	46.477
383.61	46.513
383.97	46.491
384.32	46.474
384.68	48.069
385.04	45.955
385.40	46.797
385.76	46.226
386.12	47.681
386.48	46.687
386.83	47.800
387.19	46.761
387.55	46.761
387.91	46.594
388.27	47.234
388.62	46.244
388.98	46.706
389.34	45.806
389.70	46.757
390.06	46.463
390.42	46.700
390.77	47.482
391.13	47.435
391.49	47.308
391.85	48.246
392.20	46.246
392.56	47.013
392.92	47.052
393.28	46.861
393.64	46.846
393.99	46.177
394.35	45.968
394.71	45.115
395.07	47.080
395.42	45.902
395.78	47.995
396.14	46.325
396.50	47.112
396.85	46.829
397.21	46.270
397.57	46.922
397.92	47.371
398.28	47.546
398.64	45.957
399.00	44.949
399.35	45.625
399.71	45.916
400.07	46.233
400.42	47.642
400.78	46.510
401.14	46.036
401.49	47.465
401.85	47.567
402.21	46.046
402.57	46.559
402.92	47.152
403.28	45.585
403.63	46.027
403.99	46.261
404.35	45.428
404.70	47.135
405.06	45.761
405.42	45.781
405.77	46.141
406.13	44.902
406.49	45.651
406.84	45.178
407.20	46.233
407.55	47.262
407.91	46.650
408.27	45.907
408.62	46.422
408.98	46.836
409.34	45.003
409.69	46.920
410.05	45.200
410.40	44.759
410.76	45.278
411.11	45.972
411.47	46.235
411.83	46.104
412.18	45.229
412.54	45.405
412.89	45.487
413.25	44.812
413.60	45.386
413.96	45.422
414.31	45.632
414.67	45.686
415.03	45.977
415.38	46.625
415.74	46.873
416.09	46.658
416.45	45.701
416.80	47.787
417.16	45.194
417.51	45.605
417.87	45.807
418.22	46.355
418.58	46.624
418.93	45.687
419.29	44.239
419.64	45.669
420.00	46.181
420.35	46.632
420.71	45.449
421.06	45.968
421.42	46.287
421.77	46.585
422.12	46.913
422.48	45.609
422.83	46.261
423.19	45.356
423.54	45.639
423.90	45.810
424.25	46.670
424.61	45.154
424.96	45.906
425.31	46.251
425.67	47.026
426.02	46.607
426.38	45.741
426.73	47.426
427.09	48.399
427.44	46.089
427.79	48.370
428.15	47.496
428.50	47.771
428.85	47.560
429.21	45.921
429.56	45.713
429.92	46.793
430.27	45.960
430.62	45.521
430.98	45.908
431.33	46.623
431.68	46.914
432.04	46.922
432.39	47.805
432.74	47.365
433.10	47.564
433.45	47.789
433.80	48.759
434.16	45.770
434.51	47.472
434.86	46.979
435.22	47.650
435.57	47.955
435.92	48.264
436.28	47.638
436.63	49.433
436.98	47.860
437.34	48.002
437.69	47.088
438.04	47.527
438.39	47.986
438.75	48.163
439.10	47.706
439.45	48.106
439.81	48.294
440.16	47.221
440.51	48.255
440.86	49.174
441.22	48.106
441.57	47.559
441.92	48.322
442.27	48.144
442.63	47.510
442.98	47.360
443.33	48.045
443.68	48.089
444.03	48.068
444.39	49.105
444.74	49.068
445.09	48.447
445.44	47.396
445.79	48.392
446.15	48.895
446.50	48.312
446.85	47.809
447.20	47.313
447.55	48.777
447.91	48.695
448.26	47.870
448.61	49.033
448.96	49.728
449.31	49.120
449.66	49.779
450.02	48.136
450.37	49.473
450.72	49.532
451.07	49.389
451.42	48.666
451.77	49.084
452.12	48.894
452.47	48.785
452.83	49.521
453.18	48.348
453.53	49.142
453.88	48.171
454.23	49.041
454.58	49.476
454.93	49.234
455.28	49.510
455.63	49.409
455.98	48.449
456.34	48.571
456.69	50.122
457.04	48.031
457.39	49.314
457.74	49.887
458.09	48.400
458.44	48.083
458.79	49.814
459.14	49.100
459.49	48.981
459.84	49.348
460.19	48.814
460.54	49.288
460.89	49.307
461.24	49.427
461.59	49.376
461.94	49.586
462.29	49.542
462.64	49.183
462.99	49.840
463.34	49.903
463.69	48.881
464.04	49.971
464.39	49.284
464.74	48.886
465.09	48.810
465.44	49.238
465.79	48.721
466.14	47.165
466.49	47.748
466.84	49.610
467.19	49.502
467.54	48.709
467.89	48.650
468.24	50.087
468.59	48.571
468.94	49.275
469.29	49.542
469.64	51.061
469.99	48.265
470.34	50.095
470.68	51.172
471.03	49.900
471.38	51.192
471.73	50.425
472.08	50.750
472.43	51.024
472.78	49.424
473.13	48.248
473.48	49.022
473.83	50.648
474.17	50.213
474.52	48.164
474.87	48.607
475.22	48.886
475.57	49.423
475.92	49.463
476.27	48.313
476.61	48.686
476.96	49.007
477.31	50.077
477.66	49.651
478.01	48.736
478.36	49.176
478.70	49.578
479.05	49.895
479.40	49.058
479.75	49.652
480.10	49.032
480.45	48.599
480.79	48.525
481.14	49.168
481.49	47.941
481.84	48.549
482.19	49.039
482.53	48.748
482.88	49.328
483.23	48.083
483.58	48.160
483.92	49.634
484.27	48.245
484.62	48.812
484.97	48.305
485.31	47.088
485.66	46.310
486.01	44.624
486.36	43.763
486.70	44.107
487.05	44.183
487.40	45.204
487.75	44.735
488.09	46.165
488.44	46.941
488.79	46.546
489.13	48.078
489.48	48.102
489.83	48.290
490.17	46.903
490.52	48.622
490.87	47.414
491.22	48.936
491.56	47.036
491.91	48.029
492.26	47.840
492.60	49.248
492.95	47.938
493.30	48.271
493.64	49.461
493.99	48.345
494.34	48.005
494.68	47.986
495.03	48.541
495.37	48.627
495.72	49.557
496.07	48.293
496.41	47.958
496.76	48.713
497.11	48.029
497.45	48.093
497.80	48.424
498.14	48.867
498.49	47.679
498.84	48.832
499.18	48.446
499.53	48.553
499.87	48.518
500.22	49.470
500.56	49.443
500.91	49.814
501.26	49.058
501.60	48.816
501.95	48.253
502.29	48.444
502.64	47.728
502.98	47.843
503.33	48.508
503.67	48.389
504.02	47.918
504.36	48.733
504.71	49.385
505.06	49.413
505.40	48.994
505.75	48.784
506.09	48.903
506.44	49.013
506.78	49.433
507.13	49.152
507.47	49.491
507.82	49.781
508.16	49.584
508.51	49.807
508.85	49.383
509.19	50.269
509.54	49.902
509.88	49.378
510.23	50.000
510.57	49.131
510.92	50.350
511.26	50.502
511.61	48.695
511.95	49.278
512.30	50.000
512.64	48.858
512.98	49.718
513.33	49.949
513.67	49.819
514.02	50.545
514.36	49.533
514.70	50.293
515.05	50.506
515.39	52.029
515.74	51.066
516.08	51.416
516.42	52.568
516.77	50.400
517.11	50.987
517.46	50.754
517.80	50.847
518.14	53.127
518.49	50.827
518.83	50.769
519.17	52.024
519.52	52.376
519.86	51.117
520.20	51.178
520.55	50.594
520.89	51.954
521.23	51.519
521.58	51.865
521.92	51.895
522.26	52.251
522.61	52.109
522.95	52.432
523.29	52.047
523.64	51.792
523.98	52.171
524.32	50.750
524.66	52.116
525.01	51.716
525.35	53.035
525.69	53.281
526.04	51.993
526.38	52.796
526.72	51.671
527.06	51.508
527.41	51.814
527.75	52.952
528.09	52.017
528.43	52.471
528.78	52.296
529.12	53.281
529.46	52.016
529.80	51.460
530.15	51.031
530.49	51.264
530.83	53.260
531.17	51.415
531.51	52.299
531.86	50.242
532.20	51.669
532.54	50.847
532.88	52.280
533.22	51.737
533.57	51.312
533.91	50.816
534.25	50.087
534.59	51.111
534.93	50.114
535.27	49.118
535.62	50.408
535.96	50.827
536.30	52.529
536.64	51.118
536.98	50.975
537.32	52.000
537.66	50.829
538.01	51.517
538.35	52.215
538.69	50.910
539.03	49.876
539.37	51.092
539.71	51.358
540.05	51.877
540.39	51.006
540.73	51.076
541.07	51.004
541.42	51.990
541.76	50.801
542.10	51.110
542.44	52.120
542.78	49.780
543.12	50.736
543.46	50.251
543.80	49.812
544.14	52.384
544.48	50.608
544.82	50.765
545.16	50.395
545.50	51.137
545.84	51.894
546.18	52.471
546.52	51.213
546.86	51.902
547.20	50.388
547.54	50.792
547.88	50.608
548.22	50.455
548.56	49.971
548.90	50.652
549.24	50.979
549.58	51.160
549.92	50.950
550.26	53.753
550.60	51.564
550.94	52.578
551.28	50.621
551.62	52.345
551.96	51.216
552.30	49.835
552.64	52.298
552.98	50.773
553.32	49.424
553.66	52.117
554.00	50.772
554.34	51.265
554.68	51.411
555.02	50.781
555.36	49.202
555.69	49.869
556.03	50.318
556.37	50.797
556.71	52.282
557.05	50.393
557.39	50.733
557.73	51.482
558.07	51.040
558.41	52.022
558.75	50.479
559.08	53.681
559.42	52.255
559.76	52.103
560.10	51.136
560.44	51.228
560.78	51.854
561.12	50.604
561.45	50.688
561.79	50.062
562.13	49.084
562.47	49.773
562.81	50.553
563.15	50.485
563.48	48.075
563.82	50.967
564.16	49.627
564.50	49.307
564.84	49.240
565.17	49.614
565.51	50.862
565.85	50.401
566.19	49.821
566.52	50.181
566.86	50.846
567.20	49.326
567.54	48.090
567.88	49.296
568.21	47.279
568.55	46.839
568.89	46.350
569.23	47.153
569.56	46.645
569.90	45.347
570.24	45.111
570.57	45.101
570.91	44.087
571.25	44.187
571.59	43.204
571.92	42.465
572.26	42.884
572.60	43.099
572.93	43.703
573.27	42.849
573.61	42.907
573.95	42.754
574.28	42.874
574.62	42.292
574.96	41.659
575.29	41.770
575.63	41.861
575.97	41.115
576.30	42.521
576.64	42.739
576.98	42.001
577.31	42.800
577.65	41.878
577.98	41.736
578.32	41.205
578.66	41.466
578.99	41.011
579.33	41.498
579.67	41.449
580.00	41.390
580.34	41.596
580.67	41.074
581.01	41.892
581.35	41.642
581.68	40.669
582.02	41.264
582.35	41.124
582.69	41.355
583.02	41.439
583.36	41.658
583.70	42.287
584.03	42.630
584.37	41.898
584.70	42.224
585.04	41.922
585.37	41.592
585.71	42.449
586.04	41.691
586.38	42.183
586.72	41.750
587.05	42.434
587.39	42.023
587.72	41.839
588.06	42.463
588.39	42.656
588.73	42.577
589.06	42.982
589.40	43.599
589.73	43.789
590.07	43.651
590.40	44.181
590.73	45.465
591.07	44.288
591.40	44.591
591.74	45.130
592.07	44.301
592.41	45.284
592.74	44.416
593.08	42.806
593.41	42.759
593.75	42.870
594.08	42.378
594.41	43.402
594.75	43.390
595.08	43.107
595.42	43.450
595.75	43.731
596.09	44.108
596.42	42.826
596.75	45.152
597.09	44.119
597.42	43.429
597.75	43.732
598.09	44.399
598.42	43.860
598.76	43.292
599.09	42.883
599.42	42.734
599.76	43.419
600.09	42.814
600.42	42.852
600.76	42.658
601.09	43.631
601.42	42.555
601.76	43.323
602.09	43.377
602.42	42.699
602.76	43.681
603.09	43.816
603.42	43.633
603.76	42.950
604.09	43.069
604.42	43.390
604.76	43.580
605.09	44.408
605.42	44.007
605.75	43.861
606.09	43.726
606.42	42.352
606.75	43.179
607.09	43.427
607.42	43.753
607.75	43.193
608.08	43.745
608.42	44.128
608.75	42.875
609.08	43.291
609.41	44.091
609.75	44.734
610.08	44.784
610.41	43.522
610.74	44.069
611.07	44.338
611.41	44.810
611.74	44.790
612.07	43.931
612.40	44.493
612.73	44.683
613.07	44.856
613.40	45.815
613.73	44.483
614.06	44.500
614.39	45.455
614.72	44.199
615.06	43.966
615.39	45.891
615.72	43.611
616.05	44.802
616.38	43.683
616.71	44.981
617.05	45.415
617.38	45.169
617.71	45.726
618.04	45.822
618.37	45.359
618.70	44.919
619.03	45.788
619.36	46.420
619.69	46.108
620.03	47.750
620.36	47.013
620.69	47.957
621.02	47.486
621.35	46.203
621.68	48.230
622.01	48.487
622.34	48.725
622.67	48.806
623.00	47.447
623.33	47.233
623.66	47.106
623.99	46.849
624.32	46.816
624.65	46.083
624.99	48.749
625.32	46.159
625.65	46.207
625.98	46.234
626.31	47.700
626.64	46.925
626.97	46.672
627.30	47.748
627.63	48.666
627.96	47.653
628.29	49.092
628.62	48.674
628.95	49.734
629.28	49.606
629.61	49.912
629.94	50.562
630.26	50.433
630.59	50.621
630.92	49.417
631.25	49.955
