SpectraSuite Data File
++++++++++++++++++++++++++++++++++++
Date: Tue May 12 17:04:00 PDT 2015
User: schluterlab
Dark Spectrum Present: Yes
Reference Spectrum Present: Yes
Number of Sampled Component Spectra: 1
Spectrometers: USB2E3373
Integration Time (usec): 3000 (USB2E3373)
Spectra Averaged: 3 (USB2E3373)
Boxcar Smoothing: 0 (USB2E3373)
Correct for Electrical Dark: No (USB2E3373)
Strobe/Lamp Enabled: No (USB2E3373)
Correct for Detector Non-linearity: No (USB2E3373)
Correct for Stray Light: No (USB2E3373)
Number of Pixels in Processed Spectrum: 2048
>>>>>Begin Processed Spectral Data<<<<<
178.53	0.000
178.91	-291.667
179.29	-850.000
179.67	-3400.000
180.04	-126.667
180.42	1000.000
180.80	1100.000
181.18	0.000
181.56	-412.500
181.94	0.000
182.31	1166.667
182.69	-3200.000
183.07	600.000
183.45	-4200.000
183.83	-1750.000
184.20	380.000
184.58	428.571
184.96	-223.077
185.34	-266.667
185.72	1800.000
186.09	-925.000
186.47	-3900.000
186.85	966.667
187.23	760.000
187.61	2150.000
187.98	537.500
188.36	221.429
188.74	316.667
189.12	333.333
189.49	1050.000
189.87	0.000
190.25	500.000
190.63	2800.000
191.00	-225.000
191.38	-3000.000
191.76	-500.000
192.14	550.000
192.51	-3000.000
192.89	1850.000
193.27	1300.000
193.65	-1166.667
194.02	-840.000
194.40	514.286
194.78	-242.857
195.15	246.667
195.53	-3500.000
195.91	-560.000
196.29	4500.000
196.66	268.750
197.04	1100.000
197.42	-1750.000
197.79	650.000
198.17	358.333
198.55	0.000
198.92	557.143
199.30	1166.667
199.68	1550.000
200.05	883.333
200.43	-533.333
200.81	205.556
201.18	4300.000
201.56	300.000
201.94	-775.000
202.31	-200.000
202.69	-560.000
203.07	2600.000
203.44	-450.000
203.82	341.667
204.19	560.000
204.57	-1350.000
204.95	-775.000
205.32	-720.000
205.70	516.667
206.08	700.000
206.45	-766.667
206.83	333.333
207.20	215.789
207.58	308.333
207.96	700.000
208.33	0.000
208.71	542.857
209.08	720.000
209.46	-3400.000
209.84	-975.000
210.21	760.000
210.59	-580.000
210.96	291.667
211.34	-950.000
211.71	463.636
212.09	950.000
212.46	1650.000
212.84	-616.667
213.22	500.000
213.59	-3400.000
213.97	390.000
214.34	875.000
214.72	1133.333
215.09	1233.333
215.47	-3400.000
215.84	-340.000
216.22	-350.000
216.59	0.000
216.97	0.000
217.34	1450.000
217.72	-1900.000
218.09	1100.000
218.47	437.500
218.84	1025.000
219.22	866.667
219.59	933.333
219.97	542.857
220.34	444.444
220.72	1800.000
221.09	3100.000
221.47	216.667
221.84	1033.333
222.22	260.000
222.59	211.111
222.97	171.429
223.34	250.000
223.72	-1450.000
224.09	1200.000
224.46	200.000
224.84	-600.000
225.21	400.000
225.59	260.000
225.96	1233.333
226.34	-740.000
226.71	-675.000
227.08	-720.000
227.46	0.000
227.83	-583.333
228.21	-1800.000
228.58	333.333
228.95	975.000
229.33	433.333
229.70	950.000
230.08	361.538
230.45	3200.000
230.82	-725.000
231.20	-866.667
231.57	-1200.000
231.95	700.000
232.32	341.667
232.69	566.667
233.07	291.667
233.44	-1500.000
233.81	300.000
234.19	192.593
234.56	256.250
234.93	205.882
235.31	210.000
235.68	218.750
236.05	182.143
236.43	133.333
236.80	271.429
237.17	89.655
237.55	134.375
237.92	117.500
238.29	130.303
238.67	128.125
239.04	102.439
239.41	70.833
239.79	90.000
240.16	83.333
240.53	54.098
240.91	50.725
241.28	74.576
241.65	63.636
242.02	67.606
242.40	47.143
242.77	51.648
243.14	54.430
243.51	50.505
243.89	47.664
244.26	37.383
244.63	33.663
245.00	39.450
245.38	28.814
245.75	37.121
246.12	38.519
246.49	36.170
246.87	37.705
247.24	36.667
247.61	36.875
247.98	33.333
248.36	27.879
248.73	38.776
249.10	31.548
249.47	29.500
249.84	31.343
250.22	31.351
250.59	30.500
250.96	32.068
251.33	25.116
251.70	29.911
252.08	24.790
252.45	21.116
252.82	24.335
253.19	22.134
253.56	25.000
253.94	25.362
254.31	22.481
254.68	24.042
255.05	22.414
255.42	22.263
255.79	23.127
256.16	22.712
256.54	25.000
256.91	23.203
257.28	20.736
257.65	19.749
258.02	18.879
258.39	21.490
258.76	21.739
259.14	16.571
259.51	22.449
259.88	20.973
260.25	17.033
260.62	21.096
260.99	20.386
261.36	20.891
261.73	18.085
262.10	19.895
262.47	20.750
262.85	19.733
263.22	20.051
263.59	20.460
263.96	20.551
264.33	17.778
264.70	17.690
265.07	17.561
265.44	21.101
265.81	18.396
266.18	20.366
266.55	19.385
266.92	19.239
267.29	19.956
267.66	15.695
268.03	16.816
268.40	17.548
268.77	19.383
269.14	16.269
269.51	15.590
269.88	18.980
270.25	15.551
270.62	17.167
270.99	20.284
271.36	19.106
271.73	15.723
272.10	16.364
272.47	16.667
272.84	18.563
273.21	16.942
273.58	16.194
273.95	16.016
274.32	18.288
274.69	19.685
275.06	16.940
275.43	18.008
275.80	14.906
276.17	17.831
276.54	17.009
276.91	17.910
277.28	16.971
277.65	18.081
278.02	16.912
278.39	17.086
278.76	18.103
279.13	15.125
279.50	16.545
279.87	15.084
280.23	16.206
280.60	16.788
280.97	15.690
281.34	14.851
281.71	16.174
282.08	17.949
282.45	15.541
282.82	16.221
283.19	14.944
283.56	15.868
283.92	17.590
284.29	15.474
284.66	14.958
285.03	15.091
285.40	16.860
285.77	14.198
286.14	16.873
286.51	16.258
286.87	14.082
287.24	13.664
287.61	16.869
287.98	16.567
288.35	14.370
288.72	14.719
289.08	15.315
289.45	15.701
289.82	15.156
290.19	14.056
290.56	15.866
290.93	13.669
291.29	16.160
291.66	14.407
292.03	15.288
292.40	15.854
292.77	14.903
293.13	13.837
293.50	14.710
293.87	13.279
294.24	15.385
294.60	14.670
294.97	14.406
295.34	14.077
295.71	15.112
296.08	15.733
296.44	14.485
296.81	12.159
297.18	14.449
297.55	14.163
297.91	13.916
298.28	14.734
298.65	14.969
299.02	13.510
299.38	14.988
299.75	13.902
300.12	14.564
300.48	15.457
300.85	14.422
301.22	15.465
301.59	12.854
301.95	13.886
302.32	15.716
302.69	13.914
303.05	15.039
303.42	15.022
303.79	14.085
304.15	14.301
304.52	15.011
304.89	15.458
305.25	14.572
305.62	14.179
305.99	14.130
306.35	14.526
306.72	14.776
307.09	15.217
307.45	15.100
307.82	15.123
308.19	16.289
308.55	14.900
308.92	15.898
309.29	15.779
309.65	17.245
310.02	16.126
310.38	14.955
310.75	15.718
311.12	15.421
311.48	17.375
311.85	15.744
312.22	16.332
312.58	16.327
312.95	18.058
313.31	17.228
313.68	15.947
314.05	17.949
314.41	17.132
314.78	17.708
315.14	17.630
315.51	17.219
315.87	18.066
316.24	17.460
316.61	18.442
316.97	16.422
317.34	19.137
317.70	19.842
318.07	20.107
318.43	19.332
318.80	19.440
319.16	20.105
319.53	19.469
319.89	19.355
320.26	21.136
320.62	19.231
320.99	21.926
321.35	20.223
321.72	22.486
322.08	20.868
322.45	21.980
322.81	22.232
323.18	22.824
323.54	22.822
323.91	24.479
324.27	23.431
324.64	23.529
325.00	24.914
325.37	23.019
325.73	23.693
326.10	25.849
326.46	26.012
326.83	25.360
327.19	26.586
327.56	25.799
327.92	27.049
328.29	27.741
328.65	26.027
329.01	26.775
329.38	27.496
329.74	27.925
330.11	28.758
330.47	29.582
330.84	27.955
331.20	27.327
331.56	29.620
331.93	28.400
332.29	28.912
332.66	29.167
333.02	28.608
333.38	30.017
333.75	29.525
334.11	28.775
334.48	28.547
334.84	28.041
335.20	29.598
335.57	28.967
335.93	29.521
336.29	28.690
336.66	30.189
337.02	29.170
337.38	28.891
337.75	28.801
338.11	29.536
338.47	29.636
338.84	29.636
339.20	29.870
339.56	29.773
339.93	29.849
340.29	28.067
340.65	27.745
341.02	30.249
341.38	28.325
341.74	29.734
342.11	28.214
342.47	27.728
342.83	29.204
343.20	28.779
343.56	27.800
343.92	28.076
344.28	28.549
344.65	29.666
345.01	27.778
345.37	27.724
345.73	28.651
346.10	29.163
346.46	28.230
346.82	28.009
347.19	30.062
347.55	27.635
347.91	27.795
348.27	27.653
348.63	28.323
349.00	28.408
349.36	29.261
349.72	28.746
350.08	28.106
350.45	29.246
350.81	28.746
351.17	26.888
351.53	29.022
351.89	28.982
352.26	27.060
352.62	29.110
352.98	27.684
353.34	28.197
353.70	27.599
354.07	28.846
354.43	28.264
354.79	27.563
355.15	28.560
355.51	27.341
355.87	27.861
356.24	26.944
356.60	27.473
356.96	28.961
357.32	27.656
357.68	28.414
358.04	27.888
358.40	27.361
358.77	27.874
359.13	27.402
359.49	26.761
359.85	28.146
360.21	27.637
360.57	27.445
360.93	28.139
361.29	27.778
361.66	28.113
362.02	25.852
362.38	26.840
362.74	27.318
363.10	28.471
363.46	26.036
363.82	26.928
364.18	28.236
364.54	27.897
364.90	27.242
365.26	27.828
365.62	26.727
365.98	26.222
366.35	26.897
366.71	27.828
367.07	27.304
367.43	27.401
367.79	27.327
368.15	26.323
368.51	26.671
368.87	27.106
369.23	26.819
369.59	27.040
369.95	27.413
370.31	27.173
370.67	26.926
371.03	26.541
371.39	26.385
371.75	26.518
372.11	27.260
372.47	27.260
372.83	26.785
373.19	27.279
373.55	26.942
373.91	25.760
374.27	26.720
374.63	26.644
374.99	26.954
375.35	27.218
375.71	26.781
376.07	27.653
376.42	25.703
376.78	26.718
377.14	26.868
377.50	26.342
377.86	26.201
378.22	26.143
378.58	27.058
378.94	27.097
379.30	25.894
379.66	26.972
380.02	27.097
380.38	25.937
380.74	27.393
381.09	26.519
381.45	25.723
381.81	26.123
382.17	26.007
382.53	26.095
382.89	26.434
383.25	25.696
383.61	26.225
383.97	26.215
384.32	26.763
384.68	27.035
385.04	26.729
385.40	27.165
385.76	26.097
386.12	26.592
386.48	25.350
386.83	25.917
387.19	25.736
387.55	26.443
387.91	26.386
388.27	25.996
388.62	25.880
388.98	25.539
389.34	26.472
389.70	25.825
390.06	25.305
390.42	25.910
390.77	25.860
391.13	25.830
391.49	25.469
391.85	26.031
392.20	25.745
392.56	25.986
392.92	24.537
393.28	24.944
393.64	25.573
393.99	25.311
394.35	24.779
394.71	25.030
395.07	25.487
395.42	24.707
395.78	25.725
396.14	25.602
396.50	25.331
396.85	25.061
397.21	25.511
397.57	24.866
397.92	24.321
398.28	24.379
398.64	25.364
399.00	24.051
399.35	23.886
399.71	25.607
400.07	24.372
400.42	24.358
400.78	25.103
401.14	25.837
401.49	24.654
401.85	24.855
402.21	24.839
402.57	24.835
402.92	24.970
403.28	23.508
403.63	24.426
403.99	24.729
404.35	24.678
404.70	26.226
405.06	23.807
405.42	24.177
405.77	24.421
406.13	24.024
406.49	24.048
406.84	24.535
407.20	24.429
407.55	24.492
407.91	25.335
408.27	24.985
408.62	24.187
408.98	24.069
409.34	24.138
409.69	23.771
410.05	24.508
410.40	23.910
410.76	24.041
411.11	23.578
411.47	24.383
411.83	23.726
412.18	23.309
412.54	23.844
412.89	23.540
413.25	24.572
413.60	23.949
413.96	23.459
414.31	24.793
414.67	23.774
415.03	24.457
415.38	24.543
415.74	23.879
416.09	25.234
416.45	24.176
416.80	24.952
417.16	23.870
417.51	24.395
417.87	23.029
418.22	23.694
418.58	24.522
418.93	24.212
419.29	23.537
419.64	23.683
420.00	24.761
420.35	23.635
420.71	23.629
421.06	23.249
421.42	23.604
421.77	23.876
422.12	24.366
422.48	22.907
422.83	23.437
423.19	23.704
423.54	23.423
423.90	23.952
424.25	23.775
424.61	24.028
424.96	22.981
425.31	24.083
425.67	24.074
426.02	23.780
426.38	23.221
426.73	23.135
427.09	23.725
427.44	22.791
427.79	23.385
428.15	25.103
428.50	24.686
428.85	24.691
429.21	24.419
429.56	23.280
429.92	24.117
430.27	23.851
430.62	23.397
430.98	24.401
431.33	22.833
431.68	22.864
432.04	23.539
432.39	23.875
432.74	24.005
433.10	23.533
433.45	24.871
433.80	25.152
434.16	24.225
434.51	23.839
434.86	24.442
435.22	23.933
435.57	24.007
435.92	23.677
436.28	24.366
436.63	23.285
436.98	24.718
437.34	24.715
437.69	24.076
438.04	23.925
438.39	24.285
438.75	24.109
439.10	23.583
439.45	24.081
439.81	24.234
440.16	24.491
440.51	23.986
440.86	25.014
441.22	23.864
441.57	24.619
441.92	23.643
442.27	24.072
442.63	23.222
442.98	24.084
443.33	24.478
443.68	23.742
444.03	23.233
444.39	24.294
444.74	23.810
445.09	24.276
445.44	23.964
445.79	24.025
446.15	23.737
446.50	24.684
446.85	24.452
447.20	23.085
447.55	24.252
447.91	24.081
448.26	24.228
448.61	24.323
448.96	25.163
449.31	24.587
449.66	24.252
450.02	23.987
450.37	24.764
450.72	24.904
451.07	23.618
451.42	25.489
451.77	24.971
452.12	24.447
452.47	24.727
452.83	23.606
453.18	24.745
453.53	24.512
453.88	24.629
454.23	25.044
454.58	24.301
454.93	24.157
455.28	23.807
455.63	24.645
455.98	23.632
456.34	24.985
456.69	24.817
457.04	24.821
457.39	24.343
457.74	24.099
458.09	24.088
458.44	24.699
458.79	24.032
459.14	23.677
459.49	23.952
459.84	24.239
460.19	24.011
460.54	23.248
460.89	23.934
461.24	23.883
461.59	24.206
461.94	25.000
462.29	24.542
462.64	24.246
462.99	24.312
463.34	25.275
463.69	25.166
464.04	24.295
464.39	24.213
464.74	23.974
465.09	23.680
465.44	23.776
465.79	23.625
466.14	23.635
466.49	24.579
466.84	23.857
467.19	24.429
467.54	24.084
467.89	24.002
468.24	24.204
468.59	24.167
468.94	24.396
469.29	24.740
469.64	24.309
469.99	23.843
470.34	23.340
470.68	23.862
471.03	24.483
471.38	24.636
471.73	24.363
472.08	25.375
472.43	24.581
472.78	24.136
473.13	23.905
473.48	23.900
473.83	24.323
474.17	23.769
474.52	23.934
474.87	23.309
475.22	24.786
475.57	23.820
475.92	23.863
476.27	23.504
476.61	24.129
476.96	23.877
477.31	23.856
477.66	24.477
478.01	23.775
478.36	23.996
478.70	23.722
479.05	23.431
479.40	23.710
479.75	24.628
480.10	24.250
480.45	23.903
480.79	24.240
481.14	23.348
481.49	22.827
481.84	23.351
482.19	23.406
482.53	22.354
482.88	23.342
483.23	22.779
483.58	23.115
483.92	23.995
484.27	22.603
484.62	23.812
484.97	22.633
485.31	22.532
485.66	21.798
486.01	20.982
486.36	20.708
486.70	20.845
487.05	21.117
487.40	21.439
487.75	21.732
488.09	21.449
488.44	22.180
488.79	22.006
489.13	22.620
489.48	23.532
489.83	22.352
490.17	22.667
490.52	23.256
490.87	23.276
491.22	23.360
491.56	23.671
491.91	23.029
492.26	23.474
492.60	23.599
492.95	23.244
493.30	23.248
493.64	22.776
493.99	23.166
494.34	22.905
494.68	22.931
495.03	23.485
495.37	23.368
495.72	23.823
496.07	22.731
496.41	23.501
496.76	22.921
497.11	22.836
497.45	22.797
497.80	24.513
498.14	22.515
498.49	22.888
498.84	23.832
499.18	22.578
499.53	23.243
499.87	22.821
500.22	23.307
500.56	22.841
500.91	23.098
501.26	23.427
501.60	23.588
501.95	22.357
502.29	22.178
502.64	21.835
502.98	22.944
503.33	22.806
503.67	22.119
504.02	22.347
504.36	22.851
504.71	22.800
505.06	22.853
505.40	22.415
505.75	22.778
506.09	23.658
506.44	23.402
506.78	23.015
507.13	23.073
507.47	22.950
507.82	23.601
508.16	23.322
508.51	23.043
508.85	22.982
509.19	23.593
509.54	23.145
509.88	23.371
510.23	23.627
510.57	23.069
510.92	23.926
511.26	23.695
511.61	22.206
511.95	22.797
512.30	23.000
512.64	22.741
512.98	23.526
513.33	23.412
513.67	23.511
514.02	23.013
514.36	23.001
514.70	24.480
515.05	23.069
515.39	23.794
515.74	23.783
516.08	23.529
516.42	23.716
516.77	22.987
517.11	23.360
517.46	23.438
517.80	22.119
518.14	23.380
518.49	23.539
518.83	22.143
519.17	23.516
519.52	23.703
519.86	23.760
520.20	24.219
520.55	23.233
520.89	23.506
521.23	24.416
521.58	23.465
521.92	23.615
522.26	23.934
522.61	24.183
522.95	24.685
523.29	24.269
523.64	22.428
523.98	23.709
524.32	23.875
524.66	23.014
525.01	24.024
525.35	23.159
525.69	24.022
526.04	24.093
526.38	23.367
526.72	22.255
527.06	23.418
527.41	24.365
527.75	24.102
528.09	23.179
528.43	24.100
528.78	23.315
529.12	24.142
529.46	23.612
529.80	22.839
530.15	24.867
530.49	23.767
530.83	23.644
531.17	23.678
531.51	23.544
531.86	23.068
532.20	22.868
532.54	23.164
532.88	23.985
533.22	24.010
533.57	23.551
533.91	22.611
534.25	22.504
534.59	22.865
534.93	22.981
535.27	22.311
535.62	22.812
535.96	22.636
536.30	24.071
536.64	22.422
536.98	23.159
537.32	23.937
537.66	23.406
538.01	23.158
538.35	23.331
538.69	22.816
539.03	22.326
539.37	22.330
539.71	23.025
540.05	22.646
540.39	23.522
540.73	22.911
541.07	22.396
541.42	22.264
541.76	23.120
542.10	22.503
542.44	23.379
542.78	22.656
543.12	22.883
543.46	22.807
543.80	22.995
544.14	23.158
544.48	22.871
544.82	23.303
545.16	22.222
545.50	22.680
545.84	23.548
546.18	24.512
546.52	22.885
546.86	23.017
547.20	23.127
547.54	22.419
547.88	22.749
548.22	22.222
548.56	22.216
548.90	21.886
549.24	22.805
549.58	22.809
549.92	23.510
550.26	23.462
550.60	22.621
550.94	23.813
551.28	23.517
551.62	24.345
551.96	23.041
552.30	22.149
552.64	23.560
552.98	22.487
553.32	22.087
553.66	22.280
554.00	23.423
554.34	23.302
554.68	23.185
555.02	23.557
555.36	21.875
555.69	23.298
556.03	22.675
556.37	22.435
556.71	23.077
557.05	21.822
557.39	22.067
557.73	23.922
558.07	23.608
558.41	23.029
558.75	23.529
559.08	24.589
559.42	23.694
559.76	22.381
560.10	22.780
560.44	23.159
560.78	22.570
561.12	21.933
561.45	22.028
561.79	22.035
562.13	21.352
562.47	21.804
562.81	22.707
563.15	22.948
563.48	21.925
563.82	22.707
564.16	22.512
564.50	22.242
564.84	21.702
565.17	21.985
565.51	21.921
565.85	22.270
566.19	21.845
566.52	21.059
566.86	22.709
567.20	21.966
567.54	21.288
567.88	21.544
568.21	21.118
568.55	21.109
568.89	21.168
569.23	19.758
569.56	20.527
569.90	20.158
570.24	19.659
570.57	19.208
570.91	19.220
571.25	19.543
571.59	19.007
571.92	18.730
572.26	18.356
572.60	18.606
572.93	19.206
573.27	19.012
573.61	17.813
573.95	18.650
574.28	18.783
574.62	18.258
574.96	17.767
575.29	17.727
575.63	18.469
575.97	18.038
576.30	18.324
576.64	18.171
576.98	18.365
577.31	18.589
577.65	18.388
577.98	17.529
578.32	17.665
578.66	18.060
578.99	18.125
579.33	18.020
579.67	18.071
580.00	17.611
580.34	17.859
580.67	17.830
581.01	18.126
581.35	18.008
581.68	17.269
582.02	17.489
582.35	17.450
582.69	17.726
583.02	17.713
583.36	18.161
583.70	18.238
584.03	18.742
584.37	18.526
584.70	17.940
585.04	17.916
585.37	17.809
585.71	18.315
586.04	18.065
586.38	17.788
586.72	17.941
587.05	18.168
587.39	17.977
587.72	18.492
588.06	17.904
588.39	18.219
588.73	17.979
589.06	17.829
589.40	18.529
589.73	18.682
590.07	18.737
590.40	19.408
590.73	19.611
591.07	19.469
591.40	19.242
591.74	19.237
592.07	18.636
592.41	19.345
592.74	18.967
593.08	18.034
593.41	18.223
593.75	18.097
594.08	18.848
594.41	18.345
594.75	18.733
595.08	18.621
595.42	18.762
595.75	18.328
596.09	18.665
596.42	19.046
596.75	19.591
597.09	19.150
597.42	18.857
597.75	18.905
598.09	18.876
598.42	19.135
598.76	18.967
599.09	19.014
599.42	18.270
599.76	18.792
600.09	18.746
600.42	18.336
600.76	18.525
601.09	18.709
601.42	18.550
601.76	18.869
602.09	18.874
602.42	18.817
602.76	18.444
603.09	19.382
603.42	19.119
603.76	18.727
604.09	18.675
604.42	18.644
604.76	18.688
605.09	19.184
605.42	19.098
605.75	18.910
606.09	18.898
606.42	18.715
606.75	18.850
607.09	18.950
607.42	18.562
607.75	19.506
608.08	18.725
608.42	19.211
608.75	18.699
609.08	18.214
609.41	19.091
609.75	19.734
610.08	18.930
610.41	18.577
610.74	19.524
611.07	19.509
611.41	19.416
611.74	19.503
612.07	19.268
612.40	19.055
612.73	19.820
613.07	19.412
613.40	20.301
613.73	20.220
614.06	19.200
614.39	19.899
614.72	19.036
615.06	19.436
615.39	19.703
615.72	18.780
616.05	19.036
616.38	18.924
616.71	18.611
617.05	19.055
617.38	20.000
617.71	20.304
618.04	19.349
618.37	19.900
618.70	19.630
619.03	19.719
619.36	21.106
619.69	20.317
620.03	20.678
620.36	20.809
620.69	21.648
621.02	20.856
621.35	19.771
621.68	20.575
622.01	22.288
622.34	20.248
622.67	20.927
623.00	21.035
623.33	21.053
623.66	20.426
623.99	20.822
624.32	20.867
624.65	19.882
624.99	21.028
625.32	20.908
625.65	19.793
625.98	20.432
626.31	20.252
626.64	20.501
626.97	21.194
627.30	22.205
627.63	21.821
627.96	21.205
628.29	21.370
628.62	20.103
628.95	21.720
629.28	22.787
629.61	21.617
629.94	21.175
630.26	22.964
630.59	23.670
630.92	21.525
631.25	23.028
