SpectraSuite Data File
++++++++++++++++++++++++++++++++++++
Date: Tue May 12 16:47:53 PDT 2015
User: schluterlab
Dark Spectrum Present: Yes
Reference Spectrum Present: Yes
Number of Sampled Component Spectra: 1
Spectrometers: USB2E3373
Integration Time (usec): 3000 (USB2E3373)
Spectra Averaged: 3 (USB2E3373)
Boxcar Smoothing: 0 (USB2E3373)
Correct for Electrical Dark: No (USB2E3373)
Strobe/Lamp Enabled: No (USB2E3373)
Correct for Detector Non-linearity: No (USB2E3373)
Correct for Stray Light: No (USB2E3373)
Number of Pixels in Processed Spectrum: 2048
>>>>>Begin Processed Spectral Data<<<<<
178.53	0.000
178.91	-191.667
179.29	-775.000
179.67	-3700.000
180.04	-173.333
180.42	750.000
180.80	1150.000
181.18	0.000
181.56	-212.500
181.94	0.000
182.31	1233.333
182.69	-2500.000
183.07	500.000
183.45	-4600.000
183.83	-1500.000
184.20	400.000
184.58	485.714
184.96	-230.769
185.34	-191.667
185.72	1450.000
186.09	-700.000
186.47	-3500.000
186.85	1066.667
187.23	660.000
187.61	1350.000
187.98	475.000
188.36	242.857
188.74	366.667
189.12	400.000
189.49	1000.000
189.87	0.000
190.25	575.000
190.63	3500.000
191.00	-225.000
191.38	-2200.000
191.76	-700.000
192.14	600.000
192.51	-2300.000
192.89	1550.000
193.27	1133.333
193.65	-1266.667
194.02	-480.000
194.40	557.143
194.78	-185.714
195.15	253.333
195.53	-2800.000
195.91	-560.000
196.29	3900.000
196.66	243.750
197.04	1000.000
197.42	-1200.000
197.79	675.000
198.17	325.000
198.55	0.000
198.92	485.714
199.30	1666.667
199.68	2050.000
200.05	766.667
200.43	-383.333
200.81	183.333
201.18	2700.000
201.56	300.000
201.94	-900.000
202.31	-437.500
202.69	-540.000
203.07	2700.000
203.44	-533.333
203.82	266.667
204.19	800.000
204.57	-1550.000
204.95	-775.000
205.32	-800.000
205.70	666.667
206.08	975.000
206.45	-1133.333
206.83	433.333
207.20	210.526
207.58	283.333
207.96	860.000
208.33	0.000
208.71	571.429
209.08	780.000
209.46	-3400.000
209.84	-875.000
210.21	980.000
210.59	-720.000
210.96	291.667
211.34	-875.000
211.71	454.545
212.09	1100.000
212.46	1800.000
212.84	-516.667
213.22	466.667
213.59	-3400.000
213.97	290.000
214.34	800.000
214.72	1000.000
215.09	1133.333
215.47	-3400.000
215.84	-310.000
216.22	-475.000
216.59	0.000
216.97	0.000
217.34	1200.000
217.72	-1050.000
218.09	1166.667
218.47	412.500
218.84	800.000
219.22	1633.333
219.59	1033.333
219.97	485.714
220.34	400.000
220.72	1750.000
221.09	4000.000
221.47	283.333
221.84	700.000
222.22	400.000
222.59	250.000
222.97	264.286
223.34	306.250
223.72	-1950.000
224.09	1133.333
224.46	338.462
224.84	-950.000
225.21	388.889
225.59	306.667
225.96	1566.667
226.34	-680.000
226.71	-975.000
227.08	-700.000
227.46	0.000
227.83	-683.333
228.21	-2200.000
228.58	400.000
228.95	1150.000
229.33	477.778
229.70	1050.000
230.08	384.615
230.45	3600.000
230.82	-900.000
231.20	-1300.000
231.57	-1166.667
231.95	680.000
232.32	333.333
232.69	666.667
233.07	291.667
233.44	-1650.000
233.81	333.333
234.19	162.963
234.56	256.250
234.93	235.294
235.31	205.000
235.68	306.250
236.05	171.429
236.43	174.074
236.80	378.571
237.17	172.414
237.55	156.250
237.92	170.000
238.29	166.667
238.67	175.000
239.04	136.585
239.41	118.750
239.79	160.000
240.16	129.167
240.53	126.230
240.91	102.899
241.28	138.983
241.65	127.273
242.02	121.127
242.40	130.000
242.77	101.099
243.14	105.063
243.51	105.051
243.89	89.720
244.26	99.065
244.63	99.010
245.00	100.000
245.38	91.525
245.75	82.576
246.12	97.778
246.49	92.908
246.87	83.607
247.24	86.667
247.61	88.750
247.98	89.116
248.36	78.788
248.73	86.224
249.10	81.548
249.47	78.500
249.84	76.617
250.22	94.595
250.59	75.500
250.96	74.262
251.33	84.186
251.70	77.232
252.08	74.790
252.45	81.673
252.82	70.722
253.19	75.494
253.56	78.462
253.94	73.913
254.31	81.783
254.68	76.655
255.05	76.207
255.42	74.818
255.79	79.805
256.16	78.305
256.54	76.623
256.91	77.124
257.28	75.585
257.65	72.100
258.02	70.501
258.39	70.774
258.76	74.203
259.14	70.571
259.51	73.178
259.88	77.812
260.25	69.505
260.62	71.781
260.99	70.523
261.36	73.816
261.73	71.809
262.10	75.131
262.47	71.500
262.85	72.533
263.22	69.923
263.59	69.821
263.96	69.173
264.33	74.568
264.70	72.727
265.07	75.122
265.44	68.807
265.81	70.519
266.18	71.167
266.55	72.577
266.92	70.022
267.29	70.614
267.66	69.731
268.03	71.749
268.40	69.345
268.77	72.907
269.14	69.197
269.51	70.379
269.88	68.980
270.25	71.706
270.62	68.240
270.99	68.966
271.36	72.764
271.73	68.344
272.10	66.465
272.47	65.873
272.84	66.068
273.21	69.215
273.58	67.814
273.95	67.762
274.32	65.564
274.69	70.866
275.06	69.581
275.43	67.433
275.80	66.792
276.17	66.912
276.54	65.421
276.91	67.164
277.28	63.686
277.65	64.576
278.02	66.360
278.39	64.568
278.76	65.517
279.13	66.370
279.50	67.636
279.87	62.197
280.23	67.219
280.60	65.876
280.97	66.379
281.34	64.521
281.71	61.913
282.08	66.154
282.45	64.189
282.82	62.709
283.19	64.547
283.56	64.132
283.92	63.844
284.29	64.060
284.66	61.176
285.03	62.852
285.40	60.000
285.77	62.346
286.14	63.003
286.51	59.663
286.87	59.968
287.24	58.108
287.61	60.334
287.98	59.701
288.35	61.185
288.72	59.181
289.08	61.111
289.45	59.299
289.82	59.063
290.19	58.565
290.56	59.534
290.93	56.403
291.29	56.630
291.66	57.768
292.03	56.662
292.40	55.014
292.77	53.064
293.13	55.777
293.50	54.386
293.87	53.930
294.24	56.364
294.60	54.509
294.97	54.965
295.34	54.449
295.71	54.402
296.08	52.933
296.44	53.240
296.81	50.993
297.18	52.978
297.55	51.355
297.91	49.877
298.28	51.208
298.65	50.552
299.02	52.352
299.38	50.719
299.75	51.098
300.12	51.032
300.48	51.756
300.85	53.516
301.22	50.581
301.59	50.825
301.95	51.925
302.32	49.593
302.69	53.054
303.05	51.291
303.42	49.439
303.79	51.246
304.15	50.715
304.52	49.471
304.89	49.787
305.25	50.834
305.62	50.959
305.99	49.891
306.35	52.000
306.72	50.468
307.09	51.449
307.45	51.320
307.82	49.691
308.19	50.722
308.55	52.400
308.92	51.423
309.29	52.268
309.65	51.734
310.02	54.462
310.38	51.844
310.75	50.338
311.12	51.245
311.48	53.764
311.85	52.099
312.22	51.289
312.58	52.770
312.95	52.718
313.31	55.150
313.68	53.002
314.05	54.579
314.41	53.911
314.78	55.492
315.14	56.303
315.51	57.711
315.87	54.745
316.24	57.890
316.61	55.953
316.97	56.972
317.34	58.311
317.70	60.316
318.07	60.854
318.43	58.787
318.80	60.771
319.16	60.490
319.53	61.416
319.89	61.290
320.26	64.525
320.62	63.736
320.99	63.966
321.35	63.080
321.72	66.224
322.08	67.590
322.45	65.849
322.81	66.240
323.18	66.252
323.54	68.031
323.91	71.079
324.27	69.408
324.64	70.588
325.00	71.810
325.37	72.007
325.73	72.091
326.10	74.399
326.46	74.649
326.83	74.560
327.19	76.064
327.56	75.080
327.92	79.508
328.29	76.841
328.65	79.024
329.01	79.384
329.38	76.988
329.74	78.651
330.11	79.496
330.47	79.454
330.84	78.343
331.20	79.695
331.56	80.656
331.93	81.950
332.29	79.167
332.66	79.847
333.02	81.100
333.38	83.246
333.75	80.317
334.11	80.369
334.48	83.162
334.84	79.983
335.20	82.635
335.57	80.437
335.93	79.310
336.29	79.353
336.66	83.448
337.02	81.009
337.38	81.341
337.75	83.277
338.11	81.435
338.47	81.456
338.84	79.763
339.20	81.558
339.56	81.497
339.93	80.518
340.29	81.092
340.65	79.715
341.02	81.175
341.38	82.348
341.74	81.478
342.11	81.386
342.47	80.476
342.83	82.363
343.20	79.790
343.56	78.396
343.92	80.842
344.28	80.383
344.65	81.500
345.01	80.079
345.37	78.365
345.73	79.524
346.10	79.841
346.46	79.825
346.82	78.627
347.19	79.985
347.55	80.484
347.91	77.341
348.27	79.009
348.63	80.696
349.00	78.522
349.36	80.467
349.72	78.976
350.08	79.503
350.45	79.741
350.81	79.434
351.17	79.969
351.53	80.216
351.89	80.031
352.26	79.819
352.62	78.205
352.98	79.908
353.34	79.276
353.70	78.440
354.07	79.846
354.43	79.954
354.79	77.752
355.15	79.709
355.51	79.834
355.87	79.669
356.24	79.523
356.60	78.463
356.96	79.303
357.32	77.995
357.68	78.194
358.04	79.711
358.40	79.460
358.77	78.738
359.13	78.003
359.49	77.465
359.85	79.151
360.21	78.232
360.57	78.540
360.93	78.788
361.29	79.365
361.66	81.506
362.02	77.983
362.38	77.706
362.74	79.335
363.10	77.980
363.46	78.246
363.82	78.612
364.18	79.872
364.54	81.974
364.90	79.183
365.26	79.112
365.62	79.903
365.98	78.045
366.35	77.310
366.71	78.695
367.07	77.679
367.43	79.315
367.79	75.931
368.15	77.069
368.51	78.842
368.87	78.668
369.23	80.319
369.59	78.152
369.95	79.720
370.31	78.645
370.67	79.528
371.03	77.381
371.39	78.947
371.75	77.460
372.11	79.062
372.47	77.466
372.83	78.858
373.19	77.245
373.55	78.694
373.91	78.315
374.27	77.976
374.63	79.458
374.99	77.156
375.35	78.898
375.71	78.760
376.07	78.780
376.42	76.662
376.78	80.347
377.14	79.882
377.50	76.779
377.86	78.283
378.22	78.062
378.58	79.661
378.94	78.938
379.30	78.229
379.66	78.567
380.02	77.889
380.38	79.274
380.74	79.239
381.09	78.271
381.45	77.225
381.81	78.369
382.17	78.755
382.53	79.484
382.89	78.533
383.25	78.567
383.61	77.867
383.97	78.944
384.32	77.215
384.68	78.491
385.04	76.788
385.40	77.461
385.76	78.233
386.12	78.169
386.48	79.027
386.83	77.262
387.19	77.915
387.55	78.151
387.91	77.887
388.27	79.298
388.62	78.052
388.98	76.676
389.34	76.978
389.70	78.361
390.06	78.963
390.42	78.285
390.77	78.071
391.13	79.119
391.49	75.378
391.85	77.846
392.20	77.592
392.56	78.076
392.92	77.597
393.28	77.747
393.64	78.096
393.99	76.941
394.35	77.752
394.71	77.201
395.07	77.555
395.42	78.747
395.78	79.149
396.14	78.012
396.50	76.895
396.85	77.256
397.21	78.099
397.57	76.987
397.92	76.834
398.28	77.386
398.64	77.429
399.00	76.323
399.35	76.490
399.71	76.159
400.07	77.683
400.42	78.806
400.78	77.713
401.14	78.685
401.49	77.074
401.85	77.057
402.21	78.793
402.57	78.755
402.92	78.121
403.28	77.208
403.63	76.516
403.99	76.719
404.35	77.902
404.70	78.323
405.06	77.148
405.42	77.798
405.77	77.894
406.13	75.651
406.49	76.123
406.84	75.973
407.20	76.655
407.55	76.923
407.91	78.047
408.27	78.775
408.62	77.410
408.98	77.232
409.34	76.680
409.69	78.034
410.05	76.685
410.40	76.914
410.76	75.444
411.11	75.770
411.47	76.667
411.83	75.513
412.18	77.717
412.54	77.357
412.89	76.047
413.25	75.941
413.60	76.752
413.96	77.499
414.31	76.919
414.67	76.040
415.03	77.650
415.38	77.603
415.74	77.006
416.09	76.889
416.45	78.216
416.80	78.576
417.16	76.830
417.51	77.771
417.87	77.409
418.22	76.428
418.58	77.898
418.93	76.502
419.29	76.094
419.64	76.317
420.00	78.878
420.35	77.526
420.71	77.771
421.06	78.222
421.42	76.857
421.77	77.790
422.12	78.060
422.48	75.501
422.83	77.902
423.19	78.078
423.54	75.645
423.90	77.293
424.25	77.160
424.61	77.887
424.96	76.623
425.31	78.763
425.67	77.946
426.02	77.173
426.38	77.421
426.73	78.138
427.09	78.885
427.44	77.603
427.79	79.188
428.15	78.256
428.50	78.457
428.85	77.954
429.21	78.282
429.56	77.517
429.92	77.126
430.27	76.875
430.62	76.260
430.98	76.597
431.33	75.151
431.68	76.642
432.04	76.875
432.39	77.333
432.74	78.923
433.10	77.298
433.45	78.690
433.80	77.992
434.16	76.931
434.51	76.780
434.86	77.409
435.22	78.498
435.57	77.949
435.92	78.258
436.28	78.917
436.63	77.418
436.98	79.955
437.34	77.397
437.69	76.148
438.04	77.312
438.39	78.984
438.75	78.285
439.10	79.601
439.45	77.954
439.81	79.931
440.16	78.316
440.51	78.266
440.86	77.892
441.22	77.219
441.57	79.003
441.92	78.233
442.27	78.041
442.63	76.982
442.98	78.287
443.33	78.415
443.68	78.823
444.03	77.615
444.39	78.107
444.74	78.106
445.09	77.251
445.44	78.268
445.79	79.337
446.15	78.947
446.50	78.059
446.85	78.984
447.20	79.403
447.55	80.152
447.91	78.796
448.26	78.168
448.61	79.160
448.96	79.357
449.31	79.868
449.66	78.516
450.02	77.310
450.37	79.178
450.72	80.386
451.07	79.174
451.42	79.668
451.77	79.095
452.12	79.126
452.47	79.283
452.83	80.056
453.18	79.880
453.53	78.508
453.88	80.400
454.23	80.418
454.58	78.089
454.93	79.277
455.28	80.539
455.63	80.201
455.98	78.511
456.34	81.824
456.69	80.488
457.04	80.668
457.39	79.543
457.74	80.293
458.09	78.046
458.44	78.478
458.79	79.629
459.14	79.433
459.49	79.388
459.84	80.217
460.19	79.322
460.54	79.658
460.89	79.318
461.24	77.377
461.59	79.082
461.94	78.842
462.29	81.064
462.64	80.716
462.99	80.358
463.34	79.196
463.69	81.065
464.04	81.865
464.39	79.393
464.74	78.077
465.09	78.352
465.44	79.217
465.79	79.532
466.14	78.855
466.49	79.110
466.84	78.149
467.19	79.379
467.54	77.297
467.89	79.049
468.24	80.023
468.59	80.417
468.94	80.737
469.29	80.330
469.64	80.643
469.99	80.656
470.34	81.151
470.68	79.724
471.03	82.121
471.38	79.868
471.73	79.621
472.08	82.714
472.43	80.509
472.78	79.962
473.13	78.473
473.48	79.951
473.83	79.918
474.17	80.304
474.52	79.384
474.87	80.273
475.22	81.325
475.57	77.545
475.92	78.641
476.27	78.292
476.61	79.839
476.96	78.370
477.31	80.617
477.66	81.804
478.01	79.268
478.36	80.433
478.70	80.248
479.05	81.381
479.40	80.506
479.75	81.629
480.10	79.961
480.45	79.272
480.79	79.816
481.14	79.173
481.49	79.689
481.84	78.892
482.19	80.175
482.53	78.261
482.88	80.063
483.23	80.244
483.58	79.982
483.92	80.576
484.27	78.938
484.62	80.348
484.97	77.951
485.31	78.933
485.66	78.202
486.01	77.307
486.36	75.936
486.70	75.506
487.05	75.919
487.40	76.733
487.75	77.697
488.09	77.102
488.44	77.916
488.79	78.827
489.13	79.694
489.48	79.385
489.83	78.941
490.17	78.778
490.52	81.395
490.87	78.922
491.22	80.319
491.56	79.754
491.91	79.167
492.26	80.178
492.60	80.911
492.95	80.879
493.30	78.844
493.64	79.066
493.99	78.846
494.34	80.278
494.68	80.212
495.03	79.524
495.37	79.829
495.72	80.466
496.07	80.593
496.41	79.453
496.76	80.034
497.11	80.077
497.45	80.272
497.80	80.862
498.14	80.490
498.49	78.552
498.84	80.514
499.18	79.159
499.53	81.442
499.87	79.425
500.22	80.516
500.56	81.012
500.91	80.148
501.26	81.626
501.60	80.282
501.95	79.794
502.29	80.267
502.64	79.180
502.98	79.413
503.33	81.024
503.67	79.338
504.02	78.818
504.36	80.317
504.71	81.315
505.06	80.103
505.40	79.457
505.75	80.870
506.09	79.655
506.44	80.498
506.78	82.278
507.13	81.289
507.47	80.543
507.82	79.708
508.16	81.578
508.51	81.643
508.85	79.915
509.19	81.694
509.54	80.176
509.88	80.358
510.23	80.098
510.57	78.427
510.92	81.019
511.26	81.175
511.61	79.911
511.95	79.293
512.30	80.050
512.64	80.633
512.98	80.625
513.33	80.328
513.67	81.978
514.02	81.766
514.36	80.685
514.70	82.027
515.05	80.714
515.39	81.963
515.74	82.231
516.08	81.481
516.42	83.825
516.77	81.387
517.11	80.693
517.46	81.789
517.80	81.595
518.14	82.085
518.49	80.320
518.83	81.264
519.17	81.420
519.52	81.486
519.86	81.417
520.20	81.589
520.55	81.176
520.89	81.782
521.23	84.638
521.58	81.239
521.92	81.691
522.26	80.746
522.61	81.878
522.95	83.724
523.29	82.105
523.64	80.925
523.98	82.336
524.32	81.430
524.66	82.319
525.01	81.243
525.35	81.791
525.69	82.601
526.04	81.440
526.38	81.989
526.72	81.623
527.06	80.662
527.41	82.164
527.75	82.836
528.09	80.734
528.43	82.123
528.78	82.171
529.12	83.504
529.46	80.713
529.80	80.607
530.15	81.202
530.49	81.528
530.83	80.500
531.17	82.534
531.51	80.748
531.86	79.771
532.20	81.273
532.54	82.549
532.88	82.136
533.22	81.536
533.57	82.184
533.91	80.536
534.25	79.746
534.59	81.637
534.93	79.010
535.27	78.771
535.62	80.163
535.96	80.319
536.30	81.779
536.64	82.236
536.98	81.309
537.32	81.438
537.66	80.293
538.01	80.495
538.35	81.098
538.69	80.340
539.03	80.473
539.37	79.551
539.71	80.123
540.05	79.692
540.39	80.692
540.73	81.203
541.07	80.740
541.42	80.535
541.76	80.271
542.10	81.011
542.44	80.611
542.78	81.309
543.12	77.791
543.46	78.947
543.80	80.326
544.14	80.495
544.48	80.049
544.82	80.734
545.16	79.964
545.50	80.885
545.84	81.187
546.18	82.965
546.52	80.262
546.86	80.658
547.20	78.941
547.54	78.721
547.88	78.163
548.22	78.871
548.56	77.490
548.90	78.410
549.24	79.912
549.58	78.608
549.92	79.764
550.26	81.812
550.60	79.574
550.94	81.954
551.28	79.793
551.62	82.276
551.96	79.257
552.30	79.103
552.64	81.100
552.98	78.028
553.32	77.465
553.66	78.046
554.00	79.665
554.34	79.760
554.68	79.301
555.02	79.226
555.36	79.056
555.69	79.254
556.03	78.535
556.37	78.967
556.71	79.140
557.05	77.982
557.39	78.267
557.73	80.121
558.07	78.873
558.41	78.684
558.75	77.702
559.08	79.485
559.42	80.387
559.76	80.684
560.10	78.458
560.44	77.040
560.78	79.028
561.12	78.957
561.45	78.285
561.79	78.090
562.13	78.395
562.47	79.299
562.81	78.269
563.15	77.117
563.48	76.211
563.82	79.850
564.16	78.483
564.50	76.673
564.84	76.717
565.17	77.362
565.51	79.865
565.85	78.532
566.19	77.083
566.52	77.617
566.86	77.758
567.20	76.798
567.54	77.293
567.88	77.726
568.21	75.637
568.55	76.508
568.89	74.088
569.23	74.633
569.56	75.719
569.90	73.518
570.24	75.571
570.57	73.556
570.91	74.041
571.25	73.428
571.59	71.686
571.92	72.605
572.26	72.129
572.60	72.174
572.93	72.427
573.27	72.343
573.61	71.711
573.95	71.788
574.28	72.419
574.62	72.007
574.96	70.411
575.29	70.410
575.63	70.059
575.97	70.326
576.30	69.527
576.64	70.883
576.98	70.908
577.31	71.019
577.65	70.158
577.98	70.156
578.32	69.720
578.66	70.276
578.99	70.233
579.33	70.997
579.67	70.321
580.00	69.755
580.34	70.273
580.67	70.380
581.01	70.309
581.35	69.688
581.68	69.656
582.02	70.340
582.35	70.102
582.69	69.650
583.02	69.765
583.36	70.133
583.70	70.763
584.03	72.458
584.37	70.671
584.70	69.818
585.04	70.188
585.37	69.454
585.71	70.787
586.04	69.749
586.38	69.715
586.72	70.322
587.05	70.690
587.39	69.633
587.72	69.432
588.06	70.052
588.39	70.010
588.73	69.954
589.06	71.141
589.40	71.111
589.73	69.846
590.07	72.512
590.40	71.603
590.73	71.796
591.07	71.385
591.40	71.457
591.74	71.753
592.07	70.466
592.41	70.344
592.74	70.231
593.08	69.108
593.41	69.779
593.75	68.668
594.08	68.710
594.41	68.850
594.75	69.007
595.08	70.130
595.42	69.421
595.75	69.299
596.09	70.594
596.42	68.682
596.75	71.354
597.09	70.243
597.42	68.286
597.75	70.345
598.09	69.799
598.42	68.666
598.76	68.427
599.09	68.849
599.42	68.478
599.76	68.758
600.09	68.339
600.42	68.923
600.76	68.015
601.09	68.208
601.42	68.004
601.76	67.956
602.09	68.985
602.42	68.096
602.76	68.311
603.09	69.268
603.42	68.991
603.76	68.185
604.09	69.164
604.42	68.776
604.76	68.471
605.09	68.735
605.42	68.753
605.75	68.654
606.09	67.789
606.42	66.817
606.75	68.247
607.09	68.535
607.42	68.180
607.75	67.476
608.08	67.181
608.42	68.792
608.75	67.309
609.08	68.148
609.41	69.091
609.75	68.681
610.08	67.176
610.41	68.950
610.74	67.100
611.07	68.713
611.41	68.675
611.74	69.790
612.07	68.593
612.40	68.324
612.73	67.698
613.07	69.894
613.40	69.123
613.73	68.347
614.06	66.950
614.39	68.081
614.72	67.403
615.06	67.161
615.39	66.683
615.72	66.747
616.05	67.805
616.38	65.703
616.71	66.793
617.05	68.479
617.38	67.753
617.71	67.942
618.04	68.256
618.37	68.427
618.70	68.360
619.03	69.109
619.36	69.912
619.69	66.953
620.03	69.406
620.36	68.658
620.69	68.710
621.02	69.090
621.35	68.123
621.68	68.805
622.01	69.815
622.34	70.503
622.67	70.435
623.00	67.733
623.33	69.703
623.66	68.197
623.99	69.658
624.32	68.835
624.65	68.993
624.99	69.168
625.32	67.669
625.65	67.931
625.98	67.364
626.31	70.104
626.64	68.869
626.97	67.636
627.30	69.876
627.63	68.838
627.96	68.075
628.29	70.380
628.62	68.435
628.95	70.567
629.28	70.640
629.61	68.717
629.94	70.182
630.26	68.024
630.59	69.415
630.92	69.865
