SpectraSuite Data File
++++++++++++++++++++++++++++++++++++
Date: Tue May 12 15:20:25 PDT 2015
User: schluterlab
Dark Spectrum Present: Yes
Reference Spectrum Present: Yes
Number of Sampled Component Spectra: 1
Spectrometers: USB2E3373
Integration Time (usec): 3000 (USB2E3373)
Spectra Averaged: 3 (USB2E3373)
Boxcar Smoothing: 0 (USB2E3373)
Correct for Electrical Dark: No (USB2E3373)
Strobe/Lamp Enabled: No (USB2E3373)
Correct for Detector Non-linearity: No (USB2E3373)
Correct for Stray Light: No (USB2E3373)
Number of Pixels in Processed Spectrum: 2048
>>>>>Begin Processed Spectral Data<<<<<
178.53	0.000
178.91	-183.333
179.29	-675.000
179.67	-3400.000
180.04	-106.667
180.42	475.000
180.80	1450.000
181.18	0.000
181.56	-187.500
181.94	0.000
182.31	1233.333
182.69	-3400.000
183.07	528.571
183.45	-2000.000
183.83	-1450.000
184.20	380.000
184.58	514.286
184.96	-184.615
185.34	-141.667
185.72	1300.000
186.09	-725.000
186.47	-3100.000
186.85	966.667
187.23	660.000
187.61	1600.000
187.98	425.000
188.36	200.000
188.74	375.000
189.12	258.333
189.49	1100.000
189.87	0.000
190.25	462.500
190.63	2800.000
191.00	-283.333
191.38	-3300.000
191.76	-725.000
192.14	475.000
192.51	-1600.000
192.89	1800.000
193.27	966.667
193.65	-933.333
194.02	-540.000
194.40	485.714
194.78	-164.286
195.15	280.000
195.53	-3400.000
195.91	-620.000
196.29	3000.000
196.66	231.250
197.04	775.000
197.42	-1800.000
197.79	800.000
198.17	291.667
198.55	0.000
198.92	457.143
199.30	1433.333
199.68	2000.000
200.05	516.667
200.43	-400.000
200.81	200.000
201.18	3500.000
201.56	300.000
201.94	-800.000
202.31	-337.500
202.69	-540.000
203.07	2300.000
203.44	-483.333
203.82	341.667
204.19	720.000
204.57	-1050.000
204.95	-725.000
205.32	-780.000
205.70	500.000
206.08	525.000
206.45	-600.000
206.83	333.333
207.20	210.526
207.58	166.667
207.96	520.000
208.33	0.000
208.71	400.000
209.08	660.000
209.46	-2100.000
209.84	-575.000
210.21	820.000
210.59	-500.000
210.96	308.333
211.34	-725.000
211.71	327.273
212.09	1000.000
212.46	1650.000
212.84	-350.000
213.22	433.333
213.59	-3200.000
213.97	330.000
214.34	1000.000
214.72	1266.667
215.09	1200.000
215.47	-2300.000
215.84	-290.000
216.22	-350.000
216.59	0.000
216.97	0.000
217.34	1900.000
217.72	-1400.000
218.09	966.667
218.47	525.000
218.84	1000.000
219.22	1033.333
219.59	800.000
219.97	471.429
220.34	344.444
220.72	1250.000
221.09	3100.000
221.47	308.333
221.84	866.667
222.22	360.000
222.59	244.444
222.97	214.286
223.34	275.000
223.72	-1800.000
224.09	833.333
224.46	215.385
224.84	-725.000
225.21	400.000
225.59	246.667
225.96	1200.000
226.34	-580.000
226.71	-750.000
227.08	-680.000
227.46	0.000
227.83	-583.333
228.21	-1400.000
228.58	333.333
228.95	1025.000
229.33	333.333
229.70	900.000
230.08	330.769
230.45	2800.000
230.82	-700.000
231.20	-733.333
231.57	-1100.000
231.95	560.000
232.32	350.000
232.69	550.000
233.07	258.333
233.44	-1200.000
233.81	233.333
234.19	170.370
234.56	125.000
234.93	176.471
235.31	190.000
235.68	218.750
236.05	110.714
236.43	122.222
236.80	200.000
237.17	131.034
237.55	118.750
237.92	105.000
238.29	133.333
238.67	100.000
239.04	95.122
239.41	81.250
239.79	85.000
240.16	89.583
240.53	62.295
240.91	57.971
241.28	62.712
241.65	50.000
242.02	74.648
242.40	71.429
242.77	51.648
243.14	58.228
243.51	64.646
243.89	49.533
244.26	51.402
244.63	53.465
245.00	45.872
245.38	33.898
245.75	43.939
246.12	48.148
246.49	39.716
246.87	31.148
247.24	39.333
247.61	35.000
247.98	42.177
248.36	33.939
248.73	39.796
249.10	38.690
249.47	33.000
249.84	34.826
250.22	34.054
250.59	36.500
250.96	33.755
251.33	30.233
251.70	34.821
252.08	35.294
252.45	32.271
252.82	27.376
253.19	30.435
253.56	25.769
253.94	29.710
254.31	26.744
254.68	34.146
255.05	30.345
255.42	32.482
255.79	31.270
256.16	31.525
256.54	30.844
256.91	30.392
257.28	32.776
257.65	26.332
258.02	26.549
258.39	27.794
258.76	31.304
259.14	27.143
259.51	27.988
259.88	27.052
260.25	25.824
260.62	27.945
260.99	23.140
261.36	25.627
261.73	27.394
262.10	27.225
262.47	28.750
262.85	25.333
263.22	24.936
263.59	26.343
263.96	25.564
264.33	26.173
264.70	26.781
265.07	29.512
265.44	28.211
265.81	26.887
266.18	27.231
266.55	24.586
266.92	23.266
267.29	25.439
267.66	24.215
268.03	25.561
268.40	23.890
268.77	24.890
269.14	23.861
269.51	25.390
269.88	24.898
270.25	23.542
270.62	23.820
270.99	27.789
271.36	27.033
271.73	22.222
272.10	24.848
272.47	24.405
272.84	23.353
273.21	24.380
273.58	22.470
273.95	24.025
274.32	25.292
274.69	26.772
275.06	24.954
275.43	25.287
275.80	24.717
276.17	25.551
276.54	25.234
276.91	24.440
277.28	22.445
277.65	23.432
278.02	23.529
278.39	23.381
278.76	24.828
279.13	21.708
279.50	23.273
279.87	20.670
280.23	21.179
280.60	21.898
280.97	23.966
281.34	24.422
281.71	22.609
282.08	26.496
282.45	21.791
282.82	22.241
283.19	22.734
283.56	22.479
283.92	21.336
284.29	23.627
284.66	23.361
285.03	22.388
285.40	22.479
285.77	20.062
286.14	23.065
286.51	22.393
286.87	21.361
287.24	20.571
287.61	20.821
287.98	23.134
288.35	21.926
288.72	22.155
289.08	22.973
289.45	19.970
289.82	22.500
290.19	22.548
290.56	21.106
290.93	20.576
291.29	21.271
291.66	21.610
292.03	20.757
292.40	20.732
292.77	20.752
293.13	21.398
293.50	20.918
293.87	18.835
294.24	21.538
294.60	22.476
294.97	21.678
295.34	21.248
295.71	21.288
296.08	20.800
296.44	20.712
296.81	20.347
297.18	21.293
297.55	21.921
297.91	20.813
298.28	21.498
298.65	21.350
299.02	18.938
299.38	22.062
299.75	20.976
300.12	23.050
300.48	22.834
300.85	22.050
301.22	20.814
301.59	21.108
301.95	22.054
302.32	22.468
302.69	21.493
303.05	24.130
303.42	21.076
303.79	23.727
304.15	21.452
304.52	21.036
304.89	22.921
305.25	22.024
305.62	22.814
305.99	23.043
306.35	22.421
306.72	22.789
307.09	22.360
307.45	22.598
307.82	23.045
308.19	23.196
308.55	23.100
308.92	24.436
309.29	25.247
309.65	25.074
310.02	25.862
310.38	25.424
310.75	23.626
311.12	24.330
311.48	26.448
311.85	25.763
312.22	25.597
312.58	25.850
312.95	26.311
313.31	27.434
313.68	26.079
314.05	28.846
314.41	29.050
314.78	29.072
315.14	28.910
315.51	29.612
315.87	28.193
316.24	28.945
316.61	29.991
316.97	30.275
317.34	31.087
317.70	31.519
318.07	32.740
318.43	32.777
318.80	33.275
319.16	34.266
319.53	33.805
319.89	33.692
320.26	36.313
320.62	35.073
320.99	36.034
321.35	35.158
321.72	37.002
322.08	38.319
322.45	38.238
322.81	39.799
323.18	40.142
323.54	41.463
323.91	41.614
324.27	41.468
324.64	42.388
325.00	42.845
325.37	44.013
325.73	44.772
326.10	46.479
326.46	45.582
326.83	45.360
327.19	48.112
327.56	46.805
327.92	48.525
328.29	49.836
328.65	51.627
329.01	50.470
329.38	49.662
329.74	50.982
330.11	51.607
330.47	52.003
330.84	51.596
331.20	51.607
331.56	53.886
331.93	53.807
332.29	53.656
332.66	53.741
333.02	53.694
333.38	53.403
333.75	55.213
334.11	53.440
334.48	54.957
334.84	54.054
335.20	54.405
335.57	52.309
335.93	51.976
336.29	53.068
336.66	56.261
337.02	54.577
337.38	54.342
337.75	54.139
338.11	55.021
338.47	54.022
338.84	55.038
339.20	55.411
339.56	55.425
339.93	55.017
340.29	54.118
340.65	53.562
341.02	54.948
341.38	53.530
341.74	54.568
342.11	54.925
342.47	54.061
342.83	55.455
343.20	54.729
343.56	52.661
343.92	55.161
344.28	55.263
344.65	56.398
345.01	53.413
345.37	55.128
345.73	54.127
346.10	54.343
346.46	54.785
346.82	53.858
347.19	54.019
347.55	53.786
347.91	54.230
348.27	53.292
348.63	54.826
349.00	54.303
349.36	55.175
349.72	54.434
350.08	55.357
350.45	54.379
350.81	54.128
351.17	54.237
351.53	54.811
351.89	54.079
352.26	52.683
352.62	54.977
352.98	53.834
353.34	55.855
353.70	53.517
354.07	55.308
354.43	55.069
354.79	53.531
355.15	55.590
355.51	54.079
355.87	53.464
356.24	54.503
356.60	53.805
356.96	54.208
357.32	52.751
357.68	54.258
358.04	53.875
358.40	53.448
358.77	53.944
359.13	53.904
359.49	53.744
359.85	54.952
360.21	52.452
360.57	53.504
360.93	54.040
361.29	53.968
361.66	54.810
362.02	53.551
362.38	53.247
362.74	54.706
363.10	55.330
363.46	53.315
363.82	53.647
364.18	53.485
364.54	55.150
364.90	53.347
365.26	53.574
365.62	53.177
365.98	53.063
366.35	52.966
366.71	54.060
367.07	53.584
367.43	53.324
367.79	53.191
368.15	51.696
368.51	53.411
368.87	54.212
369.23	53.222
369.59	51.585
369.95	54.406
370.31	52.430
370.67	52.186
371.03	52.801
371.39	53.532
371.75	52.477
372.11	53.977
372.47	52.397
372.83	53.365
373.19	53.598
373.55	52.509
373.91	53.039
374.27	52.447
374.63	52.339
374.99	51.280
375.35	53.360
375.71	52.770
376.07	52.056
376.42	51.662
376.78	52.601
377.14	53.080
377.50	52.434
377.86	52.146
378.22	52.651
378.58	52.906
378.94	52.444
379.30	52.577
379.66	51.776
380.02	52.199
380.38	52.049
380.74	52.826
381.09	50.701
381.45	51.272
381.81	51.478
382.17	50.611
382.53	52.789
382.89	51.922
383.25	51.095
383.61	51.354
383.97	51.530
384.32	51.417
384.68	51.337
385.04	50.586
385.40	51.542
385.76	50.029
386.12	49.969
386.48	51.915
386.83	51.284
387.19	50.353
387.55	51.119
387.91	50.751
388.27	50.446
388.62	49.941
388.98	48.630
389.34	48.899
389.70	48.880
390.06	49.024
390.42	48.859
390.77	50.184
391.13	50.211
391.49	48.820
391.85	49.600
392.20	48.749
392.56	49.642
392.92	49.074
393.28	47.646
393.64	47.936
393.99	47.836
394.35	48.146
394.71	47.949
395.07	48.358
395.42	48.419
395.78	48.057
396.14	48.735
396.50	47.894
396.85	48.720
397.21	47.353
397.57	47.101
397.92	47.025
398.28	47.821
398.64	47.469
399.00	47.301
399.35	46.323
399.71	46.192
400.07	46.176
400.42	46.507
400.78	46.393
401.14	46.389
401.49	46.486
401.85	46.524
402.21	45.694
402.57	46.679
402.92	45.758
403.28	46.480
403.63	45.556
403.99	46.441
404.35	46.600
404.70	45.540
405.06	44.750
405.42	45.542
405.77	44.542
406.13	44.740
406.49	43.206
406.84	43.260
407.20	43.893
407.55	44.923
407.91	45.565
408.27	44.269
408.62	43.938
408.98	44.175
409.34	42.373
409.69	43.622
410.05	44.007
410.40	42.815
410.76	42.473
411.11	42.832
411.47	41.852
411.83	41.886
412.18	41.848
412.54	42.462
412.89	42.419
413.25	42.645
413.60	43.341
413.96	42.430
414.31	41.677
414.67	42.768
415.03	41.954
415.38	42.587
415.74	42.451
416.09	41.412
416.45	41.629
416.80	43.361
417.16	41.439
417.51	42.357
417.87	42.115
418.22	41.009
418.58	41.847
418.93	41.225
419.29	40.604
419.64	40.703
420.00	41.706
420.35	41.638
420.71	41.540
421.06	41.201
421.42	40.875
421.77	42.199
422.12	41.345
422.48	39.240
422.83	41.629
423.19	40.713
423.54	39.495
423.90	41.903
424.25	41.332
424.61	40.743
424.96	40.486
425.31	40.339
425.67	41.470
426.02	41.671
426.38	40.548
426.73	40.602
427.09	41.459
427.44	39.505
427.79	43.110
428.15	42.251
428.50	42.114
428.85	40.447
429.21	41.329
429.56	39.482
429.92	39.930
430.27	40.203
430.62	39.158
430.98	39.721
431.33	39.768
431.68	38.617
432.04	39.472
432.39	40.670
432.74	40.164
433.10	40.089
433.45	40.839
433.80	41.147
434.16	38.360
434.51	40.248
434.86	39.848
435.22	40.086
435.57	39.953
435.92	41.548
436.28	39.977
436.63	39.978
436.98	39.977
437.34	39.954
437.69	39.866
438.04	40.161
438.39	40.280
438.75	40.256
439.10	39.935
439.45	38.666
439.81	40.197
440.16	40.286
440.51	39.696
440.86	41.481
441.22	40.152
441.57	39.580
441.92	39.487
442.27	38.608
442.63	40.549
442.98	38.901
443.33	38.565
443.68	38.883
444.03	39.727
444.39	39.124
444.74	38.768
445.09	39.389
445.44	38.363
445.79	39.425
446.15	39.158
446.50	38.766
446.85	39.741
447.20	38.060
447.55	39.152
447.91	39.425
448.26	38.711
448.61	39.746
448.96	39.706
449.31	39.329
449.66	39.701
450.02	39.384
450.37	39.256
450.72	40.771
451.07	38.104
451.42	38.471
451.77	39.290
452.12	39.195
452.47	39.490
452.83	39.324
453.18	38.859
453.53	38.899
453.88	39.429
454.23	38.234
454.58	38.578
454.93	38.688
455.28	37.821
455.63	39.243
455.98	39.255
456.34	40.000
456.69	38.537
457.04	39.081
457.39	38.686
457.74	39.133
458.09	36.721
458.44	37.459
458.79	38.727
459.14	37.152
459.49	38.279
459.84	38.587
460.19	37.288
460.54	37.664
460.89	37.846
461.24	36.197
461.59	38.322
461.94	37.766
462.29	38.673
462.64	38.631
462.99	39.155
463.34	37.265
463.69	37.992
464.04	37.248
464.39	36.806
464.74	37.339
465.09	36.390
465.44	36.997
465.79	36.690
466.14	35.877
466.49	36.788
466.84	37.402
467.19	37.141
467.54	36.817
467.89	37.969
468.24	37.001
468.59	37.500
468.94	37.440
469.29	36.286
469.64	36.913
469.99	37.661
470.34	36.433
470.68	36.345
471.03	37.892
471.38	36.887
471.73	37.884
472.08	38.487
472.43	37.678
472.78	36.940
473.13	35.982
473.48	37.103
473.83	36.985
474.17	36.474
474.52	36.315
474.87	35.986
475.22	35.808
475.57	35.624
475.92	35.207
476.27	35.147
476.61	35.174
476.96	35.528
477.31	36.401
477.66	37.520
478.01	36.256
478.36	35.891
478.70	35.732
479.05	36.088
479.40	35.863
479.75	36.296
480.10	35.334
480.45	35.808
480.79	35.069
481.14	35.188
481.49	34.995
481.84	33.905
482.19	34.760
482.53	34.343
482.88	34.543
483.23	34.145
483.58	35.144
483.92	35.466
484.27	34.589
484.62	34.762
484.97	33.892
485.31	33.833
485.66	32.393
486.01	31.771
486.36	31.443
486.70	30.413
487.05	31.249
487.40	32.431
487.75	32.080
488.09	32.244
488.44	32.792
488.79	33.704
489.13	34.043
489.48	33.560
489.83	33.653
490.17	33.980
490.52	34.539
490.87	33.448
491.22	34.131
491.56	34.212
491.91	33.916
492.26	33.541
492.60	34.260
492.95	33.122
493.30	34.258
493.64	33.468
493.99	33.497
494.34	34.290
494.68	33.201
495.03	33.902
495.37	33.363
495.72	33.939
496.07	33.693
496.41	33.666
496.76	33.643
497.11	33.248
497.45	32.573
497.80	34.476
498.14	33.842
498.49	33.008
498.84	34.393
499.18	33.410
499.53	34.175
499.87	32.884
500.22	33.901
500.56	33.240
500.91	33.998
501.26	33.762
501.60	33.515
501.95	32.303
502.29	33.556
502.64	33.216
502.98	32.592
503.33	32.561
503.67	33.466
504.02	32.333
504.36	32.624
504.71	33.302
505.06	32.238
505.40	33.084
505.75	31.805
506.09	32.571
506.44	33.506
506.78	32.561
507.13	32.913
507.47	32.508
507.82	33.431
508.16	33.170
508.51	32.126
508.85	32.289
509.19	33.480
509.54	32.715
509.88	32.969
510.23	32.500
510.57	32.143
510.92	33.467
511.26	33.183
511.61	32.447
511.95	33.051
512.30	32.600
512.64	32.503
512.98	31.932
513.33	32.223
513.67	32.988
514.02	32.727
514.36	32.191
514.70	32.533
515.05	31.700
515.39	33.772
515.74	33.188
516.08	33.007
516.42	34.098
516.77	32.693
517.11	32.427
517.46	32.812
517.80	31.895
518.14	33.577
518.49	32.745
518.83	31.593
519.17	32.612
519.52	32.987
519.86	32.425
520.20	32.932
520.55	33.352
520.89	32.471
521.23	32.418
521.58	32.358
521.92	32.595
522.26	32.227
522.61	33.452
522.95	32.072
523.29	33.216
523.64	32.023
523.98	32.101
524.32	31.661
524.66	32.000
525.01	32.604
525.35	31.939
525.69	33.052
526.04	32.838
526.38	32.666
526.72	31.802
527.06	33.057
527.41	33.555
527.75	32.562
528.09	32.089
528.43	32.825
528.78	32.439
529.12	32.992
529.46	31.970
529.80	31.542
530.15	32.351
530.49	31.889
530.83	31.810
531.17	32.226
531.51	32.311
531.86	31.280
532.20	31.397
532.54	30.822
532.88	31.793
533.22	31.322
533.57	30.933
533.91	31.410
534.25	30.756
534.59	30.760
534.93	30.603
535.27	29.937
535.62	31.039
535.96	30.969
536.30	31.261
536.64	30.497
536.98	30.208
537.32	30.312
537.66	30.804
538.01	30.836
538.35	30.630
538.69	30.400
539.03	30.286
539.37	30.461
539.71	30.864
540.05	30.831
540.39	31.069
540.73	30.823
541.07	30.176
541.42	30.348
541.76	31.134
542.10	30.888
542.44	30.237
542.78	30.396
543.12	29.816
543.46	30.890
543.80	31.140
544.14	30.588
544.48	29.866
544.82	30.459
545.16	29.630
545.50	30.547
545.84	30.366
546.18	30.689
546.52	31.541
546.86	30.883
547.20	30.297
547.54	30.019
547.88	30.170
548.22	29.326
548.56	29.110
548.90	29.359
549.24	30.701
549.58	29.317
549.92	30.321
550.26	31.373
550.60	30.206
550.94	30.733
551.28	30.690
551.62	30.483
551.96	30.000
552.30	28.807
552.64	30.874
552.98	29.768
553.32	29.449
553.66	30.098
554.00	29.022
554.34	30.027
554.68	30.645
555.02	29.939
555.36	29.920
555.69	30.497
556.03	29.618
556.37	29.637
556.71	30.508
557.05	28.637
557.39	29.733
557.73	30.593
558.07	29.041
558.41	30.432
558.75	29.275
559.08	30.951
559.42	29.420
559.76	30.577
560.10	29.043
560.44	29.131
560.78	29.348
561.12	29.816
561.45	29.349
561.79	29.526
562.13	28.996
562.47	27.579
562.81	29.863
563.15	29.218
563.48	27.826
563.82	29.258
564.16	28.483
564.50	27.486
564.84	28.754
565.17	27.986
565.51	30.296
565.85	28.748
566.19	28.393
566.52	28.881
566.86	28.838
567.20	27.809
567.54	28.166
567.88	27.804
568.21	27.559
568.55	27.286
568.89	27.509
569.23	26.273
569.56	25.919
569.90	26.123
570.24	25.724
570.57	25.406
570.91	24.743
571.25	24.674
571.59	24.647
571.92	24.543
572.26	24.178
572.60	23.910
572.93	25.101
573.27	24.555
573.61	23.795
573.95	23.755
574.28	24.503
574.62	23.940
574.96	23.373
575.29	23.319
575.63	23.416
575.97	23.905
576.30	23.538
576.64	23.766
576.98	23.682
577.31	23.583
577.65	23.407
577.98	23.321
578.32	22.959
578.66	23.406
578.99	23.138
579.33	23.545
579.67	23.217
580.00	22.816
580.34	23.245
580.67	22.931
581.01	23.700
581.35	22.739
581.68	22.712
582.02	22.741
582.35	22.285
582.69	23.054
583.02	22.905
583.36	23.856
583.70	23.726
584.03	23.863
584.37	24.457
584.70	23.513
585.04	23.436
585.37	23.016
585.71	23.506
586.04	23.197
586.38	23.510
586.72	23.732
587.05	23.520
587.39	23.085
587.72	23.591
588.06	23.094
588.39	23.721
588.73	23.454
589.06	24.365
589.40	24.570
589.73	24.353
590.07	24.640
590.40	24.599
590.73	25.523
591.07	25.541
591.40	24.711
591.74	25.081
592.07	24.917
592.41	25.300
592.74	24.130
593.08	23.698
593.41	24.147
593.75	23.338
594.08	24.053
594.41	23.982
594.75	24.623
595.08	24.280
595.42	24.621
595.75	23.824
596.09	24.435
596.42	23.671
596.75	24.960
597.09	24.845
597.42	24.694
597.75	24.787
598.09	24.333
598.42	24.847
598.76	23.978
599.09	24.384
599.42	24.083
599.76	23.881
600.09	23.729
600.42	24.620
600.76	24.031
601.09	24.059
601.42	23.478
601.76	24.347
602.09	24.430
602.42	24.104
602.76	24.478
603.09	25.000
603.42	24.550
603.76	24.150
604.09	23.887
604.42	23.465
604.76	24.022
605.09	24.939
605.42	24.543
605.75	23.490
606.09	24.254
606.42	23.713
606.75	23.785
607.09	24.082
607.42	23.785
607.75	24.164
608.08	24.249
608.42	24.748
608.75	23.706
609.08	23.845
609.41	24.636
609.75	25.458
610.08	25.540
610.41	24.330
610.74	24.372
611.07	24.966
611.41	24.235
611.74	24.618
612.07	24.374
612.40	24.610
612.73	25.312
613.07	25.139
613.40	25.163
613.73	25.112
614.06	24.850
614.39	24.747
614.72	24.661
615.06	23.343
615.39	24.851
615.72	24.056
616.05	25.665
616.38	24.556
616.71	25.285
617.05	24.822
617.38	24.213
617.71	24.972
618.04	24.621
618.37	25.181
618.70	25.462
619.03	25.824
619.36	26.193
619.69	26.253
620.03	27.136
620.36	25.498
620.69	26.628
621.02	26.834
621.35	26.361
621.68	27.360
622.01	26.790
622.34	26.147
622.67	26.896
623.00	25.800
623.33	25.641
623.66	25.749
623.99	25.890
624.32	26.626
624.65	25.609
624.99	26.437
625.32	25.651
625.65	25.172
625.98	25.732
626.31	25.890
626.64	27.031
626.97	26.932
627.30	27.096
627.63	25.903
627.96	26.761
628.29	26.650
628.62	25.920
628.95	27.039
629.28	29.097
629.61	27.856
629.94	27.226
630.26	27.210
630.59	27.837
630.92	27.265
631.25	27.833
