SpectraSuite Data File
++++++++++++++++++++++++++++++++++++
Date: Tue May 12 17:03:30 PDT 2015
User: schluterlab
Dark Spectrum Present: Yes
Reference Spectrum Present: Yes
Number of Sampled Component Spectra: 1
Spectrometers: USB2E3373
Integration Time (usec): 3000 (USB2E3373)
Spectra Averaged: 3 (USB2E3373)
Boxcar Smoothing: 0 (USB2E3373)
Correct for Electrical Dark: No (USB2E3373)
Strobe/Lamp Enabled: No (USB2E3373)
Correct for Detector Non-linearity: No (USB2E3373)
Correct for Stray Light: No (USB2E3373)
Number of Pixels in Processed Spectrum: 2048
>>>>>Begin Processed Spectral Data<<<<<
178.53	0.000
178.91	-283.333
179.29	-825.000
179.67	-3700.000
180.04	-180.000
180.42	800.000
180.80	1700.000
181.18	0.000
181.56	-425.000
181.94	0.000
182.31	1266.667
182.69	-2800.000
183.07	714.286
183.45	-3900.000
183.83	-1300.000
184.20	370.000
184.58	457.143
184.96	-261.538
185.34	-208.333
185.72	1800.000
186.09	-600.000
186.47	-2500.000
186.85	633.333
187.23	640.000
187.61	1500.000
187.98	437.500
188.36	192.857
188.74	308.333
189.12	325.000
189.49	825.000
189.87	0.000
190.25	487.500
190.63	3000.000
191.00	-183.333
191.38	-3200.000
191.76	-975.000
192.14	650.000
192.51	-2600.000
192.89	1450.000
193.27	1000.000
193.65	-1266.667
194.02	-700.000
194.40	500.000
194.78	-214.286
195.15	293.333
195.53	-3700.000
195.91	-720.000
196.29	4300.000
196.66	256.250
197.04	875.000
197.42	-1700.000
197.79	750.000
198.17	400.000
198.55	0.000
198.92	542.857
199.30	1533.333
199.68	2200.000
200.05	516.667
200.43	-466.667
200.81	233.333
201.18	2900.000
201.56	300.000
201.94	-650.000
202.31	-275.000
202.69	-500.000
203.07	2800.000
203.44	-600.000
203.82	400.000
204.19	660.000
204.57	-1150.000
204.95	-750.000
205.32	-680.000
205.70	550.000
206.08	775.000
206.45	-1266.667
206.83	411.111
207.20	163.158
207.58	216.667
207.96	520.000
208.33	0.000
208.71	542.857
209.08	840.000
209.46	-3200.000
209.84	-850.000
210.21	1060.000
210.59	-560.000
210.96	250.000
211.34	-1075.000
211.71	327.273
212.09	825.000
212.46	1750.000
212.84	-383.333
213.22	333.333
213.59	-2800.000
213.97	300.000
214.34	850.000
214.72	1133.333
215.09	766.667
215.47	-3400.000
215.84	-290.000
216.22	-487.500
216.59	0.000
216.97	0.000
217.34	1450.000
217.72	-1700.000
218.09	1266.667
218.47	412.500
218.84	900.000
219.22	966.667
219.59	766.667
219.97	428.571
220.34	433.333
220.72	1700.000
221.09	3200.000
221.47	300.000
221.84	1233.333
222.22	340.000
222.59	238.889
222.97	200.000
223.34	218.750
223.72	-1450.000
224.09	900.000
224.46	230.769
224.84	-625.000
225.21	511.111
225.59	240.000
225.96	1433.333
226.34	-580.000
226.71	-750.000
227.08	-600.000
227.46	0.000
227.83	-550.000
228.21	-1450.000
228.58	350.000
228.95	925.000
229.33	377.778
229.70	850.000
230.08	400.000
230.45	4100.000
230.82	-1000.000
231.20	-1033.333
231.57	-1100.000
231.95	640.000
232.32	216.667
232.69	633.333
233.07	216.667
233.44	-1200.000
233.81	220.000
234.19	177.778
234.56	268.750
234.93	194.118
235.31	145.000
235.68	231.250
236.05	164.286
236.43	125.926
236.80	178.571
237.17	124.138
237.55	106.250
237.92	112.500
238.29	127.273
238.67	118.750
239.04	85.366
239.41	85.417
239.79	77.500
240.16	72.917
240.53	60.656
240.91	59.420
241.28	72.881
241.65	68.182
242.02	54.930
242.40	58.571
242.77	34.066
243.14	43.038
243.51	60.606
243.89	39.252
244.26	42.991
244.63	36.634
245.00	42.202
245.38	27.119
245.75	33.333
246.12	34.074
246.49	24.113
246.87	25.410
247.24	36.667
247.61	22.500
247.98	27.211
248.36	24.848
248.73	24.490
249.10	20.238
249.47	28.000
249.84	24.378
250.22	24.324
250.59	26.000
250.96	18.565
251.33	20.465
251.70	21.429
252.08	21.008
252.45	18.725
252.82	19.772
253.19	15.810
253.56	16.154
253.94	17.391
254.31	17.829
254.68	15.331
255.05	17.241
255.42	17.518
255.79	15.961
256.16	18.644
256.54	15.909
256.91	17.974
257.28	17.726
257.65	14.734
258.02	11.504
258.39	18.338
258.76	18.261
259.14	12.857
259.51	19.825
259.88	13.070
260.25	15.659
260.62	16.438
260.99	11.570
261.36	13.370
261.73	14.096
262.10	14.398
262.47	13.250
262.85	11.733
263.22	16.195
263.59	15.090
263.96	15.539
264.33	16.296
264.70	15.971
265.07	14.634
265.44	15.367
265.81	14.387
266.18	14.416
266.55	12.057
266.92	12.752
267.29	14.474
267.66	12.780
268.03	13.453
268.40	12.262
268.77	12.115
269.14	11.280
269.51	12.249
269.88	14.490
270.25	11.447
270.62	14.378
270.99	13.590
271.36	13.821
271.73	9.644
272.10	9.091
272.47	11.905
272.84	11.577
273.21	11.157
273.58	12.348
273.95	10.472
274.32	12.062
274.69	13.189
275.06	12.933
275.43	13.027
275.80	11.132
276.17	12.868
276.54	12.710
276.91	13.060
277.28	12.044
277.65	12.731
278.02	12.316
278.39	11.331
278.76	12.069
279.13	10.498
279.50	11.273
279.87	11.359
280.23	10.681
280.60	13.686
280.97	11.724
281.34	10.396
281.71	11.478
282.08	12.991
282.45	9.797
282.82	13.545
283.19	13.990
283.56	9.256
283.92	9.772
284.29	11.647
284.66	11.933
285.03	12.604
285.40	9.587
285.77	11.574
286.14	11.300
286.51	10.736
286.87	9.968
287.24	8.709
287.61	11.246
287.98	11.791
288.35	9.333
288.72	10.319
289.08	10.060
289.45	10.366
289.82	11.406
290.19	9.517
290.56	11.499
290.93	9.784
291.29	9.254
291.66	10.028
292.03	9.537
292.40	8.537
292.77	9.749
293.13	9.700
293.50	9.312
293.87	7.724
294.24	10.210
294.60	9.690
294.97	9.091
295.34	8.499
295.71	8.410
296.08	9.733
296.44	10.165
296.81	8.933
297.18	7.098
297.55	8.621
297.91	8.128
298.28	8.213
298.65	9.202
299.02	7.600
299.38	7.674
299.75	8.902
300.12	9.289
300.48	9.602
300.85	9.297
301.22	8.488
301.59	7.547
301.95	8.168
302.32	9.895
302.69	8.371
303.05	8.530
303.42	7.063
303.79	7.801
304.15	6.601
304.52	7.188
304.89	7.249
305.25	8.565
305.62	8.529
305.99	6.630
306.35	6.737
306.72	7.076
307.09	6.522
307.45	6.547
307.82	8.642
308.19	8.041
308.55	6.400
308.92	7.753
309.29	9.172
309.65	8.821
310.02	7.302
310.38	6.680
310.75	7.715
311.12	8.333
311.48	8.880
311.85	8.302
312.22	8.405
312.58	6.317
312.95	7.379
313.31	7.116
313.68	7.411
314.05	9.066
314.41	7.263
314.78	7.481
315.14	6.825
315.51	8.988
315.87	7.026
316.24	7.096
316.61	7.252
316.97	7.706
317.34	7.907
317.70	8.165
318.07	8.541
318.43	8.084
318.80	8.581
319.16	7.780
319.53	6.814
319.89	7.527
320.26	8.939
320.62	7.234
320.99	7.436
321.35	8.256
321.72	8.729
322.08	9.049
322.45	8.265
322.81	8.326
323.18	8.259
323.54	9.059
323.91	9.248
324.27	8.488
324.64	6.661
325.00	8.276
325.37	7.420
325.73	8.010
326.10	9.114
326.46	8.092
326.83	7.360
327.19	7.550
327.56	8.307
327.92	7.951
328.29	10.475
328.65	9.846
329.01	7.528
329.38	8.714
329.74	7.600
330.11	8.949
330.47	8.184
330.84	7.852
331.20	7.783
331.56	9.240
331.93	7.870
332.29	7.993
332.66	8.418
333.02	7.732
333.38	7.766
333.75	9.341
334.11	8.473
334.48	8.376
334.84	8.699
335.20	8.383
335.57	8.144
335.93	7.738
336.29	8.458
336.66	8.405
337.02	8.041
337.38	8.169
337.75	8.953
338.11	7.511
338.47	8.721
338.84	8.129
339.20	7.186
339.56	7.653
339.93	8.278
340.29	6.975
340.65	7.795
341.02	7.884
341.38	8.128
341.74	7.807
342.11	6.427
342.47	7.875
342.83	8.942
343.20	8.731
343.56	7.069
343.92	6.441
344.28	8.134
344.65	8.068
345.01	7.857
345.37	6.891
345.73	7.302
346.10	7.729
346.46	7.895
346.82	7.485
347.19	8.501
347.55	7.650
347.91	8.006
348.27	6.662
348.63	8.149
349.00	8.302
349.36	8.716
349.72	7.416
350.08	7.376
350.45	7.692
350.81	7.416
351.17	6.317
351.53	7.082
351.89	6.915
352.26	6.954
352.62	7.391
352.98	7.209
353.34	7.935
353.70	7.034
354.07	7.000
354.43	7.757
354.79	7.137
355.15	7.887
355.51	6.722
355.87	8.133
356.24	6.159
356.60	7.534
356.96	6.217
357.32	7.687
357.68	8.003
358.04	7.447
358.40	7.721
358.77	8.640
359.13	6.607
359.49	7.116
359.85	7.223
360.21	6.612
360.57	7.080
360.93	7.864
361.29	7.648
361.66	7.383
362.02	7.102
362.38	7.071
362.74	7.219
363.10	7.293
363.46	6.699
363.82	7.644
364.18	7.183
364.54	7.868
364.90	8.099
365.26	6.940
365.62	7.804
365.98	7.639
366.35	7.310
366.71	6.801
367.07	7.304
367.43	7.858
367.79	7.181
368.15	6.445
368.51	7.030
368.87	6.318
369.23	6.376
369.59	6.945
369.95	7.343
370.31	6.708
370.67	6.870
371.03	6.933
371.39	7.341
371.75	6.978
372.11	7.478
372.47	8.014
372.83	7.138
373.19	7.471
373.55	6.942
373.91	6.492
374.27	6.944
374.63	7.119
374.99	6.469
375.35	6.586
375.71	7.586
376.07	6.764
376.42	6.714
376.78	7.193
377.14	7.208
377.50	6.617
377.86	6.406
378.22	6.947
378.58	7.506
378.94	6.759
379.30	6.489
379.66	6.984
380.02	7.214
380.38	5.504
380.74	7.555
381.09	7.068
381.45	6.358
381.81	6.087
382.17	7.082
382.53	6.539
382.89	6.742
383.25	6.927
383.61	7.032
383.97	6.719
384.32	6.691
384.68	7.130
385.04	6.975
385.40	6.880
385.76	6.612
386.12	6.865
386.48	6.809
386.83	6.663
387.19	6.007
387.55	6.478
387.91	6.928
388.27	6.365
388.62	6.631
388.98	6.706
389.34	7.079
389.70	6.486
390.06	6.707
390.42	7.094
390.77	6.695
391.13	7.182
391.49	7.320
391.85	7.200
392.20	7.211
392.56	7.348
392.92	6.625
393.28	6.726
393.64	6.135
393.99	7.232
394.35	5.945
394.71	6.092
395.07	6.204
395.42	6.850
395.78	7.526
396.14	7.169
396.50	6.619
396.85	6.463
397.21	7.641
397.57	6.814
397.92	5.893
398.28	6.509
398.64	6.864
399.00	7.002
399.35	6.549
399.71	6.733
400.07	6.279
400.42	6.388
400.78	6.452
401.14	6.694
401.49	5.991
401.85	7.126
402.21	6.327
402.57	6.703
402.92	6.727
403.28	5.370
403.63	7.298
403.99	6.695
404.35	6.800
404.70	6.793
405.06	5.783
405.42	5.925
405.77	6.229
406.13	6.508
406.49	6.708
406.84	6.994
407.20	6.507
407.55	6.462
407.91	7.147
408.27	7.035
408.62	6.446
408.98	5.914
409.34	6.254
409.69	5.974
410.05	6.440
410.40	6.360
410.76	5.896
411.11	7.050
411.47	6.605
411.83	6.737
412.18	5.857
412.54	6.366
412.89	6.608
413.25	6.499
413.60	6.659
413.96	6.583
414.31	6.434
414.67	6.952
415.03	6.833
415.38	6.814
415.74	6.380
416.09	7.121
416.45	8.016
416.80	7.248
417.16	6.811
417.51	7.580
417.87	6.008
418.22	6.683
418.58	6.051
418.93	6.841
419.29	6.038
419.64	6.784
420.00	7.757
420.35	5.923
420.71	6.359
421.06	6.062
421.42	5.872
421.77	5.886
422.12	6.119
422.48	6.471
422.83	7.589
423.19	6.371
423.54	6.253
423.90	6.852
424.25	6.604
424.61	6.500
424.96	5.816
425.31	6.513
425.67	6.285
426.02	5.889
426.38	5.893
426.73	6.131
427.09	6.228
427.44	5.796
427.79	5.660
428.15	7.130
428.50	7.657
428.85	7.172
429.21	6.267
429.56	6.780
429.92	5.818
430.27	6.434
430.62	6.021
430.98	5.988
431.33	5.998
431.68	5.975
432.04	6.156
432.39	6.531
432.74	6.557
433.10	5.759
433.45	6.778
433.80	6.453
434.16	6.779
434.51	6.089
434.86	7.240
435.22	5.781
435.57	6.343
435.92	7.001
436.28	6.855
436.63	7.077
436.98	6.926
437.34	6.963
437.69	5.599
438.04	6.935
438.39	6.655
438.75	6.960
439.10	6.368
439.45	5.766
439.81	6.709
440.16	6.714
440.51	6.363
440.86	6.439
441.22	6.277
441.57	6.352
441.92	6.417
442.27	6.443
442.63	5.742
442.98	6.412
443.33	6.588
443.68	6.640
444.03	6.268
444.39	6.073
444.74	6.108
445.09	6.214
445.44	6.589
445.79	6.433
446.15	6.421
446.50	6.013
446.85	6.325
447.20	5.920
447.55	5.492
447.91	7.086
448.26	6.709
448.61	6.633
448.96	6.318
449.31	6.271
449.66	6.423
450.02	6.051
450.37	6.496
450.72	6.612
451.07	7.272
451.42	6.402
451.77	7.102
452.12	6.920
452.47	7.412
452.83	6.197
453.18	7.327
453.53	7.697
453.88	7.714
454.23	7.147
454.58	6.702
454.93	6.376
455.28	7.038
455.63	7.033
455.98	7.163
456.34	7.781
456.69	6.524
457.04	6.384
457.39	6.000
457.74	7.264
458.09	6.176
458.44	6.353
458.79	6.578
459.14	6.492
459.49	6.852
459.84	6.087
460.19	7.175
460.54	6.781
460.89	6.983
461.24	6.987
461.59	7.200
461.94	7.033
462.29	7.265
462.64	7.035
462.99	7.550
463.34	8.101
463.69	7.623
464.04	7.024
464.39	6.983
464.74	6.272
465.09	7.661
465.44	7.182
465.79	6.641
466.14	7.260
466.49	6.728
466.84	7.246
467.19	7.323
467.54	7.207
467.89	7.688
468.24	7.006
468.59	6.726
468.94	6.643
469.29	7.575
469.64	7.717
469.99	8.226
470.34	6.958
470.68	7.379
471.03	7.338
471.38	7.285
471.73	7.381
472.08	6.980
472.43	6.828
472.78	7.554
473.13	6.821
473.48	6.846
473.83	7.420
474.17	7.234
474.52	7.109
474.87	6.595
475.22	6.568
475.57	7.922
475.92	6.847
476.27	6.692
476.61	6.434
476.96	7.471
477.31	6.941
477.66	7.407
478.01	6.911
478.36	6.643
478.70	6.402
479.05	6.695
479.40	6.944
479.75	6.802
480.10	7.260
480.45	6.629
480.79	6.866
481.14	5.991
481.49	6.404
481.84	6.816
482.19	6.638
482.53	6.895
482.88	6.452
483.23	6.540
483.58	6.418
483.92	7.313
484.27	6.507
484.62	6.749
484.97	6.428
485.31	5.964
485.66	5.851
486.01	5.487
486.36	5.531
486.70	5.326
487.05	5.766
487.40	5.935
487.75	6.198
488.09	5.937
488.44	6.501
488.79	6.213
489.13	5.972
489.48	6.432
489.83	6.297
490.17	6.647
490.52	6.460
490.87	6.767
491.22	6.339
491.56	7.202
491.91	6.093
492.26	7.082
492.60	6.515
492.95	6.842
493.30	6.688
493.64	6.604
493.99	6.887
494.34	6.096
494.68	6.596
495.03	7.140
495.37	7.384
495.72	6.993
496.07	7.053
496.41	6.429
496.76	7.218
497.11	6.898
497.45	6.357
497.80	6.766
498.14	6.981
498.49	6.592
498.84	7.944
499.18	6.399
499.53	7.074
499.87	6.155
500.22	7.969
500.56	7.057
500.91	6.911
501.26	7.717
501.60	6.922
501.95	6.138
502.29	7.200
502.64	6.528
502.98	6.536
503.33	7.127
503.67	7.329
504.02	6.494
504.36	6.833
504.71	6.433
505.06	6.382
505.40	6.926
505.75	6.548
506.09	7.513
506.44	6.955
506.78	7.467
507.13	6.544
507.47	6.793
507.82	7.543
508.16	7.055
508.51	6.618
508.85	7.265
509.19	6.461
509.54	7.715
509.88	7.907
510.23	7.010
510.57	6.950
510.92	7.043
511.26	7.028
511.61	7.287
511.95	7.865
512.30	7.300
512.64	6.802
512.98	7.330
513.33	7.377
513.67	6.836
514.02	7.481
514.36	7.321
514.70	6.613
515.05	6.873
515.39	7.566
515.74	7.162
516.08	7.571
516.42	8.415
516.77	8.213
517.11	6.880
517.46	7.489
517.80	7.537
518.14	7.606
518.49	7.277
518.83	6.593
519.17	7.987
519.52	7.974
519.86	7.248
520.20	8.274
520.55	7.914
520.89	7.586
521.23	7.360
521.58	7.344
521.92	7.114
522.26	7.642
522.61	8.200
522.95	7.748
523.29	7.836
523.64	7.977
523.98	8.333
524.32	7.670
524.66	7.420
525.01	7.041
525.35	8.073
525.69	7.706
526.04	7.793
526.38	7.416
526.72	7.995
527.06	7.274
527.41	8.222
527.75	8.278
528.09	7.225
528.43	8.115
528.78	7.335
529.12	7.947
529.46	7.539
529.80	7.477
530.15	7.778
530.49	7.100
530.83	7.983
531.17	7.073
531.51	8.522
531.86	7.246
532.20	7.540
532.54	7.659
532.88	8.120
533.22	8.592
533.57	7.871
533.91	7.051
534.25	7.444
534.59	8.538
534.93	7.679
535.27	7.285
535.62	6.534
535.96	6.974
536.30	7.495
536.64	6.770
536.98	7.426
537.32	8.250
537.66	7.589
538.01	7.802
538.35	7.735
538.69	7.949
539.03	7.214
539.37	7.342
539.71	7.037
540.05	7.631
540.39	8.176
540.73	7.089
541.07	7.403
541.42	7.276
541.76	6.905
542.10	7.583
542.44	8.042
542.78	6.797
543.12	7.485
543.46	7.832
543.80	7.143
544.14	7.988
544.48	7.543
544.82	8.196
545.16	6.800
545.50	7.314
545.84	7.955
546.18	7.672
546.52	7.738
546.86	8.382
547.20	7.235
547.54	7.410
547.88	8.577
548.22	7.529
548.56	7.955
548.90	8.007
549.24	8.275
549.58	6.830
549.92	7.924
550.26	7.708
550.60	8.051
550.94	8.684
551.28	8.414
551.62	8.276
551.96	7.500
552.30	6.328
552.64	8.285
552.98	7.474
553.32	6.978
553.66	7.752
554.00	7.722
554.34	7.923
554.68	7.594
555.02	7.875
555.36	7.314
555.69	8.050
556.03	7.962
556.37	8.094
556.71	8.083
557.05	6.356
557.39	7.467
557.73	8.491
558.07	8.048
558.41	8.019
558.75	8.276
559.08	8.220
559.42	7.588
559.76	8.054
560.10	7.777
560.44	8.228
560.78	8.632
561.12	7.883
561.45	7.384
561.79	7.865
562.13	7.202
562.47	6.684
562.81	7.482
563.15	7.563
563.48	7.205
563.82	8.422
564.16	8.209
564.50	8.318
564.84	7.477
565.17	6.892
565.51	7.512
565.85	7.588
566.19	7.440
566.52	7.280
566.86	7.764
567.20	7.303
567.54	7.151
567.88	7.512
568.21	6.590
568.55	7.198
568.89	6.706
569.23	6.083
569.56	6.030
569.90	6.719
570.24	6.235
570.57	6.392
570.91	5.928
571.25	6.228
571.59	5.781
571.92	5.624
572.26	5.553
572.60	5.887
572.93	6.412
573.27	5.916
573.61	5.739
573.95	5.627
574.28	5.550
574.62	5.426
574.96	5.493
575.29	5.615
575.63	5.395
575.97	5.355
576.30	5.543
576.64	5.741
576.98	5.410
577.31	5.913
577.65	5.664
577.98	5.445
578.32	5.144
578.66	5.327
578.99	5.769
579.33	5.661
579.67	5.631
580.00	5.320
580.34	5.565
580.67	5.414
581.01	5.969
581.35	5.387
581.68	5.226
582.02	5.368
582.35	5.237
582.69	5.380
583.02	5.173
583.36	5.421
583.70	5.649
584.03	6.140
584.37	5.654
584.70	5.648
585.04	5.448
585.37	5.388
585.71	5.618
586.04	5.268
586.38	5.578
586.72	5.843
587.05	6.099
587.39	5.714
587.72	5.538
588.06	5.935
588.39	5.860
588.73	5.775
589.06	5.807
589.40	6.135
589.73	5.998
590.07	6.074
590.40	6.655
590.73	6.757
591.07	6.755
591.40	6.028
591.74	6.372
592.07	6.489
592.41	6.595
592.74	6.298
593.08	6.152
593.41	5.984
593.75	5.710
594.08	6.468
594.41	6.126
594.75	6.370
595.08	6.241
595.42	6.287
595.75	6.449
596.09	6.083
596.42	6.191
596.75	6.691
597.09	6.892
597.42	6.449
597.75	6.207
598.09	6.648
598.42	6.977
598.76	6.823
599.09	6.510
599.42	6.125
599.76	6.309
600.09	6.441
600.42	6.077
600.76	5.914
601.09	5.868
601.42	6.758
601.76	5.836
602.09	6.144
602.42	6.433
602.76	6.186
603.09	6.637
603.42	6.349
603.76	6.146
604.09	5.755
604.42	6.215
604.76	6.243
605.09	6.653
605.42	6.705
605.75	6.317
606.09	6.236
606.42	6.351
606.75	6.568
607.09	6.238
607.42	6.227
607.75	6.648
608.08	6.458
608.42	7.047
608.75	6.033
609.08	6.423
609.41	6.500
609.75	6.914
610.08	6.879
610.41	6.456
610.74	6.580
611.07	6.912
611.41	6.580
611.74	6.644
612.07	6.744
612.40	7.018
612.73	6.590
613.07	7.197
613.40	7.268
613.73	6.590
614.06	6.200
614.39	7.424
614.72	6.981
615.06	6.281
615.39	6.881
615.72	6.147
616.05	7.433
616.38	7.306
616.71	7.054
617.05	6.645
617.38	6.798
617.71	6.693
618.04	6.842
618.37	7.449
618.70	6.986
619.03	7.448
619.36	7.663
619.69	6.662
620.03	7.763
620.36	7.065
620.69	7.982
621.02	7.133
621.35	7.736
621.68	7.596
622.01	8.782
622.34	6.846
622.67	8.708
623.00	7.828
623.33	8.030
623.66	7.119
623.99	8.288
624.32	7.385
624.65	7.834
624.99	7.370
625.32	6.680
625.65	7.241
625.98	6.834
626.31	7.418
626.64	7.289
626.97	8.034
627.30	7.997
627.63	7.928
627.96	6.964
628.29	8.168
628.62	7.357
628.95	8.865
629.28	8.940
629.61	7.381
629.94	8.211
630.26	9.012
630.59	9.131
630.92	8.969
631.25	9.791
631.58	8.390
631.91	8.183
632.24	7.775
632.57	8.841
632.90	9.213
633.23	9.444
633.56	9.484
633.89	8.146
634.22	9.257
634.55	8.817
634.88	10.077
635.20	9.865
635.53	9.756
635.86	10.515
636.19	9.315
636.52	9.081
636.85	8.306
637.18	10.076
637.51	8.380
637.83	8.124
638.16	10.082
638.49	9.581
638.82	10.211
639.15	7.873
639.48	11.137
639.81	8.181
640.13	9.693
640.46	9.355
640.79	8.322
641.12	8.399
641.45	9.832
641.77	10.436
642.10	10.040
642.43	8.677
642.76	10.085
643.09	10.519
643.41	10.940
643.74	11.223
644.07	9.735
644.40	9.467
644.73	10.811
645.05	11.293
645.38	10.413
645.71	10.926
646.04	11.908
646.36	9.859
646.69	11.200
647.02	10.720
647.35	10.394
647.67	9.887
648.00	8.632
648.33	10.977
648.66	10.758
648.98	9.275
649.31	9.987
649.64	9.820
649.96	8.677
650.29	9.857
650.62	13.402
650.94	10.994
651.27	12.600
651.60	12.050
651.92	11.367
652.25	11.496
652.58	11.489
652.90	10.180
653.23	9.306
653.56	10.237
