SpectraSuite Data File
++++++++++++++++++++++++++++++++++++
Date: Tue May 12 17:17:29 PDT 2015
User: schluterlab
Dark Spectrum Present: Yes
Reference Spectrum Present: Yes
Number of Sampled Component Spectra: 1
Spectrometers: USB2E3373
Integration Time (usec): 3000 (USB2E3373)
Spectra Averaged: 3 (USB2E3373)
Boxcar Smoothing: 0 (USB2E3373)
Correct for Electrical Dark: No (USB2E3373)
Strobe/Lamp Enabled: No (USB2E3373)
Correct for Detector Non-linearity: No (USB2E3373)
Correct for Stray Light: No (USB2E3373)
Number of Pixels in Processed Spectrum: 2048
>>>>>Begin Processed Spectral Data<<<<<
178.53	0.000
178.91	-308.333
179.29	-625.000
179.67	-4000.000
180.04	-126.667
180.42	575.000
180.80	1400.000
181.18	0.000
181.56	-387.500
181.94	0.000
182.31	1200.000
182.69	-2900.000
183.07	614.286
183.45	-3400.000
183.83	-1600.000
184.20	300.000
184.58	542.857
184.96	-230.769
185.34	-283.333
185.72	1400.000
186.09	-825.000
186.47	-3200.000
186.85	1233.333
187.23	640.000
187.61	1600.000
187.98	512.500
188.36	264.286
188.74	316.667
189.12	375.000
189.49	1250.000
189.87	0.000
190.25	537.500
190.63	3000.000
191.00	-258.333
191.38	-3600.000
191.76	-925.000
192.14	600.000
192.51	-3600.000
192.89	1850.000
193.27	1033.333
193.65	-1266.667
194.02	-800.000
194.40	571.429
194.78	-235.714
195.15	313.333
195.53	-3600.000
195.91	-640.000
196.29	3600.000
196.66	231.250
197.04	1025.000
197.42	-1400.000
197.79	500.000
198.17	316.667
198.55	0.000
198.92	571.429
199.30	966.667
199.68	1850.000
200.05	800.000
200.43	-650.000
200.81	211.111
201.18	3200.000
201.56	316.667
201.94	-625.000
202.31	-325.000
202.69	-680.000
203.07	3300.000
203.44	-516.667
203.82	350.000
204.19	520.000
204.57	-1300.000
204.95	-450.000
205.32	-800.000
205.70	466.667
206.08	850.000
206.45	-1000.000
206.83	444.444
207.20	142.105
207.58	291.667
207.96	800.000
208.33	0.000
208.71	485.714
209.08	640.000
209.46	-3800.000
209.84	-975.000
210.21	880.000
210.59	-480.000
210.96	383.333
211.34	-675.000
211.71	381.818
212.09	1050.000
212.46	2000.000
212.84	-450.000
213.22	466.667
213.59	-3100.000
213.97	300.000
214.34	1050.000
214.72	900.000
215.09	1433.333
215.47	-3500.000
215.84	-360.000
216.22	-475.000
216.59	0.000
216.97	0.000
217.34	850.000
217.72	-1700.000
218.09	1433.333
218.47	462.500
218.84	1000.000
219.22	1066.667
219.59	733.333
219.97	485.714
220.34	411.111
220.72	1550.000
221.09	3300.000
221.47	350.000
221.84	1266.667
222.22	370.000
222.59	244.444
222.97	271.429
223.34	275.000
223.72	-1450.000
224.09	1233.333
224.46	323.077
224.84	-850.000
225.21	400.000
225.59	353.333
225.96	1633.333
226.34	-860.000
226.71	-675.000
227.08	-480.000
227.46	0.000
227.83	-483.333
228.21	-1300.000
228.58	450.000
228.95	1000.000
229.33	322.222
229.70	1025.000
230.08	284.615
230.45	4500.000
230.82	-925.000
231.20	-800.000
231.57	-1200.000
231.95	740.000
232.32	300.000
232.69	650.000
233.07	291.667
233.44	-1400.000
233.81	226.667
234.19	162.963
234.56	231.250
234.93	270.588
235.31	225.000
235.68	312.500
236.05	196.429
236.43	166.667
236.80	321.429
237.17	213.793
237.55	146.875
237.92	170.000
238.29	203.030
238.67	175.000
239.04	160.976
239.41	102.083
239.79	137.500
240.16	125.000
240.53	106.557
240.91	101.449
241.28	113.559
241.65	113.636
242.02	118.310
242.40	107.143
242.77	90.110
243.14	101.266
243.51	86.869
243.89	82.243
244.26	92.523
244.63	94.059
245.00	88.991
245.38	81.356
245.75	87.121
246.12	84.444
246.49	79.433
246.87	86.066
247.24	83.333
247.61	81.875
247.98	82.993
248.36	72.727
248.73	73.980
249.10	72.619
249.47	74.000
249.84	76.617
250.22	81.081
250.59	74.000
250.96	65.401
251.33	73.023
251.70	71.875
252.08	71.008
252.45	63.347
252.82	66.540
253.19	67.984
253.56	69.615
253.94	73.551
254.31	68.217
254.68	67.247
255.05	68.621
255.42	68.613
255.79	67.427
256.16	66.780
256.54	67.857
256.91	65.686
257.28	69.565
257.65	62.382
258.02	62.537
258.39	64.756
258.76	69.275
259.14	59.714
259.51	67.638
259.88	65.957
260.25	63.187
260.62	64.932
260.99	61.433
261.36	64.903
261.73	63.830
262.10	70.157
262.47	64.250
262.85	60.800
263.22	65.296
263.59	64.450
263.96	66.165
264.33	60.741
264.70	66.339
265.07	63.902
265.44	60.780
265.81	61.557
266.18	62.014
266.55	65.248
266.92	60.403
267.29	62.719
267.66	61.883
268.03	64.798
268.40	60.888
268.77	63.216
269.14	62.039
269.51	62.361
269.88	61.224
270.25	58.963
270.62	63.305
270.99	59.838
271.36	62.805
271.73	59.958
272.10	61.010
272.47	62.500
272.84	58.683
273.21	59.298
273.58	57.692
273.95	58.522
274.32	59.922
274.69	61.220
275.06	59.016
275.43	58.238
275.80	60.943
276.17	59.375
276.54	60.000
276.91	61.007
277.28	56.204
277.65	59.225
278.02	57.537
278.39	59.173
278.76	58.621
279.13	57.295
279.50	57.636
279.87	55.121
280.23	57.827
280.60	59.124
280.97	56.724
281.34	57.756
281.71	58.261
282.08	57.094
282.45	53.378
282.82	56.856
283.19	57.234
283.56	56.529
283.92	55.863
284.29	54.409
284.66	56.807
285.03	54.561
285.40	54.545
285.77	53.704
286.14	54.025
286.51	55.368
286.87	52.532
287.24	51.351
287.61	52.736
287.98	49.403
288.35	52.000
288.72	50.076
289.08	52.553
289.45	52.744
289.82	53.906
290.19	50.220
290.56	50.509
290.93	50.216
291.29	50.967
291.66	50.141
292.03	50.070
292.40	49.051
292.77	46.518
293.13	49.786
293.50	46.154
293.87	47.425
294.24	46.014
294.60	46.703
294.97	47.692
295.34	46.879
295.71	45.598
296.08	45.333
296.44	44.600
296.81	45.409
297.18	43.853
297.55	44.212
297.91	44.951
298.28	44.324
298.65	43.190
299.02	43.185
299.38	42.566
299.75	44.634
300.12	44.381
300.48	45.550
300.85	43.266
301.22	43.256
301.59	42.335
301.95	43.291
302.32	41.094
302.69	43.665
303.05	44.444
303.42	42.601
303.79	44.204
304.15	44.334
304.52	41.015
304.89	41.365
305.25	44.494
305.62	42.537
305.99	41.739
306.35	42.632
306.72	42.560
307.09	43.064
307.45	42.767
307.82	41.049
308.19	44.021
308.55	43.200
308.92	43.376
309.29	44.773
309.65	44.797
310.02	45.030
310.38	42.672
310.75	43.394
311.12	43.774
311.48	46.911
311.85	44.561
312.22	45.941
312.58	46.356
312.95	47.379
313.31	47.097
313.68	46.341
314.05	47.070
314.41	48.045
314.78	49.148
315.14	49.668
315.51	49.574
315.87	48.175
316.24	49.393
316.61	48.165
316.97	49.633
317.34	49.955
317.70	51.185
318.07	52.135
318.43	51.054
318.80	52.802
319.16	53.059
319.53	52.124
319.89	52.061
320.26	56.145
320.62	54.396
320.99	55.577
321.35	55.473
321.72	56.736
322.08	56.233
322.45	56.040
322.81	58.005
323.18	59.769
323.54	58.362
323.91	62.738
324.27	62.334
324.64	62.457
325.00	62.931
325.37	65.008
325.73	63.828
326.10	66.694
326.46	66.061
326.83	65.600
327.19	65.863
327.56	66.294
327.92	67.541
328.29	67.103
328.65	68.493
329.01	68.606
329.38	68.782
329.74	67.635
330.11	70.287
330.47	70.332
330.84	67.299
331.20	71.066
331.56	71.244
331.93	71.856
332.29	69.303
332.66	71.259
333.02	71.564
333.38	73.298
333.75	71.309
334.11	72.567
334.48	71.538
334.84	70.186
335.20	71.514
335.57	72.208
335.93	69.722
336.29	70.730
336.66	73.413
337.02	69.632
337.38	71.195
337.75	72.128
338.11	71.983
338.47	72.481
338.84	72.058
339.20	71.602
339.56	71.741
339.93	71.070
340.29	70.924
340.65	71.500
341.02	71.118
341.38	72.085
341.74	71.678
342.11	72.120
342.47	71.862
342.83	74.569
343.20	70.331
343.56	69.579
343.92	71.759
344.28	71.292
344.65	72.942
345.01	71.984
345.37	69.712
345.73	71.429
346.10	72.430
346.46	71.770
346.82	71.759
347.19	71.561
347.55	70.960
347.91	70.619
348.27	70.256
348.63	71.440
349.00	71.592
349.36	72.374
349.72	71.865
350.08	72.438
350.45	73.267
350.81	72.706
351.17	71.726
351.53	72.671
351.89	72.261
352.26	72.714
352.62	71.946
352.98	71.933
353.34	72.342
353.70	70.795
354.07	72.231
354.43	72.273
354.79	70.767
355.15	72.358
355.51	72.130
355.87	71.461
356.24	72.902
356.60	71.461
356.96	72.176
357.32	72.871
357.68	70.999
358.04	73.404
358.40	72.189
358.77	72.878
359.13	73.273
359.49	71.090
359.85	72.822
360.21	70.505
360.57	71.606
360.93	72.439
361.29	73.160
361.66	73.154
362.02	71.662
362.38	73.232
362.74	73.107
363.10	72.651
363.46	72.721
363.82	72.440
364.18	71.906
364.54	73.247
364.90	73.092
365.26	73.491
365.62	72.514
365.98	71.438
366.35	71.724
366.71	73.005
367.07	72.150
367.43	72.398
367.79	71.609
368.15	72.049
368.51	73.535
368.87	72.554
369.23	72.141
369.59	72.286
369.95	75.315
370.31	72.553
370.67	73.907
371.03	70.938
371.39	72.853
371.75	72.435
372.11	73.080
372.47	73.630
372.83	73.623
373.19	73.955
373.55	72.852
373.91	71.409
374.27	71.230
374.63	72.000
374.99	73.652
375.35	73.522
375.71	72.493
376.07	71.751
376.42	71.355
376.78	74.181
377.14	72.870
377.50	71.473
377.86	72.518
378.22	71.603
378.58	73.729
378.94	73.386
379.30	72.771
379.66	73.089
380.02	73.431
380.38	71.956
380.74	73.933
381.09	71.729
381.45	71.214
381.81	73.404
382.17	73.382
382.53	72.466
382.89	73.921
383.25	71.581
383.61	72.277
383.97	73.305
384.32	73.418
384.68	73.084
385.04	73.329
385.40	72.776
385.76	71.679
386.12	73.964
386.48	72.584
386.83	73.472
387.19	72.320
387.55	71.967
387.91	73.845
388.27	73.230
388.62	71.362
388.98	73.294
389.34	72.338
389.70	71.108
390.06	72.622
390.42	70.697
390.77	72.236
391.13	71.998
391.49	70.538
391.85	73.600
392.20	72.229
392.56	71.027
392.92	70.915
393.28	71.300
393.64	70.814
393.99	71.191
394.35	69.865
394.71	69.783
395.07	70.255
395.42	70.960
395.78	71.314
396.14	70.482
396.50	70.457
396.85	70.305
397.21	70.277
397.57	71.070
397.92	68.977
398.28	70.932
398.64	69.924
399.00	69.856
399.35	69.673
399.71	68.543
400.07	70.263
400.42	69.672
400.78	68.504
401.14	69.642
401.49	67.742
401.85	68.946
402.21	67.838
402.57	69.479
402.92	68.848
403.28	68.795
403.63	66.274
403.99	68.697
404.35	69.402
404.70	68.458
405.06	67.322
405.42	67.205
405.77	66.814
406.13	65.889
406.49	67.538
406.84	67.287
407.20	67.409
407.55	67.692
407.91	67.135
408.27	67.435
408.62	67.179
408.98	65.582
409.34	65.459
409.69	66.273
410.05	66.190
410.40	65.607
410.76	65.713
411.11	64.100
411.47	65.123
411.83	64.206
412.18	65.097
412.54	65.045
412.89	64.130
413.25	64.766
413.60	64.836
413.96	66.487
414.31	66.175
414.67	66.170
415.03	64.559
415.38	64.858
415.74	66.330
416.09	64.834
416.45	66.193
416.80	66.196
417.16	64.990
417.51	64.841
417.87	64.080
418.22	63.001
418.58	65.223
418.93	64.069
419.29	62.539
419.64	64.022
420.00	64.260
420.35	64.518
420.71	64.119
421.06	63.685
421.42	63.155
421.77	63.687
422.12	63.120
422.48	62.969
422.83	62.835
423.19	61.501
423.54	61.437
423.90	63.477
424.25	63.841
424.61	62.043
424.96	61.999
425.31	63.602
425.67	63.861
426.02	62.423
426.38	62.310
426.73	63.389
427.09	64.413
427.44	62.127
427.79	63.350
428.15	63.465
428.50	62.800
428.85	62.551
429.21	62.183
429.56	61.167
429.92	62.407
430.27	60.813
430.62	60.499
430.98	61.627
431.33	61.442
431.68	59.605
432.04	62.338
432.39	62.130
432.74	62.646
433.10	61.296
433.45	62.665
433.80	63.265
434.16	61.692
434.51	61.094
434.86	61.513
435.22	61.588
435.57	60.581
435.92	62.322
436.28	61.290
436.63	61.048
436.98	61.768
437.34	61.130
437.69	60.526
438.04	60.000
438.39	62.814
438.75	62.027
439.10	61.198
439.45	60.204
439.81	61.249
440.16	61.530
440.51	60.191
440.86	60.456
441.22	60.985
441.57	59.160
441.92	60.020
442.27	60.928
442.63	59.248
442.98	59.591
443.33	60.311
443.68	60.966
444.03	60.415
444.39	59.887
444.74	60.197
445.09	60.979
445.44	59.511
445.79	59.942
446.15	60.053
446.50	60.021
446.85	60.707
447.20	60.896
447.55	60.087
447.91	60.629
448.26	60.011
448.61	60.531
448.96	60.893
449.31	58.361
449.66	60.410
450.02	59.914
450.37	60.800
450.72	60.771
451.07	58.871
451.42	58.447
451.77	58.648
452.12	59.784
452.47	59.599
452.83	59.268
453.18	58.739
453.53	60.332
453.88	58.400
454.23	58.745
454.58	58.392
454.93	58.001
455.28	58.690
455.63	59.397
455.98	58.263
456.34	59.088
456.69	59.207
457.04	58.950
457.39	59.371
457.74	59.516
458.09	58.506
458.44	57.119
458.79	58.302
459.14	57.938
459.49	57.418
459.84	60.543
460.19	57.345
460.54	57.265
460.89	57.623
461.24	57.216
461.59	57.993
461.94	57.270
462.29	56.693
462.64	58.920
462.99	58.861
463.34	57.680
463.69	57.653
464.04	58.031
464.39	57.241
464.74	55.920
465.09	56.994
465.44	57.182
465.79	56.505
466.14	54.902
466.49	57.244
466.84	56.299
467.19	57.411
467.54	56.517
467.89	56.162
468.24	56.225
468.59	56.548
468.94	55.978
469.29	56.017
469.64	57.042
469.99	56.234
470.34	55.028
470.68	54.414
471.03	56.905
471.38	55.629
471.73	55.846
472.08	56.621
472.43	55.928
472.78	55.826
473.13	53.504
473.48	55.379
473.83	54.476
474.17	55.258
474.52	54.621
474.87	53.553
475.22	54.483
475.57	53.515
475.92	55.084
476.27	53.428
476.61	55.228
476.96	52.508
477.31	54.756
477.66	53.731
478.01	53.739
478.36	54.325
478.70	52.556
479.05	52.929
479.40	53.770
479.75	54.369
480.10	52.517
480.45	52.708
480.79	53.502
481.14	52.877
481.49	52.425
481.84	52.243
482.19	52.314
482.53	51.823
482.88	51.703
483.23	52.503
483.58	53.411
483.92	53.291
484.27	51.327
484.62	52.716
484.97	51.578
485.31	51.064
485.66	50.870
486.01	50.911
486.36	51.111
486.70	51.175
487.05	50.558
487.40	51.021
487.75	51.582
488.09	50.653
488.44	51.115
488.79	50.017
489.13	50.243
489.48	50.579
489.83	50.834
490.17	50.000
490.52	51.550
490.87	49.655
491.22	50.798
491.56	51.427
491.91	50.000
492.26	49.889
492.60	49.886
492.95	50.204
493.30	50.136
493.64	49.955
493.99	50.179
494.34	50.336
494.68	50.819
495.03	49.978
495.37	49.932
495.72	51.002
496.07	49.865
496.41	49.609
496.76	49.810
497.11	48.886
497.45	48.751
497.80	50.185
498.14	49.884
498.49	48.375
498.84	49.626
499.18	49.177
499.53	48.966
499.87	48.383
500.22	49.516
500.56	49.025
500.91	49.768
501.26	49.150
501.60	48.679
501.95	48.835
502.29	48.400
502.64	48.081
502.98	47.932
503.33	48.731
503.67	48.168
504.02	47.918
504.36	47.828
504.71	48.202
505.06	47.583
505.40	48.245
505.75	47.661
506.09	46.804
506.44	47.697
506.78	47.826
507.13	48.134
507.47	47.695
507.82	47.445
508.16	47.624
508.51	47.343
508.85	46.961
509.19	47.528
509.54	46.924
509.88	47.588
510.23	47.598
510.57	45.560
510.92	47.802
511.26	47.841
511.61	47.218
511.95	46.690
512.30	46.550
512.64	46.781
512.98	46.899
513.33	46.260
513.67	47.022
514.02	46.442
514.36	47.248
514.70	46.667
515.05	45.392
515.39	47.588
515.74	47.348
516.08	45.752
516.42	48.197
516.77	46.293
517.11	46.293
517.46	45.959
517.80	46.969
518.14	46.592
518.49	45.590
518.83	45.989
519.17	46.201
519.52	46.095
519.86	45.668
520.20	45.644
520.55	45.562
520.89	45.517
521.23	46.379
521.58	45.611
521.92	45.306
522.26	45.083
522.61	45.692
522.95	45.766
523.29	45.088
523.64	43.584
523.98	45.364
524.32	45.098
524.66	44.928
525.01	44.379
525.35	44.196
525.69	45.394
526.04	44.259
526.38	44.320
526.72	45.525
527.06	43.938
527.41	44.982
527.75	45.222
528.09	43.709
528.43	44.112
528.78	45.081
529.12	45.093
529.46	43.600
529.80	44.860
530.15	44.490
530.49	43.141
530.83	43.023
531.17	44.403
531.51	43.899
531.86	42.935
532.20	42.522
532.54	44.068
532.88	44.347
533.22	44.241
533.57	44.234
533.91	43.357
534.25	42.816
534.59	43.275
534.93	42.947
535.27	42.003
535.62	42.882
535.96	42.967
536.30	44.729
536.64	42.547
536.98	43.172
537.32	42.812
537.66	42.156
538.01	42.786
538.35	42.483
538.69	42.536
539.03	42.289
539.37	42.233
539.71	43.580
540.05	42.277
540.39	43.082
540.73	43.481
541.07	41.907
541.42	42.475
541.76	43.033
542.10	42.910
542.44	41.646
542.78	42.039
543.12	41.779
543.46	41.729
543.80	40.789
544.14	42.353
544.48	42.457
544.82	42.263
545.16	41.530
545.50	42.348
545.84	41.919
546.18	43.758
546.52	42.820
546.86	42.231
547.20	40.439
547.54	40.912
547.88	40.754
548.22	41.469
548.56	40.837
548.90	40.510
549.24	41.693
549.58	40.464
549.92	41.519
550.26	42.123
550.60	41.983
550.94	42.130
551.28	41.586
551.62	41.793
551.96	41.216
552.30	41.793
552.64	41.165
552.98	40.142
553.32	40.013
553.66	41.173
554.00	40.669
554.34	42.277
554.68	40.927
555.02	41.073
555.36	40.426
555.69	40.314
556.03	40.764
556.37	40.408
556.71	40.417
557.05	39.974
557.39	40.333
557.73	41.105
558.07	39.839
558.41	40.576
558.75	40.834
559.08	41.458
559.42	41.661
559.76	40.699
560.10	40.674
560.44	40.279
560.78	40.921
561.12	41.004
561.45	39.737
561.79	39.326
562.13	39.608
562.47	40.169
562.81	40.534
563.15	40.789
563.48	39.317
563.82	41.859
564.16	40.299
564.50	38.517
564.84	40.122
565.17	38.919
565.51	40.333
565.85	40.531
566.19	40.000
566.52	39.290
566.86	39.872
567.20	40.169
567.54	39.738
567.88	40.845
568.21	38.692
568.55	39.251
568.89	40.055
569.23	39.301
569.56	39.776
569.90	39.346
570.24	39.932
570.57	40.039
570.91	39.251
571.25	38.820
571.59	38.353
571.92	38.644
572.26	38.140
572.60	39.072
572.93	39.103
573.27	38.541
573.61	38.603
573.95	39.243
574.28	39.069
574.62	38.682
574.96	38.336
575.29	38.216
575.63	38.492
575.97	38.169
576.30	38.471
576.64	38.531
576.98	38.774
577.31	39.462
577.65	38.338
577.98	38.638
578.32	38.633
578.66	38.025
578.99	38.347
579.33	38.724
579.67	37.826
580.00	38.569
580.34	37.930
580.67	38.121
581.01	38.139
581.35	38.223
581.68	37.486
582.02	38.029
582.35	38.163
582.69	38.499
583.02	38.156
583.36	38.494
583.70	38.506
584.03	39.150
584.37	38.743
584.70	38.293
585.04	37.997
585.37	37.985
585.71	38.539
586.04	38.074
586.38	37.683
586.72	37.761
587.05	38.188
587.39	38.357
587.72	38.448
588.06	37.994
588.39	37.948
588.73	38.409
589.06	38.634
589.40	38.842
589.73	37.398
590.07	39.430
590.40	38.188
590.73	38.854
591.07	38.937
591.40	37.365
591.74	37.662
592.07	37.854
592.41	37.730
592.74	37.825
593.08	37.142
593.41	37.762
593.75	36.896
594.08	37.666
594.41	37.276
594.75	36.986
595.08	37.311
595.42	37.459
595.75	37.907
596.09	37.748
596.42	37.109
596.75	38.181
597.09	37.969
597.42	37.673
597.75	36.471
598.09	36.890
598.42	36.842
598.76	36.700
599.09	37.734
599.42	36.782
599.76	37.144
600.09	36.542
600.42	37.569
600.76	36.540
601.09	37.176
601.42	36.818
601.76	37.343
602.09	37.013
602.42	36.303
602.76	36.546
603.09	37.217
603.42	36.807
603.76	37.021
604.09	37.315
604.42	36.309
604.76	37.416
605.09	37.224
605.42	37.221
605.75	37.071
606.09	37.414
606.42	36.565
606.75	36.222
607.09	36.242
607.42	35.958
607.75	36.306
608.08	36.718
608.42	37.290
608.75	35.730
609.08	36.516
609.41	36.273
609.75	37.179
610.08	36.781
610.41	36.803
610.74	35.325
611.07	36.608
611.41	36.237
611.74	36.616
612.07	36.657
612.40	36.501
612.73	36.745
613.07	36.442
613.40	36.842
613.73	36.895
614.06	35.650
614.39	37.475
614.72	35.811
615.06	34.619
615.39	36.584
615.72	35.189
616.05	36.313
616.38	35.109
616.71	35.974
617.05	35.695
617.38	36.011
617.71	35.321
618.04	36.568
618.37	35.853
618.70	36.085
619.03	35.714
619.36	36.244
619.69	35.686
620.03	37.312
620.36	37.251
620.69	36.271
621.02	36.413
621.35	35.315
621.68	35.103
622.01	36.974
622.34	35.688
622.67	36.096
623.00	35.398
623.33	35.965
623.66	34.797
623.99	35.890
624.32	35.772
624.65	35.352
624.99	35.700
625.32	35.137
625.65	35.103
625.98	35.704
626.31	36.721
626.64	35.991
626.97	34.889
627.30	35.404
627.63	36.499
627.96	35.446
628.29	36.716
628.62	35.073
628.95	35.550
629.28	34.969
629.61	35.413
629.94	35.782
630.26	35.095
630.59	35.727
630.92	34.798
