SpectraSuite Data File
++++++++++++++++++++++++++++++++++++
Date: Tue May 12 17:15:34 PDT 2015
User: schluterlab
Dark Spectrum Present: Yes
Reference Spectrum Present: Yes
Number of Sampled Component Spectra: 1
Spectrometers: USB2E3373
Integration Time (usec): 3000 (USB2E3373)
Spectra Averaged: 3 (USB2E3373)
Boxcar Smoothing: 0 (USB2E3373)
Correct for Electrical Dark: No (USB2E3373)
Strobe/Lamp Enabled: No (USB2E3373)
Correct for Detector Non-linearity: No (USB2E3373)
Correct for Stray Light: No (USB2E3373)
Number of Pixels in Processed Spectrum: 2048
>>>>>Begin Processed Spectral Data<<<<<
178.53	0.000
178.91	-200.000
179.29	-700.000
179.67	-3400.000
180.04	-153.333
180.42	800.000
180.80	1700.000
181.18	0.000
181.56	-387.500
181.94	0.000
182.31	1000.000
182.69	-3000.000
183.07	542.857
183.45	-3000.000
183.83	-1650.000
184.20	310.000
184.58	400.000
184.96	-223.077
185.34	-216.667
185.72	1450.000
186.09	-675.000
186.47	-3500.000
186.85	833.333
187.23	480.000
187.61	1800.000
187.98	437.500
188.36	235.714
188.74	350.000
189.12	341.667
189.49	1025.000
189.87	0.000
190.25	412.500
190.63	2400.000
191.00	-241.667
191.38	-3300.000
191.76	-725.000
192.14	587.500
192.51	-2200.000
192.89	1850.000
193.27	966.667
193.65	-966.667
194.02	-620.000
194.40	414.286
194.78	-171.429
195.15	213.333
195.53	-3000.000
195.91	-660.000
196.29	3600.000
196.66	212.500
197.04	750.000
197.42	-1450.000
197.79	925.000
198.17	416.667
198.55	0.000
198.92	457.143
199.30	1333.333
199.68	1800.000
200.05	666.667
200.43	-400.000
200.81	200.000
201.18	3700.000
201.56	233.333
201.94	-775.000
202.31	-250.000
202.69	-540.000
203.07	3500.000
203.44	-583.333
203.82	383.333
204.19	540.000
204.57	-1500.000
204.95	-700.000
205.32	-600.000
205.70	583.333
206.08	750.000
206.45	-933.333
206.83	333.333
207.20	200.000
207.58	283.333
207.96	640.000
208.33	0.000
208.71	585.714
209.08	700.000
209.46	-2100.000
209.84	-750.000
210.21	840.000
210.59	-400.000
210.96	350.000
211.34	-975.000
211.71	309.091
212.09	800.000
212.46	1950.000
212.84	-483.333
213.22	422.222
213.59	-2100.000
213.97	360.000
214.34	500.000
214.72	1100.000
215.09	1466.667
215.47	-3600.000
215.84	-250.000
216.22	-200.000
216.59	0.000
216.97	0.000
217.34	1850.000
217.72	-1650.000
218.09	1033.333
218.47	400.000
218.84	825.000
219.22	1133.333
219.59	600.000
219.97	485.714
220.34	377.778
220.72	1500.000
221.09	4000.000
221.47	300.000
221.84	866.667
222.22	360.000
222.59	288.889
222.97	221.429
223.34	218.750
223.72	-1800.000
224.09	1266.667
224.46	315.385
224.84	-700.000
225.21	300.000
225.59	260.000
225.96	1066.667
226.34	-800.000
226.71	-850.000
227.08	-380.000
227.46	0.000
227.83	-583.333
228.21	-1550.000
228.58	316.667
228.95	850.000
229.33	277.778
229.70	650.000
230.08	292.308
230.45	2900.000
230.82	-950.000
231.20	-800.000
231.57	-1266.667
231.95	560.000
232.32	350.000
232.69	500.000
233.07	325.000
233.44	-1400.000
233.81	180.000
234.19	148.148
234.56	250.000
234.93	176.471
235.31	140.000
235.68	256.250
236.05	135.714
236.43	137.037
236.80	192.857
237.17	141.379
237.55	106.250
237.92	65.000
238.29	121.212
238.67	90.625
239.04	85.366
239.41	62.500
239.79	67.500
240.16	66.667
240.53	60.656
240.91	52.174
241.28	55.932
241.65	37.879
242.02	42.254
242.40	48.571
242.77	43.956
243.14	30.380
243.51	45.455
243.89	27.103
244.26	21.495
244.63	20.792
245.00	27.523
245.38	20.339
245.75	29.545
246.12	31.852
246.49	20.567
246.87	13.934
247.24	25.333
247.61	20.625
247.98	16.327
248.36	18.182
248.73	28.061
249.10	12.500
249.47	17.000
249.84	12.935
250.22	21.081
250.59	18.500
250.96	21.519
251.33	13.953
251.70	18.304
252.08	12.605
252.45	12.749
252.82	14.068
253.19	13.043
253.56	10.000
253.94	13.043
254.31	12.403
254.68	12.195
255.05	13.103
255.42	11.679
255.79	9.121
256.16	11.186
256.54	15.909
256.91	10.784
257.28	9.030
257.65	9.404
258.02	9.145
258.39	10.315
258.76	10.145
259.14	6.571
259.51	9.621
259.88	7.903
260.25	7.418
260.62	11.507
260.99	8.540
261.36	8.914
261.73	8.511
262.10	8.377
262.47	8.750
262.85	9.333
263.22	10.797
263.59	10.486
263.96	9.524
264.33	7.901
264.70	9.337
265.07	9.756
265.44	8.486
265.81	10.377
266.18	9.840
266.55	7.329
266.92	7.383
267.29	10.088
267.66	4.933
268.03	6.726
268.40	6.342
268.77	7.930
269.14	6.508
269.51	7.572
269.88	10.204
270.25	4.968
270.62	8.584
270.99	11.156
271.36	9.146
271.73	5.241
272.10	6.465
272.47	4.960
272.84	4.790
273.21	6.405
273.58	7.692
273.95	5.339
274.32	6.226
274.69	7.087
275.06	7.468
275.43	6.322
275.80	7.736
276.17	9.191
276.54	8.037
276.91	8.582
277.28	6.204
277.65	7.934
278.02	7.904
278.39	7.554
278.76	8.276
279.13	6.940
279.50	6.727
279.87	5.214
280.23	4.788
280.60	6.934
280.97	6.379
281.34	6.601
281.71	7.652
282.08	7.863
282.45	6.081
282.82	4.849
283.19	6.836
283.56	6.116
283.92	6.678
284.29	5.657
284.66	4.034
285.03	7.463
285.40	6.116
285.77	6.173
286.14	6.966
286.51	5.215
286.87	5.222
287.24	6.156
287.61	4.711
287.98	7.612
288.35	6.667
288.72	6.222
289.08	6.006
289.45	5.793
289.82	7.188
290.19	5.124
290.56	7.715
290.93	4.892
291.29	5.801
291.66	5.508
292.03	6.872
292.40	6.369
292.77	5.153
293.13	5.991
293.50	5.668
293.87	5.420
294.24	5.594
294.60	5.922
294.97	7.692
295.34	5.843
295.71	7.490
296.08	6.133
296.44	6.861
296.81	6.452
297.18	5.703
297.55	6.404
297.91	4.433
298.28	6.522
298.65	7.362
299.02	6.755
299.38	6.115
299.75	5.610
300.12	5.849
300.48	6.089
300.85	6.317
301.22	5.698
301.59	6.604
301.95	5.951
302.32	5.937
302.69	7.353
303.05	8.081
303.42	5.830
303.79	6.934
304.15	6.161
304.52	5.920
304.89	7.249
305.25	7.341
305.62	7.249
305.99	7.065
306.35	6.842
306.72	7.180
307.09	7.350
307.45	7.497
307.82	7.305
308.19	7.629
308.55	7.000
308.92	9.127
309.29	9.763
309.65	8.028
310.02	8.621
310.38	7.777
310.75	7.425
311.12	7.854
311.48	10.328
311.85	8.111
312.22	9.742
312.58	10.398
312.95	9.903
313.31	9.457
313.68	9.568
314.05	9.249
314.41	8.566
314.78	9.375
315.14	9.953
315.51	12.394
315.87	8.759
316.24	10.831
316.61	10.743
316.97	10.459
317.34	10.782
317.70	11.326
318.07	12.633
318.43	12.566
318.80	11.559
319.16	11.801
319.53	12.655
319.89	12.366
320.26	13.594
320.62	13.004
320.99	13.441
321.35	13.822
321.72	14.516
322.08	14.220
322.45	14.532
322.81	14.181
323.18	16.075
323.54	15.505
323.91	16.500
324.27	15.031
324.64	14.706
325.00	15.603
325.37	15.767
325.73	17.116
326.10	16.321
326.46	17.424
326.83	16.560
327.19	16.948
327.56	15.974
327.92	17.623
328.29	18.167
328.65	18.750
329.01	17.280
329.38	17.766
329.74	17.421
330.11	18.071
330.47	17.988
330.84	17.688
331.20	18.443
331.56	19.257
331.93	19.846
332.29	18.282
332.66	18.622
333.02	17.268
333.38	18.150
333.75	18.849
334.11	17.114
334.48	19.316
334.84	17.652
335.20	18.648
335.57	16.625
335.93	17.410
336.29	17.993
336.66	19.983
337.02	17.622
337.38	18.143
337.75	18.919
338.11	18.819
338.47	18.374
338.84	18.290
339.20	18.355
339.56	17.914
339.93	19.064
340.29	17.395
340.65	17.687
341.02	18.906
341.38	19.704
341.74	18.439
342.11	17.446
342.47	18.704
342.83	19.606
343.20	19.483
343.56	17.712
343.92	18.745
344.28	18.740
344.65	17.685
345.01	17.778
345.37	18.429
345.73	17.302
346.10	18.486
346.46	18.182
346.82	17.670
347.19	17.311
347.55	17.486
347.91	17.598
348.27	17.893
348.63	17.880
349.00	17.898
349.36	17.899
349.72	18.731
350.08	18.711
350.45	18.203
350.81	18.425
351.17	17.797
351.53	17.552
351.89	17.871
352.26	16.856
352.62	17.647
352.98	17.408
353.34	19.106
353.70	17.508
354.07	18.077
354.43	17.588
354.79	16.781
355.15	18.530
355.51	16.918
355.87	18.449
356.24	18.938
356.60	18.341
356.96	17.741
357.32	18.689
357.68	17.915
358.04	17.325
358.40	17.991
358.77	18.257
359.13	18.544
359.49	18.310
359.85	18.094
360.21	17.756
360.57	18.759
360.93	17.605
361.29	18.831
361.66	17.748
362.02	17.472
362.38	18.038
362.74	17.764
363.10	18.724
363.46	17.472
363.82	17.742
364.18	18.065
364.54	17.382
364.90	18.876
365.26	17.627
365.62	18.370
365.98	18.651
366.35	17.379
366.71	18.112
367.07	18.225
367.43	17.864
367.79	18.085
368.15	18.182
368.51	17.229
368.87	17.731
369.23	17.672
369.59	17.667
369.95	18.881
370.31	16.564
370.67	18.737
371.03	18.838
371.39	18.560
371.75	18.283
372.11	18.423
372.47	18.219
372.83	18.627
373.19	19.397
373.55	19.313
373.91	16.989
374.27	17.791
374.63	17.898
374.99	17.588
375.35	18.145
375.71	18.865
376.07	18.170
376.42	17.136
376.78	18.176
377.14	18.087
377.50	17.478
377.86	17.873
378.22	18.282
378.58	19.068
378.94	18.648
379.30	18.617
379.66	17.881
380.02	18.651
380.38	17.037
380.74	18.339
381.09	18.867
381.45	18.035
381.81	18.853
382.17	18.010
382.53	17.217
382.89	17.682
383.25	17.762
383.61	17.406
383.97	17.636
384.32	17.963
384.68	17.944
385.04	17.819
385.40	17.319
385.76	17.028
386.12	17.625
386.48	17.751
386.83	18.276
387.19	17.903
387.55	17.491
387.91	17.148
388.27	17.965
388.62	18.662
388.98	17.201
389.34	17.371
389.70	17.807
390.06	17.927
390.42	17.273
390.77	18.059
391.13	17.743
391.49	16.818
391.85	18.338
392.20	18.117
392.56	17.443
392.92	16.171
393.28	17.321
393.64	16.055
393.99	17.724
394.35	17.304
394.71	16.948
395.07	17.092
395.42	17.330
395.78	18.075
396.14	17.349
396.50	16.306
396.85	17.500
397.21	16.667
397.57	16.736
397.92	16.522
398.28	16.382
398.64	17.336
399.00	15.927
399.35	16.049
399.71	16.832
400.07	16.153
400.42	17.075
400.78	16.129
401.14	16.618
401.49	16.014
401.85	17.265
402.21	16.462
402.57	17.115
402.92	16.970
403.28	15.453
403.63	16.421
403.99	16.948
404.35	17.116
404.70	16.657
405.06	16.508
405.42	16.577
405.77	16.373
406.13	16.323
406.49	15.179
406.84	16.074
407.20	16.267
407.55	16.492
407.91	17.486
408.27	17.283
408.62	16.263
408.98	16.972
409.34	16.482
409.69	15.557
410.05	15.265
410.40	14.900
410.76	16.657
411.11	15.699
411.47	16.173
411.83	15.817
412.18	15.519
412.54	16.697
412.89	15.929
413.25	16.420
413.60	16.530
413.96	16.098
414.31	16.647
414.67	16.884
415.03	16.092
415.38	15.142
415.74	16.804
416.09	16.052
416.45	16.613
416.80	16.742
417.16	16.359
417.51	16.369
417.87	16.708
418.22	17.072
418.58	16.433
418.93	15.943
419.29	15.835
419.64	16.111
420.00	17.542
420.35	16.318
420.71	15.986
421.06	16.186
421.42	15.717
421.77	16.491
422.12	16.152
422.48	16.025
422.83	17.076
423.19	15.875
423.54	16.347
423.90	16.818
424.25	16.841
424.61	16.657
424.96	15.810
425.31	16.804
425.67	16.611
426.02	16.096
426.38	17.328
426.73	16.021
427.09	17.141
427.44	16.095
427.79	16.924
428.15	17.678
428.50	17.143
428.85	16.931
429.21	17.234
429.56	17.099
429.92	17.205
430.27	16.691
430.62	16.397
430.98	16.567
431.33	16.935
431.68	16.049
432.04	17.175
432.39	16.850
432.74	17.272
433.10	16.722
433.45	17.174
433.80	17.761
434.16	16.816
434.51	18.111
434.86	17.529
435.22	17.234
435.57	17.842
435.92	17.985
436.28	18.433
436.63	17.612
436.98	18.243
437.34	18.037
437.69	16.797
438.04	17.419
438.39	17.922
438.75	17.929
439.10	17.107
439.45	17.411
439.81	17.814
440.16	17.887
440.51	17.455
440.86	18.519
441.22	16.504
441.57	18.110
441.92	17.917
442.27	17.784
442.63	17.530
442.98	17.295
443.33	18.211
443.68	17.656
444.03	17.342
444.39	18.126
444.74	17.443
445.09	17.641
445.44	18.757
445.79	17.885
446.15	17.421
446.50	18.143
446.85	17.729
447.20	17.463
447.55	17.129
447.91	18.753
448.26	18.317
448.61	17.689
448.96	17.974
449.31	18.207
449.66	18.660
450.02	17.450
450.37	18.712
450.72	18.127
451.07	19.023
451.42	18.850
451.77	18.041
452.12	19.626
452.47	18.226
452.83	18.028
453.18	19.219
453.53	18.650
453.88	18.400
454.23	18.826
454.58	18.298
454.93	17.964
455.28	19.339
455.63	18.617
455.98	18.951
456.34	17.994
456.69	18.415
457.04	18.735
457.39	17.771
457.74	19.313
458.09	18.697
458.44	18.072
458.79	18.833
459.14	18.003
459.49	18.856
459.84	18.424
460.19	17.571
460.54	19.031
460.89	18.923
461.24	18.442
461.59	18.707
461.94	18.972
462.29	19.108
462.64	19.661
462.99	18.362
463.34	19.054
463.69	19.661
464.04	18.883
464.39	18.088
464.74	18.113
465.09	18.630
465.44	18.934
465.79	18.400
466.14	18.283
466.49	18.123
466.84	19.287
467.19	18.512
467.54	18.078
467.89	19.014
468.24	18.819
468.59	18.631
468.94	18.961
469.29	18.509
469.64	18.778
469.99	19.023
470.34	18.090
470.68	19.172
471.03	18.546
471.38	19.272
471.73	18.615
472.08	19.178
472.43	19.553
472.78	19.718
473.13	18.398
473.48	18.460
473.83	19.258
474.17	18.480
474.52	18.246
474.87	18.078
475.22	19.589
475.57	18.888
475.92	19.060
476.27	18.063
476.61	17.962
476.96	18.652
477.31	18.458
477.66	18.841
478.01	18.412
478.36	18.229
478.70	17.866
479.05	17.835
479.40	18.006
479.75	18.173
480.10	17.861
480.45	17.880
480.79	17.512
481.14	18.402
481.49	17.932
481.84	18.470
482.19	17.860
482.53	18.270
482.88	18.638
483.23	18.088
483.58	18.223
483.92	18.830
484.27	17.680
484.62	18.421
484.97	18.192
485.31	17.196
485.66	17.001
486.01	16.685
486.36	16.700
486.70	16.406
487.05	16.650
487.40	17.403
487.75	17.012
488.09	17.131
488.44	17.368
488.79	17.563
489.13	18.402
489.48	18.178
489.83	17.473
490.17	17.630
490.52	17.700
490.87	17.500
491.22	17.686
491.56	18.445
491.91	18.235
492.26	18.664
492.60	18.041
492.95	17.852
493.30	18.380
493.64	18.284
493.99	18.202
494.34	17.660
494.68	18.061
495.03	18.051
495.37	18.865
495.72	18.601
496.07	18.149
496.41	17.767
496.76	18.024
497.11	18.252
497.45	18.632
497.80	17.887
498.14	17.846
498.49	18.477
498.84	18.832
499.18	17.002
499.53	18.236
499.87	18.014
500.22	18.194
500.56	18.013
500.91	19.109
501.26	18.236
501.60	18.124
501.95	17.787
502.29	17.733
502.64	17.512
502.98	17.697
503.33	18.575
503.67	18.278
504.02	17.376
504.36	17.692
504.71	18.921
505.06	17.550
505.40	18.343
505.75	17.446
506.09	19.039
506.44	18.186
506.78	18.384
507.13	18.517
507.47	18.001
507.82	18.248
508.16	18.961
508.51	17.923
508.85	18.186
509.19	18.453
509.54	19.189
509.88	18.598
510.23	17.941
510.57	17.568
510.92	18.831
511.26	18.323
511.61	18.464
511.95	19.114
512.30	18.450
512.64	18.224
512.98	17.581
513.33	18.391
513.67	18.488
514.02	18.338
514.36	18.224
514.70	18.400
515.05	18.594
515.39	18.750
515.74	18.535
516.08	18.791
516.42	19.344
516.77	18.560
517.11	18.560
517.46	17.726
517.80	18.296
518.14	19.042
518.49	18.523
518.83	18.407
519.17	18.913
519.52	19.061
519.86	18.910
520.20	19.288
520.55	18.711
520.89	18.851
521.23	18.516
521.58	18.417
521.92	18.717
522.26	18.957
522.61	18.954
522.95	18.979
523.29	19.064
523.64	18.324
523.98	18.779
524.32	18.627
524.66	19.072
525.01	18.343
525.35	17.619
525.69	18.964
526.04	18.679
526.38	18.835
526.72	18.735
527.06	19.160
527.41	19.045
527.75	18.990
528.09	17.580
528.43	18.487
528.78	19.201
529.12	18.603
529.46	19.053
529.80	18.224
530.15	18.916
530.49	18.231
530.83	18.647
531.17	17.897
531.51	17.964
531.86	18.659
532.20	18.850
532.54	17.577
532.88	18.176
533.22	18.708
533.57	18.609
533.91	18.298
534.25	17.657
534.59	19.006
534.93	19.056
535.27	17.075
535.62	18.436
535.96	17.671
536.30	18.647
536.64	18.137
536.98	18.062
537.32	18.312
537.66	17.793
538.01	18.762
538.35	17.966
538.69	17.597
539.03	17.662
539.37	17.172
539.71	17.531
540.05	18.092
540.39	18.805
540.73	17.785
541.07	17.817
541.42	18.284
541.76	18.126
542.10	17.818
542.44	17.768
542.78	16.740
543.12	18.037
543.46	18.045
543.80	18.421
544.14	17.585
544.48	17.944
544.82	17.982
545.16	17.426
545.50	18.009
545.84	17.929
546.18	18.466
546.52	18.361
546.86	18.891
547.20	16.925
547.54	17.923
547.88	18.005
548.22	17.547
548.56	18.680
548.90	17.438
549.24	17.877
549.58	17.977
549.92	17.878
550.26	18.458
550.60	18.164
550.94	19.267
551.28	18.759
551.62	18.759
551.96	18.986
552.30	17.139
552.64	19.094
552.98	17.526
553.32	17.478
553.66	17.264
554.00	17.310
554.34	18.575
554.68	17.675
555.02	18.330
555.36	18.418
555.69	18.325
556.03	17.516
556.37	17.463
556.71	18.579
557.05	16.907
557.39	17.667
557.73	18.531
558.07	18.109
558.41	17.820
558.75	17.715
559.08	18.585
559.42	17.752
559.76	18.959
560.10	18.376
560.44	18.580
560.78	18.606
561.12	17.610
561.45	17.835
561.79	16.792
562.13	16.993
562.47	17.391
562.81	17.632
563.15	17.841
563.48	17.019
563.82	17.717
564.16	18.097
564.50	16.878
564.84	17.325
565.17	18.004
565.51	18.227
565.85	18.199
566.19	17.262
566.52	16.546
566.86	16.988
567.20	18.315
567.54	16.376
567.88	17.997
568.21	16.525
568.55	16.440
568.89	16.332
569.23	16.005
569.56	16.374
569.90	16.098
570.24	16.116
570.57	15.542
570.91	15.725
571.25	15.658
571.59	15.116
571.92	15.124
572.26	14.933
572.60	15.135
572.93	15.210
573.27	15.480
573.61	14.997
573.95	15.264
574.28	15.027
574.62	14.951
574.96	15.054
575.29	15.010
575.63	14.653
575.97	14.216
576.30	14.832
576.64	14.863
576.98	14.651
577.31	15.006
577.65	14.619
577.98	14.547
578.32	14.455
578.66	14.911
578.99	14.831
579.33	14.750
579.67	14.840
580.00	14.377
580.34	14.618
580.67	14.720
581.01	14.812
581.35	14.629
581.68	14.322
582.02	14.288
582.35	14.305
582.69	14.400
583.02	14.583
583.36	14.638
583.70	14.803
584.03	15.113
584.37	14.891
584.70	14.655
585.04	14.276
585.37	14.292
585.71	15.393
586.04	14.899
586.38	14.771
586.72	14.826
587.05	15.106
587.39	14.918
587.72	14.857
588.06	14.949
588.39	14.765
588.73	15.227
589.06	15.028
589.40	15.211
589.73	15.470
590.07	15.202
590.40	15.645
590.73	16.342
591.07	16.053
591.40	15.449
591.74	15.463
592.07	14.642
592.41	15.627
592.74	14.793
593.08	14.616
593.41	15.111
593.75	14.407
594.08	15.614
594.41	15.282
594.75	15.205
595.08	15.329
595.42	15.273
595.75	15.466
596.09	15.468
596.42	15.368
596.75	15.545
597.09	15.807
597.42	15.388
597.75	15.010
598.09	15.347
598.42	15.259
598.76	15.420
599.09	15.484
599.42	14.913
599.76	14.993
600.09	14.576
600.42	14.537
600.76	14.786
601.09	15.326
601.42	14.784
601.76	14.787
602.09	15.747
602.42	15.194
602.76	15.142
603.09	14.819
603.42	15.890
603.76	15.257
604.09	15.128
604.42	14.275
604.76	15.132
605.09	15.633
605.42	15.278
605.75	14.805
606.09	15.111
606.42	14.994
606.75	15.468
607.09	15.002
607.42	14.986
607.75	15.645
608.08	14.825
608.42	14.304
608.75	14.891
609.08	14.562
609.41	15.727
609.75	15.797
610.08	15.153
610.41	15.459
610.74	15.758
611.07	15.143
611.41	15.524
611.74	15.679
612.07	15.173
612.40	15.205
612.73	15.427
613.07	15.661
613.40	15.589
613.73	14.878
614.06	15.700
614.39	15.505
614.72	15.168
615.06	14.639
615.39	15.446
615.72	14.666
616.05	15.218
616.38	15.271
616.71	15.247
617.05	15.047
617.38	15.506
617.71	16.423
618.04	15.367
618.37	15.731
618.70	15.185
619.03	16.056
619.36	16.269
619.69	15.699
620.03	16.308
620.36	15.607
620.69	16.220
621.02	16.304
621.35	16.189
621.68	16.372
622.01	16.974
622.34	15.004
622.67	15.449
623.00	15.657
623.33	16.262
623.66	16.035
623.99	15.274
624.32	16.463
624.65	15.866
624.99	15.416
625.32	15.965
625.65	15.103
625.98	15.830
626.31	16.543
626.64	15.338
626.97	15.073
627.30	16.227
627.63	17.111
627.96	15.102
628.29	16.007
628.62	16.510
628.95	16.755
629.28	17.178
629.61	16.344
629.94	16.076
630.26	17.158
630.59	17.730
630.92	16.592
631.25	17.135
631.58	17.551
631.91	17.031
632.24	16.424
632.57	15.619
632.90	16.460
633.23	17.209
633.56	17.808
633.89	18.114
634.22	17.761
634.55	16.882
