SpectraSuite Data File
++++++++++++++++++++++++++++++++++++
Date: Tue May 12 17:17:21 PDT 2015
User: schluterlab
Dark Spectrum Present: Yes
Reference Spectrum Present: Yes
Number of Sampled Component Spectra: 1
Spectrometers: USB2E3373
Integration Time (usec): 3000 (USB2E3373)
Spectra Averaged: 3 (USB2E3373)
Boxcar Smoothing: 0 (USB2E3373)
Correct for Electrical Dark: No (USB2E3373)
Strobe/Lamp Enabled: No (USB2E3373)
Correct for Detector Non-linearity: No (USB2E3373)
Correct for Stray Light: No (USB2E3373)
Number of Pixels in Processed Spectrum: 2048
>>>>>Begin Processed Spectral Data<<<<<
178.53	0.000
178.91	-183.333
179.29	-625.000
179.67	-3700.000
180.04	-73.333
180.42	650.000
180.80	1850.000
181.18	0.000
181.56	-412.500
181.94	0.000
182.31	1066.667
182.69	-3200.000
183.07	557.143
183.45	-2900.000
183.83	-1700.000
184.20	350.000
184.58	471.429
184.96	-207.692
185.34	-241.667
185.72	1800.000
186.09	-775.000
186.47	-3400.000
186.85	1533.333
187.23	560.000
187.61	1650.000
187.98	487.500
188.36	228.571
188.74	408.333
189.12	383.333
189.49	950.000
189.87	0.000
190.25	562.500
190.63	3700.000
191.00	-150.000
191.38	-3600.000
191.76	-550.000
192.14	450.000
192.51	-2800.000
192.89	1700.000
193.27	1000.000
193.65	-1066.667
194.02	-880.000
194.40	528.571
194.78	-185.714
195.15	253.333
195.53	-2400.000
195.91	-500.000
196.29	4400.000
196.66	243.750
197.04	875.000
197.42	-1150.000
197.79	725.000
198.17	366.667
198.55	0.000
198.92	514.286
199.30	1166.667
199.68	2400.000
200.05	633.333
200.43	-433.333
200.81	161.111
201.18	2800.000
201.56	233.333
201.94	-750.000
202.31	-262.500
202.69	-540.000
203.07	2800.000
203.44	-566.667
203.82	250.000
204.19	700.000
204.57	-1500.000
204.95	-750.000
205.32	-640.000
205.70	500.000
206.08	875.000
206.45	-666.667
206.83	422.222
207.20	200.000
207.58	250.000
207.96	580.000
208.33	0.000
208.71	400.000
209.08	560.000
209.46	-2800.000
209.84	-875.000
210.21	720.000
210.59	-640.000
210.96	300.000
211.34	-975.000
211.71	309.091
212.09	950.000
212.46	1700.000
212.84	-466.667
213.22	466.667
213.59	-3100.000
213.97	320.000
214.34	1050.000
214.72	966.667
215.09	866.667
215.47	-3200.000
215.84	-340.000
216.22	-587.500
216.59	0.000
216.97	0.000
217.34	1250.000
217.72	-1250.000
218.09	1000.000
218.47	400.000
218.84	525.000
219.22	966.667
219.59	533.333
219.97	600.000
220.34	411.111
220.72	1750.000
221.09	3900.000
221.47	325.000
221.84	1200.000
222.22	330.000
222.59	261.111
222.97	278.571
223.34	237.500
223.72	-1450.000
224.09	1433.333
224.46	269.231
224.84	-775.000
225.21	355.556
225.59	280.000
225.96	1400.000
226.34	-660.000
226.71	-675.000
227.08	-500.000
227.46	0.000
227.83	-500.000
228.21	-1300.000
228.58	433.333
228.95	900.000
229.33	322.222
229.70	1000.000
230.08	353.846
230.45	4300.000
230.82	-800.000
231.20	-733.333
231.57	-1033.333
231.95	680.000
232.32	350.000
232.69	533.333
233.07	258.333
233.44	-1500.000
233.81	273.333
234.19	174.074
234.56	212.500
234.93	135.294
235.31	250.000
235.68	206.250
236.05	167.857
236.43	155.556
236.80	207.143
237.17	206.897
237.55	153.125
237.92	107.500
238.29	163.636
238.67	137.500
239.04	131.707
239.41	85.417
239.79	90.000
240.16	112.500
240.53	78.689
240.91	85.507
241.28	100.000
241.65	81.818
242.02	88.732
242.40	92.857
242.77	65.934
243.14	64.557
243.51	74.747
243.89	62.617
244.26	66.355
244.63	66.337
245.00	59.633
245.38	54.237
245.75	58.333
246.12	67.407
246.49	56.738
246.87	53.279
247.24	55.333
247.61	54.375
247.98	59.184
248.36	55.152
248.73	53.061
249.10	55.952
249.47	58.000
249.84	52.736
250.22	50.270
250.59	49.000
250.96	46.835
251.33	48.372
251.70	51.786
252.08	49.160
252.45	43.426
252.82	44.106
253.19	46.245
253.56	49.231
253.94	45.652
254.31	44.574
254.68	44.948
255.05	49.310
255.42	45.985
255.79	45.277
256.16	46.441
256.54	45.130
256.91	44.444
257.28	47.157
257.65	42.633
258.02	43.953
258.39	43.553
258.76	42.609
259.14	43.714
259.51	43.149
259.88	45.593
260.25	42.308
260.62	42.192
260.99	41.047
261.36	40.111
261.73	42.819
262.10	45.026
262.47	44.000
262.85	41.067
263.22	42.674
263.59	41.944
263.96	41.604
264.33	39.753
264.70	39.558
265.07	44.146
265.44	42.431
265.81	41.745
266.18	40.503
266.55	41.371
266.92	42.506
267.29	40.351
267.66	39.013
268.03	40.807
268.40	38.689
268.77	42.731
269.14	39.913
269.51	41.871
269.88	40.000
270.25	38.013
270.62	40.558
270.99	43.408
271.36	42.886
271.73	39.413
272.10	38.990
272.47	40.873
272.84	39.122
273.21	40.083
273.58	40.283
273.95	39.014
274.32	40.467
274.69	42.126
275.06	39.526
275.43	38.506
275.80	36.604
276.17	38.603
276.54	38.505
276.91	38.806
277.28	35.949
277.65	39.114
278.02	39.890
278.39	38.129
278.76	38.448
279.13	37.189
279.50	37.455
279.87	36.127
280.23	39.595
280.60	40.511
280.97	39.655
281.34	36.469
281.71	37.739
282.08	37.607
282.45	37.500
282.82	39.465
283.19	36.725
283.56	34.876
283.92	37.948
284.29	34.775
284.66	38.824
285.03	38.308
285.40	36.860
285.77	35.494
286.14	37.616
286.51	35.890
286.87	35.285
287.24	32.733
287.61	37.690
287.98	35.075
288.35	34.667
288.72	35.660
289.08	35.886
289.45	34.451
289.82	35.781
290.19	34.553
290.56	34.498
290.93	35.252
291.29	35.083
291.66	34.040
292.03	34.642
292.40	33.875
292.77	32.869
293.13	33.238
293.50	31.714
293.87	32.520
294.24	33.986
294.60	34.051
294.97	34.825
295.34	32.271
295.71	32.326
296.08	31.733
296.44	31.131
296.81	30.893
297.18	31.686
297.55	30.911
297.91	29.187
298.28	31.280
298.65	31.288
299.02	28.709
299.38	30.456
299.75	30.366
300.12	30.390
300.48	31.382
300.85	31.704
301.22	30.814
301.59	30.071
301.95	30.338
302.32	31.665
302.69	32.240
303.05	31.089
303.42	30.045
303.79	31.311
304.15	29.263
304.52	30.761
304.89	31.130
305.25	30.923
305.62	30.384
305.99	29.130
306.35	29.895
306.72	32.154
307.09	30.538
307.45	31.257
307.82	31.584
308.19	30.825
308.55	31.700
308.92	30.815
309.29	32.051
309.65	31.417
310.02	32.860
310.38	31.605
310.75	31.437
311.12	31.992
311.48	32.915
311.85	32.729
312.22	32.665
312.58	32.264
312.95	34.854
313.31	33.521
313.68	34.053
314.05	35.348
314.41	34.823
314.78	34.564
315.14	35.450
315.51	35.856
315.87	35.858
316.24	36.228
316.61	35.004
316.97	37.798
317.34	38.544
317.70	38.806
318.07	38.434
318.43	39.543
318.80	39.405
319.16	40.559
319.53	40.708
319.89	39.964
320.26	41.620
320.62	42.582
320.99	41.277
321.35	41.558
321.72	42.694
322.08	42.936
322.45	43.597
322.81	43.641
323.18	42.806
323.54	45.470
323.91	46.782
324.27	46.773
324.64	47.405
325.00	50.259
325.37	48.904
325.73	49.831
326.10	50.124
326.46	50.702
326.83	50.160
327.19	51.084
327.56	51.358
327.92	54.344
328.29	52.373
328.65	54.024
329.01	55.261
329.38	55.584
329.74	55.508
330.11	55.083
330.47	55.840
330.84	54.012
331.20	55.584
331.56	58.981
331.93	56.886
332.29	56.207
332.66	58.759
333.02	55.670
333.38	58.115
333.75	57.381
334.11	55.369
334.48	58.718
334.84	56.757
335.20	59.966
335.57	57.599
335.93	59.125
336.29	55.556
336.66	59.863
337.02	59.110
337.38	57.524
337.75	58.868
338.11	58.734
338.47	58.086
338.84	57.409
339.20	57.922
339.56	57.527
339.93	58.027
340.29	58.655
340.65	58.424
341.02	58.005
341.38	59.524
341.74	58.472
342.11	59.015
342.47	57.998
342.83	59.311
343.20	58.448
343.56	57.109
343.92	59.703
344.28	58.772
344.65	59.576
345.01	58.175
345.37	58.173
345.73	58.571
346.10	57.689
346.46	59.888
346.82	57.099
347.19	58.733
347.55	57.143
347.91	57.704
348.27	57.320
348.63	58.703
349.00	58.797
349.36	59.066
349.72	59.557
350.08	57.453
350.45	59.711
350.81	57.722
351.17	58.243
351.53	58.584
351.89	58.275
352.26	58.730
352.62	58.371
352.98	58.512
353.34	59.630
353.70	58.945
354.07	58.077
354.43	57.680
354.79	57.783
355.15	59.265
355.51	58.610
355.87	59.563
356.24	59.507
356.60	59.056
356.96	58.984
357.32	59.081
357.68	58.884
358.04	59.498
358.40	57.871
358.77	58.152
359.13	59.910
359.49	58.043
359.85	59.345
360.21	58.321
360.57	57.445
360.93	59.740
361.29	58.009
361.66	59.060
362.02	58.381
362.38	58.081
362.74	57.962
363.10	58.836
363.46	57.390
363.82	58.696
364.18	56.757
364.54	59.084
364.90	58.768
365.26	58.848
365.62	58.909
365.98	57.192
366.35	58.552
366.71	59.126
367.07	57.474
367.43	58.428
367.79	57.912
368.15	56.309
368.51	58.649
368.87	58.220
369.23	58.281
369.59	58.463
369.95	59.371
370.31	58.385
370.67	58.570
371.03	58.964
371.39	58.864
371.75	59.037
372.11	59.143
372.47	57.192
372.83	57.240
373.19	57.368
373.55	57.320
373.91	57.597
374.27	58.466
374.63	58.034
374.99	58.625
375.35	59.543
375.71	57.322
376.07	58.554
376.42	57.928
376.78	57.482
377.14	58.716
377.50	56.991
377.86	59.001
378.22	58.074
378.58	60.230
378.94	58.479
379.30	57.853
379.66	58.098
380.02	58.182
380.38	57.670
380.74	58.016
381.09	58.061
381.45	57.457
381.81	57.979
382.17	57.082
382.53	57.049
382.89	57.363
383.25	58.496
383.61	57.867
383.97	57.169
384.32	58.288
384.68	59.002
385.04	58.441
385.40	57.651
385.76	56.875
386.12	57.823
386.48	58.845
386.83	59.230
387.19	58.952
387.55	59.011
387.91	58.199
388.27	58.180
388.62	56.866
388.98	57.668
389.34	57.585
389.70	58.196
390.06	58.354
390.42	56.693
390.77	57.862
391.13	57.695
391.49	57.229
391.85	58.769
392.20	57.271
392.56	58.005
392.92	57.327
393.28	56.502
393.64	56.594
393.99	56.254
394.35	56.975
394.71	57.539
395.07	56.265
395.42	56.909
395.78	58.359
396.14	56.988
396.50	56.739
396.85	56.037
397.21	56.679
397.57	56.904
397.92	56.153
398.28	56.812
398.64	57.359
399.00	55.265
399.35	55.233
399.71	55.905
400.07	56.050
400.42	56.060
400.78	56.540
401.14	56.078
401.49	56.912
401.85	56.663
402.21	55.185
402.57	56.254
402.92	57.152
403.28	55.788
403.63	56.504
403.99	56.092
404.35	55.979
404.70	56.999
405.06	55.755
405.42	55.356
405.77	55.788
406.13	55.315
406.49	54.633
406.84	54.089
407.20	55.194
407.55	55.754
407.91	56.158
408.27	55.367
408.62	54.997
408.98	54.583
409.34	53.828
409.69	55.072
410.05	54.383
410.40	54.829
410.76	54.951
411.11	56.280
411.47	55.556
411.83	55.185
412.18	54.891
412.54	55.315
412.89	54.277
413.25	54.903
413.60	54.089
413.96	55.595
414.31	55.077
414.67	57.107
415.03	54.662
415.38	54.322
415.74	56.349
416.09	55.278
416.45	56.820
416.80	55.997
417.16	54.106
417.51	55.414
417.87	54.944
418.22	54.070
418.58	55.223
418.93	54.491
419.29	54.097
419.64	55.118
420.00	54.535
420.35	54.065
420.71	54.376
421.06	54.032
421.42	53.886
421.77	55.025
422.12	53.969
422.48	53.005
422.83	54.576
423.19	53.402
423.54	52.660
423.90	53.907
424.25	54.210
424.61	55.136
424.96	52.964
425.31	53.859
425.67	54.882
426.02	53.393
426.38	53.967
426.73	54.598
427.09	54.626
427.44	53.630
427.79	54.603
428.15	54.685
428.50	55.029
428.85	55.320
429.21	52.836
429.56	54.187
429.92	54.102
430.27	53.701
430.62	52.961
430.98	53.743
431.33	54.183
431.68	51.951
432.04	54.889
432.39	53.842
432.74	53.571
433.10	54.097
433.45	54.279
433.80	55.157
434.16	54.598
434.51	54.902
434.86	54.818
435.22	54.187
435.57	54.357
435.92	55.037
436.28	54.666
436.63	53.593
436.98	54.786
437.34	54.909
437.69	53.807
438.04	52.204
438.39	54.291
438.75	54.120
439.10	53.967
439.45	52.742
439.81	55.061
440.16	53.825
440.51	54.110
440.86	56.125
441.22	54.275
441.57	54.278
441.92	53.504
442.27	53.144
442.63	52.642
442.98	53.879
443.33	54.205
443.68	53.320
444.03	53.346
444.39	54.143
444.74	53.002
445.09	53.449
445.44	54.304
445.79	52.973
446.15	52.053
446.50	54.061
446.85	53.137
447.20	52.886
447.55	53.834
447.91	53.543
448.26	52.556
448.61	54.616
448.96	54.357
449.31	54.125
449.66	53.488
450.02	53.106
450.37	54.081
450.72	53.278
451.07	53.287
451.42	54.001
451.77	54.181
452.12	54.793
452.47	53.098
452.83	54.141
453.18	54.294
453.53	53.878
453.88	53.829
454.23	53.806
454.58	53.497
454.93	52.790
455.28	54.100
455.63	54.610
455.98	52.792
456.34	54.164
456.69	53.537
457.04	53.520
457.39	53.657
457.74	53.435
458.09	53.172
458.44	52.464
458.79	53.687
459.14	52.100
459.49	53.737
459.84	53.750
460.19	51.243
460.54	53.447
460.89	52.345
461.24	52.749
461.59	53.288
461.94	53.664
462.29	53.432
462.64	54.711
462.99	53.167
463.34	53.532
463.69	54.023
464.04	54.519
464.39	51.918
464.74	51.817
465.09	52.234
465.44	53.210
465.79	52.749
466.14	52.040
466.49	52.035
466.84	52.508
467.19	52.607
467.54	52.192
467.89	52.876
468.24	53.214
468.59	52.143
468.94	53.865
469.29	52.596
469.64	53.183
469.99	54.499
470.34	52.309
470.68	54.207
471.03	54.103
471.38	52.450
471.73	53.625
472.08	53.686
472.43	54.252
472.78	53.329
473.13	52.253
473.48	51.406
473.83	52.709
474.17	53.131
474.52	53.318
474.87	52.644
475.22	52.427
475.57	52.151
475.92	52.069
476.27	51.795
476.61	51.903
476.96	51.776
477.31	53.419
477.66	53.086
478.01	51.934
478.36	52.317
478.70	51.117
479.05	51.778
479.40	52.381
479.75	52.135
480.10	52.517
480.45	50.420
480.79	51.106
481.14	51.308
481.49	50.549
481.84	51.759
482.19	51.397
482.53	50.549
482.88	50.986
483.23	50.834
483.58	51.885
483.92	52.879
484.27	51.156
484.62	50.000
484.97	50.253
485.31	49.878
485.66	48.208
486.01	47.080
486.36	46.481
486.70	46.474
487.05	46.761
487.40	47.958
487.75	48.029
488.09	48.011
488.44	47.992
488.79	49.115
489.13	49.608
489.48	50.180
489.83	50.500
490.17	49.959
490.52	50.560
490.87	50.259
491.22	50.842
491.56	51.252
491.91	50.762
492.26	51.225
492.60	51.162
492.95	50.793
493.30	50.637
493.64	50.270
493.99	50.850
494.34	50.919
494.68	50.996
495.03	51.055
495.37	51.103
495.72	51.235
496.07	51.213
496.41	50.000
496.76	49.599
497.11	50.300
497.45	50.373
497.80	50.927
498.14	50.578
498.49	49.721
498.84	50.654
499.18	50.183
499.53	50.528
499.87	49.730
500.22	50.806
500.56	49.954
500.91	51.160
501.26	50.253
501.60	50.046
501.95	50.851
502.29	50.089
502.64	49.228
502.98	49.444
503.33	50.468
503.67	49.801
504.02	49.037
504.36	50.271
504.71	50.331
505.06	50.211
505.40	50.538
505.75	48.737
506.09	50.163
506.44	50.235
506.78	49.716
507.13	51.285
507.47	49.782
507.82	50.365
508.16	51.298
508.51	50.193
508.85	50.095
509.19	49.731
509.54	49.561
509.88	50.820
510.23	49.902
510.57	48.552
510.92	50.849
511.26	51.054
511.61	49.237
511.95	48.980
512.30	50.000
512.64	50.467
512.98	50.026
513.33	50.359
513.67	49.767
514.02	50.078
514.36	50.260
514.70	50.667
515.05	50.133
515.39	50.603
515.74	51.886
516.08	50.218
516.42	52.350
516.77	50.293
517.11	50.507
517.46	50.485
517.80	50.137
518.14	52.282
518.49	50.827
518.83	50.000
519.17	50.361
519.52	50.847
519.86	51.117
520.20	51.890
520.55	51.159
520.89	50.690
521.23	52.629
521.58	50.258
521.92	51.312
522.26	50.652
522.61	51.337
522.95	53.033
523.29	50.468
523.64	50.462
523.98	50.646
524.32	51.442
524.66	50.725
525.01	50.710
525.35	50.442
525.69	51.234
526.04	52.171
526.38	50.971
526.72	50.000
527.06	50.325
527.41	52.177
527.75	52.587
528.09	50.753
528.43	51.007
528.78	50.686
529.12	52.077
529.46	50.497
529.80	50.058
530.15	50.029
530.49	50.241
530.83	51.493
531.17	50.308
531.51	50.092
531.86	50.000
532.20	49.753
532.54	51.664
532.88	50.906
533.22	50.945
533.57	51.739
533.91	49.126
534.25	49.221
534.59	50.000
534.93	49.317
535.27	47.467
535.62	48.541
535.96	49.468
536.30	50.274
536.64	49.565
536.98	50.472
537.32	49.563
537.66	49.681
538.01	49.226
538.35	49.719
538.69	49.211
539.03	49.627
539.37	48.058
539.71	48.827
540.05	48.000
540.39	50.377
540.73	49.114
541.07	48.306
541.42	48.383
541.76	48.150
542.10	49.568
542.44	49.190
542.78	49.213
543.12	47.853
543.46	47.556
543.80	49.123
544.14	49.226
544.48	47.871
544.82	48.563
545.16	46.873
545.50	47.695
545.84	49.369
546.18	49.740
546.52	49.443
546.86	48.356
547.20	48.902
547.54	48.005
547.88	48.479
548.22	47.662
548.56	46.376
548.90	47.153
549.24	47.884
549.58	47.165
549.92	49.836
550.26	47.938
550.60	47.305
550.94	50.339
551.28	49.172
551.62	48.828
551.96	47.568
552.30	47.001
552.64	49.191
552.98	47.680
553.32	46.735
553.66	47.296
554.00	48.520
554.34	49.201
554.68	47.446
555.02	48.880
555.36	47.141
555.69	46.924
556.03	46.561
556.37	46.654
556.71	48.631
557.05	46.330
557.39	47.933
557.73	48.383
558.07	48.021
558.41	46.607
558.75	47.880
559.08	48.821
559.42	49.893
559.76	49.038
560.10	47.419
560.44	47.976
560.78	47.059
561.12	46.535
561.45	46.621
561.79	45.880
562.13	46.052
562.47	47.696
562.81	48.081
563.15	46.736
563.48	44.969
563.82	47.598
564.16	45.958
564.50	44.605
564.84	46.748
565.17	45.157
565.51	47.229
565.85	46.021
566.19	46.190
566.52	45.788
566.86	46.410
567.20	47.247
567.54	44.924
567.88	45.644
568.21	43.535
568.55	43.580
568.89	43.385
569.23	42.925
569.56	43.011
569.90	41.286
570.24	41.431
570.57	41.272
570.91	40.468
571.25	40.184
571.59	39.143
571.92	38.644
572.26	37.951
572.60	39.156
572.93	39.132
573.27	38.914
573.61	39.172
573.95	38.845
574.28	38.778
574.62	38.449
574.96	37.952
575.29	37.514
575.63	37.644
575.97	37.853
576.30	38.193
576.64	38.093
576.98	37.706
577.31	37.895
577.65	37.984
577.98	37.368
578.32	37.188
578.66	37.422
578.99	37.550
579.33	37.303
579.67	37.480
580.00	37.193
580.34	36.969
580.67	37.136
581.01	37.393
581.35	37.050
581.68	36.040
582.02	36.312
582.35	36.557
582.69	37.280
583.02	36.801
583.36	37.482
583.70	37.330
584.03	38.205
584.37	38.188
584.70	37.696
585.04	37.449
585.37	36.970
585.71	37.596
586.04	36.943
586.38	37.539
586.72	37.426
587.05	37.391
587.39	36.612
587.72	37.741
588.06	36.777
588.39	37.845
588.73	37.265
589.06	38.167
589.40	38.685
589.73	38.053
590.07	39.808
590.40	39.094
590.73	39.846
591.07	39.317
591.40	38.683
591.74	39.935
592.07	38.935
592.41	38.689
592.74	38.008
593.08	37.598
593.41	37.582
593.75	36.955
594.08	37.666
594.41	37.406
594.75	37.774
595.08	37.826
595.42	37.327
595.75	37.315
596.09	37.713
596.42	38.092
596.75	38.862
597.09	38.795
597.42	38.898
597.75	38.053
598.09	38.162
598.42	38.678
598.76	38.049
599.09	38.102
599.42	37.232
599.76	37.585
600.09	36.780
600.42	36.464
600.76	36.710
601.09	37.314
601.42	37.416
601.76	37.379
602.09	38.079
602.42	37.375
602.76	37.761
603.09	37.368
603.42	37.248
603.76	36.913
604.09	37.315
604.42	36.911
604.76	37.614
605.09	36.939
605.42	37.749
605.75	37.544
606.09	37.299
606.42	37.016
606.75	37.388
607.09	37.071
607.42	37.164
607.75	37.619
608.08	36.718
608.42	37.584
608.75	37.826
609.08	37.835
609.41	38.455
609.75	38.507
610.08	37.815
610.41	38.076
610.74	37.706
611.07	38.381
611.41	38.369
611.74	38.910
612.07	38.536
612.40	38.645
612.73	39.441
613.07	38.773
613.40	39.148
613.73	38.592
614.06	38.150
614.39	39.141
614.72	38.875
615.06	37.389
615.39	38.911
615.72	37.318
616.05	38.925
616.38	37.443
616.71	39.067
617.05	38.880
617.38	38.652
617.71	38.526
618.04	40.157
618.37	38.132
618.70	38.799
619.03	39.866
619.36	40.641
619.69	39.380
620.03	40.965
620.36	40.141
620.69	40.294
621.02	41.848
621.35	41.261
621.68	41.888
622.01	41.845
622.34	41.224
622.67	40.801
623.00	40.504
623.33	41.161
623.66	39.787
623.99	41.164
624.32	40.041
624.65	38.841
624.99	40.703
625.32	40.548
625.65	39.793
625.98	39.121
626.31	41.469
626.64	40.699
626.97	40.321
627.30	41.693
627.63	41.523
627.96	40.767
628.29	42.162
628.62	41.660
628.95	42.642
629.28	44.522
629.61	43.497
629.94	42.956
630.26	43.934
630.59	44.681
630.92	43.767
631.25	43.518
