SpectraSuite Data File
++++++++++++++++++++++++++++++++++++
Date: Tue May 12 16:11:38 PDT 2015
User: schluterlab
Dark Spectrum Present: Yes
Reference Spectrum Present: Yes
Number of Sampled Component Spectra: 1
Spectrometers: USB2E3373
Integration Time (usec): 3000 (USB2E3373)
Spectra Averaged: 3 (USB2E3373)
Boxcar Smoothing: 0 (USB2E3373)
Correct for Electrical Dark: No (USB2E3373)
Strobe/Lamp Enabled: No (USB2E3373)
Correct for Detector Non-linearity: No (USB2E3373)
Correct for Stray Light: No (USB2E3373)
Number of Pixels in Processed Spectrum: 2048
>>>>>Begin Processed Spectral Data<<<<<
178.53	0.000
178.91	-158.333
179.29	-975.000
179.67	-4200.000
180.04	-146.667
180.42	925.000
180.80	2050.000
181.18	0.000
181.56	-387.500
181.94	0.000
182.31	1566.667
182.69	-3800.000
183.07	671.429
183.45	-3500.000
183.83	-1850.000
184.20	470.000
184.58	542.857
184.96	-284.615
185.34	-283.333
185.72	2450.000
186.09	-875.000
186.47	-3700.000
186.85	1100.000
187.23	680.000
187.61	1900.000
187.98	525.000
188.36	250.000
188.74	325.000
189.12	408.333
189.49	1075.000
189.87	0.000
190.25	550.000
190.63	2800.000
191.00	-250.000
191.38	-4500.000
191.76	-825.000
192.14	637.500
192.51	-4000.000
192.89	2100.000
193.27	900.000
193.65	-1166.667
194.02	-700.000
194.40	642.857
194.78	-242.857
195.15	320.000
195.53	-2500.000
195.91	-740.000
196.29	4700.000
196.66	300.000
197.04	1100.000
197.42	-1800.000
197.79	725.000
198.17	366.667
198.55	0.000
198.92	585.714
199.30	933.333
199.68	1800.000
200.05	650.000
200.43	-566.667
200.81	266.667
201.18	3600.000
201.56	366.667
201.94	-975.000
202.31	-325.000
202.69	-720.000
203.07	3800.000
203.44	-400.000
203.82	391.667
204.19	740.000
204.57	-1650.000
204.95	-875.000
205.32	-720.000
205.70	716.667
206.08	925.000
206.45	-833.333
206.83	477.778
207.20	221.053
207.58	366.667
207.96	760.000
208.33	0.000
208.71	642.857
209.08	760.000
209.46	-3200.000
209.84	-750.000
210.21	920.000
210.59	-420.000
210.96	416.667
211.34	-825.000
211.71	363.636
212.09	1000.000
212.46	2050.000
212.84	-416.667
213.22	511.111
213.59	-3100.000
213.97	450.000
214.34	1000.000
214.72	1566.667
215.09	900.000
215.47	-4300.000
215.84	-440.000
216.22	-337.500
216.59	0.000
216.97	0.000
217.34	1850.000
217.72	-1650.000
218.09	1100.000
218.47	512.500
218.84	950.000
219.22	1400.000
219.59	900.000
219.97	557.143
220.34	455.556
220.72	1800.000
221.09	3500.000
221.47	266.667
221.84	1466.667
222.22	320.000
222.59	255.556
222.97	228.571
223.34	262.500
223.72	-1450.000
224.09	1166.667
224.46	269.231
224.84	-750.000
225.21	400.000
225.59	280.000
225.96	1466.667
226.34	-820.000
226.71	-675.000
227.08	-740.000
227.46	0.000
227.83	-716.667
228.21	-1750.000
228.58	375.000
228.95	1175.000
229.33	433.333
229.70	1100.000
230.08	384.615
230.45	3300.000
230.82	-1050.000
231.20	-800.000
231.57	-933.333
231.95	940.000
232.32	408.333
232.69	550.000
233.07	341.667
233.44	-1750.000
233.81	326.667
234.19	174.074
234.56	250.000
234.93	200.000
235.31	270.000
235.68	368.750
236.05	167.857
236.43	148.148
236.80	200.000
237.17	148.276
237.55	143.750
237.92	142.500
238.29	133.333
238.67	159.375
239.04	131.707
239.41	91.667
239.79	100.000
240.16	72.917
240.53	75.410
240.91	73.913
241.28	83.051
241.65	81.818
242.02	100.000
242.40	75.714
242.77	67.033
243.14	56.962
243.51	67.677
243.89	50.467
244.26	47.664
244.63	57.426
245.00	49.541
245.38	44.068
245.75	57.576
246.12	55.556
246.49	43.972
246.87	53.279
247.24	56.667
247.61	50.000
247.98	53.061
248.36	44.848
248.73	50.000
249.10	44.048
249.47	40.500
249.84	42.786
250.22	44.865
250.59	37.000
250.96	40.928
251.33	41.860
251.70	39.732
252.08	37.395
252.45	38.247
252.82	37.643
253.19	38.340
253.56	38.462
253.94	35.870
254.31	37.984
254.68	36.934
255.05	41.034
255.42	36.861
255.79	35.831
256.16	35.932
256.54	40.584
256.91	37.255
257.28	33.779
257.65	32.915
258.02	35.398
258.39	35.244
258.76	33.333
259.14	35.429
259.51	38.776
259.88	36.170
260.25	32.143
260.62	34.247
260.99	34.160
261.36	35.655
261.73	35.106
262.10	34.031
262.47	34.000
262.85	33.067
263.22	33.933
263.59	32.992
263.96	35.589
264.33	32.840
264.70	35.627
265.07	34.634
265.44	34.633
265.81	30.189
266.18	34.325
266.55	31.442
266.92	32.438
267.29	32.456
267.66	32.511
268.03	31.839
268.40	32.135
268.77	34.141
269.14	30.803
269.51	31.403
269.88	33.469
270.25	31.533
270.62	33.906
270.99	34.077
271.36	32.317
271.73	31.027
272.10	32.121
272.47	29.960
272.84	31.936
273.21	31.198
273.58	34.211
273.95	30.801
274.32	32.490
274.69	32.283
275.06	32.787
275.43	32.759
275.80	31.698
276.17	30.331
276.54	33.084
276.91	33.209
277.28	30.292
277.65	32.288
278.02	30.699
278.39	31.475
278.76	31.724
279.13	29.181
279.50	30.909
279.87	28.678
280.23	31.860
280.60	30.657
280.97	30.690
281.34	31.023
281.71	31.130
282.08	30.598
282.45	29.561
282.82	31.438
283.19	29.889
283.56	30.744
283.92	30.945
284.29	27.787
284.66	29.412
285.03	30.348
285.40	29.917
285.77	27.623
286.14	28.328
286.51	31.135
286.87	28.323
287.24	25.526
287.61	27.508
287.98	30.149
288.35	29.926
288.72	27.769
289.08	28.228
289.45	28.506
289.82	31.406
290.19	27.672
290.56	28.384
290.93	28.201
291.29	28.867
291.66	27.542
292.03	26.508
292.40	26.694
292.77	25.766
293.13	27.247
293.50	25.236
293.87	25.610
294.24	27.972
294.60	25.572
294.97	28.392
295.34	26.428
295.71	26.413
296.08	25.867
296.44	27.192
296.81	24.938
297.18	25.982
297.55	26.847
297.91	24.015
298.28	25.483
298.65	25.644
299.02	25.814
299.38	26.259
299.75	24.512
300.12	25.229
300.48	26.347
300.85	26.222
301.22	26.279
301.59	25.825
301.95	26.138
302.32	27.474
302.69	27.602
303.05	25.814
303.42	25.785
303.79	26.869
304.15	26.183
304.52	26.216
304.89	25.800
305.25	28.699
305.62	27.186
305.99	25.435
306.35	26.211
306.72	26.847
307.09	27.950
307.45	26.610
307.82	26.543
308.19	25.567
308.55	27.200
308.92	27.674
309.29	29.191
309.65	28.048
310.02	27.789
310.38	27.218
310.75	27.097
311.12	27.682
311.48	29.440
311.85	27.576
312.22	30.277
312.58	29.252
312.95	28.932
313.31	29.494
313.68	29.174
314.05	31.136
314.41	28.492
314.78	29.545
315.14	31.185
315.51	32.167
315.87	30.018
316.24	29.972
316.61	31.065
316.97	30.734
317.34	32.435
317.70	31.607
318.07	32.740
318.43	32.162
318.80	31.961
319.16	33.916
319.53	33.186
319.89	32.348
320.26	35.289
320.62	33.791
320.99	34.032
321.35	35.065
321.72	35.579
322.08	33.887
322.45	35.332
322.81	35.224
323.18	36.412
323.54	37.108
323.91	37.715
324.27	36.074
324.64	36.851
325.00	36.207
325.37	35.919
325.73	35.245
326.10	37.200
326.46	37.655
326.83	36.160
327.19	37.992
327.56	37.620
327.92	38.934
328.29	38.134
328.65	38.955
329.01	39.435
329.38	39.509
329.74	38.429
330.11	38.923
330.47	38.960
330.84	37.705
331.20	37.733
331.56	39.292
331.93	39.521
332.29	37.500
332.66	37.925
333.02	37.113
333.38	38.394
333.75	38.198
334.11	39.010
334.48	39.060
334.84	37.416
335.20	37.725
335.57	36.776
335.93	37.595
336.29	38.723
336.66	38.336
337.02	37.382
337.38	38.263
337.75	37.838
338.11	36.709
338.47	37.934
338.84	37.257
339.20	37.229
339.56	37.342
339.93	38.043
340.29	37.143
340.65	36.966
341.02	37.892
341.38	37.192
341.74	39.037
342.11	37.479
342.47	37.736
342.83	37.818
343.20	37.753
343.56	35.425
343.92	38.150
344.28	37.081
344.65	37.571
345.01	37.222
345.37	37.340
345.73	37.619
346.10	37.131
346.46	36.364
346.82	36.883
347.19	37.249
347.55	36.534
347.91	36.934
348.27	36.251
348.63	37.896
349.00	37.167
349.36	36.887
349.72	37.538
350.08	37.966
350.45	37.852
350.81	37.462
351.17	36.133
351.53	36.336
351.89	36.441
352.26	37.037
352.62	37.104
352.98	37.577
353.34	38.444
353.70	36.468
354.07	36.692
354.43	37.327
354.79	37.130
355.15	38.361
355.51	36.782
355.87	36.898
356.24	38.260
356.60	35.540
356.96	36.240
357.32	37.076
357.68	37.959
358.04	37.994
358.40	36.732
358.77	38.017
359.13	37.838
359.49	37.139
359.85	36.709
360.21	36.256
360.57	37.153
360.93	36.436
361.29	37.662
361.66	37.658
362.02	36.364
362.38	37.807
362.74	37.580
363.10	38.079
363.46	36.050
363.82	36.816
364.18	38.193
364.54	36.767
364.90	37.550
365.26	37.543
365.62	37.638
365.98	36.407
366.35	37.724
366.71	37.335
367.07	37.816
367.43	37.676
367.79	36.170
368.15	36.296
368.51	38.181
368.87	37.636
369.23	37.769
369.59	36.480
369.95	37.413
370.31	36.961
370.67	37.058
371.03	38.445
371.39	37.812
371.75	37.474
372.11	38.001
372.47	37.123
372.83	38.069
373.19	38.382
373.55	38.351
373.91	37.224
374.27	37.302
374.63	37.763
374.99	38.949
375.35	38.306
375.71	38.654
376.07	38.594
376.42	36.701
376.78	39.114
377.14	37.090
377.50	38.951
377.86	37.668
378.22	38.147
378.58	38.136
378.94	37.960
379.30	38.144
379.66	37.628
380.02	38.416
380.38	38.173
380.74	39.043
381.09	38.201
381.45	37.861
381.81	38.534
382.17	38.095
382.53	37.672
382.89	39.267
383.25	38.425
383.61	37.522
383.97	37.972
384.32	38.939
384.68	39.037
385.04	39.332
385.40	39.146
385.76	37.741
386.12	39.703
386.48	39.939
386.83	39.425
387.19	40.165
387.55	38.516
387.91	39.145
388.27	39.084
388.62	37.969
388.98	38.542
389.34	37.597
389.70	38.443
390.06	39.756
390.42	38.927
390.77	38.329
391.13	38.805
391.49	39.383
391.85	40.062
392.20	39.273
392.56	38.829
392.92	37.732
393.28	38.733
393.64	38.131
393.99	38.945
394.35	38.081
394.71	37.636
395.07	38.990
395.42	39.286
395.78	40.037
396.14	40.000
396.50	38.568
396.85	38.354
397.21	38.989
397.57	38.374
397.92	38.186
398.28	38.279
398.64	39.209
399.00	37.680
399.35	37.896
399.71	38.411
400.07	39.212
400.42	38.627
400.78	38.358
401.14	38.755
401.49	38.998
401.85	38.644
402.21	37.493
402.57	38.420
402.92	38.909
403.28	38.544
403.63	38.258
403.99	38.118
404.35	39.039
404.70	38.689
405.06	37.788
405.42	38.300
405.77	38.534
406.13	37.744
406.49	37.692
406.84	37.451
407.20	38.128
407.55	39.262
407.91	38.928
408.27	39.297
408.62	38.084
408.98	38.498
409.34	36.996
409.69	38.146
410.05	38.044
410.40	37.102
410.76	37.550
411.11	37.382
411.47	36.358
411.83	37.141
412.18	38.466
412.54	37.898
412.89	36.814
413.25	37.058
413.60	37.558
413.96	38.659
414.31	38.312
414.67	38.299
415.03	37.739
415.38	38.486
415.74	38.345
416.09	38.663
416.45	39.431
416.80	38.614
417.16	37.874
417.51	38.025
417.87	37.860
418.22	38.153
418.58	39.427
418.93	38.132
419.29	36.229
419.64	37.008
420.00	39.439
420.35	38.269
420.71	38.915
421.06	37.964
421.42	37.766
421.77	38.812
422.12	39.085
422.48	38.007
422.83	37.835
423.19	38.391
423.54	38.508
423.90	38.222
424.25	38.745
424.61	38.828
424.96	38.566
425.31	38.150
425.67	39.394
426.02	38.979
426.38	38.740
426.73	39.503
427.09	39.502
427.44	39.055
427.79	39.680
428.15	40.012
428.50	39.771
428.85	39.212
429.21	38.952
429.56	39.232
429.92	39.582
430.27	39.623
430.62	38.913
430.98	38.772
431.33	37.802
431.68	38.914
432.04	39.628
432.39	38.694
432.74	40.105
433.10	39.646
433.45	40.092
433.80	40.375
434.16	39.937
434.51	40.093
434.86	39.630
435.22	40.032
435.57	40.190
435.92	42.231
436.28	40.668
436.63	41.221
436.98	40.766
437.34	41.610
437.69	40.258
438.04	40.914
438.39	39.813
438.75	40.535
439.10	40.907
439.45	40.362
439.81	40.659
440.16	41.112
440.51	40.146
440.86	41.823
441.22	40.097
441.57	42.047
441.92	40.918
442.27	40.361
442.63	40.955
442.98	40.948
443.33	41.028
443.68	41.751
444.03	41.093
444.39	41.431
444.74	41.408
445.09	42.075
445.44	41.445
445.79	41.472
446.15	41.000
446.50	42.089
446.85	41.235
447.20	41.343
447.55	41.871
447.91	41.822
448.26	41.693
448.61	41.902
448.96	42.102
449.31	42.354
449.66	43.189
450.02	41.923
450.37	42.699
450.72	42.369
451.07	42.292
451.42	42.916
451.77	42.784
452.12	43.052
452.47	43.378
452.83	42.930
453.18	42.643
453.53	42.747
453.88	42.514
454.23	42.882
454.58	43.298
454.93	41.570
455.28	42.901
455.63	43.085
455.98	42.470
456.34	44.620
456.69	43.293
457.04	42.184
457.39	41.657
457.74	43.581
458.09	42.167
458.44	41.621
458.79	42.122
459.14	42.062
459.49	42.809
459.84	43.315
460.19	43.220
460.54	43.248
460.89	42.431
461.24	42.383
461.59	42.914
461.94	41.667
462.29	41.762
462.64	42.776
462.99	43.378
463.34	43.163
463.69	42.952
464.04	43.754
464.39	42.530
464.74	41.911
465.09	43.819
465.44	42.873
465.79	42.243
466.14	41.706
466.49	42.594
466.84	42.586
467.19	43.527
467.54	42.763
467.89	42.254
468.24	43.023
468.59	43.155
468.94	44.565
469.29	43.677
469.64	44.116
469.99	43.380
470.34	43.643
470.68	43.931
471.03	43.629
471.38	43.311
471.73	44.089
472.08	44.684
472.43	43.886
472.78	43.918
473.13	42.053
473.48	43.704
473.83	41.991
474.17	43.708
474.52	42.476
474.87	42.865
475.22	42.890
475.57	42.235
475.92	42.105
476.27	41.730
476.61	42.091
476.96	42.059
477.31	43.188
477.66	43.908
478.01	42.445
478.36	42.585
478.70	42.432
479.05	42.887
479.40	41.567
479.75	43.247
480.10	42.546
480.45	42.484
480.79	42.581
481.14	41.322
481.49	41.857
481.84	41.381
482.19	42.489
482.53	41.502
482.88	42.070
483.23	41.362
483.58	41.966
483.92	42.413
484.27	41.182
484.62	42.105
484.97	41.800
485.31	41.263
485.66	40.432
486.01	39.825
486.36	39.661
486.70	38.550
487.05	38.680
487.40	38.984
487.75	39.186
488.09	40.000
488.44	39.898
488.79	40.541
489.13	40.799
489.48	41.830
489.83	41.118
490.17	40.421
490.52	41.817
490.87	40.690
491.22	42.199
491.56	42.776
491.91	41.084
492.26	40.757
492.60	41.595
492.95	41.051
493.30	41.356
493.64	42.588
493.99	41.011
494.34	40.654
494.68	41.301
495.03	41.221
495.37	41.198
495.72	41.399
496.07	41.375
496.41	40.443
496.76	41.072
497.11	42.502
497.45	41.736
497.80	42.493
498.14	41.470
498.49	40.994
498.84	42.570
499.18	40.951
499.53	41.295
499.87	40.970
500.22	42.008
500.56	40.901
500.91	42.532
501.26	41.479
501.60	39.709
501.95	40.771
502.29	41.467
502.64	40.626
502.98	39.973
503.33	41.381
503.67	40.662
504.02	40.439
504.36	40.769
504.71	41.722
505.06	40.450
505.40	41.273
505.75	41.300
506.09	41.577
506.44	41.353
506.78	41.446
507.13	41.638
507.47	40.757
507.82	41.995
508.16	42.675
508.51	41.208
508.85	40.361
509.19	41.703
509.54	41.309
509.88	40.825
510.23	40.441
510.57	40.444
510.92	40.859
511.26	41.667
511.61	41.014
511.95	40.368
512.30	40.900
512.64	40.862
512.98	41.978
513.33	40.471
513.67	40.549
514.02	41.247
514.36	41.589
514.70	41.600
515.05	40.330
515.39	42.215
515.74	40.951
516.08	41.068
516.42	42.295
516.77	42.347
517.11	41.013
517.46	41.218
517.80	41.070
518.14	41.296
518.49	40.463
518.83	40.440
519.17	40.544
519.52	41.344
519.86	40.654
520.20	41.315
520.55	40.588
520.89	41.149
521.23	42.465
521.58	40.849
521.92	41.341
522.26	41.291
522.61	41.949
522.95	41.562
523.29	42.164
523.64	40.867
523.98	41.197
524.32	39.908
524.66	40.116
525.01	40.888
525.35	41.131
525.69	41.662
526.04	40.988
526.38	40.789
526.72	41.826
527.06	40.627
527.41	41.415
527.75	41.753
528.09	39.856
528.43	41.672
528.78	41.682
529.12	41.662
529.46	40.444
529.80	39.895
530.15	39.835
530.49	40.433
530.83	40.402
531.17	40.590
531.51	40.221
531.86	40.278
532.20	39.617
532.54	40.113
532.88	40.974
533.22	39.915
533.57	40.513
533.91	39.860
534.25	39.296
534.59	40.058
534.93	38.567
535.27	37.678
535.62	39.382
535.96	39.539
536.30	40.280
536.64	38.385
536.98	39.899
537.32	40.188
537.66	39.796
538.01	39.628
538.35	39.988
538.69	38.471
539.03	38.060
539.37	37.803
539.71	39.877
540.05	39.385
540.39	39.686
540.73	38.608
541.07	38.519
541.42	38.433
541.76	38.286
542.10	39.026
542.44	38.716
542.78	38.829
543.12	36.994
543.46	37.281
543.80	39.035
544.14	38.390
544.48	38.139
544.82	37.920
545.16	37.037
545.50	38.353
545.84	39.205
546.18	39.142
546.52	38.426
546.86	38.814
547.20	38.114
547.54	38.315
547.88	38.017
548.22	37.523
548.56	37.655
548.90	36.655
549.24	37.903
549.58	37.178
549.92	37.656
550.26	39.486
550.60	38.723
550.94	37.788
551.28	39.103
551.62	40.276
551.96	37.838
552.30	37.838
552.64	37.735
552.98	36.727
553.32	37.580
553.66	37.915
554.00	35.521
554.34	38.549
554.68	37.634
555.02	37.678
555.36	36.835
555.69	37.369
556.03	36.815
556.37	36.902
556.71	38.462
557.05	36.239
557.39	36.800
557.73	37.736
558.07	36.687
558.41	38.177
558.75	38.167
559.08	39.028
559.42	37.795
559.76	37.990
560.10	37.990
560.44	36.762
560.78	37.596
561.12	37.254
561.45	36.671
561.79	37.141
562.13	36.071
562.47	36.405
562.81	37.476
563.15	35.617
563.48	35.590
563.82	36.931
564.16	36.505
564.50	35.744
564.84	34.954
565.17	35.235
565.51	37.315
565.85	35.904
566.19	35.357
566.52	36.221
566.86	36.427
567.20	35.506
567.54	34.225
567.88	35.263
568.21	34.348
568.55	34.095
568.89	33.805
569.23	33.779
569.56	34.265
569.90	33.238
570.24	32.436
570.57	32.122
570.91	32.168
571.25	31.346
571.59	31.500
571.92	30.920
572.26	30.889
572.60	30.797
572.93	31.944
573.27	31.763
573.61	31.077
573.95	31.125
574.28	30.926
574.62	30.438
574.96	30.154
575.29	30.337
575.63	30.554
575.97	30.015
576.30	30.018
576.64	30.163
576.98	30.114
577.31	30.728
577.65	30.300
577.98	29.979
578.32	29.472
578.66	29.666
578.99	29.956
579.33	29.477
579.67	29.402
580.00	29.672
580.34	29.303
580.67	29.776
581.01	29.756
581.35	29.835
581.68	29.096
582.02	29.443
582.35	29.078
582.69	29.427
583.02	29.490
583.36	29.509
583.70	29.813
584.03	30.400
584.37	29.859
584.70	29.435
585.04	29.408
585.37	29.103
585.71	29.753
586.04	29.482
586.38	29.495
586.72	29.215
587.05	29.722
587.39	29.709
587.72	29.519
588.06	29.128
588.39	29.606
588.73	29.828
589.06	30.347
589.40	30.235
589.73	30.121
590.07	30.542
590.40	31.045
590.73	31.840
591.07	31.044
591.40	30.778
591.74	31.088
592.07	30.491
592.41	30.815
592.74	30.245
593.08	29.167
593.41	29.743
593.75	29.312
594.08	30.120
594.41	28.902
594.75	29.760
595.08	30.007
595.42	30.283
595.75	30.076
596.09	29.684
596.42	28.878
596.75	30.889
597.09	31.036
597.42	30.245
597.75	30.264
598.09	29.462
598.42	29.376
598.76	29.954
599.09	30.048
599.42	29.135
599.76	29.953
600.09	29.017
600.42	29.006
600.76	28.790
601.09	28.788
601.42	29.497
601.76	29.753
602.09	29.838
602.42	28.170
602.76	29.602
603.09	29.902
603.42	30.092
603.76	29.573
604.09	29.750
604.42	29.454
604.76	29.593
605.09	29.837
605.42	29.703
605.75	28.859
606.09	29.725
606.42	29.012
606.75	28.605
607.09	29.056
607.42	28.526
607.75	29.021
608.08	29.123
608.42	29.572
608.75	28.798
609.08	29.740
609.41	28.909
609.75	30.632
610.08	29.901
610.41	29.161
610.74	29.307
611.07	30.014
611.41	29.425
611.74	30.019
612.07	29.721
612.40	29.873
612.73	31.053
613.07	29.498
613.40	30.326
613.73	29.855
614.06	29.800
614.39	30.909
614.72	28.880
615.06	28.684
615.39	29.406
615.72	29.235
616.05	30.035
616.38	29.224
616.71	28.812
617.05	29.654
617.38	29.101
617.71	30.484
618.04	28.996
618.37	29.628
618.70	28.984
619.03	29.304
619.36	31.281
619.69	30.541
620.03	30.398
620.36	31.150
620.69	30.587
621.02	30.910
621.35	30.802
621.68	31.932
622.01	31.956
622.34	31.391
622.67	31.180
623.00	30.633
623.33	30.634
623.66	30.739
623.99	31.096
624.32	30.827
624.65	29.625
624.99	30.629
625.32	30.795
625.65	29.586
625.98	29.289
626.31	31.825
626.64	30.448
626.97	30.834
627.30	31.910
627.63	31.083
627.96	30.360
628.29	31.766
628.62	30.624
628.95	32.358
629.28	33.479
629.61	31.283
629.94	32.411
630.26	31.889
630.59	32.801
630.92	32.287
631.25	32.638
