SpectraSuite Data File
++++++++++++++++++++++++++++++++++++
Date: Tue May 12 17:08:00 PDT 2015
User: schluterlab
Dark Spectrum Present: Yes
Reference Spectrum Present: Yes
Number of Sampled Component Spectra: 1
Spectrometers: USB2E3373
Integration Time (usec): 3000 (USB2E3373)
Spectra Averaged: 3 (USB2E3373)
Boxcar Smoothing: 0 (USB2E3373)
Correct for Electrical Dark: No (USB2E3373)
Strobe/Lamp Enabled: No (USB2E3373)
Correct for Detector Non-linearity: No (USB2E3373)
Correct for Stray Light: No (USB2E3373)
Number of Pixels in Processed Spectrum: 2048
>>>>>Begin Processed Spectral Data<<<<<
178.53	0.000
178.91	-291.667
179.29	-800.000
179.67	-2900.000
180.04	-113.333
180.42	600.000
180.80	1750.000
181.18	0.000
181.56	-350.000
181.94	0.000
182.31	1133.333
182.69	-2800.000
183.07	542.857
183.45	-4100.000
183.83	-1600.000
184.20	310.000
184.58	585.714
184.96	-230.769
185.34	-250.000
185.72	1450.000
186.09	-900.000
186.47	-3000.000
186.85	1033.333
187.23	540.000
187.61	1500.000
187.98	462.500
188.36	285.714
188.74	333.333
189.12	341.667
189.49	800.000
189.87	0.000
190.25	575.000
190.63	3200.000
191.00	-216.667
191.38	-3200.000
191.76	-975.000
192.14	575.000
192.51	-3100.000
192.89	1600.000
193.27	966.667
193.65	-1066.667
194.02	-740.000
194.40	514.286
194.78	-185.714
195.15	266.667
195.53	-3100.000
195.91	-460.000
196.29	3900.000
196.66	218.750
197.04	1000.000
197.42	-1300.000
197.79	675.000
198.17	275.000
198.55	0.000
198.92	471.429
199.30	1166.667
199.68	1550.000
200.05	633.333
200.43	-333.333
200.81	211.111
201.18	3800.000
201.56	316.667
201.94	-725.000
202.31	-250.000
202.69	-560.000
203.07	3400.000
203.44	-383.333
203.82	275.000
204.19	640.000
204.57	-1600.000
204.95	-550.000
205.32	-720.000
205.70	583.333
206.08	1000.000
206.45	-866.667
206.83	311.111
207.20	163.158
207.58	275.000
207.96	620.000
208.33	0.000
208.71	571.429
209.08	740.000
209.46	-2600.000
209.84	-825.000
210.21	740.000
210.59	-480.000
210.96	300.000
211.34	-800.000
211.71	272.727
212.09	675.000
212.46	1550.000
212.84	-416.667
213.22	344.444
213.59	-2500.000
213.97	290.000
214.34	850.000
214.72	1200.000
215.09	1133.333
215.47	-2300.000
215.84	-330.000
216.22	-462.500
216.59	0.000
216.97	0.000
217.34	1800.000
217.72	-1100.000
218.09	800.000
218.47	450.000
218.84	825.000
219.22	1433.333
219.59	900.000
219.97	385.714
220.34	444.444
220.72	1400.000
221.09	3100.000
221.47	200.000
221.84	966.667
222.22	350.000
222.59	227.778
222.97	207.143
223.34	187.500
223.72	-1700.000
224.09	1400.000
224.46	230.769
224.84	-750.000
225.21	311.111
225.59	273.333
225.96	1466.667
226.34	-720.000
226.71	-550.000
227.08	-500.000
227.46	0.000
227.83	-450.000
228.21	-1550.000
228.58	358.333
228.95	875.000
229.33	422.222
229.70	1075.000
230.08	361.538
230.45	3300.000
230.82	-750.000
231.20	-1000.000
231.57	-966.667
231.95	560.000
232.32	308.333
232.69	666.667
233.07	258.333
233.44	-1450.000
233.81	180.000
234.19	133.333
234.56	156.250
234.93	147.059
235.31	210.000
235.68	206.250
236.05	139.286
236.43	118.519
236.80	242.857
237.17	151.724
237.55	84.375
237.92	107.500
238.29	127.273
238.67	96.875
239.04	107.317
239.41	77.083
239.79	52.500
240.16	60.417
240.53	39.344
240.91	53.623
241.28	57.627
241.65	59.091
242.02	56.338
242.40	45.714
242.77	41.758
243.14	25.316
243.51	46.465
243.89	33.645
244.26	29.907
244.63	34.653
245.00	30.275
245.38	22.034
245.75	34.848
246.12	36.296
246.49	26.950
246.87	21.311
247.24	24.667
247.61	28.750
247.98	22.449
248.36	26.667
248.73	28.061
249.10	20.238
249.47	22.500
249.84	20.896
250.22	20.000
250.59	21.000
250.96	22.785
251.33	23.721
251.70	21.429
252.08	22.689
252.45	14.741
252.82	16.730
253.19	13.043
253.56	11.154
253.94	21.014
254.31	17.442
254.68	12.195
255.05	18.966
255.42	17.153
255.79	14.658
256.16	17.288
256.54	18.506
256.91	14.379
257.28	18.395
257.65	10.658
258.02	13.274
258.39	18.338
258.76	15.942
259.14	10.000
259.51	15.160
259.88	14.894
260.25	10.440
260.62	13.699
260.99	12.948
261.36	11.699
261.73	13.032
262.10	13.874
262.47	10.500
262.85	12.533
263.22	15.167
263.59	11.509
263.96	14.286
264.33	12.099
264.70	12.285
265.07	12.439
265.44	12.385
265.81	10.377
266.18	11.442
266.55	11.348
266.92	11.857
267.29	14.035
267.66	7.848
268.03	10.987
268.40	12.896
268.77	11.894
269.14	10.846
269.51	9.131
269.88	12.449
270.25	7.559
270.62	12.232
270.99	12.170
271.36	11.585
271.73	9.434
272.10	10.303
272.47	11.905
272.84	9.780
273.21	8.678
273.58	10.526
273.95	10.678
274.32	13.230
274.69	12.598
275.06	10.383
275.43	9.579
275.80	8.868
276.17	12.684
276.54	11.589
276.91	9.701
277.28	9.307
277.65	8.856
278.02	9.559
278.39	9.892
278.76	11.207
279.13	9.431
279.50	9.818
279.87	9.497
280.23	7.735
280.60	11.314
280.97	11.379
281.34	9.571
281.71	11.304
282.08	9.060
282.45	9.797
282.82	9.699
283.19	11.606
283.56	8.595
283.92	8.958
284.29	10.316
284.66	7.059
285.03	9.950
285.40	8.099
285.77	8.333
286.14	10.681
286.51	9.049
286.87	7.120
287.24	8.108
287.61	8.359
287.98	9.254
288.35	8.741
288.72	7.436
289.08	9.159
289.45	10.061
289.82	9.375
290.19	10.542
290.56	10.480
290.93	8.489
291.29	9.254
291.66	7.345
292.03	11.080
292.40	9.892
292.77	8.774
293.13	10.271
293.50	9.177
293.87	9.079
294.24	11.049
294.60	10.229
294.97	10.210
295.34	9.163
295.71	9.987
296.08	10.267
296.44	9.784
296.81	9.181
297.18	8.492
297.55	11.453
297.91	10.591
298.28	9.420
298.65	8.466
299.02	9.288
299.38	9.592
299.75	10.366
300.12	11.009
300.48	11.007
300.85	10.608
301.22	8.605
301.59	8.844
301.95	10.268
302.32	10.361
302.69	10.407
303.05	10.774
303.42	9.865
303.79	10.726
304.15	11.111
304.52	9.937
304.89	9.808
305.25	10.011
305.62	10.235
305.99	10.109
306.35	10.316
306.72	9.261
307.09	10.248
307.45	10.243
307.82	9.362
308.19	10.309
308.55	10.200
308.92	11.384
309.29	12.229
309.65	10.505
310.02	11.968
310.38	10.967
310.75	9.932
311.12	10.345
311.48	12.066
311.85	11.355
312.22	11.079
312.58	10.593
312.95	10.971
313.31	11.891
313.68	11.914
314.05	11.996
314.41	9.963
314.78	11.364
315.14	11.280
315.51	12.488
315.87	11.131
316.24	11.765
316.61	11.280
316.97	12.294
317.34	12.668
317.70	11.765
318.07	12.722
318.43	13.093
318.80	12.084
319.16	12.937
319.53	11.858
319.89	12.186
320.26	12.570
320.62	12.454
320.99	13.060
321.35	12.894
321.72	13.283
322.08	12.373
322.45	13.896
322.81	13.175
323.18	14.387
323.54	14.983
323.91	14.506
324.27	14.589
324.64	13.495
325.00	14.655
325.37	14.503
325.73	15.093
326.10	14.830
326.46	15.359
326.83	15.760
327.19	15.422
327.56	16.294
327.92	15.492
328.29	16.858
328.65	17.038
329.01	16.082
329.38	16.836
329.74	16.311
330.11	16.247
330.47	17.306
330.84	14.582
331.20	15.821
331.56	16.839
331.93	17.365
332.29	15.476
332.66	17.007
333.02	15.636
333.38	17.277
333.75	16.514
334.11	16.862
334.48	16.667
334.84	16.723
335.20	15.997
335.57	16.037
335.93	16.989
336.29	16.584
336.66	17.324
337.02	16.595
337.38	16.767
337.75	17.568
338.11	16.878
338.47	15.665
338.84	16.765
339.20	15.152
339.56	16.653
339.93	15.886
340.29	16.387
340.65	17.016
341.02	16.975
341.38	17.570
341.74	16.944
342.11	15.442
342.47	16.243
342.83	17.473
343.20	16.411
343.56	15.409
343.92	16.102
344.28	17.225
344.65	17.522
345.01	16.190
345.37	15.545
345.73	16.270
346.10	16.574
346.46	16.427
346.82	16.204
347.19	17.465
347.55	16.550
347.91	16.616
348.27	14.872
348.63	17.168
349.00	17.212
349.36	16.732
349.72	16.820
350.08	17.236
350.45	17.365
350.81	16.972
351.17	15.794
351.53	15.550
351.89	17.094
352.26	16.100
352.62	16.591
352.98	16.258
353.34	16.256
353.70	16.743
354.07	16.385
354.43	16.897
354.79	16.097
355.15	16.080
355.51	16.088
355.87	16.114
356.24	16.397
356.60	16.514
356.96	16.300
357.32	15.901
357.68	16.740
358.04	15.957
358.40	16.642
358.77	16.529
359.13	16.742
359.49	16.679
359.85	16.307
360.21	16.568
360.57	16.423
360.93	16.162
361.29	17.388
361.66	17.450
362.02	15.625
362.38	16.595
362.74	16.277
363.10	16.129
363.46	15.470
363.82	16.760
364.18	16.927
364.54	16.667
364.90	17.336
365.26	17.210
365.62	16.436
365.98	17.068
366.35	16.276
366.71	16.794
367.07	17.679
367.43	16.790
367.79	17.221
368.15	16.893
368.51	16.885
368.87	16.236
369.23	15.870
369.59	17.195
369.95	16.573
370.31	15.948
370.67	17.280
371.03	17.227
371.39	17.313
371.75	16.957
372.11	16.859
372.47	17.740
372.83	16.927
373.19	18.095
373.55	17.388
373.91	16.851
374.27	17.130
374.63	18.102
374.99	17.722
375.35	17.406
375.71	17.678
376.07	17.440
376.42	16.368
376.78	17.919
377.14	16.972
377.50	17.104
377.86	16.464
378.22	17.550
378.58	18.281
378.94	18.045
379.30	17.708
379.66	18.122
380.02	17.830
380.38	18.091
380.74	17.762
381.09	18.107
381.45	17.457
381.81	18.322
382.17	17.338
382.53	17.636
382.89	17.682
383.25	18.117
383.61	18.213
383.97	17.996
384.32	18.143
384.68	18.241
385.04	18.464
385.40	17.972
385.76	17.496
386.12	18.306
386.48	18.663
386.83	17.787
387.19	17.962
387.55	18.728
387.91	19.169
388.27	18.382
388.62	18.897
388.98	18.017
389.34	18.441
389.70	18.691
390.06	19.146
390.42	18.199
390.77	18.796
391.13	18.890
391.49	18.633
391.85	19.138
392.20	18.594
392.56	18.877
392.92	18.473
393.28	18.274
393.64	18.521
393.99	17.664
394.35	18.187
394.71	18.637
395.07	18.674
395.42	19.028
395.78	19.124
396.14	19.518
396.50	19.615
396.85	18.720
397.21	18.773
397.57	18.589
397.92	18.949
398.28	18.036
398.64	19.430
399.00	18.439
399.35	17.606
399.71	19.095
400.07	19.064
400.42	18.985
400.78	19.062
401.14	18.849
401.49	17.800
401.85	18.888
402.21	18.336
402.57	19.210
402.92	19.455
403.28	18.556
403.63	18.717
403.99	19.240
404.35	19.754
404.70	19.433
405.06	18.529
405.42	19.689
405.77	18.688
406.13	18.384
406.49	18.590
406.84	18.951
407.20	18.779
407.55	19.200
407.91	20.038
408.27	19.527
408.62	19.456
408.98	18.746
409.34	17.943
409.69	18.295
410.05	18.366
410.40	18.963
410.76	18.203
411.11	19.491
411.47	19.691
411.83	17.516
412.18	17.874
412.54	18.739
412.89	18.702
413.25	19.099
413.60	18.750
413.96	19.270
414.31	19.362
414.67	20.050
415.03	19.221
415.38	19.937
415.74	18.888
416.09	20.237
416.45	20.039
416.80	19.820
417.16	18.905
417.51	19.554
417.87	19.212
418.22	18.773
418.58	19.236
418.93	19.572
419.29	18.792
419.64	19.200
420.00	20.465
420.35	19.396
420.71	19.312
421.06	18.540
421.42	19.804
421.77	19.545
422.12	19.625
422.48	19.517
422.83	20.368
423.19	19.438
423.54	20.022
423.90	20.951
424.25	20.804
424.61	19.733
424.96	19.706
425.31	20.142
425.67	20.426
426.02	20.976
426.38	19.545
426.73	20.590
427.09	20.759
427.44	19.752
427.79	20.526
428.15	21.037
428.50	20.457
428.85	21.282
429.21	20.475
429.56	20.987
429.92	20.537
430.27	20.464
430.62	20.313
430.98	20.259
431.33	20.010
431.68	20.099
432.04	19.865
432.39	21.076
432.74	21.546
433.10	20.930
433.45	21.424
433.80	21.511
434.16	21.597
434.51	21.104
434.86	21.775
435.22	21.772
435.57	21.755
435.92	21.799
436.28	21.774
436.63	21.502
436.98	21.396
437.34	21.861
437.69	20.829
438.04	21.022
438.39	21.600
438.75	22.049
439.10	21.802
439.45	21.594
439.81	21.631
440.16	21.299
440.51	21.678
440.86	22.507
441.22	21.320
441.57	21.627
441.92	21.718
442.27	21.546
442.63	21.341
442.98	21.875
443.33	21.853
443.68	22.032
444.03	21.489
444.39	21.751
444.74	22.050
445.09	22.380
445.44	22.423
445.79	22.417
446.15	21.579
446.50	22.468
446.85	21.564
447.20	21.194
447.55	22.023
447.91	22.962
448.26	22.311
448.61	22.886
448.96	22.985
449.31	22.497
449.66	22.370
450.02	21.664
450.37	22.154
450.72	22.865
451.07	22.688
451.42	22.466
451.77	22.680
452.12	22.518
452.47	22.904
452.83	22.535
453.18	22.823
453.53	22.262
453.88	22.686
454.23	22.777
454.58	22.552
454.93	22.685
455.28	22.827
455.63	22.340
455.98	22.561
456.34	22.857
456.69	22.439
457.04	21.957
457.39	21.486
457.74	23.480
458.09	22.179
458.44	21.742
458.79	23.342
459.14	22.586
459.49	22.763
459.84	22.880
460.19	22.316
460.54	23.476
460.89	22.388
461.24	22.222
461.59	23.129
461.94	22.281
462.29	23.169
462.64	22.990
462.99	23.800
463.34	23.461
463.69	22.868
464.04	23.316
464.39	22.553
464.74	22.216
465.09	23.273
465.44	23.232
465.79	22.428
466.14	22.099
466.49	22.409
466.84	22.965
467.19	22.730
467.54	23.003
467.89	23.122
468.24	22.640
468.59	22.619
468.94	22.947
469.29	23.213
469.64	24.116
469.99	23.136
470.34	22.644
470.68	22.552
471.03	24.016
471.38	23.311
471.73	22.861
472.08	23.744
472.43	22.905
472.78	23.624
473.13	21.902
473.48	22.616
473.83	22.674
474.17	22.371
474.52	22.453
474.87	22.456
475.22	23.529
475.57	22.928
475.92	22.688
476.27	21.872
476.61	22.520
476.96	23.354
477.31	22.879
477.66	23.671
478.01	22.280
478.36	22.091
478.70	22.432
479.05	22.280
479.40	22.966
479.75	23.188
480.10	22.991
480.45	22.269
480.79	22.673
481.14	22.729
481.49	21.866
481.84	21.988
482.19	22.183
482.53	22.661
482.88	22.133
483.23	22.508
483.58	22.397
483.92	23.675
484.27	22.132
484.62	22.878
484.97	21.815
485.31	21.346
485.66	21.613
486.01	20.945
486.36	20.973
486.70	20.878
487.05	21.198
487.40	21.083
487.75	21.110
488.09	21.278
488.44	21.415
488.79	21.138
489.13	21.986
489.48	22.213
489.83	22.143
490.17	22.048
490.52	21.878
490.87	22.155
491.22	22.562
491.56	22.222
491.91	21.505
492.26	22.361
492.60	22.506
492.95	21.840
493.30	22.202
493.64	21.698
493.99	21.735
494.34	22.143
494.68	22.444
495.03	21.958
495.37	22.783
495.72	22.657
496.07	21.878
496.41	21.720
496.76	22.288
497.11	22.365
497.45	22.183
497.80	22.382
498.14	22.145
498.49	22.052
498.84	23.598
499.18	21.664
499.53	22.141
499.87	21.473
500.22	23.123
500.56	21.866
500.91	22.635
501.26	21.911
501.60	22.131
501.95	21.461
502.29	21.911
502.64	22.011
502.98	21.743
503.33	21.826
503.67	22.075
504.02	21.675
504.36	22.760
504.71	22.564
505.06	22.384
505.40	21.759
505.75	21.749
506.09	21.839
506.44	22.556
506.78	21.975
507.13	22.395
507.47	21.834
507.82	22.433
508.16	22.636
508.51	22.560
508.85	22.080
509.19	21.782
509.54	22.949
509.88	22.775
510.23	22.696
510.57	21.670
510.92	22.228
511.26	22.189
511.61	23.338
511.95	22.499
512.30	21.850
512.64	22.222
512.98	22.040
513.33	22.336
513.67	22.579
514.02	22.545
514.36	22.482
514.70	22.133
515.05	21.737
515.39	22.094
515.74	23.073
516.08	22.440
516.42	22.787
516.77	23.467
517.11	22.507
517.46	22.144
517.80	22.283
518.14	22.873
518.49	22.216
518.83	22.363
519.17	23.239
519.52	22.501
519.86	22.779
520.20	23.178
520.55	22.781
520.89	22.471
521.23	23.131
521.58	22.318
521.92	22.915
522.26	21.919
522.61	23.292
522.95	22.282
523.29	22.807
523.64	22.197
523.98	22.594
524.32	22.607
524.66	23.014
525.01	23.491
525.35	22.805
525.69	23.239
526.04	22.903
526.38	22.366
526.72	22.554
527.06	22.295
527.41	22.975
527.75	21.972
528.09	22.456
528.43	23.368
528.78	22.660
529.12	22.396
529.46	22.560
529.80	22.780
530.15	23.571
530.49	21.600
530.83	22.182
531.17	22.017
531.51	22.685
531.86	22.947
532.20	22.806
532.54	23.101
532.88	23.298
533.22	23.339
533.57	23.124
533.91	21.970
534.25	22.100
534.59	22.456
534.93	22.184
535.27	21.571
535.62	22.462
535.96	22.459
536.30	22.669
536.64	21.739
536.98	22.907
537.32	23.125
537.66	22.768
538.01	23.096
538.35	23.269
538.69	21.723
539.03	21.953
539.37	22.512
539.71	22.037
540.05	22.031
540.39	22.138
540.73	23.481
541.07	22.773
541.42	22.077
541.76	22.503
542.10	22.133
542.44	22.070
542.78	21.397
543.12	21.840
543.46	21.867
543.80	23.120
544.14	22.105
544.48	22.263
544.82	23.364
545.16	21.494
545.50	22.987
545.84	22.222
546.18	23.082
546.52	23.148
546.86	23.340
547.20	22.093
547.54	22.419
547.88	22.202
548.22	22.040
548.56	21.626
548.90	22.064
549.24	23.184
549.58	22.358
549.92	23.117
550.26	23.327
550.60	22.355
550.94	22.999
551.28	23.310
551.62	23.172
551.96	21.959
552.30	21.622
552.64	22.589
552.98	21.521
553.32	22.151
553.66	22.801
554.00	22.716
554.34	22.304
554.68	21.976
555.02	22.539
555.36	22.473
555.69	23.495
556.03	22.675
556.37	21.925
556.71	23.338
557.05	20.970
557.39	22.800
557.73	22.978
558.07	22.334
558.41	22.481
558.75	22.914
559.08	23.660
559.42	22.548
559.76	23.093
560.10	22.712
560.44	21.566
560.78	23.338
561.12	23.077
561.45	21.464
561.79	21.785
562.13	22.173
562.47	22.453
562.81	23.552
563.15	22.560
563.48	21.304
563.82	21.959
564.16	22.077
564.50	22.242
564.84	22.006
565.17	21.925
565.51	22.968
565.85	23.010
566.19	21.905
566.52	21.661
566.86	22.709
567.20	21.854
567.54	21.124
567.88	21.805
568.21	21.018
568.55	21.401
568.89	21.807
569.23	21.009
569.56	21.446
569.90	21.056
570.24	20.750
570.57	20.831
570.91	20.312
571.25	20.641
571.59	19.938
571.92	20.129
572.26	19.326
572.60	19.828
572.93	20.242
573.27	20.391
573.61	20.087
573.95	20.468
574.28	20.698
574.62	19.981
574.96	19.982
575.29	19.697
575.63	19.505
575.97	19.304
576.30	20.046
576.64	19.728
576.98	19.619
577.31	20.202
577.65	20.450
577.98	19.569
578.32	19.429
578.66	19.673
578.99	19.845
579.33	20.117
579.67	19.502
580.00	19.514
580.34	19.468
580.67	19.508
581.01	19.794
581.35	19.758
581.68	19.313
582.02	19.573
582.35	19.608
582.69	19.781
583.02	19.698
583.36	19.806
583.70	20.314
584.03	20.408
584.37	20.318
584.70	20.328
585.04	19.914
585.37	19.793
585.71	20.404
586.04	20.235
586.38	19.751
586.72	20.412
587.05	20.149
587.39	20.051
587.72	20.273
588.06	20.089
588.39	20.164
588.73	20.158
589.06	19.697
589.40	20.939
589.73	20.321
590.07	20.453
590.40	21.080
590.73	21.116
591.07	21.404
591.40	20.878
591.74	20.333
592.07	20.175
592.41	20.624
592.74	20.945
593.08	20.020
593.41	19.808
593.75	20.234
594.08	20.265
594.41	20.104
594.75	20.685
595.08	20.576
595.42	20.573
595.75	20.369
596.09	21.098
596.42	20.503
596.75	21.194
597.09	21.420
597.42	20.571
597.75	19.878
598.09	20.353
598.42	20.237
598.76	20.470
599.09	20.669
599.42	20.346
599.76	20.217
600.09	20.305
600.42	20.511
600.76	20.360
601.09	19.917
601.42	20.380
601.76	20.874
602.09	20.935
602.42	19.778
602.76	20.531
603.09	20.249
603.42	21.028
603.76	21.403
604.09	20.521
604.42	20.490
604.76	20.743
605.09	20.694
605.42	20.723
605.75	20.174
606.09	21.002
606.42	20.068
606.75	20.754
607.09	20.292
607.42	20.129
607.75	20.621
608.08	20.837
608.42	20.847
608.75	20.496
609.08	20.282
609.41	21.000
609.75	21.658
610.08	20.908
610.41	21.388
610.74	20.866
611.07	20.828
611.41	21.872
611.74	21.463
612.07	21.002
612.40	21.589
612.73	21.618
613.07	20.679
613.40	21.203
613.73	21.218
614.06	21.100
614.39	21.263
614.72	21.195
615.06	20.376
615.39	20.990
615.72	21.007
616.05	20.743
616.38	20.802
616.71	21.107
617.05	20.813
617.38	20.562
617.71	21.372
618.04	21.425
618.37	20.678
618.70	21.767
619.03	21.245
619.36	22.550
619.69	21.372
620.03	23.222
620.36	21.066
620.69	22.414
621.02	22.283
621.35	21.562
621.68	22.198
622.01	23.026
622.34	20.903
622.67	22.893
623.00	23.077
623.33	21.727
623.66	22.222
623.99	22.534
624.32	21.612
624.65	21.132
624.99	22.515
625.32	22.979
625.65	21.379
625.98	21.897
626.31	21.810
626.64	22.248
626.97	20.581
627.30	21.118
627.63	22.841
627.96	21.362
628.29	23.350
628.62	21.215
628.95	23.138
629.28	23.225
629.61	22.496
629.94	22.818
630.26	22.530
630.59	23.227
630.92	21.256
631.25	24.207
631.58	24.397
631.91	22.835
632.24	22.741
632.57	22.692
