SpectraSuite Data File
++++++++++++++++++++++++++++++++++++
Date: Tue May 12 16:38:12 PDT 2015
User: schluterlab
Dark Spectrum Present: Yes
Reference Spectrum Present: Yes
Number of Sampled Component Spectra: 1
Spectrometers: USB2E3373
Integration Time (usec): 3000 (USB2E3373)
Spectra Averaged: 3 (USB2E3373)
Boxcar Smoothing: 0 (USB2E3373)
Correct for Electrical Dark: No (USB2E3373)
Strobe/Lamp Enabled: No (USB2E3373)
Correct for Detector Non-linearity: No (USB2E3373)
Correct for Stray Light: No (USB2E3373)
Number of Pixels in Processed Spectrum: 2048
>>>>>Begin Processed Spectral Data<<<<<
178.53	0.000
178.91	-233.333
179.29	-750.000
179.67	-3600.000
180.04	-146.667
180.42	650.000
180.80	1350.000
181.18	0.000
181.56	-437.500
181.94	0.000
182.31	866.667
182.69	-3300.000
183.07	600.000
183.45	-3200.000
183.83	-1400.000
184.20	330.000
184.58	400.000
184.96	-253.846
185.34	-216.667
185.72	1900.000
186.09	-800.000
186.47	-3100.000
186.85	966.667
187.23	580.000
187.61	1600.000
187.98	375.000
188.36	350.000
188.74	250.000
189.12	325.000
189.49	825.000
189.87	0.000
190.25	425.000
190.63	2700.000
191.00	-258.333
191.38	-3200.000
191.76	-1025.000
192.14	525.000
192.51	-2800.000
192.89	1450.000
193.27	1033.333
193.65	-700.000
194.02	-600.000
194.40	442.857
194.78	-135.714
195.15	206.667
195.53	-2600.000
195.91	-580.000
196.29	4300.000
196.66	275.000
197.04	750.000
197.42	-1450.000
197.79	600.000
198.17	291.667
198.55	0.000
198.92	342.857
199.30	1000.000
199.68	1450.000
200.05	683.333
200.43	-383.333
200.81	205.556
201.18	2900.000
201.56	241.667
201.94	-725.000
202.31	-262.500
202.69	-420.000
203.07	3500.000
203.44	-450.000
203.82	358.333
204.19	500.000
204.57	-1300.000
204.95	-600.000
205.32	-560.000
205.70	566.667
206.08	750.000
206.45	-766.667
206.83	366.667
207.20	200.000
207.58	291.667
207.96	860.000
208.33	0.000
208.71	557.143
209.08	520.000
209.46	-2400.000
209.84	-625.000
210.21	680.000
210.59	-560.000
210.96	250.000
211.34	-1025.000
211.71	400.000
212.09	700.000
212.46	1450.000
212.84	-350.000
213.22	400.000
213.59	-2800.000
213.97	300.000
214.34	825.000
214.72	833.333
215.09	833.333
215.47	-2900.000
215.84	-310.000
216.22	-462.500
216.59	0.000
216.97	0.000
217.34	1150.000
217.72	-1650.000
218.09	1166.667
218.47	487.500
218.84	550.000
219.22	1100.000
219.59	733.333
219.97	571.429
220.34	388.889
220.72	1550.000
221.09	3500.000
221.47	300.000
221.84	866.667
222.22	300.000
222.59	216.667
222.97	292.857
223.34	218.750
223.72	-1450.000
224.09	1500.000
224.46	238.462
224.84	-925.000
225.21	522.222
225.59	233.333
225.96	1333.333
226.34	-480.000
226.71	-500.000
227.08	-400.000
227.46	0.000
227.83	-600.000
228.21	-1100.000
228.58	391.667
228.95	825.000
229.33	377.778
229.70	950.000
230.08	369.231
230.45	3100.000
230.82	-625.000
231.20	-633.333
231.57	-1166.667
231.95	560.000
232.32	191.667
232.69	533.333
233.07	166.667
233.44	-1750.000
233.81	206.667
234.19	174.074
234.56	175.000
234.93	141.176
235.31	175.000
235.68	243.750
236.05	139.286
236.43	125.926
236.80	192.857
237.17	162.069
237.55	109.375
237.92	130.000
238.29	127.273
238.67	115.625
239.04	104.878
239.41	79.167
239.79	72.500
240.16	87.500
240.53	59.016
240.91	63.768
241.28	86.441
241.65	59.091
242.02	64.789
242.40	77.143
242.77	57.143
243.14	51.899
243.51	66.667
243.89	44.860
244.26	43.925
244.63	49.505
245.00	44.037
245.38	43.220
245.75	45.455
246.12	45.926
246.49	39.716
246.87	41.803
247.24	47.333
247.61	43.125
247.98	48.980
248.36	38.788
248.73	43.367
249.10	35.714
249.47	38.500
249.84	35.323
250.22	32.432
250.59	36.000
250.96	34.599
251.33	29.302
251.70	35.268
252.08	30.672
252.45	30.279
252.82	29.658
253.19	32.806
253.56	30.385
253.94	29.348
254.31	31.395
254.68	29.268
255.05	30.000
255.42	27.737
255.79	29.967
256.16	31.864
256.54	29.870
256.91	28.105
257.28	30.100
257.65	22.257
258.02	26.549
258.39	28.653
258.76	30.145
259.14	26.571
259.51	28.280
259.88	31.611
260.25	26.374
260.62	27.397
260.99	25.895
261.36	29.526
261.73	27.128
262.10	30.890
262.47	27.250
262.85	26.667
263.22	26.992
263.59	27.110
263.96	29.323
264.33	25.679
264.70	27.027
265.07	27.805
265.44	29.358
265.81	27.830
266.18	24.714
266.55	26.241
266.92	25.056
267.29	26.754
267.66	26.457
268.03	24.215
268.40	27.273
268.77	25.991
269.14	24.512
269.51	24.944
269.88	25.918
270.25	23.326
270.62	26.395
270.99	26.978
271.36	27.236
271.73	24.528
272.10	24.646
272.47	25.595
272.84	23.752
273.21	24.174
273.58	27.126
273.95	23.819
274.32	26.848
274.69	27.953
275.06	25.137
275.43	25.096
275.80	24.151
276.17	26.287
276.54	26.542
276.91	26.493
277.28	22.445
277.65	24.170
278.02	25.368
278.39	23.201
278.76	26.897
279.13	25.267
279.50	24.182
279.87	20.670
280.23	24.678
280.60	22.628
280.97	23.276
281.34	24.752
281.71	24.174
282.08	25.299
282.45	23.142
282.82	23.244
283.19	23.847
283.56	23.140
283.92	23.779
284.29	25.790
284.66	21.176
285.03	24.710
285.40	22.314
285.77	20.988
286.14	23.529
286.51	21.626
286.87	20.728
287.24	22.222
287.61	22.036
287.98	22.239
288.35	21.926
288.72	19.727
289.08	22.222
289.45	24.390
289.82	21.406
290.19	22.255
290.56	24.745
290.93	21.295
291.29	20.304
291.66	20.056
292.03	20.898
292.40	21.003
292.77	19.777
293.13	21.541
293.50	18.893
293.87	18.970
294.24	19.860
294.60	21.265
294.97	19.021
295.34	21.248
295.71	21.156
296.08	21.200
296.44	18.551
296.81	19.975
297.18	17.617
297.55	19.458
297.91	18.966
298.28	18.720
298.65	20.245
299.02	19.903
299.38	18.705
299.75	19.268
300.12	20.757
300.48	20.960
300.85	19.070
301.22	19.535
301.59	18.868
301.95	19.370
302.32	19.674
302.69	18.665
303.05	20.988
303.42	18.386
303.79	19.285
304.15	18.042
304.52	18.288
304.89	20.896
305.25	20.356
305.62	20.469
305.99	19.565
306.35	20.211
306.72	20.499
307.09	18.944
307.45	19.430
307.82	20.576
308.19	19.691
308.55	19.700
308.92	21.197
309.29	20.513
309.65	21.011
310.02	21.805
310.38	20.140
310.75	21.022
311.12	20.881
311.48	21.911
311.85	21.947
312.22	22.159
312.58	20.991
312.95	21.068
313.31	22.846
313.68	21.201
314.05	23.993
314.41	22.160
314.78	22.443
315.14	23.507
315.51	23.084
315.87	23.996
316.24	22.689
316.61	25.336
316.97	23.119
317.34	24.708
317.70	25.637
318.07	25.890
318.43	26.011
318.80	26.357
319.16	26.923
319.53	26.460
319.89	25.000
320.26	26.909
320.62	27.747
320.99	27.645
321.35	27.737
321.72	27.609
322.08	28.624
322.45	28.792
322.81	28.637
323.18	29.218
323.54	29.443
323.91	30.190
324.27	29.797
324.64	29.671
325.00	30.000
325.37	29.511
325.73	31.029
326.10	30.986
326.46	30.636
326.83	28.960
327.19	31.406
327.56	30.272
327.92	31.311
328.29	32.406
328.65	32.021
329.01	31.822
329.38	33.080
329.74	30.914
330.11	32.667
330.47	32.140
330.84	30.716
331.20	31.980
331.56	32.297
331.93	32.934
332.29	32.313
332.66	32.908
333.02	32.216
333.38	33.159
333.75	32.527
334.11	32.131
334.48	31.966
334.84	31.926
335.20	32.335
335.57	31.822
335.93	31.034
336.29	31.675
336.66	33.019
337.02	31.908
337.38	31.728
337.75	32.601
338.11	30.802
338.47	30.737
338.84	31.160
339.20	30.823
339.56	32.044
339.93	31.522
340.29	30.924
340.65	31.685
341.02	31.376
341.38	32.594
341.74	31.894
342.11	30.718
342.47	30.763
342.83	30.681
343.20	30.800
343.56	30.580
343.92	31.131
344.28	32.137
344.65	31.214
345.01	29.841
345.37	30.849
345.73	30.000
346.10	30.279
346.46	31.260
346.82	29.321
347.19	30.835
347.55	28.415
347.91	29.230
348.27	29.435
348.63	30.538
349.00	29.931
349.36	30.039
349.72	30.581
350.08	30.202
350.45	28.941
350.81	30.199
351.17	27.658
351.53	29.176
351.89	28.982
352.26	29.705
352.62	29.186
352.98	29.141
353.34	29.892
353.70	29.281
354.07	29.154
354.43	28.879
354.79	29.385
355.15	28.790
355.51	29.154
355.87	30.045
356.24	28.329
356.60	28.919
356.96	28.734
357.32	29.088
357.68	29.222
358.04	28.799
358.40	29.160
358.77	29.001
359.13	28.904
359.49	28.317
359.85	27.997
360.21	28.083
360.57	28.029
360.93	27.922
361.29	27.633
361.66	28.934
362.02	27.202
362.38	28.355
362.74	27.105
363.10	28.191
363.46	26.796
363.82	27.630
364.18	28.378
364.54	28.255
364.90	27.979
365.26	28.105
365.62	27.417
365.98	28.080
366.35	27.655
366.71	28.452
367.07	27.372
367.43	27.804
367.79	26.529
368.15	26.459
368.51	26.809
368.87	26.563
369.23	26.750
369.59	27.040
369.95	28.531
370.31	26.420
370.67	27.065
371.03	28.081
371.39	26.870
371.75	26.657
372.11	28.008
372.47	26.849
372.83	26.988
373.19	28.033
373.55	27.560
373.91	26.174
374.27	26.257
374.63	27.254
374.99	26.752
375.35	25.874
375.71	26.715
376.07	25.862
376.42	26.087
376.78	26.268
377.14	26.606
377.50	26.529
377.86	26.521
378.22	26.447
378.58	27.179
378.94	27.158
379.30	26.076
379.66	26.610
380.02	26.569
380.38	25.761
380.74	27.220
381.09	26.577
381.45	26.185
381.81	25.650
382.17	26.557
382.53	26.035
382.89	25.902
383.25	25.400
383.61	25.821
383.97	25.495
384.32	25.678
384.68	26.679
385.04	26.202
385.40	26.868
385.76	25.629
386.12	26.345
386.48	25.106
386.83	26.100
387.19	26.737
387.55	26.207
387.91	25.924
388.27	26.056
388.62	25.763
388.98	25.656
389.34	24.450
389.70	25.472
390.06	25.427
390.42	25.601
390.77	26.044
391.13	26.132
391.49	25.348
391.85	25.538
392.20	25.089
392.56	25.030
392.92	24.930
393.28	25.280
393.64	25.115
393.99	25.430
394.35	24.779
394.71	24.789
395.07	25.547
395.42	26.171
395.78	26.342
396.14	25.241
396.50	24.789
396.85	24.329
397.21	24.789
397.57	25.523
397.92	24.321
398.28	25.207
398.64	25.131
399.00	24.800
399.35	24.906
399.71	24.724
400.07	25.685
400.42	25.612
400.78	25.161
401.14	25.484
401.49	24.942
401.85	25.203
402.21	25.308
402.57	25.135
402.92	24.061
403.28	23.926
403.63	24.367
403.99	24.970
404.35	24.853
404.70	25.458
405.06	23.470
405.42	24.476
405.77	25.138
406.13	25.380
406.49	24.673
406.84	25.099
407.20	24.087
407.55	24.677
407.91	25.335
408.27	24.985
408.62	25.074
408.98	25.251
409.34	24.313
409.69	24.580
410.05	24.210
410.40	24.323
410.76	24.728
411.11	24.408
411.47	23.704
411.83	24.136
412.18	24.758
412.54	24.024
412.89	23.186
413.25	24.743
413.60	24.007
413.96	24.417
414.31	25.030
414.67	24.395
415.03	24.393
415.38	24.227
415.74	25.205
416.09	25.172
416.45	24.564
416.80	25.850
417.16	24.188
417.51	24.650
417.87	24.593
418.22	24.423
418.58	25.223
418.93	24.688
419.29	23.044
419.64	24.167
420.00	24.284
420.35	24.042
420.71	24.504
421.06	24.662
421.42	23.834
421.77	24.431
422.12	24.090
422.48	23.677
422.83	24.275
423.19	24.298
423.54	24.630
423.90	24.009
424.25	24.051
424.61	24.086
424.96	23.659
425.31	23.426
425.67	24.130
426.02	24.397
426.38	24.329
426.73	24.176
427.09	24.970
427.44	24.254
427.79	25.043
428.15	24.926
428.50	25.200
428.85	24.809
429.21	24.797
429.56	24.576
429.92	24.217
430.27	23.706
430.62	23.152
430.98	23.453
431.33	23.790
431.68	23.012
432.04	23.332
432.39	24.094
432.74	24.766
433.10	24.529
433.45	24.813
433.80	25.593
434.16	24.015
434.51	24.355
434.86	24.551
435.22	23.663
435.57	24.126
435.92	25.498
436.28	25.173
436.63	24.581
436.98	25.225
437.34	24.315
437.69	25.084
438.04	24.570
438.39	25.628
438.75	24.889
439.10	23.745
439.45	23.742
439.81	24.291
440.16	24.986
440.51	24.381
440.86	24.672
441.22	24.297
441.57	24.672
441.92	24.827
442.27	24.794
442.63	24.085
442.98	24.784
443.33	24.906
443.68	24.195
444.03	24.317
444.39	24.435
444.74	24.482
445.09	24.276
445.44	24.601
445.79	24.123
446.15	24.842
446.50	24.262
446.85	24.900
447.20	24.527
447.55	24.742
447.91	25.200
448.26	24.601
448.61	24.986
448.96	25.054
449.31	24.587
449.66	24.862
450.02	24.041
450.37	24.764
450.72	25.124
451.07	25.015
451.42	25.193
451.77	25.258
452.12	25.014
452.47	24.970
452.83	24.282
453.18	26.126
453.53	25.696
453.88	25.029
454.23	25.915
454.58	25.758
454.93	25.445
455.28	25.826
455.63	25.355
455.98	25.155
456.34	25.775
456.69	24.634
457.04	25.298
457.39	24.971
457.74	24.775
458.09	24.930
458.44	25.301
458.79	24.881
459.14	24.768
459.49	25.028
459.84	25.217
460.19	25.254
460.54	26.040
460.89	24.947
461.24	25.258
461.59	25.624
461.94	25.355
462.29	25.172
462.64	25.503
462.99	24.696
463.34	25.535
463.69	25.348
464.04	25.158
464.39	25.243
464.74	24.385
465.09	25.131
465.44	24.429
465.79	25.531
466.14	24.006
466.49	24.959
466.84	24.582
467.19	26.128
467.54	25.285
467.89	25.646
468.24	24.725
468.59	25.298
468.94	24.457
469.29	25.473
469.64	25.273
469.99	25.000
470.34	25.427
470.68	25.379
471.03	25.083
471.38	25.960
471.73	26.192
472.08	25.832
472.43	26.071
472.78	25.608
473.13	24.531
473.48	24.817
473.83	25.147
474.17	24.863
474.52	24.941
474.87	24.901
475.22	24.786
475.57	25.236
475.92	24.681
476.27	24.320
476.61	24.879
476.96	25.287
477.31	25.398
477.66	25.335
478.01	25.529
478.36	24.717
478.70	24.963
479.05	23.849
479.40	24.554
479.75	25.819
480.10	24.831
480.45	24.930
480.79	23.963
481.14	23.680
481.49	23.879
481.84	25.110
482.19	24.760
482.53	24.769
482.88	24.686
483.23	24.222
483.58	24.372
483.92	25.000
484.27	23.973
484.62	24.363
484.97	24.114
485.31	23.579
485.66	22.404
486.01	21.708
486.36	21.594
486.70	21.552
487.05	21.929
487.40	22.175
487.75	22.770
488.09	22.869
488.44	22.881
488.79	23.291
489.13	23.778
489.48	24.211
489.83	23.937
490.17	24.690
490.52	24.591
490.87	24.483
491.22	24.379
491.56	24.726
491.91	24.373
492.26	24.855
492.60	24.419
492.95	24.286
493.30	24.932
493.64	24.843
493.99	24.866
494.34	24.608
494.68	23.816
495.03	24.966
495.37	24.809
495.72	24.942
496.07	24.394
496.41	24.066
496.76	24.272
497.11	24.336
497.45	24.551
497.80	24.560
498.14	24.780
498.49	24.327
498.84	24.860
499.18	23.492
499.53	24.437
499.87	24.933
500.22	23.584
500.56	23.723
500.91	24.768
501.26	24.897
501.60	23.588
501.95	24.552
502.29	24.267
502.64	24.526
502.98	24.233
503.33	24.410
503.67	24.018
504.02	23.824
504.36	23.982
504.71	25.213
505.06	23.885
505.40	24.474
505.75	23.667
506.09	25.292
506.44	23.966
506.78	24.291
507.13	23.461
507.47	25.085
507.82	25.158
508.16	25.429
508.51	25.072
508.85	25.451
509.19	24.572
509.54	24.219
509.88	24.465
510.23	24.657
510.57	23.938
510.92	25.025
511.26	25.452
511.61	24.028
511.95	25.585
512.30	24.850
512.64	23.728
512.98	24.910
513.33	24.436
513.67	25.375
514.02	25.039
514.36	25.026
514.70	23.840
515.05	25.413
515.39	25.768
515.74	25.478
516.08	24.728
516.42	25.738
516.77	25.760
517.11	24.693
517.46	24.677
517.80	25.014
518.14	26.479
518.49	24.090
518.83	24.451
519.17	26.290
519.52	25.778
519.86	25.668
520.20	25.425
520.55	24.760
520.89	25.345
521.23	25.584
521.58	24.613
521.92	24.781
522.26	25.415
522.61	25.847
522.95	25.946
523.29	26.316
523.64	25.780
523.98	25.117
524.32	26.067
524.66	25.333
525.01	25.385
525.35	24.573
525.69	25.888
526.04	26.532
526.38	25.898
526.72	25.537
527.06	25.547
527.41	25.756
527.75	25.015
528.09	25.105
528.43	26.052
528.78	25.224
529.12	26.189
529.46	24.839
529.80	23.949
530.15	25.044
530.49	25.511
530.83	24.863
531.17	24.969
531.51	26.242
531.86	24.155
532.20	24.227
532.54	25.173
532.88	24.984
533.22	25.655
533.57	25.259
533.91	23.951
534.25	24.235
534.59	24.035
534.93	24.460
535.27	22.994
535.62	23.104
535.96	24.232
536.30	25.168
536.64	24.472
536.98	25.299
537.32	25.125
537.66	23.852
538.01	24.644
538.35	26.138
538.69	24.333
539.03	24.876
539.37	23.301
539.71	24.630
540.05	24.246
540.39	25.346
540.73	24.557
541.07	24.780
541.42	24.316
541.76	24.414
542.10	24.476
542.44	24.875
542.78	25.110
543.12	24.417
543.46	24.812
543.80	24.687
544.14	24.272
544.48	23.662
544.82	24.648
545.16	23.619
545.50	24.892
545.84	24.747
546.18	25.488
546.52	25.246
546.86	25.210
547.20	24.677
547.54	24.509
547.88	23.723
548.22	23.376
548.56	23.630
548.90	23.547
549.24	23.879
549.58	23.776
549.92	24.296
550.26	25.085
550.60	24.152
550.94	24.830
551.28	23.931
551.62	25.172
551.96	24.459
552.30	23.731
552.64	25.049
552.98	23.518
553.32	23.752
553.66	24.169
554.00	24.582
554.34	24.101
554.68	24.395
555.02	24.440
555.36	23.205
555.69	23.364
556.03	24.204
556.37	23.964
556.71	25.554
557.05	23.067
557.39	24.600
557.73	24.596
558.07	24.950
558.41	24.606
558.75	25.171
559.08	25.161
559.42	24.481
559.76	25.232
560.10	23.882
560.44	23.225
560.78	24.041
561.12	24.285
561.45	23.404
561.79	23.783
562.13	23.184
562.47	23.816
562.81	23.878
563.15	23.853
563.48	23.168
563.82	24.142
564.16	23.756
564.50	23.327
564.84	23.830
565.17	23.470
565.51	24.076
565.85	23.134
566.19	23.036
566.52	22.984
566.86	23.584
567.20	22.753
567.54	22.598
567.88	23.057
568.21	22.017
568.55	22.082
568.89	21.852
569.23	21.225
569.56	20.966
569.90	20.481
570.24	20.647
570.57	19.890
570.91	19.501
571.25	19.632
571.59	18.979
571.92	19.160
572.26	18.760
572.60	19.134
572.93	20.012
573.27	18.926
573.61	19.058
573.95	19.248
574.28	19.171
574.62	18.537
574.96	18.377
575.29	18.338
575.63	18.492
575.97	18.038
576.30	18.223
576.64	18.682
576.98	18.180
577.31	18.499
577.65	18.930
577.98	18.241
578.32	18.078
578.66	18.002
578.99	18.523
579.33	18.133
579.67	18.532
580.00	18.161
580.34	18.306
580.67	18.479
581.01	18.367
581.35	17.909
581.68	17.324
582.02	17.539
582.35	17.433
582.69	17.796
583.02	17.446
583.36	18.034
583.70	18.446
584.03	18.593
584.37	18.375
584.70	18.537
585.04	18.225
585.37	17.493
585.71	18.090
586.04	17.839
586.38	18.434
586.72	18.275
587.05	19.043
587.39	18.508
587.72	18.858
588.06	18.177
588.39	18.373
588.73	19.232
589.06	18.704
589.40	19.030
589.73	18.650
590.07	19.389
590.40	19.686
590.73	20.308
591.07	19.469
591.40	20.040
591.74	19.927
592.07	19.676
592.41	20.304
592.74	19.041
593.08	18.359
593.41	18.372
593.75	18.507
594.08	18.941
594.41	18.671
594.75	19.349
595.08	19.067
595.42	19.849
595.75	19.019
596.09	19.152
596.42	18.864
596.75	20.272
597.09	19.686
597.42	20.041
597.75	19.635
598.09	20.066
598.42	19.665
598.76	19.391
599.09	19.198
599.42	18.512
599.76	19.098
600.09	17.831
600.42	18.957
600.76	18.593
601.09	18.709
601.42	19.324
601.76	18.690
602.09	19.684
602.42	18.558
602.76	19.431
603.09	19.834
603.42	18.789
603.76	18.800
604.09	18.784
604.42	18.267
604.76	19.518
605.09	19.551
605.42	19.382
605.75	19.384
606.09	19.587
606.42	18.790
606.75	19.316
607.09	18.831
607.42	19.325
607.75	19.068
608.08	19.131
608.42	19.295
608.75	18.999
609.08	19.270
609.41	20.136
609.75	20.238
610.08	19.919
610.41	19.543
610.74	19.004
611.07	20.464
611.41	19.880
611.74	20.220
612.07	19.605
612.40	19.981
612.73	20.320
613.07	19.767
613.40	20.201
613.73	19.970
614.06	19.400
614.39	19.949
614.72	19.538
615.06	19.683
615.39	20.297
615.72	19.022
616.05	19.789
616.38	20.599
616.71	19.913
617.05	20.209
617.38	20.000
617.71	21.541
618.04	20.022
618.37	20.956
618.70	20.785
619.03	21.245
619.36	22.048
619.69	21.900
620.03	23.614
620.36	21.773
620.69	21.967
621.02	22.351
621.35	22.278
621.68	22.050
622.01	23.911
622.34	20.320
622.67	22.331
623.00	22.873
623.33	20.783
623.66	21.291
623.99	22.123
624.32	21.477
624.65	21.856
624.99	22.042
625.32	20.908
625.65	21.586
625.98	21.897
626.31	22.700
626.64	22.096
626.97	23.030
627.30	22.748
627.63	22.998
627.96	21.674
628.29	23.267
628.62	22.926
628.95	23.670
629.28	25.241
629.61	23.023
629.94	22.990
630.26	23.484
630.59	24.379
630.92	23.139
631.25	24.297
