SpectraSuite Data File
++++++++++++++++++++++++++++++++++++
Date: Tue May 12 17:03:20 PDT 2015
User: schluterlab
Dark Spectrum Present: Yes
Reference Spectrum Present: Yes
Number of Sampled Component Spectra: 1
Spectrometers: USB2E3373
Integration Time (usec): 3000 (USB2E3373)
Spectra Averaged: 3 (USB2E3373)
Boxcar Smoothing: 0 (USB2E3373)
Correct for Electrical Dark: No (USB2E3373)
Strobe/Lamp Enabled: No (USB2E3373)
Correct for Detector Non-linearity: No (USB2E3373)
Correct for Stray Light: No (USB2E3373)
Number of Pixels in Processed Spectrum: 2048
>>>>>Begin Processed Spectral Data<<<<<
178.53	0.000
178.91	-275.000
179.29	-575.000
179.67	-4000.000
180.04	-200.000
180.42	625.000
180.80	1950.000
181.18	0.000
181.56	-300.000
181.94	0.000
182.31	1266.667
182.69	-3700.000
183.07	514.286
183.45	-4200.000
183.83	-1850.000
184.20	440.000
184.58	485.714
184.96	-276.923
185.34	-208.333
185.72	1850.000
186.09	-950.000
186.47	-3400.000
186.85	866.667
187.23	560.000
187.61	1550.000
187.98	487.500
188.36	314.286
188.74	375.000
189.12	375.000
189.49	1000.000
189.87	0.000
190.25	387.500
190.63	1800.000
191.00	-241.667
191.38	-3600.000
191.76	-825.000
192.14	512.500
192.51	-2200.000
192.89	1850.000
193.27	1066.667
193.65	-1300.000
194.02	-780.000
194.40	485.714
194.78	-257.143
195.15	333.333
195.53	-2700.000
195.91	-540.000
196.29	3800.000
196.66	218.750
197.04	900.000
197.42	-1700.000
197.79	600.000
198.17	408.333
198.55	0.000
198.92	557.143
199.30	1366.667
199.68	2100.000
200.05	666.667
200.43	-533.333
200.81	288.889
201.18	2700.000
201.56	308.333
201.94	-1050.000
202.31	-300.000
202.69	-400.000
203.07	3200.000
203.44	-533.333
203.82	291.667
204.19	680.000
204.57	-1400.000
204.95	-875.000
205.32	-720.000
205.70	466.667
206.08	900.000
206.45	-1100.000
206.83	377.778
207.20	242.105
207.58	333.333
207.96	680.000
208.33	0.000
208.71	542.857
209.08	580.000
209.46	-2900.000
209.84	-1000.000
210.21	740.000
210.59	-480.000
210.96	300.000
211.34	-1125.000
211.71	309.091
212.09	875.000
212.46	1750.000
212.84	-533.333
213.22	400.000
213.59	-3100.000
213.97	320.000
214.34	750.000
214.72	1100.000
215.09	1133.333
215.47	-3300.000
215.84	-340.000
216.22	-300.000
216.59	0.000
216.97	0.000
217.34	1250.000
217.72	-1950.000
218.09	1533.333
218.47	425.000
218.84	1050.000
219.22	933.333
219.59	900.000
219.97	471.429
220.34	366.667
220.72	1300.000
221.09	3000.000
221.47	308.333
221.84	933.333
222.22	280.000
222.59	250.000
222.97	242.857
223.34	218.750
223.72	-1750.000
224.09	1200.000
224.46	276.923
224.84	-725.000
225.21	355.556
225.59	253.333
225.96	1000.000
226.34	-680.000
226.71	-625.000
227.08	-740.000
227.46	0.000
227.83	-533.333
228.21	-1400.000
228.58	383.333
228.95	1000.000
229.33	300.000
229.70	1225.000
230.08	276.923
230.45	3600.000
230.82	-750.000
231.20	-1066.667
231.57	-1166.667
231.95	460.000
232.32	258.333
232.69	750.000
233.07	266.667
233.44	-1550.000
233.81	226.667
234.19	137.037
234.56	162.500
234.93	176.471
235.31	200.000
235.68	262.500
236.05	153.571
236.43	122.222
236.80	207.143
237.17	127.586
237.55	121.875
237.92	92.500
238.29	106.061
238.67	106.250
239.04	109.756
239.41	62.500
239.79	82.500
240.16	58.333
240.53	52.459
240.91	52.174
241.28	71.186
241.65	42.424
242.02	57.746
242.40	44.286
242.77	37.363
243.14	40.506
243.51	55.556
243.89	46.729
244.26	27.103
244.63	31.683
245.00	33.028
245.38	26.271
245.75	28.788
246.12	34.074
246.49	28.369
246.87	22.951
247.24	30.000
247.61	34.375
247.98	29.932
248.36	20.000
248.73	30.612
249.10	18.452
249.47	25.000
249.84	20.896
250.22	20.000
250.59	15.500
250.96	18.565
251.33	17.209
251.70	18.304
252.08	17.227
252.45	21.514
252.82	19.772
253.19	16.601
253.56	16.154
253.94	16.304
254.31	15.504
254.68	13.589
255.05	15.172
255.42	16.788
255.79	14.332
256.16	18.644
256.54	14.286
256.91	16.013
257.28	12.709
257.65	9.091
258.02	12.979
258.39	15.186
258.76	17.391
259.14	11.714
259.51	13.411
259.88	12.766
260.25	12.363
260.62	16.164
260.99	10.744
261.36	13.092
261.73	12.500
262.10	14.136
262.47	11.250
262.85	11.467
263.22	12.853
263.59	13.043
263.96	14.035
264.33	12.840
264.70	12.285
265.07	11.707
265.44	11.927
265.81	9.670
266.18	14.874
266.55	10.165
266.92	10.962
267.29	10.746
267.66	10.538
268.03	9.193
268.40	11.205
268.77	11.894
269.14	9.761
269.51	12.918
269.88	11.020
270.25	7.991
270.62	11.159
270.99	12.576
271.36	10.366
271.73	10.692
272.10	10.101
272.47	9.722
272.84	9.581
273.21	11.570
273.58	10.931
273.95	9.856
274.32	11.673
274.69	11.024
275.06	11.111
275.43	10.153
275.80	9.623
276.17	10.846
276.54	12.150
276.91	8.022
277.28	10.219
277.65	9.041
278.02	9.559
278.39	12.230
278.76	10.862
279.13	9.075
279.50	10.182
279.87	10.428
280.23	9.392
280.60	10.949
280.97	10.345
281.34	9.241
281.71	9.391
282.08	9.573
282.45	9.122
282.82	8.863
283.19	9.221
283.56	9.917
283.92	8.306
284.29	9.983
284.66	8.067
285.03	10.282
285.40	7.934
285.77	8.488
286.14	10.062
286.51	9.049
286.87	9.335
287.24	7.808
287.61	7.903
287.98	10.000
288.35	8.444
288.72	8.194
289.08	9.610
289.45	9.909
289.82	8.906
290.19	9.224
290.56	9.170
290.93	7.338
291.29	8.840
291.66	7.203
292.03	8.696
292.40	8.537
292.77	7.382
293.13	10.271
293.50	7.962
293.87	5.420
294.24	7.133
294.60	9.287
294.97	7.972
295.34	7.703
295.71	8.410
296.08	7.733
296.44	8.132
296.81	7.072
297.18	6.844
297.55	7.020
297.91	6.158
298.28	7.850
298.65	6.503
299.02	6.755
299.38	7.434
299.75	6.220
300.12	8.028
300.48	7.611
300.85	7.271
301.22	6.628
301.59	6.958
301.95	5.134
302.32	6.636
302.69	7.466
303.05	8.754
303.42	6.502
303.79	6.067
304.15	6.491
304.52	5.391
304.89	7.249
305.25	6.785
305.62	7.676
305.99	6.739
306.35	4.947
306.72	7.492
307.09	6.625
307.45	6.441
307.82	6.173
308.19	6.907
308.55	5.900
308.92	7.360
309.29	7.890
309.65	6.343
310.02	6.389
310.38	5.882
310.75	5.979
311.12	5.651
311.48	6.660
311.85	7.252
312.22	6.972
312.58	6.803
312.95	6.214
313.31	6.835
313.68	5.722
314.05	7.051
314.41	7.356
314.78	6.629
315.14	6.161
315.51	6.433
315.87	5.839
316.24	6.629
316.61	6.267
316.97	5.321
317.34	6.020
317.70	6.936
318.07	6.762
318.43	7.293
318.80	7.356
319.16	6.643
319.53	6.726
319.89	5.556
320.26	8.007
320.62	7.509
320.99	6.768
321.35	8.163
321.72	8.539
322.08	7.018
322.45	6.721
322.81	6.587
323.18	8.082
323.54	8.014
323.91	7.797
324.27	6.454
324.64	6.834
325.00	6.552
325.37	6.745
325.73	7.083
326.10	8.285
326.46	7.267
326.83	6.480
327.19	8.675
327.56	7.348
327.92	6.885
328.29	8.511
328.65	7.791
329.01	7.956
329.38	7.614
329.74	8.284
330.11	8.080
330.47	8.696
330.84	6.989
331.20	8.122
331.56	7.945
331.93	7.528
332.29	6.633
332.66	8.929
333.02	7.732
333.38	7.679
333.75	9.091
334.11	7.802
334.48	7.179
334.84	7.770
335.20	7.357
335.57	7.809
335.93	8.242
336.29	7.711
336.66	8.319
337.02	7.357
337.38	8.255
337.75	7.432
338.11	7.511
338.47	7.621
338.84	7.536
339.20	6.580
339.56	6.392
339.93	7.860
340.29	7.227
340.65	8.298
341.02	8.045
341.38	7.143
341.74	8.140
342.11	6.594
342.47	6.481
342.83	8.203
343.20	7.922
343.56	6.195
343.92	6.771
344.28	7.895
344.65	6.520
345.01	7.778
345.37	5.849
345.73	7.857
346.10	6.693
346.46	6.539
346.82	6.173
347.19	7.651
347.55	6.479
347.91	7.326
348.27	6.584
348.63	7.358
349.00	7.159
349.36	6.459
349.72	7.263
350.08	7.531
350.45	6.702
350.81	7.339
351.17	7.165
351.53	6.313
351.89	6.682
352.26	6.274
352.62	6.863
352.98	7.439
353.34	7.242
353.70	5.734
354.07	6.308
354.43	6.912
354.79	7.213
355.15	6.355
355.51	6.873
355.87	7.154
356.24	6.390
356.60	6.849
356.96	5.989
357.32	7.234
357.68	7.048
358.04	6.915
358.40	6.597
358.77	7.137
359.13	6.456
359.49	6.968
359.85	7.223
360.21	5.572
360.57	7.007
360.93	6.494
361.29	6.349
361.66	6.413
362.02	5.895
362.38	6.926
362.74	7.431
363.10	7.644
363.46	6.146
363.82	7.714
364.18	6.615
364.54	6.152
364.90	7.363
365.26	6.731
365.62	6.768
365.98	6.125
366.35	5.655
366.71	6.662
367.07	6.621
367.43	6.514
367.79	6.782
368.15	5.631
368.51	6.754
368.87	6.114
369.23	6.445
369.59	6.271
369.95	7.203
370.31	6.229
370.67	6.801
371.03	7.003
371.39	6.648
371.75	6.629
372.11	6.798
372.47	6.918
372.83	6.594
373.19	7.197
373.55	6.667
373.91	5.594
374.27	7.077
374.63	6.508
374.99	7.412
375.35	5.108
375.71	6.003
376.07	6.764
376.42	6.010
376.78	6.294
377.14	5.701
377.50	6.055
377.86	6.150
378.22	6.033
378.58	6.719
378.94	5.914
379.30	5.822
379.66	6.321
380.02	6.862
380.38	5.386
380.74	6.805
381.09	6.893
381.45	6.763
381.81	6.147
382.17	6.288
382.53	5.819
382.89	5.855
383.25	6.927
383.61	6.110
383.97	6.359
384.32	6.932
384.68	7.962
385.04	6.331
385.40	6.346
385.76	5.968
386.12	6.494
386.48	6.079
386.83	6.174
387.19	6.360
387.55	6.419
387.91	6.582
388.27	7.020
388.62	6.749
388.98	6.822
389.34	6.008
389.70	5.896
390.06	6.341
390.42	6.354
390.77	6.511
391.13	7.061
391.49	6.715
391.85	6.646
392.20	7.032
392.56	7.348
392.92	6.457
393.28	5.942
393.64	5.734
393.99	6.580
394.35	6.416
394.71	6.152
395.07	6.813
395.42	6.674
395.78	6.601
396.14	7.590
396.50	6.619
396.85	6.402
397.21	5.897
397.57	5.798
397.92	5.835
398.28	6.178
398.64	6.864
399.00	5.665
399.35	6.173
399.71	6.347
400.07	5.879
400.42	6.030
400.78	5.689
401.14	6.048
401.49	6.164
401.85	6.431
402.21	6.034
402.57	6.523
402.92	5.333
403.28	5.728
403.63	6.357
403.99	5.911
404.35	6.331
404.70	6.970
405.06	5.727
405.42	6.104
405.77	6.174
406.13	6.182
406.49	5.969
406.84	6.317
407.20	6.963
407.55	6.338
407.91	6.573
408.27	6.792
408.62	7.037
408.98	6.150
409.34	6.604
409.69	6.036
410.05	6.202
410.40	4.653
410.76	6.354
411.11	6.043
411.47	6.049
411.83	6.268
412.18	6.039
412.54	6.787
412.89	5.841
413.25	5.929
413.60	6.425
413.96	5.865
414.31	6.375
414.67	6.331
415.03	5.747
415.38	6.372
415.74	6.001
416.09	6.933
416.45	7.304
416.80	6.735
417.16	5.983
417.51	6.497
417.87	6.008
418.22	6.501
418.58	5.541
418.93	5.949
419.29	6.285
419.64	6.481
420.00	6.444
420.35	5.749
420.71	5.368
421.06	5.945
421.42	5.815
421.77	6.496
422.12	5.954
422.48	5.598
422.83	6.641
423.19	5.940
423.54	5.705
423.90	6.908
424.25	5.889
424.61	6.442
424.96	5.985
425.31	5.747
425.67	5.724
426.02	5.889
426.38	5.893
426.73	6.536
427.09	6.168
427.44	5.515
427.79	5.946
428.15	6.836
428.50	6.400
428.85	6.643
429.21	6.429
429.56	5.085
429.92	6.663
430.27	5.902
430.62	5.972
430.98	6.088
431.33	5.544
431.68	5.185
432.04	5.173
432.39	5.873
432.74	6.030
433.10	5.814
433.45	6.893
433.80	5.792
434.16	6.043
434.51	6.192
434.86	6.532
435.22	6.105
435.57	6.283
435.92	6.773
436.28	6.970
436.63	6.537
436.98	6.644
437.34	6.621
437.69	5.095
438.04	6.505
438.39	6.246
438.75	6.459
439.10	6.368
439.45	5.992
439.81	6.420
440.16	6.219
440.51	6.137
440.86	7.123
441.22	6.277
441.57	6.509
441.92	6.170
442.27	6.186
442.63	6.047
442.98	5.927
443.33	6.535
443.68	6.237
444.03	6.456
444.39	5.791
444.74	5.745
445.09	6.372
445.44	6.270
445.79	5.507
446.15	6.158
446.50	6.435
446.85	5.627
447.20	4.975
447.55	5.710
447.91	7.192
448.26	6.390
448.61	6.578
448.96	5.773
449.31	6.216
449.66	6.368
450.02	6.213
450.37	6.385
450.72	6.171
451.07	6.341
451.42	7.232
451.77	6.873
452.12	6.239
452.47	6.561
452.83	6.873
453.18	6.907
453.53	6.572
453.88	6.743
454.23	7.379
454.58	6.469
454.93	6.928
455.28	7.283
455.63	6.265
455.98	6.599
456.34	7.112
456.69	6.098
457.04	6.325
457.39	6.286
457.74	7.207
458.09	6.120
458.44	6.572
458.79	6.260
459.14	6.165
459.49	6.512
459.84	6.685
460.19	6.949
460.54	6.553
460.89	7.036
461.24	6.415
461.59	6.803
461.94	6.383
462.29	6.407
462.64	6.721
462.99	6.974
463.34	7.971
463.69	7.562
464.04	6.563
464.39	6.697
464.74	5.569
465.09	6.674
465.44	6.474
465.79	6.369
466.14	6.518
466.49	7.216
466.84	6.577
467.19	6.678
467.54	7.207
467.89	7.160
468.24	6.775
468.59	6.310
468.94	7.428
469.29	7.025
469.64	7.781
469.99	8.033
470.34	6.641
470.68	6.828
471.03	6.538
471.38	7.020
471.73	7.250
472.08	7.241
472.43	7.263
472.78	7.362
473.13	7.009
473.48	7.090
473.83	6.478
474.17	7.112
474.52	7.168
474.87	6.083
475.22	7.025
475.57	6.611
475.92	6.847
476.27	6.692
476.61	5.898
476.96	7.001
477.31	6.735
477.66	6.495
478.01	6.498
478.36	7.158
478.70	5.955
479.05	6.172
479.40	6.597
479.75	6.306
480.10	6.922
480.45	6.116
480.79	6.636
481.14	6.134
481.49	6.404
481.84	6.376
482.19	6.157
482.53	6.368
482.88	6.004
483.23	5.999
483.58	5.880
483.92	6.399
484.27	6.336
484.62	6.027
484.97	6.778
485.31	6.034
485.66	5.535
486.01	5.190
486.36	5.158
486.70	4.784
487.05	5.076
487.40	5.484
487.75	5.368
488.09	6.307
488.44	5.417
488.79	5.866
489.13	6.047
489.48	5.833
489.83	6.214
490.17	6.069
490.52	6.417
490.87	6.681
491.22	6.339
491.56	6.851
491.91	5.735
492.26	6.147
492.60	6.834
492.95	6.343
493.30	6.870
493.64	6.289
493.99	6.395
494.34	5.961
494.68	6.153
495.03	6.511
495.37	7.114
495.72	7.086
496.07	6.244
496.41	6.255
496.76	6.501
497.11	6.812
497.45	6.751
497.80	6.534
498.14	6.796
498.49	6.732
498.84	7.757
499.18	6.170
499.53	6.155
499.87	6.244
500.22	6.541
500.56	6.778
500.91	7.328
501.26	6.431
501.60	6.648
501.95	5.645
502.29	6.800
502.64	6.308
502.98	6.314
503.33	6.682
503.67	6.269
504.02	6.046
504.36	6.471
504.71	6.149
505.06	6.476
505.40	6.645
505.75	6.642
506.09	7.046
506.44	6.720
506.78	7.325
507.13	6.156
507.47	6.453
507.82	6.861
508.16	6.957
508.51	7.053
508.85	7.075
509.19	6.951
509.54	6.494
509.88	7.509
510.23	7.010
510.57	6.226
510.92	6.793
511.26	6.827
511.61	6.795
511.95	6.371
512.30	7.050
512.64	6.231
512.98	6.509
513.33	6.814
513.67	6.525
514.02	7.065
514.36	6.906
514.70	7.040
515.05	6.873
515.39	7.456
515.74	7.162
516.08	7.081
516.42	7.377
516.77	6.880
517.11	7.040
517.46	7.058
517.80	6.718
518.14	7.493
518.49	7.222
518.83	6.538
519.17	6.434
519.52	7.810
519.86	7.847
520.20	7.068
520.55	6.614
520.89	6.954
521.23	7.652
521.58	7.057
521.92	6.647
522.26	7.227
522.61	7.665
522.95	6.907
523.29	7.135
523.64	7.457
523.98	7.512
524.32	7.266
524.66	7.246
525.01	7.515
525.35	7.543
525.69	7.164
526.04	7.436
526.38	7.122
526.72	7.637
527.06	7.037
527.41	7.557
527.75	7.547
528.09	6.924
528.43	7.505
528.78	7.513
529.12	7.526
529.46	7.481
529.80	7.477
530.15	6.953
530.49	6.619
530.83	7.374
531.17	7.688
531.51	7.174
531.86	7.488
532.20	7.293
532.54	6.905
532.88	7.933
533.22	7.556
533.57	7.077
533.91	6.643
534.25	7.271
534.59	6.199
534.93	7.281
535.27	6.887
535.62	7.118
535.96	6.619
536.30	7.130
536.64	7.205
536.98	6.608
537.32	7.625
537.66	7.015
538.01	7.864
538.35	7.299
538.69	6.614
539.03	6.530
539.37	6.493
539.71	7.346
540.05	7.692
540.39	7.358
540.73	6.392
541.07	6.587
541.42	7.152
541.76	7.337
542.10	6.658
542.44	7.170
542.78	6.986
543.12	6.258
543.46	7.268
543.80	7.393
544.14	7.492
544.48	6.691
544.82	7.584
545.16	6.132
545.50	6.945
545.84	7.765
546.18	7.802
546.52	7.475
546.86	7.866
547.20	7.300
547.54	7.853
547.88	7.543
548.22	6.800
548.56	6.953
548.90	8.244
549.24	6.759
549.58	6.830
549.92	7.531
550.26	7.573
550.60	7.585
550.94	7.395
551.28	7.517
551.62	8.207
551.96	8.243
552.30	6.131
552.64	8.220
552.98	7.281
553.32	7.170
553.66	6.840
554.00	7.336
554.34	8.322
554.68	7.930
555.02	7.604
555.36	7.380
555.69	7.853
556.03	7.580
556.37	7.138
556.71	8.018
557.05	6.815
557.39	8.267
557.73	8.221
558.07	7.646
558.41	7.334
558.75	8.413
559.08	8.506
559.42	7.659
559.76	8.054
560.10	7.226
560.44	7.233
560.78	7.417
561.12	7.502
561.45	6.571
561.79	7.241
562.13	6.507
562.47	6.749
562.81	7.742
563.15	7.498
563.48	6.646
563.82	7.735
564.16	7.774
564.50	7.113
564.84	6.930
565.17	6.595
565.51	7.081
565.85	6.971
566.19	7.202
566.52	6.498
566.86	6.947
567.20	7.528
567.54	6.441
567.88	7.042
568.21	6.640
568.55	6.858
568.89	7.208
569.23	6.169
569.56	5.551
569.90	6.109
570.24	6.371
570.57	5.938
570.91	5.491
571.25	5.783
571.59	5.838
571.92	5.328
572.26	4.960
572.60	5.304
572.93	5.722
573.27	4.940
573.61	5.171
573.95	5.453
574.28	5.235
574.62	5.007
574.96	4.882
575.29	5.207
575.63	4.923
575.97	5.088
576.30	5.138
576.64	4.938
576.98	4.876
577.31	5.398
577.65	4.852
577.98	5.003
578.32	4.787
578.66	5.443
578.99	5.160
579.33	5.187
579.67	5.054
580.00	4.976
580.34	5.096
580.67	5.078
581.01	5.354
581.35	4.910
581.68	4.503
582.02	4.902
582.35	4.835
582.69	4.963
583.02	4.906
583.36	5.083
583.70	5.096
584.03	5.493
584.37	5.351
584.70	5.499
585.04	5.139
585.37	5.072
585.71	5.258
586.04	5.268
586.38	5.075
586.72	4.942
587.05	5.481
587.39	5.436
587.72	5.343
588.06	5.165
588.39	5.015
588.73	5.503
589.06	5.077
589.40	5.415
589.73	5.637
590.07	5.525
590.40	6.202
590.73	6.794
591.07	6.490
591.40	5.948
591.74	5.763
592.07	6.032
592.41	6.475
592.74	5.676
593.08	5.501
593.41	5.685
593.75	5.388
594.08	5.728
594.41	5.898
594.75	5.514
595.08	5.967
595.42	5.596
595.75	6.153
596.09	6.257
596.42	5.936
596.75	6.050
597.09	6.314
597.42	5.755
597.75	5.436
598.09	6.319
598.42	6.406
598.76	6.361
599.09	6.105
599.42	5.709
599.76	6.208
600.09	5.831
600.42	5.801
600.76	5.303
601.09	5.765
601.42	5.843
601.76	5.764
602.09	5.703
602.42	5.952
602.76	6.224
603.09	5.995
603.42	6.349
603.76	5.459
604.09	5.646
604.42	5.876
604.76	5.373
605.09	6.245
605.42	6.461
605.75	6.159
606.09	5.738
606.42	5.524
606.75	6.063
607.09	6.159
607.42	5.504
607.75	6.290
608.08	5.930
608.42	6.166
608.75	5.263
609.08	5.675
609.41	6.227
609.75	6.593
610.08	6.520
610.41	5.929
610.74	6.623
611.07	6.367
611.41	6.163
611.74	6.166
612.07	6.744
612.40	6.579
612.73	6.440
613.07	6.386
613.40	6.466
613.73	6.191
614.06	6.600
614.39	6.515
614.72	6.379
615.06	5.984
615.39	6.238
615.72	5.954
616.05	6.328
616.38	6.748
616.71	5.806
617.05	6.480
617.38	6.124
617.71	6.355
618.04	5.889
618.37	6.504
618.70	6.293
619.03	6.777
619.36	7.161
619.69	7.058
620.03	7.632
620.36	7.836
620.69	8.046
621.02	8.152
621.35	6.877
621.68	7.375
622.01	7.749
622.34	5.972
622.67	8.427
623.00	7.352
623.33	7.355
623.66	7.119
623.99	6.781
624.32	7.453
624.65	7.505
624.99	7.437
625.32	6.613
625.65	6.621
625.98	6.625
626.31	7.567
626.64	6.910
626.97	7.192
627.30	6.832
627.63	7.928
627.96	6.103
628.29	8.086
628.62	7.271
628.95	8.333
629.28	8.151
629.61	7.469
629.94	8.124
630.26	7.886
630.59	9.309
630.92	8.341
631.25	7.797
631.58	9.065
631.91	7.136
632.24	7.580
632.57	8.251
632.90	8.799
633.23	7.870
633.56	8.641
633.89	7.503
634.22	8.934
634.55	8.387
634.88	10.077
635.20	8.632
635.53	9.640
635.86	9.284
636.19	8.866
636.52	8.432
636.85	7.659
637.18	9.967
637.51	8.045
637.83	8.009
638.16	10.082
638.49	9.461
638.82	9.977
639.15	8.931
639.48	9.360
639.81	9.280
640.13	8.589
640.46	9.608
640.79	8.973
641.12	8.661
641.45	9.961
641.77	9.115
642.10	10.442
642.43	8.535
642.76	8.949
643.09	9.654
643.41	8.976
643.74	10.791
644.07	11.799
644.40	9.763
644.73	9.309
645.05	10.104
645.38	10.260
645.71	10.319
646.04	11.450
646.36	10.642
646.69	9.440
647.02	12.160
647.35	9.606
647.67	11.021
648.00	9.772
648.33	11.429
648.66	9.848
648.98	8.986
649.31	8.907
649.64	8.714
649.96	7.824
650.29	8.429
650.62	11.487
650.94	12.199
651.27	11.802
651.60	10.955
651.92	11.982
652.25	10.709
652.58	10.071
652.90	9.281
653.23	9.897
653.56	9.199
653.88	9.838
654.21	11.144
