SpectraSuite Data File
++++++++++++++++++++++++++++++++++++
Date: Tue May 12 17:11:33 PDT 2015
User: schluterlab
Dark Spectrum Present: Yes
Reference Spectrum Present: Yes
Number of Sampled Component Spectra: 1
Spectrometers: USB2E3373
Integration Time (usec): 3000 (USB2E3373)
Spectra Averaged: 3 (USB2E3373)
Boxcar Smoothing: 0 (USB2E3373)
Correct for Electrical Dark: No (USB2E3373)
Strobe/Lamp Enabled: No (USB2E3373)
Correct for Detector Non-linearity: No (USB2E3373)
Correct for Stray Light: No (USB2E3373)
Number of Pixels in Processed Spectrum: 2048
>>>>>Begin Processed Spectral Data<<<<<
178.53	0.000
178.91	-233.333
179.29	-675.000
179.67	-3300.000
180.04	-186.667
180.42	700.000
180.80	2150.000
181.18	0.000
181.56	-275.000
181.94	0.000
182.31	1033.333
182.69	-2500.000
183.07	571.429
183.45	-3600.000
183.83	-1650.000
184.20	340.000
184.58	385.714
184.96	-223.077
185.34	-125.000
185.72	1850.000
186.09	-675.000
186.47	-2300.000
186.85	1100.000
187.23	520.000
187.61	1550.000
187.98	450.000
188.36	285.714
188.74	350.000
189.12	325.000
189.49	1000.000
189.87	0.000
190.25	350.000
190.63	2500.000
191.00	-183.333
191.38	-3200.000
191.76	-800.000
192.14	612.500
192.51	-2200.000
192.89	1600.000
193.27	966.667
193.65	-1000.000
194.02	-760.000
194.40	500.000
194.78	-207.143
195.15	260.000
195.53	-2900.000
195.91	-640.000
196.29	3400.000
196.66	212.500
197.04	800.000
197.42	-1250.000
197.79	550.000
198.17	341.667
198.55	0.000
198.92	514.286
199.30	866.667
199.68	1450.000
200.05	700.000
200.43	-533.333
200.81	211.111
201.18	2700.000
201.56	266.667
201.94	-975.000
202.31	-262.500
202.69	-380.000
203.07	4000.000
203.44	-466.667
203.82	341.667
204.19	720.000
204.57	-1250.000
204.95	-725.000
205.32	-720.000
205.70	450.000
206.08	900.000
206.45	-1166.667
206.83	366.667
207.20	178.947
207.58	166.667
207.96	660.000
208.33	0.000
208.71	442.857
209.08	540.000
209.46	-3600.000
209.84	-725.000
210.21	720.000
210.59	-600.000
210.96	291.667
211.34	-900.000
211.71	363.636
212.09	650.000
212.46	1550.000
212.84	-466.667
213.22	400.000
213.59	-2900.000
213.97	430.000
214.34	725.000
214.72	1200.000
215.09	1266.667
215.47	-2900.000
215.84	-370.000
216.22	-425.000
216.59	0.000
216.97	0.000
217.34	1950.000
217.72	-1450.000
218.09	1300.000
218.47	362.500
218.84	775.000
219.22	1066.667
219.59	933.333
219.97	542.857
220.34	411.111
220.72	1650.000
221.09	2200.000
221.47	333.333
221.84	900.000
222.22	290.000
222.59	272.222
222.97	164.286
223.34	262.500
223.72	-1900.000
224.09	1333.333
224.46	253.846
224.84	-800.000
225.21	377.778
225.59	220.000
225.96	1300.000
226.34	-680.000
226.71	-950.000
227.08	-540.000
227.46	0.000
227.83	-416.667
228.21	-1600.000
228.58	366.667
228.95	1125.000
229.33	400.000
229.70	1075.000
230.08	338.462
230.45	2900.000
230.82	-825.000
231.20	-700.000
231.57	-1166.667
231.95	580.000
232.32	233.333
232.69	500.000
233.07	250.000
233.44	-1650.000
233.81	300.000
234.19	162.963
234.56	275.000
234.93	241.176
235.31	240.000
235.68	256.250
236.05	175.000
236.43	125.926
236.80	214.286
237.17	127.586
237.55	153.125
237.92	157.500
238.29	130.303
238.67	118.750
239.04	119.512
239.41	91.667
239.79	97.500
240.16	81.250
240.53	72.131
240.91	78.261
241.28	98.305
241.65	71.212
242.02	76.056
242.40	78.571
242.77	56.044
243.14	59.494
243.51	68.687
243.89	53.271
244.26	59.813
244.63	68.317
245.00	59.633
245.38	51.695
245.75	45.455
246.12	57.778
246.49	51.773
246.87	46.721
247.24	54.000
247.61	50.625
247.98	50.340
248.36	47.273
248.73	49.490
249.10	49.405
249.47	47.500
249.84	45.274
250.22	48.649
250.59	45.500
250.96	40.084
251.33	37.209
251.70	46.875
252.08	38.655
252.45	39.044
252.82	41.445
253.19	38.735
253.56	40.385
253.94	44.203
254.31	42.636
254.68	46.341
255.05	41.034
255.42	41.241
255.79	39.088
256.16	41.356
256.54	39.286
256.91	42.157
257.28	41.137
257.65	33.229
258.02	38.053
258.39	37.822
258.76	39.420
259.14	38.571
259.51	39.359
259.88	37.082
260.25	33.516
260.62	34.795
260.99	32.231
261.36	35.376
261.73	35.106
262.10	37.435
262.47	37.000
262.85	37.600
263.22	37.789
263.59	37.596
263.96	36.090
264.33	35.556
264.70	36.609
265.07	36.341
265.44	34.633
265.81	35.142
266.18	35.469
266.55	35.225
266.92	34.452
267.29	36.842
267.66	35.650
268.03	33.857
268.40	33.404
268.77	33.700
269.14	29.718
269.51	32.962
269.88	34.490
270.25	29.374
270.62	34.549
270.99	35.294
271.36	32.114
271.73	31.656
272.10	31.111
272.47	31.944
272.84	34.132
273.21	34.917
273.58	33.603
273.95	31.417
274.32	35.214
274.69	33.661
275.06	33.151
275.43	31.226
275.80	31.132
276.17	32.904
276.54	33.645
276.91	34.888
277.28	33.029
277.65	31.550
278.02	32.904
278.39	32.014
278.76	32.931
279.13	33.452
279.50	32.727
279.87	31.471
280.23	33.333
280.60	32.847
280.97	30.862
281.34	29.703
281.71	32.870
282.08	32.137
282.45	31.250
282.82	33.445
283.19	31.320
283.56	30.744
283.92	30.782
284.29	30.616
284.66	28.571
285.03	31.675
285.40	30.744
285.77	30.864
286.14	32.817
286.51	32.055
286.87	30.696
287.24	31.081
287.61	32.675
287.98	31.194
288.35	32.741
288.72	32.625
289.08	31.682
289.45	33.537
289.82	31.563
290.19	32.796
290.56	34.643
290.93	33.669
291.29	32.320
291.66	32.627
292.03	33.380
292.40	34.553
292.77	31.198
293.13	33.096
293.50	34.413
293.87	31.707
294.24	36.084
294.60	34.724
294.97	36.923
295.34	35.724
295.71	34.428
296.08	35.867
296.44	35.451
296.81	36.849
297.18	35.234
297.55	36.823
297.91	33.374
298.28	37.077
298.65	35.583
299.02	35.344
299.38	37.170
299.75	35.488
300.12	36.239
300.48	37.588
300.85	37.545
301.22	35.930
301.59	36.792
301.95	38.623
302.32	36.554
302.69	38.575
303.05	40.516
303.42	37.780
303.79	38.895
304.15	39.274
304.52	39.006
304.89	37.953
305.25	40.044
305.62	40.618
305.99	39.022
306.35	37.789
306.72	40.271
307.09	39.752
307.45	40.866
307.82	39.095
308.19	40.619
308.55	39.600
308.92	39.843
309.29	42.209
309.65	41.229
310.02	40.669
310.38	41.476
310.75	41.851
311.12	41.092
311.48	43.147
311.85	40.649
312.22	42.789
312.58	41.788
312.95	41.165
313.31	42.603
313.68	43.058
314.05	43.498
314.41	42.179
314.78	43.087
315.14	43.886
315.51	43.803
315.87	43.704
316.24	43.791
316.61	44.673
316.97	43.761
317.34	45.013
317.70	46.708
318.07	46.797
318.43	45.343
318.80	45.884
319.16	45.367
319.53	45.310
319.89	46.505
320.26	48.696
320.62	50.458
320.99	49.380
321.35	49.629
321.72	52.941
322.08	50.323
322.45	52.498
322.81	52.059
323.18	52.309
323.54	52.875
323.91	55.122
324.27	55.261
324.64	55.104
325.00	56.810
325.37	55.649
325.73	57.926
326.10	57.664
326.46	57.803
326.83	56.960
327.19	59.679
327.56	57.428
327.92	59.344
328.29	59.984
328.65	60.103
329.01	62.275
329.38	60.237
329.74	60.376
330.11	62.033
330.47	61.466
330.84	60.138
331.20	58.629
331.56	61.399
331.93	61.848
332.29	59.694
332.66	60.799
333.02	59.192
333.38	61.518
333.75	60.050
334.11	59.815
334.48	60.427
334.84	58.530
335.20	59.453
335.57	60.537
335.93	59.798
336.29	57.711
336.66	60.978
337.02	58.255
337.38	59.415
337.75	58.953
338.11	59.325
338.47	59.356
338.84	57.917
339.20	57.835
339.56	57.191
339.93	57.191
340.29	56.387
340.65	58.927
341.02	57.200
341.38	57.718
341.74	59.302
342.11	58.013
342.47	57.342
342.83	58.655
343.20	57.559
343.56	55.838
343.92	56.647
344.28	57.735
344.65	58.924
345.01	56.270
345.37	56.410
345.73	56.667
346.10	55.936
346.46	56.778
346.82	55.093
347.19	57.187
347.55	56.753
347.91	56.722
348.27	55.074
348.63	55.617
349.00	55.369
349.36	55.798
349.72	56.498
350.08	55.435
350.45	55.293
350.81	56.116
351.17	56.394
351.53	54.426
351.89	53.924
352.26	53.893
352.62	53.695
352.98	53.604
353.34	53.698
353.70	53.211
354.07	54.769
354.43	55.223
354.79	52.923
355.15	54.135
355.51	53.097
355.87	54.217
356.24	54.657
356.60	54.262
356.96	52.464
357.32	52.223
357.68	52.863
358.04	54.483
358.40	52.024
358.77	53.869
359.13	54.054
359.49	52.854
359.85	52.643
360.21	53.566
360.57	52.847
360.93	53.319
361.29	54.113
361.66	54.362
362.02	52.699
362.38	53.175
362.74	53.008
363.10	51.613
363.46	51.727
363.82	51.964
364.18	52.632
364.54	53.863
364.90	51.339
365.26	52.811
365.62	51.174
365.98	51.893
366.35	50.552
366.71	52.394
367.07	51.877
367.43	50.235
367.79	50.864
368.15	49.389
368.51	51.688
368.87	50.951
369.23	51.975
369.59	49.427
369.95	51.259
370.31	50.308
370.67	49.827
371.03	51.261
371.39	51.316
371.75	50.663
372.11	49.762
372.47	49.589
372.83	51.462
373.19	50.994
373.55	49.622
373.91	49.655
374.27	49.868
374.63	50.169
374.99	49.394
375.35	50.000
375.71	49.604
376.07	50.000
376.42	48.210
376.78	50.225
377.14	50.000
377.50	48.252
377.86	48.751
378.22	49.360
378.58	49.939
378.94	48.099
379.30	48.817
379.66	49.789
380.02	49.971
380.38	49.297
380.74	49.366
381.09	49.182
381.45	47.457
381.81	48.522
382.17	47.924
382.53	47.990
382.89	48.669
383.25	47.069
383.61	47.954
383.97	47.690
384.32	48.583
384.68	49.495
385.04	47.069
385.40	48.102
385.76	46.987
386.12	48.237
386.48	47.538
386.83	46.822
387.19	47.939
387.55	47.644
387.91	47.748
388.27	47.591
388.62	47.242
388.98	45.481
389.34	45.271
389.70	45.401
390.06	46.951
390.42	46.391
390.77	45.823
391.13	45.504
391.49	46.219
391.85	46.831
392.20	45.292
392.56	45.998
392.92	45.424
393.28	45.796
393.64	44.782
393.99	45.228
394.35	44.438
394.71	44.994
395.07	45.742
395.42	45.082
395.78	45.527
396.14	45.301
396.50	44.103
396.85	44.207
397.21	43.983
397.57	43.634
397.92	44.079
398.28	43.298
398.64	44.735
399.00	42.117
399.35	43.478
399.71	43.543
400.07	43.550
400.42	42.209
400.78	43.226
401.14	43.218
401.49	43.376
401.85	43.337
402.21	42.414
402.57	42.968
402.92	42.061
403.28	41.527
403.63	41.789
403.99	41.978
404.35	42.497
404.70	42.764
405.06	41.437
405.42	41.652
405.77	40.959
406.13	40.293
406.49	41.273
406.84	40.666
407.20	41.438
407.55	41.846
407.91	41.672
408.27	41.116
408.62	41.218
408.98	40.686
409.34	39.918
409.69	40.510
410.05	39.177
410.40	40.577
410.76	39.439
411.11	40.166
411.47	40.185
411.83	39.777
412.18	39.553
412.54	41.381
412.89	39.823
413.25	39.738
413.60	40.070
413.96	40.694
414.31	40.201
414.67	40.161
415.03	39.527
415.38	39.621
415.74	39.356
416.09	39.101
416.45	39.690
416.80	41.116
417.16	39.656
417.51	40.127
417.87	38.924
418.22	40.705
418.58	39.936
418.93	39.917
419.29	38.386
419.64	40.097
420.00	41.289
420.35	39.257
420.71	39.382
421.06	39.847
421.42	38.860
421.77	40.144
422.12	39.140
422.48	39.394
422.83	40.067
423.19	38.769
423.54	37.850
423.90	39.807
424.25	40.561
424.61	40.221
424.96	39.300
425.31	39.573
425.67	40.629
426.02	40.101
426.38	38.623
426.73	40.370
427.09	40.095
427.44	39.674
427.79	40.938
428.15	41.426
428.50	41.143
428.85	40.153
429.21	40.735
429.56	39.681
429.92	40.179
430.27	39.623
430.62	39.207
430.98	39.271
431.33	38.911
431.68	38.765
432.04	39.731
432.39	41.273
432.74	41.159
433.10	40.421
433.45	42.160
433.80	41.809
434.16	39.884
434.51	40.660
434.86	41.590
435.22	41.113
435.57	41.553
435.92	41.719
436.28	41.590
436.63	40.249
436.98	41.329
437.34	41.210
437.69	40.146
438.04	41.344
438.39	41.740
438.75	41.425
439.10	41.608
439.45	40.192
439.81	40.717
440.16	42.047
440.51	40.822
440.86	42.108
441.22	39.881
441.57	41.890
441.92	40.967
442.27	41.289
442.63	41.565
442.98	40.194
443.33	41.028
443.68	40.946
444.03	40.999
444.39	41.714
444.74	42.340
445.09	40.758
445.44	41.286
445.79	41.569
446.15	41.895
446.50	41.086
446.85	42.181
447.20	40.597
447.55	42.251
447.91	42.515
448.26	41.534
448.61	42.786
448.96	42.756
449.31	41.969
449.66	42.857
450.02	41.329
450.37	42.865
450.72	43.030
451.07	42.176
451.42	42.798
451.77	42.784
452.12	41.860
452.47	42.770
452.83	43.268
453.18	42.703
453.53	42.629
453.88	44.114
454.23	42.533
454.58	43.357
454.93	41.937
455.28	42.350
455.63	43.322
455.98	41.906
456.34	43.404
456.69	44.329
457.04	43.914
457.39	42.000
457.74	42.849
458.09	42.223
458.44	41.895
458.79	41.751
459.14	42.608
459.49	42.469
459.84	43.370
460.19	42.316
460.54	42.678
460.89	42.537
461.24	41.924
461.59	41.893
461.94	42.258
462.29	42.162
462.64	43.467
462.99	42.930
463.34	42.255
463.69	43.255
464.04	43.811
464.39	42.587
464.74	42.321
465.09	42.252
465.44	41.676
465.79	42.079
466.14	40.276
466.49	41.346
466.84	41.750
467.19	42.648
467.54	41.261
467.89	43.075
468.24	42.501
468.59	41.964
468.94	43.176
469.29	42.578
469.64	41.736
469.99	43.509
470.34	42.821
470.68	42.828
471.03	44.229
471.38	43.709
471.73	43.893
472.08	42.922
472.43	44.010
472.78	43.726
473.13	42.115
473.48	42.726
473.83	43.404
474.17	43.161
474.52	42.358
474.87	42.013
475.22	42.547
475.57	41.920
475.92	41.288
476.27	41.621
476.61	41.930
476.96	42.476
477.31	43.085
477.66	42.566
478.01	41.826
478.36	42.533
478.70	40.496
479.05	43.044
479.40	42.758
479.75	41.758
480.10	41.917
480.45	42.157
480.79	41.060
481.14	40.989
481.49	41.537
481.84	41.777
482.19	41.310
482.53	41.722
482.88	41.935
483.23	41.137
483.58	42.011
483.92	42.824
484.27	41.310
484.62	41.893
484.97	40.709
485.31	40.112
485.66	38.772
486.01	37.277
486.36	37.114
486.70	36.939
487.05	37.665
487.40	38.272
487.75	38.745
488.09	38.722
488.44	39.579
488.79	40.472
489.13	40.911
489.48	40.511
489.83	40.617
490.17	40.875
490.52	41.990
490.87	40.991
491.22	42.465
491.56	41.941
491.91	41.980
492.26	41.514
492.60	42.232
492.95	41.550
493.30	41.902
493.64	42.318
493.99	40.921
494.34	41.685
494.68	41.611
495.03	42.344
495.37	41.423
495.72	42.751
496.07	41.959
496.41	41.746
496.76	41.157
497.11	40.960
497.45	41.736
497.80	42.493
498.14	42.349
498.49	41.922
498.84	42.523
499.18	41.636
499.53	41.709
499.87	41.420
500.22	41.409
500.56	42.665
500.91	42.301
501.26	42.765
501.60	41.393
501.95	41.084
502.29	41.511
502.64	41.994
502.98	40.818
503.33	41.203
503.67	41.545
504.02	41.021
504.36	41.719
504.71	42.053
505.06	42.515
505.40	41.975
505.75	41.955
506.09	42.371
506.44	42.528
506.78	42.439
507.13	42.269
507.47	41.921
507.82	42.482
508.16	43.459
508.51	41.932
508.85	42.118
509.19	42.829
509.54	42.676
509.88	43.212
510.23	42.206
510.57	42.230
510.92	42.807
511.26	42.771
511.61	41.654
511.95	42.210
512.30	42.550
512.64	43.718
512.98	42.850
513.33	43.545
513.67	42.828
514.02	42.961
514.36	43.406
514.70	43.787
515.05	43.420
515.39	43.860
515.74	44.505
516.08	43.464
516.42	45.082
516.77	43.840
517.11	43.520
517.46	42.996
517.80	44.184
518.14	44.169
518.49	44.487
518.83	42.857
519.17	43.927
519.52	43.965
519.86	45.722
520.20	44.164
520.55	43.923
520.89	44.770
521.23	45.152
521.58	44.636
521.92	45.364
522.26	43.306
522.61	45.455
522.95	44.505
523.29	44.678
523.64	43.931
523.98	44.131
524.32	44.752
524.66	43.594
525.01	44.142
525.35	43.842
525.69	44.491
526.04	44.914
526.38	43.908
526.72	44.869
527.06	44.293
527.41	45.466
527.75	45.405
528.09	43.408
528.43	44.051
528.78	44.484
529.12	44.672
529.46	43.250
529.80	43.808
530.15	43.665
530.49	43.261
530.83	44.485
531.17	44.219
531.51	44.574
531.86	43.357
532.20	44.252
532.54	44.382
532.88	44.160
533.22	42.413
533.57	43.563
533.91	43.415
534.25	42.354
534.59	43.275
534.93	43.174
535.27	41.264
535.62	42.065
535.96	42.258
536.30	44.668
536.64	42.360
536.98	42.668
537.32	43.313
537.66	42.538
538.01	42.910
538.35	43.169
538.69	42.597
539.03	42.662
539.37	41.444
539.71	41.173
540.05	42.154
540.39	44.025
540.73	43.165
541.07	42.848
541.42	42.475
541.76	42.478
542.10	42.109
542.44	43.329
542.78	42.983
543.12	42.515
543.46	42.794
543.80	42.982
544.14	41.920
544.48	42.275
544.82	42.018
545.16	41.105
545.50	42.901
545.84	42.298
546.18	43.563
546.52	43.279
546.86	43.069
547.20	42.765
547.54	42.242
547.88	41.727
548.22	41.773
548.56	42.192
548.90	42.112
549.24	42.072
549.58	43.428
549.92	43.091
550.26	44.287
550.60	42.648
550.94	44.369
551.28	43.448
551.62	43.793
551.96	41.824
552.30	42.189
552.64	42.524
552.98	42.268
553.32	41.485
553.66	41.954
554.00	41.506
554.34	43.675
554.68	42.944
555.02	43.381
555.36	42.620
555.69	42.277
556.03	41.911
556.37	42.192
556.71	43.286
557.05	42.464
557.39	42.533
557.73	43.194
558.07	42.656
558.41	43.112
558.75	42.339
559.08	44.246
559.42	44.596
559.76	44.476
560.10	42.602
560.44	42.601
560.78	42.839
561.12	43.293
561.45	41.051
561.79	41.511
562.13	41.946
562.47	41.791
562.81	42.160
563.15	42.857
563.48	40.311
563.82	42.732
564.16	41.480
564.50	41.410
564.84	41.216
565.17	41.474
565.51	42.241
565.85	43.245
566.19	41.190
566.52	41.276
566.86	41.623
567.20	41.067
567.54	41.103
567.88	40.010
568.21	37.993
568.55	39.348
568.89	39.005
569.23	37.403
569.56	38.059
569.90	36.112
570.24	35.980
570.57	36.178
570.91	34.665
571.25	35.261
571.59	34.095
571.92	33.746
572.26	33.989
572.60	33.824
572.93	34.589
573.27	34.406
573.61	33.920
573.95	33.790
574.28	34.149
574.62	33.209
574.96	32.934
575.29	33.167
575.63	32.721
575.97	32.546
576.30	33.055
576.64	33.301
576.98	33.527
577.31	33.415
577.65	32.611
577.98	32.018
578.32	31.894
578.66	32.348
578.99	32.767
579.33	33.198
579.67	33.303
580.00	32.240
580.34	32.678
580.67	32.528
581.01	32.982
581.35	32.777
581.68	32.188
582.02	31.661
582.35	31.872
582.69	31.882
583.02	31.819
583.36	32.715
583.70	33.618
584.03	34.004
584.37	33.796
584.70	33.143
585.04	32.739
585.37	32.800
585.71	33.258
586.04	33.145
586.38	32.894
586.72	33.179
587.05	33.145
587.39	33.300
587.72	32.862
588.06	33.126
588.39	33.572
588.73	33.751
589.06	33.878
589.40	34.710
589.73	34.546
590.07	35.312
590.40	35.575
590.73	36.467
591.07	36.471
591.40	36.008
591.74	36.120
592.07	35.857
592.41	36.051
592.74	34.786
593.08	33.529
593.41	33.692
593.75	33.616
594.08	33.847
594.41	34.734
594.75	34.863
595.08	35.082
595.42	33.970
595.75	34.715
596.09	34.029
596.42	34.924
596.75	36.098
597.09	36.319
597.42	35.959
597.75	35.132
598.09	36.274
598.42	35.047
598.76	34.927
599.09	35.197
599.42	33.945
599.76	34.464
600.09	34.305
600.42	34.461
600.76	33.990
601.09	34.242
601.42	34.706
601.76	34.658
602.09	35.247
602.42	34.529
602.76	34.877
603.09	34.314
603.42	34.899
603.76	34.237
604.09	34.890
604.42	34.426
604.76	35.441
605.09	35.592
605.42	35.514
605.75	35.531
606.09	35.386
606.42	35.212
606.75	35.251
607.09	34.781
607.42	34.753
607.75	34.355
608.08	34.931
608.42	35.025
608.75	34.917
609.08	35.768
609.41	37.364
609.75	36.355
610.08	36.061
610.41	36.012
610.74	36.277
611.07	36.153
611.41	36.886
611.74	36.807
612.07	36.224
612.40	36.257
612.73	37.094
613.07	36.695
613.40	37.243
613.73	36.995
614.06	35.950
614.39	37.121
614.72	36.715
615.06	36.152
615.39	35.693
615.72	35.818
616.05	36.916
616.38	36.530
616.71	36.896
617.05	38.166
617.38	37.360
617.71	37.908
618.04	38.531
618.37	35.853
618.70	36.778
619.03	38.523
619.36	38.756
619.69	38.259
620.03	40.313
620.36	39.242
620.69	40.613
621.02	39.878
621.35	40.401
621.68	40.855
622.01	41.919
622.34	40.131
622.67	39.256
623.00	39.959
623.33	38.664
623.66	38.589
623.99	39.589
624.32	39.295
624.65	38.117
624.99	39.959
625.32	39.145
625.65	39.379
625.98	39.679
626.31	41.024
626.64	40.471
626.97	40.398
627.30	40.994
627.63	41.523
627.96	40.845
628.29	42.409
628.62	41.232
628.95	43.174
629.28	43.734
629.61	43.058
629.94	41.400
630.26	43.934
630.59	43.794
630.92	42.960
631.25	43.518
