SpectraSuite Data File
++++++++++++++++++++++++++++++++++++
Date: Tue May 12 15:35:24 PDT 2015
User: schluterlab
Dark Spectrum Present: Yes
Reference Spectrum Present: Yes
Number of Sampled Component Spectra: 1
Spectrometers: USB2E3373
Integration Time (usec): 3000 (USB2E3373)
Spectra Averaged: 3 (USB2E3373)
Boxcar Smoothing: 0 (USB2E3373)
Correct for Electrical Dark: No (USB2E3373)
Strobe/Lamp Enabled: No (USB2E3373)
Correct for Detector Non-linearity: No (USB2E3373)
Correct for Stray Light: No (USB2E3373)
Number of Pixels in Processed Spectrum: 2048
>>>>>Begin Processed Spectral Data<<<<<
178.53	0.000
178.91	-216.667
179.29	-775.000
179.67	-3400.000
180.04	-206.667
180.42	575.000
180.80	1200.000
181.18	0.000
181.56	-375.000
181.94	0.000
182.31	1233.333
182.69	-2800.000
183.07	571.429
183.45	-3500.000
183.83	-1650.000
184.20	390.000
184.58	528.571
184.96	-330.769
185.34	-183.333
185.72	1850.000
186.09	-775.000
186.47	-3900.000
186.85	1233.333
187.23	640.000
187.61	1750.000
187.98	375.000
188.36	257.143
188.74	358.333
189.12	358.333
189.49	900.000
189.87	0.000
190.25	475.000
190.63	3000.000
191.00	-225.000
191.38	-3200.000
191.76	-625.000
192.14	587.500
192.51	-3000.000
192.89	1550.000
193.27	1300.000
193.65	-1366.667
194.02	-800.000
194.40	428.571
194.78	-221.429
195.15	313.333
195.53	-4100.000
195.91	-540.000
196.29	3700.000
196.66	268.750
197.04	1050.000
197.42	-1550.000
197.79	600.000
198.17	266.667
198.55	0.000
198.92	542.857
199.30	1266.667
199.68	2200.000
200.05	616.667
200.43	-466.667
200.81	211.111
201.18	3200.000
201.56	308.333
201.94	-675.000
202.31	-400.000
202.69	-500.000
203.07	3800.000
203.44	-483.333
203.82	408.333
204.19	540.000
204.57	-1350.000
204.95	-850.000
205.32	-900.000
205.70	550.000
206.08	775.000
206.45	-733.333
206.83	433.333
207.20	200.000
207.58	266.667
207.96	800.000
208.33	0.000
208.71	500.000
209.08	640.000
209.46	-2900.000
209.84	-725.000
210.21	580.000
210.59	-660.000
210.96	366.667
211.34	-775.000
211.71	345.455
212.09	675.000
212.46	2000.000
212.84	-483.333
213.22	422.222
213.59	-3900.000
213.97	250.000
214.34	800.000
214.72	1266.667
215.09	1100.000
215.47	-3400.000
215.84	-330.000
216.22	-512.500
216.59	0.000
216.97	0.000
217.34	1700.000
217.72	-1700.000
218.09	1300.000
218.47	462.500
218.84	1175.000
219.22	1066.667
219.59	1166.667
219.97	500.000
220.34	411.111
220.72	1450.000
221.09	3400.000
221.47	266.667
221.84	1100.000
222.22	420.000
222.59	205.556
222.97	264.286
223.34	231.250
223.72	-2000.000
224.09	1133.333
224.46	307.692
224.84	-975.000
225.21	411.111
225.59	253.333
225.96	1466.667
226.34	-600.000
226.71	-625.000
227.08	-400.000
227.46	0.000
227.83	-633.333
228.21	-1900.000
228.58	358.333
228.95	1025.000
229.33	288.889
229.70	1150.000
230.08	400.000
230.45	3400.000
230.82	-1025.000
231.20	-1000.000
231.57	-1133.333
231.95	600.000
232.32	350.000
232.69	750.000
233.07	333.333
233.44	-1650.000
233.81	253.333
234.19	196.296
234.56	200.000
234.93	152.941
235.31	170.000
235.68	337.500
236.05	171.429
236.43	170.370
236.80	207.143
237.17	186.207
237.55	134.375
237.92	137.500
238.29	163.636
238.67	121.875
239.04	148.780
239.41	97.917
239.79	117.500
240.16	135.417
240.53	104.918
240.91	86.957
241.28	108.475
241.65	89.394
242.02	102.817
242.40	91.429
242.77	84.615
243.14	84.810
243.51	96.970
243.89	78.505
244.26	76.636
244.63	80.198
245.00	76.147
245.38	70.339
245.75	70.455
246.12	74.074
246.49	61.702
246.87	70.492
247.24	71.333
247.61	65.625
247.98	76.190
248.36	65.455
248.73	69.388
249.10	61.905
249.47	59.000
249.84	62.687
250.22	65.946
250.59	60.500
250.96	55.696
251.33	64.186
251.70	58.036
252.08	62.185
252.45	55.378
252.82	59.316
253.19	59.684
253.56	50.385
253.94	55.435
254.31	56.977
254.68	54.355
255.05	57.586
255.42	60.949
255.79	56.026
256.16	58.644
256.54	59.416
256.91	56.209
257.28	58.528
257.65	52.978
258.02	56.047
258.39	54.155
258.76	56.812
259.14	50.286
259.51	59.475
259.88	56.231
260.25	50.824
260.62	51.781
260.99	52.617
261.36	55.153
261.73	52.660
262.10	53.665
262.47	51.750
262.85	52.267
263.22	49.614
263.59	51.151
263.96	53.885
264.33	54.815
264.70	54.545
265.07	54.634
265.44	51.606
265.81	50.236
266.18	52.632
266.55	52.719
266.92	49.888
267.29	50.877
267.66	51.794
268.03	50.897
268.40	49.894
268.77	50.881
269.14	49.241
269.51	52.116
269.88	50.408
270.25	48.164
270.62	51.073
270.99	52.535
271.36	49.593
271.73	47.799
272.10	50.707
272.47	49.008
272.84	48.104
273.21	50.826
273.58	52.227
273.95	51.951
274.32	48.249
274.69	49.016
275.06	47.905
275.43	49.617
275.80	48.868
276.17	47.978
276.54	48.972
276.91	48.321
277.28	49.453
277.65	46.679
278.02	47.426
278.39	47.122
278.76	46.724
279.13	46.797
279.50	46.545
279.87	47.672
280.23	45.856
280.60	47.445
280.97	47.241
281.34	45.545
281.71	48.522
282.08	46.838
282.45	44.257
282.82	46.321
283.19	45.310
283.56	45.785
283.92	46.580
284.29	45.424
284.66	46.387
285.03	46.766
285.40	46.116
285.77	43.827
286.14	48.142
286.51	45.859
286.87	43.196
287.24	42.342
287.61	45.289
287.98	44.030
288.35	43.704
288.72	44.006
289.08	43.393
289.45	43.750
289.82	44.375
290.19	43.485
290.56	43.668
290.93	42.734
291.29	42.541
291.66	41.102
292.03	41.795
292.40	40.515
292.77	41.226
293.13	40.371
293.50	40.621
293.87	38.753
294.24	42.657
294.60	43.203
294.97	42.517
295.34	39.973
295.71	39.290
296.08	37.067
296.44	38.247
296.81	37.717
297.18	35.741
297.55	39.163
297.91	36.330
298.28	39.251
298.65	37.791
299.02	34.741
299.38	36.930
299.75	36.463
300.12	35.780
300.48	38.993
300.85	39.452
301.22	38.140
301.59	36.675
301.95	35.473
302.32	35.739
302.69	36.538
303.05	37.262
303.42	35.314
303.79	37.053
304.15	36.524
304.52	35.624
304.89	36.461
305.25	36.596
305.62	36.674
305.99	37.174
306.35	35.263
306.72	36.420
307.09	37.371
307.45	36.220
307.82	34.877
308.19	37.320
308.55	34.800
308.92	36.506
309.29	36.391
309.65	35.580
310.02	38.438
310.38	35.593
310.75	35.873
311.12	35.920
311.48	37.548
311.85	38.740
312.22	38.109
312.58	36.929
312.95	36.893
313.31	38.577
313.68	37.992
314.05	38.095
314.41	39.199
314.78	39.867
315.14	40.664
315.51	40.492
315.87	38.504
316.24	38.469
316.61	41.003
316.97	42.110
317.34	42.138
317.70	42.054
318.07	41.993
318.43	41.125
318.80	42.207
319.16	43.881
319.53	43.274
319.89	43.728
320.26	45.717
320.62	44.780
320.99	45.758
321.35	45.362
321.72	48.482
322.08	47.830
322.45	48.138
322.81	47.027
323.18	48.224
323.54	49.913
323.91	52.221
324.27	49.602
324.64	49.913
325.00	51.379
325.37	51.180
325.73	51.855
326.10	52.113
326.46	53.014
326.83	53.040
327.19	55.020
327.56	54.153
327.92	58.607
328.29	56.219
328.65	56.250
329.01	57.571
329.38	56.345
329.74	56.960
330.11	58.384
330.47	58.653
330.84	57.291
331.20	57.614
331.56	58.204
331.93	59.110
332.29	59.439
332.66	59.184
333.02	57.818
333.38	58.639
333.75	58.799
334.11	59.312
334.48	60.427
334.84	58.615
335.20	60.051
335.57	59.950
335.93	59.294
336.29	59.701
336.66	61.235
337.02	59.367
337.38	59.673
337.75	59.459
338.11	59.409
338.47	60.711
338.84	59.695
339.20	60.346
339.56	59.630
339.93	58.946
340.29	57.395
340.65	59.681
341.02	58.970
341.38	59.524
341.74	60.216
342.11	59.349
342.47	59.229
342.83	60.213
343.20	59.175
343.56	57.665
343.92	59.455
344.28	59.968
344.65	60.554
345.01	58.333
345.37	60.096
345.73	59.365
346.10	58.884
346.46	59.171
346.82	58.179
347.19	59.660
347.55	59.329
347.91	59.894
348.27	58.947
348.63	59.652
349.00	58.416
349.36	59.689
349.72	59.557
350.08	59.550
350.45	58.416
350.81	59.786
351.17	58.089
351.53	60.354
351.89	58.819
352.26	59.108
352.62	60.181
352.98	59.202
353.34	59.322
353.70	58.869
354.07	58.308
354.43	57.680
354.79	58.998
355.15	60.567
355.51	59.290
355.87	59.714
356.24	59.122
356.60	58.904
356.96	59.591
357.32	59.985
357.68	57.416
358.04	59.347
358.40	59.670
358.77	59.279
359.13	59.309
359.49	57.821
359.85	60.462
360.21	58.767
360.57	58.102
360.93	58.586
361.29	60.029
361.66	61.223
362.02	57.457
362.38	58.514
362.74	60.014
363.10	60.379
363.46	57.804
363.82	58.275
364.18	59.175
364.54	60.443
364.90	57.764
365.26	58.640
365.62	58.840
365.98	56.779
366.35	60.069
366.71	58.917
367.07	59.181
367.43	57.824
367.79	59.043
368.15	57.598
368.51	59.752
368.87	58.288
369.23	59.321
369.59	58.193
369.95	57.622
370.31	57.426
370.67	58.779
371.03	58.263
371.39	58.657
371.75	58.339
372.11	58.939
372.47	58.699
372.83	58.736
373.19	59.630
373.55	57.801
373.91	57.942
374.27	57.077
374.63	57.763
374.99	57.884
375.35	58.333
375.71	58.707
376.07	57.029
376.42	55.499
376.78	57.418
377.14	59.699
377.50	57.615
377.86	57.976
378.22	56.429
378.58	58.717
378.94	58.358
379.30	58.035
379.66	57.676
380.02	58.065
380.38	57.260
380.74	57.439
381.09	57.710
381.45	56.012
381.81	57.151
382.17	56.349
382.53	57.469
382.89	57.481
383.25	56.483
383.61	56.715
383.97	56.989
384.32	56.902
384.68	57.279
385.04	55.510
385.40	57.295
385.76	56.115
386.12	57.205
386.48	57.204
386.83	57.641
387.19	56.184
387.55	57.008
387.91	56.582
388.27	56.871
388.62	56.455
388.98	54.577
389.34	55.265
389.70	55.955
390.06	57.012
390.42	55.645
390.77	55.467
391.13	57.272
391.49	54.870
391.85	56.123
392.20	55.542
392.56	54.122
392.92	54.688
393.28	54.652
393.64	54.931
393.99	55.483
394.35	54.620
394.71	53.317
395.07	54.866
395.42	54.391
395.78	55.336
396.14	54.578
396.50	53.670
396.85	53.902
397.21	54.031
397.57	54.812
397.92	54.015
398.28	53.778
398.64	53.985
399.00	53.234
399.35	53.301
399.71	53.863
400.07	53.596
400.42	53.194
400.78	53.314
401.14	54.375
401.49	52.247
401.85	51.970
402.21	52.900
402.57	52.244
402.92	52.909
403.28	52.327
403.63	52.207
403.99	52.774
404.35	52.110
404.70	51.979
405.06	51.769
405.42	51.466
405.77	50.827
406.13	50.380
406.49	50.483
406.84	49.633
407.20	50.057
407.55	51.877
407.91	52.393
408.27	50.879
408.62	50.030
408.98	50.207
409.34	49.737
409.69	50.404
410.05	50.209
410.40	49.823
410.76	50.487
411.11	49.289
411.47	49.321
411.83	47.745
412.18	49.094
412.54	50.330
412.89	48.555
413.25	49.088
413.60	48.890
413.96	49.551
414.31	49.823
414.67	49.969
415.03	49.425
415.38	49.022
415.74	49.400
416.09	49.594
416.45	49.968
416.80	49.775
417.16	48.695
417.51	47.962
417.87	48.248
418.22	50.547
418.58	49.745
418.93	47.769
419.29	48.429
419.64	47.729
420.00	48.747
420.35	49.071
420.71	47.900
421.06	48.852
421.42	48.014
421.77	47.918
422.12	47.795
422.48	48.228
422.83	48.605
423.19	47.246
423.54	47.230
423.90	48.584
424.25	47.221
424.61	48.056
424.96	47.205
425.31	47.729
425.67	47.755
426.02	47.280
426.38	47.550
426.73	47.426
427.09	47.509
427.44	46.258
427.79	46.998
428.15	49.322
428.50	47.943
428.85	47.678
429.21	47.056
429.56	46.112
429.92	48.086
430.27	45.864
430.62	46.011
430.98	45.958
431.33	45.968
431.68	45.531
432.04	45.525
432.39	46.048
432.74	47.014
433.10	46.733
433.45	46.755
433.80	47.159
434.16	46.453
434.51	46.182
434.86	46.652
435.22	46.245
435.57	47.007
435.92	46.443
436.28	45.795
436.63	45.867
436.98	47.016
437.34	45.776
437.69	44.401
438.04	46.075
438.39	46.001
438.75	45.546
439.10	46.519
439.45	45.789
439.81	46.559
440.16	45.515
440.51	45.833
440.86	46.439
441.22	45.455
441.57	46.667
441.92	45.311
442.27	45.361
442.63	46.240
442.98	45.366
443.33	46.706
443.68	45.272
444.03	47.031
444.39	46.375
444.74	45.290
445.09	46.024
445.44	45.962
445.79	45.370
446.15	45.474
446.50	46.097
446.85	45.120
447.20	45.025
447.55	45.949
447.91	46.191
448.26	46.006
448.61	46.434
448.96	45.479
449.31	45.985
449.66	46.678
450.02	45.273
450.37	45.974
450.72	46.171
451.07	45.201
451.42	45.940
451.77	45.819
452.12	45.774
452.47	45.687
452.83	46.310
453.18	44.204
453.53	45.175
453.88	45.371
454.23	44.741
454.58	45.804
454.93	44.022
455.28	45.043
455.63	45.390
455.98	45.008
456.34	46.261
456.69	44.573
457.04	44.391
457.39	44.343
457.74	45.439
458.09	43.459
458.44	44.031
458.79	44.032
459.14	43.644
459.49	44.394
459.84	45.000
460.19	43.785
460.54	44.615
460.89	44.510
461.24	42.726
461.59	43.934
461.94	43.735
462.29	44.851
462.64	44.347
462.99	43.826
463.34	43.616
463.69	44.344
464.04	45.423
464.39	44.247
464.74	42.438
465.09	43.587
465.44	44.015
465.79	43.386
466.14	42.925
466.49	44.059
466.84	43.144
467.19	43.644
467.54	42.763
467.89	42.312
468.24	43.544
468.59	42.560
468.94	43.901
469.29	42.211
469.64	43.151
469.99	43.188
470.34	43.580
470.68	42.690
471.03	43.562
471.38	43.046
471.73	42.717
472.08	44.749
472.43	43.141
472.78	42.958
473.13	42.178
473.48	42.543
473.83	42.108
474.17	42.432
474.52	42.121
474.87	42.297
475.22	42.947
475.57	41.710
475.92	41.748
476.27	41.077
476.61	40.912
476.96	41.170
477.31	41.542
477.66	42.244
478.01	41.671
478.36	41.452
478.70	40.794
479.05	40.795
479.40	41.518
479.75	41.311
480.10	41.239
480.45	40.943
480.79	40.461
481.14	40.894
481.49	41.308
481.84	40.501
482.19	40.524
482.53	40.536
482.88	41.039
483.23	40.460
483.58	40.485
483.92	40.905
484.27	40.325
484.62	40.874
484.97	39.501
485.31	39.937
485.66	41.065
486.01	40.588
486.36	39.599
486.70	38.928
487.05	38.883
487.40	38.319
487.75	38.823
488.09	39.375
488.44	39.452
488.79	39.431
489.13	38.634
489.48	39.632
489.83	39.158
490.17	39.100
490.52	40.482
490.87	38.491
491.22	39.051
491.56	38.867
491.91	38.844
492.26	39.198
492.60	39.226
492.95	39.375
493.30	39.490
493.64	38.634
493.99	39.043
494.34	38.189
494.68	37.981
495.03	39.021
495.37	39.036
495.72	39.301
496.07	39.128
496.41	38.097
496.76	38.751
497.11	38.603
497.45	38.536
497.80	39.157
498.14	38.696
498.49	38.208
498.84	39.626
499.18	37.020
499.53	38.172
499.87	38.230
500.22	38.462
500.56	37.651
500.91	38.822
501.26	38.493
501.60	37.568
501.95	37.052
502.29	38.933
502.64	37.936
502.98	37.039
503.33	37.996
503.67	37.483
504.02	37.573
504.36	37.149
504.71	37.465
505.06	37.166
505.40	37.997
505.75	36.763
506.09	37.517
506.44	37.782
506.78	37.713
507.13	37.615
507.47	37.846
507.82	37.810
508.16	37.727
508.51	37.440
508.85	37.464
509.19	37.837
509.54	37.256
509.88	37.345
510.23	37.353
510.57	35.956
510.92	37.013
511.26	36.948
511.61	36.189
511.95	37.083
512.30	36.400
512.64	36.085
512.98	37.109
513.33	36.578
513.67	36.561
514.02	36.156
514.36	36.916
514.70	35.840
515.05	36.814
515.39	37.336
515.74	38.108
516.08	36.383
516.42	37.377
516.77	35.467
517.11	35.413
517.46	36.476
517.80	35.718
518.14	36.620
518.49	35.777
518.83	35.989
519.17	36.217
519.52	35.664
519.86	36.131
520.20	35.945
520.55	35.726
520.89	35.460
521.23	36.741
521.58	35.513
521.92	35.569
522.26	35.604
522.61	36.364
522.95	36.396
523.29	35.439
523.64	36.185
523.98	36.444
524.32	34.890
524.66	35.420
525.01	35.680
525.35	34.826
525.69	36.123
526.04	35.158
526.38	35.021
526.72	35.501
527.06	34.358
527.41	35.671
527.75	34.936
528.09	35.461
528.43	35.448
528.78	35.301
529.12	36.123
529.46	34.892
529.80	35.864
530.15	35.239
530.49	34.958
530.83	35.954
531.17	35.117
531.51	35.132
531.86	34.300
532.20	35.167
532.54	34.589
532.88	34.166
533.22	34.857
533.57	35.876
533.91	33.800
534.25	34.795
534.59	35.731
534.93	34.699
535.27	33.580
535.62	34.189
535.96	34.811
536.30	35.405
536.64	34.224
536.98	34.865
537.32	34.437
537.66	34.439
538.01	34.861
538.35	35.309
538.69	34.405
539.03	35.012
539.37	33.556
539.71	34.444
540.05	33.354
540.39	34.465
540.73	34.304
541.07	32.999
541.42	33.520
541.76	33.539
542.10	33.970
542.44	35.162
542.78	34.047
543.12	33.558
543.46	33.333
543.80	34.837
544.14	35.046
544.48	34.367
544.82	34.128
545.16	34.548
545.50	33.743
545.84	34.533
546.18	34.720
546.52	34.361
546.86	33.849
547.20	34.044
547.54	33.059
547.88	33.212
548.22	33.333
548.56	32.882
548.90	32.266
549.24	33.670
549.58	32.732
549.92	33.399
550.26	33.130
550.60	31.603
550.94	33.311
551.28	32.897
551.62	33.655
551.96	32.500
552.30	32.367
552.64	32.751
552.98	33.054
553.32	32.394
553.66	33.485
554.00	33.269
554.34	33.089
554.68	33.266
555.02	32.587
555.36	32.513
555.69	33.312
556.03	32.803
556.37	33.333
556.71	34.420
557.05	32.438
557.39	32.933
557.73	34.030
558.07	33.535
558.41	33.379
558.75	33.584
559.08	33.810
559.42	33.787
559.76	33.072
560.10	32.485
560.44	33.577
560.78	33.056
561.12	33.185
561.45	33.041
561.79	32.647
562.13	31.712
562.47	31.992
562.81	32.791
563.15	32.127
563.48	31.304
563.82	34.373
564.16	33.333
564.50	31.706
564.84	33.313
565.17	31.967
565.51	32.759
565.85	32.758
566.19	32.202
566.52	33.333
566.86	33.333
567.20	32.303
567.54	32.424
567.88	32.655
568.21	32.351
568.55	32.588
568.89	32.938
569.23	32.830
569.56	33.147
569.90	31.764
570.24	32.334
570.57	32.349
570.91	32.512
571.25	32.236
571.59	31.331
571.92	31.728
572.26	31.456
572.60	31.380
572.93	31.570
573.27	31.964
573.61	32.106
573.95	32.122
574.28	32.501
574.62	32.580
574.96	31.713
575.29	31.175
575.63	31.001
575.97	31.183
576.30	30.701
576.64	32.060
576.98	31.693
577.31	32.049
577.65	31.945
577.98	31.980
578.32	31.631
578.66	31.590
578.99	32.033
579.33	31.597
579.67	31.018
580.00	31.117
580.34	30.912
580.67	31.275
581.01	32.192
581.35	31.723
581.68	31.790
582.02	32.177
582.35	31.387
582.69	31.499
583.02	31.514
583.36	31.723
583.70	31.819
584.03	31.817
584.37	31.424
584.70	31.401
585.04	31.478
585.37	31.515
585.71	31.978
586.04	31.585
586.38	30.979
586.72	31.145
587.05	31.318
587.39	31.631
587.72	31.764
588.06	31.363
588.39	31.218
588.73	31.572
589.06	31.602
589.40	31.455
589.73	31.367
590.07	31.606
590.40	31.916
590.73	32.464
591.07	32.448
591.40	31.896
591.74	31.006
592.07	31.656
592.41	31.575
592.74	31.454
593.08	31.413
593.41	31.598
593.75	31.596
594.08	31.876
594.41	30.955
594.75	30.651
595.08	31.104
595.42	31.435
595.75	31.425
596.09	32.117
596.42	30.736
596.75	31.651
597.09	31.861
597.42	31.143
597.75	31.156
598.09	30.981
598.42	31.946
598.76	31.110
599.09	31.703
599.42	30.761
599.76	31.208
600.09	31.390
600.42	31.561
600.76	31.203
601.09	31.481
601.42	31.221
601.76	31.042
602.09	31.126
602.42	30.832
602.76	31.157
603.09	32.164
603.42	31.523
603.76	30.947
604.09	30.836
604.42	31.262
604.76	30.383
605.09	31.306
605.42	31.247
605.75	30.794
606.09	31.637
606.42	31.266
606.75	30.820
607.09	30.517
607.42	31.539
607.75	30.533
608.08	31.357
608.42	30.705
608.75	30.595
609.08	30.884
609.41	31.500
609.75	31.044
610.08	30.845
610.41	31.137
610.74	30.909
611.07	32.287
611.41	30.908
611.74	30.784
612.07	30.973
612.40	31.871
612.73	30.504
613.07	30.917
613.40	31.278
613.73	31.852
614.06	30.950
614.39	31.364
614.72	31.291
615.06	30.861
615.39	30.842
615.72	30.445
616.05	31.040
616.38	30.949
616.71	31.091
617.05	30.368
617.38	31.124
617.71	30.709
618.04	32.586
618.37	31.073
618.70	31.120
619.03	30.769
619.36	31.407
619.69	31.596
620.03	30.985
620.36	30.957
620.69	31.737
621.02	30.571
621.35	30.802
621.68	30.531
622.01	31.956
622.34	29.862
622.67	29.916
623.00	30.497
623.33	30.904
623.66	30.805
623.99	31.096
624.32	30.827
624.65	31.139
624.99	31.305
625.32	30.661
625.65	30.276
625.98	30.474
626.31	31.602
626.64	29.992
626.97	30.145
627.30	30.978
627.63	31.711
627.96	30.908
628.29	30.611
628.62	30.368
628.95	30.940
629.28	30.938
629.61	31.019
629.94	30.856
630.26	31.023
630.59	32.004
630.92	30.493
