SpectraSuite Data File
++++++++++++++++++++++++++++++++++++
Date: Tue May 12 16:45:44 PDT 2015
User: schluterlab
Dark Spectrum Present: Yes
Reference Spectrum Present: Yes
Number of Sampled Component Spectra: 1
Spectrometers: USB2E3373
Integration Time (usec): 3000 (USB2E3373)
Spectra Averaged: 3 (USB2E3373)
Boxcar Smoothing: 0 (USB2E3373)
Correct for Electrical Dark: No (USB2E3373)
Strobe/Lamp Enabled: No (USB2E3373)
Correct for Detector Non-linearity: No (USB2E3373)
Correct for Stray Light: No (USB2E3373)
Number of Pixels in Processed Spectrum: 2048
>>>>>Begin Processed Spectral Data<<<<<
178.53	0.000
178.91	-200.000
179.29	-775.000
179.67	-3700.000
180.04	-100.000
180.42	575.000
180.80	1250.000
181.18	0.000
181.56	-337.500
181.94	0.000
182.31	933.333
182.69	-3400.000
183.07	557.143
183.45	-2800.000
183.83	-1250.000
184.20	380.000
184.58	500.000
184.96	-207.692
185.34	-200.000
185.72	1450.000
186.09	-800.000
186.47	-2800.000
186.85	1300.000
187.23	700.000
187.61	1800.000
187.98	450.000
188.36	214.286
188.74	308.333
189.12	283.333
189.49	950.000
189.87	0.000
190.25	575.000
190.63	2600.000
191.00	-200.000
191.38	-3500.000
191.76	-750.000
192.14	675.000
192.51	-2600.000
192.89	1900.000
193.27	966.667
193.65	-1233.333
194.02	-680.000
194.40	542.857
194.78	-192.857
195.15	213.333
195.53	-2900.000
195.91	-540.000
196.29	3200.000
196.66	181.250
197.04	675.000
197.42	-1750.000
197.79	375.000
198.17	308.333
198.55	0.000
198.92	328.571
199.30	1000.000
199.68	1800.000
200.05	683.333
200.43	-466.667
200.81	216.667
201.18	3200.000
201.56	266.667
201.94	-875.000
202.31	-325.000
202.69	-340.000
203.07	2600.000
203.44	-333.333
203.82	375.000
204.19	660.000
204.57	-1450.000
204.95	-450.000
205.32	-660.000
205.70	583.333
206.08	550.000
206.45	-833.333
206.83	422.222
207.20	200.000
207.58	258.333
207.96	640.000
208.33	0.000
208.71	585.714
209.08	540.000
209.46	-2600.000
209.84	-700.000
210.21	780.000
210.59	-360.000
210.96	166.667
211.34	-750.000
211.71	472.727
212.09	800.000
212.46	1800.000
212.84	-450.000
213.22	455.556
213.59	-2500.000
213.97	220.000
214.34	950.000
214.72	1200.000
215.09	1133.333
215.47	-2900.000
215.84	-280.000
216.22	-400.000
216.59	0.000
216.97	0.000
217.34	1350.000
217.72	-1400.000
218.09	900.000
218.47	450.000
218.84	800.000
219.22	866.667
219.59	833.333
219.97	528.571
220.34	222.222
220.72	1250.000
221.09	3100.000
221.47	291.667
221.84	1166.667
222.22	350.000
222.59	233.333
222.97	200.000
223.34	200.000
223.72	-1450.000
224.09	1200.000
224.46	238.462
224.84	-750.000
225.21	411.111
225.59	220.000
225.96	1166.667
226.34	-680.000
226.71	-650.000
227.08	-560.000
227.46	0.000
227.83	-433.333
228.21	-1250.000
228.58	358.333
228.95	800.000
229.33	455.556
229.70	1025.000
230.08	315.385
230.45	3200.000
230.82	-775.000
231.20	-733.333
231.57	-866.667
231.95	580.000
232.32	200.000
232.69	500.000
233.07	316.667
233.44	-1200.000
233.81	246.667
234.19	129.630
234.56	206.250
234.93	105.882
235.31	130.000
235.68	193.750
236.05	146.429
236.43	100.000
236.80	171.429
237.17	124.138
237.55	106.250
237.92	112.500
238.29	133.333
238.67	100.000
239.04	90.244
239.41	72.917
239.79	60.000
240.16	64.583
240.53	54.098
240.91	57.971
241.28	52.542
241.65	45.455
242.02	56.338
242.40	48.571
242.77	37.363
243.14	44.304
243.51	49.495
243.89	34.579
244.26	39.252
244.63	32.673
245.00	26.606
245.38	27.119
245.75	30.303
246.12	38.519
246.49	28.369
246.87	18.033
247.24	29.333
247.61	26.250
247.98	26.531
248.36	23.636
248.73	26.020
249.10	17.262
249.47	21.500
249.84	21.891
250.22	24.865
250.59	19.000
250.96	20.675
251.33	18.605
251.70	21.429
252.08	19.328
252.45	16.335
252.82	20.152
253.19	15.810
253.56	15.769
253.94	19.203
254.31	15.891
254.68	17.422
255.05	17.586
255.42	17.153
255.79	15.961
256.16	17.966
256.54	18.831
256.91	14.706
257.28	16.388
257.65	13.166
258.02	14.749
258.39	14.613
258.76	17.391
259.14	10.857
259.51	15.743
259.88	13.070
260.25	10.989
260.62	13.973
260.99	11.295
261.36	13.928
261.73	12.500
262.10	13.874
262.47	13.250
262.85	13.067
263.22	12.596
263.59	12.276
263.96	14.787
264.33	11.358
264.70	14.005
265.07	13.171
265.44	11.468
265.81	12.972
266.18	12.128
266.55	10.165
266.92	9.396
267.29	13.158
267.66	8.296
268.03	10.538
268.40	11.416
268.77	14.537
269.14	8.460
269.51	12.027
269.88	11.020
270.25	8.639
270.62	9.657
270.99	12.982
271.36	13.008
271.73	10.901
272.10	10.303
272.47	7.738
272.84	8.782
273.21	11.777
273.58	11.134
273.95	9.856
274.32	11.868
274.69	12.402
275.06	11.475
275.43	11.877
275.80	9.623
276.17	10.662
276.54	10.093
276.91	11.567
277.28	10.036
277.65	9.779
278.02	9.007
278.39	8.633
278.76	11.552
279.13	9.253
279.50	10.364
279.87	7.263
280.23	8.103
280.60	9.489
280.97	8.103
281.34	8.746
281.71	10.783
282.08	10.769
282.45	8.953
282.82	9.365
283.19	10.493
283.56	7.603
283.92	9.283
284.29	9.484
284.66	8.908
285.03	7.629
285.40	9.917
285.77	7.407
286.14	10.217
286.51	10.583
286.87	6.962
287.24	10.511
287.61	9.422
287.98	10.299
288.35	9.926
288.72	9.408
289.08	9.760
289.45	9.451
289.82	9.375
290.19	9.224
290.56	9.898
290.93	9.065
291.29	9.807
291.66	8.051
292.03	9.397
292.40	8.401
292.77	6.964
293.13	10.271
293.50	7.152
293.87	8.808
294.24	9.091
294.60	10.363
294.97	9.650
295.34	8.898
295.71	8.279
296.08	9.067
296.44	9.276
296.81	8.437
297.18	8.745
297.55	9.113
297.91	7.389
298.28	10.024
298.65	8.589
299.02	8.806
299.38	9.712
299.75	7.195
300.12	9.977
300.48	8.899
300.85	9.058
301.22	8.953
301.59	8.844
301.95	7.935
302.32	10.012
302.69	8.145
303.05	9.091
303.42	7.623
303.79	8.992
304.15	9.131
304.52	7.822
304.89	8.635
305.25	8.565
305.62	9.062
305.99	9.348
306.35	8.000
306.72	8.949
307.09	9.006
307.45	9.293
307.82	8.951
308.19	9.278
308.55	9.900
308.92	9.127
309.29	9.270
309.65	9.019
310.02	8.925
310.38	9.372
310.75	8.004
311.12	7.663
311.48	10.521
311.85	9.065
312.22	9.933
312.58	8.358
312.95	8.155
313.31	8.801
313.68	9.568
314.05	9.982
314.41	9.404
314.78	9.091
315.14	9.005
315.51	9.934
315.87	10.036
316.24	9.057
316.61	10.116
316.97	9.083
317.34	10.602
317.70	9.306
318.07	10.587
318.43	10.193
318.80	9.545
319.16	10.140
319.53	9.912
319.89	10.215
320.26	10.987
320.62	10.989
320.99	10.772
321.35	10.482
321.72	11.765
322.08	10.526
322.45	11.262
322.81	9.607
323.18	10.924
323.54	12.805
323.91	11.423
324.27	11.671
324.64	10.035
325.00	10.259
325.37	11.214
325.73	10.624
326.10	12.179
326.46	11.974
326.83	11.040
327.19	10.924
327.56	10.623
327.92	12.459
328.29	13.993
328.65	11.558
329.01	12.062
329.38	13.113
329.74	11.272
330.11	11.990
330.47	12.873
330.84	11.821
331.20	12.014
331.56	12.522
331.93	11.121
332.29	10.884
332.66	12.840
333.02	11.254
333.38	11.169
333.75	12.177
334.11	10.822
334.48	11.282
334.84	11.655
335.20	10.864
335.57	11.335
335.93	10.934
336.29	10.614
336.66	12.779
337.02	11.292
337.38	11.178
337.75	10.135
338.11	11.730
338.47	11.262
338.84	11.092
339.20	9.524
339.56	10.261
339.93	10.786
340.29	10.084
340.65	11.065
341.02	11.585
341.38	10.509
341.74	9.967
342.11	10.851
342.47	10.090
342.83	11.403
343.20	11.156
343.56	9.373
343.92	10.074
344.28	10.845
344.65	10.676
345.01	10.476
345.37	10.497
345.73	10.317
346.10	10.996
346.46	11.324
346.82	8.951
347.19	11.283
347.55	10.226
347.91	10.347
348.27	9.837
348.63	10.206
349.00	9.901
349.36	10.272
349.72	10.550
350.08	10.870
350.45	10.739
350.81	11.162
351.17	9.322
351.53	9.854
351.89	10.645
352.26	9.675
352.62	9.955
352.98	9.586
353.34	10.555
353.70	8.486
354.07	10.000
354.43	10.138
354.79	9.719
355.15	10.184
355.51	9.970
355.87	10.166
356.24	11.008
356.60	10.198
356.96	9.553
357.32	9.495
357.68	9.765
358.04	10.258
358.40	10.120
358.77	10.443
359.13	10.210
359.49	10.007
359.85	9.754
360.21	9.287
360.57	9.854
360.93	9.740
361.29	10.245
361.66	10.291
362.02	8.949
362.38	10.029
362.74	9.837
363.10	10.238
363.46	9.323
363.82	10.940
364.18	9.673
364.54	9.371
364.90	10.509
365.26	10.618
365.62	9.116
365.98	8.947
366.35	9.034
366.71	10.409
367.07	10.034
367.43	10.611
367.79	9.973
368.15	9.701
368.51	9.235
368.87	8.832
369.23	9.217
369.59	10.047
369.95	10.490
370.31	10.404
370.67	9.854
371.03	10.154
371.39	10.042
371.75	10.537
372.11	10.469
372.47	11.096
372.83	9.381
373.19	10.829
373.55	10.034
373.91	9.599
374.27	9.458
374.63	9.559
374.99	10.310
375.35	9.812
375.71	10.554
376.07	9.615
376.42	9.847
376.78	9.891
377.14	9.830
377.50	9.738
377.86	9.481
378.22	9.324
378.58	11.138
378.94	10.139
379.30	9.703
379.66	9.452
380.02	10.440
380.38	9.251
380.74	10.092
381.09	10.047
381.45	9.480
381.81	10.106
382.17	10.256
382.53	9.358
382.89	10.349
383.25	9.651
383.61	9.568
383.97	8.698
384.32	10.247
384.68	11.052
385.04	8.968
385.40	10.261
385.76	9.830
386.12	9.524
386.48	9.483
386.83	10.452
387.19	10.424
387.55	10.071
387.91	9.700
388.27	10.173
388.62	10.329
388.98	9.679
389.34	9.697
389.70	9.257
390.06	10.061
390.42	10.549
390.77	10.012
391.13	9.837
391.49	10.224
391.85	10.031
392.20	9.833
392.56	10.514
392.92	9.433
393.28	10.258
393.64	9.060
393.99	9.781
394.35	9.300
394.71	9.288
395.07	10.523
395.42	9.602
395.78	10.672
396.14	10.361
396.50	9.627
396.85	10.061
397.21	10.289
397.57	10.102
397.92	9.070
398.28	8.825
398.64	10.355
399.00	9.193
399.35	9.769
399.71	10.486
400.07	9.189
400.42	9.731
400.78	9.677
401.14	9.630
401.49	9.677
401.85	10.139
402.21	8.494
402.57	9.635
402.92	9.333
403.28	9.010
403.63	9.653
403.99	10.133
404.35	9.848
404.70	9.510
405.06	9.433
405.42	9.874
405.77	9.151
406.13	8.948
406.49	8.926
406.84	9.588
407.20	10.388
407.55	10.277
407.91	10.338
408.27	9.763
408.62	9.580
408.98	9.817
409.34	9.234
409.69	9.085
410.05	9.123
410.40	8.775
410.76	9.101
411.11	9.656
411.47	9.691
411.83	9.080
412.18	9.481
412.54	9.249
412.89	9.204
413.25	9.692
413.60	9.813
413.96	9.455
414.31	8.973
414.67	9.745
415.03	9.515
415.38	8.707
415.74	9.918
416.09	10.056
416.45	10.213
416.80	10.135
417.16	10.121
417.51	10.064
417.87	9.262
418.22	10.267
418.58	9.682
418.93	9.935
419.29	8.872
419.64	10.600
420.00	9.726
420.35	9.640
420.71	9.102
421.06	9.417
421.42	9.096
421.77	9.384
422.12	8.986
422.48	9.245
422.83	9.487
423.19	9.017
423.54	9.435
423.90	9.740
424.25	8.971
424.61	8.648
424.96	9.204
425.31	9.688
425.67	9.764
426.02	8.974
426.38	9.160
426.73	9.427
427.09	9.193
427.44	9.567
427.79	9.262
428.15	10.136
428.50	10.057
428.85	9.641
429.21	9.184
429.56	9.571
429.92	9.150
430.27	9.047
430.62	9.202
430.98	9.431
431.33	7.762
431.68	8.148
432.04	8.950
432.39	8.946
432.74	10.363
433.10	9.025
433.45	9.305
433.80	9.487
434.16	9.406
434.51	9.598
434.86	10.016
435.22	9.076
435.57	8.773
435.92	9.789
436.28	9.965
436.63	9.130
436.98	10.191
437.34	9.532
437.69	9.239
438.04	9.301
438.39	9.457
438.75	9.410
439.10	8.797
439.45	9.610
439.81	10.006
440.16	9.356
440.51	9.234
440.86	10.199
441.22	9.253
441.57	9.816
441.92	9.230
442.27	9.072
442.63	8.994
442.98	9.213
443.33	8.838
443.68	9.507
444.03	9.284
444.39	9.652
444.74	9.834
445.09	9.215
445.44	9.086
445.79	9.454
446.15	9.737
446.50	9.441
446.85	9.462
447.20	9.701
447.55	9.027
447.91	9.856
448.26	9.372
448.61	10.503
448.96	10.076
449.31	9.461
449.66	10.631
450.02	9.562
450.37	9.828
450.72	9.477
451.07	10.122
451.42	9.662
451.77	9.966
452.12	9.813
452.47	10.146
452.83	9.972
453.18	10.210
453.53	9.888
453.88	10.686
454.23	9.704
454.58	9.732
454.93	9.503
455.28	9.486
455.63	10.106
455.98	10.039
456.34	9.666
456.69	9.329
457.04	9.368
457.39	9.771
457.74	11.149
458.09	9.601
458.44	9.091
458.79	10.080
459.14	9.384
459.49	9.683
459.84	9.946
460.19	9.096
460.54	10.313
460.89	10.235
461.24	10.195
461.59	10.261
461.94	9.811
462.29	10.240
462.64	9.359
462.99	9.981
463.34	10.434
463.69	10.526
464.04	10.017
464.39	10.017
464.74	8.441
465.09	10.737
465.44	10.120
465.79	9.581
466.14	9.274
466.49	9.658
466.84	9.866
467.19	10.838
467.54	10.390
467.89	10.094
468.24	10.075
468.59	9.940
468.94	9.843
469.29	9.835
469.64	10.225
469.99	9.833
470.34	10.753
470.68	10.414
471.03	9.873
471.38	10.927
471.73	10.647
472.08	9.524
472.43	10.242
472.78	10.691
473.13	9.387
473.48	10.147
473.83	10.071
474.17	10.274
474.52	10.071
474.87	9.437
475.22	10.737
475.57	10.178
475.92	9.760
476.27	9.467
476.61	9.759
476.96	10.606
477.31	9.769
477.66	10.038
478.01	9.747
478.36	9.629
478.70	9.777
479.05	9.623
479.40	9.821
479.75	9.484
480.10	10.116
480.45	9.150
480.79	9.908
481.14	9.843
481.49	9.469
481.84	10.070
482.19	9.476
482.53	9.530
482.88	9.364
483.23	8.435
483.58	9.515
483.92	10.603
484.27	9.332
484.62	9.720
484.97	9.310
485.31	9.104
485.66	8.830
486.01	8.668
486.36	8.140
486.70	8.121
487.05	8.406
487.40	8.594
487.75	8.817
488.09	8.750
488.44	9.146
488.79	8.678
489.13	9.556
489.48	9.469
489.83	9.091
490.17	9.620
490.52	9.475
490.87	9.483
491.22	9.796
491.56	9.442
491.91	9.722
492.26	9.443
492.60	10.251
492.95	9.198
493.30	9.236
493.64	9.479
493.99	9.526
494.34	9.413
494.68	9.827
495.03	9.834
495.37	10.446
495.72	9.837
496.07	9.704
496.41	9.296
496.76	9.624
497.11	9.983
497.45	9.689
497.80	10.612
498.14	10.171
498.49	9.889
498.84	9.439
499.18	9.095
499.53	10.014
499.87	9.119
500.22	9.627
500.56	9.471
500.91	10.297
501.26	9.692
501.60	9.472
501.95	9.409
502.29	9.956
502.64	8.999
502.98	9.115
503.33	9.933
503.67	9.934
504.02	9.136
504.36	9.593
504.71	9.508
505.06	9.667
505.40	9.827
505.75	9.542
506.09	9.753
506.44	10.103
506.78	9.924
507.13	9.355
507.47	9.850
507.82	10.511
508.16	10.485
508.51	9.807
508.85	10.446
509.19	9.936
509.54	9.961
509.88	10.641
510.23	9.853
510.57	9.411
510.92	9.840
511.26	9.739
511.61	10.192
511.95	10.353
512.30	10.200
512.64	10.332
512.98	9.892
513.33	10.809
513.67	9.788
514.02	10.026
514.36	9.969
514.70	9.227
515.05	9.909
515.39	10.800
515.74	10.607
516.08	10.458
516.42	10.273
516.77	10.027
517.11	10.133
517.46	10.506
517.80	9.667
518.14	10.423
518.49	10.474
518.83	9.890
519.17	11.148
519.52	10.486
519.86	10.300
520.20	10.795
520.55	10.458
520.89	10.747
521.23	10.456
521.58	10.155
521.92	10.904
522.26	10.427
522.61	11.468
522.95	10.511
523.29	10.468
523.64	10.116
523.98	10.798
524.32	9.862
524.66	10.493
525.01	10.118
525.35	10.430
525.69	10.656
526.04	11.005
526.38	10.830
526.72	10.024
527.06	10.467
527.41	11.004
527.75	10.530
528.09	9.994
528.43	10.616
528.78	11.091
529.12	10.355
529.46	10.520
529.80	9.930
530.15	10.961
530.49	10.168
530.83	11.030
531.17	10.455
531.51	10.546
531.86	11.292
532.20	10.198
532.54	9.479
532.88	10.369
533.22	11.152
533.57	10.921
533.91	9.674
534.25	10.214
534.59	10.292
534.93	10.239
535.27	10.017
535.62	9.977
535.96	10.165
536.30	10.969
536.64	10.559
536.98	10.195
537.32	10.750
537.66	10.013
538.01	10.402
538.35	10.792
538.69	10.437
539.03	10.448
539.37	9.466
539.71	11.049
540.05	10.892
540.39	10.755
540.73	9.937
541.07	9.536
541.42	10.199
541.76	10.234
542.10	10.789
542.44	10.474
542.78	10.006
543.12	9.939
543.46	10.213
543.80	9.962
544.14	10.960
544.48	9.915
544.82	9.969
545.16	9.532
545.50	9.650
545.84	10.922
546.18	11.183
546.52	10.361
546.86	10.123
547.20	10.142
547.54	10.133
547.88	10.401
548.22	9.715
548.56	10.430
548.90	10.854
549.24	10.802
549.58	10.825
549.92	10.609
550.26	10.074
550.60	10.313
550.94	11.126
551.28	11.310
551.62	10.483
551.96	11.081
552.30	10.020
552.64	10.485
552.98	9.472
553.32	9.923
553.66	9.707
554.00	9.781
554.34	10.786
554.68	11.022
555.02	10.048
555.36	10.505
555.69	9.817
556.03	10.127
556.37	9.943
556.71	10.495
557.05	9.109
557.39	10.600
557.73	10.782
558.07	10.999
558.41	11.241
558.75	10.465
559.08	10.650
559.42	10.880
559.76	10.335
560.10	10.736
560.44	10.418
560.78	11.317
561.12	10.299
561.45	10.576
561.79	10.175
562.13	10.360
562.47	9.474
562.81	10.215
563.15	9.890
563.48	8.758
563.82	9.981
564.16	9.639
564.50	9.946
564.84	10.274
565.17	10.339
565.51	9.975
565.85	10.364
566.19	10.238
566.52	9.807
566.86	9.691
567.20	10.618
567.54	9.389
567.88	10.589
568.21	9.436
568.55	9.436
568.89	9.626
569.23	8.542
569.56	9.385
569.90	8.911
570.24	9.097
570.57	8.858
570.91	8.643
571.25	8.689
571.59	8.094
571.92	8.100
572.26	7.601
572.60	7.914
572.93	8.453
573.27	8.099
573.61	7.932
573.95	8.018
574.28	8.240
574.62	7.755
574.96	7.798
575.29	7.969
575.63	7.750
575.97	7.814
576.30	8.049
576.64	7.857
576.98	7.848
577.31	8.018
577.65	8.288
577.98	7.581
578.32	7.490
578.66	7.737
578.99	8.139
579.33	8.029
579.67	7.593
580.00	7.429
580.34	7.778
580.67	7.763
581.01	7.812
581.35	7.712
581.68	7.486
582.02	7.719
582.35	7.629
582.69	7.487
583.02	7.387
583.36	7.509
583.70	7.816
584.03	7.805
584.37	8.077
584.70	7.987
585.04	7.875
585.37	7.552
585.71	7.888
586.04	7.800
586.38	7.829
586.72	8.031
587.05	8.286
587.39	7.889
587.72	8.197
588.06	7.723
588.39	8.086
588.73	7.546
589.06	7.995
589.40	8.294
589.73	8.423
590.07	8.476
590.40	8.885
590.73	8.704
591.07	8.425
591.40	8.822
591.74	8.644
592.07	8.278
592.41	8.913
592.74	8.092
593.08	8.040
593.41	7.929
593.75	7.877
594.08	8.285
594.41	7.918
594.75	7.774
595.08	8.265
595.42	8.624
595.75	8.226
596.09	7.855
596.42	8.084
596.75	8.454
597.09	8.708
597.42	8.286
597.75	8.032
598.09	8.371
598.42	7.915
598.76	8.327
599.09	8.900
599.42	8.304
599.76	8.480
600.09	7.729
600.42	8.184
600.76	7.818
601.09	7.974
601.42	8.096
601.76	8.199
602.09	8.131
602.42	8.466
602.76	8.805
603.09	7.919
603.42	8.734
603.76	8.243
604.09	8.107
604.42	8.249
604.76	8.495
605.09	8.653
605.42	8.736
605.75	8.606
606.09	8.225
606.42	8.080
606.75	8.356
607.09	8.172
607.42	8.678
607.75	8.161
608.08	8.448
608.42	9.060
608.75	8.301
609.08	8.183
609.41	8.227
609.75	8.196
610.08	8.183
610.41	8.213
610.74	8.442
611.07	8.549
611.41	8.665
611.74	7.983
612.07	8.285
612.40	8.869
612.73	9.186
613.07	9.072
613.40	8.521
613.73	8.687
614.06	7.800
614.39	9.444
614.72	8.990
615.06	9.298
615.39	8.812
615.72	8.858
616.05	9.543
616.38	9.386
616.71	8.899
617.05	9.006
617.38	8.483
617.71	8.830
618.04	9.198
618.37	9.005
618.70	9.122
619.03	8.364
619.36	10.050
619.69	9.103
620.03	10.959
620.36	9.762
620.69	10.089
621.02	9.307
621.35	9.097
621.68	9.366
622.01	10.480
622.34	9.323
622.67	9.551
623.00	9.939
623.33	9.447
623.66	9.248
623.99	9.726
624.32	9.282
624.65	9.348
624.99	9.128
625.32	9.619
625.65	9.310
625.98	9.135
626.31	9.718
626.64	9.795
626.97	9.487
627.30	9.783
627.63	10.440
627.96	9.077
628.29	9.983
628.62	9.752
628.95	9.752
629.28	10.868
629.61	9.930
629.94	10.372
630.26	9.879
630.59	10.993
630.92	10.314
631.25	11.242
631.58	9.740
631.91	9.990
632.24	10.107
632.57	10.609
632.90	10.248
633.23	12.277
633.56	11.591
633.89	10.397
634.22	11.841
634.55	10.645
634.88	12.486
635.20	11.659
635.53	11.847
635.86	11.633
636.19	10.213
636.52	11.568
636.85	11.003
637.18	11.593
637.51	11.285
637.83	9.954
638.16	11.723
638.49	11.138
638.82	11.150
639.15	10.106
639.48	11.137
639.81	11.722
640.13	12.147
640.46	12.010
640.79	12.354
641.12	11.811
641.45	12.031
641.77	12.550
642.10	12.584
642.43	11.522
642.76	9.943
643.09	10.519
643.41	12.763
643.74	13.813
644.07	12.684
644.40	11.982
644.73	12.162
645.05	14.413
645.38	12.404
