SpectraSuite Data File
++++++++++++++++++++++++++++++++++++
Date: Tue May 12 15:23:07 PDT 2015
User: schluterlab
Dark Spectrum Present: Yes
Reference Spectrum Present: Yes
Number of Sampled Component Spectra: 1
Spectrometers: USB2E3373
Integration Time (usec): 3000 (USB2E3373)
Spectra Averaged: 3 (USB2E3373)
Boxcar Smoothing: 0 (USB2E3373)
Correct for Electrical Dark: No (USB2E3373)
Strobe/Lamp Enabled: No (USB2E3373)
Correct for Detector Non-linearity: No (USB2E3373)
Correct for Stray Light: No (USB2E3373)
Number of Pixels in Processed Spectrum: 2048
>>>>>Begin Processed Spectral Data<<<<<
178.53	0.000
178.91	-241.667
179.29	-825.000
179.67	-3500.000
180.04	-200.000
180.42	675.000
180.80	1900.000
181.18	0.000
181.56	-250.000
181.94	0.000
182.31	1100.000
182.69	-3400.000
183.07	557.143
183.45	-3900.000
183.83	-1750.000
184.20	380.000
184.58	614.286
184.96	-238.462
185.34	-241.667
185.72	1500.000
186.09	-1025.000
186.47	-2900.000
186.85	1266.667
187.23	640.000
187.61	2050.000
187.98	462.500
188.36	271.429
188.74	341.667
189.12	300.000
189.49	900.000
189.87	0.000
190.25	462.500
190.63	2800.000
191.00	-216.667
191.38	-4000.000
191.76	-650.000
192.14	525.000
192.51	-3400.000
192.89	1850.000
193.27	933.333
193.65	-966.667
194.02	-620.000
194.40	442.857
194.78	-200.000
195.15	246.667
195.53	-2600.000
195.91	-380.000
196.29	4200.000
196.66	268.750
197.04	775.000
197.42	-1750.000
197.79	450.000
198.17	350.000
198.55	0.000
198.92	557.143
199.30	1200.000
199.68	1850.000
200.05	750.000
200.43	-533.333
200.81	216.667
201.18	3400.000
201.56	325.000
201.94	-775.000
202.31	-312.500
202.69	-540.000
203.07	2200.000
203.44	-433.333
203.82	291.667
204.19	560.000
204.57	-1050.000
204.95	-600.000
205.32	-700.000
205.70	700.000
206.08	725.000
206.45	-833.333
206.83	433.333
207.20	200.000
207.58	258.333
207.96	740.000
208.33	0.000
208.71	585.714
209.08	700.000
209.46	-2900.000
209.84	-525.000
210.21	780.000
210.59	-700.000
210.96	250.000
211.34	-825.000
211.71	472.727
212.09	900.000
212.46	1500.000
212.84	-483.333
213.22	433.333
213.59	-3000.000
213.97	360.000
214.34	875.000
214.72	1333.333
215.09	933.333
215.47	-3400.000
215.84	-250.000
216.22	-375.000
216.59	0.000
216.97	0.000
217.34	1900.000
217.72	-1350.000
218.09	1033.333
218.47	425.000
218.84	750.000
219.22	866.667
219.59	633.333
219.97	542.857
220.34	333.333
220.72	1350.000
221.09	3300.000
221.47	266.667
221.84	1066.667
222.22	400.000
222.59	211.111
222.97	307.143
223.34	268.750
223.72	-1200.000
224.09	1033.333
224.46	230.769
224.84	-775.000
225.21	377.778
225.59	293.333
225.96	1233.333
226.34	-700.000
226.71	-700.000
227.08	-480.000
227.46	0.000
227.83	-516.667
228.21	-1300.000
228.58	333.333
228.95	1100.000
229.33	411.111
229.70	850.000
230.08	430.769
230.45	3400.000
230.82	-775.000
231.20	-900.000
231.57	-1266.667
231.95	540.000
232.32	316.667
232.69	450.000
233.07	308.333
233.44	-1300.000
233.81	240.000
234.19	170.370
234.56	206.250
234.93	200.000
235.31	240.000
235.68	281.250
236.05	164.286
236.43	151.852
236.80	257.143
237.17	144.828
237.55	109.375
237.92	130.000
238.29	115.152
238.67	128.125
239.04	117.073
239.41	91.667
239.79	110.000
240.16	58.333
240.53	60.656
240.91	73.913
241.28	91.525
241.65	62.121
242.02	85.915
242.40	72.857
242.77	61.538
243.14	55.696
243.51	66.667
243.89	52.336
244.26	63.551
244.63	63.366
245.00	66.055
245.38	44.068
245.75	56.818
246.12	51.852
246.49	43.262
246.87	45.902
247.24	46.667
247.61	48.750
247.98	53.741
248.36	50.303
248.73	47.959
249.10	38.690
249.47	47.000
249.84	38.806
250.22	50.270
250.59	42.000
250.96	40.506
251.33	38.605
251.70	44.196
252.08	43.277
252.45	41.434
252.82	38.403
253.19	40.711
253.56	38.462
253.94	39.130
254.31	38.372
254.68	41.812
255.05	38.621
255.42	40.511
255.79	38.762
256.16	40.000
256.54	36.364
256.91	37.582
257.28	36.789
257.65	35.423
258.02	33.923
258.39	36.676
258.76	39.710
259.14	32.857
259.51	37.901
259.88	36.474
260.25	33.242
260.62	35.616
260.99	33.333
261.36	33.148
261.73	34.043
262.10	39.267
262.47	35.500
262.85	31.467
263.22	36.761
263.59	36.061
263.96	34.085
264.33	32.099
264.70	35.627
265.07	34.390
265.44	34.174
265.81	36.085
266.18	32.723
266.55	31.206
266.92	36.018
267.29	36.184
267.66	30.942
268.03	35.650
268.40	33.192
268.77	33.921
269.14	31.236
269.51	32.962
269.88	33.469
270.25	32.397
270.62	33.047
270.99	34.686
271.36	34.756
271.73	27.254
272.10	32.929
272.47	33.929
272.84	31.138
273.21	30.165
273.58	32.996
273.95	30.801
274.32	31.518
274.69	34.252
275.06	32.423
275.43	32.567
275.80	31.887
276.17	29.963
276.54	35.140
276.91	34.142
277.28	31.569
277.65	32.841
278.02	29.779
278.39	30.036
278.76	30.172
279.13	30.249
279.50	32.000
279.87	31.471
280.23	30.387
280.60	32.299
280.97	29.655
281.34	31.188
281.71	31.478
282.08	30.427
282.45	29.899
282.82	29.599
283.19	30.207
283.56	31.901
283.92	31.759
284.29	30.782
284.66	30.756
285.03	31.177
285.40	28.264
285.77	28.858
286.14	30.341
286.51	29.601
286.87	28.323
287.24	28.679
287.61	31.155
287.98	28.358
288.35	31.259
288.72	28.680
289.08	28.829
289.45	30.640
289.82	29.219
290.19	29.136
290.56	31.150
290.93	28.921
291.29	26.657
291.66	28.390
292.03	28.892
292.40	28.726
292.77	27.298
293.13	28.245
293.50	29.285
293.87	28.320
294.24	28.252
294.60	30.013
294.97	29.231
295.34	28.420
295.71	26.413
296.08	27.200
296.44	27.954
296.81	27.047
297.18	25.729
297.55	28.325
297.91	27.709
298.28	26.691
298.65	26.626
299.02	25.452
299.38	26.859
299.75	26.220
300.12	27.294
300.48	27.283
300.85	28.129
301.22	27.558
301.59	25.943
301.95	24.854
302.32	26.775
302.69	28.167
303.05	28.732
303.42	25.224
303.79	27.736
304.15	26.513
304.52	25.476
304.89	26.759
305.25	27.697
305.62	26.546
305.99	27.500
306.35	25.895
306.72	28.304
307.09	25.569
307.45	26.610
307.82	25.412
308.19	26.804
308.55	25.600
308.92	27.674
309.29	27.022
309.65	27.354
310.02	26.876
310.38	26.221
310.75	27.290
311.12	26.341
311.48	25.676
311.85	25.954
312.22	27.030
312.58	26.822
312.95	25.340
313.31	26.498
313.68	27.767
314.05	27.564
314.41	26.723
314.78	26.989
315.14	27.109
315.51	28.288
315.87	27.464
316.24	26.144
316.61	26.500
316.97	26.789
317.34	26.774
317.70	26.251
318.07	27.046
318.43	26.362
318.80	26.883
319.16	27.098
319.53	25.310
319.89	26.254
320.26	28.119
320.62	27.656
320.99	26.787
321.35	28.015
321.72	28.843
322.08	28.532
322.45	26.521
322.81	26.990
323.18	27.442
323.54	28.484
323.91	27.924
324.27	27.233
324.64	26.903
325.00	27.759
325.37	27.825
325.73	28.078
326.10	28.583
326.46	27.415
326.83	26.640
327.19	28.514
327.56	27.955
327.92	28.361
328.29	27.578
328.65	28.510
329.01	28.315
329.38	28.003
329.74	27.242
330.11	28.758
330.47	27.962
330.84	26.575
331.20	28.257
331.56	28.497
331.93	27.802
332.29	26.446
332.66	27.976
333.02	27.148
333.38	27.749
333.75	28.023
334.11	26.510
334.48	26.752
334.84	27.618
335.20	26.775
335.57	27.036
335.93	27.923
336.29	26.783
336.66	28.731
337.02	26.946
337.38	27.171
337.75	27.787
338.11	27.173
338.47	27.265
338.84	27.519
339.20	26.147
339.56	26.241
339.93	25.669
340.29	25.882
340.65	27.158
341.02	27.755
341.38	27.011
341.74	26.412
342.11	26.544
342.47	25.841
342.83	26.005
343.20	26.597
343.56	24.464
343.92	26.424
344.28	26.077
344.65	27.302
345.01	25.079
345.37	25.801
345.73	25.317
346.10	24.781
346.46	25.917
346.82	25.231
347.19	27.048
347.55	25.527
347.91	25.000
348.27	24.632
348.63	25.870
349.00	25.209
349.36	25.370
349.72	26.529
350.08	26.242
350.45	24.752
350.81	25.994
351.17	24.884
351.53	25.635
351.89	25.097
352.26	24.792
352.62	25.716
352.98	25.920
353.34	26.425
353.70	24.465
354.07	24.308
354.43	25.269
354.79	24.981
355.15	24.273
355.51	24.622
355.87	24.699
356.24	25.173
356.60	24.429
356.96	24.564
357.32	24.265
357.68	25.037
358.04	25.152
358.40	25.262
358.77	24.793
359.13	24.775
359.49	24.981
359.85	24.646
360.21	23.105
360.57	24.745
360.93	24.459
361.29	23.882
361.66	25.727
362.02	24.077
362.38	24.026
362.74	24.912
363.10	25.526
363.46	23.757
363.82	25.947
364.18	24.111
364.54	24.464
364.90	24.833
365.26	24.844
365.62	24.033
365.98	23.882
366.35	24.069
366.71	24.705
367.07	24.710
367.43	23.506
367.79	24.468
368.15	23.474
368.51	24.397
368.87	24.185
369.23	23.839
369.59	24.208
369.95	24.895
370.31	23.888
370.67	24.080
371.03	25.700
371.39	24.515
371.75	24.285
372.11	23.793
372.47	23.904
372.83	24.745
373.19	24.400
373.55	23.918
373.91	22.997
374.27	23.214
374.63	24.203
374.99	24.461
375.35	24.731
375.71	23.813
376.07	24.005
376.42	23.529
376.78	23.699
377.14	24.902
377.50	23.096
377.86	23.639
378.22	24.254
378.58	24.213
378.94	23.718
379.30	23.529
379.66	23.961
380.02	23.460
380.38	23.009
380.74	22.837
381.09	23.715
381.45	24.162
381.81	23.877
382.17	23.016
382.53	23.095
382.89	23.004
383.25	23.446
383.61	22.594
383.97	23.215
384.32	23.388
384.68	23.589
385.04	22.743
385.40	23.310
385.76	22.177
386.12	23.377
386.48	23.647
386.83	22.372
387.19	23.793
387.55	23.852
387.91	23.268
388.27	23.676
388.62	23.357
388.98	21.983
389.34	23.260
389.70	22.877
390.06	22.744
390.42	23.010
390.77	22.482
391.13	23.355
391.49	23.291
391.85	22.892
392.20	22.825
392.56	23.656
392.92	22.684
393.28	22.085
393.64	21.904
393.99	22.822
394.35	22.484
394.71	22.376
395.07	22.384
395.42	22.775
395.78	23.381
396.14	23.614
396.50	22.563
396.85	22.561
397.21	22.804
397.57	23.072
397.92	21.548
398.28	22.063
398.64	22.164
399.00	21.325
399.35	21.095
399.71	22.020
400.07	22.260
400.42	22.328
400.78	22.053
401.14	22.431
401.49	22.005
401.85	21.842
402.21	22.086
402.57	21.364
402.92	21.333
403.28	21.062
403.63	21.130
403.99	22.376
404.35	22.216
404.70	22.682
405.06	21.561
405.42	21.783
405.77	21.334
406.13	21.638
406.49	21.205
406.84	20.756
407.20	22.203
407.55	21.477
407.91	22.591
408.27	22.317
408.62	22.176
408.98	21.585
409.34	20.865
409.69	20.162
410.05	20.930
410.40	20.612
410.76	21.236
411.11	21.801
411.47	21.111
411.83	20.328
412.18	21.316
412.54	21.381
412.89	21.003
413.25	20.924
413.60	21.437
413.96	21.245
414.31	21.251
414.67	22.036
415.03	20.754
415.38	21.199
415.74	20.657
416.09	21.611
416.45	21.526
416.80	22.771
417.16	21.260
417.51	20.892
417.87	21.026
418.22	21.507
418.58	21.465
418.93	21.416
419.29	20.702
419.64	21.139
420.00	21.659
420.35	20.557
420.71	21.120
421.06	20.895
421.42	20.956
421.77	21.266
422.12	21.224
422.48	20.647
422.83	21.540
423.19	21.382
423.54	21.119
423.90	21.574
424.25	20.583
424.61	21.590
424.96	21.287
425.31	21.237
425.67	21.156
426.02	21.032
426.38	21.062
426.73	21.689
427.09	22.183
427.44	20.653
427.79	20.812
428.15	21.862
428.50	22.286
428.85	21.223
429.21	21.610
429.56	21.685
429.92	21.283
430.27	20.948
430.62	20.705
430.98	20.808
431.33	20.716
431.68	20.444
432.04	21.055
432.39	21.131
432.74	22.658
433.10	21.429
433.45	21.827
433.80	22.063
434.16	21.545
434.51	21.878
434.86	22.918
435.22	21.394
435.57	22.881
435.92	23.221
436.28	22.062
436.63	22.312
436.98	22.241
437.34	23.288
437.69	21.389
438.04	21.989
438.39	22.767
438.75	22.216
439.10	22.126
439.45	21.990
439.81	22.499
440.16	21.739
440.51	22.241
440.86	21.880
441.22	22.673
441.57	23.045
441.92	21.816
442.27	21.598
442.63	22.307
442.98	21.821
443.33	22.389
443.68	22.384
444.03	22.290
444.39	22.505
444.74	22.153
445.09	22.222
445.44	22.370
445.79	22.515
446.15	21.895
446.50	22.521
446.85	22.012
447.20	21.244
447.55	22.132
447.91	23.335
448.26	22.790
448.61	22.830
448.96	23.094
449.31	21.617
449.66	23.311
450.02	22.420
450.37	22.321
450.72	22.204
451.07	22.746
451.42	23.711
451.77	22.852
452.12	23.313
452.47	23.512
452.83	23.155
453.18	23.243
453.53	23.623
453.88	22.457
454.23	23.126
454.58	22.902
454.93	22.563
455.28	23.133
455.63	23.050
455.98	22.279
456.34	23.951
456.69	22.012
457.04	22.971
457.39	23.029
457.74	23.255
458.09	22.965
458.44	22.618
458.79	22.546
459.14	21.877
459.49	22.990
459.84	23.098
460.19	22.994
460.54	23.134
460.89	23.134
461.24	23.253
461.59	22.902
461.94	21.986
462.29	22.712
462.64	23.555
462.99	23.225
463.34	23.720
463.69	23.170
464.04	23.201
464.39	23.526
464.74	23.212
465.09	22.519
465.44	22.470
465.79	21.992
466.14	21.993
466.49	22.518
466.84	23.133
467.19	23.784
467.54	22.943
467.89	23.533
468.24	22.583
468.59	22.381
468.94	22.886
469.29	23.580
469.64	23.280
469.99	23.201
470.34	22.897
470.68	22.759
471.03	24.083
471.38	23.046
471.73	23.449
472.08	24.266
472.43	23.774
472.78	22.983
473.13	22.466
473.48	24.022
473.83	22.850
474.17	22.553
474.52	23.164
474.87	22.740
475.22	22.559
475.57	22.613
475.92	22.841
476.27	22.144
476.61	22.413
476.96	23.145
477.31	22.725
477.66	23.618
478.01	22.125
478.36	22.606
478.70	21.935
479.05	22.280
479.40	22.222
479.75	22.790
480.10	22.991
480.45	22.222
480.79	21.843
481.14	22.111
481.49	21.546
481.84	22.164
482.19	22.358
482.53	21.783
482.88	21.729
483.23	22.057
483.58	21.993
483.92	23.126
484.27	22.046
484.62	22.496
484.97	21.426
485.31	21.486
485.66	21.060
486.01	20.796
486.36	20.817
486.70	20.467
487.05	20.975
487.40	20.750
487.75	21.291
488.09	21.420
488.44	21.415
488.79	21.937
489.13	22.210
489.48	21.774
489.83	21.018
490.17	21.552
490.52	22.308
490.87	22.241
491.22	21.676
491.56	22.398
491.91	22.088
492.26	22.004
492.60	22.096
492.95	21.160
493.30	21.975
493.64	21.653
493.99	21.825
494.34	21.381
494.68	21.824
495.03	22.182
495.37	22.332
495.72	22.517
496.07	22.058
496.41	21.546
496.76	21.781
497.11	22.065
497.45	21.482
497.80	22.521
498.14	21.960
498.49	21.634
498.84	22.897
499.18	21.435
499.53	21.819
499.87	21.429
500.22	21.557
500.56	21.773
500.91	22.403
501.26	21.957
501.60	21.494
501.95	21.326
502.29	21.956
502.64	21.570
502.98	20.809
503.33	21.292
503.67	21.987
504.02	21.585
504.36	21.629
504.71	22.044
505.06	21.774
505.40	21.806
505.75	20.814
506.09	22.165
506.44	22.368
506.78	22.164
507.13	21.474
507.47	21.446
507.82	22.725
508.16	22.391
508.51	21.932
508.85	21.605
509.19	22.124
509.54	21.436
509.88	22.775
510.23	22.010
510.57	21.284
510.92	22.278
511.26	21.837
511.61	21.270
511.95	22.200
512.30	21.550
512.64	21.703
512.98	21.271
513.33	21.670
513.67	22.372
514.02	21.922
514.36	21.547
514.70	21.760
515.05	22.216
515.39	21.656
515.74	22.253
516.08	21.950
516.42	22.404
516.77	21.867
517.11	22.240
517.46	22.252
517.80	20.863
518.14	22.986
518.49	21.720
518.83	21.154
519.17	21.575
519.52	22.556
519.86	22.507
520.20	22.740
520.55	22.216
520.89	22.184
521.23	22.547
521.58	21.343
521.92	21.633
522.26	22.512
522.61	22.222
522.95	23.063
523.29	21.754
523.64	21.329
523.98	22.183
524.32	22.261
524.66	22.203
525.01	21.361
525.35	21.273
525.69	21.553
526.04	21.832
526.38	21.778
526.72	21.599
527.06	21.171
527.41	21.584
527.75	22.337
528.09	20.891
528.43	22.270
528.78	21.407
529.12	21.674
529.46	21.566
529.80	20.911
530.15	21.685
530.49	21.239
530.83	21.024
531.17	21.033
531.51	21.950
531.86	21.437
532.20	21.137
532.54	20.402
532.88	22.174
533.22	20.963
533.57	21.660
533.91	20.804
534.25	20.600
534.59	20.760
534.93	21.217
535.27	20.489
535.62	19.837
535.96	21.395
536.30	21.694
536.64	21.429
536.98	21.901
537.32	21.312
537.66	20.727
538.01	21.362
538.35	22.645
538.69	20.874
539.03	20.896
539.37	21.845
539.71	22.284
540.05	20.738
540.39	22.390
540.73	21.392
541.07	20.326
541.42	20.833
541.76	21.270
542.10	21.825
542.44	21.384
542.78	20.705
543.12	20.798
543.46	20.489
543.80	21.241
544.14	22.291
544.48	21.046
544.82	21.468
545.16	20.097
545.50	21.942
545.84	21.149
546.18	21.391
546.52	21.705
546.86	21.083
547.20	20.930
547.54	20.836
547.88	21.046
548.22	21.008
548.56	21.803
548.90	20.463
549.24	21.289
549.58	20.683
549.92	21.611
550.26	20.690
550.60	21.690
550.94	21.710
551.28	20.759
551.62	22.000
551.96	20.743
552.30	19.644
552.64	20.324
552.98	19.781
553.32	20.743
553.66	19.935
554.00	21.622
554.34	21.838
554.68	21.640
555.02	21.589
555.36	21.144
555.69	21.597
556.03	21.720
556.37	20.905
556.71	21.447
557.05	20.380
557.39	20.067
557.73	21.159
558.07	20.926
558.41	21.316
558.75	21.409
559.08	20.729
559.42	20.401
559.76	21.454
560.10	20.785
560.44	20.438
560.78	20.013
561.12	21.488
561.45	20.588
561.79	20.287
562.13	21.099
562.47	21.090
562.81	21.145
563.15	21.008
563.48	19.876
563.82	20.898
564.16	21.704
564.50	19.831
564.84	20.912
565.17	20.499
565.51	21.798
565.85	20.851
566.19	21.012
566.52	19.795
566.86	20.432
567.20	20.449
567.54	20.360
567.88	21.544
568.21	19.571
568.55	20.039
568.89	20.255
569.23	19.715
569.56	19.848
569.90	19.008
570.24	20.000
570.57	19.338
570.91	18.783
571.25	18.416
571.59	19.459
571.92	18.730
572.26	18.221
572.60	18.245
572.93	18.775
573.27	19.041
573.61	18.950
573.95	18.650
574.28	19.147
574.62	18.142
574.96	18.151
575.29	18.814
575.63	18.280
575.97	18.160
576.30	18.198
576.64	18.779
576.98	18.691
577.31	19.127
577.65	18.659
577.98	18.357
578.32	18.021
578.66	17.943
578.99	18.565
579.33	18.629
579.67	18.301
580.00	18.184
580.34	18.149
580.67	18.054
581.01	18.828
581.35	18.147
581.68	18.300
582.02	18.089
582.35	18.103
582.69	18.318
583.02	18.324
583.36	18.498
583.70	18.607
584.03	18.693
584.37	18.829
584.70	19.035
585.04	18.463
585.37	18.440
585.71	18.787
586.04	18.381
586.38	18.315
586.72	18.790
587.05	18.888
587.39	18.989
587.72	18.907
588.06	18.674
588.39	18.654
588.73	18.796
589.06	18.909
589.40	19.311
589.73	18.912
590.07	19.183
590.40	19.199
590.73	19.647
591.07	19.772
591.40	19.441
591.74	19.886
592.07	18.594
592.41	19.864
592.74	18.491
593.08	18.978
593.41	18.851
593.75	18.594
594.08	19.002
594.41	18.214
594.75	19.041
595.08	18.656
595.42	18.927
595.75	19.085
596.09	19.291
596.42	19.082
596.75	20.272
597.09	19.975
597.42	19.184
597.75	19.108
598.09	19.081
598.42	18.768
598.76	19.121
599.09	19.125
599.42	18.720
599.76	18.996
600.09	18.339
600.42	19.302
600.76	18.491
601.09	18.778
601.42	18.937
601.76	18.511
602.09	19.757
602.42	18.595
602.76	19.127
603.09	19.231
603.42	19.523
603.76	18.402
604.09	18.820
604.42	18.832
604.76	19.004
605.09	19.184
605.42	19.098
605.75	19.187
606.09	19.128
606.42	19.316
606.75	19.199
607.09	18.989
607.42	18.602
607.75	18.869
608.08	18.806
608.42	19.211
608.75	18.785
609.08	18.170
609.41	19.364
609.75	19.185
610.08	18.750
610.41	18.884
610.74	19.437
611.07	20.100
611.41	19.370
611.74	19.359
612.07	19.027
612.40	18.665
612.73	19.521
613.07	19.970
613.40	19.499
613.73	20.170
614.06	19.750
614.39	19.545
614.72	19.689
615.06	18.694
615.39	19.950
615.72	18.345
616.05	19.588
616.38	19.026
616.71	18.991
617.05	19.055
617.38	18.652
617.71	20.022
618.04	20.135
618.37	19.400
618.70	19.746
619.03	19.231
619.36	19.849
619.69	20.317
620.03	21.070
620.36	19.846
620.69	20.817
621.02	20.516
621.35	20.415
621.68	20.944
622.01	20.886
622.34	19.956
622.67	20.997
623.00	18.924
623.33	20.108
623.66	20.559
623.99	20.411
624.32	19.580
624.65	19.618
624.99	20.622
625.32	20.775
625.65	17.724
625.98	19.944
626.31	20.030
626.64	18.831
626.97	19.510
627.30	19.410
627.63	20.644
627.96	19.953
628.29	20.627
628.62	19.247
628.95	20.745
629.28	21.472
629.61	19.596
629.94	19.965
630.26	21.057
630.59	22.074
630.92	20.090
631.25	20.852
