SpectraSuite Data File
++++++++++++++++++++++++++++++++++++
Date: Tue May 12 16:54:59 PDT 2015
User: schluterlab
Dark Spectrum Present: Yes
Reference Spectrum Present: Yes
Number of Sampled Component Spectra: 1
Spectrometers: USB2E3373
Integration Time (usec): 3000 (USB2E3373)
Spectra Averaged: 3 (USB2E3373)
Boxcar Smoothing: 0 (USB2E3373)
Correct for Electrical Dark: No (USB2E3373)
Strobe/Lamp Enabled: No (USB2E3373)
Correct for Detector Non-linearity: No (USB2E3373)
Correct for Stray Light: No (USB2E3373)
Number of Pixels in Processed Spectrum: 2048
>>>>>Begin Processed Spectral Data<<<<<
178.53	0.000
178.91	-191.667
179.29	-525.000
179.67	-3600.000
180.04	-166.667
180.42	725.000
180.80	1900.000
181.18	0.000
181.56	-162.500
181.94	0.000
182.31	1066.667
182.69	-3400.000
183.07	642.857
183.45	-3600.000
183.83	-1100.000
184.20	280.000
184.58	428.571
184.96	-253.846
185.34	-158.333
185.72	1550.000
186.09	-500.000
186.47	-3300.000
186.85	1033.333
187.23	560.000
187.61	1400.000
187.98	587.500
188.36	250.000
188.74	300.000
189.12	308.333
189.49	850.000
189.87	0.000
190.25	400.000
190.63	2900.000
191.00	-208.333
191.38	-3600.000
191.76	-850.000
192.14	425.000
192.51	-2500.000
192.89	1550.000
193.27	1000.000
193.65	-566.667
194.02	-780.000
194.40	471.429
194.78	-164.286
195.15	313.333
195.53	-2900.000
195.91	-560.000
196.29	2900.000
196.66	237.500
197.04	700.000
197.42	-1600.000
197.79	575.000
198.17	300.000
198.55	0.000
198.92	400.000
199.30	700.000
199.68	1750.000
200.05	600.000
200.43	-433.333
200.81	205.556
201.18	3400.000
201.56	258.333
201.94	-650.000
202.31	-300.000
202.69	-500.000
203.07	2900.000
203.44	-450.000
203.82	283.333
204.19	840.000
204.57	-1600.000
204.95	-825.000
205.32	-580.000
205.70	450.000
206.08	625.000
206.45	-733.333
206.83	311.111
207.20	152.632
207.58	266.667
207.96	760.000
208.33	0.000
208.71	457.143
209.08	540.000
209.46	-3400.000
209.84	-975.000
210.21	520.000
210.59	-660.000
210.96	316.667
211.34	-600.000
211.71	363.636
212.09	800.000
212.46	1700.000
212.84	-400.000
213.22	300.000
213.59	-1500.000
213.97	260.000
214.34	700.000
214.72	1000.000
215.09	1033.333
215.47	-2300.000
215.84	-320.000
216.22	-387.500
216.59	0.000
216.97	0.000
217.34	1000.000
217.72	-1500.000
218.09	1366.667
218.47	400.000
218.84	925.000
219.22	966.667
219.59	833.333
219.97	528.571
220.34	311.111
220.72	1800.000
221.09	3700.000
221.47	183.333
221.84	966.667
222.22	430.000
222.59	266.667
222.97	200.000
223.34	193.750
223.72	-1600.000
224.09	1300.000
224.46	361.538
224.84	-825.000
225.21	411.111
225.59	333.333
225.96	966.667
226.34	-560.000
226.71	-600.000
227.08	-560.000
227.46	0.000
227.83	-350.000
228.21	-1450.000
228.58	250.000
228.95	950.000
229.33	377.778
229.70	1075.000
230.08	246.154
230.45	2500.000
230.82	-675.000
231.20	-1066.667
231.57	-1033.333
231.95	400.000
232.32	300.000
232.69	550.000
233.07	191.667
233.44	-1100.000
233.81	273.333
234.19	159.259
234.56	237.500
234.93	129.412
235.31	175.000
235.68	212.500
236.05	150.000
236.43	144.444
236.80	207.143
237.17	158.621
237.55	100.000
237.92	102.500
238.29	96.970
238.67	106.250
239.04	97.561
239.41	72.917
239.79	77.500
240.16	100.000
240.53	80.328
240.91	52.174
241.28	61.017
241.65	59.091
242.02	52.113
242.40	70.000
242.77	52.747
243.14	41.772
243.51	59.596
243.89	44.860
244.26	50.467
244.63	44.554
245.00	44.954
245.38	36.441
245.75	40.152
246.12	45.185
246.49	35.461
246.87	24.590
247.24	43.333
247.61	37.500
247.98	36.054
248.36	31.515
248.73	34.694
249.10	27.976
249.47	26.500
249.84	28.856
250.22	30.811
250.59	32.500
250.96	31.224
251.33	23.256
251.70	25.893
252.08	28.571
252.45	25.100
252.82	29.658
253.19	25.692
253.56	23.846
253.94	25.725
254.31	24.806
254.68	28.223
255.05	27.586
255.42	24.453
255.79	23.127
256.16	25.085
256.54	23.701
256.91	24.183
257.28	21.405
257.65	23.511
258.02	19.764
258.39	26.074
258.76	24.348
259.14	24.000
259.51	22.157
259.88	24.012
260.25	19.231
260.62	23.014
260.99	21.212
261.36	22.284
261.73	21.277
262.10	23.560
262.47	22.750
262.85	21.067
263.22	23.650
263.59	23.529
263.96	23.810
264.33	20.988
264.70	20.147
265.07	20.732
265.44	21.101
265.81	20.047
266.18	22.654
266.55	21.277
266.92	18.568
267.29	20.833
267.66	20.628
268.03	18.386
268.40	19.239
268.77	22.687
269.14	18.004
269.51	20.490
269.88	21.224
270.25	18.143
270.62	21.245
270.99	17.850
271.36	20.935
271.73	18.449
272.10	19.192
272.47	17.063
272.84	18.164
273.21	18.802
273.58	21.053
273.95	17.248
274.32	20.817
274.69	19.291
275.06	20.036
275.43	17.816
275.80	16.792
276.17	18.015
276.54	20.000
276.91	19.963
277.28	17.518
277.65	19.188
278.02	17.096
278.39	17.266
278.76	18.103
279.13	17.438
279.50	17.273
279.87	19.181
280.23	18.600
280.60	18.066
280.97	17.414
281.34	18.812
281.71	17.913
282.08	18.120
282.45	19.764
282.82	18.395
283.19	18.283
283.56	17.355
283.92	18.078
284.29	18.469
284.66	17.479
285.03	19.569
285.40	15.702
285.77	17.438
286.14	17.028
286.51	17.638
286.87	16.772
287.24	14.865
287.61	16.565
287.98	16.418
288.35	17.778
288.72	16.237
289.08	16.066
289.45	17.073
289.82	17.344
290.19	16.545
290.56	17.031
290.93	15.971
291.29	17.403
291.66	14.689
292.03	15.849
292.40	15.176
292.77	13.231
293.13	15.692
293.50	15.924
293.87	13.686
294.24	16.643
294.60	16.555
294.97	14.685
295.34	14.210
295.71	15.375
296.08	16.133
296.44	14.485
296.81	13.524
297.18	13.561
297.55	13.424
297.91	12.685
298.28	14.614
298.65	14.233
299.02	13.872
299.38	14.628
299.75	13.049
300.12	14.335
300.48	14.637
300.85	14.660
301.22	13.953
301.59	14.269
301.95	12.135
302.32	14.668
302.69	13.235
303.05	14.927
303.42	12.108
303.79	14.410
304.15	14.081
304.52	13.848
304.89	12.687
305.25	13.904
305.62	13.433
305.99	12.717
306.35	12.000
306.72	13.319
307.09	12.215
307.45	11.827
307.82	12.654
308.19	12.887
308.55	13.100
308.92	13.641
309.29	13.905
309.65	13.479
310.02	13.692
310.38	12.064
310.75	12.247
311.12	12.644
311.48	13.803
311.85	13.454
312.22	12.130
312.58	12.536
312.95	13.398
313.31	12.547
313.68	12.477
314.05	13.645
314.41	12.104
314.78	11.837
315.14	13.270
315.51	13.150
315.87	12.226
316.24	12.418
316.61	12.802
316.97	11.835
317.34	12.668
317.70	12.291
318.07	13.434
318.43	13.093
318.80	13.047
319.16	13.287
319.53	13.186
319.89	13.172
320.26	14.525
320.62	12.912
320.99	12.774
321.35	12.801
321.72	13.662
322.08	12.281
322.45	14.441
322.81	12.900
323.18	12.966
323.54	14.460
323.91	14.687
324.27	13.351
324.64	12.111
325.00	13.276
325.37	13.659
325.73	13.575
326.10	12.925
326.46	14.038
326.83	12.160
327.19	13.735
327.56	12.939
327.92	13.770
328.29	14.075
328.65	14.640
329.01	12.831
329.38	14.721
329.74	13.151
330.11	12.598
330.47	13.299
330.84	13.546
331.20	12.944
331.56	14.421
331.93	13.516
332.29	11.990
332.66	13.010
333.02	12.371
333.38	12.478
333.75	12.427
334.11	12.752
334.48	13.077
334.84	13.598
335.20	13.601
335.57	13.014
335.93	13.373
336.29	12.106
336.66	13.465
337.02	13.430
337.38	12.210
337.75	13.007
338.11	12.743
338.47	12.278
338.84	12.616
339.20	11.169
339.56	11.859
339.93	12.207
340.29	11.849
340.65	12.154
341.02	13.596
341.38	12.890
341.74	13.206
342.11	11.269
342.47	11.813
342.83	12.797
343.20	12.773
343.56	12.153
343.92	11.974
344.28	12.839
344.65	12.306
345.01	12.302
345.37	10.897
345.73	12.540
346.10	12.510
346.46	12.520
346.82	11.497
347.19	12.442
347.55	11.788
347.91	11.405
348.27	11.851
348.63	12.342
349.00	12.719
349.36	11.984
349.72	11.468
350.08	12.500
350.45	12.262
350.81	12.462
351.17	10.555
351.53	11.701
351.89	11.966
352.26	11.262
352.62	12.293
352.98	12.040
353.34	12.327
353.70	11.774
354.07	11.154
354.43	12.212
354.79	11.086
355.15	12.251
355.51	10.650
355.87	12.274
356.24	11.855
356.60	10.731
356.96	10.993
357.32	12.434
357.68	11.527
358.04	11.930
358.40	11.319
358.77	12.171
359.13	11.036
359.49	11.638
359.85	11.616
360.21	10.253
360.57	12.263
360.93	11.472
361.29	11.183
361.66	12.901
362.02	10.014
362.38	10.317
362.74	11.677
363.10	11.921
363.46	10.843
363.82	11.711
364.18	11.807
364.54	11.373
364.90	12.651
365.26	11.242
365.62	10.497
365.98	10.736
366.35	10.759
366.71	12.006
367.07	11.195
367.43	11.686
367.79	10.904
368.15	10.651
368.51	11.647
368.87	10.326
369.23	11.573
369.59	10.856
369.95	11.958
370.31	11.225
370.67	11.173
371.03	10.574
371.39	11.357
371.75	11.165
372.11	11.693
372.47	11.507
372.83	11.693
373.19	12.132
373.55	11.890
373.91	11.809
374.27	10.847
374.63	10.237
374.99	11.590
375.35	11.626
375.71	11.280
376.07	10.809
376.42	10.870
376.78	10.854
377.14	11.075
377.50	11.111
377.86	10.634
378.22	11.335
378.58	11.925
378.94	10.984
379.30	10.855
379.66	10.957
380.02	11.437
380.38	10.422
380.74	11.188
381.09	10.806
381.45	10.578
381.81	10.638
382.17	10.562
382.53	10.438
382.89	10.763
383.25	10.716
383.61	10.778
383.97	11.038
384.32	11.272
384.68	10.873
385.04	11.606
385.40	10.913
385.76	11.176
386.12	10.884
386.48	10.699
386.83	10.636
387.19	10.895
387.55	10.954
387.91	10.797
388.27	11.719
388.62	10.505
388.98	10.612
389.34	10.886
389.70	10.377
390.06	10.122
390.42	11.228
390.77	10.934
391.13	10.682
391.49	10.526
391.85	10.892
392.20	10.846
392.56	11.410
392.92	10.107
393.28	10.258
393.64	10.206
393.99	9.959
394.35	10.300
394.71	10.676
395.07	10.341
395.42	10.363
395.78	11.289
396.14	11.145
396.50	10.168
396.85	10.427
397.21	10.650
397.57	10.759
397.92	9.994
398.28	10.094
398.64	11.344
399.00	10.743
399.35	10.467
399.71	11.203
400.07	9.760
400.42	9.731
400.78	10.381
401.14	10.452
401.49	10.023
401.85	11.472
402.21	9.725
402.57	10.952
402.92	10.545
403.28	9.905
403.63	10.830
403.99	10.736
404.35	10.551
404.70	10.100
405.06	10.051
405.42	10.952
405.77	9.978
406.13	10.575
406.49	10.063
406.84	10.660
407.20	10.674
407.55	10.400
407.91	11.040
408.27	11.583
408.62	10.112
408.98	11.236
409.34	10.871
409.69	9.770
410.05	10.137
410.40	9.894
410.76	10.246
411.11	9.597
411.47	10.494
411.83	10.252
412.18	10.266
412.54	10.390
412.89	10.088
413.25	11.174
413.60	10.864
413.96	10.712
414.31	9.976
414.67	11.111
415.03	10.536
415.38	11.546
415.74	10.171
416.09	10.431
416.45	11.118
416.80	10.327
417.16	10.248
417.51	11.019
417.87	10.388
418.22	10.996
418.58	10.573
418.93	10.827
419.29	10.351
419.64	10.357
420.00	10.979
420.35	11.208
420.71	10.035
421.06	10.065
421.42	10.132
421.77	10.050
422.12	10.419
422.48	10.478
422.83	9.877
423.19	10.691
423.54	10.148
423.90	10.476
424.25	10.567
424.61	10.099
424.96	9.825
425.31	10.400
425.67	10.157
426.02	10.320
426.38	9.335
426.73	10.237
427.09	10.973
427.44	10.355
427.79	9.720
428.15	10.666
428.50	11.143
428.85	10.994
429.21	10.751
429.56	10.319
429.92	10.293
430.27	10.015
430.62	10.475
430.98	10.579
431.33	10.081
431.68	9.975
432.04	10.191
432.39	10.812
432.74	10.890
433.10	11.074
433.45	10.281
433.80	10.700
434.16	10.194
434.51	11.249
434.86	10.887
435.22	9.941
435.57	10.729
435.92	11.781
436.28	10.599
436.63	11.075
436.98	10.473
437.34	10.616
437.69	9.854
438.04	11.720
438.39	11.384
438.75	11.470
439.10	10.631
439.45	10.854
439.81	11.220
440.16	10.347
440.51	11.036
440.86	11.909
441.22	10.335
441.57	10.971
441.92	10.661
442.27	9.897
442.63	10.213
442.98	10.453
443.33	10.605
443.68	10.664
444.03	10.320
444.39	10.734
444.74	10.611
445.09	10.795
445.44	11.105
445.79	11.062
446.15	11.000
446.50	10.549
446.85	10.110
447.20	10.746
447.55	10.277
447.91	11.028
448.26	10.596
448.61	11.443
448.96	11.220
449.31	10.946
449.66	11.074
450.02	9.616
450.37	11.383
450.72	11.295
451.07	11.867
451.42	11.974
451.77	11.111
452.12	12.082
452.47	11.665
452.83	10.761
453.18	11.772
453.53	11.782
453.88	10.800
454.23	11.737
454.58	11.538
454.93	10.791
455.28	11.873
455.63	10.993
455.98	10.942
456.34	11.368
456.69	11.524
457.04	10.680
457.39	10.400
457.74	10.980
458.09	10.331
458.44	11.555
458.79	11.034
459.14	10.529
459.49	10.929
459.84	11.413
460.19	10.847
460.54	11.738
460.89	10.288
461.24	11.340
461.59	12.358
461.94	11.525
462.29	11.556
462.64	11.369
462.99	12.156
463.34	11.860
463.69	12.039
464.04	10.651
464.39	11.219
464.74	10.961
465.09	11.376
465.44	10.881
465.79	11.214
466.14	10.705
466.49	10.038
466.84	11.594
467.19	12.068
467.54	11.171
467.89	11.444
468.24	11.291
468.59	10.833
468.94	11.775
469.29	12.584
469.64	11.961
469.99	12.404
470.34	11.765
470.68	11.517
471.03	12.342
471.38	11.457
471.73	12.606
472.08	13.112
472.43	11.608
472.78	11.652
473.13	11.139
473.48	10.758
473.83	12.073
474.17	11.064
474.52	12.263
474.87	11.086
475.22	11.479
475.57	11.647
475.92	10.373
476.27	10.392
476.61	11.743
476.96	11.442
477.31	11.311
477.66	11.809
478.01	11.191
478.36	11.071
478.70	10.521
479.05	11.297
479.40	11.706
479.75	11.917
480.10	11.375
480.45	11.531
480.79	11.106
481.14	10.794
481.49	10.704
481.84	10.422
482.19	11.397
482.53	11.155
482.88	11.111
483.23	10.871
483.58	10.952
483.92	11.197
484.27	10.830
484.62	11.333
484.97	11.492
485.31	10.394
485.66	9.489
486.01	8.929
486.36	9.088
486.70	9.124
487.05	9.706
487.40	10.019
487.75	10.192
488.09	10.028
488.44	10.325
488.79	10.309
489.13	11.161
489.48	11.107
489.83	10.717
490.17	11.354
490.52	11.542
490.87	11.293
491.22	11.259
491.56	11.111
491.91	11.111
492.26	11.314
492.60	12.210
492.95	11.418
493.30	11.419
493.64	11.456
493.99	11.717
494.34	11.251
494.68	11.244
495.03	11.495
495.37	11.616
495.72	11.375
496.07	10.961
496.41	11.295
496.76	10.975
497.11	12.254
497.45	11.223
497.80	10.982
498.14	10.633
498.49	12.117
498.84	11.589
499.18	10.832
499.53	11.759
499.87	11.545
500.22	12.068
500.56	10.864
500.91	12.384
501.26	12.448
501.60	11.020
501.95	10.842
502.29	11.956
502.64	10.763
502.98	11.605
503.33	11.136
503.67	11.788
504.02	10.882
504.36	11.855
504.71	11.779
505.06	11.450
505.40	11.465
505.75	11.600
506.09	11.666
506.44	11.560
506.78	11.626
507.13	11.488
507.47	11.305
507.82	12.506
508.16	11.808
508.51	11.884
508.85	12.108
509.19	11.601
509.54	11.572
509.88	12.481
510.23	12.451
510.57	11.631
510.92	12.288
511.26	12.149
511.61	12.112
511.95	11.946
512.30	11.950
512.64	11.994
512.98	12.045
513.33	12.295
513.67	12.015
514.02	12.000
514.36	12.046
514.70	12.053
515.05	11.881
515.39	12.226
515.74	13.286
516.08	12.582
516.42	13.169
516.77	12.000
517.11	12.587
517.46	12.931
517.80	12.671
518.14	12.507
518.49	12.955
518.83	11.813
519.17	12.812
519.52	12.998
519.86	13.079
520.20	13.041
520.55	13.737
520.89	12.414
521.23	13.026
521.58	13.368
521.92	12.945
522.26	12.559
522.61	13.072
522.95	13.333
523.29	12.164
523.64	12.601
523.98	13.556
524.32	12.687
524.66	12.522
525.01	12.899
525.35	12.964
525.69	13.606
526.04	13.623
526.38	12.360
526.72	13.305
527.06	12.714
527.41	13.785
527.75	13.634
528.09	13.064
528.43	13.362
528.78	13.059
529.12	13.727
529.46	13.150
529.80	12.383
530.15	13.671
530.49	12.154
530.83	13.102
531.17	12.485
531.51	13.734
531.86	12.742
532.20	12.979
532.54	13.245
532.88	13.117
533.22	13.528
533.57	13.972
533.91	13.054
534.25	13.099
534.59	12.865
534.93	12.969
535.27	12.351
535.62	12.427
535.96	13.002
536.30	13.163
536.64	12.609
536.98	12.712
537.32	13.625
537.66	13.010
538.01	12.879
538.35	13.537
538.69	13.835
539.03	12.002
539.37	11.650
539.71	12.716
540.05	13.477
540.39	13.585
540.73	12.025
541.07	12.359
541.42	12.749
541.76	13.194
542.10	12.515
542.44	12.531
542.78	13.656
543.12	12.209
543.46	12.030
543.80	12.531
544.14	13.870
544.48	12.895
544.82	13.456
545.16	11.718
545.50	12.661
545.84	13.889
546.18	14.044
546.52	13.311
546.86	13.411
547.20	13.243
547.54	13.236
547.88	12.652
548.22	13.297
548.56	12.905
548.90	12.930
549.24	12.950
549.58	12.500
549.92	13.425
550.26	12.170
550.60	13.839
550.94	12.754
551.28	13.862
551.62	14.414
551.96	12.973
552.30	12.459
552.64	13.528
552.98	12.307
553.32	13.188
553.66	12.508
554.00	12.484
554.34	13.715
554.68	13.844
555.02	12.899
555.36	12.832
555.69	13.154
556.03	12.293
556.37	13.066
556.71	13.168
557.05	11.599
557.39	13.267
557.73	13.679
558.07	13.950
558.41	14.256
558.75	14.295
559.08	13.653
559.42	13.529
559.76	12.545
560.10	13.627
560.44	13.205
560.78	13.811
561.12	12.969
561.45	12.265
561.79	12.609
562.13	12.318
562.47	12.849
562.81	12.752
563.15	12.734
563.48	11.615
563.82	12.664
564.16	13.433
564.50	13.140
564.84	13.739
565.17	11.943
565.51	12.377
565.85	12.832
566.19	13.452
566.52	12.034
566.86	13.485
567.20	12.865
567.54	12.063
567.88	12.311
568.21	11.982
568.55	12.014
568.89	11.998
569.23	11.303
569.56	11.861
569.90	10.852
570.24	10.937
570.57	10.870
570.91	10.140
571.25	10.765
571.59	9.842
571.92	9.795
572.26	9.704
572.60	10.386
572.93	10.265
573.27	10.052
573.61	9.718
573.95	10.085
574.28	9.985
574.62	9.618
574.96	9.720
575.29	9.916
575.63	9.352
575.97	9.202
576.30	9.567
576.64	10.095
576.98	9.589
577.31	9.608
577.65	9.683
577.98	9.255
578.32	9.367
578.66	9.565
578.99	9.859
579.33	9.901
579.67	9.670
580.00	9.264
580.34	9.499
580.67	9.351
581.01	9.655
581.35	9.541
581.68	8.861
582.02	9.270
582.35	9.152
582.69	9.281
583.02	9.658
583.36	9.471
583.70	9.961
584.03	9.943
584.37	10.298
584.70	9.903
585.04	9.588
585.37	9.468
585.71	10.112
586.04	9.383
586.38	9.864
586.72	10.064
587.05	10.371
587.39	10.190
587.72	9.880
588.06	9.858
588.39	9.928
588.73	9.888
589.06	10.505
589.40	10.861
589.73	10.390
590.07	11.290
590.40	10.418
590.73	11.274
591.07	11.499
591.40	10.579
591.74	10.714
592.07	10.607
592.41	11.990
592.74	10.729
593.08	10.091
593.41	10.144
593.75	10.015
594.08	10.533
594.41	10.655
594.75	9.966
595.08	10.802
595.42	10.665
595.75	10.530
596.09	10.567
596.42	10.779
596.75	11.659
597.09	11.061
597.42	10.980
597.75	10.791
598.09	10.669
598.42	11.261
598.76	10.486
599.09	11.217
599.42	10.415
599.76	10.957
600.09	10.814
600.42	10.635
600.76	10.265
601.09	10.528
601.42	10.595
601.76	10.992
602.09	10.780
602.42	10.832
602.76	10.664
603.09	10.935
603.42	11.596
603.76	10.774
604.09	10.641
604.42	10.508
604.76	10.589
605.09	11.224
605.42	11.052
605.75	11.054
606.09	10.826
606.42	10.673
606.75	10.571
607.09	10.857
607.42	10.808
607.75	11.226
608.08	10.845
608.42	11.116
608.75	11.211
609.08	10.779
609.41	11.682
609.75	11.722
610.08	10.701
610.41	11.111
610.74	11.775
611.07	11.460
611.41	10.936
611.74	10.803
612.07	11.224
612.40	11.501
612.73	11.832
613.07	11.607
613.40	10.977
613.73	11.932
614.06	11.650
614.39	11.566
614.72	11.301
615.06	10.880
615.39	12.030
615.72	11.133
616.05	12.456
616.38	11.466
616.71	11.612
617.05	11.862
617.38	12.079
617.71	11.867
618.04	11.441
618.37	12.062
618.70	12.125
619.03	11.905
619.36	12.500
619.69	12.005
620.03	13.112
620.36	12.717
620.69	13.218
621.02	13.587
621.35	12.679
621.68	12.979
622.01	14.244
622.34	12.236
622.67	13.272
623.00	13.002
623.33	13.023
623.66	13.573
623.99	12.671
624.32	13.144
624.65	12.706
624.99	12.441
625.32	13.026
625.65	12.552
625.98	12.831
626.31	12.834
626.64	12.604
626.97	13.083
627.30	13.509
627.63	13.108
627.96	12.754
628.29	11.964
628.62	14.029
628.95	14.805
629.28	14.549
629.61	13.093
629.94	14.780
630.26	14.731
630.59	15.426
630.92	15.067
631.25	14.869
631.58	14.658
631.91	14.272
632.24	13.800
632.57	13.752
632.90	16.046
