SpectraSuite Data File
++++++++++++++++++++++++++++++++++++
Date: Tue May 12 17:15:37 PDT 2015
User: schluterlab
Dark Spectrum Present: Yes
Reference Spectrum Present: Yes
Number of Sampled Component Spectra: 1
Spectrometers: USB2E3373
Integration Time (usec): 3000 (USB2E3373)
Spectra Averaged: 3 (USB2E3373)
Boxcar Smoothing: 0 (USB2E3373)
Correct for Electrical Dark: No (USB2E3373)
Strobe/Lamp Enabled: No (USB2E3373)
Correct for Detector Non-linearity: No (USB2E3373)
Correct for Stray Light: No (USB2E3373)
Number of Pixels in Processed Spectrum: 2048
>>>>>Begin Processed Spectral Data<<<<<
178.53	0.000
178.91	-216.667
179.29	-575.000
179.67	-3600.000
180.04	-160.000
180.42	725.000
180.80	1550.000
181.18	0.000
181.56	-300.000
181.94	0.000
182.31	1133.333
182.69	-2700.000
183.07	471.429
183.45	-3100.000
183.83	-2100.000
184.20	400.000
184.58	357.143
184.96	-276.923
185.34	-208.333
185.72	1850.000
186.09	-825.000
186.47	-4200.000
186.85	1433.333
187.23	680.000
187.61	1250.000
187.98	462.500
188.36	221.429
188.74	291.667
189.12	375.000
189.49	1100.000
189.87	0.000
190.25	475.000
190.63	3600.000
191.00	-200.000
191.38	-3400.000
191.76	-700.000
192.14	487.500
192.51	-2500.000
192.89	1700.000
193.27	1066.667
193.65	-966.667
194.02	-640.000
194.40	557.143
194.78	-200.000
195.15	200.000
195.53	-2700.000
195.91	-660.000
196.29	3600.000
196.66	218.750
197.04	800.000
197.42	-1350.000
197.79	775.000
198.17	250.000
198.55	0.000
198.92	414.286
199.30	1266.667
199.68	1900.000
200.05	683.333
200.43	-450.000
200.81	216.667
201.18	4100.000
201.56	216.667
201.94	-750.000
202.31	-187.500
202.69	-480.000
203.07	2500.000
203.44	-333.333
203.82	291.667
204.19	500.000
204.57	-1450.000
204.95	-900.000
205.32	-600.000
205.70	550.000
206.08	950.000
206.45	-866.667
206.83	355.556
207.20	178.947
207.58	258.333
207.96	580.000
208.33	0.000
208.71	600.000
209.08	640.000
209.46	-2900.000
209.84	-775.000
210.21	920.000
210.59	-580.000
210.96	275.000
211.34	-800.000
211.71	418.182
212.09	700.000
212.46	1300.000
212.84	-400.000
213.22	344.444
213.59	-2000.000
213.97	310.000
214.34	800.000
214.72	1033.333
215.09	833.333
215.47	-3200.000
215.84	-320.000
216.22	-312.500
216.59	0.000
216.97	0.000
217.34	1650.000
217.72	-1300.000
218.09	1266.667
218.47	312.500
218.84	700.000
219.22	866.667
219.59	633.333
219.97	614.286
220.34	366.667
220.72	1500.000
221.09	3400.000
221.47	258.333
221.84	1200.000
222.22	230.000
222.59	222.222
222.97	178.571
223.34	187.500
223.72	-1750.000
224.09	1133.333
224.46	276.923
224.84	-925.000
225.21	344.444
225.59	206.667
225.96	1133.333
226.34	-680.000
226.71	-650.000
227.08	-400.000
227.46	0.000
227.83	-483.333
228.21	-1550.000
228.58	358.333
228.95	1000.000
229.33	377.778
229.70	1150.000
230.08	353.846
230.45	2500.000
230.82	-375.000
231.20	-766.667
231.57	-900.000
231.95	580.000
232.32	316.667
232.69	533.333
233.07	258.333
233.44	-1450.000
233.81	200.000
234.19	140.741
234.56	168.750
234.93	200.000
235.31	130.000
235.68	212.500
236.05	142.857
236.43	133.333
236.80	207.143
237.17	141.379
237.55	96.875
237.92	75.000
238.29	100.000
238.67	93.750
239.04	90.244
239.41	60.417
239.79	52.500
240.16	33.333
240.53	40.984
240.91	46.377
241.28	61.017
241.65	43.939
242.02	56.338
242.40	28.571
242.77	36.264
243.14	27.848
243.51	48.485
243.89	34.579
244.26	31.776
244.63	27.723
245.00	29.358
245.38	15.254
245.75	27.273
246.12	28.889
246.49	23.404
246.87	15.574
247.24	17.333
247.61	23.750
247.98	23.810
248.36	18.788
248.73	28.061
249.10	11.310
249.47	13.000
249.84	16.915
250.22	14.595
250.59	14.500
250.96	15.612
251.33	17.209
251.70	16.071
252.08	13.445
252.45	7.570
252.82	11.027
253.19	11.067
253.56	8.077
253.94	15.580
254.31	9.690
254.68	13.240
255.05	11.379
255.42	10.949
255.79	9.446
256.16	11.186
256.54	12.338
256.91	12.745
257.28	12.375
257.65	7.837
258.02	9.440
258.39	11.461
258.76	11.594
259.14	9.429
259.51	9.038
259.88	8.815
260.25	10.989
260.62	8.219
260.99	6.887
261.36	8.635
261.73	7.713
262.10	9.162
262.47	10.500
262.85	7.467
263.22	9.769
263.59	10.230
263.96	6.516
264.33	6.420
264.70	7.862
265.07	8.780
265.44	11.468
265.81	8.491
266.18	7.551
266.55	6.856
266.92	6.935
267.29	10.088
267.66	3.139
268.03	8.072
268.40	6.977
268.77	7.709
269.14	5.423
269.51	7.572
269.88	9.592
270.25	4.104
270.62	6.867
270.99	9.331
271.36	8.333
271.73	7.128
272.10	5.455
272.47	6.548
272.84	9.182
273.21	6.818
273.58	8.097
273.95	4.723
274.32	7.588
274.69	8.858
275.06	8.561
275.43	7.663
275.80	6.226
276.17	7.904
276.54	8.785
276.91	8.769
277.28	6.752
277.65	8.487
278.02	7.721
278.39	7.554
278.76	6.379
279.13	7.295
279.50	7.455
279.87	5.028
280.23	3.867
280.60	4.927
280.97	5.517
281.34	5.281
281.71	6.261
282.08	7.863
282.45	4.899
282.82	6.187
283.19	7.472
283.56	5.620
283.92	5.863
284.29	6.988
284.66	3.697
285.03	5.638
285.40	5.124
285.77	3.549
286.14	7.430
286.51	5.982
286.87	4.905
287.24	4.204
287.61	5.167
287.98	6.716
288.35	6.370
288.72	5.615
289.08	6.156
289.45	6.250
289.82	5.625
290.19	5.857
290.56	7.132
290.93	5.468
291.29	4.972
291.66	5.226
292.03	5.330
292.40	5.556
292.77	3.900
293.13	5.706
293.50	6.343
293.87	4.201
294.24	5.175
294.60	6.057
294.97	6.154
295.34	5.312
295.71	5.256
296.08	6.000
296.44	4.701
296.81	5.211
297.18	4.816
297.55	4.926
297.91	3.079
298.28	4.710
298.65	5.153
299.02	4.946
299.38	5.755
299.75	5.610
300.12	6.422
300.48	5.035
300.85	4.887
301.22	4.884
301.59	3.656
301.95	4.551
302.32	6.403
302.69	4.977
303.05	6.285
303.42	4.372
303.79	5.525
304.15	5.281
304.52	4.757
304.89	5.330
305.25	4.449
305.62	5.544
305.99	4.565
306.35	4.000
306.72	4.579
307.09	5.487
307.45	4.752
307.82	4.218
308.19	5.876
308.55	4.400
308.92	5.790
309.29	5.325
309.65	5.847
310.02	5.578
310.38	3.888
310.75	5.014
311.12	5.364
311.48	5.309
311.85	5.821
312.22	6.495
312.58	5.248
312.95	5.146
313.31	6.554
313.68	5.159
314.05	6.227
314.41	5.680
314.78	5.398
315.14	6.635
315.51	6.528
315.87	5.474
316.24	5.976
316.61	6.535
316.97	5.872
317.34	6.559
317.70	6.497
318.07	6.851
318.43	6.503
318.80	6.392
319.16	7.430
319.53	7.080
319.89	6.720
320.26	7.169
320.62	7.418
320.99	5.624
321.35	6.772
321.72	7.495
322.08	7.941
322.45	7.539
322.81	6.496
323.18	7.904
323.54	8.275
323.91	8.250
324.27	7.604
324.64	7.180
325.00	7.586
325.37	7.673
325.73	7.757
326.10	6.379
326.46	7.514
326.83	6.800
327.19	8.273
327.56	7.428
327.92	7.705
328.29	8.020
328.65	7.449
329.01	8.127
329.38	7.360
329.74	6.405
330.11	7.559
330.47	9.292
330.84	7.938
331.20	7.614
331.56	8.722
331.93	7.956
332.29	6.718
332.66	8.418
333.02	7.732
333.38	7.330
333.75	8.924
334.11	7.550
334.48	7.607
334.84	8.193
335.20	7.613
335.57	8.060
335.93	7.990
336.29	8.292
336.66	8.148
337.02	7.271
337.38	8.083
337.75	7.179
338.11	8.354
338.47	9.145
338.84	7.959
339.20	6.147
339.56	7.906
339.93	6.689
340.29	6.891
340.65	8.215
341.02	7.965
341.38	8.210
341.74	7.558
342.11	6.177
342.47	6.891
342.83	7.383
343.20	7.680
343.56	5.957
343.92	6.854
344.28	7.496
344.65	6.846
345.01	6.746
345.37	6.330
345.73	7.302
346.10	8.048
346.46	7.416
346.82	6.096
347.19	7.264
347.55	6.714
347.91	5.589
348.27	6.429
348.63	6.171
349.00	6.931
349.36	5.992
349.72	6.498
350.08	6.910
350.45	6.626
350.81	8.333
351.17	6.163
351.53	6.620
351.89	6.294
352.26	5.518
352.62	6.712
352.98	6.595
353.34	7.704
353.70	5.275
354.07	7.385
354.43	7.143
354.79	6.226
355.15	5.743
355.51	6.722
355.87	7.229
356.24	7.467
356.60	6.545
356.96	5.762
357.32	6.933
357.68	6.535
358.04	6.991
358.40	7.496
358.77	6.311
359.13	6.231
359.49	6.523
359.85	6.329
360.21	5.498
360.57	7.007
360.93	6.638
361.29	6.277
361.66	7.383
362.02	5.824
362.38	6.349
362.74	6.936
363.10	6.241
363.46	5.041
363.82	6.732
364.18	6.970
364.54	5.937
364.90	7.028
365.26	7.148
365.62	6.492
365.98	5.850
366.35	5.379
366.71	5.829
367.07	5.939
367.43	6.179
367.79	5.984
368.15	4.885
368.51	5.445
368.87	4.620
369.23	5.891
369.59	5.799
369.95	5.944
370.31	5.202
370.67	5.205
371.03	6.373
371.39	6.025
371.75	5.792
372.11	5.778
372.47	6.096
372.83	6.118
373.19	6.443
373.55	5.842
373.91	5.387
374.27	6.019
374.63	6.169
374.99	6.065
375.35	6.183
375.71	6.266
376.07	6.233
376.42	4.731
376.78	5.652
377.14	4.849
377.50	5.493
377.86	5.125
378.22	6.155
378.58	6.174
378.94	5.794
379.30	5.276
379.66	5.599
380.02	5.865
380.38	5.035
380.74	5.767
381.09	5.900
381.45	5.318
381.81	5.083
382.17	4.884
382.53	4.679
382.89	4.908
383.25	4.855
383.61	5.533
383.97	4.439
384.32	5.244
384.68	5.942
385.04	5.627
385.40	5.872
385.76	5.266
386.12	5.071
386.48	5.471
386.83	4.951
387.19	4.888
387.55	5.183
387.91	5.370
388.27	5.294
388.62	5.106
388.98	5.364
389.34	4.997
389.70	6.014
390.06	5.732
390.42	4.750
390.77	4.545
391.13	5.069
391.49	5.989
391.85	5.785
392.20	6.377
392.56	5.854
392.92	4.436
393.28	5.605
393.64	4.587
393.99	4.920
394.35	5.062
394.71	5.308
395.07	4.380
395.42	5.621
395.78	5.737
396.14	5.783
396.50	4.813
396.85	5.244
397.21	4.633
397.57	4.423
397.92	5.199
398.28	4.247
398.64	5.701
399.00	4.596
399.35	4.563
399.71	5.022
400.07	5.137
400.42	4.358
400.78	4.927
401.14	4.404
401.49	4.147
401.85	4.983
402.21	4.394
402.57	4.967
402.92	5.091
403.28	3.878
403.63	4.768
403.99	5.006
404.35	4.807
404.70	4.903
405.06	4.380
405.42	4.548
405.77	4.300
406.13	4.664
406.49	3.525
406.84	4.625
407.20	5.080
407.55	4.246
407.91	5.680
408.27	4.669
408.62	4.258
408.98	5.027
409.34	4.676
409.69	4.169
410.05	4.174
410.40	4.240
410.76	4.236
411.11	4.976
411.47	4.568
411.83	4.335
412.18	4.348
412.54	4.204
412.89	4.248
413.25	5.017
413.60	4.322
413.96	4.788
414.31	4.841
414.67	4.780
415.03	4.023
415.38	4.921
415.74	4.359
416.09	4.934
416.45	5.365
416.80	5.516
417.16	4.328
417.51	4.331
417.87	4.193
418.22	4.374
418.58	4.395
418.93	4.700
419.29	4.436
419.64	4.603
420.00	5.191
420.35	4.297
420.71	4.201
421.06	3.943
421.42	4.491
421.77	5.219
422.12	3.969
422.48	4.160
422.83	4.353
423.19	4.104
423.54	4.334
423.90	4.587
424.25	4.348
424.61	4.469
424.96	3.896
425.31	3.722
425.67	4.602
426.02	4.319
426.38	3.967
426.73	4.453
427.09	4.389
427.44	3.714
427.79	3.373
428.15	4.243
428.50	4.571
428.85	4.174
429.21	4.862
429.56	4.487
429.92	4.625
430.27	5.031
430.62	3.769
430.98	4.641
431.33	3.427
431.68	3.753
432.04	4.863
432.39	4.885
432.74	4.040
433.10	4.873
433.45	4.136
433.80	4.633
434.16	3.994
434.51	4.025
434.86	4.573
435.22	3.296
435.57	3.438
435.92	4.667
436.28	4.608
436.63	4.646
436.98	3.716
437.34	4.623
437.69	3.919
438.04	3.925
438.39	4.612
438.75	4.621
439.10	4.641
439.45	5.144
439.81	4.453
440.16	4.293
440.51	4.223
440.86	4.501
441.22	5.032
441.57	4.462
441.92	4.344
442.27	4.794
442.63	4.624
442.98	4.310
443.33	4.553
443.68	4.477
444.03	4.194
444.39	4.379
444.74	4.400
445.09	4.371
445.44	4.463
445.79	4.337
446.15	4.158
446.50	4.008
446.85	4.333
447.20	3.980
447.55	3.752
447.91	5.061
448.26	4.420
448.61	4.865
448.96	4.466
449.31	4.730
449.66	5.482
450.02	4.700
450.37	4.831
450.72	4.518
451.07	5.119
451.42	4.801
451.77	4.353
452.12	5.332
452.47	4.982
452.83	4.958
453.18	4.745
453.53	5.210
453.88	4.971
454.23	4.881
454.58	4.953
454.93	4.966
455.28	4.345
455.63	4.965
455.98	5.189
456.34	4.742
456.69	4.329
457.04	4.594
457.39	4.400
457.74	5.011
458.09	4.267
458.44	5.203
458.79	4.828
459.14	4.583
459.49	4.247
459.84	4.783
460.19	4.915
460.54	4.672
460.89	4.638
461.24	4.582
461.59	4.195
461.94	4.787
462.29	5.092
462.64	4.899
462.99	4.926
463.34	6.286
463.69	5.324
464.04	5.124
464.39	4.865
464.74	4.631
465.09	5.107
465.44	4.461
465.79	4.518
466.14	4.716
466.49	4.504
466.84	4.627
467.19	5.800
467.54	5.105
467.89	5.340
468.24	3.995
468.59	4.762
468.94	5.435
469.29	5.009
469.64	4.952
469.99	5.334
470.34	5.250
470.68	4.897
471.03	5.604
471.38	4.967
471.73	5.029
472.08	5.610
472.43	5.400
472.78	5.634
473.13	4.631
473.48	5.562
473.83	5.183
474.17	4.924
474.52	5.154
474.87	4.093
475.22	5.483
475.57	5.456
475.92	4.548
476.27	4.516
476.61	4.236
476.96	5.068
477.31	4.113
477.66	5.314
478.01	5.157
478.36	4.634
478.70	4.715
479.05	4.446
479.40	4.514
479.75	5.015
480.10	4.211
480.45	4.435
480.79	4.608
481.14	3.709
481.49	3.934
481.84	4.661
482.19	4.803
482.53	4.392
482.88	4.301
483.23	4.150
483.58	3.995
483.92	4.707
484.27	4.795
484.62	4.924
484.97	4.363
485.31	3.941
485.66	3.611
486.01	3.702
486.36	3.511
486.70	3.288
487.05	3.614
487.40	3.727
487.75	3.527
488.09	4.290
488.44	3.665
488.79	3.888
489.13	4.629
489.48	4.914
489.83	4.003
490.17	4.377
490.52	3.962
490.87	4.698
491.22	4.300
491.56	4.699
491.91	3.987
492.26	4.677
492.60	4.510
492.95	4.395
493.30	4.641
493.64	4.762
493.99	4.919
494.34	4.437
494.68	3.541
495.03	4.805
495.37	5.088
495.72	4.615
496.07	4.582
496.41	4.605
496.76	4.390
497.11	4.713
497.45	5.042
497.80	4.819
498.14	4.623
498.49	4.921
498.84	5.140
499.18	4.570
499.53	4.593
499.87	4.672
500.22	4.330
500.56	4.132
500.91	5.148
501.26	5.007
501.60	4.144
501.95	4.480
502.29	4.889
502.64	4.896
502.98	4.002
503.33	4.499
503.67	4.945
504.02	4.030
504.36	4.434
504.71	4.399
505.06	5.162
505.40	4.212
505.75	4.864
506.09	4.993
506.44	4.981
506.78	4.679
507.13	4.120
507.47	5.095
507.82	5.693
508.16	5.096
508.51	4.444
508.85	5.033
509.19	4.503
509.54	4.834
509.88	5.221
510.23	4.265
510.57	4.923
510.92	4.995
511.26	4.418
511.61	4.579
511.95	5.127
512.30	5.350
512.64	4.413
512.98	4.511
513.33	5.430
513.67	5.075
514.02	4.883
514.36	5.088
514.70	4.640
515.05	4.955
515.39	4.550
515.74	4.975
516.08	4.847
516.42	5.683
516.77	5.067
517.11	4.640
517.46	5.011
517.80	4.970
518.14	5.408
518.49	4.520
518.83	4.725
519.17	5.768
519.52	5.407
519.86	5.123
520.20	5.315
520.55	4.918
520.89	5.805
521.23	5.549
521.58	4.188
521.92	4.898
522.26	4.739
522.61	5.645
522.95	5.946
523.29	4.971
523.64	4.798
523.98	5.751
524.32	4.671
524.66	4.986
525.01	4.675
525.35	5.480
525.69	5.479
526.04	5.711
526.38	5.121
526.72	4.952
527.06	5.086
527.41	5.985
527.75	5.660
528.09	4.756
528.43	5.491
528.78	5.367
529.12	5.539
529.46	5.552
529.80	5.199
530.15	5.480
530.49	4.753
530.83	5.180
531.17	4.736
531.51	4.844
531.86	5.374
532.20	4.821
532.54	4.959
532.88	5.247
533.22	5.484
533.57	4.942
533.91	5.245
534.25	5.136
534.59	5.088
534.93	5.290
535.27	4.895
535.62	5.193
535.96	5.260
536.30	5.180
536.64	4.658
536.98	4.846
537.32	5.938
537.66	4.974
538.01	5.635
538.35	5.614
538.69	5.400
539.03	4.664
539.37	4.854
539.71	5.062
540.05	5.108
540.39	5.283
540.73	4.937
541.07	4.642
541.42	5.659
541.76	5.857
542.10	4.932
542.44	5.736
542.78	5.160
543.12	4.479
543.46	4.699
543.80	5.514
544.14	5.511
544.48	4.927
544.82	4.832
545.16	4.918
545.50	5.716
545.84	5.808
546.18	5.722
546.52	6.033
546.86	5.803
547.20	4.780
547.54	5.320
547.88	5.779
548.22	5.343
548.56	5.893
548.90	5.635
549.24	6.317
549.58	5.799
549.92	5.959
550.26	5.680
550.60	5.256
550.94	5.563
551.28	6.138
551.62	5.517
551.96	5.676
552.30	4.944
552.64	5.955
552.98	5.219
553.32	4.738
553.66	5.147
554.00	5.470
554.34	6.059
554.68	6.183
555.02	5.567
555.36	5.120
555.69	5.497
556.03	5.924
556.37	4.971
556.71	5.541
557.05	4.456
557.39	6.067
557.73	5.458
558.07	5.567
558.41	5.346
558.75	6.430
559.08	5.504
559.42	5.870
559.76	5.916
560.10	5.712
560.44	5.839
560.78	5.754
561.12	5.976
561.45	4.193
561.79	5.306
562.13	4.927
562.47	4.867
562.81	6.051
563.15	5.688
563.48	4.907
563.82	5.303
564.16	5.597
564.50	5.365
564.84	5.653
565.17	5.585
565.51	5.296
565.85	5.490
566.19	5.179
566.52	4.573
566.86	5.371
567.20	5.506
567.54	4.476
567.88	5.686
568.21	4.743
568.55	4.621
568.89	4.790
569.23	4.314
569.56	4.633
569.90	4.779
570.24	4.497
570.57	4.250
570.91	4.087
571.25	4.181
571.59	3.751
571.92	3.875
572.26	3.558
572.60	3.916
572.93	4.140
573.27	4.021
573.61	3.817
573.95	3.685
574.28	3.878
574.62	3.633
574.96	3.797
575.29	3.781
575.63	3.722
575.97	3.749
576.30	3.619
576.64	3.892
576.98	3.506
577.31	3.919
577.65	3.936
577.98	3.656
578.32	3.492
578.66	3.869
578.99	3.839
579.33	3.947
579.67	3.693
580.00	3.738
580.34	3.643
580.67	3.826
581.01	3.994
581.35	3.677
581.68	3.562
582.02	3.568
582.35	3.513
582.69	3.639
583.02	3.474
583.36	3.396
583.70	3.989
584.03	4.251
584.37	3.988
584.70	4.006
585.04	3.569
585.37	3.720
585.71	3.910
586.04	3.889
586.38	3.543
586.72	3.655
587.05	4.143
587.39	3.970
587.72	3.928
588.06	4.147
588.39	3.864
588.73	4.004
589.06	4.027
589.40	4.413
589.73	4.064
590.07	4.255
590.40	4.599
590.73	4.774
591.07	4.858
591.40	4.311
591.74	4.261
592.07	3.952
592.41	4.836
592.74	4.248
593.08	3.874
593.41	3.920
593.75	3.748
594.08	4.281
594.41	3.975
594.75	4.144
595.08	4.115
595.42	4.312
595.75	4.771
596.09	4.519
596.42	4.297
596.75	4.447
597.09	3.797
597.42	4.163
597.75	4.178
598.09	4.103
598.42	4.447
598.76	4.279
599.09	4.119
599.42	4.187
599.76	4.410
600.09	4.102
600.42	4.351
600.76	4.079
601.09	4.108
601.42	3.907
601.76	4.296
602.09	4.452
602.42	4.030
602.76	4.061
603.09	4.676
603.42	4.771
603.76	4.049
604.09	4.271
604.42	4.218
604.76	4.346
605.09	4.449
605.42	4.551
605.75	4.382
606.09	4.323
606.42	4.209
606.75	4.275
607.09	4.185
607.42	4.138
607.75	4.140
608.08	3.859
608.42	4.111
608.75	3.851
609.08	3.960
609.41	4.455
609.75	4.853
610.08	4.182
610.41	4.172
610.74	4.372
611.07	4.457
611.41	5.283
611.74	4.589
612.07	4.046
612.40	4.825
612.73	4.993
613.07	4.815
613.40	5.013
613.73	4.993
614.06	4.000
614.39	4.444
614.72	4.721
615.06	3.907
615.39	5.149
615.72	4.405
616.05	4.721
616.38	4.617
616.71	4.395
617.05	4.503
617.38	4.270
617.71	4.837
618.04	4.206
618.37	4.002
618.70	4.330
619.03	4.640
619.36	5.653
619.69	4.947
620.03	5.936
620.36	5.010
620.69	5.747
621.02	5.503
621.35	4.656
621.68	5.457
622.01	5.904
622.34	4.079
622.67	5.969
623.00	4.765
623.33	4.858
623.66	4.990
623.99	5.274
624.32	4.607
624.65	4.608
624.99	4.733
625.32	4.943
625.65	4.483
625.98	5.021
626.31	5.638
626.64	4.708
626.97	4.438
627.30	5.590
627.63	5.338
627.96	4.930
628.29	4.785
628.62	4.277
628.95	6.383
629.28	6.398
629.61	5.712
629.94	6.223
630.26	5.633
630.59	6.472
630.92	5.919
631.25	5.621
631.58	6.268
631.91	5.423
632.24	5.053
632.57	4.912
632.90	5.694
633.23	5.352
633.56	6.744
633.89	5.681
634.22	7.212
634.55	6.882
634.88	7.119
635.20	7.063
635.53	7.085
635.86	7.271
636.19	6.510
636.52	6.486
636.85	6.041
637.18	7.259
637.51	5.140
637.83	6.293
638.16	6.800
638.49	6.228
638.82	5.986
639.15	5.523
639.48	6.635
639.81	6.838
640.13	6.380
640.46	6.321
640.79	6.112
641.12	5.512
641.45	7.503
641.77	5.945
642.10	6.693
642.43	7.397
642.76	6.818
643.09	7.205
643.41	8.696
643.74	7.770
644.07	6.637
644.40	8.136
644.73	8.559
645.05	9.658
645.38	7.504
645.71	7.891
646.04	8.855
646.36	7.668
646.69	6.080
647.02	8.480
647.35	8.504
647.67	8.104
648.00	7.003
648.33	6.917
648.66	6.212
648.98	5.797
649.31	6.748
649.64	5.947
649.96	6.401
650.29	5.857
650.62	8.247
650.94	8.584
651.27	7.974
651.60	8.607
651.92	8.756
652.25	7.087
652.58	6.667
652.90	6.138
653.23	5.318
653.56	6.825
653.88	7.489
654.21	6.745
654.54	6.881
654.86	8.702
655.19	6.860
655.52	4.344
655.84	2.930
656.17	2.639
