SpectraSuite Data File
++++++++++++++++++++++++++++++++++++
Date: Tue May 12 17:05:50 PDT 2015
User: schluterlab
Dark Spectrum Present: Yes
Reference Spectrum Present: Yes
Number of Sampled Component Spectra: 1
Spectrometers: USB2E3373
Integration Time (usec): 3000 (USB2E3373)
Spectra Averaged: 3 (USB2E3373)
Boxcar Smoothing: 0 (USB2E3373)
Correct for Electrical Dark: No (USB2E3373)
Strobe/Lamp Enabled: No (USB2E3373)
Correct for Detector Non-linearity: No (USB2E3373)
Correct for Stray Light: No (USB2E3373)
Number of Pixels in Processed Spectrum: 2048
>>>>>Begin Processed Spectral Data<<<<<
178.53	0.000
178.91	-291.667
179.29	-700.000
179.67	-4400.000
180.04	-106.667
180.42	750.000
180.80	1750.000
181.18	0.000
181.56	-262.500
181.94	0.000
182.31	1300.000
182.69	-3000.000
183.07	614.286
183.45	-4400.000
183.83	-1400.000
184.20	360.000
184.58	471.429
184.96	-346.154
185.34	-225.000
185.72	1450.000
186.09	-1050.000
186.47	-3100.000
186.85	1200.000
187.23	540.000
187.61	1700.000
187.98	475.000
188.36	285.714
188.74	333.333
189.12	316.667
189.49	1050.000
189.87	0.000
190.25	512.500
190.63	2400.000
191.00	-275.000
191.38	-4100.000
191.76	-700.000
192.14	562.500
192.51	-3000.000
192.89	1550.000
193.27	933.333
193.65	-1333.333
194.02	-980.000
194.40	557.143
194.78	-200.000
195.15	273.333
195.53	-3300.000
195.91	-400.000
196.29	3900.000
196.66	287.500
197.04	750.000
197.42	-1200.000
197.79	700.000
198.17	358.333
198.55	0.000
198.92	514.286
199.30	1233.333
199.68	2000.000
200.05	583.333
200.43	-533.333
200.81	216.667
201.18	3300.000
201.56	216.667
201.94	-775.000
202.31	-325.000
202.69	-460.000
203.07	2600.000
203.44	-633.333
203.82	358.333
204.19	660.000
204.57	-1100.000
204.95	-725.000
205.32	-820.000
205.70	550.000
206.08	800.000
206.45	-1166.667
206.83	511.111
207.20	236.842
207.58	283.333
207.96	660.000
208.33	0.000
208.71	671.429
209.08	640.000
209.46	-3900.000
209.84	-1100.000
210.21	940.000
210.59	-600.000
210.96	358.333
211.34	-950.000
211.71	409.091
212.09	1025.000
212.46	1800.000
212.84	-383.333
213.22	444.444
213.59	-3800.000
213.97	340.000
214.34	650.000
214.72	1200.000
215.09	1033.333
215.47	-2800.000
215.84	-240.000
216.22	-387.500
216.59	0.000
216.97	0.000
217.34	1400.000
217.72	-1750.000
218.09	966.667
218.47	500.000
218.84	1050.000
219.22	1100.000
219.59	1200.000
219.97	657.143
220.34	422.222
220.72	1700.000
221.09	3700.000
221.47	350.000
221.84	1233.333
222.22	260.000
222.59	294.444
222.97	235.714
223.34	218.750
223.72	-1950.000
224.09	1133.333
224.46	230.769
224.84	-650.000
225.21	377.778
225.59	220.000
225.96	1466.667
226.34	-700.000
226.71	-575.000
227.08	-520.000
227.46	0.000
227.83	-483.333
228.21	-1650.000
228.58	325.000
228.95	1275.000
229.33	433.333
229.70	875.000
230.08	446.154
230.45	3200.000
230.82	-975.000
231.20	-833.333
231.57	-1133.333
231.95	600.000
232.32	275.000
232.69	583.333
233.07	283.333
233.44	-2000.000
233.81	220.000
234.19	166.667
234.56	231.250
234.93	217.647
235.31	195.000
235.68	237.500
236.05	192.857
236.43	129.630
236.80	257.143
237.17	144.828
237.55	131.250
237.92	142.500
238.29	139.394
238.67	140.625
239.04	97.561
239.41	93.750
239.79	95.000
240.16	97.917
240.53	78.689
240.91	81.159
241.28	84.746
241.65	80.303
242.02	83.099
242.40	81.429
242.77	62.637
243.14	68.354
243.51	59.596
243.89	57.944
244.26	49.533
244.63	59.406
245.00	57.798
245.38	50.847
245.75	50.758
246.12	46.667
246.49	43.262
246.87	48.361
247.24	48.000
247.61	45.625
247.98	44.218
248.36	38.788
248.73	49.490
249.10	39.881
249.47	42.500
249.84	37.313
250.22	43.243
250.59	41.000
250.96	35.021
251.33	37.209
251.70	42.857
252.08	40.336
252.45	31.474
252.82	31.939
253.19	32.806
253.56	32.692
253.94	35.507
254.31	40.310
254.68	34.843
255.05	35.517
255.42	33.942
255.79	35.505
256.16	36.271
256.54	38.961
256.91	36.928
257.28	34.448
257.65	31.661
258.02	32.153
258.39	33.811
258.76	35.072
259.14	31.429
259.51	35.277
259.88	34.650
260.25	31.319
260.62	33.151
260.99	30.579
261.36	32.591
261.73	32.447
262.10	32.984
262.47	32.750
262.85	32.000
263.22	32.648
263.59	32.992
263.96	33.584
264.33	29.630
264.70	31.450
265.07	34.390
265.44	31.881
265.81	31.840
266.18	30.206
266.55	31.442
266.92	30.201
267.29	28.070
267.66	30.045
268.03	28.027
268.40	31.290
268.77	30.617
269.14	30.803
269.51	29.399
269.88	29.796
270.25	28.510
270.62	31.116
270.99	31.643
271.36	32.114
271.73	28.302
272.10	28.485
272.47	29.167
272.84	29.142
273.21	29.752
273.58	30.567
273.95	28.131
274.32	27.043
274.69	32.677
275.06	30.419
275.43	28.352
275.80	25.472
276.17	28.676
276.54	31.028
276.91	30.410
277.28	27.920
277.65	30.074
278.02	29.044
278.39	28.597
278.76	31.724
279.13	27.224
279.50	28.545
279.87	27.561
280.23	25.783
280.60	29.380
280.97	26.897
281.34	27.888
281.71	27.652
282.08	28.547
282.45	28.209
282.82	26.421
283.19	28.776
283.56	27.438
283.92	27.362
284.29	27.454
284.66	26.723
285.03	27.032
285.40	26.281
285.77	26.080
286.14	27.709
286.51	28.067
286.87	25.475
287.24	24.625
287.61	25.988
287.98	24.925
288.35	25.481
288.72	24.886
289.08	23.724
289.45	26.677
289.82	26.406
290.19	25.183
290.56	23.726
290.93	25.036
291.29	25.414
291.66	25.706
292.03	25.386
292.40	24.390
292.77	22.006
293.13	24.108
293.50	23.752
293.87	22.900
294.24	24.755
294.60	23.553
294.97	22.937
295.34	22.975
295.71	22.076
296.08	23.200
296.44	22.872
296.81	22.333
297.18	23.067
297.55	23.892
297.91	22.660
298.28	21.860
298.65	20.368
299.02	20.869
299.38	22.542
299.75	21.098
300.12	22.936
300.48	22.600
300.85	22.765
301.22	21.512
301.59	20.991
301.95	20.187
302.32	21.071
302.69	20.588
303.05	22.222
303.42	21.413
303.79	21.885
304.15	19.802
304.52	18.922
304.89	21.215
305.25	21.580
305.62	21.322
305.99	19.130
306.35	20.211
306.72	20.499
307.09	20.290
307.45	20.591
307.82	21.193
308.19	20.103
308.55	19.800
308.92	21.197
309.29	21.400
309.65	20.218
310.02	19.777
310.38	20.638
310.75	20.540
311.12	20.498
311.48	22.297
311.85	20.611
312.22	22.445
312.58	21.477
312.95	22.233
313.31	20.974
313.68	21.388
314.05	22.527
314.41	22.067
314.78	22.159
315.14	23.981
315.51	23.936
315.87	22.628
316.24	23.996
316.61	24.172
316.97	23.670
317.34	24.079
317.70	25.022
318.07	25.712
318.43	26.274
318.80	26.007
319.16	25.262
319.53	26.372
319.89	27.151
320.26	28.678
320.62	27.198
320.99	28.027
321.35	29.406
321.72	29.981
322.08	29.640
322.45	30.881
322.81	30.375
323.18	30.018
323.54	32.404
323.91	32.910
324.27	32.626
324.64	32.612
325.00	33.621
325.37	34.654
325.73	35.919
326.10	35.626
326.46	36.746
326.83	36.320
327.19	37.349
327.56	35.783
327.92	39.426
328.29	39.935
328.65	40.325
329.01	39.949
329.38	40.102
329.74	38.856
330.11	41.095
330.47	41.773
330.84	40.811
331.20	40.778
331.56	42.401
331.93	41.488
332.29	41.156
332.66	44.303
333.02	41.237
333.38	43.106
333.75	42.535
334.11	42.366
334.48	44.188
334.84	43.834
335.20	42.857
335.57	42.989
335.93	43.398
336.29	43.449
336.66	44.597
337.02	43.114
337.38	43.164
337.75	43.581
338.11	42.700
338.47	43.184
338.84	42.083
339.20	43.030
339.56	43.650
339.93	43.980
340.29	42.101
340.65	44.342
341.02	43.443
341.38	43.103
341.74	43.023
342.11	43.907
342.47	44.299
342.83	43.560
343.20	43.654
343.56	43.129
343.92	44.344
344.28	42.982
344.65	44.336
345.01	42.143
345.37	42.388
345.73	42.857
346.10	42.709
346.46	43.541
346.82	42.361
347.19	44.436
347.55	43.091
347.91	42.221
348.27	41.905
348.63	44.225
349.00	42.727
349.36	44.047
349.72	43.043
350.08	44.332
350.45	44.554
350.81	43.807
351.17	42.296
351.53	43.726
351.89	42.813
352.26	43.008
352.62	43.062
352.98	43.175
353.34	45.300
353.70	43.196
354.07	44.538
354.43	43.625
354.79	42.825
355.15	44.717
355.51	44.637
355.87	44.804
356.24	44.188
356.60	42.390
356.96	43.290
357.32	43.632
357.68	43.392
358.04	43.921
358.40	43.403
358.77	44.102
359.13	44.219
359.49	43.440
359.85	44.751
360.21	43.982
360.57	44.234
360.93	45.094
361.29	44.012
361.66	46.010
362.02	42.969
362.38	44.228
362.74	44.798
363.10	44.320
363.46	43.439
363.82	44.951
364.18	44.097
364.54	45.136
364.90	45.114
365.26	44.691
365.62	44.337
365.98	43.083
366.35	44.414
366.71	46.426
367.07	44.915
367.43	45.467
367.79	45.013
368.15	43.623
368.51	44.728
368.87	44.497
369.23	43.798
369.59	46.123
369.95	45.245
370.31	43.190
370.67	44.761
371.03	44.958
371.39	45.014
371.75	45.499
372.11	45.275
372.47	46.918
372.83	46.091
373.19	44.345
373.55	45.567
373.91	44.959
374.27	45.106
374.63	45.424
374.99	44.811
375.35	45.968
375.71	45.383
376.07	46.021
376.42	44.629
376.78	45.922
377.14	46.199
377.50	45.568
377.86	46.188
378.22	45.887
378.58	45.823
378.94	45.926
379.30	43.723
379.66	45.996
380.02	46.452
380.38	44.965
380.74	46.251
381.09	46.846
381.45	45.723
381.81	45.095
382.17	46.276
382.53	45.711
382.89	44.885
383.25	46.477
383.61	45.706
383.97	44.931
384.32	46.112
384.68	47.772
385.04	46.366
385.40	45.967
385.76	45.114
386.12	45.578
386.48	46.565
386.83	47.249
387.19	46.702
387.55	45.642
387.91	46.594
388.27	46.341
388.62	45.833
388.98	46.297
389.34	45.152
389.70	45.637
390.06	45.427
390.42	46.885
390.77	46.007
391.13	46.228
391.49	45.675
391.85	46.585
392.20	46.246
392.56	45.938
392.92	45.592
393.28	45.740
393.64	44.553
393.99	45.465
394.35	45.556
394.71	44.994
395.07	45.073
395.42	45.843
395.78	46.391
396.14	45.904
396.50	45.548
396.85	45.366
397.21	45.247
397.57	44.770
397.92	44.541
398.28	44.732
398.64	46.073
399.00	45.377
399.35	44.981
399.71	44.481
400.07	45.091
400.42	44.836
400.78	44.340
401.14	45.156
401.49	44.585
401.85	44.670
402.21	44.757
402.57	44.943
402.92	45.455
403.28	44.391
403.63	43.790
403.99	43.426
404.35	45.545
404.70	45.659
405.06	44.357
405.42	44.644
405.77	43.605
406.13	43.275
406.49	43.434
406.84	43.598
407.20	44.977
407.55	44.985
407.91	44.416
408.27	45.603
408.62	44.352
408.98	44.530
409.34	43.074
409.69	43.684
410.05	44.425
410.40	43.816
410.76	42.530
411.11	44.727
411.47	43.333
411.83	43.117
412.18	42.633
412.54	44.625
412.89	44.484
413.25	45.154
413.60	43.984
413.96	44.285
414.31	44.392
414.67	44.134
415.03	43.678
415.38	44.606
415.74	43.020
416.09	44.785
416.45	45.443
416.80	45.285
417.16	44.621
417.51	44.841
417.87	44.368
418.22	45.200
418.58	45.924
418.93	44.438
419.29	44.917
419.64	45.427
420.00	45.286
420.35	45.296
420.71	45.041
421.06	45.144
421.42	44.963
421.77	45.530
422.12	46.196
422.48	45.609
422.83	46.373
423.19	44.600
423.54	44.377
423.90	46.206
424.25	46.946
424.61	47.127
424.96	46.640
425.31	46.579
425.67	47.980
426.02	47.785
426.38	47.083
426.73	47.542
427.09	48.161
427.44	47.214
427.79	48.370
428.15	49.087
428.50	49.429
428.85	48.795
429.21	48.136
429.56	48.953
429.92	48.284
430.27	48.137
430.62	46.011
430.98	47.605
431.33	47.177
431.68	47.753
432.04	48.112
432.39	50.329
432.74	50.820
433.10	49.169
433.45	50.775
433.80	50.524
434.16	48.975
434.51	50.258
434.86	50.354
435.22	49.703
435.57	50.622
435.92	51.053
436.28	51.210
436.63	50.729
436.98	50.957
437.34	51.199
437.69	50.560
438.04	51.613
438.39	52.014
438.75	50.947
439.10	52.402
439.45	51.441
439.81	51.475
440.16	52.064
440.51	51.633
440.86	52.593
441.22	51.299
441.57	51.969
441.92	51.678
442.27	51.495
442.63	52.185
442.98	51.455
443.33	51.741
443.68	51.811
444.03	51.461
444.39	52.778
444.74	52.019
445.09	53.555
445.44	52.922
445.79	52.827
446.15	53.421
446.50	53.428
446.85	53.137
447.20	51.692
447.55	54.323
447.91	53.330
448.26	52.982
448.61	54.284
448.96	53.976
449.31	53.960
449.66	54.596
450.02	54.133
450.37	55.358
450.72	53.939
451.07	55.207
451.42	55.009
451.77	54.696
452.12	54.169
452.47	54.860
452.83	55.775
453.18	55.616
453.53	55.713
453.88	55.257
454.23	54.910
454.58	55.070
454.93	55.058
455.28	55.447
455.63	55.969
455.98	53.694
456.34	56.049
456.69	55.671
457.04	55.668
457.39	55.829
457.74	55.800
458.09	55.587
458.44	54.600
458.79	54.907
459.14	54.883
459.49	55.153
459.84	56.250
460.19	55.141
460.54	55.043
460.89	55.597
461.24	54.696
461.59	56.633
461.94	55.437
462.29	56.236
462.64	56.721
462.99	57.582
463.34	55.800
463.69	57.048
464.04	57.225
464.39	56.783
464.74	55.217
465.09	55.136
465.44	55.713
465.79	55.144
466.14	55.008
466.49	56.104
466.84	55.964
467.19	56.005
467.54	55.556
467.89	56.338
468.24	56.688
468.59	57.500
468.94	57.488
469.29	57.850
469.64	56.527
469.99	58.419
470.34	58.318
470.68	58.000
471.03	58.973
471.38	58.742
471.73	59.504
472.08	58.904
472.43	60.087
472.78	58.451
473.13	57.196
473.48	58.496
473.83	58.009
474.17	58.723
474.52	58.175
474.87	57.362
475.22	58.138
475.57	55.614
475.92	56.617
476.27	57.073
476.61	56.944
476.96	57.524
477.31	57.378
477.66	58.454
478.01	57.401
478.36	58.960
478.70	57.022
479.05	57.897
479.40	57.639
479.75	57.498
480.10	58.374
480.45	56.116
480.79	57.327
481.14	57.394
481.49	56.176
481.84	56.464
482.19	57.162
482.53	55.819
482.88	56.855
483.23	57.510
483.58	57.720
483.92	58.638
484.27	56.678
484.62	57.895
484.97	55.162
485.31	54.482
485.66	52.715
486.01	50.670
486.36	49.138
486.70	49.482
487.05	50.721
487.40	51.994
487.75	53.579
488.09	53.381
488.44	53.983
488.79	55.189
489.13	56.364
489.48	57.411
489.83	57.506
490.17	57.143
490.52	58.010
490.87	57.716
491.22	58.555
491.56	57.400
491.91	58.333
492.26	58.085
492.60	59.362
492.95	58.133
493.30	57.643
493.64	59.164
493.99	57.692
494.34	58.539
494.68	58.344
495.03	59.048
495.37	58.802
495.72	60.000
496.07	59.389
496.41	57.776
496.76	56.986
497.11	58.226
497.45	57.869
497.80	59.546
498.14	59.223
498.49	59.424
498.84	58.832
499.18	58.364
499.53	58.429
499.87	58.311
500.22	59.512
500.56	58.867
500.91	59.369
501.26	58.429
501.60	59.517
501.95	57.572
502.29	57.689
502.64	58.756
502.98	57.092
503.33	58.040
503.67	57.219
504.02	57.904
504.36	57.692
504.71	59.130
505.06	59.315
505.40	59.569
505.75	58.138
506.09	58.749
506.44	59.539
506.78	59.357
507.13	59.186
507.47	59.631
507.82	59.708
508.16	61.049
508.51	60.676
508.85	59.022
509.19	59.716
509.54	60.449
509.88	60.169
510.23	59.951
510.57	59.604
510.92	61.239
511.26	60.191
511.61	59.281
511.95	59.781
512.30	61.100
512.64	60.073
512.98	60.738
513.33	60.246
513.67	61.160
514.02	61.247
514.36	61.319
514.70	61.920
515.05	62.493
515.39	63.048
515.74	63.204
516.08	60.512
516.42	63.169
516.77	61.280
517.11	61.707
517.46	62.284
517.80	62.534
518.14	63.887
518.49	61.797
518.83	61.923
519.17	63.172
519.52	61.879
519.86	61.744
520.20	62.301
520.55	63.369
520.89	62.471
521.23	64.311
521.58	63.970
521.92	63.732
522.26	62.382
522.61	64.231
522.95	65.165
523.29	62.632
523.64	62.543
523.98	64.143
524.32	62.745
524.66	64.116
525.01	63.136
525.35	63.052
525.69	64.299
526.04	64.188
526.38	64.509
526.72	62.649
527.06	63.454
527.41	63.664
527.75	63.360
528.09	61.589
528.43	63.148
528.78	62.612
529.12	64.901
529.46	61.835
529.80	62.675
530.15	62.581
530.49	61.372
530.83	62.279
531.17	63.899
531.51	63.458
531.86	61.655
532.20	62.176
532.54	63.277
532.88	63.023
533.22	62.340
533.57	62.538
533.91	61.655
534.25	60.358
534.59	61.287
534.93	59.954
535.27	59.647
535.62	59.510
535.96	61.111
536.30	63.010
536.64	61.491
536.98	61.926
537.32	62.187
537.66	62.436
538.01	60.867
538.35	61.260
538.69	60.012
539.03	60.697
539.37	60.376
539.71	60.988
540.05	60.185
540.39	61.321
540.73	60.949
541.07	61.104
541.42	60.075
541.76	60.666
542.10	61.159
542.44	60.910
542.78	60.227
543.12	59.448
543.46	59.837
543.80	60.714
544.14	60.372
544.48	59.793
544.82	59.633
545.16	59.502
545.50	59.004
545.84	60.732
546.18	62.419
546.52	60.918
546.86	60.993
547.20	59.755
547.54	60.545
547.88	59.185
548.22	59.320
548.56	57.749
548.90	59.312
549.24	60.076
549.58	61.018
549.92	62.475
550.26	62.272
550.60	60.479
550.94	62.280
551.28	62.000
551.62	61.034
551.96	61.081
552.30	59.987
552.64	60.712
552.98	58.634
553.32	58.643
553.66	59.609
554.00	59.974
554.34	61.318
554.68	61.425
555.02	59.606
555.36	60.505
555.69	60.209
556.03	58.917
556.37	58.891
556.71	61.278
557.05	59.305
557.39	60.933
557.73	61.051
558.07	61.771
558.41	61.892
558.75	61.286
559.08	61.687
559.42	62.348
559.76	63.150
560.10	59.876
560.44	59.456
560.78	59.910
561.12	58.741
561.45	59.574
561.79	60.050
562.13	59.760
562.47	59.961
562.81	61.223
563.15	59.017
563.48	58.075
563.82	60.449
564.16	58.955
564.50	58.168
564.84	58.845
565.17	57.754
565.51	58.744
565.85	58.359
566.19	56.786
566.52	56.919
566.86	58.435
567.20	56.798
567.54	56.277
567.88	55.973
568.21	53.919
568.55	54.718
568.89	52.828
569.23	52.243
569.56	52.396
569.90	49.120
570.24	48.927
570.57	48.572
570.91	47.395
571.25	46.145
571.59	47.039
571.92	45.883
572.26	46.442
572.60	45.182
572.93	46.751
573.27	46.927
573.61	45.479
573.95	45.120
574.28	45.032
574.62	43.782
574.96	44.168
575.29	43.944
575.63	43.486
575.97	44.279
576.30	44.090
576.64	44.101
576.98	44.323
577.31	43.807
577.65	42.899
577.98	43.525
578.32	42.388
578.66	42.477
578.99	42.522
579.33	43.437
579.67	43.619
580.00	43.385
580.34	43.205
580.67	43.982
581.01	43.559
581.35	42.000
581.68	41.953
582.02	41.981
582.35	41.676
582.69	42.225
583.02	42.527
583.36	43.240
583.70	43.348
584.03	44.817
584.37	44.119
584.70	43.941
585.04	43.850
585.37	42.786
585.71	43.483
586.04	43.206
586.38	43.740
586.72	43.475
587.05	44.004
587.39	43.818
587.72	43.791
588.06	43.730
588.39	43.833
588.73	44.511
589.06	45.579
589.40	46.072
589.73	47.067
590.07	47.255
590.40	47.143
590.73	47.962
591.07	48.956
591.40	48.104
591.74	48.133
592.07	47.463
592.41	47.882
592.74	46.503
593.08	45.020
593.41	43.716
593.75	44.627
594.08	44.503
594.41	45.455
594.75	45.959
595.08	45.988
595.42	45.326
595.75	45.344
596.09	45.985
596.42	46.358
596.75	47.636
597.09	48.122
597.42	47.592
597.75	46.166
598.09	47.928
598.42	46.960
598.76	46.299
599.09	45.789
599.42	44.429
599.76	44.980
600.09	45.356
600.42	45.787
600.76	45.003
601.09	45.841
601.42	44.491
601.76	45.614
602.09	45.364
602.42	45.139
602.76	45.882
603.09	46.531
603.42	45.615
603.76	45.842
604.09	46.145
604.42	45.537
604.76	46.345
605.09	46.694
605.42	45.916
605.75	45.480
606.09	45.868
606.42	45.547
606.75	45.356
607.09	45.164
607.42	46.846
607.75	45.064
608.08	46.060
608.42	46.812
608.75	45.999
609.08	47.250
609.41	48.227
609.75	48.214
610.08	46.942
610.41	46.684
610.74	46.970
611.07	48.113
611.41	47.498
611.74	48.231
612.07	48.025
612.40	48.538
612.73	49.326
613.07	48.555
613.40	48.521
613.73	48.727
614.06	48.450
614.39	48.485
614.72	48.167
615.06	47.676
615.39	48.267
615.72	47.193
616.05	48.970
616.38	47.489
616.71	48.942
617.05	48.490
617.38	48.764
617.71	50.337
618.04	49.411
618.37	49.138
618.70	48.903
619.03	50.611
619.36	52.198
619.69	51.979
620.03	53.294
620.36	52.023
620.69	52.746
621.02	53.465
621.35	53.653
621.68	53.761
622.01	56.015
622.34	53.969
622.67	54.073
623.00	53.506
623.33	53.914
623.66	51.364
623.99	53.493
624.32	53.659
624.65	50.823
624.99	52.941
625.32	52.171
625.65	52.207
625.98	52.162
626.31	54.896
626.64	53.910
626.97	55.394
627.30	54.658
627.63	56.593
627.96	55.321
628.29	55.446
628.62	56.202
628.95	58.599
629.28	57.581
629.61	57.909
629.94	59.118
630.26	56.239
630.59	57.004
630.92	56.413
631.25	57.117
