SpectraSuite Data File
++++++++++++++++++++++++++++++++++++
Date: Wed May 13 21:45:47 PDT 2015
User: schluterlab
Dark Spectrum Present: Yes
Reference Spectrum Present: Yes
Number of Sampled Component Spectra: 1
Spectrometers: USB2E3373
Integration Time (usec): 3000 (USB2E3373)
Spectra Averaged: 3 (USB2E3373)
Boxcar Smoothing: 0 (USB2E3373)
Correct for Electrical Dark: No (USB2E3373)
Strobe/Lamp Enabled: No (USB2E3373)
Correct for Detector Non-linearity: No (USB2E3373)
Correct for Stray Light: No (USB2E3373)
Number of Pixels in Processed Spectrum: 2048
>>>>>Begin Processed Spectral Data<<<<<
178.53	0.000
178.91	150.000
179.29	133.333
179.67	-500.000
180.04	-333.333
180.42	260.000
180.80	900.000
181.18	333.333
181.56	-450.000
181.94	-250.000
182.31	9.091
182.69	123.077
183.07	-200.000
183.45	283.333
183.83	133.333
184.20	71.429
184.58	-266.667
184.96	366.667
185.34	157.143
185.72	0.000
186.09	-400.000
186.47	-240.000
186.85	220.000
187.23	-250.000
187.61	500.000
187.98	300.000
188.36	-50.000
188.74	0.000
189.12	0.000
189.49	100.000
189.87	66.667
190.25	340.000
190.63	300.000
191.00	-60.000
191.38	40.000
191.76	400.000
192.14	100.000
192.51	-15.789
192.89	233.333
193.27	125.000
193.65	-260.000
194.02	154.545
194.40	170.000
194.78	-200.000
195.15	-0.000
195.53	-120.000
195.91	-87.500
196.29	-366.667
196.66	0.000
197.04	800.000
197.42	-120.000
197.79	-50.000
198.17	-125.000
198.55	-333.333
198.92	75.000
199.30	-100.000
199.68	80.000
200.05	250.000
200.43	16.667
200.81	-1600.000
201.18	-260.000
201.56	-16.667
201.94	575.000
202.31	4.348
202.69	-42.857
203.07	-466.667
203.44	-100.000
203.82	-500.000
204.19	-130.000
204.57	0.000
204.95	-33.333
205.32	0.000
205.70	50.000
206.08	-225.000
206.45	-200.000
206.83	350.000
207.20	-333.333
207.58	30.000
207.96	-1500.000
208.33	-142.857
208.71	-1300.000
209.08	175.000
209.46	350.000
209.84	0.000
210.21	170.000
210.59	2300.000
210.96	200.000
211.34	700.000
211.71	-200.000
212.09	-50.000
212.46	-90.000
212.84	-233.333
213.22	75.000
213.59	-600.000
213.97	-500.000
214.34	-500.000
214.72	-30.769
215.09	150.000
215.47	122.222
215.84	250.000
216.22	-62.500
216.59	100.000
216.97	333.333
217.34	177.778
217.72	0.000
218.09	200.000
218.47	400.000
218.84	-157.143
219.22	-50.000
219.59	-133.333
219.97	-200.000
220.34	-25.000
220.72	-140.000
221.09	0.000
221.47	-50.000
221.84	-700.000
222.22	0.000
222.59	500.000
222.97	-100.000
223.34	-50.000
223.72	-600.000
224.09	-650.000
224.46	-63.636
224.84	-12.500
225.21	-14.286
225.59	-200.000
225.96	-16.667
226.34	-60.000
226.71	-200.000
227.08	400.000
227.46	-150.000
227.83	300.000
228.21	-18.750
228.58	-425.000
228.95	-64.706
229.33	31.250
229.70	-75.000
230.08	61.538
230.45	-250.000
230.82	-83.333
231.20	228.571
231.57	-125.000
231.95	-100.000
232.32	-58.333
232.69	-35.294
233.07	-1400.000
233.44	-8.696
233.81	-400.000
234.19	4.167
234.56	-73.333
234.93	-100.000
235.31	52.632
235.68	-46.154
236.05	23.077
236.43	-5.556
236.80	-3.030
237.17	-60.000
237.55	-94.118
237.92	-37.931
238.29	-22.222
238.67	25.000
239.04	-6.452
239.41	-2.128
239.79	19.149
240.16	0.000
240.53	10.714
240.91	5.357
241.28	14.286
241.65	9.677
242.02	13.158
242.40	11.594
242.77	-4.348
243.14	0.000
243.51	14.894
243.89	19.231
244.26	20.755
244.63	1.923
245.00	8.333
245.38	7.563
245.75	11.475
246.12	16.541
246.49	1.626
246.87	5.042
247.24	10.811
247.61	14.570
247.98	8.333
248.36	3.550
248.73	6.180
249.10	9.091
249.47	10.215
249.84	10.000
250.22	15.423
250.59	11.215
250.96	12.273
251.33	6.220
251.70	11.715
252.08	10.042
252.45	15.638
252.82	14.449
253.19	8.949
253.56	11.151
253.94	17.082
254.31	12.324
254.68	16.107
255.05	13.531
255.42	10.490
255.79	13.497
256.16	16.088
256.54	11.746
256.91	11.076
257.28	11.635
257.65	8.917
258.02	12.903
258.39	14.035
258.76	11.047
259.14	13.636
259.51	11.236
259.88	13.821
260.25	14.167
260.62	8.989
260.99	11.406
261.36	11.140
261.73	12.840
262.10	11.450
262.47	9.877
262.85	11.940
263.22	12.308
263.59	12.208
263.96	11.679
264.33	11.298
264.70	13.721
265.07	11.111
265.44	12.414
265.81	14.416
266.18	11.617
266.55	11.354
266.92	10.593
267.29	11.934
267.66	12.527
268.03	12.140
268.40	11.017
268.77	13.843
269.14	13.265
269.51	12.526
269.88	11.202
270.25	13.347
270.62	11.475
270.99	12.598
271.36	13.294
271.73	15.060
272.10	13.524
272.47	11.900
272.84	12.402
273.21	14.090
273.58	10.656
273.95	12.075
274.32	12.313
274.69	13.843
275.06	12.898
275.43	10.923
275.80	12.943
276.17	11.971
276.54	11.368
276.91	15.505
277.28	11.552
277.65	12.587
278.02	12.321
278.39	11.901
278.76	14.214
279.13	10.463
279.50	12.414
279.87	11.413
280.23	13.333
280.60	12.284
280.97	12.338
281.34	14.196
281.71	9.919
282.08	12.308
282.45	11.639
282.82	15.815
283.19	14.177
283.56	11.875
283.92	12.997
284.29	12.949
284.66	12.356
285.03	11.075
285.40	11.782
285.77	13.063
286.14	13.070
286.51	14.243
286.87	10.308
287.24	12.537
287.61	15.211
287.98	13.676
288.35	11.028
288.72	12.339
289.08	11.823
289.45	13.950
289.82	13.767
290.19	13.324
290.56	13.068
290.93	12.431
291.29	13.406
291.66	15.437
292.03	13.488
292.40	14.536
292.77	15.127
293.13	13.947
293.50	15.686
293.87	15.067
294.24	13.757
294.60	15.735
294.97	16.402
295.34	14.116
295.71	14.717
296.08	14.398
296.44	14.413
296.81	16.078
297.18	17.125
297.55	15.802
297.91	16.646
298.28	16.223
298.65	18.103
299.02	17.827
299.38	16.442
299.75	16.707
300.12	16.512
300.48	16.257
300.85	17.898
301.22	16.609
301.59	17.840
301.95	17.305
302.32	17.620
302.69	17.740
303.05	17.276
303.42	20.000
303.79	20.189
304.15	19.277
304.52	20.430
304.89	20.377
305.25	19.759
305.62	20.499
305.99	21.763
306.35	21.630
306.72	21.465
307.09	22.002
307.45	21.193
307.82	20.842
308.19	21.003
308.55	22.108
308.92	23.281
309.29	22.823
309.65	23.277
310.02	23.260
310.38	24.797
310.75	24.063
311.12	25.462
311.48	24.036
311.85	26.673
312.22	25.725
312.58	25.894
312.95	25.473
313.31	27.089
313.68	27.385
314.05	27.410
314.41	28.915
314.78	30.645
315.14	28.519
315.51	28.164
315.87	30.028
316.24	31.589
316.61	32.694
316.97	31.296
317.34	30.838
317.70	32.649
318.07	32.209
318.43	34.598
318.80	32.984
319.16	34.041
319.53	35.753
319.89	35.411
320.26	37.523
320.62	37.349
320.99	36.822
321.35	39.008
321.72	40.231
322.08	39.760
322.45	42.276
322.81	43.346
323.18	43.381
323.54	45.126
323.91	44.625
324.27	46.175
324.64	45.557
325.00	48.119
325.37	48.208
325.73	49.158
326.10	50.715
326.46	51.589
326.83	52.913
327.19	53.171
327.56	54.553
327.92	54.224
328.29	56.845
328.65	57.756
329.01	57.344
329.38	59.565
329.74	58.541
330.11	59.243
330.47	59.896
330.84	59.747
331.20	58.753
331.56	61.413
331.93	59.948
332.29	61.859
332.66	60.169
333.02	61.599
333.38	62.544
333.75	63.396
334.11	63.021
334.48	63.121
334.84	61.926
335.20	61.235
335.57	62.750
335.93	63.058
336.29	64.098
336.66	62.991
337.02	62.783
337.38	63.534
337.75	62.102
338.11	62.852
338.47	62.928
338.84	61.340
339.20	64.727
339.56	63.737
339.93	64.304
340.29	61.998
340.65	63.302
341.02	61.647
341.38	63.429
341.74	64.034
342.11	63.006
342.47	64.519
342.83	63.235
343.20	65.651
343.56	64.268
343.92	62.876
344.28	64.692
344.65	64.653
345.01	63.438
345.37	64.227
345.73	64.216
346.10	65.169
346.46	64.797
346.82	65.088
347.19	63.608
347.55	65.105
347.91	64.380
348.27	64.353
348.63	64.583
349.00	64.701
349.36	65.149
349.72	63.960
350.08	64.977
350.45	65.701
350.81	66.197
351.17	65.435
351.53	66.222
351.89	65.925
352.26	63.552
352.62	64.806
352.98	66.294
353.34	67.552
353.70	65.576
354.07	66.353
354.43	63.686
354.79	66.987
355.15	65.295
355.51	65.376
355.87	66.224
356.24	67.095
356.60	66.224
356.96	65.848
357.32	65.944
357.68	65.546
358.04	66.175
358.40	65.736
358.77	65.367
359.13	68.638
359.49	66.389
359.85	66.338
360.21	67.155
360.57	66.844
360.93	69.423
361.29	67.654
361.66	67.957
362.02	67.383
362.38	66.765
362.74	66.715
363.10	67.824
363.46	67.795
363.82	69.254
364.18	67.658
364.54	69.584
364.90	68.502
365.26	67.799
365.62	68.608
365.98	68.256
366.35	68.723
366.71	68.046
367.07	69.100
367.43	68.153
367.79	69.423
368.15	68.776
368.51	67.229
368.87	69.784
369.23	69.181
369.59	69.063
369.95	68.868
370.31	68.550
370.67	69.008
371.03	70.082
371.39	70.972
371.75	69.929
372.11	70.014
372.47	68.709
372.83	69.972
373.19	70.216
373.55	70.087
373.91	69.661
374.27	69.087
374.63	71.693
374.99	69.220
375.35	69.452
375.71	69.837
376.07	70.391
376.42	70.254
376.78	70.013
377.14	72.203
377.50	70.665
377.86	71.116
378.22	70.670
378.58	70.492
378.94	72.125
379.30	69.956
379.66	69.667
380.02	70.588
380.38	69.880
380.74	70.891
381.09	71.291
381.45	70.133
381.81	71.349
382.17	69.817
382.53	70.338
382.89	70.748
383.25	71.605
383.61	71.126
383.97	71.062
384.32	71.141
384.68	71.499
385.04	69.884
385.40	71.918
385.76	69.830
386.12	70.691
386.48	70.909
386.83	72.403
387.19	71.808
387.55	71.122
387.91	71.218
388.27	70.345
388.62	71.723
388.98	72.215
389.34	71.115
389.70	70.452
390.06	70.625
390.42	69.845
390.77	71.365
391.13	72.159
391.49	69.639
391.85	70.735
392.20	72.180
392.56	71.746
392.92	71.679
393.28	68.855
393.64	71.315
393.99	69.155
394.35	69.753
394.71	70.321
395.07	68.931
395.42	69.470
395.78	69.241
396.14	71.211
396.50	70.070
396.85	72.785
397.21	69.538
397.57	70.186
397.92	70.898
398.28	70.220
398.64	69.945
399.00	68.862
399.35	71.453
399.71	69.423
400.07	69.699
400.42	70.470
400.78	69.305
401.14	69.651
401.49	69.443
401.85	71.007
402.21	70.402
402.57	68.853
402.92	68.961
403.28	69.981
403.63	69.002
403.99	68.906
404.35	69.888
404.70	68.157
405.06	69.289
405.42	69.535
405.77	69.182
406.13	68.000
406.49	68.963
406.84	68.132
407.20	68.680
407.55	68.896
407.91	66.777
408.27	67.686
408.62	68.754
408.98	67.694
409.34	68.564
409.69	69.266
410.05	68.408
410.40	66.890
410.76	67.930
411.11	68.097
411.47	69.409
411.83	69.495
412.18	67.254
412.54	67.794
412.89	69.404
413.25	66.844
413.60	68.464
413.96	66.979
414.31	67.571
414.67	68.000
415.03	69.080
415.38	67.569
415.74	68.031
416.09	66.689
416.45	68.694
416.80	68.054
417.16	68.016
417.51	68.721
417.87	68.056
418.22	68.261
418.58	68.003
418.93	68.613
419.29	68.779
419.64	67.939
420.00	70.349
420.35	67.842
420.71	68.495
421.06	68.881
421.42	69.465
421.77	68.324
422.12	68.883
422.48	67.884
422.83	68.695
423.19	68.028
423.54	69.435
423.90	67.874
424.25	69.902
424.61	68.145
424.96	68.539
425.31	67.078
425.67	69.136
426.02	70.848
426.38	69.900
426.73	68.723
427.09	68.230
427.44	68.115
427.79	69.359
428.15	68.869
428.50	68.822
428.85	69.496
429.21	68.655
429.56	69.713
429.92	70.068
430.27	68.456
430.62	69.412
430.98	69.381
431.33	69.210
431.68	69.010
432.04	69.972
432.39	69.342
432.74	69.221
433.10	69.553
433.45	69.882
433.80	69.828
434.16	69.689
434.51	70.272
434.86	71.908
435.22	71.477
435.57	70.209
435.92	70.869
436.28	70.511
436.63	69.573
436.98	71.798
437.34	71.306
437.69	71.251
438.04	69.892
438.39	71.606
438.75	71.156
439.10	71.429
439.45	69.976
439.81	72.968
440.16	71.478
440.51	70.571
440.86	72.081
441.22	71.773
441.57	69.740
441.92	71.643
442.27	69.643
442.63	70.560
442.98	71.296
443.33	71.050
443.68	70.269
444.03	70.989
444.39	72.682
444.74	71.894
445.09	69.438
445.44	72.225
445.79	72.070
446.15	72.102
446.50	71.586
446.85	72.368
447.20	72.452
447.55	71.628
447.91	71.573
448.26	72.899
448.61	72.842
448.96	71.640
449.31	71.845
449.66	72.470
450.02	72.314
450.37	71.974
450.72	71.355
451.07	72.288
451.42	70.181
451.77	71.455
452.12	72.549
452.47	72.628
452.83	72.347
453.18	73.138
453.53	71.753
453.88	71.988
454.23	73.053
454.58	71.569
454.93	72.675
455.28	72.961
455.63	72.489
455.98	72.002
456.34	71.456
456.69	70.990
457.04	71.703
457.39	72.940
457.74	71.574
458.09	71.209
458.44	71.563
458.79	69.962
459.14	69.719
459.49	72.195
459.84	69.504
460.19	71.849
460.54	72.689
460.89	71.847
461.24	71.948
461.59	72.403
461.94	71.049
462.29	72.610
462.64	71.108
462.99	70.758
463.34	72.307
463.69	71.585
464.04	70.648
464.39	71.629
464.74	72.052
465.09	70.304
465.44	71.100
465.79	71.708
466.14	70.182
466.49	71.320
466.84	70.472
467.19	69.618
467.54	71.030
467.89	71.339
468.24	71.174
468.59	71.383
468.94	71.456
469.29	72.108
469.64	73.013
469.99	71.310
470.34	70.870
470.68	71.896
471.03	70.945
471.38	69.680
471.73	71.468
472.08	72.440
472.43	72.625
472.78	70.318
473.13	68.865
473.48	70.059
473.83	69.931
474.17	72.266
474.52	71.327
474.87	70.567
475.22	70.894
475.57	69.437
475.92	70.611
476.27	69.522
476.61	70.215
476.96	70.588
477.31	68.501
477.66	70.169
478.01	68.846
478.36	69.210
478.70	68.153
479.05	69.367
479.40	67.551
479.75	69.926
480.10	68.485
480.45	67.876
480.79	69.487
481.14	69.048
481.49	69.758
481.84	68.473
482.19	66.929
482.53	68.952
482.88	69.415
483.23	67.661
483.58	68.667
483.92	68.434
484.27	68.115
484.62	66.844
484.97	67.939
485.31	66.429
485.66	63.634
486.01	64.004
486.36	64.413
486.70	64.601
487.05	66.743
487.40	65.554
487.75	66.293
488.09	66.062
488.44	67.192
488.79	67.070
489.13	65.686
489.48	67.379
489.83	66.503
490.17	67.000
490.52	68.303
490.87	66.203
491.22	67.499
491.56	68.999
491.91	66.347
492.26	67.553
492.60	67.196
492.95	67.153
493.30	67.684
493.64	64.700
493.99	66.763
494.34	66.137
494.68	66.683
495.03	66.947
495.37	66.569
495.72	66.216
496.07	66.683
496.41	66.168
496.76	66.910
497.11	65.962
497.45	65.856
497.80	67.037
498.14	66.448
498.49	66.213
498.84	65.587
499.18	66.351
499.53	65.042
499.87	64.726
500.22	65.655
500.56	65.998
500.91	65.996
501.26	63.300
501.60	65.147
501.95	64.351
502.29	65.437
502.64	64.465
502.98	64.499
503.33	65.304
503.67	64.946
504.02	65.245
504.36	63.893
504.71	64.533
505.06	65.206
505.40	64.794
505.75	64.903
506.09	64.384
506.44	63.407
506.78	63.687
507.13	64.449
507.47	64.316
507.82	63.893
508.16	64.169
508.51	63.171
508.85	63.815
509.19	62.963
509.54	64.290
509.88	63.441
510.23	62.474
510.57	63.612
510.92	63.685
511.26	65.127
511.61	64.160
511.95	63.616
512.30	62.909
512.64	63.734
512.98	61.662
513.33	63.380
513.67	63.089
514.02	64.310
514.36	62.921
514.70	62.933
515.05	63.312
515.39	62.323
515.74	62.463
516.08	62.183
516.42	61.694
516.77	62.039
517.11	62.904
517.46	63.866
517.80	64.588
518.14	62.278
518.49	61.965
518.83	61.098
519.17	62.590
519.52	62.967
519.86	62.234
520.20	61.734
520.55	62.500
520.89	61.796
521.23	64.615
521.58	61.947
521.92	61.094
522.26	62.524
522.61	62.637
522.95	63.212
523.29	62.286
523.64	61.920
523.98	61.563
524.32	60.302
524.66	62.013
525.01	62.254
525.35	61.488
525.69	60.040
526.04	60.326
526.38	59.911
526.72	60.815
527.06	59.703
527.41	60.424
527.75	59.012
528.09	61.947
528.43	60.787
528.78	59.625
529.12	61.255
529.46	59.437
529.80	60.712
530.15	58.044
530.49	59.704
530.83	60.393
531.17	60.685
531.51	57.586
531.86	58.604
532.20	59.821
532.54	58.414
532.88	58.884
533.22	58.249
533.57	56.954
533.91	58.129
534.25	58.529
534.59	56.950
534.93	56.314
535.27	57.389
535.62	57.500
535.96	57.775
536.30	56.582
536.64	56.664
536.98	56.833
537.32	58.007
537.66	57.123
538.01	55.895
538.35	57.044
538.69	55.853
539.03	53.758
539.37	55.801
539.71	54.775
540.05	55.601
540.39	55.334
540.73	56.285
541.07	55.170
541.42	56.094
541.76	54.736
542.10	54.232
542.44	54.747
542.78	55.309
543.12	54.447
543.46	55.425
543.80	53.225
544.14	53.751
544.48	53.152
544.82	54.607
545.16	54.564
545.50	54.085
545.84	53.647
546.18	52.595
546.52	54.128
546.86	51.731
547.20	53.967
547.54	53.109
547.88	54.251
548.22	53.160
548.56	53.502
548.90	52.368
549.24	52.917
549.58	53.096
549.92	54.365
550.26	54.244
550.60	53.078
550.94	52.612
551.28	51.703
551.62	53.308
551.96	51.830
552.30	51.601
552.64	52.472
552.98	51.491
553.32	53.064
553.66	53.778
554.00	52.196
554.34	51.355
554.68	52.946
555.02	51.497
555.36	52.950
555.69	51.493
556.03	51.751
556.37	51.565
556.71	50.666
557.05	51.513
557.39	51.696
557.73	51.664
558.07	51.696
558.41	51.249
558.75	51.270
559.08	51.323
559.42	52.006
559.76	49.924
560.10	51.422
560.44	51.142
560.78	50.647
561.12	50.175
561.45	49.796
561.79	49.312
562.13	49.930
562.47	50.286
562.81	48.773
563.15	49.788
563.48	49.071
563.82	49.932
564.16	49.154
564.50	49.661
564.84	48.581
565.17	49.470
565.51	48.195
565.85	47.968
566.19	49.007
566.52	47.837
566.86	47.724
567.20	47.587
567.54	47.093
567.88	46.529
568.21	46.171
568.55	46.583
568.89	45.314
569.23	45.325
569.56	45.181
569.90	44.632
570.24	43.538
570.57	43.910
570.91	43.675
571.25	43.694
571.59	42.694
571.92	44.207
572.26	43.035
572.60	43.332
572.93	44.736
573.27	42.575
573.61	43.075
573.95	42.967
574.28	42.923
574.62	41.792
574.96	42.347
575.29	42.252
575.63	41.781
575.97	42.391
576.30	42.428
576.64	42.023
576.98	42.205
577.31	42.133
577.65	41.727
577.98	41.279
578.32	40.785
578.66	41.582
578.99	41.127
579.33	41.704
579.67	41.955
580.00	40.646
580.34	40.669
580.67	41.058
581.01	41.535
581.35	41.327
581.68	40.564
582.02	40.739
582.35	40.702
582.69	40.715
583.02	40.329
583.36	40.707
583.70	41.365
584.03	41.332
584.37	41.093
584.70	41.225
585.04	40.545
585.37	40.535
585.71	40.087
586.04	40.451
586.38	41.173
586.72	40.011
587.05	40.609
587.39	40.022
587.72	40.372
588.06	41.067
588.39	40.274
588.73	41.215
589.06	39.961
589.40	41.245
589.73	40.747
590.07	40.868
590.40	40.856
590.73	41.815
591.07	41.663
591.40	40.522
591.74	40.729
592.07	41.488
592.41	40.712
592.74	40.162
593.08	40.068
593.41	39.981
593.75	39.276
594.08	40.138
594.41	40.329
594.75	41.342
595.08	40.889
595.42	40.551
595.75	40.094
596.09	40.069
596.42	40.400
596.75	40.193
597.09	42.038
597.42	41.319
597.75	41.067
598.09	40.893
598.42	40.447
598.76	39.966
599.09	40.576
599.42	39.728
599.76	41.006
600.09	39.797
600.42	39.021
600.76	39.727
601.09	39.473
601.42	40.102
601.76	38.726
602.09	40.292
602.42	40.570
602.76	39.723
603.09	40.205
603.42	39.184
603.76	39.361
604.09	38.893
604.42	39.180
604.76	39.677
605.09	39.918
605.42	40.081
605.75	39.015
606.09	37.624
606.42	39.318
606.75	38.961
607.09	39.672
607.42	38.967
607.75	38.643
608.08	38.774
608.42	39.269
608.75	39.513
609.08	38.756
609.41	38.500
609.75	38.628
610.08	39.448
610.41	38.678
610.74	38.643
611.07	38.577
611.41	38.690
611.74	39.234
612.07	38.927
612.40	39.676
612.73	39.078
613.07	38.636
613.40	38.711
613.73	39.003
614.06	38.364
614.39	38.243
614.72	38.534
615.06	39.389
615.39	38.687
615.72	39.363
616.05	38.964
616.38	38.603
616.71	38.332
617.05	39.128
617.38	38.940
617.71	37.745
618.04	38.635
618.37	38.927
618.70	39.069
619.03	37.595
619.36	39.075
619.69	39.181
620.03	38.799
620.36	37.717
620.69	36.617
621.02	37.769
621.35	37.122
621.68	38.468
622.01	38.107
622.34	37.351
622.67	38.528
623.00	38.830
623.33	39.043
623.66	37.695
623.99	38.410
624.32	38.298
624.65	37.760
624.99	36.885
625.32	37.341
625.65	37.907
625.98	38.942
626.31	39.429
626.64	37.489
626.97	39.446
627.30	37.810
627.63	37.024
627.96	36.970
628.29	39.721
628.62	38.201
628.95	39.479
629.28	38.325
629.61	39.617
629.94	39.458
630.26	39.606
630.59	38.961
630.92	37.651
631.25	38.002
631.58	40.043
631.91	37.858
632.24	37.322
632.57	38.444
632.90	39.907
633.23	39.209
