SpectraSuite Data File
++++++++++++++++++++++++++++++++++++
Date: Tue May 12 17:08:03 PDT 2015
User: schluterlab
Dark Spectrum Present: Yes
Reference Spectrum Present: Yes
Number of Sampled Component Spectra: 1
Spectrometers: USB2E3373
Integration Time (usec): 3000 (USB2E3373)
Spectra Averaged: 3 (USB2E3373)
Boxcar Smoothing: 0 (USB2E3373)
Correct for Electrical Dark: No (USB2E3373)
Strobe/Lamp Enabled: No (USB2E3373)
Correct for Detector Non-linearity: No (USB2E3373)
Correct for Stray Light: No (USB2E3373)
Number of Pixels in Processed Spectrum: 2048
>>>>>Begin Processed Spectral Data<<<<<
178.53	0.000
178.91	-266.667
179.29	-750.000
179.67	-3700.000
180.04	-166.667
180.42	500.000
180.80	1550.000
181.18	0.000
181.56	-375.000
181.94	0.000
182.31	1100.000
182.69	-2800.000
183.07	557.143
183.45	-3100.000
183.83	-1550.000
184.20	350.000
184.58	542.857
184.96	-215.385
185.34	-158.333
185.72	1750.000
186.09	-650.000
186.47	-3600.000
186.85	1166.667
187.23	760.000
187.61	1850.000
187.98	400.000
188.36	264.286
188.74	341.667
189.12	300.000
189.49	975.000
189.87	0.000
190.25	550.000
190.63	2400.000
191.00	-125.000
191.38	-3600.000
191.76	-750.000
192.14	375.000
192.51	-2200.000
192.89	1500.000
193.27	1166.667
193.65	-700.000
194.02	-820.000
194.40	528.571
194.78	-157.143
195.15	240.000
195.53	-2000.000
195.91	-560.000
196.29	4000.000
196.66	218.750
197.04	775.000
197.42	-1200.000
197.79	425.000
198.17	283.333
198.55	0.000
198.92	414.286
199.30	1100.000
199.68	1700.000
200.05	683.333
200.43	-566.667
200.81	172.222
201.18	3000.000
201.56	358.333
201.94	-625.000
202.31	-325.000
202.69	-400.000
203.07	3000.000
203.44	-516.667
203.82	325.000
204.19	760.000
204.57	-1250.000
204.95	-775.000
205.32	-580.000
205.70	533.333
206.08	725.000
206.45	-600.000
206.83	366.667
207.20	210.526
207.58	216.667
207.96	700.000
208.33	0.000
208.71	585.714
209.08	660.000
209.46	-1900.000
209.84	-600.000
210.21	780.000
210.59	-580.000
210.96	350.000
211.34	-950.000
211.71	400.000
212.09	625.000
212.46	1350.000
212.84	-416.667
213.22	377.778
213.59	-3200.000
213.97	310.000
214.34	1000.000
214.72	1066.667
215.09	1433.333
215.47	-3800.000
215.84	-340.000
216.22	-425.000
216.59	0.000
216.97	0.000
217.34	1450.000
217.72	-1500.000
218.09	1400.000
218.47	350.000
218.84	825.000
219.22	1200.000
219.59	1033.333
219.97	328.571
220.34	355.556
220.72	1500.000
221.09	3000.000
221.47	225.000
221.84	1166.667
222.22	430.000
222.59	238.889
222.97	221.429
223.34	231.250
223.72	-1450.000
224.09	900.000
224.46	284.615
224.84	-600.000
225.21	300.000
225.59	240.000
225.96	1166.667
226.34	-420.000
226.71	-850.000
227.08	-520.000
227.46	0.000
227.83	-483.333
228.21	-1200.000
228.58	333.333
228.95	1000.000
229.33	388.889
229.70	1150.000
230.08	307.692
230.45	3600.000
230.82	-800.000
231.20	-733.333
231.57	-966.667
231.95	600.000
232.32	233.333
232.69	433.333
233.07	275.000
233.44	-1550.000
233.81	233.333
234.19	155.556
234.56	250.000
234.93	176.471
235.31	190.000
235.68	237.500
236.05	139.286
236.43	137.037
236.80	250.000
237.17	151.724
237.55	100.000
237.92	97.500
238.29	106.061
238.67	96.875
239.04	65.854
239.41	47.917
239.79	67.500
240.16	62.500
240.53	49.180
240.91	37.681
241.28	47.458
241.65	53.030
242.02	43.662
242.40	50.000
242.77	39.560
243.14	34.177
243.51	48.485
243.89	39.252
244.26	35.514
244.63	33.663
245.00	30.275
245.38	20.339
245.75	31.818
246.12	31.852
246.49	29.787
246.87	18.033
247.24	28.000
247.61	20.625
247.98	24.490
248.36	19.394
248.73	21.939
249.10	13.095
249.47	21.500
249.84	15.920
250.22	18.378
250.59	19.500
250.96	21.519
251.33	23.721
251.70	16.518
252.08	16.387
252.45	15.538
252.82	14.829
253.19	14.229
253.56	14.615
253.94	14.493
254.31	12.791
254.68	15.679
255.05	19.655
255.42	16.058
255.79	16.612
256.16	16.610
256.54	15.260
256.91	15.359
257.28	12.709
257.65	10.658
258.02	12.684
258.39	16.046
258.76	12.754
259.14	8.857
259.51	10.787
259.88	10.638
260.25	10.714
260.62	9.863
260.99	8.264
261.36	11.421
261.73	9.043
262.10	8.901
262.47	10.500
262.85	9.600
263.22	11.311
263.59	8.951
263.96	11.278
264.33	9.383
264.70	10.319
265.07	8.537
265.44	11.468
265.81	12.736
266.18	8.238
266.55	8.511
266.92	8.501
267.29	8.772
267.66	6.951
268.03	6.502
268.40	11.205
268.77	11.894
269.14	8.677
269.51	7.795
269.88	11.224
270.25	6.263
270.62	8.155
270.99	7.708
271.36	9.756
271.73	10.063
272.10	9.899
272.47	10.119
272.84	8.383
273.21	7.851
273.58	8.704
273.95	5.133
274.32	8.755
274.69	9.252
275.06	8.561
275.43	7.088
275.80	8.302
276.17	9.007
276.54	7.477
276.91	8.955
277.28	7.847
277.65	7.011
278.02	7.721
278.39	6.295
278.76	8.793
279.13	7.829
279.50	7.818
279.87	5.587
280.23	6.262
280.60	8.029
280.97	6.552
281.34	6.271
281.71	6.957
282.08	8.718
282.45	6.926
282.82	6.856
283.19	7.790
283.56	7.934
283.92	5.700
284.29	7.820
284.66	6.723
285.03	6.965
285.40	5.785
285.77	6.481
286.14	8.978
286.51	7.822
286.87	6.013
287.24	5.405
287.61	6.839
287.98	8.060
288.35	7.111
288.72	5.311
289.08	6.456
289.45	7.470
289.82	7.344
290.19	7.174
290.56	8.879
290.93	7.050
291.29	7.320
291.66	6.215
292.03	6.872
292.40	7.995
292.77	8.496
293.13	6.562
293.50	6.748
293.87	7.046
294.24	8.112
294.60	7.402
294.97	7.133
295.34	8.898
295.71	8.673
296.08	7.600
296.44	7.497
296.81	6.079
297.18	6.844
297.55	8.128
297.91	6.650
298.28	7.488
298.65	7.975
299.02	7.479
299.38	7.914
299.75	6.951
300.12	8.372
300.48	8.899
300.85	7.986
301.22	7.907
301.59	7.429
301.95	6.768
302.32	8.033
302.69	8.258
303.05	8.418
303.42	7.175
303.79	8.342
304.15	8.141
304.52	8.562
304.89	6.823
305.25	7.564
305.62	7.143
305.99	8.043
306.35	5.684
306.72	7.388
307.09	7.350
307.45	8.025
307.82	7.407
308.19	7.629
308.55	7.100
308.92	9.127
309.29	8.284
309.65	8.028
310.02	8.418
310.38	7.378
310.75	8.390
311.12	8.429
311.48	8.591
311.85	8.874
312.22	8.214
312.58	8.163
312.95	9.126
313.31	8.895
313.68	7.692
314.05	9.158
314.41	8.101
314.78	7.576
315.14	8.531
315.51	9.839
315.87	8.942
316.24	8.497
316.61	8.863
316.97	8.257
317.34	8.805
317.70	9.833
318.07	8.452
318.43	9.402
318.80	9.895
319.16	8.741
319.53	9.027
319.89	8.333
320.26	10.615
320.62	9.890
320.99	10.010
321.35	9.647
321.72	9.962
322.08	9.972
322.45	10.173
322.81	10.887
323.18	10.391
323.54	11.498
323.91	11.061
324.27	10.964
324.64	9.083
325.00	11.034
325.37	11.214
325.73	10.371
326.10	11.930
326.46	10.652
326.83	9.440
327.19	11.807
327.56	10.543
327.92	11.230
328.29	10.884
328.65	10.873
329.01	10.778
329.38	11.506
329.74	10.589
330.11	11.468
330.47	12.106
330.84	11.389
331.20	11.252
331.56	12.694
331.93	11.719
332.29	9.864
332.66	11.310
333.02	10.739
333.38	10.384
333.75	12.177
334.11	11.242
334.48	10.342
334.84	11.233
335.20	11.206
335.57	10.579
335.93	11.606
336.29	11.111
336.66	11.664
337.02	10.778
337.38	11.694
337.75	11.824
338.11	11.646
338.47	11.092
338.84	10.754
339.20	10.563
339.56	10.345
339.93	9.783
340.29	10.504
340.65	11.148
341.02	11.826
341.38	11.576
341.74	9.801
342.11	9.683
342.47	10.500
342.83	11.403
343.20	11.237
343.56	9.452
343.92	10.487
344.28	11.164
344.65	10.676
345.01	9.841
345.37	10.337
345.73	10.556
346.10	10.916
346.46	10.606
346.82	9.491
347.19	11.901
347.55	10.617
347.91	9.894
348.27	9.682
348.63	10.839
349.00	10.739
349.36	10.661
349.72	10.474
350.08	10.714
350.45	10.891
350.81	10.398
351.17	9.938
351.53	9.931
351.89	9.557
352.26	9.902
352.62	10.784
352.98	10.813
353.34	10.940
353.70	9.786
354.07	10.154
354.43	10.676
354.79	9.643
355.15	9.801
355.51	9.894
355.87	9.789
356.24	9.931
356.60	9.665
356.96	10.766
357.32	10.023
357.68	10.646
358.04	10.334
358.40	10.120
358.77	10.443
359.13	9.985
359.49	11.193
359.85	11.020
360.21	9.510
360.57	11.022
360.93	10.317
361.29	10.534
361.66	11.037
362.02	8.949
362.38	10.823
362.74	10.686
363.10	11.220
363.46	10.290
363.82	11.010
364.18	10.669
364.54	10.443
364.90	11.513
365.26	11.034
365.62	10.497
365.98	9.566
366.35	9.931
366.71	10.687
367.07	10.853
367.43	10.544
367.79	10.372
368.15	9.498
368.51	11.096
368.87	10.326
369.23	10.326
369.59	10.587
369.95	10.559
370.31	9.993
370.67	10.895
371.03	10.644
371.39	10.526
371.75	10.537
372.11	11.353
372.47	10.548
372.83	10.537
373.19	10.829
373.55	11.065
373.91	10.843
374.27	10.913
374.63	10.305
374.99	10.108
375.35	10.820
375.71	10.818
376.07	10.212
376.42	9.783
376.78	10.469
377.14	9.895
377.50	10.487
377.86	10.890
378.22	10.786
378.58	10.714
378.94	10.199
379.30	10.673
379.66	10.716
380.02	11.202
380.38	10.304
380.74	10.438
381.09	10.339
381.45	10.520
381.81	11.229
382.17	10.379
382.53	10.258
382.89	10.585
383.25	10.480
383.61	10.490
383.97	11.158
384.32	10.850
384.68	12.002
385.04	10.785
385.40	10.498
385.76	10.825
386.12	10.637
386.48	10.699
386.83	10.880
387.19	10.130
387.55	10.777
387.91	10.970
388.27	10.767
388.62	12.089
388.98	10.262
389.34	10.589
389.70	11.085
390.06	11.402
390.42	11.413
390.77	11.302
391.13	10.561
391.49	11.373
391.85	11.200
392.20	12.038
392.56	11.529
392.92	9.882
393.28	10.650
393.64	10.780
393.99	10.848
394.35	10.653
394.71	11.218
395.07	10.645
395.42	10.890
395.78	12.091
396.14	11.627
396.50	10.650
396.85	10.793
397.21	10.650
397.57	11.596
397.92	10.687
398.28	9.818
398.64	11.402
399.00	10.689
399.35	9.984
399.71	10.872
400.07	11.016
400.42	10.507
400.78	10.557
401.14	9.982
401.49	10.829
401.85	10.950
402.21	10.310
402.57	10.533
402.92	10.727
403.28	9.905
403.63	10.653
403.99	10.736
404.35	10.785
404.70	10.455
405.06	10.163
405.42	10.652
405.77	10.915
406.13	10.629
406.49	10.574
406.84	10.152
407.20	11.016
407.55	10.769
407.91	11.168
408.27	10.976
408.62	11.236
408.98	10.881
409.34	10.812
409.69	10.268
410.05	10.316
410.40	10.130
410.76	9.731
411.11	10.723
411.47	10.432
411.83	11.072
412.18	10.809
412.54	9.970
412.89	10.029
413.25	10.661
413.60	9.696
413.96	10.652
414.31	10.862
414.67	11.173
415.03	10.089
415.38	11.104
415.74	11.118
416.09	10.556
416.45	10.924
416.80	11.225
417.16	10.821
417.51	10.828
417.87	11.452
418.22	10.510
418.58	10.318
418.93	10.410
419.29	10.351
419.64	10.236
420.00	10.800
420.35	10.511
420.71	10.677
421.06	10.300
421.42	10.248
421.77	10.439
422.12	10.309
422.48	10.889
422.83	11.105
423.19	10.205
423.54	10.368
423.90	10.532
424.25	10.457
424.61	10.563
424.96	10.107
425.31	10.181
425.67	10.887
426.02	10.656
426.38	10.852
426.73	11.047
427.09	11.210
427.44	10.411
427.79	10.692
428.15	11.373
428.50	11.029
428.85	11.405
429.21	11.129
429.56	10.668
429.92	11.188
430.27	10.740
430.62	10.817
430.98	10.629
431.33	10.131
431.68	10.667
432.04	10.605
432.39	11.087
432.74	10.480
433.10	10.963
433.45	10.971
433.80	11.914
434.16	11.088
434.51	11.662
434.86	11.105
435.22	10.427
435.57	11.085
435.92	12.408
436.28	11.002
436.63	11.237
436.98	10.642
437.34	11.872
437.69	10.806
438.04	10.914
438.39	11.325
438.75	11.526
439.10	11.765
439.45	10.797
439.81	11.567
440.16	11.833
440.51	11.149
440.86	11.567
441.22	11.797
441.57	10.919
441.92	11.007
442.27	10.619
442.63	11.179
442.98	11.207
443.33	11.837
443.68	11.821
444.03	11.074
444.39	11.252
444.74	11.128
445.09	11.690
445.44	11.371
445.79	11.696
446.15	10.895
446.50	11.340
446.85	11.355
447.20	11.144
447.55	10.821
447.91	11.987
448.26	11.821
448.61	11.553
448.96	12.527
449.31	12.266
449.66	12.292
450.02	12.210
450.37	12.104
450.72	11.625
451.07	11.809
451.42	12.448
451.77	12.199
452.12	12.195
452.47	11.847
452.83	12.000
453.18	12.372
453.53	12.789
453.88	12.286
454.23	12.144
454.58	12.413
454.93	11.527
455.28	12.791
455.63	11.879
455.98	12.578
456.34	12.888
456.69	12.256
457.04	12.232
457.39	11.543
457.74	12.556
458.09	11.847
458.44	11.884
458.79	11.830
459.14	11.129
459.49	12.061
459.84	11.848
460.19	12.203
460.54	12.194
460.89	12.580
461.24	11.684
461.59	12.132
461.94	12.530
462.29	12.414
462.64	12.123
462.99	12.092
463.34	12.703
463.69	12.886
464.04	12.378
464.39	12.479
464.74	11.723
465.09	13.001
465.44	12.024
465.79	11.867
466.14	11.924
466.49	11.340
466.84	12.542
467.19	12.712
467.54	11.832
467.89	12.676
468.24	11.928
468.59	12.143
468.94	12.258
469.29	13.073
469.64	12.797
469.99	12.918
470.34	11.701
470.68	12.690
471.03	12.475
471.38	12.781
471.73	12.867
472.08	13.112
472.43	12.415
472.78	12.868
473.13	11.952
473.48	12.592
473.83	13.074
474.17	12.766
474.52	12.737
474.87	12.052
475.22	12.564
475.57	11.752
475.92	12.366
476.27	11.861
476.61	11.850
476.96	12.487
477.31	11.260
477.66	12.346
478.01	11.552
478.36	12.358
478.70	11.613
479.05	11.454
479.40	12.054
479.75	12.562
480.10	12.004
480.45	12.232
480.79	12.074
481.14	11.840
481.49	11.345
481.84	12.005
482.19	12.183
482.53	12.033
482.88	11.290
483.23	11.502
483.58	11.625
483.92	12.751
484.27	11.772
484.62	11.927
484.97	11.843
485.31	11.057
485.66	11.228
486.01	10.714
486.36	10.362
486.70	10.291
487.05	10.558
487.40	10.660
487.75	10.944
488.09	10.994
488.44	10.899
488.79	11.628
489.13	11.609
489.48	12.026
489.83	11.760
490.17	11.437
490.52	11.283
490.87	12.112
491.22	12.411
491.56	12.516
491.91	11.649
492.26	11.982
492.60	12.210
492.95	11.962
493.30	11.829
493.64	12.309
493.99	12.254
494.34	12.102
494.68	11.554
495.03	12.034
495.37	12.247
495.72	12.401
496.07	11.725
496.41	12.163
496.76	12.537
497.11	12.168
497.45	11.662
497.80	12.651
498.14	12.390
498.49	12.488
498.84	12.430
499.18	11.974
499.53	12.219
499.87	12.579
500.22	12.437
500.56	11.978
500.91	12.616
501.26	12.494
501.60	11.885
501.95	11.918
502.29	11.956
502.64	12.351
502.98	11.294
503.33	12.071
503.67	12.053
504.02	11.599
504.36	12.534
504.71	12.346
505.06	12.154
505.40	12.120
505.75	12.254
506.09	12.692
506.44	12.359
506.78	12.382
507.13	11.876
507.47	12.567
507.82	13.577
508.16	12.788
508.51	12.802
508.85	12.536
509.19	12.482
509.54	12.939
509.88	12.879
510.23	12.451
510.57	12.500
510.92	13.037
511.26	12.851
511.61	12.802
511.95	13.041
512.30	12.800
512.64	12.565
512.98	13.326
513.33	13.064
513.67	13.257
514.02	12.831
514.36	13.136
514.70	12.053
515.05	12.254
515.39	13.103
515.74	13.723
516.08	12.908
516.42	13.443
516.77	12.853
517.11	12.747
517.46	12.823
517.80	12.889
518.14	13.690
518.49	13.175
518.83	13.187
519.17	13.089
519.52	13.545
519.86	13.515
520.20	13.918
520.55	13.228
520.89	13.563
521.23	13.493
521.58	13.253
521.92	13.236
522.26	13.507
522.61	13.369
522.95	14.114
523.29	12.690
523.64	13.121
523.98	12.617
524.32	13.322
524.66	12.754
525.01	13.491
525.35	13.966
525.69	13.666
526.04	13.742
526.38	12.772
526.72	14.200
527.06	12.833
527.41	14.087
527.75	13.390
528.09	13.847
528.43	13.972
528.78	13.953
529.12	13.666
529.46	12.916
529.80	13.727
530.15	13.377
530.49	13.357
530.83	13.528
531.17	13.161
531.51	13.243
531.86	13.647
532.20	13.597
532.54	12.743
532.88	13.492
533.22	14.503
533.57	14.155
533.91	12.646
534.25	12.695
534.59	13.626
534.93	12.969
535.27	12.521
535.62	13.186
535.96	12.766
536.30	14.016
536.64	12.919
536.98	12.712
537.32	14.188
537.66	12.628
538.01	13.808
538.35	13.100
538.69	13.592
539.03	12.687
539.37	13.107
539.71	13.395
540.05	12.923
540.39	13.082
540.73	13.797
541.07	12.735
541.42	13.060
541.76	12.762
542.10	12.885
542.44	14.027
542.78	13.027
543.12	12.577
543.46	13.346
543.80	13.033
544.14	13.313
544.48	13.260
544.82	13.028
545.16	12.568
545.50	13.768
545.84	13.384
546.18	14.434
546.52	13.967
546.86	12.637
547.20	12.468
547.54	12.666
547.88	12.956
548.22	12.993
548.56	13.082
548.90	13.167
549.24	13.519
549.58	12.629
549.92	13.163
550.26	13.523
550.60	13.506
550.94	13.161
551.28	13.310
551.62	14.414
551.96	13.581
552.30	12.986
552.64	13.528
552.98	13.080
553.32	12.932
553.66	12.964
554.00	12.870
554.34	14.115
554.68	12.769
555.02	12.695
555.36	12.766
555.69	13.089
556.03	12.611
556.37	12.874
556.71	13.299
557.05	12.582
557.39	13.200
557.73	13.544
558.07	13.414
558.41	13.571
558.75	14.022
559.08	13.581
559.42	13.171
559.76	14.398
560.10	13.076
560.44	12.807
560.78	13.171
561.12	13.795
561.45	12.766
561.79	12.859
562.13	12.192
562.47	12.330
562.81	13.012
563.15	12.476
563.48	11.118
563.82	14.410
564.16	12.562
564.50	12.055
564.84	12.523
565.17	12.894
565.51	12.931
565.85	13.202
566.19	12.679
566.52	12.214
566.86	13.310
567.20	12.978
567.54	11.135
567.88	12.833
568.21	11.782
568.55	11.673
568.89	12.409
569.23	10.871
569.56	11.981
569.90	11.067
570.24	11.380
570.57	11.486
570.91	10.733
571.25	10.676
571.59	10.462
571.92	10.414
572.26	10.404
572.60	10.247
572.93	10.696
573.27	10.138
573.61	10.016
573.95	10.682
574.28	10.301
574.62	9.874
574.96	9.742
575.29	10.437
575.63	10.153
575.97	9.907
576.30	9.947
576.64	9.900
576.98	9.705
577.31	10.459
577.65	10.121
577.98	9.698
578.32	9.330
578.66	9.992
578.99	10.237
579.33	10.081
579.67	9.855
580.00	9.883
580.34	10.036
580.67	10.067
581.01	10.292
581.35	9.640
581.68	9.439
582.02	9.520
582.35	9.537
582.69	9.855
583.02	9.697
583.36	9.555
583.70	10.007
584.03	10.167
584.37	10.298
584.70	9.953
585.04	9.803
585.37	9.558
585.71	10.045
586.04	9.767
586.38	9.504
586.72	9.858
587.05	10.293
587.39	9.937
587.72	10.198
588.06	10.256
588.39	10.031
588.73	9.916
589.06	10.242
589.40	10.454
589.73	10.882
590.07	10.776
590.40	11.010
590.73	11.164
591.07	10.664
591.40	10.379
591.74	10.552
592.07	10.025
592.41	10.831
592.74	10.399
593.08	10.384
593.41	10.293
593.75	9.693
594.08	10.779
594.41	10.101
594.75	10.445
595.08	10.597
595.42	11.224
595.75	10.694
596.09	10.845
596.42	10.415
596.75	10.697
597.09	11.350
597.42	10.367
597.75	10.223
598.09	10.423
598.42	10.567
598.76	10.833
599.09	10.850
599.42	10.138
599.76	10.448
600.09	10.136
600.42	10.083
600.76	10.639
601.09	9.803
601.42	9.996
601.76	9.918
602.09	10.522
602.42	10.055
602.76	10.626
603.09	10.709
603.42	10.532
603.76	10.268
604.09	9.591
604.42	10.019
604.76	10.549
605.09	10.490
605.42	10.646
605.75	10.067
606.09	10.673
606.42	10.184
606.75	10.144
607.09	10.343
607.42	10.245
607.75	10.470
608.08	10.682
608.42	10.445
608.75	10.270
609.08	10.339
609.41	10.636
609.75	11.264
610.08	10.612
610.41	10.101
610.74	10.303
611.07	11.505
611.41	10.890
611.74	10.660
612.07	10.116
612.40	11.062
612.73	10.684
613.07	10.745
613.40	10.777
613.73	10.684
614.06	9.750
614.39	11.212
614.72	11.251
615.06	10.682
615.39	11.238
615.72	10.649
616.05	10.899
616.38	11.060
616.71	10.960
617.05	10.983
617.38	10.281
617.71	11.192
618.04	11.049
618.37	10.395
618.70	10.970
619.03	10.989
619.36	12.186
619.69	10.950
620.03	12.524
620.36	12.010
620.69	12.324
621.02	11.753
621.35	11.605
621.68	12.094
622.01	12.768
622.34	10.706
622.67	11.376
623.00	11.028
623.33	12.348
623.66	10.446
623.99	11.781
624.32	11.585
624.65	11.126
624.99	11.562
625.32	11.690
625.65	11.172
625.98	10.948
626.31	11.721
626.64	10.782
626.97	11.324
627.30	11.568
627.63	12.480
627.96	11.659
628.29	11.881
628.62	12.917
628.95	11.525
629.28	14.023
629.61	12.566
629.94	12.100
630.26	13.605
630.59	13.209
630.92	12.377
631.25	12.602
631.58	12.633
631.91	12.369
632.24	12.342
632.57	12.770
632.90	12.629
633.23	14.271
633.56	13.383
633.89	13.076
634.22	13.240
634.55	12.258
634.88	14.020
635.20	12.780
635.53	12.195
635.86	14.206
636.19	12.233
