SpectraSuite Data File
++++++++++++++++++++++++++++++++++++
Date: Tue May 12 17:04:03 PDT 2015
User: schluterlab
Dark Spectrum Present: Yes
Reference Spectrum Present: Yes
Number of Sampled Component Spectra: 1
Spectrometers: USB2E3373
Integration Time (usec): 3000 (USB2E3373)
Spectra Averaged: 3 (USB2E3373)
Boxcar Smoothing: 0 (USB2E3373)
Correct for Electrical Dark: No (USB2E3373)
Strobe/Lamp Enabled: No (USB2E3373)
Correct for Detector Non-linearity: No (USB2E3373)
Correct for Stray Light: No (USB2E3373)
Number of Pixels in Processed Spectrum: 2048
>>>>>Begin Processed Spectral Data<<<<<
178.53	0.000
178.91	-250.000
179.29	-625.000
179.67	-3200.000
180.04	-153.333
180.42	725.000
180.80	1650.000
181.18	0.000
181.56	-325.000
181.94	0.000
182.31	1166.667
182.69	-3100.000
183.07	642.857
183.45	-3800.000
183.83	-1600.000
184.20	420.000
184.58	514.286
184.96	-246.154
185.34	-175.000
185.72	1700.000
186.09	-700.000
186.47	-3600.000
186.85	866.667
187.23	660.000
187.61	1650.000
187.98	425.000
188.36	221.429
188.74	341.667
189.12	325.000
189.49	775.000
189.87	0.000
190.25	462.500
190.63	2700.000
191.00	-225.000
191.38	-2500.000
191.76	-600.000
192.14	475.000
192.51	-3100.000
192.89	1650.000
193.27	1233.333
193.65	-866.667
194.02	-680.000
194.40	571.429
194.78	-200.000
195.15	260.000
195.53	-2600.000
195.91	-700.000
196.29	4000.000
196.66	287.500
197.04	1025.000
197.42	-1100.000
197.79	825.000
198.17	308.333
198.55	0.000
198.92	400.000
199.30	1333.333
199.68	2200.000
200.05	666.667
200.43	-416.667
200.81	227.778
201.18	3000.000
201.56	333.333
201.94	-775.000
202.31	-387.500
202.69	-620.000
203.07	2600.000
203.44	-566.667
203.82	425.000
204.19	600.000
204.57	-1300.000
204.95	-775.000
205.32	-600.000
205.70	716.667
206.08	750.000
206.45	-600.000
206.83	355.556
207.20	189.474
207.58	283.333
207.96	680.000
208.33	0.000
208.71	628.571
209.08	680.000
209.46	-3000.000
209.84	-850.000
210.21	900.000
210.59	-680.000
210.96	258.333
211.34	-550.000
211.71	390.909
212.09	700.000
212.46	1550.000
212.84	-450.000
213.22	500.000
213.59	-2500.000
213.97	290.000
214.34	950.000
214.72	1066.667
215.09	1400.000
215.47	-3200.000
215.84	-410.000
216.22	-512.500
216.59	0.000
216.97	0.000
217.34	1150.000
217.72	-1800.000
218.09	1066.667
218.47	450.000
218.84	900.000
219.22	1166.667
219.59	1033.333
219.97	500.000
220.34	422.222
220.72	1500.000
221.09	3300.000
221.47	250.000
221.84	900.000
222.22	320.000
222.59	277.778
222.97	292.857
223.34	268.750
223.72	-1700.000
224.09	1366.667
224.46	284.615
224.84	-925.000
225.21	400.000
225.59	286.667
225.96	1333.333
226.34	-760.000
226.71	-600.000
227.08	-560.000
227.46	0.000
227.83	-616.667
228.21	-1500.000
228.58	325.000
228.95	1175.000
229.33	333.333
229.70	1000.000
230.08	330.769
230.45	4100.000
230.82	-900.000
231.20	-500.000
231.57	-1066.667
231.95	620.000
232.32	250.000
232.69	550.000
233.07	225.000
233.44	-2000.000
233.81	273.333
234.19	185.185
234.56	187.500
234.93	258.824
235.31	190.000
235.68	218.750
236.05	160.714
236.43	155.556
236.80	264.286
237.17	127.586
237.55	112.500
237.92	87.500
238.29	106.061
238.67	115.625
239.04	97.561
239.41	66.667
239.79	82.500
240.16	91.667
240.53	70.492
240.91	69.565
241.28	64.407
241.65	60.606
242.02	67.606
242.40	68.571
242.77	61.538
243.14	60.759
243.51	45.455
243.89	48.598
244.26	52.336
244.63	43.564
245.00	35.780
245.38	32.203
245.75	43.939
246.12	48.889
246.49	30.496
246.87	37.705
247.24	33.333
247.61	35.000
247.98	36.054
248.36	25.455
248.73	31.633
249.10	22.619
249.47	32.500
249.84	24.876
250.22	28.108
250.59	28.500
250.96	30.802
251.33	24.186
251.70	29.911
252.08	26.050
252.45	24.701
252.82	22.433
253.19	25.692
253.56	19.615
253.94	20.290
254.31	23.256
254.68	21.603
255.05	21.034
255.42	19.343
255.79	22.476
256.16	21.695
256.54	24.026
256.91	21.569
257.28	22.408
257.65	20.376
258.02	22.124
258.39	22.350
258.76	24.058
259.14	17.714
259.51	20.700
259.88	20.061
260.25	18.407
260.62	16.986
260.99	16.804
261.36	17.549
261.73	17.287
262.10	20.942
262.47	17.500
262.85	18.667
263.22	21.337
263.59	18.926
263.96	18.797
264.33	17.778
264.70	18.919
265.07	19.756
265.44	18.578
265.81	21.226
266.18	17.849
266.55	15.130
266.92	18.121
267.29	18.860
267.66	16.816
268.03	15.919
268.40	16.279
268.77	20.485
269.14	14.100
269.51	19.376
269.88	17.959
270.25	15.551
270.62	16.524
270.99	16.430
271.36	19.715
271.73	17.191
272.10	17.374
272.47	13.690
272.84	15.170
273.21	15.496
273.58	18.016
273.95	16.016
274.32	15.370
274.69	18.307
275.06	16.758
275.43	16.284
275.80	14.717
276.17	14.706
276.54	18.131
276.91	17.164
277.28	16.788
277.65	16.052
278.02	16.544
278.39	15.827
278.76	17.414
279.13	12.456
279.50	15.091
279.87	14.711
280.23	16.206
280.60	16.788
280.97	15.517
281.34	14.026
281.71	16.870
282.08	15.556
282.45	15.034
282.82	16.054
283.19	16.216
283.56	15.041
283.92	14.332
284.29	14.642
284.66	14.286
285.03	16.418
285.40	15.207
285.77	14.506
286.14	16.718
286.51	16.718
286.87	13.766
287.24	12.913
287.61	14.894
287.98	17.313
288.35	14.667
288.72	13.961
289.08	16.066
289.45	14.939
289.82	15.469
290.19	14.202
290.56	17.758
290.93	16.547
291.29	14.227
291.66	13.559
292.03	16.410
292.40	16.396
292.77	13.928
293.13	16.262
293.50	15.520
293.87	14.634
294.24	15.524
294.60	16.958
294.97	15.385
295.34	15.272
295.71	14.980
296.08	15.200
296.44	14.612
296.81	14.144
297.18	15.209
297.55	15.394
297.91	14.655
298.28	14.976
298.65	14.847
299.02	15.199
299.38	16.067
299.75	15.122
300.12	16.972
300.48	16.628
300.85	16.091
301.22	15.349
301.59	15.448
301.95	14.819
302.32	15.949
302.69	16.290
303.05	16.386
303.42	16.031
303.79	16.576
304.15	14.961
304.52	16.913
304.89	15.458
305.25	16.574
305.62	16.205
305.99	15.217
306.35	16.211
306.72	16.961
307.09	16.977
307.45	15.839
307.82	16.255
308.19	16.289
308.55	15.500
308.92	16.977
309.29	18.442
309.65	17.245
310.02	16.633
310.38	16.849
310.75	15.815
311.12	17.912
311.48	18.050
311.85	17.557
312.22	17.670
312.58	17.201
312.95	17.184
313.31	16.948
313.68	18.480
314.05	19.048
314.41	17.318
314.78	18.466
315.14	17.725
315.51	19.773
315.87	18.704
316.24	18.861
316.61	19.069
316.97	17.982
317.34	19.227
317.70	19.315
318.07	20.285
318.43	20.035
318.80	19.790
319.16	20.280
319.53	20.796
319.89	18.728
320.26	21.136
320.62	21.429
320.99	20.400
321.35	21.985
321.72	22.581
322.08	21.791
322.45	21.526
322.81	21.500
323.18	20.693
323.54	22.997
323.91	23.209
324.27	23.607
324.64	22.405
325.00	23.793
325.37	23.356
325.73	23.609
326.10	24.192
326.46	25.516
326.83	24.560
327.19	25.462
327.56	25.559
327.92	25.492
328.29	27.496
328.65	26.712
329.01	27.288
329.38	28.596
329.74	25.961
330.11	27.194
330.47	27.451
330.84	27.179
331.20	27.665
331.56	27.807
331.93	28.486
332.29	26.786
332.66	27.806
333.02	27.663
333.38	27.661
333.75	29.274
334.11	27.852
334.48	28.632
334.84	28.125
335.20	27.459
335.57	28.044
335.93	27.923
336.29	27.363
336.66	28.731
337.02	28.400
337.38	28.375
337.75	29.139
338.11	28.101
338.47	28.874
338.84	28.112
339.20	27.532
339.56	27.418
339.93	28.428
340.29	26.807
340.65	28.080
341.02	28.479
341.38	27.422
341.74	29.153
342.11	28.464
342.47	27.646
342.83	28.302
343.20	27.162
343.56	26.608
343.92	27.415
344.28	26.794
344.65	27.791
345.01	27.063
345.37	26.763
345.73	27.619
346.10	26.375
346.46	27.990
346.82	26.389
347.19	27.280
347.55	26.386
347.91	26.662
348.27	26.878
348.63	26.503
349.00	27.418
349.36	27.782
349.72	27.217
350.08	27.562
350.45	28.332
350.81	27.064
351.17	26.348
351.53	26.405
351.89	26.651
352.26	26.682
352.62	26.320
352.98	26.457
353.34	27.119
353.70	26.988
354.07	27.077
354.43	26.959
354.79	26.044
355.15	27.948
355.51	26.888
355.87	26.657
356.24	26.867
356.60	27.321
356.96	26.384
357.32	26.451
357.68	26.652
358.04	26.672
358.40	26.837
358.77	26.371
359.13	25.375
359.49	25.500
359.85	26.210
360.21	25.557
360.57	25.985
360.93	26.551
361.29	26.551
361.66	26.324
362.02	25.781
362.38	26.190
362.74	27.318
363.10	26.227
363.46	25.829
363.82	26.227
364.18	27.098
364.54	26.395
364.90	26.037
365.26	25.746
365.62	25.691
365.98	25.258
366.35	25.586
366.71	26.440
367.07	26.280
367.43	26.058
367.79	26.529
368.15	26.323
368.51	25.844
368.87	25.815
369.23	25.017
369.59	25.691
369.95	26.154
370.31	25.394
370.67	27.065
371.03	26.681
371.39	26.662
371.75	26.308
372.11	26.037
372.47	25.342
372.83	25.969
373.19	25.908
373.55	25.773
373.91	25.000
374.27	25.926
374.63	26.102
374.99	25.741
375.35	26.210
375.71	25.989
376.07	26.194
376.42	24.616
376.78	25.177
377.14	25.164
377.50	26.030
377.86	25.240
378.22	25.411
378.58	25.787
378.94	26.132
379.30	25.167
379.66	24.684
380.02	25.572
380.38	25.293
380.74	25.606
381.09	25.409
381.45	24.509
381.81	24.173
382.17	24.969
382.53	25.075
382.89	24.897
383.25	24.985
383.61	24.611
383.97	24.535
384.32	24.895
384.68	25.550
385.04	26.026
385.40	25.801
385.76	24.634
386.12	25.788
386.48	25.775
386.83	24.756
387.19	24.382
387.55	24.441
387.91	25.000
388.27	24.985
388.62	25.059
388.98	23.615
389.34	23.498
389.70	24.882
390.06	24.756
390.42	24.491
390.77	25.246
391.13	24.200
391.49	24.380
391.85	24.985
392.20	25.745
392.56	25.269
392.92	24.031
393.28	24.888
393.64	24.140
393.99	24.363
394.35	24.073
394.71	24.246
395.07	24.696
395.42	24.063
395.78	24.614
396.14	24.337
396.50	24.248
396.85	25.000
397.21	24.970
397.57	24.806
397.92	23.397
398.28	23.662
398.64	24.840
399.00	23.410
399.35	23.188
399.71	24.117
400.07	23.801
400.42	23.284
400.78	23.754
401.14	23.723
401.49	22.696
401.85	24.508
402.21	24.077
402.57	24.117
402.92	23.455
403.28	23.449
403.63	23.426
403.99	23.703
404.35	23.857
404.70	23.804
405.06	23.189
405.42	24.177
405.77	23.264
406.13	23.590
406.49	23.138
406.84	22.843
407.20	23.516
407.55	23.138
407.91	25.271
408.27	24.015
408.62	23.182
408.98	23.004
409.34	23.203
409.69	23.211
410.05	22.123
410.40	23.086
410.76	22.496
411.11	22.690
411.47	23.951
411.83	22.320
412.18	21.920
412.54	23.784
412.89	22.419
413.25	22.976
413.60	22.956
413.96	22.920
414.31	23.022
414.67	23.215
415.03	23.436
415.38	22.587
415.74	23.057
416.09	23.548
416.45	23.853
416.80	24.439
417.16	23.361
417.51	23.057
417.87	23.342
418.22	23.086
418.58	23.057
418.93	22.963
419.29	22.428
419.64	23.743
420.00	23.986
420.35	22.880
420.71	24.212
421.06	22.660
421.42	23.546
421.77	23.598
422.12	22.767
422.48	22.393
422.83	23.382
423.19	23.164
423.54	23.094
423.90	23.443
424.25	23.996
424.61	23.331
424.96	22.699
425.31	23.426
425.67	23.906
426.02	23.163
426.38	22.170
426.73	22.961
427.09	24.318
427.44	23.523
427.79	23.156
428.15	23.512
428.50	24.800
428.85	24.280
429.21	23.285
429.56	23.180
429.92	22.824
430.27	23.029
430.62	22.320
430.98	23.503
431.33	23.538
431.68	22.123
432.04	22.763
432.39	23.271
432.74	23.302
433.10	23.865
433.45	23.952
433.80	24.269
434.16	23.699
434.51	23.529
434.86	23.517
435.22	23.123
435.57	23.296
435.92	24.075
436.28	25.000
436.63	23.717
436.98	24.662
437.34	24.829
437.69	23.852
438.04	23.763
438.39	24.343
438.75	24.388
439.10	23.691
439.45	23.403
439.81	25.217
440.16	24.381
440.51	24.043
440.86	25.185
441.22	24.242
441.57	24.934
441.92	24.235
442.27	23.196
442.63	24.390
442.98	24.192
443.33	23.728
443.68	23.843
444.03	24.788
444.39	24.341
444.74	25.000
445.09	24.592
445.44	24.230
445.79	24.854
446.15	25.684
446.50	25.316
446.85	24.552
447.20	24.080
447.55	23.872
447.91	24.774
448.26	24.973
448.61	24.599
448.96	25.490
449.31	24.862
449.66	24.972
450.02	24.635
450.37	25.153
450.72	25.289
451.07	25.422
451.42	24.718
451.77	25.487
452.12	26.319
452.47	25.273
452.83	25.859
453.18	25.706
453.53	25.459
453.88	25.543
454.23	25.218
454.58	25.291
454.93	25.322
455.28	25.826
455.63	25.946
455.98	25.099
456.34	25.593
456.69	25.183
457.04	26.611
457.39	25.543
457.74	26.014
458.09	24.705
458.44	24.042
458.79	24.881
459.14	24.877
459.49	25.028
459.84	25.489
460.19	24.633
460.54	25.242
460.89	25.213
461.24	25.029
461.59	26.587
461.94	25.591
462.29	25.515
462.64	25.377
462.99	26.679
463.34	25.599
463.69	26.195
464.04	26.137
464.39	25.243
464.74	24.326
465.09	25.073
465.44	25.136
465.79	25.422
466.14	25.225
466.49	24.851
466.84	25.251
467.19	25.366
467.54	25.105
467.89	24.941
468.24	25.825
468.59	25.238
468.94	26.027
469.29	25.840
469.64	26.495
469.99	24.357
470.34	25.490
470.68	25.724
471.03	26.684
471.38	25.364
471.73	25.604
472.08	26.549
472.43	25.388
472.78	26.504
473.13	25.344
473.48	25.183
473.83	25.677
474.17	25.532
474.52	25.948
474.87	25.242
475.22	25.928
475.57	25.446
475.92	25.345
476.27	23.993
476.61	25.630
476.96	24.817
477.31	25.758
477.66	26.516
478.01	24.910
478.36	25.541
478.70	25.112
479.05	26.098
479.40	26.240
479.75	25.571
480.10	25.169
480.45	24.790
480.79	25.023
481.14	24.584
481.49	25.206
481.84	24.670
482.19	25.022
482.53	25.296
482.88	25.672
483.23	24.718
483.58	25.000
483.92	25.503
484.27	25.342
484.62	25.722
484.97	24.737
485.31	24.311
485.66	23.405
486.01	22.470
486.36	22.448
486.70	22.094
487.05	22.660
487.40	22.792
487.75	23.262
488.09	23.693
488.44	23.932
488.79	24.054
489.13	24.748
489.48	24.451
489.83	24.437
490.17	24.443
490.52	24.634
490.87	25.043
491.22	25.842
491.56	25.077
491.91	24.776
492.26	24.766
492.60	25.740
492.95	25.283
493.30	25.296
493.64	25.202
493.99	25.045
494.34	25.190
494.68	24.391
495.03	25.281
495.37	25.439
495.72	25.361
496.07	24.978
496.41	25.500
496.76	24.694
497.11	25.150
497.45	25.121
497.80	25.116
498.14	25.566
498.49	24.838
498.84	26.168
499.18	24.909
499.53	25.494
499.87	25.651
500.22	25.749
500.56	24.791
500.91	26.948
501.26	25.402
501.60	24.727
501.95	24.821
502.29	25.733
502.64	24.923
502.98	24.500
503.33	25.167
503.67	24.857
504.02	25.213
504.36	25.113
504.71	24.882
505.06	25.012
505.40	25.129
505.75	25.210
506.09	25.478
506.44	25.564
506.78	25.189
507.13	25.158
507.47	25.133
507.82	25.937
508.16	25.821
508.51	26.039
508.85	26.116
509.19	25.746
509.54	25.830
509.88	26.405
510.23	24.706
510.57	25.338
510.92	26.374
511.26	26.104
511.61	25.160
511.95	25.884
512.30	25.650
512.64	25.909
512.98	26.192
513.33	26.383
513.67	26.100
514.02	26.078
514.36	26.324
514.70	25.920
515.05	25.253
515.39	26.535
515.74	26.189
516.08	25.708
516.42	27.268
516.77	25.760
517.11	26.827
517.46	26.994
517.80	25.560
518.14	27.155
518.49	25.579
518.83	25.549
519.17	26.456
519.52	25.887
519.86	26.757
520.20	25.808
520.55	26.399
520.89	27.241
521.23	26.986
521.58	27.194
521.92	26.122
522.26	26.777
522.61	26.797
522.95	27.267
523.29	26.374
523.64	26.474
523.98	26.585
524.32	27.739
524.66	26.667
525.01	25.858
525.35	27.048
525.69	26.911
526.04	27.186
526.38	26.722
526.72	26.730
527.06	27.262
527.41	26.602
527.75	26.659
528.09	26.129
528.43	27.029
528.78	27.132
529.12	26.972
529.46	25.833
529.80	26.869
530.15	26.576
530.49	26.835
530.83	26.813
531.17	25.523
531.51	26.487
531.86	26.389
532.20	26.514
532.54	26.365
532.88	26.608
533.22	27.118
533.57	27.700
533.91	25.583
534.25	25.563
534.59	26.550
534.93	25.882
535.27	25.783
535.62	26.138
535.96	25.414
536.30	26.752
536.64	26.398
536.98	26.306
537.32	27.375
537.66	28.316
538.01	26.997
538.35	27.012
538.69	25.910
539.03	25.498
539.37	25.425
539.71	26.049
540.05	25.415
540.39	25.597
540.73	27.595
541.07	25.659
541.42	26.368
541.76	25.709
542.10	25.832
542.44	26.746
542.78	24.984
543.12	25.644
543.46	25.251
543.80	25.752
544.14	26.254
544.48	25.852
544.82	26.544
545.16	25.440
545.50	26.736
545.84	26.515
546.18	27.243
546.52	27.148
546.86	26.757
547.20	25.646
547.54	26.092
547.88	25.243
548.22	25.319
548.56	25.457
548.90	25.741
549.24	25.584
549.58	24.871
549.92	26.130
550.26	25.896
550.60	26.414
550.94	25.577
551.28	27.517
551.62	26.207
551.96	25.676
552.30	25.577
552.64	27.702
552.98	25.580
553.32	25.736
553.66	26.059
554.00	26.126
554.34	27.031
554.68	26.680
555.02	26.680
555.36	26.064
555.69	26.702
556.03	25.159
556.37	26.004
556.71	26.858
557.05	25.098
557.39	26.467
557.73	26.213
558.07	26.962
558.41	26.456
558.75	26.539
559.08	27.448
559.42	26.199
559.76	27.156
560.10	26.635
560.44	26.012
560.78	26.279
561.12	26.128
561.45	25.845
561.79	25.281
562.13	24.384
562.47	24.984
562.81	25.830
563.15	25.921
563.48	24.410
563.82	25.889
564.16	25.622
564.50	25.075
564.84	25.289
565.17	24.480
565.51	26.416
565.85	26.465
566.19	25.357
566.52	24.910
566.86	25.161
567.20	24.438
567.54	24.782
567.88	24.517
568.21	23.565
568.55	24.514
568.89	24.224
569.23	22.951
569.56	22.843
569.90	22.063
570.24	22.555
570.57	21.999
570.91	21.498
571.25	21.767
571.59	21.433
571.92	21.367
572.26	20.674
572.60	21.216
572.93	21.363
573.27	21.884
573.61	21.332
573.95	20.493
574.28	21.255
574.62	20.727
574.96	20.502
575.29	20.308
575.63	20.542
575.97	20.813
576.30	20.805
576.64	20.579
576.98	20.618
577.31	20.739
577.65	20.554
577.98	20.031
578.32	19.673
578.66	20.237
578.99	20.726
579.33	20.771
579.67	20.378
580.00	20.339
580.34	20.384
580.67	20.134
581.01	20.364
581.35	20.115
581.68	19.892
582.02	19.840
582.35	19.776
582.69	19.972
583.02	20.080
583.36	20.397
583.70	20.590
584.03	20.756
584.37	21.075
584.70	20.428
585.04	20.081
585.37	19.860
585.71	20.652
586.04	20.416
586.38	20.110
586.72	20.824
587.05	20.638
587.39	20.683
587.72	20.932
588.06	20.512
588.39	20.292
588.73	20.730
589.06	20.835
589.40	21.315
589.73	21.075
590.07	21.997
590.40	21.847
590.73	22.953
591.07	22.125
591.40	21.916
591.74	21.916
592.07	21.963
592.41	22.262
592.74	21.604
593.08	20.540
593.41	20.497
593.75	20.234
594.08	21.281
594.41	20.463
594.75	21.678
595.08	21.502
595.42	21.758
595.75	20.895
596.09	22.280
596.42	20.867
596.75	22.356
597.09	21.626
597.42	21.918
597.75	22.191
598.09	21.625
598.42	21.379
598.76	21.473
599.09	21.589
599.42	21.557
599.76	20.624
600.09	20.339
600.42	20.925
600.76	21.074
601.09	20.849
601.42	21.295
601.76	21.339
602.09	21.670
602.42	21.035
602.76	20.949
603.09	21.870
603.42	21.358
603.76	21.367
604.09	21.390
604.42	21.168
604.76	21.454
605.09	21.306
605.42	21.658
605.75	21.161
606.09	21.117
606.42	20.819
606.75	21.376
607.09	20.884
607.42	21.695
607.75	21.736
608.08	21.649
608.42	22.190
608.75	21.309
609.08	21.601
609.41	21.455
609.75	21.841
610.08	21.942
610.41	22.266
610.74	21.342
611.07	21.828
611.41	22.150
611.74	22.419
612.07	21.724
612.40	22.563
612.73	23.115
613.07	21.997
613.40	22.155
613.73	21.817
614.06	21.650
614.39	22.071
614.72	21.447
615.06	20.920
615.39	21.980
615.72	21.491
616.05	22.752
616.38	22.019
616.71	22.843
617.05	22.460
617.38	21.798
617.71	22.216
618.04	22.771
618.37	22.679
618.70	21.882
619.03	22.283
619.36	23.555
619.69	23.219
620.03	24.201
620.36	23.314
620.69	23.755
621.02	23.981
621.35	24.284
621.68	23.968
622.01	25.018
622.34	23.452
622.67	24.228
623.00	23.622
623.33	24.291
623.66	23.619
623.99	24.247
624.32	23.780
624.65	23.634
624.99	24.746
625.32	23.380
625.65	24.069
625.98	23.291
626.31	24.703
626.64	23.159
626.97	24.637
627.30	24.767
627.63	24.725
627.96	23.474
628.29	24.917
628.62	24.038
628.95	25.532
629.28	25.416
629.61	24.692
629.94	23.855
630.26	25.737
630.59	26.773
630.92	24.843
631.25	25.748
