SpectraSuite Data File
++++++++++++++++++++++++++++++++++++
Date: Tue May 12 16:45:33 PDT 2015
User: schluterlab
Dark Spectrum Present: Yes
Reference Spectrum Present: Yes
Number of Sampled Component Spectra: 1
Spectrometers: USB2E3373
Integration Time (usec): 3000 (USB2E3373)
Spectra Averaged: 3 (USB2E3373)
Boxcar Smoothing: 0 (USB2E3373)
Correct for Electrical Dark: No (USB2E3373)
Strobe/Lamp Enabled: No (USB2E3373)
Correct for Detector Non-linearity: No (USB2E3373)
Correct for Stray Light: No (USB2E3373)
Number of Pixels in Processed Spectrum: 2048
>>>>>Begin Processed Spectral Data<<<<<
178.53	0.000
178.91	-200.000
179.29	-525.000
179.67	-4400.000
180.04	-193.333
180.42	650.000
180.80	1950.000
181.18	0.000
181.56	-412.500
181.94	0.000
182.31	933.333
182.69	-3800.000
183.07	642.857
183.45	-2600.000
183.83	-1450.000
184.20	430.000
184.58	442.857
184.96	-238.462
185.34	-250.000
185.72	2000.000
186.09	-800.000
186.47	-2900.000
186.85	966.667
187.23	760.000
187.61	1450.000
187.98	562.500
188.36	271.429
188.74	308.333
189.12	291.667
189.49	950.000
189.87	0.000
190.25	437.500
190.63	2400.000
191.00	-150.000
191.38	-2800.000
191.76	-550.000
192.14	625.000
192.51	-3000.000
192.89	1900.000
193.27	900.000
193.65	-800.000
194.02	-740.000
194.40	471.429
194.78	-192.857
195.15	253.333
195.53	-2500.000
195.91	-480.000
196.29	4100.000
196.66	275.000
197.04	950.000
197.42	-1950.000
197.79	675.000
198.17	341.667
198.55	0.000
198.92	442.857
199.30	1000.000
199.68	2050.000
200.05	650.000
200.43	-516.667
200.81	233.333
201.18	2500.000
201.56	358.333
201.94	-750.000
202.31	-312.500
202.69	-520.000
203.07	3300.000
203.44	-550.000
203.82	325.000
204.19	600.000
204.57	-1800.000
204.95	-700.000
205.32	-640.000
205.70	550.000
206.08	750.000
206.45	-766.667
206.83	322.222
207.20	194.737
207.58	291.667
207.96	820.000
208.33	0.000
208.71	614.286
209.08	680.000
209.46	-2700.000
209.84	-825.000
210.21	800.000
210.59	-460.000
210.96	300.000
211.34	-950.000
211.71	454.545
212.09	950.000
212.46	1550.000
212.84	-383.333
213.22	444.444
213.59	-2700.000
213.97	410.000
214.34	950.000
214.72	766.667
215.09	1033.333
215.47	-4300.000
215.84	-260.000
216.22	-462.500
216.59	0.000
216.97	0.000
217.34	1050.000
217.72	-1350.000
218.09	1433.333
218.47	437.500
218.84	1025.000
219.22	1366.667
219.59	733.333
219.97	485.714
220.34	366.667
220.72	1650.000
221.09	2800.000
221.47	300.000
221.84	1233.333
222.22	300.000
222.59	300.000
222.97	257.143
223.34	243.750
223.72	-1400.000
224.09	1066.667
224.46	230.769
224.84	-825.000
225.21	266.667
225.59	226.667
225.96	1300.000
226.34	-820.000
226.71	-750.000
227.08	-480.000
227.46	0.000
227.83	-500.000
228.21	-1650.000
228.58	358.333
228.95	1025.000
229.33	355.556
229.70	1050.000
230.08	307.692
230.45	3800.000
230.82	-1000.000
231.20	-866.667
231.57	-1233.333
231.95	440.000
232.32	291.667
232.69	350.000
233.07	300.000
233.44	-1550.000
233.81	246.667
234.19	140.741
234.56	162.500
234.93	211.765
235.31	185.000
235.68	275.000
236.05	146.429
236.43	137.037
236.80	178.571
237.17	148.276
237.55	146.875
237.92	122.500
238.29	163.636
238.67	143.750
239.04	134.146
239.41	89.583
239.79	97.500
240.16	85.417
240.53	85.246
240.91	86.957
241.28	93.220
241.65	83.333
242.02	87.324
242.40	82.857
242.77	70.330
243.14	73.418
243.51	82.828
243.89	66.355
244.26	67.290
244.63	78.218
245.00	76.147
245.38	64.407
245.75	65.909
246.12	69.630
246.49	66.667
246.87	58.197
247.24	68.000
247.61	56.875
247.98	65.986
248.36	52.727
248.73	56.633
249.10	54.762
249.47	52.500
249.84	59.204
250.22	62.162
250.59	52.000
250.96	53.586
251.33	54.884
251.70	59.821
252.08	55.462
252.45	47.012
252.82	53.612
253.19	50.593
253.56	47.692
253.94	50.362
254.31	53.876
254.68	50.523
255.05	54.138
255.42	51.460
255.79	54.723
256.16	51.525
256.54	52.273
256.91	47.712
257.28	51.839
257.65	44.828
258.02	48.968
258.39	46.418
258.76	47.536
259.14	43.714
259.51	46.939
259.88	48.936
260.25	46.154
260.62	47.671
260.99	43.251
261.36	48.189
261.73	44.947
262.10	45.812
262.47	44.250
262.85	44.800
263.22	45.501
263.59	44.757
263.96	45.865
264.33	45.679
264.70	44.963
265.07	43.659
265.44	45.642
265.81	45.755
266.18	44.394
266.55	43.972
266.92	43.624
267.29	42.325
267.66	43.049
268.03	41.704
268.40	40.592
268.77	42.952
269.14	40.347
269.51	42.316
269.88	42.857
270.25	39.957
270.62	41.845
270.99	41.988
271.36	42.073
271.73	40.881
272.10	39.798
272.47	39.881
272.84	37.325
273.21	40.909
273.58	43.117
273.95	41.478
274.32	38.521
274.69	42.717
275.06	38.434
275.43	36.015
275.80	39.057
276.17	41.360
276.54	37.944
276.91	40.858
277.28	38.139
277.65	36.716
278.02	36.765
278.39	41.187
278.76	37.759
279.13	38.256
279.50	39.091
279.87	36.313
280.23	36.464
280.60	39.234
280.97	36.897
281.34	35.644
281.71	37.913
282.08	37.949
282.45	36.486
282.82	37.960
283.19	36.725
283.56	34.876
283.92	38.111
284.29	35.940
284.66	37.815
285.03	37.313
285.40	36.198
285.77	33.488
286.14	35.139
286.51	35.736
286.87	33.703
287.24	33.784
287.61	34.802
287.98	34.179
288.35	32.296
288.72	35.357
289.08	35.135
289.45	34.299
289.82	34.375
290.19	35.286
290.56	33.624
290.93	33.813
291.29	33.149
291.66	32.486
292.03	32.819
292.40	32.656
292.77	30.362
293.13	32.382
293.50	33.333
293.87	31.707
294.24	33.147
294.60	30.417
294.97	30.909
295.34	29.748
295.71	31.800
296.08	30.133
296.44	29.987
296.81	29.777
297.18	28.644
297.55	28.448
297.91	28.448
298.28	27.899
298.65	26.626
299.02	27.986
299.38	28.537
299.75	27.317
300.12	27.982
300.48	28.103
300.85	28.963
301.22	27.326
301.59	27.005
301.95	27.071
302.32	26.542
302.69	27.715
303.05	28.058
303.42	25.785
303.79	26.652
304.15	24.532
304.52	26.638
304.89	25.160
305.25	27.475
305.62	26.333
305.99	25.326
306.35	26.211
306.72	26.119
307.09	25.155
307.45	24.498
307.82	25.412
308.19	24.948
308.55	23.800
308.92	26.104
309.29	26.036
309.65	25.372
310.02	25.963
310.38	24.327
310.75	24.301
311.12	23.755
311.48	26.641
311.85	24.809
312.22	25.215
312.58	24.004
312.95	24.369
313.31	24.251
313.68	24.765
314.05	24.908
314.41	24.860
314.78	24.621
315.14	25.592
315.51	24.882
315.87	23.814
316.24	23.996
316.61	24.709
316.97	23.578
317.34	24.888
317.70	25.549
318.07	24.911
318.43	25.132
318.80	23.643
319.16	25.612
319.53	24.248
319.89	24.821
320.26	25.512
320.62	25.366
320.99	24.976
321.35	24.675
321.72	26.091
322.08	24.007
322.45	25.522
322.81	23.788
323.18	26.110
323.54	26.568
323.91	26.745
324.27	25.995
324.64	24.567
325.00	27.500
325.37	26.897
325.73	26.223
326.10	26.761
326.46	25.681
326.83	24.320
327.19	25.863
327.56	26.438
327.92	26.557
328.29	26.105
328.65	26.884
329.01	25.406
329.38	26.734
329.74	25.875
330.11	26.238
330.47	26.769
330.84	25.194
331.20	25.465
331.56	27.720
331.93	26.262
332.29	24.915
332.66	26.786
333.02	24.227
333.38	25.654
333.75	26.272
334.11	24.497
334.48	25.128
334.84	25.760
335.20	26.518
335.57	24.013
335.93	25.904
336.29	24.378
336.66	25.472
337.02	23.781
337.38	25.967
337.75	24.747
338.11	25.485
338.47	24.894
338.84	24.132
339.20	23.810
339.56	25.147
339.93	23.913
340.29	24.118
340.65	24.560
341.02	25.261
341.38	24.056
341.74	23.090
342.11	23.539
342.47	24.692
342.83	24.282
343.20	23.686
343.56	23.908
343.92	24.855
344.28	24.322
344.65	24.613
345.01	23.016
345.37	23.397
345.73	23.413
346.10	22.629
346.46	23.844
346.82	22.917
347.19	24.266
347.55	21.546
347.91	22.961
348.27	22.076
348.63	23.022
349.00	23.229
349.36	23.580
349.72	23.471
350.08	24.146
350.45	23.305
350.81	22.936
351.17	22.573
351.53	23.095
351.89	22.999
352.26	22.298
352.62	23.529
352.98	22.776
353.34	23.729
353.70	22.706
354.07	23.385
354.43	22.120
354.79	22.475
355.15	23.201
355.51	22.432
355.87	22.590
356.24	22.710
356.60	21.766
356.96	22.972
357.32	23.060
357.68	21.880
358.04	22.720
358.40	22.189
358.77	22.014
359.13	22.898
359.49	22.313
359.85	21.966
360.21	21.322
360.57	21.606
360.93	21.212
361.29	22.222
361.66	22.371
362.02	21.378
362.38	23.016
362.74	22.364
363.10	22.300
363.46	22.030
363.82	22.440
364.18	22.119
364.54	21.745
364.90	22.222
365.26	21.374
365.62	21.892
365.98	21.404
366.35	21.793
366.71	21.721
367.07	21.843
367.43	21.088
367.79	21.543
368.15	21.642
368.51	21.778
368.87	21.196
369.23	20.859
369.59	22.252
369.95	21.958
370.31	20.808
370.67	21.860
371.03	21.289
371.39	21.676
371.75	20.865
372.11	21.210
372.47	22.329
372.83	22.162
373.19	22.481
373.55	22.680
373.91	21.202
374.27	21.561
374.63	22.576
374.99	21.631
375.35	21.438
375.71	21.966
376.07	20.955
376.42	20.908
376.78	22.030
377.14	21.298
377.50	21.286
377.86	21.076
378.22	21.328
378.58	22.639
378.94	21.907
379.30	21.831
379.66	22.276
380.02	22.111
380.38	21.370
380.74	22.434
381.09	21.671
381.45	20.983
381.81	21.099
382.17	22.100
382.53	22.076
382.89	22.235
383.25	21.018
383.61	21.268
383.97	21.236
384.32	21.338
384.68	22.519
385.04	21.278
385.40	21.412
385.76	21.884
386.12	21.769
386.48	21.763
386.83	21.577
387.19	21.319
387.55	21.143
387.91	22.402
388.27	21.713
388.62	22.007
388.98	21.108
389.34	21.178
389.70	21.698
390.06	21.524
390.42	21.653
390.77	21.683
391.13	21.907
391.49	21.779
391.85	22.092
392.20	22.229
392.56	22.043
392.92	20.550
393.28	21.805
393.64	20.528
393.99	20.628
394.35	21.542
394.71	20.688
395.07	20.985
395.42	21.370
395.78	22.517
396.14	22.651
396.50	21.661
396.85	21.159
397.21	20.698
397.57	21.160
397.92	20.797
398.28	20.684
398.64	21.931
399.00	20.738
399.35	21.149
399.71	20.751
400.07	21.518
400.42	20.597
400.78	21.525
401.14	21.315
401.49	21.198
401.85	22.132
402.21	21.441
402.57	22.023
402.92	21.758
403.28	20.704
403.63	20.424
403.99	20.326
404.35	21.102
404.70	21.500
405.06	20.550
405.42	21.065
405.77	20.617
406.13	20.662
406.49	20.978
406.84	21.207
407.20	21.119
407.55	20.738
407.91	20.357
408.27	22.317
408.62	21.881
408.98	21.053
409.34	21.391
409.69	20.784
410.05	20.572
410.40	21.260
410.76	20.206
411.11	20.201
411.47	20.309
411.83	19.742
412.18	20.531
412.54	21.021
412.89	20.059
413.25	20.867
413.60	21.437
413.96	21.843
414.31	20.956
414.67	20.857
415.03	20.626
415.38	21.136
415.74	20.278
416.09	21.549
416.45	21.913
416.80	21.681
417.16	20.369
417.51	20.191
417.87	20.275
418.22	20.595
418.58	21.465
418.93	20.226
419.29	19.717
419.64	21.320
420.00	20.406
420.35	20.325
420.71	20.828
421.06	20.600
421.42	19.862
421.77	21.266
422.12	20.507
422.48	20.185
422.83	21.094
423.19	20.356
423.54	20.680
423.90	20.385
424.25	20.969
424.61	20.429
424.96	19.706
425.31	20.416
425.67	20.707
426.02	20.415
426.38	20.128
426.73	21.515
427.09	20.700
427.44	19.809
427.79	20.869
428.15	21.096
428.50	20.571
428.85	21.223
429.21	20.313
429.56	20.040
429.92	20.985
430.27	20.223
430.62	19.628
430.98	20.060
431.33	19.758
431.68	18.765
432.04	19.141
432.39	20.856
432.74	20.492
433.10	20.210
433.45	20.161
433.80	20.794
434.16	19.758
434.51	19.556
434.86	20.087
435.22	19.341
435.57	20.213
435.92	20.091
436.28	21.256
436.63	19.989
436.98	21.171
437.34	20.205
437.69	19.373
438.04	19.624
438.39	20.315
438.75	20.267
439.10	20.237
439.45	20.803
439.81	20.648
440.16	20.363
440.51	19.764
440.86	20.171
441.22	19.535
441.57	19.843
441.92	19.447
442.27	19.536
442.63	19.868
442.98	19.289
443.33	20.086
443.68	19.416
444.03	19.604
444.39	20.151
444.74	19.876
445.09	19.642
445.44	20.191
445.79	19.591
446.15	19.737
446.50	19.989
446.85	19.223
447.20	19.154
447.55	18.923
447.91	20.139
448.26	19.595
448.61	20.453
448.96	20.044
449.31	20.187
449.66	19.767
450.02	18.855
450.37	19.711
450.72	20.441
451.07	20.244
451.42	20.273
451.77	19.874
452.12	20.136
452.47	20.292
452.83	20.563
453.18	20.000
453.53	20.189
453.88	19.886
454.23	20.628
454.58	19.697
454.93	19.681
455.28	20.196
455.63	20.213
455.98	19.910
456.34	19.696
456.69	20.122
457.04	20.286
457.39	20.457
457.74	20.495
458.09	19.315
458.44	19.660
458.79	19.629
459.14	19.313
459.49	20.159
459.84	20.054
460.19	19.718
460.54	20.057
460.89	20.362
461.24	19.473
461.59	19.444
461.94	19.267
462.29	20.023
462.64	20.854
462.99	20.473
463.34	19.961
463.69	20.448
464.04	20.553
464.39	20.034
464.74	19.812
465.09	20.255
465.44	19.151
465.79	19.162
466.14	19.237
466.49	19.479
466.84	20.346
467.19	19.918
467.54	19.219
467.89	20.364
468.24	19.745
468.59	18.988
468.94	20.229
469.29	20.098
469.64	19.293
469.99	20.244
470.34	20.367
470.68	19.310
471.03	20.013
471.38	20.662
471.73	20.444
472.08	20.874
472.43	19.988
472.78	20.487
473.13	19.024
473.48	20.416
473.83	19.317
474.17	20.486
474.52	19.964
474.87	19.215
475.22	19.132
475.57	19.675
475.92	18.804
476.27	19.260
476.61	19.303
476.96	18.757
477.31	20.206
477.66	19.699
478.01	19.030
478.36	18.847
478.70	19.107
479.05	18.985
479.40	19.593
479.75	19.017
480.10	19.700
480.45	19.001
480.79	18.802
481.14	19.591
481.49	18.573
481.84	18.821
482.19	18.865
482.53	18.797
482.88	18.638
483.23	19.080
483.58	18.537
483.92	20.338
484.27	18.707
484.62	19.779
484.97	18.231
485.31	18.382
485.66	17.422
486.01	17.857
486.36	17.555
486.70	17.294
487.05	17.523
487.40	18.376
487.75	18.620
488.09	18.580
488.44	18.674
488.79	18.605
489.13	19.074
489.48	18.498
489.83	18.974
490.17	18.704
490.52	18.863
490.87	19.353
491.22	19.016
491.56	19.016
491.91	18.772
492.26	18.753
492.60	18.907
492.95	19.166
493.30	19.017
493.64	18.823
493.99	19.633
494.34	18.288
494.68	18.858
495.03	18.859
495.37	19.406
495.72	19.301
496.07	18.868
496.41	18.593
496.76	18.953
497.11	18.852
497.45	19.290
497.80	19.092
498.14	19.279
498.49	19.499
498.84	19.860
499.18	18.419
499.53	18.604
499.87	17.969
500.22	19.300
500.56	18.570
500.91	20.083
501.26	19.063
501.60	18.898
501.95	18.772
502.29	19.244
502.64	18.747
502.98	18.631
503.33	19.065
503.67	19.470
504.02	18.137
504.36	19.095
504.71	19.584
505.06	18.817
505.40	18.531
505.75	18.756
506.09	19.132
506.44	19.502
506.78	18.951
507.13	19.050
507.47	19.165
507.82	19.611
508.16	19.745
508.51	18.841
508.85	18.708
509.19	19.041
509.54	19.238
509.88	18.846
510.23	18.971
510.57	18.002
510.92	19.081
511.26	19.177
511.61	18.710
511.95	19.462
512.30	19.250
512.64	19.159
512.98	19.426
513.33	19.211
513.67	19.368
514.02	19.688
514.36	18.899
514.70	19.253
515.05	19.180
515.39	19.572
515.74	19.410
516.08	19.172
516.42	19.508
516.77	18.987
517.11	19.787
517.46	19.774
517.80	19.115
518.14	20.169
518.49	19.515
518.83	19.066
519.17	19.911
519.52	20.098
519.86	18.965
520.20	19.452
520.55	18.598
520.89	19.368
521.23	19.743
521.58	19.277
521.92	19.825
522.26	18.661
522.61	19.667
522.95	20.120
523.29	18.947
523.64	18.613
523.98	20.599
524.32	19.839
524.66	18.957
525.01	19.408
525.35	19.505
525.69	19.326
526.04	20.107
526.38	18.599
526.72	20.107
527.06	19.279
527.41	19.528
527.75	19.781
528.09	18.423
528.43	19.707
528.78	20.215
529.12	20.169
529.46	18.995
529.80	19.276
530.15	19.328
530.49	19.916
530.83	19.500
531.17	19.188
531.51	19.068
531.86	19.384
532.20	18.727
532.54	19.146
532.88	19.113
533.22	19.866
533.57	19.585
533.91	18.998
534.25	18.754
534.59	19.825
534.93	19.340
535.27	18.554
535.62	18.378
535.96	19.267
536.30	19.744
536.64	18.261
536.98	19.383
537.32	19.688
537.66	19.133
538.01	20.310
538.35	19.464
538.69	18.447
539.03	18.657
539.37	18.386
539.71	19.506
540.05	18.092
540.39	19.560
540.73	19.114
541.07	18.319
541.42	19.341
541.76	19.729
542.10	18.619
542.44	19.327
542.78	18.754
543.12	18.466
543.46	18.546
543.80	18.546
544.14	18.452
544.48	18.187
544.82	19.388
545.16	18.944
545.50	19.484
545.84	19.508
546.18	19.116
546.52	19.607
546.86	19.149
547.20	18.411
547.54	19.253
547.88	18.735
548.22	19.551
548.56	19.151
548.90	18.446
549.24	19.078
549.58	17.719
549.92	19.843
550.26	18.999
550.60	19.361
550.94	18.792
551.28	19.586
551.62	19.862
551.96	19.392
552.30	18.260
552.64	20.259
552.98	18.428
553.32	18.310
553.66	18.567
554.00	18.404
554.34	19.707
554.68	19.489
555.02	18.398
555.36	19.016
555.69	18.652
556.03	19.363
556.37	18.164
556.71	19.948
557.05	18.283
557.39	19.067
557.73	18.868
558.07	18.645
558.41	19.260
558.75	19.904
559.08	19.871
559.42	18.754
559.76	19.387
560.10	18.376
560.44	19.111
560.78	18.990
561.12	18.881
561.45	18.148
561.79	19.164
562.13	18.130
562.47	18.949
562.81	18.543
563.15	19.134
563.48	17.640
563.82	19.713
564.16	18.719
564.50	18.746
564.84	17.994
565.17	17.885
565.51	18.904
565.85	19.062
566.19	18.393
566.52	18.412
566.86	17.630
567.20	18.708
567.54	18.395
567.88	17.893
568.21	17.374
568.55	18.045
568.89	18.294
569.23	17.386
569.56	17.732
569.90	17.391
570.24	17.479
570.57	17.326
570.91	17.036
571.25	16.756
571.59	16.469
571.92	16.577
572.26	16.415
572.60	16.690
572.93	17.251
573.27	16.801
573.61	16.459
573.95	16.484
574.28	17.135
574.62	16.698
574.96	16.388
575.29	16.414
575.63	16.207
575.97	16.675
576.30	16.679
576.64	16.930
576.98	16.647
577.31	16.797
577.65	17.014
577.98	16.317
578.32	15.938
578.66	16.271
578.99	16.551
579.33	16.960
579.67	16.571
580.00	16.510
580.34	16.629
580.67	16.286
581.01	16.656
581.35	16.339
581.68	16.510
582.02	15.955
582.35	16.095
582.69	16.455
583.02	16.377
583.36	16.389
583.70	16.555
584.03	16.754
584.37	17.214
584.70	16.397
585.04	16.060
585.37	16.321
585.71	16.674
586.04	16.437
586.38	16.256
586.72	16.396
587.05	17.061
587.39	16.612
587.72	16.541
588.06	16.365
588.39	16.479
588.73	16.889
589.06	16.749
589.40	17.465
589.73	17.109
590.07	16.918
590.40	17.352
590.73	18.215
591.07	17.647
591.40	16.926
591.74	16.558
592.07	16.847
592.41	17.546
592.74	17.100
593.08	16.113
593.41	16.756
593.75	16.135
594.08	16.446
594.41	16.390
594.75	17.055
595.08	16.529
595.42	16.985
595.75	17.012
596.09	17.344
596.42	16.533
596.75	17.668
597.09	16.797
597.42	16.694
597.75	16.917
598.09	16.496
598.42	16.687
598.76	16.461
599.09	16.955
599.42	16.194
599.76	16.995
600.09	16.746
600.42	16.264
600.76	16.179
601.09	16.707
601.42	16.931
601.76	16.362
602.09	17.770
602.42	16.488
602.76	16.660
603.09	16.591
603.42	17.321
603.76	16.233
604.09	16.576
604.42	16.422
604.76	17.305
605.09	16.857
605.42	17.107
605.75	16.226
606.09	16.526
606.42	16.310
606.75	16.557
607.09	16.857
607.42	16.513
607.75	16.760
608.08	17.141
608.42	16.862
608.75	16.260
609.08	16.454
609.41	16.727
609.75	16.529
610.08	16.996
610.41	16.645
610.74	17.100
611.07	17.281
611.41	17.146
611.74	16.778
612.07	16.522
612.40	17.154
612.73	17.224
613.07	17.081
613.40	16.792
613.73	16.975
614.06	16.500
614.39	16.869
614.72	16.173
615.06	16.469
615.39	17.376
615.72	16.651
616.05	16.374
616.38	17.098
616.71	17.092
617.05	17.463
617.38	16.236
617.71	17.379
618.04	16.377
618.37	17.732
618.70	17.148
619.03	16.972
619.36	17.839
619.69	17.216
620.03	18.591
620.36	17.148
620.69	18.263
621.02	18.274
621.35	17.837
621.68	18.142
622.01	17.934
622.34	17.480
622.67	18.890
623.00	18.108
623.33	17.544
623.66	16.900
623.99	17.671
624.32	17.683
624.65	16.853
624.99	17.647
625.32	18.236
625.65	17.724
625.98	17.643
626.31	17.804
626.64	17.768
626.97	16.526
627.30	17.780
627.63	18.367
627.96	17.136
628.29	17.409
628.62	18.050
628.95	17.465
629.28	19.457
629.61	18.893
629.94	19.274
630.26	18.804
630.59	19.149
630.92	17.399
631.25	19.583
