SpectraSuite Data File
++++++++++++++++++++++++++++++++++++
Date: Wed May 13 21:43:45 PDT 2015
User: schluterlab
Dark Spectrum Present: Yes
Reference Spectrum Present: Yes
Number of Sampled Component Spectra: 1
Spectrometers: USB2E3373
Integration Time (usec): 3000 (USB2E3373)
Spectra Averaged: 3 (USB2E3373)
Boxcar Smoothing: 0 (USB2E3373)
Correct for Electrical Dark: No (USB2E3373)
Strobe/Lamp Enabled: No (USB2E3373)
Correct for Detector Non-linearity: No (USB2E3373)
Correct for Stray Light: No (USB2E3373)
Number of Pixels in Processed Spectrum: 2048
>>>>>Begin Processed Spectral Data<<<<<
178.53	0.000
178.91	850.000
179.29	225.000
179.67	-700.000
180.04	-333.333
180.42	120.000
180.80	2500.000
181.18	233.333
181.56	-475.000
181.94	-100.000
182.31	-9.091
182.69	161.538
183.07	-280.000
183.45	300.000
183.83	155.556
184.20	85.714
184.58	-200.000
184.96	133.333
185.34	214.286
185.72	0.000
186.09	-800.000
186.47	-140.000
186.85	200.000
187.23	-450.000
187.61	550.000
187.98	900.000
188.36	-175.000
188.74	0.000
189.12	-54.545
189.49	50.000
189.87	158.333
190.25	240.000
190.63	1400.000
191.00	-240.000
191.38	260.000
191.76	175.000
192.14	133.333
192.51	-5.263
192.89	466.667
193.27	150.000
193.65	-240.000
194.02	181.818
194.40	230.000
194.78	-1400.000
195.15	220.000
195.53	-60.000
195.91	25.000
196.29	-233.333
196.66	0.000
197.04	450.000
197.42	20.000
197.79	10.000
198.17	-112.500
198.55	-433.333
198.92	225.000
199.30	-566.667
199.68	-50.000
200.05	450.000
200.43	233.333
200.81	-1000.000
201.18	-340.000
201.56	-150.000
201.94	500.000
202.31	-21.739
202.69	-85.714
203.07	-766.667
203.44	-100.000
203.82	-133.333
204.19	-40.000
204.57	0.000
204.95	-216.667
205.32	0.000
205.70	-400.000
206.08	-325.000
206.45	-200.000
206.83	375.000
207.20	-400.000
207.58	-80.000
207.96	-900.000
208.33	-85.714
208.71	-2300.000
209.08	225.000
209.46	425.000
209.84	0.000
210.21	170.000
210.59	2200.000
210.96	260.000
211.34	1000.000
211.71	-1350.000
212.09	-133.333
212.46	-90.000
212.84	66.667
213.22	0.000
213.59	-200.000
213.97	250.000
214.34	-950.000
214.72	-76.923
215.09	237.500
215.47	133.333
215.84	1150.000
216.22	-87.500
216.59	-550.000
216.97	666.667
217.34	211.111
217.72	0.000
218.09	533.333
218.47	-1200.000
218.84	-142.857
219.22	-137.500
219.59	-266.667
219.97	-150.000
220.34	12.500
220.72	-360.000
221.09	0.000
221.47	-100.000
221.84	-100.000
222.22	0.000
222.59	-300.000
222.97	-466.667
223.34	-133.333
223.72	-1600.000
224.09	-550.000
224.46	-72.727
224.84	0.000
225.21	-185.714
225.59	-325.000
225.96	-300.000
226.34	50.000
226.71	-185.714
227.08	400.000
227.46	-62.500
227.83	-500.000
228.21	0.000
228.58	-225.000
228.95	-35.294
229.33	18.750
229.70	-162.500
230.08	-46.154
230.45	-37.500
230.82	8.333
231.20	214.286
231.57	-25.000
231.95	600.000
232.32	41.667
232.69	-47.059
233.07	-1500.000
233.44	-43.478
233.81	-350.000
234.19	-20.833
234.56	-26.667
234.93	-100.000
235.31	-5.263
235.68	-207.692
236.05	-84.615
236.43	-16.667
236.80	-27.273
237.17	-53.333
237.55	-70.588
237.92	-31.034
238.29	-37.037
238.67	-22.222
239.04	-25.806
239.41	-6.383
239.79	21.277
240.16	2.326
240.53	-12.500
240.91	5.357
241.28	14.286
241.65	4.839
242.02	2.632
242.40	4.348
242.77	-8.696
243.14	-7.692
243.51	8.511
243.89	3.846
244.26	15.094
244.63	-3.846
245.00	1.042
245.38	0.840
245.75	5.738
246.12	10.526
246.49	-4.878
246.87	-6.723
247.24	7.432
247.61	8.609
247.98	12.821
248.36	6.509
248.73	2.809
249.10	5.051
249.47	1.613
249.84	9.474
250.22	9.453
250.59	12.150
250.96	7.273
251.33	0.957
251.70	12.134
252.08	8.787
252.45	7.407
252.82	9.125
253.19	9.339
253.56	6.475
253.94	8.541
254.31	8.803
254.68	13.423
255.05	11.551
255.42	11.538
255.79	8.896
256.16	12.303
256.54	10.476
256.91	6.329
257.28	12.264
257.65	5.096
258.02	7.918
258.39	9.942
258.76	6.105
259.14	8.807
259.51	8.989
259.88	8.401
260.25	9.722
260.62	8.989
260.99	10.345
261.36	11.917
261.73	8.889
262.10	6.870
262.47	8.642
262.85	9.204
263.22	9.487
263.59	8.312
263.96	9.246
264.33	7.933
264.70	8.372
265.07	9.722
265.44	12.184
265.81	8.696
266.18	9.339
266.55	9.389
266.92	9.958
267.29	8.436
267.66	9.979
268.03	10.288
268.40	8.686
268.77	9.091
269.14	10.000
269.51	13.347
269.88	9.165
270.25	11.653
270.62	10.041
270.99	11.024
271.36	10.317
271.73	9.639
272.10	11.429
272.47	8.253
272.84	9.646
273.21	10.176
273.58	10.041
273.95	10.566
274.32	10.261
274.69	13.843
275.06	11.131
275.43	8.663
275.80	11.525
276.17	9.024
276.54	10.480
276.91	9.408
277.28	8.845
277.65	11.713
278.02	10.536
278.39	10.657
278.76	9.866
279.13	8.748
279.50	10.172
279.87	8.333
280.23	10.450
280.60	9.170
280.97	10.390
281.34	10.410
281.71	7.967
282.08	9.744
282.45	9.344
282.82	12.460
283.19	11.738
283.56	11.875
283.92	12.080
284.29	10.296
284.66	9.555
285.03	10.098
285.40	9.366
285.77	10.360
286.14	8.359
286.51	11.544
286.87	9.538
287.24	9.440
287.61	12.349
287.98	10.735
288.35	7.899
288.72	11.908
289.08	9.972
289.45	7.489
289.82	9.077
290.19	9.537
290.56	9.659
290.93	8.564
291.29	10.260
291.66	8.743
292.03	9.809
292.40	7.537
292.77	8.568
293.13	10.181
293.50	9.542
293.87	9.467
294.24	9.392
294.60	8.843
294.97	9.524
295.34	7.520
295.71	6.570
296.08	8.508
296.44	8.036
296.81	7.308
297.18	9.000
297.55	8.373
297.91	8.944
298.28	8.596
298.65	7.020
299.02	9.280
299.38	7.607
299.75	8.894
300.12	7.558
300.48	7.836
300.85	9.122
301.22	7.201
301.59	7.277
301.95	7.433
302.32	7.935
302.69	6.328
303.05	8.638
303.42	8.068
303.79	8.728
304.15	8.105
304.52	8.710
304.89	7.530
305.25	7.684
305.62	7.375
305.99	9.032
306.35	9.300
306.72	10.275
307.09	8.238
307.45	8.413
307.82	7.579
308.19	7.628
308.55	7.472
308.92	9.136
309.29	8.108
309.65	8.991
310.02	8.847
310.38	8.740
310.75	9.172
311.12	8.163
311.48	9.199
311.85	7.677
312.22	8.317
312.58	8.696
312.95	7.861
313.31	8.540
313.68	8.492
314.05	7.940
314.41	9.414
314.78	8.539
315.14	8.611
315.51	9.324
315.87	9.082
316.24	8.815
316.61	9.041
316.97	8.611
317.34	8.289
317.70	9.367
318.07	9.228
318.43	8.491
318.80	9.773
319.16	9.195
319.53	9.050
319.89	9.937
320.26	9.612
320.62	10.751
320.99	9.787
321.35	9.448
321.72	9.432
322.08	8.856
322.45	9.066
322.81	9.150
323.18	8.766
323.54	9.657
323.91	8.943
324.27	9.901
324.64	9.233
325.00	9.186
325.37	10.154
325.73	9.764
326.10	10.261
326.46	9.699
326.83	9.223
327.19	9.593
327.56	10.717
327.92	9.010
328.29	10.518
328.65	10.780
329.01	9.323
329.38	11.130
329.74	9.785
330.11	9.107
330.47	9.635
330.84	9.116
331.20	9.308
331.56	8.062
331.93	9.733
332.29	10.426
332.66	8.814
333.02	10.252
333.38	9.298
333.75	9.556
334.11	9.722
334.48	9.154
334.84	9.011
335.20	9.691
335.57	9.138
335.93	8.763
336.29	8.669
336.66	8.547
337.02	9.217
337.38	9.225
337.75	9.561
338.11	8.284
338.47	9.247
338.84	9.192
339.20	8.642
339.56	9.386
339.93	8.729
340.29	9.308
340.65	9.068
341.02	8.902
341.38	8.699
341.74	7.815
342.11	9.827
342.47	7.699
342.83	8.905
343.20	9.052
343.56	9.158
343.92	9.423
344.28	8.847
344.65	9.306
345.01	8.313
345.37	9.128
345.73	8.905
346.10	8.266
346.46	9.187
346.82	7.945
347.19	8.465
347.55	8.805
347.91	9.119
348.27	8.281
348.63	8.173
349.00	8.176
349.36	9.105
349.72	9.358
350.08	8.424
350.45	8.301
350.81	9.546
351.17	9.931
351.53	8.091
351.89	8.340
352.26	7.722
352.62	8.760
352.98	7.588
353.34	8.454
353.70	8.645
354.07	8.157
354.43	8.243
354.79	9.215
355.15	9.084
355.51	8.960
355.87	8.913
356.24	8.748
356.60	8.444
356.96	8.596
357.32	9.056
357.68	8.709
358.04	8.689
358.40	8.372
358.77	8.869
359.13	8.405
359.49	8.554
359.85	8.264
360.21	7.710
360.57	9.125
360.93	8.042
361.29	8.586
361.66	8.276
362.02	8.154
362.38	9.010
362.74	7.687
363.10	8.243
363.46	7.997
363.82	8.500
364.18	8.412
364.54	8.461
364.90	7.805
365.26	7.714
365.62	8.736
365.98	8.327
366.35	8.794
366.71	7.775
367.07	8.434
367.43	8.293
367.79	8.061
368.15	8.579
368.51	8.650
368.87	8.723
369.23	8.327
369.59	8.245
369.95	7.547
370.31	8.089
370.67	8.472
371.03	7.944
371.39	8.801
371.75	7.929
372.11	8.974
372.47	8.147
372.83	9.362
373.19	7.698
373.55	8.092
373.91	8.557
374.27	7.815
374.63	8.037
374.99	7.521
375.35	9.110
375.71	7.677
376.07	9.459
376.42	8.222
376.78	8.520
377.14	8.339
377.50	8.018
377.86	8.699
378.22	8.597
378.58	8.008
378.94	9.312
379.30	8.245
379.66	8.200
380.02	7.414
380.38	7.711
380.74	9.265
381.09	8.565
381.45	9.129
381.81	8.318
382.17	7.813
382.53	9.108
382.89	8.444
383.25	8.333
383.61	8.596
383.97	8.187
384.32	7.561
384.68	8.020
385.04	7.025
385.40	8.157
385.76	8.273
386.12	8.651
386.48	8.276
386.83	7.384
387.19	8.020
387.55	9.503
387.91	8.241
388.27	8.508
388.62	8.801
388.98	7.885
389.34	8.396
389.70	8.547
390.06	8.750
390.42	8.119
390.77	8.456
391.13	7.449
391.49	8.159
391.85	8.371
392.20	7.707
392.56	7.937
392.92	7.724
393.28	7.612
393.64	8.379
393.99	7.222
394.35	8.333
394.71	7.821
395.07	7.484
395.42	8.227
395.78	7.465
396.14	8.307
396.50	8.307
396.85	7.903
397.21	8.302
397.57	7.764
397.92	7.545
398.28	8.291
398.64	7.954
399.00	8.259
399.35	8.343
399.71	7.397
400.07	8.313
400.42	7.461
400.78	7.492
401.14	7.051
401.49	7.789
401.85	8.231
402.21	8.111
402.57	8.584
402.92	9.387
403.28	7.817
403.63	8.060
403.99	8.253
404.35	7.731
404.70	7.734
405.06	7.751
405.42	7.098
405.77	7.546
406.13	7.600
406.49	7.549
406.84	7.937
407.20	7.815
407.55	7.987
407.91	7.148
408.27	8.796
408.62	8.901
408.98	7.275
409.34	7.611
409.69	8.642
410.05	8.582
410.40	8.217
410.76	7.822
411.11	7.649
411.47	8.361
411.83	8.047
412.18	7.746
412.54	8.208
412.89	7.335
413.25	7.847
413.60	8.652
413.96	7.803
414.31	8.076
414.67	8.127
415.03	7.645
415.38	7.794
415.74	7.667
416.09	8.063
416.45	7.792
416.80	8.322
417.16	8.030
417.51	8.506
417.87	7.870
418.22	7.886
418.58	7.490
418.93	8.600
419.29	7.921
419.64	8.270
420.00	8.254
420.35	8.607
420.71	7.678
421.06	8.180
421.42	8.455
421.77	7.572
422.12	8.309
422.48	7.743
422.83	7.915
423.19	6.843
423.54	8.363
423.90	7.957
424.25	7.337
424.61	8.195
424.96	8.279
425.31	8.301
425.67	8.466
426.02	8.422
426.38	8.022
426.73	7.392
427.09	8.005
427.44	8.103
427.79	7.838
428.15	7.829
428.50	7.492
428.85	8.180
429.21	8.497
429.56	8.767
429.92	8.537
430.27	8.129
430.62	8.552
430.98	8.673
431.33	7.792
431.68	8.892
432.04	8.282
432.39	7.275
432.74	7.909
433.10	9.006
433.45	7.988
433.80	8.161
434.16	8.083
434.51	8.587
434.86	8.539
435.22	8.489
435.57	8.170
435.92	7.419
436.28	8.228
436.63	8.603
436.98	8.637
437.34	8.364
437.69	7.969
438.04	7.923
438.39	8.717
438.75	7.867
439.10	8.560
439.45	8.172
439.81	7.943
440.16	9.391
440.51	8.205
440.86	8.654
441.22	8.434
441.57	8.243
441.92	8.761
442.27	8.225
442.63	8.396
442.98	8.102
443.33	8.126
443.68	8.065
444.03	8.793
444.39	8.875
444.74	8.448
445.09	7.985
445.44	9.183
445.79	8.415
446.15	8.763
446.50	8.645
446.85	8.498
447.20	8.102
447.55	8.506
447.91	8.596
448.26	8.691
448.61	8.516
448.96	8.998
449.31	9.252
449.66	8.791
450.02	9.323
450.37	8.637
450.72	8.209
451.07	8.025
451.42	8.671
451.77	8.886
452.12	8.913
452.47	9.103
452.83	7.901
453.18	8.593
453.53	8.575
453.88	8.012
454.23	8.838
454.58	9.191
454.93	8.788
455.28	9.249
455.63	8.235
455.98	8.460
456.34	7.629
456.69	8.754
457.04	8.359
457.39	8.719
457.74	8.079
458.09	8.590
458.44	7.814
458.79	9.006
459.14	9.438
459.49	7.866
459.84	8.117
460.19	8.223
460.54	8.698
460.89	8.164
461.24	8.693
461.59	8.635
461.94	8.407
462.29	8.088
462.64	8.773
462.99	9.054
463.34	9.185
463.69	9.472
464.04	8.403
464.39	8.786
464.74	8.661
465.09	8.865
465.44	9.428
465.79	8.798
466.14	9.350
466.49	8.035
466.84	9.026
467.19	8.025
467.54	9.916
467.89	8.485
468.24	9.219
468.59	8.732
468.94	8.621
469.29	8.857
469.64	8.508
469.99	8.759
470.34	8.968
470.68	8.030
471.03	9.309
471.38	9.527
471.73	8.436
472.08	9.828
472.43	8.839
472.78	9.195
473.13	8.509
473.48	8.154
473.83	8.475
474.17	8.724
474.52	8.479
474.87	9.047
475.22	9.662
475.57	8.812
475.92	9.378
476.27	8.333
476.61	9.060
476.96	8.452
477.31	8.900
477.66	8.983
478.01	8.516
478.36	8.665
478.70	8.539
479.05	8.768
479.40	8.684
479.75	8.767
480.10	9.332
480.45	8.681
480.79	8.761
481.14	9.524
481.49	9.324
481.84	8.577
482.19	8.291
482.53	8.667
482.88	8.965
483.23	8.373
483.58	8.318
483.92	8.123
484.27	8.005
484.62	8.344
484.97	8.503
485.31	8.812
485.66	8.872
486.01	8.910
486.36	8.687
486.70	8.965
487.05	9.049
487.40	8.408
487.75	9.015
488.09	8.821
488.44	8.763
488.79	9.349
489.13	8.509
489.48	8.422
489.83	9.245
490.17	9.033
490.52	9.397
490.87	9.411
491.22	9.185
491.56	9.296
491.91	9.361
492.26	8.607
492.60	8.802
492.95	8.989
493.30	9.399
493.64	8.825
493.99	8.841
494.34	9.297
494.68	9.021
495.03	8.202
495.37	8.759
495.72	8.822
496.07	8.962
496.41	9.359
496.76	8.455
497.11	9.531
497.45	8.804
497.80	9.490
498.14	9.370
498.49	8.825
498.84	8.907
499.18	8.910
499.53	8.863
499.87	8.831
500.22	8.761
500.56	8.927
500.91	9.256
501.26	9.212
501.60	8.971
501.95	8.816
502.29	9.029
502.64	9.836
502.98	9.008
503.33	9.343
503.67	9.153
504.02	8.922
504.36	8.717
504.71	9.096
505.06	9.628
505.40	8.093
505.75	9.003
506.09	9.147
506.44	9.526
506.78	8.735
507.13	8.784
507.47	9.120
507.82	9.001
508.16	8.918
508.51	9.452
508.85	8.294
509.19	8.836
509.54	9.651
509.88	9.570
510.23	8.842
510.57	9.746
510.92	9.321
511.26	9.516
511.61	9.385
511.95	8.159
512.30	8.440
512.64	10.045
512.98	9.474
513.33	9.746
513.67	9.824
514.02	8.666
514.36	9.888
514.70	9.700
515.05	9.304
515.39	8.726
515.74	8.585
516.08	9.086
516.42	9.447
516.77	8.553
517.11	8.760
517.46	10.024
517.80	9.746
518.14	8.328
518.49	9.705
518.83	8.950
519.17	9.518
519.52	9.288
519.86	9.715
520.20	8.733
520.55	9.391
520.89	9.741
521.23	9.487
521.58	9.545
521.92	9.365
522.26	9.304
522.61	8.985
522.95	9.326
523.29	9.016
523.64	9.727
523.98	9.530
524.32	8.507
524.66	9.026
525.01	9.699
525.35	9.480
525.69	9.410
526.04	9.121
526.38	9.178
526.72	9.533
527.06	9.994
527.41	8.339
527.75	8.678
528.09	9.598
528.43	10.516
528.78	9.044
529.12	9.832
529.46	8.765
529.80	9.256
530.15	8.945
530.49	9.973
530.83	9.343
531.17	9.110
531.51	8.901
531.86	9.688
532.20	8.890
532.54	8.966
532.88	9.258
533.22	9.562
533.57	9.470
533.91	10.323
534.25	10.026
534.59	9.459
534.93	8.929
535.27	9.809
535.62	8.618
535.96	9.369
536.30	10.040
536.64	9.706
536.98	8.129
537.32	9.253
537.66	10.155
538.01	8.460
538.35	8.840
538.69	8.896
539.03	9.195
539.37	9.926
539.71	9.482
540.05	8.974
540.39	9.360
540.73	9.567
541.07	9.116
541.42	10.034
541.76	9.743
542.10	8.734
542.44	9.078
542.78	9.507
543.12	9.973
543.46	8.915
543.80	10.251
544.14	8.809
544.48	8.494
544.82	9.751
545.16	9.533
545.50	10.601
545.84	9.327
546.18	9.046
546.52	9.668
546.86	9.541
547.20	9.364
547.54	8.649
547.88	9.379
548.22	9.642
548.56	8.472
548.90	9.878
549.24	10.208
549.58	9.680
549.92	8.731
550.26	10.037
550.60	9.760
550.94	9.104
551.28	9.614
551.62	10.376
551.96	9.883
552.30	8.079
552.64	9.251
552.98	10.582
553.32	9.301
553.66	9.831
554.00	9.359
554.34	8.938
554.68	9.694
555.02	8.907
555.36	9.985
555.69	9.687
556.03	8.578
556.37	9.602
556.71	9.951
557.05	8.266
557.39	9.118
557.73	9.607
558.07	9.269
558.41	9.690
558.75	10.008
559.08	8.661
559.42	9.048
559.76	9.786
560.10	9.147
560.44	10.169
560.78	8.417
561.12	9.530
561.45	8.980
561.79	9.285
562.13	9.353
562.47	9.571
562.81	8.586
563.15	10.198
563.48	9.635
563.82	9.166
564.16	9.817
564.50	9.769
564.84	8.919
565.17	10.199
565.51	9.559
565.85	8.927
566.19	10.530
566.52	8.978
566.86	9.166
567.20	9.285
567.54	9.039
567.88	9.183
568.21	9.506
568.55	9.807
568.89	8.475
569.23	9.533
569.56	9.595
569.90	9.317
570.24	9.134
570.57	9.655
570.91	9.987
571.25	9.268
571.59	9.020
571.92	9.358
572.26	9.266
572.60	8.870
572.93	9.278
573.27	9.444
573.61	9.790
573.95	9.387
574.28	9.745
574.62	9.183
574.96	9.350
575.29	9.629
575.63	9.299
575.97	9.321
576.30	9.279
576.64	9.458
576.98	9.183
577.31	9.295
577.65	9.211
577.98	9.373
578.32	9.420
578.66	9.054
578.99	9.296
579.33	9.545
579.67	9.267
580.00	9.068
580.34	9.404
580.67	9.677
581.01	9.282
581.35	9.455
581.68	9.540
582.02	9.369
582.35	9.666
582.69	9.585
583.02	9.471
583.36	9.399
583.70	9.392
584.03	10.138
584.37	8.989
584.70	9.161
585.04	9.184
585.37	9.210
585.71	9.286
586.04	9.273
586.38	9.392
586.72	9.300
587.05	9.278
587.39	9.557
587.72	9.388
588.06	9.713
588.39	9.432
588.73	9.597
589.06	8.956
589.40	9.082
589.73	8.911
590.07	9.479
590.40	9.390
590.73	9.400
591.07	9.570
591.40	9.826
591.74	9.115
592.07	9.083
592.41	9.481
592.74	9.954
593.08	9.778
593.41	9.859
593.75	9.044
594.08	9.568
594.41	9.470
594.75	9.933
595.08	9.933
595.42	9.234
595.75	9.689
596.09	9.738
596.42	9.232
596.75	9.566
597.09	9.418
597.42	10.139
597.75	9.244
598.09	9.882
598.42	10.112
598.76	9.404
599.09	10.564
599.42	9.932
599.76	9.839
600.09	9.262
600.42	9.529
600.76	9.239
601.09	9.567
601.42	9.682
601.76	9.653
602.09	9.850
602.42	10.277
602.76	9.312
603.09	9.897
603.42	9.356
603.76	9.938
604.09	9.763
604.42	8.958
604.76	9.472
605.09	9.470
605.42	10.616
605.75	9.036
606.09	9.437
606.42	10.100
606.75	9.481
607.09	9.663
607.42	9.676
607.75	9.190
608.08	8.837
608.42	9.325
608.75	10.081
609.08	9.211
609.41	10.184
609.75	8.775
610.08	9.763
610.41	9.670
610.74	9.913
611.07	9.168
611.41	9.468
611.74	9.886
612.07	9.745
612.40	10.000
612.73	9.111
613.07	9.645
613.40	9.637
613.73	9.913
614.06	9.563
614.39	8.783
614.72	10.550
615.06	9.778
615.39	9.989
615.72	9.827
616.05	8.784
616.38	9.278
616.71	9.718
617.05	9.275
617.38	8.318
617.71	9.130
618.04	8.958
618.37	9.274
618.70	9.961
619.03	9.622
619.36	9.609
619.69	8.772
620.03	9.187
620.36	9.395
620.69	9.279
621.02	9.077
621.35	9.730
621.68	8.802
622.01	9.547
622.34	9.040
622.67	9.867
623.00	9.878
623.33	9.349
623.66	9.071
623.99	9.302
624.32	10.051
624.65	8.605
624.99	9.331
625.32	9.559
625.65	8.837
625.98	9.321
626.31	10.041
626.64	9.888
626.97	8.564
627.30	9.581
627.63	9.602
627.96	9.437
628.29	9.395
628.62	8.704
628.95	9.218
629.28	9.852
629.61	11.005
629.94	9.091
630.26	9.163
630.59	9.590
630.92	8.233
631.25	9.681
631.58	11.028
631.91	8.484
632.24	8.233
632.57	8.000
632.90	7.935
633.23	7.914
633.56	10.671
633.89	9.569
634.22	10.130
634.55	10.597
634.88	7.230
635.20	9.375
635.53	8.656
635.86	8.590
636.19	12.159
636.52	7.927
636.85	9.891
637.18	8.770
637.51	9.613
637.83	10.183
638.16	8.667
638.49	8.411
638.82	9.281
639.15	8.644
639.48	8.824
639.81	8.750
640.13	10.141
640.46	9.181
640.79	9.928
641.12	8.876
641.45	8.734
641.77	8.395
642.10	10.590
642.43	8.333
642.76	7.098
643.09	9.265
643.41	10.207
643.74	7.270
644.07	7.282
644.40	6.965
644.73	9.492
645.05	8.028
645.38	8.472
645.71	8.503
646.04	6.734
646.36	7.813
646.69	10.490
647.02	6.557
647.35	9.689
647.67	9.242
648.00	6.884
648.33	9.831
648.66	7.846
648.98	9.938
649.31	8.282
649.64	7.981
649.96	11.216
650.29	6.699
650.62	7.908
650.94	8.448
651.27	6.890
651.60	8.741
651.92	10.573
652.25	10.050
652.58	6.106
652.90	10.606
653.23	5.433
653.56	7.934
653.88	5.461
654.21	6.485
654.54	7.973
654.86	9.756
655.19	7.983
655.52	10.316
