SpectraSuite Data File
++++++++++++++++++++++++++++++++++++
Date: Tue May 12 16:29:57 PDT 2015
User: schluterlab
Dark Spectrum Present: Yes
Reference Spectrum Present: Yes
Number of Sampled Component Spectra: 1
Spectrometers: USB2E3373
Integration Time (usec): 3000 (USB2E3373)
Spectra Averaged: 3 (USB2E3373)
Boxcar Smoothing: 0 (USB2E3373)
Correct for Electrical Dark: No (USB2E3373)
Strobe/Lamp Enabled: No (USB2E3373)
Correct for Detector Non-linearity: No (USB2E3373)
Correct for Stray Light: No (USB2E3373)
Number of Pixels in Processed Spectrum: 2048
>>>>>Begin Processed Spectral Data<<<<<
178.53	0.000
178.91	-225.000
179.29	-650.000
179.67	-4400.000
180.04	-160.000
180.42	525.000
180.80	1450.000
181.18	0.000
181.56	-275.000
181.94	0.000
182.31	1400.000
182.69	-3100.000
183.07	614.286
183.45	-3200.000
183.83	-1300.000
184.20	360.000
184.58	571.429
184.96	-176.923
185.34	-233.333
185.72	2050.000
186.09	-950.000
186.47	-3100.000
186.85	866.667
187.23	580.000
187.61	1400.000
187.98	500.000
188.36	278.571
188.74	250.000
189.12	283.333
189.49	825.000
189.87	0.000
190.25	425.000
190.63	2700.000
191.00	-183.333
191.38	-4000.000
191.76	-850.000
192.14	425.000
192.51	-1900.000
192.89	1950.000
193.27	1200.000
193.65	-1300.000
194.02	-740.000
194.40	600.000
194.78	-235.714
195.15	213.333
195.53	-2200.000
195.91	-420.000
196.29	4100.000
196.66	231.250
197.04	900.000
197.42	-1250.000
197.79	525.000
198.17	258.333
198.55	0.000
198.92	285.714
199.30	900.000
199.68	2050.000
200.05	850.000
200.43	-466.667
200.81	216.667
201.18	3100.000
201.56	275.000
201.94	-625.000
202.31	-312.500
202.69	-460.000
203.07	3900.000
203.44	-483.333
203.82	408.333
204.19	380.000
204.57	-1100.000
204.95	-700.000
205.32	-720.000
205.70	633.333
206.08	775.000
206.45	-900.000
206.83	388.889
207.20	189.474
207.58	300.000
207.96	680.000
208.33	0.000
208.71	757.143
209.08	740.000
209.46	-3600.000
209.84	-725.000
210.21	1020.000
210.59	-440.000
210.96	275.000
211.34	-800.000
211.71	445.455
212.09	575.000
212.46	1650.000
212.84	-316.667
213.22	333.333
213.59	-4100.000
213.97	360.000
214.34	1000.000
214.72	1200.000
215.09	1200.000
215.47	-2500.000
215.84	-340.000
216.22	-475.000
216.59	0.000
216.97	0.000
217.34	1250.000
217.72	-1150.000
218.09	1100.000
218.47	437.500
218.84	800.000
219.22	1366.667
219.59	833.333
219.97	542.857
220.34	400.000
220.72	1250.000
221.09	3700.000
221.47	300.000
221.84	900.000
222.22	290.000
222.59	244.444
222.97	285.714
223.34	193.750
223.72	-1550.000
224.09	1100.000
224.46	207.692
224.84	-725.000
225.21	344.444
225.59	286.667
225.96	1200.000
226.34	-660.000
226.71	-775.000
227.08	-600.000
227.46	0.000
227.83	-533.333
228.21	-1650.000
228.58	416.667
228.95	1075.000
229.33	366.667
229.70	1150.000
230.08	307.692
230.45	3100.000
230.82	-700.000
231.20	-733.333
231.57	-1233.333
231.95	660.000
232.32	216.667
232.69	416.667
233.07	275.000
233.44	-1700.000
233.81	293.333
234.19	207.407
234.56	150.000
234.93	176.471
235.31	210.000
235.68	218.750
236.05	139.286
236.43	151.852
236.80	300.000
237.17	158.621
237.55	125.000
237.92	135.000
238.29	154.545
238.67	156.250
239.04	109.756
239.41	95.833
239.79	92.500
240.16	97.917
240.53	78.689
240.91	71.014
241.28	88.136
241.65	78.788
242.02	92.958
242.40	81.429
242.77	67.033
243.14	62.025
243.51	70.707
243.89	69.159
244.26	62.617
244.63	64.356
245.00	63.303
245.38	50.847
245.75	60.606
246.12	68.148
246.49	51.064
246.87	59.836
247.24	64.000
247.61	60.000
247.98	55.782
248.36	55.758
248.73	63.265
249.10	52.381
249.47	53.500
249.84	52.239
250.22	51.351
250.59	48.000
250.96	51.899
251.33	54.419
251.70	50.446
252.08	47.899
252.45	46.215
252.82	44.487
253.19	45.059
253.56	46.923
253.94	46.739
254.31	49.612
254.68	44.599
255.05	48.621
255.42	45.985
255.79	43.648
256.16	45.763
256.54	47.727
256.91	45.425
257.28	43.478
257.65	41.693
258.02	41.888
258.39	46.418
258.76	46.377
259.14	42.000
259.51	45.481
259.88	46.505
260.25	41.484
260.62	42.740
260.99	42.424
261.36	42.340
261.73	43.617
262.10	42.670
262.47	43.500
262.85	43.733
263.22	45.244
263.59	39.386
263.96	44.862
264.33	44.198
264.70	43.489
265.07	41.220
265.44	43.807
265.81	42.453
266.18	44.851
266.55	42.317
266.92	42.729
267.29	41.447
267.66	43.049
268.03	42.377
268.40	38.689
268.77	44.053
269.14	41.432
269.51	38.753
269.88	41.429
270.25	40.605
270.62	42.060
270.99	39.959
271.36	41.667
271.73	42.558
272.10	41.010
272.47	40.278
272.84	36.527
273.21	40.083
273.58	39.879
273.95	40.246
274.32	42.412
274.69	42.323
275.06	40.073
275.43	39.655
275.80	39.245
276.17	39.154
276.54	40.748
276.91	42.537
277.28	38.504
277.65	41.882
278.02	40.441
278.39	38.669
278.76	39.828
279.13	38.612
279.50	39.273
279.87	40.037
280.23	38.674
280.60	40.511
280.97	40.690
281.34	37.294
281.71	39.304
282.08	40.342
282.45	37.838
282.82	37.793
283.19	39.269
283.56	37.025
283.92	38.599
284.29	39.767
284.66	37.983
285.03	37.977
285.40	38.017
285.77	37.037
286.14	38.700
286.51	38.650
286.87	34.968
287.24	34.685
287.61	37.234
287.98	36.119
288.35	34.963
288.72	36.115
289.08	35.285
289.45	37.652
289.82	33.750
290.19	35.139
290.56	35.371
290.93	34.820
291.29	34.116
291.66	34.463
292.03	32.679
292.40	32.791
292.77	32.869
293.13	31.954
293.50	32.119
293.87	32.791
294.24	33.566
294.60	33.244
294.97	32.448
295.34	33.068
295.71	31.669
296.08	32.000
296.44	31.258
296.81	28.908
297.18	30.925
297.55	31.281
297.91	30.542
298.28	30.072
298.65	30.675
299.02	27.986
299.38	29.976
299.75	29.634
300.12	29.587
300.48	29.742
300.85	30.393
301.22	30.233
301.59	27.830
301.95	30.105
302.32	30.151
302.69	29.864
303.05	32.548
303.42	28.139
303.79	28.494
304.15	28.053
304.52	25.793
304.89	29.424
305.25	29.366
305.62	28.038
305.99	28.261
306.35	27.158
306.72	29.136
307.09	29.607
307.45	27.878
307.82	28.395
308.19	28.763
308.55	29.000
308.92	28.557
309.29	29.684
309.65	28.246
310.02	30.020
310.38	29.212
310.75	29.219
311.12	28.736
311.48	31.081
311.85	29.580
312.22	29.704
312.58	29.932
312.95	31.068
313.31	30.056
313.68	30.957
314.05	32.692
314.41	32.588
314.78	32.860
315.14	34.123
315.51	34.626
315.87	34.580
316.24	35.014
316.61	34.109
316.97	34.037
317.34	35.669
317.70	36.523
318.07	36.833
318.43	37.961
318.80	38.091
319.16	38.024
319.53	39.823
319.89	37.634
320.26	41.806
320.62	40.293
320.99	42.040
321.35	42.950
321.72	42.315
322.08	43.583
322.45	45.958
322.81	45.105
323.18	46.181
323.54	47.474
323.91	48.776
324.27	48.453
324.64	48.183
325.00	50.431
325.37	50.675
325.73	52.277
326.10	53.024
326.46	53.675
326.83	53.200
327.19	54.859
327.56	54.153
327.92	56.639
328.29	57.283
328.65	59.418
329.01	57.656
329.38	58.545
329.74	57.643
330.11	59.427
330.47	60.699
330.84	57.550
331.20	59.814
331.56	60.881
331.93	60.393
332.29	59.354
332.66	60.289
333.02	60.481
333.38	62.740
333.75	61.134
334.11	60.319
334.48	61.709
334.84	61.233
335.20	61.762
335.57	60.537
335.93	59.882
336.29	60.614
336.66	63.722
337.02	62.703
337.38	61.479
337.75	63.260
338.11	62.869
338.47	61.558
338.84	60.711
339.20	61.905
339.56	62.489
339.93	61.789
340.29	62.269
340.65	63.453
341.02	60.821
341.38	63.300
341.74	62.874
342.11	64.023
342.47	62.100
342.83	64.069
343.20	64.107
343.56	61.398
343.92	63.749
344.28	62.839
344.65	63.081
345.01	62.540
345.37	61.378
345.73	62.302
346.10	61.673
346.46	63.477
346.82	61.728
347.19	62.287
347.55	61.436
347.91	62.689
348.27	62.897
348.63	62.737
349.00	63.366
349.36	63.268
349.72	62.844
350.08	63.509
350.45	63.442
350.81	62.232
351.17	62.558
351.53	63.356
351.89	62.082
352.26	64.550
352.62	64.178
352.98	64.187
353.34	63.790
353.70	63.073
354.07	64.154
354.43	65.131
354.79	63.098
355.15	64.089
355.51	63.218
355.87	63.931
356.24	65.589
356.60	63.546
356.96	65.428
357.32	63.979
357.68	64.244
358.04	65.350
358.40	64.693
358.77	66.266
359.13	64.489
359.49	64.789
359.85	65.004
360.21	64.190
360.57	64.234
360.93	65.007
361.29	66.089
361.66	65.846
362.02	63.991
362.38	67.532
362.74	64.968
363.10	65.919
363.46	64.157
363.82	66.620
364.18	66.999
364.54	66.953
364.90	65.596
365.26	66.551
365.62	65.815
365.98	64.556
366.35	66.690
366.71	67.037
367.07	66.280
367.43	66.488
367.79	66.024
368.15	65.265
368.51	66.782
368.87	67.391
369.23	65.558
369.59	66.150
369.95	67.622
370.31	66.872
370.67	66.620
371.03	67.087
371.39	68.006
371.75	67.481
372.11	67.029
372.47	67.397
372.83	67.233
373.19	67.032
373.55	67.835
373.91	67.127
374.27	67.659
374.63	68.068
374.99	67.183
375.35	68.481
375.71	68.140
376.07	69.231
376.42	67.775
376.78	68.979
377.14	69.266
377.50	69.101
377.86	67.969
378.22	70.384
378.58	68.947
378.94	69.644
379.30	69.982
379.66	70.018
380.02	70.205
380.38	68.677
380.74	71.280
381.09	70.386
381.45	68.786
381.81	69.267
382.17	70.696
382.53	69.526
382.89	69.840
383.25	70.870
383.61	69.741
383.97	69.166
384.32	70.826
384.68	72.074
385.04	71.454
385.40	70.819
385.76	70.860
386.12	71.614
386.48	71.976
386.83	71.577
387.19	71.084
387.55	71.731
387.91	70.727
388.27	71.446
388.62	70.364
388.98	70.612
389.34	70.018
389.70	69.929
390.06	71.098
390.42	71.376
390.77	71.376
391.13	71.515
391.49	71.083
391.85	72.062
392.20	72.050
392.56	69.833
392.92	71.926
393.28	71.020
393.64	70.183
393.99	70.065
394.35	69.865
394.71	70.989
395.07	70.560
395.42	70.316
395.78	72.733
396.14	72.651
396.50	72.022
396.85	71.463
397.21	72.142
397.57	70.891
397.92	70.653
398.28	71.980
398.64	72.891
399.00	70.497
399.35	69.673
399.71	69.978
400.07	71.804
400.42	71.284
400.78	72.551
401.14	70.816
401.49	70.737
401.85	71.147
402.21	72.291
402.57	73.309
402.92	72.121
403.28	71.838
403.63	70.159
403.99	71.713
404.35	71.102
404.70	72.652
405.06	70.466
405.42	71.095
405.77	71.114
406.13	71.204
406.49	70.210
406.84	70.051
407.20	71.747
407.55	71.323
407.91	71.474
408.27	70.770
408.62	70.905
408.98	71.082
409.34	69.258
409.69	70.566
410.05	70.781
410.40	70.495
410.76	69.433
411.11	70.912
411.47	70.062
411.83	69.537
412.18	70.833
412.54	69.550
412.89	69.971
413.25	69.840
413.60	69.860
413.96	70.497
414.31	70.189
414.67	71.695
415.03	69.604
415.38	72.681
415.74	73.026
416.09	71.955
416.45	72.204
416.80	72.162
417.16	69.764
417.51	69.618
417.87	70.338
418.22	69.988
418.58	71.210
418.93	71.386
419.29	69.871
419.64	70.745
420.00	71.718
420.35	71.138
420.71	70.187
421.06	70.277
421.42	70.754
421.77	73.348
422.12	72.051
422.48	69.286
422.83	70.424
423.19	70.194
423.54	69.775
423.90	71.461
424.25	72.317
424.61	71.503
424.96	71.880
425.31	72.195
425.67	72.447
426.02	70.780
426.38	70.362
426.73	72.007
427.09	71.056
427.44	71.244
427.79	72.441
428.15	73.188
428.50	72.514
428.85	73.016
429.21	70.448
429.56	71.685
429.92	71.556
430.27	71.698
430.62	70.925
430.98	70.509
431.33	71.371
431.68	68.840
432.04	70.409
432.39	73.326
432.74	71.897
433.10	71.041
433.45	73.119
433.80	73.249
434.16	71.939
434.51	72.704
434.86	72.237
435.22	72.285
435.57	72.081
435.92	71.713
436.28	74.309
436.63	72.447
436.98	72.523
437.34	72.260
437.69	72.116
438.04	72.312
438.39	72.271
438.75	72.216
439.10	72.585
439.45	71.340
439.81	72.123
440.16	72.042
440.51	71.453
440.86	73.162
441.22	71.266
441.57	73.123
441.92	72.359
442.27	72.577
442.63	72.256
442.98	72.575
443.33	71.934
443.68	73.441
444.03	72.055
444.39	73.258
444.74	72.723
445.09	72.828
445.44	72.476
445.79	73.489
446.15	72.579
446.50	72.046
446.85	72.809
447.20	72.687
447.55	73.844
447.91	74.427
448.26	72.258
448.61	73.521
448.96	73.856
449.31	74.312
449.66	72.924
450.02	72.123
450.37	74.403
450.72	76.088
451.07	72.135
451.42	75.104
451.77	73.826
452.12	72.377
452.47	74.787
452.83	73.915
453.18	72.012
453.53	74.067
453.88	74.400
454.23	73.852
454.58	72.844
454.93	73.329
455.28	74.419
455.63	75.473
455.98	74.337
456.34	76.231
456.69	75.000
457.04	74.642
457.39	74.343
457.74	73.986
458.09	72.880
458.44	71.906
458.79	73.952
459.14	73.650
459.49	72.933
459.84	73.967
460.19	73.164
460.54	73.618
460.89	74.094
461.24	72.910
461.59	73.186
461.94	73.877
462.29	74.542
462.64	75.063
462.99	74.216
463.34	73.947
463.69	73.866
464.04	74.093
464.39	72.467
464.74	73.154
465.09	73.883
465.44	74.646
465.79	71.965
466.14	72.708
466.49	72.491
466.84	72.798
467.19	73.345
467.54	72.733
467.89	73.357
468.24	72.785
468.59	73.333
468.94	72.705
469.29	71.778
469.64	73.505
469.99	73.522
470.34	74.067
470.68	74.138
471.03	74.183
471.38	73.642
471.73	74.265
472.08	76.582
472.43	74.115
472.78	75.736
473.13	73.279
473.48	74.205
473.83	74.264
474.17	73.009
474.52	72.275
474.87	73.110
475.22	73.672
475.57	71.511
475.92	73.582
476.27	71.926
476.61	73.029
476.96	71.578
477.31	72.699
477.66	74.235
478.01	71.893
478.36	73.481
478.70	71.712
479.05	72.646
479.40	72.222
479.75	72.393
480.10	72.943
480.45	72.176
480.79	71.751
481.14	73.466
481.49	70.860
481.84	71.504
482.19	72.314
482.53	71.893
482.88	71.864
483.23	71.358
483.58	71.409
483.92	73.492
484.27	71.490
484.62	72.368
484.97	69.575
485.31	69.376
485.66	68.556
486.01	66.350
486.36	66.646
486.70	66.036
487.05	66.924
487.40	66.690
487.75	68.128
488.09	68.409
488.44	67.909
488.79	69.108
489.13	69.653
489.48	71.235
489.83	70.100
490.17	69.240
490.52	71.705
490.87	69.612
491.22	71.055
491.56	70.971
491.91	69.982
492.26	71.225
492.60	72.756
492.95	69.869
493.30	69.973
493.64	71.204
493.99	70.259
494.34	71.044
494.68	70.429
495.03	70.947
495.37	71.184
495.72	70.443
496.07	70.395
496.41	69.765
496.76	70.156
497.11	71.251
497.45	70.145
497.80	70.389
498.14	70.134
498.49	71.495
498.84	70.748
499.18	69.698
499.53	70.005
499.87	69.272
500.22	70.843
500.56	70.102
500.91	70.965
501.26	70.831
501.60	70.446
501.95	70.251
502.29	70.356
502.64	68.769
502.98	68.608
503.33	68.909
503.67	68.962
504.02	68.070
504.36	69.186
504.71	69.915
505.06	70.061
505.40	70.332
505.75	68.569
506.09	70.742
506.44	69.032
506.78	70.274
507.13	70.092
507.47	69.238
507.82	70.608
508.16	71.191
508.51	69.807
508.85	69.611
509.19	70.534
509.54	69.434
509.88	70.612
510.23	69.706
510.57	67.471
510.92	70.030
511.26	70.432
511.61	69.030
511.95	69.886
512.30	69.100
512.64	69.626
512.98	68.375
513.33	69.980
513.67	69.964
514.02	69.558
514.36	69.938
514.70	69.973
515.05	71.177
515.39	72.094
515.74	70.804
516.08	70.044
516.42	72.404
516.77	69.653
517.11	70.560
517.46	70.851
517.80	70.071
518.14	70.761
518.49	70.507
518.83	69.341
519.17	71.159
519.52	70.126
519.86	71.335
520.20	71.014
520.55	69.813
520.89	70.920
521.23	71.671
521.58	70.568
521.92	70.437
522.26	69.431
522.61	71.242
522.95	72.252
523.29	70.585
523.64	69.711
523.98	71.362
524.32	70.646
524.66	71.188
525.01	70.947
525.35	71.067
525.69	70.801
526.04	70.256
526.38	70.041
526.72	69.391
527.06	68.894
527.41	70.617
527.75	70.177
528.09	68.934
528.43	70.287
528.78	69.410
529.12	71.824
529.46	69.199
529.80	68.750
530.15	69.063
530.49	69.194
530.83	69.896
531.17	69.926
531.51	69.651
531.86	69.022
532.20	68.294
532.54	69.240
532.88	70.643
533.22	69.226
533.57	69.433
533.91	67.424
534.25	68.090
534.59	69.942
534.93	66.837
535.27	66.762
535.62	68.378
535.96	67.021
536.30	70.140
536.64	68.323
536.98	67.653
537.32	68.375
537.66	69.898
538.01	69.226
538.35	68.497
538.69	68.386
539.03	66.480
539.37	66.201
539.71	67.222
540.05	67.508
540.39	68.553
540.73	67.785
541.07	67.566
541.42	67.786
541.76	66.954
542.10	66.523
542.44	68.516
542.78	68.093
543.12	66.442
543.46	66.729
543.80	67.043
544.14	66.749
544.48	66.180
544.82	66.667
545.16	66.667
545.50	66.872
545.84	67.109
546.18	67.750
546.52	66.361
546.86	66.086
547.20	65.891
547.54	65.801
547.88	64.173
548.22	66.060
548.56	63.995
548.90	62.989
549.24	66.140
549.58	66.624
549.92	66.929
550.26	67.816
550.60	65.935
550.94	67.775
551.28	67.103
551.62	66.345
551.96	65.405
552.30	64.997
552.64	67.120
552.98	65.335
553.32	66.453
553.66	63.974
554.00	65.380
554.34	66.711
554.68	65.121
555.02	65.377
555.36	64.628
555.69	64.987
556.03	65.096
556.37	63.480
556.71	65.059
557.05	63.106
557.39	64.333
557.73	66.779
558.07	64.722
558.41	66.552
558.75	65.253
559.08	66.548
559.42	65.068
559.76	66.429
560.10	64.074
560.44	63.504
560.78	64.258
561.12	64.781
561.45	63.892
561.79	62.921
562.13	63.234
562.47	63.920
562.81	63.240
563.15	62.573
563.48	62.174
563.82	63.506
564.16	63.371
564.50	62.025
564.84	62.796
565.17	61.497
565.51	64.224
565.85	63.849
566.19	62.262
566.52	62.034
566.86	62.522
567.20	62.865
567.54	62.172
567.88	62.233
568.21	60.110
568.55	61.187
568.89	58.987
569.23	58.628
569.56	59.026
569.90	56.917
570.24	56.797
570.57	57.073
570.91	56.724
571.25	56.287
571.59	54.992
571.92	54.709
572.26	54.690
572.60	55.096
572.93	55.262
573.27	54.825
573.61	54.115
573.95	54.631
574.28	54.993
574.62	54.378
574.96	53.345
575.29	52.638
575.63	53.310
575.97	53.213
576.30	52.949
576.64	53.199
576.98	52.751
577.31	53.684
577.65	53.748
577.98	53.088
578.32	51.699
578.66	52.683
578.99	52.213
579.33	53.248
579.67	52.342
580.00	52.259
580.34	52.526
580.67	52.528
581.01	52.732
581.35	52.534
581.68	51.157
582.02	51.317
582.35	51.815
582.69	51.872
583.02	51.899
583.36	52.373
583.70	52.709
584.03	53.045
584.37	53.306
584.70	53.123
585.04	51.725
585.37	52.209
585.71	52.247
586.04	51.526
586.38	51.712
586.72	51.532
587.05	51.647
587.39	52.794
587.72	52.232
588.06	52.222
588.39	51.996
588.73	51.975
589.06	52.028
589.40	53.302
589.73	53.950
590.07	54.049
590.40	53.728
590.73	54.793
591.07	54.383
591.40	55.130
591.74	54.099
592.07	53.078
592.41	54.836
592.74	53.350
593.08	51.855
593.41	51.616
593.75	50.776
594.08	51.771
594.41	51.939
594.75	52.740
595.08	52.915
595.42	51.712
595.75	51.991
596.09	52.798
596.42	52.476
596.75	54.247
597.09	52.910
597.42	52.939
597.75	52.535
598.09	53.221
598.42	52.346
598.76	52.159
599.09	52.593
599.42	51.038
599.76	51.085
600.09	50.949
600.42	51.278
600.76	52.175
601.09	51.225
601.42	50.722
601.76	51.450
602.09	51.656
602.42	51.017
602.76	51.233
603.09	51.810
603.42	51.963
603.76	51.627
604.09	51.285
604.42	51.450
604.76	51.521
605.09	51.469
605.42	51.361
605.75	51.125
606.09	51.568
606.42	50.883
606.75	52.157
607.09	50.336
607.42	50.743
607.75	50.637
608.08	51.828
608.42	51.258
608.75	51.091
609.08	51.210
609.41	52.455
609.75	52.885
610.08	51.529
610.41	51.076
610.74	51.558
611.07	52.206
611.41	51.761
611.74	51.482
612.07	52.601
612.40	52.778
612.73	52.671
613.07	53.168
613.40	52.130
613.73	51.872
614.06	50.750
614.39	51.869
614.72	51.532
615.06	51.434
615.39	51.535
615.72	50.726
616.05	51.632
616.38	51.903
616.71	53.174
617.05	52.773
617.38	52.079
617.71	52.475
618.04	52.384
618.37	52.918
618.70	52.252
619.03	52.320
619.36	53.706
619.69	53.232
620.03	54.729
620.36	53.886
620.69	54.598
621.02	54.552
621.35	53.797
621.68	52.876
622.01	55.646
622.34	54.843
622.67	54.775
623.00	52.961
623.33	53.104
623.66	53.693
623.99	54.041
624.32	53.388
624.65	52.469
624.99	54.564
625.32	52.639
625.65	54.276
625.98	52.301
626.31	54.822
626.64	53.986
626.97	52.563
627.30	55.124
627.63	54.788
627.96	53.678
628.29	55.693
628.62	54.320
628.95	56.738
629.28	56.792
629.61	55.009
629.94	56.439
630.26	55.113
630.59	56.117
630.92	56.143
631.25	56.392
