SpectraSuite Data File
++++++++++++++++++++++++++++++++++++
Date: Tue May 12 17:24:17 PDT 2015
User: schluterlab
Dark Spectrum Present: Yes
Reference Spectrum Present: Yes
Number of Sampled Component Spectra: 1
Spectrometers: USB2E3373
Integration Time (usec): 3000 (USB2E3373)
Spectra Averaged: 3 (USB2E3373)
Boxcar Smoothing: 0 (USB2E3373)
Correct for Electrical Dark: No (USB2E3373)
Strobe/Lamp Enabled: No (USB2E3373)
Correct for Detector Non-linearity: No (USB2E3373)
Correct for Stray Light: No (USB2E3373)
Number of Pixels in Processed Spectrum: 2048
>>>>>Begin Processed Spectral Data<<<<<
178.53	0.000
178.91	-258.333
179.29	-700.000
179.67	-3700.000
180.04	-120.000
180.42	775.000
180.80	1250.000
181.18	0.000
181.56	-400.000
181.94	0.000
182.31	1200.000
182.69	-3800.000
183.07	500.000
183.45	-3100.000
183.83	-1350.000
184.20	440.000
184.58	500.000
184.96	-246.154
185.34	-208.333
185.72	1800.000
186.09	-825.000
186.47	-3300.000
186.85	900.000
187.23	700.000
187.61	1400.000
187.98	437.500
188.36	200.000
188.74	283.333
189.12	316.667
189.49	975.000
189.87	0.000
190.25	412.500
190.63	2100.000
191.00	-241.667
191.38	-3300.000
191.76	-675.000
192.14	525.000
192.51	-3200.000
192.89	1900.000
193.27	1066.667
193.65	-866.667
194.02	-760.000
194.40	471.429
194.78	-221.429
195.15	266.667
195.53	-3300.000
195.91	-620.000
196.29	4000.000
196.66	206.250
197.04	975.000
197.42	-1500.000
197.79	550.000
198.17	333.333
198.55	0.000
198.92	585.714
199.30	1600.000
199.68	2300.000
200.05	650.000
200.43	-566.667
200.81	261.111
201.18	3000.000
201.56	325.000
201.94	-825.000
202.31	-400.000
202.69	-620.000
203.07	3100.000
203.44	-466.667
203.82	291.667
204.19	700.000
204.57	-1250.000
204.95	-850.000
205.32	-660.000
205.70	566.667
206.08	925.000
206.45	-833.333
206.83	333.333
207.20	189.474
207.58	316.667
207.96	680.000
208.33	0.000
208.71	671.429
209.08	620.000
209.46	-2200.000
209.84	-750.000
210.21	940.000
210.59	-580.000
210.96	350.000
211.34	-875.000
211.71	345.455
212.09	700.000
212.46	2200.000
212.84	-433.333
213.22	455.556
213.59	-3000.000
213.97	400.000
214.34	1075.000
214.72	1300.000
215.09	1266.667
215.47	-3300.000
215.84	-280.000
216.22	-312.500
216.59	0.000
216.97	0.000
217.34	1750.000
217.72	-1200.000
218.09	1066.667
218.47	375.000
218.84	1025.000
219.22	1166.667
219.59	1233.333
219.97	485.714
220.34	355.556
220.72	2100.000
221.09	4400.000
221.47	266.667
221.84	766.667
222.22	290.000
222.59	277.778
222.97	214.286
223.34	212.500
223.72	-1650.000
224.09	900.000
224.46	246.154
224.84	-750.000
225.21	400.000
225.59	233.333
225.96	1366.667
226.34	-700.000
226.71	-750.000
227.08	-580.000
227.46	0.000
227.83	-666.667
228.21	-1600.000
228.58	441.667
228.95	1075.000
229.33	400.000
229.70	975.000
230.08	338.462
230.45	3200.000
230.82	-750.000
231.20	-900.000
231.57	-1100.000
231.95	600.000
232.32	266.667
232.69	666.667
233.07	300.000
233.44	-2100.000
233.81	233.333
234.19	170.370
234.56	250.000
234.93	229.412
235.31	210.000
235.68	256.250
236.05	153.571
236.43	192.593
236.80	221.429
237.17	168.966
237.55	125.000
237.92	122.500
238.29	148.485
238.67	128.125
239.04	124.390
239.41	93.750
239.79	107.500
240.16	112.500
240.53	96.721
240.91	82.609
241.28	101.695
241.65	83.333
242.02	90.141
242.40	88.571
242.77	78.022
243.14	73.418
243.51	91.919
243.89	70.093
244.26	69.159
244.63	63.366
245.00	68.807
245.38	62.712
245.75	65.152
246.12	67.407
246.49	63.121
246.87	64.754
247.24	66.667
247.61	63.750
247.98	68.027
248.36	50.909
248.73	57.653
249.10	54.167
249.47	54.000
249.84	57.214
250.22	61.081
250.59	52.000
250.96	54.430
251.33	54.419
251.70	52.232
252.08	58.824
252.45	53.785
252.82	44.487
253.19	47.431
253.56	50.385
253.94	53.986
254.31	50.775
254.68	51.916
255.05	51.724
255.42	56.204
255.79	50.489
256.16	50.847
256.54	52.922
256.91	55.229
257.28	54.181
257.65	49.530
258.02	47.788
258.39	48.711
258.76	52.464
259.14	48.000
259.51	48.688
259.88	48.936
260.25	45.879
260.62	49.315
260.99	44.628
261.36	49.582
261.73	50.798
262.10	48.691
262.47	47.750
262.85	47.733
263.22	48.843
263.59	46.803
263.96	45.865
264.33	45.432
264.70	48.403
265.07	49.268
265.44	45.183
265.81	46.462
266.18	47.140
266.55	47.518
266.92	45.414
267.29	47.368
267.66	43.722
268.03	44.843
268.40	43.763
268.77	49.119
269.14	45.987
269.51	45.434
269.88	44.694
270.25	41.253
270.62	46.137
270.99	48.073
271.36	44.512
271.73	44.864
272.10	42.222
272.47	45.635
272.84	41.916
273.21	42.355
273.58	44.130
273.95	42.916
274.32	46.693
274.69	48.031
275.06	44.991
275.43	43.870
275.80	44.717
276.17	42.279
276.54	46.168
276.91	44.590
277.28	42.701
277.65	43.173
278.02	43.382
278.39	42.986
278.76	42.586
279.13	43.238
279.50	45.636
279.87	43.389
280.23	44.199
280.60	41.971
280.97	43.448
281.34	42.574
281.71	40.870
282.08	43.590
282.45	41.892
282.82	44.649
283.19	40.859
283.56	41.488
283.92	41.368
284.29	42.263
284.66	38.992
285.03	42.123
285.40	42.479
285.77	40.432
286.14	41.486
286.51	37.577
286.87	38.924
287.24	39.790
287.61	40.881
287.98	39.851
288.35	38.963
288.72	39.150
289.08	39.039
289.45	39.482
289.82	40.469
290.19	35.286
290.56	40.175
290.93	36.978
291.29	38.260
291.66	37.006
292.03	38.289
292.40	34.282
292.77	35.097
293.13	38.231
293.50	36.437
293.87	33.604
294.24	36.643
294.60	34.993
294.97	35.105
295.34	36.653
295.71	35.611
296.08	34.267
296.44	34.180
296.81	34.615
297.18	31.812
297.55	35.099
297.91	32.759
298.28	33.454
298.65	34.969
299.02	33.414
299.38	32.134
299.75	33.049
300.12	32.798
300.48	33.958
300.85	32.300
301.22	33.140
301.59	33.137
301.95	32.322
302.32	33.178
302.69	32.805
303.05	34.231
303.42	30.942
303.79	31.853
304.15	31.683
304.52	31.501
304.89	31.663
305.25	32.814
305.62	31.450
305.99	31.304
306.35	31.579
306.72	34.235
307.09	33.437
307.45	33.369
307.82	33.333
308.19	32.577
308.55	31.700
308.92	33.857
309.29	33.826
309.65	33.201
310.02	34.280
310.38	34.297
310.75	34.233
311.12	32.375
311.48	34.556
311.85	35.115
312.22	35.053
312.58	35.763
312.95	35.437
313.31	36.798
313.68	38.086
314.05	37.271
314.41	35.940
314.78	37.784
315.14	39.905
315.51	39.830
315.87	39.690
316.24	40.523
316.61	39.481
316.97	40.367
317.34	41.599
317.70	41.528
318.07	43.861
318.43	44.464
318.80	44.308
319.16	45.804
319.53	47.080
319.89	45.968
320.26	49.162
320.62	48.443
320.99	49.571
321.35	48.887
321.72	50.664
322.08	52.170
322.45	51.771
322.81	53.888
323.18	55.062
323.54	57.143
323.91	58.296
324.27	58.886
324.64	59.343
325.00	60.690
325.37	63.406
325.73	64.165
326.10	65.700
326.46	65.813
326.83	65.760
327.19	67.550
327.56	68.770
327.92	71.311
328.29	71.440
328.65	73.031
329.01	72.370
329.38	71.658
329.74	70.623
330.11	72.372
330.47	75.448
330.84	73.770
331.20	76.142
331.56	76.684
331.93	77.246
332.29	74.830
332.66	77.806
333.02	79.038
333.38	78.709
333.75	78.982
334.11	77.685
334.48	78.632
334.84	78.209
335.20	79.299
335.57	78.757
335.93	79.058
336.29	76.617
336.66	82.075
337.02	80.667
337.38	80.653
337.75	83.530
338.11	80.422
338.47	80.779
338.84	80.271
339.20	81.472
339.56	79.983
339.93	80.017
340.29	82.101
340.65	82.397
341.02	80.290
341.38	81.199
341.74	83.472
342.11	83.890
342.47	82.199
342.83	83.839
343.20	82.538
343.56	80.461
343.92	84.063
344.28	82.217
344.65	84.841
345.01	82.540
345.37	83.494
345.73	83.333
346.10	82.789
346.46	82.935
346.82	82.562
347.19	84.080
347.55	82.358
347.91	82.326
348.27	81.797
348.63	84.573
349.00	81.950
349.36	84.436
349.72	83.180
350.08	84.860
350.45	82.711
350.81	84.404
351.17	83.744
351.53	83.141
351.89	82.906
352.26	83.069
352.62	83.258
352.98	85.583
353.34	85.593
353.70	84.862
354.07	86.154
354.43	83.794
354.79	84.662
355.15	85.452
355.51	84.517
355.87	84.940
356.24	83.372
356.60	85.236
356.96	85.747
357.32	83.421
357.68	84.361
358.04	85.942
358.40	84.858
358.77	85.500
359.13	85.210
359.49	83.617
359.85	86.150
360.21	84.175
360.57	84.307
360.93	84.488
361.29	86.003
361.66	86.130
362.02	85.582
362.38	86.724
362.74	86.129
363.10	86.816
363.46	85.566
363.82	84.993
364.18	87.127
364.54	88.698
364.90	85.743
365.26	87.509
365.62	85.635
365.98	85.341
366.35	85.241
366.71	86.745
367.07	86.212
367.43	85.897
367.79	85.372
368.15	84.668
368.51	87.388
368.87	87.500
369.23	87.872
369.59	87.323
369.95	87.622
370.31	87.064
370.67	86.121
371.03	85.294
371.39	87.119
371.75	89.463
372.11	86.540
372.47	85.753
372.83	86.880
373.19	86.429
373.55	85.773
373.91	86.878
374.27	85.714
374.63	87.186
374.99	86.321
375.35	88.575
375.71	88.391
376.07	86.870
376.42	85.422
376.78	87.925
377.14	88.139
377.50	86.454
377.86	87.252
378.22	86.472
378.58	86.380
378.94	87.387
379.30	87.204
379.66	86.153
380.02	87.918
380.38	87.002
380.74	88.524
381.09	86.215
381.45	85.145
381.81	86.702
382.17	87.057
382.53	86.023
382.89	87.463
383.25	88.692
383.61	84.841
383.97	86.503
384.32	87.281
384.68	88.295
385.04	86.694
385.40	85.350
385.76	85.606
386.12	86.333
386.48	87.781
386.83	87.958
387.19	86.455
387.55	85.512
387.91	86.778
388.27	85.901
388.62	86.620
388.98	86.531
389.34	84.949
389.70	86.144
390.06	85.549
390.42	85.873
390.77	84.582
391.13	86.844
391.49	85.057
391.85	86.831
392.20	84.386
392.56	85.245
392.92	84.952
393.28	84.753
393.64	84.576
393.99	84.351
394.35	85.168
394.71	82.931
395.07	84.428
395.42	84.426
395.78	85.071
396.14	85.602
396.50	83.333
396.85	83.780
397.21	84.176
397.57	84.758
397.92	83.420
398.28	84.501
398.64	84.119
399.00	82.790
399.35	83.145
399.71	82.781
400.07	83.733
400.42	83.761
400.78	84.340
401.14	83.617
401.49	82.834
401.85	82.966
402.21	83.597
402.57	84.680
402.92	83.394
403.28	82.458
403.63	83.284
403.99	82.388
404.35	83.939
404.70	84.761
405.06	82.257
405.42	82.585
405.77	82.029
406.13	81.236
406.49	81.353
406.84	80.711
407.20	80.765
407.55	82.400
407.91	80.855
408.27	81.443
408.62	82.318
408.98	81.017
409.34	80.947
409.69	80.212
410.05	80.322
410.40	80.860
410.76	80.595
411.11	80.332
411.47	79.753
411.83	79.789
412.18	80.978
412.54	78.739
412.89	78.938
413.25	79.190
413.60	80.199
413.96	79.832
414.31	78.808
414.67	81.068
415.03	79.374
415.38	78.991
415.74	79.848
416.09	79.700
416.45	80.155
416.80	81.078
417.16	78.421
417.51	79.682
417.87	79.599
418.22	79.769
418.58	78.790
418.93	79.239
419.29	78.127
419.64	78.498
420.00	78.998
420.35	79.326
420.71	78.880
421.06	79.812
421.42	79.620
421.77	80.067
422.12	78.390
422.48	76.220
422.83	78.850
423.19	77.646
423.54	76.906
423.90	77.633
424.25	78.701
424.61	77.539
424.96	78.938
425.31	79.420
425.67	79.461
426.02	78.800
426.38	78.413
426.73	78.890
427.09	78.470
427.44	77.715
427.79	78.559
428.15	79.081
428.50	78.571
428.85	78.072
429.21	76.445
429.56	77.418
429.92	77.026
430.27	77.068
430.62	76.701
430.98	75.998
431.33	77.722
431.68	75.309
432.04	76.513
432.39	77.168
432.74	76.756
433.10	77.796
433.45	76.910
433.80	79.261
434.16	76.511
434.51	78.431
434.86	77.572
435.22	77.472
435.57	78.423
435.92	78.315
436.28	77.304
436.63	77.202
436.98	79.842
437.34	77.283
437.69	75.364
438.04	77.258
438.39	76.766
438.75	75.223
439.10	76.579
439.45	75.523
439.81	77.154
440.16	75.454
440.51	77.140
440.86	77.208
441.22	75.379
441.57	75.171
441.92	75.864
442.27	75.567
442.63	75.407
442.98	74.892
443.33	76.540
443.68	75.905
444.03	75.589
444.39	75.895
444.74	73.810
445.09	74.671
445.44	74.495
445.79	75.926
446.15	75.263
446.50	75.211
446.85	74.751
447.20	74.677
447.55	76.128
447.91	76.718
448.26	73.642
448.61	75.677
448.96	75.545
449.31	75.633
449.66	75.360
450.02	74.824
450.37	76.291
450.72	75.427
451.07	74.985
451.42	74.985
451.77	76.231
452.12	73.625
452.47	74.241
452.83	75.099
453.18	74.234
453.53	75.015
453.88	75.600
454.23	74.608
454.58	73.368
454.93	74.678
455.28	75.092
455.63	76.005
455.98	73.096
456.34	75.015
456.69	75.671
457.04	74.165
457.39	73.714
457.74	73.311
458.09	73.554
458.44	71.851
458.79	72.944
459.14	74.414
459.49	73.103
459.84	73.750
460.19	72.486
460.54	73.219
460.89	73.507
461.24	70.619
461.59	73.186
461.94	72.281
462.29	72.311
462.64	73.178
462.99	71.977
463.34	72.456
463.69	72.111
464.04	74.324
464.39	72.066
464.74	71.454
465.09	71.039
465.44	72.307
465.79	72.074
466.14	69.793
466.49	72.111
466.84	69.788
467.19	71.588
467.54	71.411
467.89	71.420
468.24	71.395
468.59	69.643
468.94	71.679
469.29	70.922
469.64	70.225
469.99	70.758
470.34	72.106
470.68	71.379
471.03	73.182
471.38	71.457
471.73	71.718
472.08	73.190
472.43	71.633
472.78	70.935
473.13	71.089
473.48	70.660
473.83	70.141
474.17	71.368
474.52	70.438
474.87	68.789
475.22	70.417
475.57	68.993
475.92	69.852
476.27	68.879
476.61	69.383
476.96	69.018
477.31	69.254
477.66	70.907
478.01	68.644
478.36	70.185
478.70	66.849
479.05	70.607
479.40	68.800
479.75	69.613
480.10	67.861
480.45	67.927
480.79	67.972
481.14	67.427
481.49	66.880
481.84	66.403
482.19	67.904
482.53	68.028
482.88	67.070
483.23	68.426
483.58	67.774
483.92	68.556
484.27	66.995
484.62	65.535
484.97	65.446
485.31	65.016
485.66	63.390
486.01	62.054
486.36	61.084
486.70	61.844
487.05	62.822
487.40	63.438
487.75	63.667
488.09	63.494
488.44	64.085
488.79	64.457
489.13	65.957
489.48	65.362
489.83	66.305
490.17	64.946
490.52	66.451
490.87	64.698
491.22	66.002
491.56	66.403
491.91	65.771
492.26	66.548
492.60	66.879
492.95	66.606
493.30	66.606
493.64	65.588
493.99	65.072
494.34	66.428
494.68	66.135
495.03	65.694
495.37	66.412
495.72	64.988
496.07	64.690
496.41	64.205
496.76	64.120
497.11	64.567
497.45	65.585
497.80	65.524
498.14	65.280
498.49	64.903
498.84	65.327
499.18	63.985
499.53	65.090
499.87	63.971
500.22	64.855
500.56	64.949
500.91	65.121
501.26	64.309
501.60	64.709
501.95	65.099
502.29	63.600
502.64	63.652
502.98	63.539
503.33	64.143
503.67	63.753
504.02	63.368
504.36	64.344
504.71	65.184
505.06	63.773
505.40	63.547
505.75	63.143
506.09	63.649
506.44	64.333
506.78	64.461
507.13	64.857
507.47	63.270
507.82	64.380
508.16	63.988
508.51	63.961
508.85	62.915
509.19	64.856
509.54	64.258
509.88	63.899
510.23	64.069
510.57	62.934
510.92	64.635
511.26	65.311
511.61	62.875
511.95	63.216
512.30	63.250
512.64	64.486
512.98	63.865
513.33	63.730
513.67	64.474
514.02	64.312
514.36	63.396
514.70	63.253
515.05	64.145
515.39	65.241
515.74	65.828
516.08	64.706
516.42	65.519
516.77	64.373
517.11	64.213
517.46	63.578
517.80	62.698
518.14	65.634
518.49	64.223
518.83	62.198
519.17	63.783
519.52	64.555
519.86	64.196
520.20	63.233
520.55	63.765
520.89	63.448
521.23	65.070
521.58	64.257
521.92	65.481
522.26	64.218
522.61	65.419
522.95	65.165
523.29	65.380
523.64	64.046
523.98	65.200
524.32	64.302
524.66	63.942
525.01	64.260
525.35	64.054
525.69	65.804
526.04	64.128
526.38	63.861
526.72	63.723
527.06	63.749
527.41	64.027
527.75	65.368
528.09	62.613
528.43	63.331
528.78	63.626
529.12	65.081
529.46	62.011
529.80	62.033
530.15	63.111
530.49	63.779
530.83	64.534
531.17	62.423
531.51	63.948
531.86	62.681
532.20	63.412
532.54	64.218
532.88	64.710
533.22	62.279
533.57	63.941
533.91	61.655
534.25	60.819
534.59	62.749
534.93	61.377
535.27	60.615
535.62	61.552
535.96	61.525
536.30	63.437
536.64	60.994
536.98	61.045
537.32	62.625
537.66	62.436
538.01	61.858
538.35	61.634
538.69	61.165
539.03	60.572
539.37	60.316
539.71	61.728
540.05	61.231
540.39	61.384
540.73	61.519
541.07	60.602
541.42	61.692
541.76	61.097
542.10	60.358
542.44	61.845
542.78	61.171
543.12	60.859
543.46	59.837
543.80	60.777
544.14	60.000
544.48	59.550
544.82	60.367
545.16	58.409
545.50	59.865
545.84	60.985
546.18	62.614
546.52	60.590
546.86	60.671
547.20	58.915
547.54	58.708
547.88	58.820
548.22	59.563
548.56	57.513
548.90	58.541
549.24	58.749
549.58	59.923
549.92	60.511
550.26	60.446
550.60	59.814
550.94	61.669
551.28	60.897
551.62	62.069
551.96	60.473
552.30	58.668
552.64	60.129
552.98	60.116
553.32	59.923
553.66	59.088
554.00	58.687
554.34	60.453
554.68	60.148
555.02	60.353
555.36	58.843
555.69	58.901
556.03	59.554
556.37	59.210
556.71	59.257
557.05	58.191
557.39	58.667
557.73	59.906
558.07	60.630
558.41	59.836
558.75	59.439
559.08	61.687
559.42	61.775
559.76	60.442
560.10	59.670
560.44	58.792
560.78	60.294
561.12	59.123
561.45	59.074
561.79	56.492
562.13	59.191
562.47	57.560
562.81	58.816
563.15	58.759
563.48	56.646
563.82	59.201
564.16	57.836
564.50	55.937
564.84	57.264
565.17	55.318
565.51	58.190
565.85	58.853
566.19	57.321
566.52	57.461
566.86	57.151
567.20	56.236
567.54	55.131
567.88	56.390
568.21	54.019
568.55	54.086
568.89	53.513
569.23	53.192
569.56	52.955
569.90	50.449
570.24	51.584
570.57	50.454
570.91	50.172
571.25	50.000
571.59	49.323
571.92	48.224
572.26	49.191
572.60	49.014
572.93	49.827
573.27	49.540
573.61	48.890
573.95	48.282
574.28	48.667
574.62	47.485
574.96	47.785
575.29	47.657
575.63	47.091
575.97	46.689
576.30	47.304
576.64	47.507
576.98	46.970
577.31	47.391
577.65	47.085
577.98	46.431
578.32	46.161
578.66	46.656
578.99	47.095
579.33	46.843
579.67	46.827
580.00	46.480
580.34	46.424
580.67	45.772
581.01	46.654
581.35	46.850
581.68	45.877
582.02	45.565
582.35	45.709
582.69	45.534
583.02	46.364
583.36	46.741
583.70	47.337
584.03	47.726
584.37	47.249
584.70	47.226
585.04	46.467
585.37	45.852
585.71	47.213
586.04	45.693
586.38	46.948
586.72	46.384
587.05	47.195
587.39	46.928
587.72	46.792
588.06	46.784
588.39	47.032
588.73	46.935
589.06	48.001
589.40	48.263
589.73	48.312
590.07	48.456
590.40	49.617
590.73	50.165
591.07	50.095
591.40	48.663
591.74	50.284
592.07	48.794
592.41	48.042
592.74	48.444
593.08	47.884
593.41	47.187
593.75	47.262
594.08	48.291
594.41	47.312
594.75	48.733
595.08	48.320
595.42	47.103
595.75	47.055
596.09	48.210
596.42	47.451
596.75	49.159
597.09	48.287
597.42	48.490
597.75	48.114
598.09	48.666
598.42	48.144
598.76	47.224
599.09	47.223
599.42	46.955
599.76	47.151
600.09	46.034
600.42	47.756
600.76	47.451
601.09	47.083
601.42	47.307
601.76	47.583
602.09	47.572
602.42	46.839
602.76	47.362
603.09	48.831
603.42	46.642
603.76	47.108
604.09	47.304
604.42	47.345
604.76	47.610
605.09	48.531
605.42	48.070
605.75	47.730
606.09	47.284
606.42	47.651
606.75	47.105
607.09	46.348
607.42	47.810
607.75	47.930
608.08	47.725
608.42	48.784
608.75	48.053
609.08	48.526
609.41	48.864
609.75	47.985
610.08	49.146
610.41	47.431
610.74	48.571
611.07	48.977
611.41	49.583
611.74	49.283
612.07	49.711
612.40	48.294
612.73	49.875
613.07	49.569
613.40	49.724
613.73	49.975
614.06	48.650
614.39	49.394
614.72	49.221
615.06	48.813
615.39	48.465
615.72	47.919
616.05	49.121
616.38	49.467
616.71	49.485
617.05	49.314
617.38	49.831
617.71	49.213
618.04	50.140
618.37	50.361
618.70	50.231
619.03	50.244
619.36	51.382
619.69	51.451
620.03	52.381
620.36	51.830
620.69	52.554
621.02	52.038
621.35	51.289
621.68	52.655
622.01	54.317
622.34	51.493
622.67	52.388
623.00	51.804
623.33	50.877
623.66	51.963
623.99	52.397
624.32	51.829
624.65	49.770
624.99	52.671
625.32	51.503
625.65	50.690
625.98	52.441
626.31	53.561
626.64	52.999
626.97	53.558
627.30	53.649
627.63	54.474
627.96	52.034
628.29	54.785
628.62	52.438
628.95	54.787
629.28	55.039
629.61	54.482
629.94	54.019
630.26	55.806
630.59	56.738
630.92	56.502
631.25	54.669
