SpectraSuite Data File
++++++++++++++++++++++++++++++++++++
Date: Tue May 12 15:34:48 PDT 2015
User: schluterlab
Dark Spectrum Present: Yes
Reference Spectrum Present: Yes
Number of Sampled Component Spectra: 1
Spectrometers: USB2E3373
Integration Time (usec): 3000 (USB2E3373)
Spectra Averaged: 3 (USB2E3373)
Boxcar Smoothing: 0 (USB2E3373)
Correct for Electrical Dark: No (USB2E3373)
Strobe/Lamp Enabled: No (USB2E3373)
Correct for Detector Non-linearity: No (USB2E3373)
Correct for Stray Light: No (USB2E3373)
Number of Pixels in Processed Spectrum: 2048
>>>>>Begin Processed Spectral Data<<<<<
178.53	0.000
178.91	-283.333
179.29	-825.000
179.67	-3900.000
180.04	-120.000
180.42	700.000
180.80	1550.000
181.18	0.000
181.56	-475.000
181.94	0.000
182.31	1133.333
182.69	-2200.000
183.07	457.143
183.45	-4200.000
183.83	-1550.000
184.20	360.000
184.58	600.000
184.96	-261.538
185.34	-183.333
185.72	2000.000
186.09	-825.000
186.47	-4000.000
186.85	1033.333
187.23	620.000
187.61	1650.000
187.98	437.500
188.36	207.143
188.74	300.000
189.12	366.667
189.49	925.000
189.87	0.000
190.25	537.500
190.63	2800.000
191.00	-141.667
191.38	-4100.000
191.76	-975.000
192.14	525.000
192.51	-3000.000
192.89	2300.000
193.27	1066.667
193.65	-1133.333
194.02	-840.000
194.40	571.429
194.78	-192.857
195.15	293.333
195.53	-3500.000
195.91	-540.000
196.29	4500.000
196.66	237.500
197.04	675.000
197.42	-1050.000
197.79	750.000
198.17	250.000
198.55	0.000
198.92	500.000
199.30	1033.333
199.68	1550.000
200.05	566.667
200.43	-533.333
200.81	238.889
201.18	2700.000
201.56	258.333
201.94	-700.000
202.31	-337.500
202.69	-500.000
203.07	2600.000
203.44	-666.667
203.82	333.333
204.19	860.000
204.57	-1250.000
204.95	-750.000
205.32	-660.000
205.70	633.333
206.08	1025.000
206.45	-733.333
206.83	400.000
207.20	163.158
207.58	291.667
207.96	840.000
208.33	0.000
208.71	571.429
209.08	660.000
209.46	-2300.000
209.84	-825.000
210.21	760.000
210.59	-620.000
210.96	333.333
211.34	-1225.000
211.71	300.000
212.09	1050.000
212.46	1600.000
212.84	-366.667
213.22	455.556
213.59	-2700.000
213.97	320.000
214.34	1000.000
214.72	1100.000
215.09	900.000
215.47	-2300.000
215.84	-370.000
216.22	-350.000
216.59	0.000
216.97	0.000
217.34	1050.000
217.72	-1500.000
218.09	1066.667
218.47	525.000
218.84	950.000
219.22	1400.000
219.59	900.000
219.97	500.000
220.34	488.889
220.72	1650.000
221.09	3100.000
221.47	241.667
221.84	733.333
222.22	300.000
222.59	177.778
222.97	207.143
223.34	225.000
223.72	-1550.000
224.09	1033.333
224.46	323.077
224.84	-900.000
225.21	400.000
225.59	300.000
225.96	1466.667
226.34	-740.000
226.71	-725.000
227.08	-480.000
227.46	0.000
227.83	-450.000
228.21	-1800.000
228.58	333.333
228.95	1000.000
229.33	400.000
229.70	1050.000
230.08	284.615
230.45	2800.000
230.82	-775.000
231.20	-766.667
231.57	-900.000
231.95	540.000
232.32	308.333
232.69	550.000
233.07	233.333
233.44	-1150.000
233.81	220.000
234.19	144.444
234.56	175.000
234.93	200.000
235.31	175.000
235.68	293.750
236.05	128.571
236.43	133.333
236.80	142.857
237.17	137.931
237.55	134.375
237.92	105.000
238.29	142.424
238.67	128.125
239.04	109.756
239.41	75.000
239.79	82.500
240.16	56.250
240.53	62.295
240.91	66.667
241.28	72.881
241.65	50.000
242.02	61.972
242.40	62.857
242.77	61.538
243.14	48.101
243.51	65.657
243.89	45.794
244.26	38.318
244.63	38.614
245.00	46.789
245.38	28.814
245.75	43.939
246.12	43.704
246.49	34.752
246.87	28.689
247.24	34.000
247.61	32.500
247.98	32.653
248.36	32.727
248.73	37.245
249.10	31.548
249.47	32.000
249.84	29.353
250.22	29.730
250.59	26.500
250.96	30.802
251.33	22.326
251.70	25.893
252.08	22.689
252.45	26.693
252.82	24.715
253.19	24.901
253.56	19.615
253.94	26.087
254.31	23.256
254.68	22.300
255.05	24.138
255.42	22.628
255.79	20.847
256.16	19.661
256.54	23.701
256.91	21.242
257.28	24.415
257.65	17.241
258.02	19.764
258.39	23.782
258.76	25.507
259.14	16.286
259.51	22.741
259.88	18.541
260.25	19.505
260.62	21.096
260.99	18.182
261.36	20.334
261.73	17.287
262.10	20.942
262.47	18.000
262.85	18.667
263.22	19.537
263.59	18.670
263.96	19.799
264.33	15.556
264.70	18.919
265.07	17.073
265.44	19.037
265.81	18.868
266.18	16.476
266.55	18.203
266.92	17.226
267.29	21.930
267.66	16.368
268.03	17.937
268.40	17.970
268.77	19.604
269.14	15.835
269.51	18.040
269.88	17.143
270.25	16.199
270.62	18.026
270.99	19.473
271.36	19.106
271.73	16.562
272.10	16.768
272.47	16.865
272.84	15.369
273.21	16.116
273.58	18.826
273.95	16.016
274.32	18.093
274.69	18.307
275.06	18.761
275.43	14.943
275.80	15.849
276.17	15.809
276.54	17.757
276.91	18.843
277.28	16.606
277.65	15.498
278.02	18.566
278.39	16.367
278.76	18.276
279.13	16.548
279.50	18.182
279.87	15.829
280.23	17.127
280.60	16.788
280.97	15.172
281.34	17.327
281.71	16.348
282.08	16.410
282.45	16.047
282.82	16.555
283.19	16.057
283.56	16.033
283.92	16.287
284.29	15.641
284.66	14.454
285.03	17.413
285.40	15.537
285.77	13.889
286.14	16.563
286.51	14.110
286.87	15.981
287.24	12.913
287.61	15.350
287.98	14.478
288.35	14.667
288.72	15.630
289.08	14.565
289.45	14.939
289.82	13.750
290.19	13.031
290.56	15.429
290.93	15.396
291.29	14.641
291.66	14.124
292.03	14.586
292.40	13.821
292.77	11.560
293.13	15.264
293.50	12.686
293.87	12.873
294.24	13.986
294.60	13.594
294.97	15.664
295.34	14.741
295.71	14.323
296.08	12.400
296.44	13.342
296.81	12.407
297.18	12.167
297.55	12.315
297.91	11.823
298.28	12.923
298.65	12.638
299.02	11.339
299.38	11.751
299.75	13.293
300.12	13.761
300.48	12.998
300.85	13.349
301.22	12.791
301.59	11.675
301.95	12.485
302.32	12.107
302.69	12.557
303.05	13.019
303.42	10.650
303.79	12.026
304.15	12.321
304.52	12.051
304.89	12.260
305.25	12.125
305.62	12.900
305.99	11.413
306.35	13.158
306.72	12.279
307.09	11.077
307.45	11.404
307.82	11.831
308.19	11.753
308.55	11.000
308.92	13.052
309.29	13.412
309.65	11.298
310.02	12.373
310.38	10.768
310.75	11.572
311.12	10.632
311.48	13.031
311.85	12.500
312.22	12.512
312.58	11.759
312.95	12.136
313.31	10.581
313.68	11.820
314.05	12.546
314.41	11.359
314.78	12.027
315.14	12.796
315.51	12.583
315.87	10.858
316.24	12.325
316.61	11.549
316.97	12.110
317.34	12.399
317.70	12.467
318.07	13.345
318.43	12.039
318.80	12.259
319.16	11.189
319.53	11.416
319.89	10.753
320.26	13.594
320.62	12.729
320.99	11.916
321.35	12.523
321.72	14.137
322.08	13.758
322.45	12.534
322.81	11.711
323.18	13.055
323.54	13.240
323.91	13.237
324.27	12.467
324.64	11.938
325.00	12.759
325.37	12.226
325.73	11.720
326.10	13.256
326.46	12.056
326.83	12.560
327.19	13.414
327.56	12.859
327.92	12.295
328.29	13.666
328.65	14.212
329.01	11.548
329.38	13.283
329.74	11.614
330.11	12.858
330.47	13.214
330.84	10.958
331.20	12.944
331.56	13.385
331.93	12.062
332.29	11.395
332.66	13.265
333.02	12.371
333.38	13.089
333.75	13.595
334.11	13.255
334.48	11.624
334.84	11.655
335.20	13.174
335.57	12.343
335.93	12.363
336.29	11.692
336.66	12.950
337.02	11.035
337.38	11.780
337.75	12.331
338.11	12.405
338.47	11.685
338.84	11.685
339.20	11.861
339.56	12.195
339.93	12.207
340.29	11.429
340.65	12.238
341.02	12.148
341.38	12.233
341.74	11.213
342.11	11.102
342.47	11.485
342.83	12.305
343.20	12.611
343.56	10.326
343.92	11.561
344.28	11.802
344.65	11.817
345.01	11.349
345.37	10.256
345.73	12.063
346.10	11.076
346.46	12.360
346.82	11.343
347.19	12.056
347.55	11.163
347.91	10.952
348.27	10.225
348.63	10.997
349.00	10.815
349.36	11.751
349.72	12.080
350.08	11.413
350.45	11.500
350.81	11.774
351.17	11.171
351.53	10.701
351.89	12.199
352.26	10.960
352.62	11.161
352.98	11.503
353.34	11.941
353.70	10.092
354.07	12.000
354.43	12.212
354.79	11.921
355.15	11.332
355.51	11.405
355.87	11.295
356.24	11.624
356.60	10.350
356.96	10.614
357.32	11.454
357.68	12.188
358.04	11.246
358.40	12.069
358.77	11.871
359.13	10.360
359.49	11.045
359.85	10.871
360.21	10.475
360.57	11.095
360.93	11.977
361.29	11.688
361.66	11.186
362.02	10.937
362.38	11.111
362.74	11.253
363.10	10.799
363.46	10.221
363.82	12.132
364.18	11.949
364.54	10.801
364.90	11.446
365.26	11.173
365.62	11.533
365.98	11.356
366.35	10.759
366.71	11.312
367.07	10.580
367.43	11.216
367.79	11.503
368.15	10.516
368.51	11.234
368.87	10.598
369.23	11.019
369.59	11.733
369.95	10.909
370.31	11.020
370.67	10.271
371.03	12.325
371.39	11.080
371.75	11.305
372.11	11.217
372.47	11.096
372.83	11.353
373.19	12.680
373.55	11.546
373.91	10.014
374.27	11.971
374.63	11.458
374.99	11.456
375.35	10.887
375.71	12.071
376.07	10.942
376.42	9.910
376.78	11.496
377.14	10.944
377.50	11.049
377.86	11.403
378.22	10.725
378.58	11.804
378.94	11.587
379.30	11.583
379.66	11.258
380.02	11.496
380.38	10.246
380.74	11.938
381.09	12.208
381.45	10.867
381.81	11.111
382.17	11.111
382.53	11.398
382.89	11.709
383.25	11.072
383.61	11.931
383.97	10.498
384.32	11.694
384.68	12.775
385.04	11.665
385.40	11.862
385.76	11.586
386.12	11.441
386.48	11.429
386.83	12.103
387.19	11.543
387.55	11.955
387.91	12.125
388.27	11.600
388.62	12.793
388.98	10.904
389.34	11.243
389.70	11.321
390.06	11.646
390.42	12.030
390.77	12.285
391.13	11.768
391.49	11.797
391.85	12.431
392.20	11.919
392.56	12.425
392.92	11.903
393.28	11.211
393.64	11.124
393.99	10.611
394.35	11.418
394.71	11.399
395.07	11.618
395.42	11.710
395.78	12.893
396.14	12.590
396.50	11.913
396.85	11.159
397.21	12.214
397.57	12.074
397.92	10.861
398.28	11.693
398.64	11.809
399.00	11.545
399.35	10.896
399.71	11.755
400.07	11.416
400.42	11.284
400.78	12.141
401.14	12.214
401.49	11.118
401.85	12.051
402.21	11.306
402.57	11.610
402.92	11.697
403.28	10.919
403.63	11.595
403.99	11.520
404.35	12.251
404.70	11.931
405.06	11.117
405.42	11.251
405.77	11.136
406.13	11.876
406.49	10.574
406.84	10.829
407.20	11.986
407.55	11.815
407.91	11.742
408.27	12.007
408.62	11.768
408.98	11.709
409.34	12.098
409.69	10.765
410.05	11.389
410.40	10.954
410.76	11.162
411.11	10.900
411.47	11.420
411.83	11.248
412.18	11.594
412.54	10.571
412.89	12.330
413.25	11.745
413.60	11.332
413.96	11.071
414.31	11.334
414.67	11.980
415.03	11.111
415.38	11.924
415.74	10.929
416.09	11.805
416.45	11.635
416.80	12.123
417.16	12.031
417.51	11.210
417.87	11.452
418.22	11.482
418.58	11.656
418.93	11.184
419.29	10.413
419.64	10.902
420.00	12.649
420.35	10.453
420.71	10.735
421.06	9.770
421.42	10.478
421.77	10.883
422.12	10.309
422.48	11.094
422.83	11.886
423.19	10.691
423.54	10.971
423.90	10.985
424.25	11.007
424.61	11.143
424.96	11.350
425.31	10.783
425.67	10.887
426.02	10.768
426.38	10.910
426.73	10.758
427.09	11.329
427.44	10.805
427.79	10.749
428.15	11.491
428.50	11.086
428.85	11.111
429.21	11.453
429.56	10.419
429.92	11.238
430.27	11.079
430.62	10.964
430.98	10.878
431.33	10.534
431.68	9.679
432.04	10.760
432.39	11.032
432.74	11.710
433.10	10.576
433.45	11.258
433.80	11.583
434.16	11.140
434.51	10.062
434.86	11.105
435.22	10.805
435.57	10.729
435.92	11.269
436.28	11.060
436.63	11.129
436.98	11.205
437.34	11.130
437.69	10.302
438.04	11.075
438.39	11.384
438.75	11.470
439.10	9.984
439.45	10.684
439.81	11.220
440.16	10.732
440.51	11.036
440.86	11.282
441.22	10.714
441.57	11.234
441.92	10.809
442.27	10.670
442.63	11.535
442.98	10.884
443.33	11.355
443.68	11.066
444.03	10.226
444.39	11.111
444.74	11.128
445.09	10.163
445.44	10.946
445.79	10.526
446.15	11.368
446.50	10.918
446.85	11.155
447.20	10.199
447.55	11.474
447.91	11.135
448.26	11.022
448.61	10.669
448.96	11.329
449.31	11.386
449.66	11.296
450.02	11.723
450.37	11.272
450.72	11.736
451.07	11.809
451.42	11.440
451.77	11.627
452.12	10.947
452.47	11.786
452.83	11.775
453.18	11.952
453.53	11.604
453.88	11.943
454.23	12.086
454.58	11.305
454.93	10.852
455.28	12.240
455.63	11.879
455.98	10.886
456.34	11.976
456.69	11.524
457.04	11.098
457.39	10.971
457.74	11.599
458.09	10.612
458.44	11.391
458.79	11.194
459.14	10.202
459.49	11.212
459.84	11.848
460.19	12.260
460.54	11.453
460.89	11.780
461.24	10.825
461.59	11.848
461.94	10.638
462.29	11.613
462.64	11.621
462.99	11.900
463.34	12.119
463.69	12.583
464.04	11.744
464.39	11.620
464.74	10.199
465.09	11.782
465.44	11.480
465.79	10.615
466.14	11.394
466.49	10.798
466.84	10.981
467.19	11.892
467.54	11.592
467.89	11.502
468.24	11.870
468.59	10.238
468.94	12.017
469.29	12.706
469.64	12.669
469.99	12.532
470.34	11.828
470.68	12.345
471.03	11.741
471.38	12.053
471.73	12.084
472.08	12.459
472.43	11.794
472.78	12.420
473.13	10.826
473.48	11.491
473.83	11.543
474.17	11.733
474.52	11.789
474.87	11.654
475.22	12.222
475.57	11.070
475.92	10.884
476.27	10.609
476.61	11.153
476.96	11.912
477.31	11.620
477.66	11.916
478.01	11.449
478.36	12.049
478.70	11.216
479.05	10.513
479.40	10.813
479.75	12.214
480.10	11.278
480.45	10.971
480.79	11.613
481.14	11.317
481.49	11.208
481.84	11.214
482.19	11.441
482.53	11.243
482.88	11.604
483.23	10.374
483.58	11.490
483.92	11.335
484.27	11.344
484.62	10.993
484.97	10.791
485.31	10.813
485.66	10.332
486.01	10.119
486.36	9.523
486.70	9.551
487.05	9.868
487.40	10.209
487.75	10.270
488.09	10.597
488.44	10.899
488.79	11.107
489.13	11.049
489.48	11.346
489.83	10.884
490.17	11.024
490.52	11.283
490.87	10.517
491.22	11.303
491.56	11.506
491.91	10.932
492.26	11.403
492.60	11.253
492.95	11.192
493.30	11.465
493.64	11.321
493.99	11.583
494.34	11.116
494.68	10.890
495.03	12.079
495.37	12.292
495.72	11.422
496.07	11.366
496.41	11.121
496.76	10.848
497.11	11.482
497.45	11.223
497.80	11.492
498.14	11.281
498.49	11.560
498.84	11.589
499.18	11.106
499.53	11.116
499.87	11.276
500.22	11.147
500.56	11.142
500.91	12.152
501.26	11.621
501.60	11.111
501.95	10.932
502.29	11.733
502.64	10.895
502.98	11.605
503.33	11.002
503.67	11.876
504.02	10.703
504.36	11.357
504.71	11.826
505.06	11.919
505.40	11.605
505.75	11.085
506.09	12.319
506.44	11.983
506.78	11.862
507.13	11.343
507.47	10.917
507.82	12.311
508.16	12.053
508.51	12.512
508.85	11.586
509.19	11.796
509.54	11.719
509.88	11.934
510.23	11.373
510.57	11.680
510.92	11.888
511.26	11.797
511.61	11.226
511.95	12.245
512.30	12.400
512.64	11.786
512.98	11.891
513.33	12.039
513.67	11.963
514.02	11.636
514.36	11.578
514.70	11.520
515.05	11.028
515.39	11.568
515.74	12.466
516.08	12.418
516.42	12.404
516.77	12.373
517.11	11.360
517.46	13.039
517.80	11.141
518.14	12.225
518.49	12.459
518.83	12.198
519.17	12.978
519.52	12.561
519.86	12.589
520.20	12.986
520.55	12.493
520.89	12.644
521.23	13.026
521.58	12.622
521.92	12.187
522.26	12.085
522.61	12.240
522.95	12.492
523.29	13.275
523.64	11.676
523.98	12.441
524.32	12.284
524.66	12.116
525.01	12.367
525.35	12.021
525.69	12.944
526.04	13.206
526.38	12.537
526.72	13.067
527.06	12.300
527.41	12.878
527.75	12.416
528.09	11.800
528.43	12.752
528.78	12.165
529.12	13.125
529.46	12.040
529.80	12.734
530.15	13.318
530.49	11.613
530.83	12.675
531.17	12.423
531.51	12.324
531.86	12.077
532.20	11.928
532.54	11.990
532.88	13.054
533.22	13.163
533.57	12.203
533.91	12.587
534.25	11.425
534.59	12.222
534.93	12.400
535.27	11.212
535.62	12.077
535.96	13.121
536.30	13.346
536.64	12.360
536.98	12.712
537.32	12.625
537.66	11.990
538.01	12.632
538.35	12.789
538.69	12.015
539.03	12.313
539.37	11.954
539.71	12.160
540.05	12.062
540.39	12.327
540.73	12.785
541.07	11.606
541.42	12.624
541.76	12.639
542.10	11.529
542.44	12.469
542.78	12.083
543.12	11.963
543.46	11.466
543.80	12.469
544.14	12.632
544.48	11.618
544.82	12.661
545.16	11.718
545.50	12.907
545.84	12.942
546.18	13.069
546.52	12.590
546.86	12.250
547.20	12.468
547.54	12.666
547.88	12.774
548.22	12.083
548.56	12.434
548.90	11.566
549.24	11.876
549.58	11.791
549.92	12.246
550.26	12.170
550.60	11.910
550.94	13.026
551.28	13.172
551.62	13.172
551.96	13.378
552.30	11.140
552.64	12.816
552.98	11.856
553.32	12.356
553.66	11.661
554.00	11.969
554.34	12.117
554.68	12.366
555.02	12.695
555.36	12.101
555.69	13.351
556.03	12.611
556.37	13.321
556.71	13.950
557.05	11.796
557.39	12.533
557.73	13.544
558.07	13.078
558.41	12.543
558.75	12.927
559.08	12.652
559.42	13.243
559.76	13.186
560.10	12.870
560.44	13.006
560.78	12.724
561.12	12.397
561.45	11.514
561.79	12.360
562.13	11.687
562.47	11.811
562.81	12.752
563.15	11.959
563.48	12.112
563.82	12.913
564.16	12.313
564.50	11.995
564.84	12.036
565.17	12.240
565.51	12.562
565.85	12.708
566.19	11.845
566.52	12.395
566.86	12.668
567.20	12.022
567.54	11.299
567.88	11.581
568.21	11.383
568.55	11.722
568.89	11.405
569.23	11.044
569.56	11.502
569.90	10.816
570.24	11.073
570.57	11.129
570.91	10.047
571.25	10.587
571.59	9.983
571.92	10.199
572.26	10.081
572.60	10.275
572.93	10.955
573.27	10.396
573.61	10.070
573.95	10.134
574.28	10.591
574.62	10.061
574.96	9.561
575.29	10.007
575.63	9.800
575.97	9.834
576.30	9.922
576.64	10.046
576.98	10.053
577.31	10.213
577.65	9.933
577.98	9.775
578.32	9.668
578.66	9.837
578.99	10.069
579.33	10.104
579.67	9.947
580.00	9.539
580.34	9.700
580.67	10.112
581.01	10.182
581.35	9.859
581.68	9.512
582.02	9.720
582.35	9.637
582.69	9.960
583.02	9.773
583.36	9.639
583.70	9.753
584.03	10.390
584.37	9.970
584.70	10.202
585.04	10.231
585.37	9.784
585.71	10.360
586.04	9.858
586.38	9.792
586.72	10.039
587.05	10.242
587.39	10.215
587.72	10.173
588.06	9.908
588.39	9.954
588.73	10.052
589.06	10.476
589.40	10.892
589.73	9.964
590.07	10.570
590.40	11.254
590.73	11.311
591.07	11.120
591.40	10.619
591.74	10.633
592.07	10.607
592.41	11.031
592.74	10.106
593.08	10.091
593.41	9.725
593.75	10.073
594.08	10.286
594.41	10.068
594.75	10.411
595.08	10.288
595.42	10.829
595.75	10.661
596.09	10.115
596.42	10.452
596.75	10.817
597.09	11.061
597.42	10.776
597.75	10.588
598.09	10.012
598.42	10.404
598.76	11.180
599.09	10.850
599.42	10.381
599.76	10.380
600.09	9.492
600.42	10.739
600.76	10.061
601.09	10.114
601.42	10.736
601.76	10.347
602.09	11.295
602.42	10.388
602.76	10.778
603.09	10.973
603.42	10.569
603.76	10.159
604.09	10.025
604.42	10.019
604.76	10.786
605.09	10.531
605.42	10.809
605.75	10.580
606.09	10.559
606.42	10.485
606.75	11.115
607.09	10.659
607.42	10.647
607.75	11.306
608.08	10.357
608.42	10.948
608.75	10.184
609.08	10.427
609.41	10.864
609.75	10.989
610.08	10.432
610.41	11.287
610.74	10.909
611.07	10.960
611.41	10.473
611.74	11.233
612.07	10.983
612.40	11.209
612.73	11.283
613.07	10.694
613.40	10.877
613.73	11.333
614.06	10.750
614.39	11.768
614.72	10.598
615.06	10.880
615.39	11.287
615.72	10.891
616.05	11.150
616.38	10.959
616.71	10.743
617.05	11.093
617.38	10.562
617.71	10.855
618.04	10.881
618.37	10.951
618.70	10.681
619.03	10.989
619.36	11.997
619.69	10.884
620.03	12.524
620.36	11.753
620.69	12.452
621.02	12.432
621.35	12.536
621.68	11.652
622.01	12.768
622.34	11.580
622.67	12.149
623.00	12.185
623.33	12.618
623.66	11.710
623.99	11.781
624.32	11.992
624.65	12.047
624.99	11.427
625.32	12.826
625.65	10.966
625.98	11.437
626.31	12.166
626.64	11.845
626.97	11.936
627.30	12.189
627.63	12.873
627.96	11.268
628.29	12.046
628.62	12.917
628.95	12.500
629.28	13.585
629.61	11.775
629.94	12.619
630.26	13.085
630.59	13.209
630.92	13.094
631.25	13.146
631.58	13.308
631.91	13.511
