SpectraSuite Data File
++++++++++++++++++++++++++++++++++++
Date: Tue May 12 16:40:06 PDT 2015
User: schluterlab
Dark Spectrum Present: Yes
Reference Spectrum Present: Yes
Number of Sampled Component Spectra: 1
Spectrometers: USB2E3373
Integration Time (usec): 3000 (USB2E3373)
Spectra Averaged: 3 (USB2E3373)
Boxcar Smoothing: 0 (USB2E3373)
Correct for Electrical Dark: No (USB2E3373)
Strobe/Lamp Enabled: No (USB2E3373)
Correct for Detector Non-linearity: No (USB2E3373)
Correct for Stray Light: No (USB2E3373)
Number of Pixels in Processed Spectrum: 2048
>>>>>Begin Processed Spectral Data<<<<<
178.53	0.000
178.91	-166.667
179.29	-750.000
179.67	-4300.000
180.04	-113.333
180.42	425.000
180.80	1450.000
181.18	0.000
181.56	-212.500
181.94	0.000
182.31	1200.000
182.69	-2200.000
183.07	585.714
183.45	-3100.000
183.83	-1450.000
184.20	340.000
184.58	428.571
184.96	-223.077
185.34	-158.333
185.72	1550.000
186.09	-775.000
186.47	-3300.000
186.85	1000.000
187.23	480.000
187.61	1650.000
187.98	550.000
188.36	292.857
188.74	225.000
189.12	266.667
189.49	1000.000
189.87	0.000
190.25	437.500
190.63	2200.000
191.00	-150.000
191.38	-3600.000
191.76	-575.000
192.14	462.500
192.51	-2900.000
192.89	1950.000
193.27	866.667
193.65	-933.333
194.02	-700.000
194.40	471.429
194.78	-235.714
195.15	240.000
195.53	-3500.000
195.91	-480.000
196.29	3600.000
196.66	237.500
197.04	850.000
197.42	-1250.000
197.79	725.000
198.17	291.667
198.55	0.000
198.92	400.000
199.30	966.667
199.68	1850.000
200.05	733.333
200.43	-650.000
200.81	255.556
201.18	4400.000
201.56	325.000
201.94	-875.000
202.31	-350.000
202.69	-520.000
203.07	4200.000
203.44	-550.000
203.82	291.667
204.19	700.000
204.57	-1050.000
204.95	-725.000
205.32	-680.000
205.70	250.000
206.08	775.000
206.45	-933.333
206.83	388.889
207.20	210.526
207.58	275.000
207.96	600.000
208.33	0.000
208.71	642.857
209.08	700.000
209.46	-3000.000
209.84	-625.000
210.21	820.000
210.59	-640.000
210.96	350.000
211.34	-700.000
211.71	290.909
212.09	900.000
212.46	2000.000
212.84	-350.000
213.22	366.667
213.59	-3200.000
213.97	260.000
214.34	900.000
214.72	1100.000
215.09	1166.667
215.47	-2600.000
215.84	-220.000
216.22	-400.000
216.59	0.000
216.97	0.000
217.34	1600.000
217.72	-1000.000
218.09	1233.333
218.47	475.000
218.84	825.000
219.22	1166.667
219.59	833.333
219.97	557.143
220.34	288.889
220.72	1350.000
221.09	3700.000
221.47	283.333
221.84	1166.667
222.22	300.000
222.59	294.444
222.97	242.857
223.34	200.000
223.72	-1400.000
224.09	1300.000
224.46	246.154
224.84	-825.000
225.21	411.111
225.59	193.333
225.96	1066.667
226.34	-740.000
226.71	-825.000
227.08	-460.000
227.46	0.000
227.83	-533.333
228.21	-1450.000
228.58	308.333
228.95	750.000
229.33	422.222
229.70	975.000
230.08	315.385
230.45	3500.000
230.82	-625.000
231.20	-666.667
231.57	-866.667
231.95	480.000
232.32	275.000
232.69	450.000
233.07	275.000
233.44	-950.000
233.81	213.333
234.19	151.852
234.56	168.750
234.93	223.529
235.31	175.000
235.68	187.500
236.05	125.000
236.43	107.407
236.80	185.714
237.17	120.690
237.55	115.625
237.92	117.500
238.29	96.970
238.67	68.750
239.04	75.610
239.41	54.167
239.79	75.000
240.16	54.167
240.53	49.180
240.91	63.768
241.28	47.458
241.65	39.394
242.02	42.254
242.40	42.857
242.77	43.956
243.14	44.304
243.51	50.505
243.89	42.991
244.26	40.187
244.63	37.624
245.00	44.954
245.38	33.051
245.75	25.758
246.12	40.000
246.49	26.950
246.87	17.213
247.24	26.667
247.61	26.875
247.98	24.490
248.36	20.606
248.73	23.980
249.10	22.024
249.47	25.500
249.84	21.393
250.22	15.135
250.59	17.000
250.96	23.207
251.33	18.140
251.70	22.321
252.08	19.328
252.45	21.116
252.82	16.730
253.19	13.043
253.56	14.615
253.94	16.304
254.31	15.504
254.68	17.073
255.05	16.897
255.42	14.234
255.79	16.287
256.16	14.237
256.54	17.857
256.91	16.013
257.28	11.037
257.65	9.718
258.02	12.684
258.39	16.332
258.76	16.812
259.14	11.714
259.51	12.245
259.88	15.198
260.25	13.462
260.62	12.603
260.99	8.815
261.36	13.649
261.73	10.372
262.10	11.518
262.47	12.250
262.85	10.667
263.22	11.825
263.59	11.509
263.96	13.534
264.33	10.617
264.70	13.514
265.07	13.415
265.44	11.468
265.81	9.670
266.18	14.645
266.55	11.584
266.92	10.515
267.29	10.088
267.66	10.987
268.03	12.332
268.40	12.474
268.77	10.352
269.14	7.592
269.51	10.913
269.88	13.061
270.25	8.855
270.62	9.227
270.99	12.779
271.36	11.789
271.73	8.386
272.10	11.515
272.47	10.119
272.84	10.579
273.21	9.298
273.58	12.551
273.95	10.267
274.32	11.868
274.69	11.024
275.06	11.475
275.43	10.536
275.80	11.132
276.17	11.397
276.54	10.841
276.91	10.261
277.28	10.401
277.65	9.225
278.02	10.846
278.39	9.712
278.76	11.552
279.13	8.007
279.50	9.636
279.87	8.194
280.23	9.576
280.60	10.584
280.97	11.034
281.34	8.911
281.71	10.261
282.08	10.598
282.45	9.122
282.82	10.201
283.19	8.585
283.56	9.256
283.92	9.121
284.29	9.484
284.66	10.084
285.03	10.282
285.40	9.421
285.77	8.025
286.14	9.907
286.51	10.429
286.87	8.228
287.24	7.357
287.61	8.967
287.98	8.657
288.35	8.593
288.72	8.801
289.08	8.859
289.45	8.689
289.82	9.531
290.19	8.199
290.56	9.461
290.93	8.489
291.29	8.564
291.66	8.898
292.03	8.555
292.40	9.485
292.77	8.774
293.13	8.845
293.50	8.772
293.87	8.401
294.24	10.210
294.60	9.287
294.97	10.769
295.34	9.429
295.71	10.118
296.08	10.000
296.44	9.022
296.81	9.181
297.18	10.520
297.55	11.084
297.91	9.483
298.28	10.749
298.65	10.552
299.02	9.530
299.38	9.592
299.75	10.122
300.12	10.665
300.48	12.178
300.85	11.561
301.22	12.209
301.59	10.731
301.95	11.435
302.32	11.176
302.69	12.443
303.05	11.560
303.42	10.762
303.79	12.026
304.15	11.771
304.52	10.994
304.89	11.834
305.25	14.683
305.62	13.006
305.99	12.174
306.35	12.211
306.72	13.424
307.09	12.215
307.45	12.144
307.82	13.992
308.19	14.330
308.55	13.800
308.92	14.230
309.29	14.300
309.65	14.668
310.02	15.010
310.38	14.955
310.75	13.983
311.12	15.613
311.48	17.085
311.85	16.508
312.22	15.855
312.58	16.327
312.95	16.893
313.31	17.416
313.68	17.261
314.05	18.773
314.41	17.784
314.78	18.466
315.14	19.526
315.51	19.584
315.87	20.073
316.24	19.514
316.61	19.427
316.97	20.183
317.34	21.294
317.70	21.159
318.07	23.043
318.43	22.144
318.80	23.468
319.16	22.290
319.53	22.920
319.89	24.104
320.26	25.791
320.62	25.549
320.99	25.167
321.35	25.974
321.72	28.178
322.08	26.316
322.45	27.339
322.81	26.898
323.18	27.709
323.54	28.833
323.91	31.097
324.27	30.062
324.64	30.450
325.00	31.293
325.37	31.197
325.73	33.137
326.10	34.217
326.46	33.609
326.83	33.680
327.19	35.341
327.56	34.105
327.92	35.656
328.29	35.597
328.65	37.414
329.01	36.784
329.38	37.479
329.74	36.635
330.11	38.141
330.47	39.727
330.84	37.187
331.20	38.071
331.56	40.674
331.93	39.350
332.29	38.861
332.66	39.286
333.02	38.316
333.38	38.656
333.75	39.950
334.11	39.178
334.48	40.684
334.84	38.598
335.20	42.002
335.57	40.470
335.93	40.286
336.29	41.211
336.66	42.196
337.02	40.890
337.38	40.671
337.75	40.372
338.11	40.844
338.47	40.728
338.84	40.474
339.20	39.827
339.56	41.379
339.93	41.388
340.29	41.261
340.65	42.833
341.02	41.432
341.38	41.379
341.74	41.611
342.11	41.903
342.47	42.740
342.83	42.904
343.20	42.603
343.56	41.859
343.92	42.527
344.28	42.424
344.65	42.706
345.01	41.667
345.37	42.869
345.73	41.587
346.10	42.151
346.46	43.461
346.82	42.130
347.19	44.281
347.55	42.311
347.91	43.127
348.27	41.905
348.63	43.434
349.00	42.346
349.36	43.268
349.72	43.654
350.08	43.556
350.45	43.793
350.81	44.343
351.17	43.066
351.53	44.650
351.89	42.735
352.26	43.084
352.62	44.344
352.98	43.788
353.34	44.299
353.70	43.960
354.07	45.077
354.43	44.470
354.79	44.571
355.15	45.406
355.51	45.619
355.87	44.277
356.24	46.189
356.60	46.195
356.96	45.641
357.32	45.441
357.68	45.448
358.04	46.049
358.40	45.577
358.77	45.755
359.13	44.970
359.49	45.367
359.85	45.346
360.21	44.799
360.57	46.715
360.93	46.104
361.29	46.032
361.66	47.576
362.02	47.301
362.38	47.908
362.74	47.275
363.10	47.475
363.46	47.030
363.82	47.405
364.18	47.937
364.54	48.569
364.90	48.260
365.26	48.716
365.62	49.171
365.98	46.593
366.35	47.724
366.71	48.300
367.07	48.601
367.43	48.556
367.79	48.205
368.15	47.965
368.51	48.587
368.87	48.777
369.23	49.064
369.59	48.146
369.95	50.000
370.31	48.802
370.67	49.063
371.03	48.880
371.39	49.861
371.75	50.384
372.11	50.238
372.47	50.205
372.83	50.306
373.19	50.514
373.55	49.691
373.91	49.448
374.27	50.397
374.63	50.915
374.99	51.348
375.35	51.949
375.71	51.253
376.07	50.663
376.42	49.616
376.78	51.509
377.14	51.573
377.50	50.062
377.86	51.121
378.22	50.335
378.58	51.513
378.94	51.358
379.30	51.364
379.66	51.595
380.02	52.023
380.38	50.820
380.74	52.018
381.09	51.869
381.45	50.983
381.81	52.364
382.17	52.076
382.53	51.350
382.89	51.685
383.25	51.214
383.61	51.239
383.97	50.930
384.32	50.995
384.68	52.585
385.04	51.934
385.40	50.356
385.76	51.434
386.12	52.072
386.48	51.915
386.83	51.834
387.19	53.062
387.55	51.708
387.91	51.617
388.27	51.933
388.62	51.291
388.98	51.079
389.34	50.982
389.70	51.356
390.06	51.829
390.42	51.820
390.77	51.351
391.13	52.565
391.49	50.272
391.85	52.738
392.20	51.967
392.56	50.119
392.92	50.983
393.28	50.673
393.64	49.885
393.99	51.215
394.35	50.206
394.71	49.879
395.07	51.034
395.42	49.883
395.78	51.018
396.14	50.482
396.50	50.722
396.85	49.268
397.21	50.963
397.57	49.552
397.92	49.913
398.28	50.524
398.64	50.320
399.00	48.797
399.35	47.719
399.71	48.289
400.07	48.687
400.42	48.896
400.78	49.150
401.14	48.503
401.49	49.194
401.85	47.972
402.21	48.096
402.57	47.876
402.92	48.364
403.28	47.434
403.63	48.440
403.99	46.864
404.35	47.538
404.70	48.848
405.06	46.491
405.42	46.619
405.77	46.307
406.13	45.770
406.49	45.708
406.84	45.911
407.20	46.518
407.55	46.585
407.91	46.650
408.27	46.756
408.62	45.772
408.98	45.062
409.34	44.302
409.69	45.862
410.05	45.379
410.40	44.641
410.76	44.991
411.11	44.550
411.47	45.000
411.83	44.054
412.18	44.626
412.54	44.384
412.89	44.897
413.25	44.755
413.60	45.386
413.96	44.823
414.31	44.982
414.67	46.679
415.03	45.019
415.38	45.426
415.74	46.684
416.09	45.784
416.45	46.283
416.80	46.248
417.16	45.067
417.51	45.032
417.87	47.059
418.22	45.443
418.58	47.261
418.93	45.687
419.29	46.580
419.64	46.699
420.00	47.196
420.35	46.922
420.71	46.966
421.06	46.792
421.42	46.459
421.77	47.696
422.12	49.118
422.48	47.612
422.83	48.828
423.19	48.380
423.54	47.778
423.90	48.301
424.25	49.532
424.61	48.752
424.96	49.520
425.31	49.699
425.67	50.561
426.02	50.308
426.38	49.125
426.73	51.359
427.09	51.601
427.44	52.110
427.79	51.344
428.15	52.033
428.50	52.400
428.85	52.675
429.21	52.134
429.56	50.997
429.92	53.058
430.27	52.298
430.62	51.199
430.98	52.595
431.33	53.125
431.68	51.210
432.04	51.578
432.39	54.391
432.74	53.630
433.10	55.094
433.45	55.370
433.80	56.426
434.16	54.388
434.51	55.418
434.86	55.580
435.22	55.051
435.57	56.194
435.92	56.232
436.28	57.143
436.63	56.402
436.98	58.052
437.34	56.564
437.69	56.607
438.04	56.452
438.39	56.976
438.75	56.737
439.10	57.798
439.45	56.586
439.81	57.663
440.16	58.668
440.51	58.333
440.86	59.487
441.22	58.171
441.57	59.265
441.92	58.835
442.27	57.680
442.63	58.384
442.98	57.651
443.33	57.847
443.68	58.149
444.03	58.954
444.39	58.098
444.74	59.317
445.09	59.505
445.44	59.617
445.79	60.429
446.15	59.684
446.50	59.283
446.85	59.163
447.20	59.254
447.55	60.848
447.91	59.563
448.26	60.543
448.61	60.752
448.96	60.022
449.31	60.066
449.66	60.797
450.02	60.292
450.37	60.577
450.72	60.992
451.07	60.675
451.42	60.996
451.77	60.538
452.12	60.749
452.47	61.057
452.83	61.690
453.18	61.682
453.53	62.108
453.88	62.057
454.23	61.127
454.58	61.422
454.93	59.902
455.28	61.506
455.63	62.352
455.98	61.027
456.34	62.006
456.69	62.317
457.04	61.396
457.39	60.286
457.74	62.050
458.09	61.202
458.44	60.898
458.79	60.902
459.14	60.993
459.49	62.118
459.84	62.880
460.19	62.034
460.54	60.855
460.89	61.194
461.24	60.309
461.59	62.302
461.94	60.697
462.29	60.469
462.64	61.872
462.99	60.333
463.34	61.698
463.69	61.645
464.04	61.658
464.39	62.507
464.74	61.196
465.09	61.114
465.44	61.099
465.79	61.296
466.14	60.360
466.49	61.964
466.84	60.702
467.19	61.511
467.54	60.901
467.89	62.500
468.24	62.652
468.59	61.012
468.94	62.621
469.29	62.187
469.64	60.772
469.99	60.604
470.34	62.492
470.68	60.414
471.03	62.241
471.38	63.179
471.73	62.378
472.08	63.209
472.43	62.694
472.78	62.932
473.13	61.640
473.48	62.653
473.83	61.896
474.17	62.310
474.52	61.019
474.87	60.944
475.22	62.079
475.57	60.126
475.92	60.450
476.27	60.827
476.61	62.091
476.96	61.755
477.31	61.388
477.66	62.373
478.01	60.289
478.36	61.329
478.70	60.199
479.05	61.349
479.40	61.260
479.75	61.867
480.10	61.229
480.45	60.971
480.79	60.000
481.14	61.008
481.49	60.384
481.84	61.082
482.19	61.004
482.53	60.870
482.88	61.380
483.23	60.126
483.58	60.637
483.92	61.563
484.27	59.247
484.62	60.569
484.97	60.070
485.31	59.714
485.66	58.856
486.01	58.426
486.36	58.210
486.70	57.669
487.05	58.477
487.40	58.927
487.75	59.180
488.09	59.261
488.44	58.764
488.79	59.146
489.13	60.582
489.48	60.567
489.83	60.050
490.17	59.950
490.52	60.896
490.87	60.474
491.22	60.993
491.56	60.782
491.91	61.290
492.26	59.911
492.60	61.686
492.95	60.172
493.30	60.464
493.64	60.916
493.99	60.376
494.34	60.421
494.68	59.805
495.03	60.709
495.37	60.108
495.72	60.186
496.07	60.288
496.41	60.035
496.76	59.814
497.11	59.597
497.45	60.982
497.80	61.446
498.14	59.223
498.49	59.703
498.84	60.374
499.18	59.552
499.53	59.577
499.87	60.422
500.22	60.111
500.56	60.817
500.91	61.364
501.26	61.001
501.60	60.929
501.95	60.170
502.29	60.667
502.64	59.859
502.98	59.582
503.33	60.312
503.67	60.177
504.02	59.516
504.36	59.729
504.71	61.400
505.06	59.878
505.40	60.880
505.75	59.916
506.09	60.849
506.44	60.996
506.78	60.491
507.13	60.446
507.47	61.184
507.82	60.827
508.16	62.322
508.51	60.918
508.85	61.538
509.19	60.401
509.54	60.498
509.88	61.512
510.23	60.686
510.57	58.929
510.92	61.988
511.26	60.793
511.61	59.921
511.95	60.030
512.30	61.150
512.64	61.838
512.98	61.404
513.33	61.270
513.67	61.056
514.02	60.571
514.36	61.111
514.70	62.613
515.05	61.161
515.39	61.787
515.74	62.603
516.08	61.874
516.42	63.934
516.77	60.480
517.11	61.973
517.46	62.446
517.80	61.169
518.14	63.662
518.49	61.632
518.83	59.615
519.17	62.341
519.52	61.988
519.86	61.744
520.20	61.425
520.55	61.617
520.89	61.839
521.23	61.857
521.58	61.216
521.92	61.983
522.26	61.256
522.61	61.854
522.95	63.063
523.29	62.105
523.64	61.503
523.98	61.326
524.32	61.649
524.66	61.217
525.01	62.012
525.35	61.756
525.69	62.613
526.04	60.797
526.38	61.801
526.72	61.337
527.06	60.378
527.41	62.152
527.75	61.595
528.09	61.589
528.43	62.294
528.78	61.538
529.12	62.854
529.46	60.666
529.80	61.507
530.15	60.047
530.49	61.131
530.83	60.938
531.17	61.070
531.51	60.208
531.86	60.568
532.20	59.951
532.54	60.264
532.88	60.837
533.22	59.171
533.57	61.257
533.91	60.082
534.25	59.146
534.59	61.053
534.93	59.954
535.27	58.680
535.62	58.868
535.96	59.574
536.30	61.487
536.64	59.689
536.98	61.548
537.32	59.875
537.66	60.714
538.01	59.195
538.35	59.326
538.69	58.252
539.03	59.577
539.37	58.859
539.71	60.123
540.05	59.569
540.39	60.566
540.73	60.253
541.07	60.853
541.42	60.697
541.76	61.282
542.10	58.693
542.44	60.910
542.78	61.233
543.12	58.712
543.46	59.398
543.80	60.464
544.14	60.991
544.48	59.732
544.82	60.734
545.16	59.320
545.50	59.803
545.84	58.965
546.18	60.858
546.52	60.197
546.86	60.928
547.20	60.724
547.54	61.051
547.88	58.881
548.22	62.052
548.56	59.753
548.90	61.388
549.24	60.581
549.58	60.825
549.92	61.952
550.26	62.475
550.60	60.679
550.94	63.569
551.28	62.621
551.62	62.345
551.96	62.973
552.30	61.964
552.64	62.848
552.98	61.662
553.32	62.292
553.66	61.954
554.00	61.905
554.34	63.981
554.68	61.895
555.02	62.865
555.36	60.638
555.69	62.565
556.03	61.401
556.37	61.568
556.71	62.451
557.05	62.647
557.39	61.533
557.73	62.736
558.07	63.313
558.41	64.154
558.75	63.064
559.08	64.046
559.42	66.142
559.76	64.932
560.10	61.803
560.44	63.437
560.78	63.875
561.12	63.382
561.45	63.016
561.79	62.797
562.13	62.097
562.47	64.698
562.81	62.915
563.15	62.896
563.48	61.304
563.82	63.444
564.16	63.619
564.50	62.508
564.84	63.465
565.17	61.735
565.51	64.963
565.85	65.022
566.19	62.440
566.52	63.297
566.86	63.047
567.20	62.416
567.54	63.046
567.88	62.389
568.21	60.359
568.55	62.840
568.89	60.766
569.23	60.828
569.56	61.781
569.90	60.151
570.24	60.068
570.57	60.286
570.91	59.376
571.25	59.549
571.59	58.601
571.92	58.504
572.26	58.491
572.60	58.428
572.93	59.891
573.27	59.621
573.61	58.771
573.95	59.114
574.28	58.895
574.62	59.199
574.96	57.776
575.29	57.392
575.63	57.197
575.97	57.132
576.30	58.061
576.64	58.356
576.98	57.952
577.31	59.059
577.65	58.767
577.98	57.860
578.32	57.856
578.66	58.631
578.99	58.360
579.33	59.179
579.67	58.897
580.00	58.312
580.34	58.471
580.67	58.367
581.01	59.710
581.35	59.491
581.68	59.241
582.02	58.636
582.35	59.378
582.69	59.725
583.02	60.050
583.36	60.515
583.70	60.710
584.03	61.820
584.37	62.065
584.70	61.085
585.04	61.123
585.37	61.046
585.71	61.865
586.04	61.271
586.38	61.910
586.72	62.471
587.05	62.403
587.39	62.427
587.72	63.113
588.06	62.627
588.39	63.127
588.73	63.416
589.06	63.992
589.40	63.975
589.73	64.274
590.07	64.928
590.40	66.063
590.73	65.406
591.07	65.465
591.40	64.870
591.74	65.990
592.07	64.434
592.41	65.827
592.74	65.837
593.08	64.844
593.41	64.871
593.75	63.895
594.08	64.552
594.41	65.657
594.75	65.925
595.08	65.844
595.42	65.866
595.75	65.318
596.09	65.346
596.42	66.242
596.75	68.029
597.09	67.231
597.42	66.816
597.75	66.531
598.09	66.434
598.42	66.463
598.76	66.345
599.09	66.569
599.42	66.194
599.76	65.536
600.09	65.831
600.42	66.575
600.76	67.267
601.09	66.068
601.42	66.244
601.76	66.488
602.09	67.329
602.42	65.730
602.76	66.945
603.09	68.024
603.42	67.339
603.76	67.498
604.09	67.029
604.42	66.855
604.76	67.799
605.09	67.469
605.42	68.062
605.75	67.548
606.09	67.330
606.42	66.441
606.75	68.014
607.09	66.325
607.42	67.859
607.75	67.675
608.08	68.278
608.42	67.534
608.75	68.122
609.08	67.576
609.41	68.864
609.75	69.002
610.08	69.245
610.41	67.765
610.74	68.442
611.07	68.577
611.41	69.045
611.74	69.551
612.07	69.075
612.40	68.957
612.73	70.344
613.07	70.502
613.40	70.125
613.73	69.845
614.06	69.500
614.39	70.657
614.72	69.061
615.06	67.705
615.39	68.861
615.72	68.587
616.05	70.065
616.38	69.001
616.71	70.157
617.05	71.170
617.38	70.899
617.71	72.216
618.04	70.611
618.37	69.650
618.70	70.381
619.03	71.368
619.36	71.482
619.69	71.108
620.03	73.255
620.36	72.832
620.69	72.222
621.02	73.981
621.35	71.705
621.68	72.935
622.01	74.391
622.34	74.436
622.67	72.472
623.00	71.818
623.33	72.200
623.66	71.657
623.99	74.589
624.32	73.103
624.65	73.667
624.99	75.186
625.32	73.146
625.65	73.448
625.98	71.967
626.31	76.335
626.64	75.626
626.97	72.839
627.30	74.379
627.63	75.118
627.96	74.178
628.29	76.650
628.62	75.364
628.95	76.241
629.28	76.512
629.61	77.329
629.94	76.923
630.26	76.430
630.59	76.064
630.92	76.502
631.25	76.881
631.58	76.181
631.91	77.355
632.24	76.093
632.57	75.540
