SpectraSuite Data File
++++++++++++++++++++++++++++++++++++
Date: Tue May 12 16:31:22 PDT 2015
User: schluterlab
Dark Spectrum Present: Yes
Reference Spectrum Present: Yes
Number of Sampled Component Spectra: 1
Spectrometers: USB2E3373
Integration Time (usec): 3000 (USB2E3373)
Spectra Averaged: 3 (USB2E3373)
Boxcar Smoothing: 0 (USB2E3373)
Correct for Electrical Dark: No (USB2E3373)
Strobe/Lamp Enabled: No (USB2E3373)
Correct for Detector Non-linearity: No (USB2E3373)
Correct for Stray Light: No (USB2E3373)
Number of Pixels in Processed Spectrum: 2048
>>>>>Begin Processed Spectral Data<<<<<
178.53	0.000
178.91	-200.000
179.29	-600.000
179.67	-3900.000
180.04	-46.667
180.42	775.000
180.80	1650.000
181.18	0.000
181.56	-250.000
181.94	0.000
182.31	1100.000
182.69	-3700.000
183.07	342.857
183.45	-3300.000
183.83	-750.000
184.20	310.000
184.58	514.286
184.96	-230.769
185.34	-183.333
185.72	1600.000
186.09	-750.000
186.47	-3200.000
186.85	1033.333
187.23	620.000
187.61	1900.000
187.98	487.500
188.36	228.571
188.74	291.667
189.12	283.333
189.49	925.000
189.87	0.000
190.25	425.000
190.63	1800.000
191.00	-175.000
191.38	-3200.000
191.76	-850.000
192.14	525.000
192.51	-3400.000
192.89	1600.000
193.27	1033.333
193.65	-733.333
194.02	-760.000
194.40	400.000
194.78	-200.000
195.15	233.333
195.53	-3800.000
195.91	-540.000
196.29	3800.000
196.66	243.750
197.04	750.000
197.42	-1550.000
197.79	725.000
198.17	333.333
198.55	0.000
198.92	571.429
199.30	600.000
199.68	1750.000
200.05	633.333
200.43	-316.667
200.81	222.222
201.18	3800.000
201.56	216.667
201.94	-850.000
202.31	-350.000
202.69	-560.000
203.07	2300.000
203.44	-483.333
203.82	366.667
204.19	500.000
204.57	-1500.000
204.95	-800.000
205.32	-600.000
205.70	583.333
206.08	925.000
206.45	-766.667
206.83	366.667
207.20	184.211
207.58	241.667
207.96	620.000
208.33	0.000
208.71	628.571
209.08	640.000
209.46	-3400.000
209.84	-475.000
210.21	820.000
210.59	-400.000
210.96	341.667
211.34	-825.000
211.71	381.818
212.09	1000.000
212.46	1950.000
212.84	-483.333
213.22	433.333
213.59	-2200.000
213.97	210.000
214.34	750.000
214.72	1133.333
215.09	1166.667
215.47	-4000.000
215.84	-300.000
216.22	-500.000
216.59	0.000
216.97	0.000
217.34	1250.000
217.72	-1250.000
218.09	933.333
218.47	437.500
218.84	950.000
219.22	1133.333
219.59	1000.000
219.97	471.429
220.34	344.444
220.72	1800.000
221.09	3200.000
221.47	325.000
221.84	1066.667
222.22	340.000
222.59	272.222
222.97	228.571
223.34	275.000
223.72	-1350.000
224.09	833.333
224.46	253.846
224.84	-550.000
225.21	311.111
225.59	220.000
225.96	933.333
226.34	-620.000
226.71	-650.000
227.08	-580.000
227.46	0.000
227.83	-366.667
228.21	-1600.000
228.58	366.667
228.95	800.000
229.33	333.333
229.70	1000.000
230.08	361.538
230.45	2800.000
230.82	-625.000
231.20	-1066.667
231.57	-1166.667
231.95	780.000
232.32	258.333
232.69	616.667
233.07	233.333
233.44	-2000.000
233.81	286.667
234.19	118.519
234.56	250.000
234.93	211.765
235.31	210.000
235.68	281.250
236.05	189.286
236.43	177.778
236.80	257.143
237.17	168.966
237.55	128.125
237.92	155.000
238.29	127.273
238.67	153.125
239.04	126.829
239.41	97.917
239.79	130.000
240.16	112.500
240.53	83.607
240.91	91.304
241.28	94.915
241.65	103.030
242.02	90.141
242.40	95.714
242.77	84.615
243.14	94.937
243.51	92.929
243.89	75.701
244.26	75.701
244.63	87.129
245.00	87.156
245.38	70.339
245.75	77.273
246.12	77.037
246.49	70.213
246.87	74.590
247.24	74.667
247.61	70.625
247.98	74.150
248.36	67.273
248.73	72.959
249.10	66.071
249.47	65.500
249.84	68.657
250.22	72.973
250.59	64.500
250.96	63.291
251.33	67.442
251.70	65.625
252.08	64.286
252.45	60.956
252.82	61.217
253.19	62.846
253.56	59.615
253.94	56.884
254.31	67.442
254.68	62.718
255.05	60.345
255.42	61.314
255.79	64.169
256.16	63.051
256.54	63.636
256.91	60.131
257.28	57.525
257.65	59.875
258.02	62.832
258.39	60.745
258.76	61.449
259.14	58.857
259.51	60.641
259.88	63.526
260.25	60.165
260.62	61.096
260.99	56.749
261.36	58.774
261.73	62.500
262.10	61.257
262.47	59.000
262.85	58.667
263.22	59.126
263.59	57.033
263.96	57.644
264.33	55.309
264.70	61.425
265.07	60.000
265.44	58.257
265.81	57.783
266.18	59.268
266.55	57.683
266.92	57.942
267.29	58.553
267.66	57.175
268.03	58.744
268.40	55.814
268.77	59.251
269.14	57.050
269.51	55.457
269.88	56.327
270.25	54.428
270.62	58.155
270.99	56.187
271.36	54.268
271.73	54.927
272.10	54.949
272.47	52.976
272.84	54.092
273.21	57.438
273.58	55.263
273.95	54.415
274.32	57.782
274.69	53.740
275.06	54.463
275.43	52.299
275.80	53.585
276.17	53.676
276.54	52.150
276.91	56.716
277.28	53.467
277.65	52.952
278.02	54.044
278.39	54.137
278.76	53.276
279.13	53.025
279.50	55.455
279.87	51.769
280.23	53.039
280.60	54.380
280.97	57.586
281.34	51.650
281.71	52.870
282.08	52.479
282.45	54.392
282.82	54.682
283.19	50.079
283.56	51.570
283.92	51.792
284.29	51.248
284.66	50.252
285.03	52.239
285.40	54.050
285.77	50.617
286.14	50.619
286.51	50.153
286.87	48.892
287.24	49.550
287.61	49.240
287.98	47.612
288.35	48.741
288.72	48.710
289.08	49.249
289.45	47.713
289.82	50.313
290.19	48.316
290.56	47.889
290.93	45.899
291.29	45.718
291.66	44.774
292.03	46.985
292.40	44.444
292.77	44.986
293.13	45.649
293.50	43.860
293.87	41.463
294.24	43.636
294.60	42.799
294.97	45.874
295.34	43.825
295.71	42.050
296.08	43.867
296.44	43.329
296.81	42.432
297.18	39.924
297.55	41.502
297.91	37.808
298.28	40.097
298.65	40.982
299.02	40.893
299.38	39.329
299.75	37.805
300.12	38.876
300.48	40.047
300.85	40.167
301.22	38.837
301.59	39.623
301.95	38.390
302.32	38.300
302.69	37.670
303.05	39.506
303.42	36.659
303.79	38.137
304.15	36.414
304.52	38.266
304.89	36.994
305.25	37.041
305.62	36.461
305.99	36.413
306.35	34.947
306.72	35.172
307.09	35.714
307.45	36.325
307.82	35.802
308.19	37.010
308.55	35.100
308.92	35.132
309.29	37.377
309.65	37.265
310.02	35.801
310.38	35.593
310.75	34.619
311.12	36.398
311.48	35.232
311.85	35.973
312.22	35.721
312.58	33.916
312.95	34.757
313.31	35.581
313.68	35.366
314.05	35.806
314.41	35.009
314.78	35.701
315.14	36.398
315.51	35.856
315.87	33.668
316.24	34.734
316.61	34.646
316.97	34.587
317.34	35.130
317.70	34.767
318.07	34.875
318.43	36.028
318.80	34.501
319.16	33.566
319.53	34.513
319.89	34.946
320.26	37.430
320.62	35.897
320.99	35.272
321.35	35.250
321.72	36.243
322.08	35.549
322.45	34.151
322.81	34.401
323.18	35.524
323.54	35.105
323.91	35.993
324.27	34.394
324.64	34.170
325.00	34.741
325.37	34.823
325.73	34.233
326.10	35.874
326.46	33.609
326.83	33.120
327.19	35.020
327.56	33.706
327.92	34.016
328.29	35.516
328.65	35.103
329.01	33.362
329.38	34.856
329.74	33.219
330.11	33.797
330.47	33.760
330.84	33.218
331.20	32.572
331.56	35.060
331.93	34.816
332.29	33.248
332.66	35.034
333.02	34.966
333.38	33.944
333.75	33.945
334.11	34.899
334.48	33.077
334.84	32.517
335.20	33.191
335.57	33.501
335.93	33.642
336.29	31.758
336.66	33.276
337.02	33.276
337.38	32.588
337.75	34.206
338.11	33.840
338.47	32.430
338.84	31.837
339.20	32.641
339.56	32.717
339.93	33.027
340.29	32.437
340.65	32.188
341.02	33.226
341.38	33.087
341.74	31.977
342.11	30.551
342.47	32.075
342.83	33.060
343.20	32.983
343.56	30.977
343.92	31.874
344.28	32.456
344.65	32.355
345.01	32.460
345.37	31.651
345.73	31.508
346.10	31.554
346.46	33.254
346.82	30.864
347.19	31.994
347.55	31.304
347.91	30.363
348.27	30.287
348.63	31.725
349.00	31.455
349.36	31.051
349.72	32.187
350.08	32.065
350.45	31.607
350.81	32.034
351.17	31.048
351.53	30.562
351.89	31.158
352.26	31.897
352.62	31.297
352.98	30.445
353.34	30.586
353.70	30.352
354.07	31.846
354.43	30.108
354.79	30.296
355.15	30.704
355.51	30.438
355.87	30.648
356.24	31.255
356.60	29.300
356.96	31.236
357.32	29.992
357.68	30.396
358.04	31.383
358.40	30.510
358.77	29.902
359.13	30.255
359.49	30.170
359.85	30.007
360.21	29.495
360.57	30.511
360.93	30.447
361.29	29.293
361.66	30.798
362.02	29.545
362.38	30.303
362.74	30.149
363.10	30.084
363.46	28.936
363.82	29.944
364.18	30.299
364.54	29.399
364.90	30.589
365.26	30.534
365.62	28.522
365.98	28.906
366.35	28.828
366.71	29.632
367.07	29.829
367.43	28.946
367.79	29.056
368.15	28.833
368.51	30.393
368.87	29.280
369.23	29.453
369.59	30.276
369.95	29.930
370.31	28.816
370.67	29.285
371.03	29.902
371.39	30.055
371.75	29.518
372.11	29.912
372.47	29.178
372.83	28.756
373.19	29.061
373.55	29.416
373.91	29.558
374.27	29.034
374.63	29.559
374.99	28.976
375.35	29.570
375.71	29.683
376.07	29.045
376.42	28.517
376.78	30.058
377.14	30.144
377.50	29.026
377.86	28.251
378.22	29.250
378.58	29.661
378.94	29.753
379.30	29.230
379.66	29.801
380.02	29.501
380.38	28.454
380.74	29.700
381.09	28.563
381.45	28.728
381.81	28.310
382.17	29.487
382.53	28.734
382.89	28.918
383.25	28.834
383.61	28.415
383.97	28.134
384.32	28.149
384.68	29.887
385.04	28.898
385.40	29.004
385.76	29.315
386.12	28.448
386.48	28.450
386.83	29.462
387.19	29.093
387.55	29.329
387.91	28.349
388.27	29.566
388.62	29.460
388.98	29.155
389.34	28.614
389.70	28.950
390.06	29.268
390.42	28.254
390.77	28.440
391.13	29.692
391.49	29.825
391.85	30.277
392.20	28.844
392.56	28.435
392.92	28.299
393.28	28.363
393.64	28.498
393.99	27.682
394.35	28.605
394.71	27.141
395.07	26.946
395.42	28.806
395.78	29.920
396.14	29.458
396.50	28.640
396.85	28.232
397.21	28.941
397.57	28.751
397.92	27.845
398.28	28.351
398.64	28.854
399.00	27.900
399.35	27.751
399.71	28.146
400.07	27.968
400.42	27.701
400.78	27.507
401.14	28.890
401.49	28.399
401.85	28.042
402.21	27.651
402.57	28.965
402.92	28.909
403.28	28.043
403.63	28.134
403.99	28.227
404.35	28.546
404.70	28.588
405.06	27.344
405.42	28.426
405.77	28.666
406.13	28.037
406.49	27.402
406.84	28.539
407.20	28.881
407.55	27.877
407.91	28.653
408.27	28.138
408.62	27.912
408.98	28.445
409.34	27.645
409.69	28.002
410.05	27.609
410.40	27.680
410.76	27.705
411.11	28.732
411.47	28.086
411.83	27.475
412.18	26.751
412.54	27.568
412.89	27.729
413.25	27.879
413.60	27.453
413.96	27.588
414.31	26.682
414.67	28.864
415.03	28.161
415.38	28.770
415.74	28.364
416.09	27.983
416.45	29.476
416.80	29.250
417.16	29.090
417.51	27.771
417.87	28.473
418.22	28.250
418.58	27.771
418.93	27.841
419.29	26.617
419.64	27.135
420.00	27.983
420.35	27.352
420.71	27.596
421.06	28.193
421.42	27.749
421.77	27.485
422.12	28.721
422.48	27.375
422.83	28.013
423.19	26.242
423.54	27.866
423.90	28.539
424.25	28.564
424.61	28.207
424.96	26.934
425.31	26.929
425.67	27.946
426.02	27.706
426.38	27.538
426.73	27.415
427.09	27.224
427.44	27.012
427.79	27.902
428.15	27.873
428.50	28.857
428.85	27.631
429.21	28.147
429.56	27.667
429.92	27.648
430.27	26.802
430.62	26.872
430.98	27.894
431.33	26.310
431.68	26.321
432.04	27.315
432.39	28.979
432.74	29.157
433.10	27.187
433.45	28.374
433.80	28.516
434.16	27.220
434.51	27.245
434.86	28.198
435.22	27.012
435.57	27.742
435.92	27.945
436.28	27.592
436.63	27.715
436.98	29.110
437.34	28.710
437.69	27.156
438.04	27.742
438.39	27.963
438.75	27.450
439.10	27.847
439.45	27.417
439.81	27.820
440.16	27.848
440.51	27.815
440.86	28.433
441.22	27.868
441.57	28.136
441.92	27.739
442.27	27.835
442.63	26.778
442.98	27.209
443.33	28.013
443.68	27.616
444.03	26.814
444.39	27.919
444.74	28.002
445.09	27.699
445.44	28.055
445.79	28.265
446.15	28.579
446.50	27.110
446.85	27.440
447.20	27.612
447.55	27.732
447.91	27.757
448.26	27.796
448.61	27.971
448.96	28.377
449.31	28.603
449.66	28.738
450.02	27.607
450.37	28.540
450.72	27.713
451.07	28.389
451.42	28.453
451.77	28.293
452.12	28.191
452.47	28.554
452.83	29.465
453.18	28.288
453.53	28.478
453.88	28.514
454.23	28.239
454.58	27.855
454.93	28.633
455.28	27.968
455.63	27.837
455.98	27.524
456.34	29.119
456.69	28.841
457.04	28.222
457.39	28.514
457.74	28.885
458.09	27.513
458.44	27.820
458.79	27.745
459.14	28.041
459.49	28.766
459.84	28.750
460.19	28.814
460.54	28.604
460.89	28.358
461.24	27.205
461.59	28.401
461.94	28.073
462.29	28.204
462.64	28.078
462.99	28.599
463.34	29.034
463.69	28.978
464.04	28.670
464.39	28.392
464.74	27.433
465.09	28.381
465.44	27.639
465.79	27.980
466.14	28.140
466.49	28.595
466.84	27.815
467.19	28.061
467.54	28.108
467.89	27.993
468.24	28.025
468.59	27.619
468.94	27.536
469.29	28.589
469.64	28.810
469.99	30.527
470.34	28.210
470.68	28.207
471.03	29.086
471.38	28.344
471.73	27.694
472.08	28.767
472.43	28.802
472.78	29.770
473.13	27.597
473.48	28.178
473.83	28.151
474.17	27.660
474.52	28.258
474.87	28.368
475.22	28.498
475.57	27.492
475.92	28.002
476.27	27.312
476.61	27.989
476.96	28.579
477.31	28.432
477.66	28.288
478.01	28.314
478.36	28.218
478.70	27.990
479.05	28.033
479.40	28.075
479.75	28.997
480.10	28.461
480.45	28.571
480.79	28.065
481.14	27.485
481.49	27.310
481.84	28.408
482.19	27.948
482.53	27.404
482.88	28.226
483.23	28.011
483.58	27.738
483.92	28.519
484.27	27.697
484.62	27.674
484.97	27.659
485.31	27.101
485.66	27.095
486.01	26.618
486.36	26.270
486.70	26.500
487.05	26.294
487.40	26.733
487.75	26.997
488.09	26.960
488.44	28.107
488.79	27.213
489.13	27.398
489.48	28.086
489.83	27.481
490.17	27.828
490.52	28.079
490.87	28.405
491.22	28.191
491.56	27.931
491.91	27.419
492.26	28.062
492.60	28.200
492.95	28.228
493.30	27.934
493.64	27.448
493.99	28.354
494.34	28.328
494.68	27.667
495.03	28.918
495.37	28.411
495.72	28.345
496.07	27.583
496.41	27.889
496.76	27.522
497.11	28.578
497.45	27.926
497.80	28.638
498.14	27.878
498.49	27.809
498.84	28.598
499.18	27.697
499.53	28.158
499.87	27.898
500.22	28.558
500.56	28.087
500.91	28.571
501.26	27.882
501.60	28.233
501.95	26.792
502.29	27.778
502.64	27.393
502.98	27.479
503.33	27.973
503.67	27.947
504.02	27.497
504.36	28.326
504.71	28.571
505.06	27.921
505.40	27.749
505.75	27.970
506.09	27.951
506.44	27.867
506.78	27.883
507.13	27.969
507.47	27.754
507.82	28.273
508.16	28.907
508.51	28.309
508.85	28.585
509.19	28.683
509.54	28.125
509.88	28.195
510.23	28.284
510.57	27.268
510.92	28.222
511.26	28.363
511.61	28.262
511.95	27.924
512.30	28.050
512.64	27.934
512.98	27.934
513.33	28.381
513.67	27.913
514.02	28.416
514.36	29.024
514.70	28.533
515.05	28.183
515.39	28.454
515.74	28.704
516.08	28.813
516.42	29.399
516.77	29.227
517.11	28.373
517.46	28.718
517.80	27.854
518.14	28.901
518.49	28.611
518.83	28.022
519.17	28.952
519.52	28.618
519.86	27.629
520.20	29.205
520.55	28.321
520.89	28.678
521.23	29.089
521.58	29.030
521.92	27.405
522.26	28.199
522.61	28.818
522.95	28.468
523.29	28.246
523.64	27.919
523.98	29.401
524.32	28.085
524.66	28.232
525.01	28.757
525.35	27.991
525.69	29.019
526.04	29.387
526.38	29.076
526.72	27.625
527.06	28.031
527.41	29.746
527.75	28.911
528.09	28.417
528.43	28.615
528.78	28.623
529.12	28.958
529.46	28.580
529.80	28.505
530.15	28.639
530.49	27.858
530.83	29.616
531.17	28.106
531.51	29.368
531.86	28.502
532.20	27.689
532.54	29.002
532.88	27.983
533.22	29.311
533.57	28.310
533.91	28.147
534.25	27.755
534.59	29.240
534.93	27.929
535.27	27.319
535.62	28.763
535.96	28.132
536.30	29.250
536.64	27.888
536.98	27.942
537.32	28.312
537.66	28.253
538.01	28.359
538.35	28.010
538.69	26.881
539.03	27.612
539.37	28.216
539.71	28.765
540.05	27.077
540.39	29.057
540.73	28.101
541.07	27.854
541.42	27.985
541.76	27.497
542.10	27.805
542.44	27.993
542.78	28.257
543.12	27.975
543.46	27.005
543.80	27.757
544.14	28.173
544.48	27.920
544.82	28.930
545.16	27.322
545.50	27.966
545.84	28.472
546.18	29.779
546.52	28.262
546.86	28.175
547.20	27.519
547.54	27.232
547.88	27.737
548.22	27.626
548.56	27.637
548.90	27.224
549.24	27.669
549.58	27.384
549.92	28.815
550.26	28.736
550.60	28.144
550.94	28.426
551.28	28.276
551.62	30.000
551.96	28.716
552.30	28.214
552.64	28.155
552.98	27.384
553.32	26.825
553.66	27.818
554.00	26.641
554.34	28.695
554.68	27.823
555.02	28.310
555.36	28.856
555.69	27.291
556.03	27.771
556.37	27.470
556.71	29.531
557.05	27.523
557.39	28.267
557.73	27.695
558.07	27.767
558.41	28.033
558.75	29.685
559.08	30.236
559.42	28.275
559.76	27.869
560.10	27.116
560.44	28.003
560.78	28.325
561.12	28.735
561.45	28.035
561.79	27.778
562.13	27.732
562.47	27.774
562.81	28.107
563.15	27.473
563.48	26.646
563.82	27.449
564.16	28.172
564.50	28.210
564.84	27.842
565.17	27.035
565.51	28.510
565.85	28.007
566.19	28.214
566.52	27.076
566.86	28.079
567.20	28.483
567.54	27.347
567.88	28.117
568.21	27.409
568.55	27.675
568.89	26.779
569.23	26.316
569.56	27.236
569.90	25.907
570.24	26.644
570.57	26.541
570.91	25.959
571.25	25.830
571.59	26.001
571.92	24.919
572.26	25.364
572.60	25.882
572.93	26.136
573.27	25.704
573.61	25.014
573.95	25.623
574.28	25.982
574.62	25.501
574.96	25.136
575.29	25.040
575.63	24.900
575.97	24.367
576.30	25.259
576.64	25.371
576.98	25.331
577.31	25.196
577.65	25.573
577.98	24.745
578.32	24.723
578.66	24.806
578.99	24.942
579.33	25.147
579.67	25.248
580.00	24.903
580.34	25.637
580.67	24.720
581.01	25.214
581.35	25.084
581.68	24.828
582.02	24.808
582.35	25.013
582.69	24.813
583.02	25.291
583.36	25.417
583.70	26.078
584.03	25.752
584.37	25.871
584.70	25.504
585.04	25.030
585.37	25.113
585.71	25.438
586.04	25.413
586.38	25.305
586.72	25.534
587.05	25.244
587.39	25.360
587.72	25.226
588.06	25.155
588.39	24.898
588.73	25.879
589.06	25.620
589.40	26.103
589.73	26.352
590.07	25.944
590.40	26.864
590.73	26.588
591.07	26.793
591.40	25.948
591.74	26.177
592.07	25.749
592.41	25.779
592.74	26.218
593.08	25.423
593.41	25.254
593.75	25.066
594.08	25.531
594.41	25.024
594.75	25.822
595.08	25.857
595.42	25.774
595.75	26.127
596.09	26.173
596.42	25.528
596.75	26.162
597.09	26.496
597.42	26.163
597.75	25.761
598.09	25.523
598.42	26.193
598.76	25.944
599.09	25.929
599.42	25.675
599.76	25.984
600.09	25.119
600.42	25.622
600.76	26.479
601.09	25.337
601.42	26.012
601.76	26.173
602.09	25.865
602.42	25.434
602.76	25.503
603.09	26.546
603.42	26.018
603.76	25.343
604.09	25.624
604.42	26.177
604.76	26.156
605.09	26.000
605.42	26.331
605.75	25.859
606.09	26.664
606.42	26.043
606.75	26.001
607.09	25.898
607.42	26.155
607.75	25.756
608.08	25.467
608.42	26.426
608.75	25.546
609.08	25.605
609.41	26.682
609.75	25.366
610.08	26.709
610.41	26.263
610.74	25.714
611.07	26.330
611.41	26.506
611.74	25.669
612.07	26.301
612.40	26.072
612.73	26.910
613.07	26.508
613.40	27.669
613.73	26.261
614.06	25.850
614.39	26.515
614.72	26.168
615.06	25.519
615.39	26.188
615.72	25.121
616.05	26.118
616.38	26.230
616.71	25.773
617.05	26.469
617.38	26.292
617.71	27.053
618.04	25.743
618.37	25.792
618.70	26.328
619.03	26.190
619.36	26.633
619.69	26.121
620.03	26.941
620.36	26.846
620.69	28.033
621.02	27.717
621.35	27.149
621.68	27.212
622.01	26.716
622.34	26.803
622.67	27.879
623.00	26.617
623.33	27.193
623.66	25.948
623.99	27.123
624.32	27.642
624.65	26.794
624.99	26.842
625.32	26.854
625.65	26.414
625.98	26.011
626.31	27.226
626.64	27.107
626.97	27.391
627.30	27.174
627.63	27.865
627.96	28.013
628.29	27.640
628.62	26.775
628.95	27.571
629.28	28.659
629.61	27.065
629.94	27.571
630.26	27.210
630.59	28.457
630.92	27.354
631.25	28.649
