SpectraSuite Data File
++++++++++++++++++++++++++++++++++++
Date: Tue May 12 16:35:33 PDT 2015
User: schluterlab
Dark Spectrum Present: Yes
Reference Spectrum Present: Yes
Number of Sampled Component Spectra: 1
Spectrometers: USB2E3373
Integration Time (usec): 3000 (USB2E3373)
Spectra Averaged: 3 (USB2E3373)
Boxcar Smoothing: 0 (USB2E3373)
Correct for Electrical Dark: No (USB2E3373)
Strobe/Lamp Enabled: No (USB2E3373)
Correct for Detector Non-linearity: No (USB2E3373)
Correct for Stray Light: No (USB2E3373)
Number of Pixels in Processed Spectrum: 2048
>>>>>Begin Processed Spectral Data<<<<<
178.53	0.000
178.91	-233.333
179.29	-800.000
179.67	-3200.000
180.04	-80.000
180.42	775.000
180.80	1600.000
181.18	0.000
181.56	-350.000
181.94	0.000
182.31	933.333
182.69	-2900.000
183.07	528.571
183.45	-3800.000
183.83	-1500.000
184.20	300.000
184.58	557.143
184.96	-269.231
185.34	-183.333
185.72	1750.000
186.09	-750.000
186.47	-3100.000
186.85	1000.000
187.23	740.000
187.61	1550.000
187.98	512.500
188.36	214.286
188.74	308.333
189.12	391.667
189.49	925.000
189.87	0.000
190.25	462.500
190.63	2500.000
191.00	-158.333
191.38	-3200.000
191.76	-825.000
192.14	387.500
192.51	-2200.000
192.89	2150.000
193.27	1300.000
193.65	-1033.333
194.02	-720.000
194.40	528.571
194.78	-150.000
195.15	186.667
195.53	-2400.000
195.91	-320.000
196.29	3100.000
196.66	206.250
197.04	850.000
197.42	-1650.000
197.79	675.000
198.17	291.667
198.55	0.000
198.92	371.429
199.30	1166.667
199.68	2300.000
200.05	633.333
200.43	-466.667
200.81	166.667
201.18	2600.000
201.56	375.000
201.94	-625.000
202.31	-362.500
202.69	-500.000
203.07	3300.000
203.44	-400.000
203.82	333.333
204.19	440.000
204.57	-1700.000
204.95	-650.000
205.32	-620.000
205.70	416.667
206.08	825.000
206.45	-1033.333
206.83	388.889
207.20	173.684
207.58	241.667
207.96	720.000
208.33	0.000
208.71	514.286
209.08	780.000
209.46	-2700.000
209.84	-625.000
210.21	960.000
210.59	-560.000
210.96	291.667
211.34	-900.000
211.71	427.273
212.09	850.000
212.46	1600.000
212.84	-566.667
213.22	466.667
213.59	-3500.000
213.97	390.000
214.34	825.000
214.72	933.333
215.09	900.000
215.47	-3000.000
215.84	-310.000
216.22	-487.500
216.59	0.000
216.97	0.000
217.34	1350.000
217.72	-1250.000
218.09	1066.667
218.47	387.500
218.84	750.000
219.22	733.333
219.59	900.000
219.97	514.286
220.34	411.111
220.72	1500.000
221.09	2900.000
221.47	275.000
221.84	1000.000
222.22	320.000
222.59	238.889
222.97	307.143
223.34	218.750
223.72	-2200.000
224.09	1033.333
224.46	292.308
224.84	-700.000
225.21	377.778
225.59	233.333
225.96	1433.333
226.34	-560.000
226.71	-650.000
227.08	-620.000
227.46	0.000
227.83	-533.333
228.21	-1350.000
228.58	341.667
228.95	725.000
229.33	344.444
229.70	1050.000
230.08	315.385
230.45	3600.000
230.82	-950.000
231.20	-766.667
231.57	-1066.667
231.95	340.000
232.32	283.333
232.69	483.333
233.07	216.667
233.44	-1550.000
233.81	280.000
234.19	133.333
234.56	175.000
234.93	211.765
235.31	165.000
235.68	187.500
236.05	171.429
236.43	170.370
236.80	257.143
237.17	158.621
237.55	125.000
237.92	107.500
238.29	145.455
238.67	90.625
239.04	121.951
239.41	79.167
239.79	95.000
240.16	93.750
240.53	59.016
240.91	72.464
241.28	81.356
241.65	66.667
242.02	70.423
242.40	77.143
242.77	62.637
243.14	70.886
243.51	65.657
243.89	50.467
244.26	51.402
244.63	64.356
245.00	50.459
245.38	37.288
245.75	46.212
246.12	57.778
246.49	43.262
246.87	36.885
247.24	46.667
247.61	40.625
247.98	44.218
248.36	34.545
248.73	40.306
249.10	39.881
249.47	36.500
249.84	33.831
250.22	44.865
250.59	37.500
250.96	37.975
251.33	33.488
251.70	38.393
252.08	33.613
252.45	33.865
252.82	30.038
253.19	34.783
253.56	36.538
253.94	35.145
254.31	32.171
254.68	35.540
255.05	36.552
255.42	34.307
255.79	36.156
256.16	28.136
256.54	34.416
256.91	32.353
257.28	31.438
257.65	29.154
258.02	32.448
258.39	31.232
258.76	32.464
259.14	30.286
259.51	32.070
259.88	33.131
260.25	27.747
260.62	31.233
260.99	30.028
261.36	31.198
261.73	30.851
262.10	29.581
262.47	28.250
262.85	26.133
263.22	31.620
263.59	30.691
263.96	32.331
264.33	28.395
264.70	31.450
265.07	29.024
265.44	30.963
265.81	29.009
266.18	32.265
266.55	28.132
266.92	29.754
267.29	31.140
267.66	24.888
268.03	30.717
268.40	29.598
268.77	29.736
269.14	29.935
269.51	30.735
269.88	30.816
270.25	27.646
270.62	28.755
270.99	30.629
271.36	29.675
271.73	25.157
272.10	27.677
272.47	27.183
272.84	27.944
273.21	26.240
273.58	27.935
273.95	26.283
274.32	30.350
274.69	28.937
275.06	28.233
275.43	27.203
275.80	27.358
276.17	27.941
276.54	27.103
276.91	29.291
277.28	26.642
277.65	28.229
278.02	29.596
278.39	27.878
278.76	27.414
279.13	26.335
279.50	26.364
279.87	27.002
280.23	24.862
280.60	27.920
280.97	27.586
281.34	26.568
281.71	27.652
282.08	26.667
282.45	25.845
282.82	25.753
283.19	25.437
283.56	25.620
283.92	27.199
284.29	25.458
284.66	26.723
285.03	27.529
285.40	25.620
285.77	22.840
286.14	26.161
286.51	24.693
286.87	24.367
287.24	24.474
287.61	24.924
287.98	25.522
288.35	23.852
288.72	24.431
289.08	25.676
289.45	24.695
289.82	25.156
290.19	23.280
290.56	25.036
290.93	24.892
291.29	22.238
291.66	21.469
292.03	24.123
292.40	22.087
292.77	22.563
293.13	22.967
293.50	21.323
293.87	21.003
294.24	23.357
294.60	20.996
294.97	23.217
295.34	22.178
295.71	21.419
296.08	22.000
296.44	20.839
296.81	21.216
297.18	20.913
297.55	20.567
297.91	20.690
298.28	20.531
298.65	20.736
299.02	20.748
299.38	20.863
299.75	19.634
300.12	20.183
300.48	19.672
300.85	20.381
301.22	20.465
301.59	18.750
301.95	19.837
302.32	20.605
302.69	20.249
303.05	22.222
303.42	20.067
303.79	20.260
304.15	19.582
304.52	19.873
304.89	19.083
305.25	20.133
305.62	20.043
305.99	19.022
306.35	19.474
306.72	19.459
307.09	19.048
307.45	18.585
307.82	17.695
308.19	18.660
308.55	18.200
308.92	20.118
309.29	18.146
309.65	19.227
310.02	19.270
310.38	17.547
310.75	18.419
311.12	18.774
311.48	19.112
311.85	18.798
312.22	18.434
312.58	19.048
312.95	17.573
313.31	19.288
313.68	17.355
314.05	18.132
314.41	18.436
314.78	17.708
315.14	18.483
315.51	18.165
315.87	17.883
316.24	18.394
316.61	17.726
316.97	17.064
317.34	18.239
317.70	18.964
318.07	18.149
318.43	18.014
318.80	17.863
319.16	17.395
319.53	18.142
319.89	16.667
320.26	17.691
320.62	18.040
320.99	18.398
321.35	17.625
321.72	17.268
322.08	18.098
322.45	17.348
322.81	17.841
323.18	17.496
323.54	18.118
323.91	17.588
324.27	17.330
324.64	16.436
325.00	17.931
325.37	17.201
325.73	16.779
326.10	17.481
326.46	18.249
326.83	17.280
327.19	17.751
327.56	16.534
327.92	17.049
328.29	18.085
328.65	17.894
329.01	18.050
329.38	17.259
329.74	17.079
330.11	17.811
330.47	17.306
330.84	16.221
331.20	17.343
331.56	18.394
331.93	17.536
332.29	15.731
332.66	17.177
333.02	16.495
333.38	17.801
333.75	17.681
334.11	16.695
334.48	17.436
334.84	16.639
335.20	17.109
335.57	16.037
335.93	16.821
336.29	16.667
336.66	17.496
337.02	15.740
337.38	17.713
337.75	17.399
338.11	16.624
338.47	17.189
338.84	16.003
339.20	15.238
339.56	16.484
339.93	16.555
340.29	15.294
340.65	16.848
341.02	17.056
341.38	17.570
341.74	15.532
342.11	15.776
342.47	16.571
342.83	15.915
343.20	16.977
343.56	14.932
343.92	15.442
344.28	16.188
344.65	16.381
345.01	15.317
345.37	16.106
345.73	16.111
346.10	15.458
346.46	16.427
346.82	15.509
347.19	17.002
347.55	14.832
347.91	16.012
348.27	14.717
348.63	15.348
349.00	15.842
349.36	15.953
349.72	15.902
350.08	15.994
350.45	16.756
350.81	15.443
351.17	14.715
351.53	14.858
351.89	16.317
352.26	15.646
352.62	16.063
352.98	15.721
353.34	15.871
353.70	14.297
354.07	15.308
354.43	15.361
354.79	15.110
355.15	15.697
355.51	15.710
355.87	15.211
356.24	16.089
356.60	14.384
356.96	14.177
357.32	15.750
357.68	15.639
358.04	15.805
358.40	16.042
358.77	15.928
359.13	14.339
359.49	15.196
359.85	14.445
360.21	14.413
360.57	15.766
360.93	14.935
361.29	15.079
361.66	16.182
362.02	14.560
362.38	15.512
362.74	14.862
363.10	15.288
363.46	14.019
363.82	15.638
364.18	15.078
364.54	16.094
364.90	15.395
365.26	15.614
365.62	15.608
365.98	14.591
366.35	14.276
366.71	15.128
367.07	14.881
367.43	15.984
367.79	14.827
368.15	14.247
368.51	15.644
368.87	14.334
369.23	15.315
369.59	14.295
369.95	15.315
370.31	14.511
370.67	15.059
371.03	15.196
371.39	14.751
371.75	14.794
372.11	14.956
372.47	15.342
372.83	14.956
373.19	14.805
373.55	15.464
373.91	14.227
374.27	14.220
374.63	14.915
374.99	14.420
375.35	14.919
375.71	15.106
376.07	13.926
376.42	14.578
376.78	14.836
377.14	14.941
377.50	14.482
377.86	14.542
378.22	14.381
378.58	14.649
378.94	14.605
379.30	14.069
379.66	14.690
380.02	14.018
380.38	13.642
380.74	14.245
381.09	14.428
381.45	13.237
381.81	14.303
382.17	14.042
382.53	14.697
382.89	14.607
383.25	13.914
383.61	14.236
383.97	13.017
384.32	14.045
384.68	15.567
385.04	14.537
385.40	14.413
385.76	14.804
386.12	13.667
386.48	14.650
386.83	14.548
387.19	14.134
387.55	14.723
387.91	14.665
388.27	14.218
388.62	14.085
388.98	14.461
389.34	14.337
389.70	14.446
390.06	14.573
390.42	14.621
390.77	14.066
391.13	14.243
391.49	14.519
391.85	14.585
392.20	14.720
392.56	14.695
392.92	14.318
393.28	14.294
393.64	13.188
393.99	13.693
394.35	14.067
394.71	13.752
395.07	13.443
395.42	14.052
395.78	14.744
396.14	14.277
396.50	13.117
396.85	13.780
397.21	13.718
397.57	14.585
397.92	13.634
398.28	13.514
398.64	14.718
399.00	13.789
399.35	14.010
399.71	14.459
400.07	13.927
400.42	13.970
400.78	13.490
401.14	14.093
401.49	13.537
401.85	14.600
402.21	14.353
402.57	13.884
402.92	14.061
403.28	13.723
403.63	14.126
403.99	13.932
404.35	14.889
404.70	14.589
405.06	13.756
405.42	13.764
405.77	13.396
406.13	13.557
406.49	13.587
406.84	13.875
407.20	13.984
407.55	13.846
407.91	14.231
408.27	14.979
408.62	13.779
408.98	13.956
409.34	13.150
409.69	14.126
410.05	13.655
410.40	13.369
410.76	13.852
411.11	13.507
411.47	13.519
411.83	13.708
412.18	13.587
412.54	13.634
412.89	13.510
413.25	14.310
413.60	13.551
413.96	13.704
414.31	13.695
414.67	14.339
415.03	13.665
415.38	13.565
415.74	13.961
416.09	14.179
416.45	14.738
416.80	14.240
417.16	14.195
417.51	14.331
417.87	13.830
418.22	14.824
418.58	13.439
418.93	14.456
419.29	13.555
419.64	14.718
420.00	14.379
420.35	13.821
420.71	13.652
421.06	13.949
421.42	13.759
421.77	14.381
422.12	13.506
422.48	13.457
422.83	14.397
423.19	13.931
423.54	13.988
423.90	14.326
424.25	14.089
424.61	13.755
424.96	13.834
425.31	13.465
425.67	13.636
426.02	13.685
426.38	13.127
426.73	13.302
427.09	13.938
427.44	13.900
427.79	13.665
428.15	14.909
428.50	14.800
428.85	14.521
429.21	14.803
429.56	13.609
429.92	13.625
430.27	13.498
430.62	13.558
430.98	13.822
431.33	13.710
431.68	13.086
432.04	14.485
432.39	14.050
432.74	14.461
433.10	13.455
433.45	13.785
433.80	14.617
434.16	13.715
434.51	13.932
434.86	14.807
435.22	14.371
435.57	14.049
435.92	14.855
436.28	14.459
436.63	14.317
436.98	14.527
437.34	15.411
437.69	13.550
438.04	14.570
438.39	14.419
438.75	14.087
439.10	13.923
439.45	15.150
439.81	15.269
440.16	14.034
440.51	13.964
440.86	15.043
441.22	13.690
441.57	14.016
441.92	14.215
442.27	14.278
442.63	13.465
442.98	14.655
443.33	14.515
443.68	14.789
444.03	14.939
444.39	14.313
444.74	14.286
445.09	13.955
445.44	14.187
445.79	14.230
446.15	14.842
446.50	13.660
446.85	14.243
447.20	14.229
447.55	14.519
447.91	14.811
448.26	14.377
448.61	14.870
448.96	14.216
449.31	14.686
449.66	15.338
450.02	13.992
450.37	14.547
450.72	15.152
451.07	15.474
451.42	15.116
451.77	15.292
452.12	14.861
452.47	15.796
452.83	14.986
453.18	15.195
453.53	15.335
453.88	15.371
454.23	15.398
454.58	15.093
454.93	15.021
455.28	15.483
455.63	14.835
455.98	15.454
456.34	15.380
456.69	15.061
457.04	16.468
457.39	15.029
457.74	15.315
458.09	15.385
458.44	14.841
458.79	15.066
459.14	14.839
459.49	15.515
459.84	15.380
460.19	15.650
460.54	15.385
460.89	15.032
461.24	14.490
461.59	15.646
461.94	14.716
462.29	15.160
462.64	15.892
462.99	15.867
463.34	16.073
463.69	16.757
464.04	15.314
464.39	15.512
464.74	15.182
465.09	15.438
465.44	15.452
465.79	15.188
466.14	15.686
466.49	15.247
466.84	15.663
467.19	15.524
467.54	15.736
467.89	15.904
468.24	15.460
468.59	15.060
468.94	15.640
469.29	15.761
469.64	15.756
469.99	15.874
470.34	16.572
470.68	16.000
471.03	16.478
471.38	16.689
471.73	16.133
472.08	16.830
472.43	16.325
472.78	16.133
473.13	15.332
473.48	16.443
473.83	16.196
474.17	16.292
474.52	15.284
474.87	15.861
475.22	15.934
475.57	15.058
475.92	15.023
476.27	14.635
476.61	15.013
476.96	15.778
477.31	16.093
477.66	15.942
478.01	15.781
478.36	16.220
478.70	15.434
479.05	15.324
479.40	15.476
479.75	16.783
480.10	15.586
480.45	14.893
480.79	15.530
481.14	15.169
481.49	15.142
481.84	15.172
482.19	15.284
482.53	15.415
482.88	15.412
483.23	15.246
483.58	15.575
483.92	16.179
484.27	15.753
484.62	15.238
484.97	14.686
485.31	14.301
485.66	13.943
486.01	13.318
486.36	13.220
486.70	13.184
487.05	13.604
487.40	14.055
487.75	14.160
488.09	14.148
488.44	14.149
488.79	13.988
489.13	14.894
489.48	15.461
489.83	15.096
490.17	15.896
490.52	15.289
490.87	15.302
491.22	16.179
491.56	16.206
491.91	15.188
492.26	15.857
492.60	15.490
492.95	14.998
493.30	15.924
493.64	15.858
493.99	16.458
494.34	16.002
494.68	15.582
495.03	16.435
495.37	15.894
495.72	16.177
496.07	15.454
496.41	15.856
496.76	16.547
497.11	15.596
497.45	15.432
497.80	16.126
498.14	16.043
498.49	16.156
498.84	16.449
499.18	15.219
499.53	15.939
499.87	15.813
500.22	15.707
500.56	16.481
500.91	16.744
501.26	16.399
501.60	15.392
501.95	15.995
502.29	15.556
502.64	15.571
502.98	15.607
503.33	15.813
503.67	16.026
504.02	15.226
504.36	15.928
504.71	16.320
505.06	16.424
505.40	16.799
505.75	15.809
506.09	16.426
506.44	15.977
506.78	16.399
507.13	16.287
507.47	16.303
507.82	16.886
508.16	17.148
508.51	16.618
508.85	16.097
509.19	17.083
509.54	16.699
509.88	16.609
510.23	16.667
510.57	16.120
510.92	17.133
511.26	16.416
511.61	16.297
511.95	17.571
512.30	17.100
512.64	15.940
512.98	16.351
513.33	16.752
513.67	16.882
514.02	16.623
514.36	16.771
514.70	16.640
515.05	16.782
515.39	17.379
515.74	16.785
516.08	17.593
516.42	17.432
516.77	16.960
517.11	16.747
517.46	17.457
517.80	16.876
518.14	18.197
518.49	16.979
518.83	16.374
519.17	16.639
519.52	17.531
519.86	17.112
520.20	17.425
520.55	17.411
520.89	17.586
521.23	17.290
521.58	16.810
521.92	17.026
522.26	17.239
522.61	17.528
522.95	17.598
523.29	18.129
523.64	16.590
523.98	18.369
524.32	17.243
524.66	17.391
525.01	18.047
525.35	17.384
525.69	18.663
526.04	18.322
526.38	17.893
526.72	18.258
527.06	16.795
527.41	19.287
527.75	17.712
528.09	17.098
528.43	18.060
528.78	17.889
529.12	17.279
529.46	16.891
529.80	17.582
530.15	17.855
530.49	16.968
530.83	17.733
531.17	17.097
531.51	18.148
531.86	17.572
532.20	16.007
532.54	17.326
532.88	17.177
533.22	18.221
533.57	17.450
533.91	16.841
534.25	16.619
534.59	17.368
534.93	16.780
535.27	17.131
535.62	16.744
535.96	16.785
536.30	17.489
536.64	16.335
536.98	17.369
537.32	17.250
537.66	17.092
538.01	17.957
538.35	18.278
538.69	16.505
539.03	16.604
539.37	17.051
539.71	17.284
540.05	17.477
540.39	17.925
540.73	17.215
541.07	17.754
541.42	16.729
541.76	16.769
542.10	17.386
542.44	17.706
542.78	17.495
543.12	16.564
543.46	16.604
543.80	17.231
544.14	17.461
544.48	17.092
544.82	17.187
545.16	17.122
545.50	18.132
545.84	17.614
546.18	17.815
546.52	17.902
546.86	17.988
547.20	16.990
547.54	16.656
547.88	17.457
548.22	17.061
548.56	16.559
548.90	17.319
549.24	17.435
549.58	17.010
549.92	17.092
550.26	17.444
550.60	17.232
550.94	17.436
551.28	18.345
551.62	17.172
551.96	17.500
552.30	17.337
552.64	18.058
552.98	16.559
553.32	16.773
553.66	16.547
554.00	17.375
554.34	17.843
554.68	17.944
555.02	17.515
555.36	17.287
555.69	17.277
556.03	17.261
556.37	16.762
556.71	18.188
557.05	16.383
557.39	17.333
557.73	17.655
558.07	19.316
558.41	18.026
558.75	17.784
559.08	18.370
559.42	18.325
559.76	18.389
560.10	18.032
560.44	17.452
560.78	18.542
561.12	17.864
561.45	17.835
561.79	16.792
562.13	16.740
562.47	17.391
562.81	17.827
563.15	17.065
563.48	16.025
563.82	18.029
564.16	16.667
564.50	16.576
564.84	17.325
565.17	17.706
565.51	17.796
565.85	17.643
566.19	17.560
566.52	17.449
566.86	17.747
567.20	17.247
567.54	16.048
567.88	17.684
568.21	16.326
568.55	16.196
568.89	16.104
569.23	15.531
569.56	15.256
569.90	15.092
570.24	14.446
570.57	14.504
570.91	14.165
571.25	14.591
571.59	13.847
571.92	13.671
572.26	13.154
572.60	13.441
572.93	14.290
573.27	13.670
573.61	13.644
573.95	13.272
574.28	13.548
574.62	13.204
574.96	13.314
575.29	13.199
575.63	13.074
575.97	12.877
576.30	13.009
576.64	13.306
576.98	13.141
577.31	13.371
577.65	13.286
577.98	12.661
578.32	12.502
578.66	12.967
578.99	13.258
579.33	13.058
579.67	13.016
580.00	12.749
580.34	12.763
580.67	12.707
581.01	13.364
581.35	12.980
581.68	12.459
582.02	12.638
582.35	12.448
582.69	13.025
583.02	12.941
583.36	13.183
583.70	13.419
584.03	13.398
584.37	13.478
584.70	13.237
585.04	12.943
585.37	12.940
585.71	12.899
586.04	13.249
586.38	13.311
586.72	13.308
587.05	13.845
587.39	13.578
587.72	13.711
588.06	13.658
588.39	13.511
588.73	13.838
589.06	13.890
589.40	14.304
589.73	14.028
590.07	14.345
590.40	14.774
590.73	14.726
591.07	15.332
591.40	14.810
591.74	14.732
592.07	14.434
592.41	15.308
592.74	14.171
593.08	13.802
593.41	13.615
593.75	13.675
594.08	14.167
594.41	14.174
594.75	14.521
595.08	14.678
595.42	14.286
595.75	13.886
596.09	14.564
596.42	14.421
596.75	15.545
597.09	15.394
597.42	14.898
597.75	14.483
598.09	14.895
598.42	15.177
598.76	15.035
599.09	14.895
599.42	14.671
599.76	14.247
600.09	13.898
600.42	14.365
600.76	14.616
601.09	14.912
601.42	13.798
601.76	14.142
602.09	15.232
602.42	14.677
602.76	14.763
603.09	14.555
603.42	14.862
603.76	14.100
604.09	14.441
604.42	14.614
604.76	14.461
605.09	14.857
605.42	14.425
605.75	14.607
606.09	14.461
606.42	14.393
606.75	14.924
607.09	14.291
607.42	14.383
607.75	15.207
608.08	14.744
608.42	15.059
608.75	15.062
609.08	14.562
609.41	15.545
609.75	14.973
610.08	15.468
610.41	15.108
610.74	15.065
611.07	15.280
611.41	15.894
611.74	15.392
612.07	15.366
612.40	15.692
612.73	15.527
613.07	15.459
613.40	16.591
613.73	15.427
614.06	15.750
614.39	16.010
614.72	15.620
615.06	14.886
615.39	15.594
615.72	15.053
616.05	15.972
616.38	15.779
616.71	16.007
617.05	15.706
617.38	16.011
617.71	16.254
618.04	16.096
618.37	16.732
618.70	16.397
619.03	15.751
619.36	17.211
619.69	16.557
620.03	18.069
620.36	17.534
620.69	17.944
621.02	18.478
621.35	17.479
621.68	16.814
622.01	18.007
622.34	17.043
622.67	17.486
623.00	17.018
623.33	18.084
623.66	17.565
623.99	17.671
624.32	17.480
624.65	16.261
624.99	16.971
625.32	17.635
625.65	16.414
625.98	16.179
626.31	18.249
626.64	17.920
626.97	18.822
627.30	18.634
627.63	17.975
627.96	17.293
628.29	18.647
628.62	17.879
628.95	20.035
629.28	19.807
629.61	19.332
629.94	19.533
630.26	19.671
630.59	20.656
630.92	20.000
631.25	19.220
