SpectraSuite Data File
++++++++++++++++++++++++++++++++++++
Date: Tue May 12 17:11:37 PDT 2015
User: schluterlab
Dark Spectrum Present: Yes
Reference Spectrum Present: Yes
Number of Sampled Component Spectra: 1
Spectrometers: USB2E3373
Integration Time (usec): 3000 (USB2E3373)
Spectra Averaged: 3 (USB2E3373)
Boxcar Smoothing: 0 (USB2E3373)
Correct for Electrical Dark: No (USB2E3373)
Strobe/Lamp Enabled: No (USB2E3373)
Correct for Detector Non-linearity: No (USB2E3373)
Correct for Stray Light: No (USB2E3373)
Number of Pixels in Processed Spectrum: 2048
>>>>>Begin Processed Spectral Data<<<<<
178.53	0.000
178.91	-233.333
179.29	-525.000
179.67	-3700.000
180.04	-166.667
180.42	550.000
180.80	1800.000
181.18	0.000
181.56	-387.500
181.94	0.000
182.31	1000.000
182.69	-3300.000
183.07	542.857
183.45	-2700.000
183.83	-1350.000
184.20	360.000
184.58	500.000
184.96	-138.462
185.34	-150.000
185.72	1600.000
186.09	-950.000
186.47	-2200.000
186.85	1200.000
187.23	600.000
187.61	1300.000
187.98	425.000
188.36	200.000
188.74	316.667
189.12	283.333
189.49	825.000
189.87	0.000
190.25	412.500
190.63	2500.000
191.00	-225.000
191.38	-2600.000
191.76	-625.000
192.14	450.000
192.51	-3500.000
192.89	2200.000
193.27	1166.667
193.65	-1100.000
194.02	-700.000
194.40	585.714
194.78	-200.000
195.15	260.000
195.53	-3800.000
195.91	-620.000
196.29	3100.000
196.66	225.000
197.04	875.000
197.42	-1050.000
197.79	650.000
198.17	275.000
198.55	0.000
198.92	471.429
199.30	1133.333
199.68	1700.000
200.05	533.333
200.43	-416.667
200.81	216.667
201.18	2900.000
201.56	258.333
201.94	-625.000
202.31	-262.500
202.69	-580.000
203.07	2700.000
203.44	-383.333
203.82	400.000
204.19	760.000
204.57	-1000.000
204.95	-900.000
205.32	-680.000
205.70	400.000
206.08	525.000
206.45	-666.667
206.83	455.556
207.20	168.421
207.58	191.667
207.96	720.000
208.33	0.000
208.71	557.143
209.08	720.000
209.46	-2900.000
209.84	-825.000
210.21	540.000
210.59	-520.000
210.96	275.000
211.34	-725.000
211.71	263.636
212.09	750.000
212.46	2050.000
212.84	-483.333
213.22	400.000
213.59	-2800.000
213.97	370.000
214.34	850.000
214.72	1233.333
215.09	1166.667
215.47	-2300.000
215.84	-330.000
216.22	-312.500
216.59	0.000
216.97	0.000
217.34	1250.000
217.72	-1300.000
218.09	1133.333
218.47	387.500
218.84	925.000
219.22	1033.333
219.59	1166.667
219.97	500.000
220.34	433.333
220.72	1750.000
221.09	3500.000
221.47	275.000
221.84	700.000
222.22	340.000
222.59	188.889
222.97	200.000
223.34	175.000
223.72	-1550.000
224.09	1333.333
224.46	276.923
224.84	-800.000
225.21	300.000
225.59	286.667
225.96	1300.000
226.34	-860.000
226.71	-675.000
227.08	-580.000
227.46	0.000
227.83	-450.000
228.21	-1700.000
228.58	358.333
228.95	875.000
229.33	277.778
229.70	1025.000
230.08	315.385
230.45	2800.000
230.82	-775.000
231.20	-566.667
231.57	-1033.333
231.95	720.000
232.32	283.333
232.69	416.667
233.07	275.000
233.44	-1200.000
233.81	246.667
234.19	151.852
234.56	206.250
234.93	188.235
235.31	185.000
235.68	225.000
236.05	125.000
236.43	133.333
236.80	207.143
237.17	179.310
237.55	103.125
237.92	117.500
238.29	130.303
238.67	128.125
239.04	78.049
239.41	75.000
239.79	100.000
240.16	77.083
240.53	86.885
240.91	65.217
241.28	66.102
241.65	66.667
242.02	61.972
242.40	51.429
242.77	61.538
243.14	60.759
243.51	68.687
243.89	57.009
244.26	43.925
244.63	45.545
245.00	40.367
245.38	39.831
245.75	40.909
246.12	42.963
246.49	39.716
246.87	41.803
247.24	43.333
247.61	38.125
247.98	39.456
248.36	29.697
248.73	39.796
249.10	35.119
249.47	33.000
249.84	33.831
250.22	40.000
250.59	29.500
250.96	31.646
251.33	33.953
251.70	34.375
252.08	34.034
252.45	25.498
252.82	27.376
253.19	26.877
253.56	29.231
253.94	27.899
254.31	25.581
254.68	30.314
255.05	28.966
255.42	26.642
255.79	25.081
256.16	29.492
256.54	25.325
256.91	24.837
257.28	24.749
257.65	22.884
258.02	25.664
258.39	22.063
258.76	24.058
259.14	22.000
259.51	27.697
259.88	24.924
260.25	23.077
260.62	25.479
260.99	21.212
261.36	25.348
261.73	23.138
262.10	23.560
262.47	22.000
262.85	24.000
263.22	26.992
263.59	19.182
263.96	24.060
264.33	21.235
264.70	23.833
265.07	23.171
265.44	24.312
265.81	21.698
266.18	22.654
266.55	22.459
266.92	23.490
267.29	24.561
267.66	20.852
268.03	22.197
268.40	23.044
268.77	25.110
269.14	21.258
269.51	21.826
269.88	21.633
270.25	20.950
270.62	22.747
270.99	24.544
271.36	20.935
271.73	20.335
272.10	20.000
272.47	23.016
272.84	22.156
273.21	19.215
273.58	22.065
273.95	21.766
274.32	21.401
274.69	23.622
275.06	22.040
275.43	23.180
275.80	21.887
276.17	22.426
276.54	22.991
276.91	25.373
277.28	21.350
277.65	21.956
278.02	22.243
278.39	21.223
278.76	22.759
279.13	21.352
279.50	22.545
279.87	18.436
280.23	19.890
280.60	22.080
280.97	21.379
281.34	20.627
281.71	22.261
282.08	24.103
282.45	21.115
282.82	22.241
283.19	21.781
283.56	22.479
283.92	21.824
284.29	19.634
284.66	20.336
285.03	22.554
285.40	20.165
285.77	21.759
286.14	23.220
286.51	22.393
286.87	21.203
287.24	17.718
287.61	20.973
287.98	21.791
288.35	20.296
288.72	22.003
289.08	22.372
289.45	21.951
289.82	23.906
290.19	21.083
290.56	22.562
290.93	22.158
291.29	20.442
291.66	22.599
292.03	22.160
292.40	20.325
292.77	21.170
293.13	22.825
293.50	22.267
293.87	20.867
294.24	22.797
294.60	22.342
294.97	21.678
295.34	21.780
295.71	22.996
296.08	23.867
296.44	24.524
296.81	22.705
297.18	21.420
297.55	24.138
297.91	21.552
298.28	23.309
298.65	22.699
299.02	23.884
299.38	22.542
299.75	21.585
300.12	22.706
300.48	25.878
300.85	23.838
301.22	22.674
301.59	23.821
301.95	22.987
302.32	23.981
302.69	22.964
303.05	26.824
303.42	22.870
303.79	25.352
304.15	24.642
304.52	23.362
304.89	24.414
305.25	24.583
305.62	25.160
305.99	24.674
306.35	24.737
306.72	25.911
307.09	25.362
307.45	24.604
307.82	24.794
308.19	25.876
308.55	25.000
308.92	26.693
309.29	26.233
309.65	26.858
310.02	27.282
310.38	26.321
310.75	27.194
311.12	25.096
311.48	29.054
311.85	28.531
312.22	26.743
312.58	29.057
312.95	28.447
313.31	29.120
313.68	28.424
314.05	29.487
314.41	29.050
314.78	29.545
315.14	29.763
315.51	29.801
315.87	29.562
316.24	29.505
316.61	29.633
316.97	30.550
317.34	31.267
317.70	31.519
318.07	32.206
318.43	32.513
318.80	32.049
319.16	34.266
319.53	32.212
319.89	31.452
320.26	35.102
320.62	34.615
320.99	34.986
321.35	34.230
321.72	35.104
322.08	36.011
322.45	36.694
322.81	35.407
323.18	36.234
323.54	37.369
323.91	37.534
324.27	37.312
324.64	36.246
325.00	39.483
325.37	37.605
325.73	39.039
326.10	39.105
326.46	38.563
326.83	38.960
327.19	39.920
327.56	38.259
327.92	40.820
328.29	40.507
328.65	40.068
329.01	40.719
329.38	40.271
329.74	39.710
330.11	41.442
330.47	40.750
330.84	39.258
331.20	41.963
331.56	41.451
331.93	41.146
332.29	39.286
332.66	41.837
333.02	39.261
333.38	42.932
333.75	40.367
334.11	39.933
334.48	40.171
334.84	39.865
335.20	42.173
335.57	40.302
335.93	39.865
336.29	40.133
336.66	41.681
337.02	40.376
337.38	41.445
337.75	40.541
338.11	42.616
338.47	40.898
338.84	41.406
339.20	39.481
339.56	40.706
339.93	40.552
340.29	38.824
340.65	41.324
341.02	41.271
341.38	41.544
341.74	39.950
342.11	39.733
342.47	40.607
342.83	40.279
343.20	40.663
343.56	39.555
343.92	40.050
344.28	40.271
344.65	40.668
345.01	40.556
345.37	39.583
345.73	40.476
346.10	41.116
346.46	41.627
346.82	40.123
347.19	40.726
347.55	40.984
347.91	38.746
348.27	40.434
348.63	40.665
349.00	41.508
349.36	42.179
349.72	41.437
350.08	40.761
350.45	41.280
350.81	41.437
351.17	40.293
351.53	40.570
351.89	40.171
352.26	40.741
352.62	41.026
352.98	41.104
353.34	41.063
353.70	40.520
354.07	41.538
354.43	41.705
354.79	39.939
355.15	41.118
355.51	41.314
355.87	42.169
356.24	42.263
356.60	41.172
356.96	40.788
357.32	40.844
357.68	41.850
358.04	41.717
358.40	41.379
358.77	42.224
359.13	42.568
359.49	41.364
359.85	42.740
360.21	41.233
360.57	42.044
360.93	42.569
361.29	43.146
361.66	42.356
362.02	42.543
362.38	43.146
362.74	41.826
363.10	42.146
363.46	42.196
363.82	43.198
364.18	43.385
364.54	42.847
364.90	42.771
365.26	43.858
365.62	42.956
365.98	41.225
366.35	42.207
366.71	43.650
367.07	43.413
367.43	43.049
367.79	43.285
368.15	42.741
368.51	44.176
368.87	43.139
369.23	43.867
369.59	43.156
369.95	45.385
370.31	43.737
370.67	44.691
371.03	44.188
371.39	44.183
371.75	44.173
372.11	44.188
372.47	44.247
372.83	44.935
373.19	44.140
373.55	44.811
373.91	44.475
374.27	44.841
374.63	44.678
374.99	45.485
375.35	44.556
375.71	44.657
376.07	44.960
376.42	43.286
376.78	44.958
377.14	44.561
377.50	44.632
377.86	45.356
378.22	45.034
378.58	44.794
378.94	45.383
379.30	45.240
379.66	45.515
380.02	45.103
380.38	45.082
380.74	46.713
381.09	46.554
381.45	45.434
381.81	44.563
382.17	45.482
382.53	45.711
382.89	46.363
383.25	46.181
383.61	45.533
383.97	44.631
384.32	45.750
384.68	46.583
385.04	45.780
385.40	45.136
385.76	46.284
386.12	45.949
386.48	46.322
386.83	46.699
387.19	46.231
387.55	45.347
387.91	46.998
388.27	47.472
388.62	46.362
388.98	46.297
389.34	46.282
389.70	45.696
390.06	46.951
390.42	45.898
390.77	46.867
391.13	47.978
391.49	46.461
391.85	46.954
392.20	46.961
392.56	47.192
392.92	46.940
393.28	45.852
393.64	45.585
393.99	45.999
394.35	46.263
394.71	45.476
395.07	45.620
395.42	47.892
395.78	47.378
396.14	47.349
396.50	47.292
396.85	46.037
397.21	47.774
397.57	45.846
397.92	45.812
398.28	46.498
398.64	46.713
399.00	46.392
399.35	45.625
399.71	45.751
400.07	45.776
400.42	46.627
400.78	47.390
401.14	46.858
401.49	46.141
401.85	45.886
402.21	45.343
402.57	46.439
402.92	46.788
403.28	45.943
403.63	46.027
403.99	46.019
404.35	46.249
404.70	46.781
405.06	45.929
405.42	46.978
405.77	45.535
406.13	45.607
406.49	45.480
406.84	45.121
407.20	45.434
407.55	46.215
407.91	45.820
408.27	46.028
408.62	45.772
408.98	45.299
409.34	45.529
409.69	46.173
410.05	46.273
410.40	44.876
410.76	45.965
411.11	45.320
411.47	45.432
411.83	44.991
412.18	45.048
412.54	45.646
412.89	43.658
413.25	45.553
413.60	44.977
413.96	45.003
414.31	45.041
414.67	45.624
415.03	44.955
415.38	45.741
415.74	45.925
416.09	44.909
416.45	46.218
416.80	45.093
417.16	45.321
417.51	44.586
417.87	45.932
418.22	44.532
418.58	45.541
418.93	45.687
419.29	43.931
419.64	45.851
420.00	46.122
420.35	45.993
420.71	44.107
421.06	45.615
421.42	44.905
421.77	46.308
422.12	45.314
422.48	43.708
422.83	45.536
423.19	45.356
423.54	44.707
423.90	45.130
424.25	45.845
424.61	45.502
424.96	44.438
425.31	45.047
425.67	46.072
426.02	45.597
426.38	45.158
426.73	44.939
427.09	45.492
427.44	44.513
427.79	45.569
428.15	46.199
428.50	45.200
428.85	45.914
429.21	44.462
429.56	44.267
429.92	44.903
430.27	44.074
430.62	43.172
430.98	43.812
431.33	43.649
431.68	43.654
432.04	44.025
432.39	45.445
432.74	45.609
433.10	44.684
433.45	45.606
433.80	45.560
434.16	45.139
434.51	44.634
434.86	45.019
435.22	43.220
435.57	44.161
435.92	45.304
436.28	45.219
436.63	44.516
436.98	45.214
437.34	44.977
437.69	43.449
438.04	44.839
438.39	44.308
438.75	44.042
439.10	45.062
439.45	43.527
439.81	44.419
440.16	44.194
440.51	45.158
440.86	45.299
441.22	44.210
441.57	44.147
441.92	44.669
442.27	43.660
442.63	43.852
442.98	43.319
443.33	44.189
443.68	44.567
444.03	44.204
444.39	44.068
444.74	44.306
445.09	44.128
445.44	42.880
445.79	44.591
446.15	43.789
446.50	43.565
446.85	44.273
447.20	42.587
447.55	43.774
447.91	44.166
448.26	43.397
448.61	44.334
448.96	44.390
449.31	44.884
449.66	44.961
450.02	43.598
450.37	44.420
450.72	45.014
451.07	44.095
451.42	43.924
451.77	44.387
452.12	44.073
452.47	44.532
452.83	44.958
453.18	44.565
453.53	45.826
453.88	45.257
454.23	44.916
454.58	44.231
454.93	44.083
455.28	44.431
455.63	44.031
455.98	43.880
456.34	45.350
456.69	44.878
457.04	44.869
457.39	44.171
457.74	45.327
458.09	43.234
458.44	44.195
458.79	43.926
459.14	43.644
459.49	43.205
459.84	43.641
460.19	43.842
460.54	43.875
460.89	44.030
461.24	42.898
461.59	44.388
461.94	43.853
462.29	43.364
462.64	45.038
462.99	43.762
463.34	44.135
463.69	44.223
464.04	44.444
464.39	42.587
464.74	42.321
465.09	43.180
465.44	42.492
465.79	42.842
466.14	42.395
466.49	42.377
466.84	43.813
467.19	43.409
467.54	42.222
467.89	42.958
468.24	41.749
468.59	43.452
468.94	44.022
469.29	43.067
469.64	43.280
469.99	43.573
470.34	43.896
470.68	43.931
471.03	44.296
471.38	42.583
471.73	44.611
472.08	44.097
472.43	44.196
472.78	44.046
473.13	42.741
473.48	43.643
473.83	43.522
474.17	42.675
474.52	42.536
474.87	41.899
475.22	43.518
475.57	42.917
475.92	42.872
476.27	42.329
476.61	43.164
476.96	42.999
477.31	42.828
477.66	42.727
478.01	42.084
478.36	42.225
478.70	40.645
479.05	42.573
479.40	42.113
479.75	42.502
480.10	42.014
480.45	42.204
480.79	41.705
481.14	42.273
481.49	41.537
481.84	41.513
482.19	41.310
482.53	40.141
482.88	40.815
483.23	40.911
483.58	41.876
483.92	41.545
484.27	40.839
484.62	41.511
484.97	40.047
485.31	39.170
485.66	37.876
486.01	37.649
486.36	37.316
486.70	37.284
487.05	36.975
487.40	38.272
487.75	38.511
488.09	38.210
488.44	38.528
488.79	38.771
489.13	39.567
489.48	39.952
489.83	39.658
490.17	39.678
490.52	40.353
490.87	40.129
491.22	40.824
491.56	39.877
491.91	39.516
492.26	39.510
492.60	41.230
492.95	39.556
493.30	40.218
493.64	39.757
493.99	41.011
494.34	40.117
494.68	40.815
495.03	40.368
495.37	39.532
495.72	40.140
496.07	39.623
496.41	38.488
496.76	39.806
497.11	40.274
497.45	39.369
497.80	39.944
498.14	39.667
498.49	40.158
498.84	40.701
499.18	38.848
499.53	38.447
499.87	39.308
500.22	39.936
500.56	38.347
500.91	39.332
501.26	39.412
501.60	39.253
501.95	38.934
502.29	38.356
502.64	38.553
502.98	38.417
503.33	38.842
503.67	37.969
504.02	38.603
504.36	39.095
504.71	39.167
505.06	38.949
505.40	39.354
505.75	38.681
506.09	38.077
506.44	38.628
506.78	38.563
507.13	38.875
507.47	38.574
507.82	39.367
508.16	39.392
508.51	39.275
508.85	38.794
509.19	38.326
509.54	38.379
509.88	38.836
510.23	38.578
510.57	37.114
510.92	38.212
511.26	39.106
511.61	38.208
511.95	37.929
512.30	38.100
512.64	38.577
512.98	38.186
513.33	38.576
513.67	37.649
514.02	38.857
514.36	38.422
514.70	38.293
515.05	37.666
515.39	39.748
515.74	39.694
516.08	38.671
516.42	39.344
516.77	39.627
517.11	38.827
517.46	38.362
517.80	38.667
518.14	39.718
518.49	39.140
518.83	37.308
519.17	38.380
519.52	38.667
519.86	38.747
520.20	38.356
520.55	37.875
520.89	38.161
521.23	39.428
521.58	37.923
521.92	38.601
522.26	37.855
522.61	39.335
522.95	38.559
523.29	38.538
523.64	37.803
523.98	38.615
524.32	37.774
524.66	38.145
525.01	37.988
525.35	38.008
525.69	37.568
526.04	38.013
526.38	37.669
526.72	37.232
527.06	37.197
527.41	39.057
527.75	37.371
528.09	38.110
528.43	38.560
528.78	38.223
529.12	38.591
529.46	37.580
529.80	37.266
530.15	37.301
530.49	36.823
530.83	38.208
531.17	37.700
531.51	37.278
531.86	37.258
532.20	36.959
532.54	37.602
532.88	37.352
533.22	37.599
533.57	37.767
533.91	35.897
534.25	36.122
534.59	36.842
534.93	36.177
535.27	35.344
535.62	36.873
535.96	37.352
536.30	37.843
536.64	37.826
536.98	36.060
537.32	36.312
537.66	36.224
538.01	36.471
538.35	35.995
538.69	36.347
539.03	36.629
539.37	36.286
539.71	35.802
540.05	35.015
540.39	37.044
540.73	37.089
541.07	35.383
541.42	35.697
541.76	35.573
542.10	34.464
542.44	35.474
542.78	35.305
543.12	35.031
543.46	35.589
543.80	34.774
544.14	36.409
544.48	36.314
544.82	35.963
545.16	34.730
545.50	35.341
545.84	35.669
546.18	37.061
546.52	36.197
546.86	35.332
547.20	34.625
547.54	34.706
547.88	34.915
548.22	34.123
548.56	34.060
548.90	34.520
549.24	34.744
549.58	35.245
549.92	34.905
550.26	35.565
550.60	33.599
550.94	34.871
551.28	35.448
551.62	35.241
551.96	34.054
552.30	32.894
552.64	34.951
552.98	34.343
553.32	33.483
553.66	34.397
554.00	35.328
554.34	35.220
554.68	33.804
555.02	34.420
555.36	33.710
555.69	33.377
556.03	33.694
556.37	33.588
556.71	34.615
557.05	33.159
557.39	34.133
557.73	33.895
558.07	33.937
558.41	33.927
558.75	34.542
559.08	34.954
559.42	34.646
559.76	34.070
560.10	34.067
560.44	33.709
560.78	33.376
561.12	33.439
561.45	32.666
561.79	32.647
562.13	32.407
562.47	32.771
562.81	32.661
563.15	33.549
563.48	32.050
563.82	33.063
564.16	33.582
564.50	32.369
564.84	32.644
565.17	32.204
565.51	33.251
565.85	33.991
566.19	32.083
566.52	32.190
566.86	31.991
567.20	32.416
567.54	31.277
567.88	31.716
568.21	29.506
568.55	30.545
568.89	30.657
569.23	29.983
569.56	30.431
569.90	29.213
570.24	28.518
570.57	28.585
570.91	28.050
571.25	27.966
571.59	27.721
571.92	27.583
572.26	26.685
572.60	26.909
572.93	27.746
573.27	27.771
573.61	26.936
573.95	27.540
574.28	27.145
574.62	26.619
574.96	26.130
575.29	26.556
575.63	26.172
575.97	26.120
576.30	25.968
576.64	26.685
576.98	26.143
577.31	26.965
577.65	26.239
577.98	25.900
578.32	25.756
578.66	26.205
578.99	26.159
579.33	26.274
579.67	26.287
580.00	26.003
580.34	25.592
580.67	25.324
581.01	26.136
581.35	25.701
581.68	24.901
582.02	25.225
582.35	25.297
582.69	25.405
583.02	25.081
583.36	25.902
583.70	26.124
584.03	26.224
584.37	26.376
584.70	26.001
585.04	24.839
585.37	25.248
585.71	25.798
586.04	25.187
586.38	25.473
586.72	25.354
587.05	26.171
587.39	25.563
587.72	25.762
588.06	25.652
588.39	25.486
588.73	26.233
589.06	25.970
589.40	26.510
589.73	26.581
590.07	26.493
590.40	27.282
590.73	27.506
591.07	26.641
591.40	27.106
591.74	27.192
592.07	26.622
592.41	26.739
592.74	25.888
593.08	25.488
593.41	25.165
593.75	25.593
594.08	25.439
594.41	25.676
594.75	25.993
595.08	25.789
595.42	25.774
595.75	25.666
596.09	26.138
596.42	25.929
596.75	27.524
597.09	26.744
597.42	26.735
597.75	26.085
598.09	25.975
598.42	25.663
598.76	25.598
599.09	26.076
599.42	24.983
599.76	25.678
600.09	25.492
600.42	25.587
600.76	25.663
601.09	25.371
601.42	25.202
601.76	25.206
602.09	25.791
602.42	24.473
602.76	25.731
603.09	26.244
603.42	25.615
603.76	25.380
604.09	24.900
604.42	24.859
604.76	25.642
605.09	26.163
605.42	25.518
605.75	25.266
606.09	25.478
606.42	25.028
606.75	25.262
607.09	25.424
607.42	25.030
607.75	25.119
608.08	25.223
608.42	25.965
608.75	25.075
609.08	24.945
609.41	25.682
609.75	25.733
610.08	25.719
610.41	25.648
610.74	26.017
611.07	26.512
611.41	25.672
611.74	25.860
612.07	26.012
612.40	25.585
612.73	26.211
613.07	25.950
613.40	26.216
613.73	26.610
614.06	24.850
614.39	26.313
614.72	25.213
615.06	24.975
615.39	25.495
615.72	25.121
616.05	25.716
616.38	25.165
616.71	26.153
617.05	25.645
617.38	25.618
617.71	26.772
618.04	26.472
618.37	25.181
618.70	26.039
619.03	26.923
619.36	27.261
619.69	26.649
620.03	27.593
620.36	27.296
620.69	27.522
621.02	27.242
621.35	28.009
621.68	27.950
622.01	28.561
622.34	26.803
622.67	27.317
623.00	27.774
623.33	27.260
623.66	27.146
623.99	27.808
624.32	27.033
624.65	27.123
624.99	27.248
625.32	27.589
625.65	26.759
625.98	26.569
626.31	27.448
626.64	27.715
626.97	27.544
627.30	27.407
627.63	27.943
627.96	26.526
628.29	27.970
628.62	26.946
628.95	28.280
629.28	28.834
629.61	28.647
629.94	28.436
630.26	28.943
630.59	28.901
630.92	28.161
631.25	28.015
