SpectraSuite Data File
++++++++++++++++++++++++++++++++++++
Date: Tue May 12 16:52:06 PDT 2015
User: schluterlab
Dark Spectrum Present: Yes
Reference Spectrum Present: Yes
Number of Sampled Component Spectra: 1
Spectrometers: USB2E3373
Integration Time (usec): 3000 (USB2E3373)
Spectra Averaged: 3 (USB2E3373)
Boxcar Smoothing: 0 (USB2E3373)
Correct for Electrical Dark: No (USB2E3373)
Strobe/Lamp Enabled: No (USB2E3373)
Correct for Detector Non-linearity: No (USB2E3373)
Correct for Stray Light: No (USB2E3373)
Number of Pixels in Processed Spectrum: 2048
>>>>>Begin Processed Spectral Data<<<<<
178.53	0.000
178.91	-216.667
179.29	-600.000
179.67	-3900.000
180.04	-133.333
180.42	625.000
180.80	1650.000
181.18	0.000
181.56	-350.000
181.94	0.000
182.31	1133.333
182.69	-2400.000
183.07	557.143
183.45	-3800.000
183.83	-1650.000
184.20	380.000
184.58	500.000
184.96	-276.923
185.34	-225.000
185.72	1500.000
186.09	-925.000
186.47	-2800.000
186.85	1200.000
187.23	720.000
187.61	2000.000
187.98	487.500
188.36	242.857
188.74	350.000
189.12	350.000
189.49	850.000
189.87	0.000
190.25	475.000
190.63	2300.000
191.00	-300.000
191.38	-3200.000
191.76	-750.000
192.14	612.500
192.51	-2300.000
192.89	1850.000
193.27	1200.000
193.65	-966.667
194.02	-700.000
194.40	371.429
194.78	-228.571
195.15	260.000
195.53	-3500.000
195.91	-620.000
196.29	4000.000
196.66	293.750
197.04	800.000
197.42	-1400.000
197.79	575.000
198.17	333.333
198.55	0.000
198.92	471.429
199.30	1266.667
199.68	1700.000
200.05	550.000
200.43	-350.000
200.81	233.333
201.18	3300.000
201.56	333.333
201.94	-675.000
202.31	-300.000
202.69	-460.000
203.07	3600.000
203.44	-450.000
203.82	300.000
204.19	720.000
204.57	-1100.000
204.95	-775.000
205.32	-660.000
205.70	516.667
206.08	875.000
206.45	-600.000
206.83	366.667
207.20	200.000
207.58	283.333
207.96	780.000
208.33	0.000
208.71	471.429
209.08	840.000
209.46	-3200.000
209.84	-750.000
210.21	1000.000
210.59	-620.000
210.96	225.000
211.34	-875.000
211.71	436.364
212.09	675.000
212.46	1600.000
212.84	-500.000
213.22	466.667
213.59	-2400.000
213.97	360.000
214.34	1325.000
214.72	800.000
215.09	933.333
215.47	-3900.000
215.84	-320.000
216.22	-412.500
216.59	0.000
216.97	0.000
217.34	1900.000
217.72	-2000.000
218.09	1200.000
218.47	487.500
218.84	975.000
219.22	1266.667
219.59	600.000
219.97	628.571
220.34	511.111
220.72	1400.000
221.09	3900.000
221.47	300.000
221.84	1100.000
222.22	380.000
222.59	244.444
222.97	250.000
223.34	243.750
223.72	-1650.000
224.09	1200.000
224.46	238.462
224.84	-675.000
225.21	411.111
225.59	226.667
225.96	1133.333
226.34	-500.000
226.71	-675.000
227.08	-660.000
227.46	0.000
227.83	-466.667
228.21	-1600.000
228.58	375.000
228.95	900.000
229.33	300.000
229.70	1100.000
230.08	323.077
230.45	2000.000
230.82	-900.000
231.20	-733.333
231.57	-866.667
231.95	580.000
232.32	275.000
232.69	450.000
233.07	300.000
233.44	-1550.000
233.81	246.667
234.19	159.259
234.56	212.500
234.93	188.235
235.31	210.000
235.68	206.250
236.05	175.000
236.43	133.333
236.80	271.429
237.17	162.069
237.55	128.125
237.92	127.500
238.29	160.606
238.67	153.125
239.04	134.146
239.41	91.667
239.79	102.500
240.16	87.500
240.53	75.410
240.91	85.507
241.28	77.966
241.65	84.848
242.02	90.141
242.40	92.857
242.77	71.429
243.14	67.089
243.51	79.798
243.89	71.963
244.26	70.093
244.63	67.327
245.00	71.560
245.38	63.559
245.75	70.455
246.12	57.778
246.49	61.702
246.87	56.557
247.24	62.667
247.61	63.750
247.98	61.224
248.36	47.879
248.73	48.980
249.10	59.524
249.47	51.500
249.84	54.229
250.22	59.459
250.59	53.000
250.96	50.633
251.33	57.674
251.70	57.589
252.08	52.521
252.45	53.386
252.82	47.148
253.19	49.802
253.56	48.846
253.94	51.812
254.31	52.713
254.68	48.084
255.05	54.138
255.42	49.270
255.79	49.186
256.16	48.475
256.54	53.896
256.91	46.078
257.28	48.161
257.65	44.828
258.02	46.018
258.39	48.997
258.76	47.826
259.14	46.286
259.51	49.563
259.88	46.809
260.25	46.429
260.62	46.027
260.99	44.904
261.36	47.354
261.73	45.479
262.10	43.979
262.47	46.250
262.85	47.467
263.22	46.530
263.59	44.246
263.96	45.865
264.33	42.469
264.70	45.209
265.07	45.854
265.44	45.872
265.81	46.462
266.18	46.453
266.55	45.154
266.92	47.875
267.29	45.833
267.66	43.498
268.03	44.395
268.40	41.226
268.77	44.934
269.14	42.299
269.51	43.875
269.88	43.061
270.25	42.981
270.62	44.206
270.99	46.045
271.36	42.480
271.73	44.235
272.10	41.212
272.47	40.079
272.84	39.920
273.21	44.628
273.58	40.891
273.95	43.121
274.32	41.245
274.69	44.094
275.06	42.623
275.43	41.571
275.80	41.132
276.17	40.625
276.54	44.299
276.91	41.978
277.28	40.146
277.65	40.959
278.02	44.118
278.39	39.928
278.76	38.966
279.13	40.925
279.50	40.364
279.87	41.899
280.23	40.700
280.60	41.241
280.97	39.138
281.34	40.099
281.71	39.826
282.08	40.342
282.45	40.372
282.82	38.796
283.19	38.315
283.56	40.331
283.92	40.391
284.29	39.268
284.66	39.496
285.03	38.972
285.40	39.504
285.77	38.735
286.14	39.938
286.51	39.417
286.87	35.601
287.24	36.937
287.61	37.386
287.98	36.716
288.35	38.370
288.72	38.240
289.08	37.988
289.45	36.433
289.82	38.125
290.19	36.896
290.56	39.301
290.93	38.129
291.29	36.188
291.66	35.169
292.03	33.380
292.40	35.230
292.77	34.819
293.13	34.950
293.50	34.413
293.87	34.553
294.24	34.965
294.60	35.128
294.97	34.126
295.34	34.661
295.71	34.428
296.08	33.600
296.44	32.147
296.81	31.390
297.18	32.193
297.55	32.635
297.91	30.542
298.28	31.401
298.65	32.147
299.02	31.966
299.38	32.614
299.75	29.878
300.12	29.817
300.48	31.616
300.85	31.228
301.22	29.767
301.59	30.660
301.95	30.338
302.32	31.665
302.69	32.805
303.05	31.538
303.42	29.933
303.79	30.769
304.15	29.043
304.52	29.175
304.89	28.465
305.25	30.256
305.62	31.663
305.99	29.674
306.35	28.526
306.72	29.553
307.09	29.089
307.45	27.666
307.82	28.498
308.19	29.072
308.55	29.600
308.92	28.557
309.29	29.389
309.65	28.246
310.02	28.905
310.38	28.315
310.75	27.869
311.12	26.916
311.48	29.054
311.85	27.863
312.22	29.226
312.58	27.988
312.95	29.029
313.31	28.371
313.68	27.486
314.05	26.923
314.41	26.909
314.78	27.178
315.14	28.815
315.51	27.909
315.87	26.277
316.24	27.264
316.61	27.663
316.97	26.330
317.34	27.673
317.70	27.217
318.07	27.135
318.43	26.889
318.80	27.233
319.16	26.573
319.53	26.460
319.89	26.075
320.26	28.026
320.62	27.381
320.99	26.215
321.35	26.067
321.72	28.273
322.08	26.870
322.45	26.249
322.81	25.069
323.18	26.554
323.54	27.439
323.91	27.471
324.27	25.641
324.64	24.394
325.00	26.293
325.37	24.705
325.73	25.970
326.10	25.849
326.46	26.094
326.83	26.320
327.19	27.149
327.56	25.399
327.92	26.148
328.29	26.432
328.65	25.942
329.01	25.749
329.38	25.719
329.74	25.961
330.11	26.412
330.47	25.320
330.84	25.280
331.20	26.227
331.56	26.857
331.93	25.492
332.29	24.660
332.66	26.105
333.02	23.540
333.38	25.742
333.75	24.771
334.11	25.000
334.48	25.641
334.84	24.409
335.20	24.979
335.57	24.517
335.93	24.306
336.29	23.881
336.66	26.244
337.02	24.551
337.38	25.193
337.75	25.169
338.11	25.570
338.47	23.878
338.84	23.793
339.20	23.290
339.56	25.231
339.93	23.411
340.29	24.286
340.65	24.476
341.02	26.066
341.38	23.892
341.74	24.585
342.11	24.374
342.47	23.872
342.83	24.036
343.20	23.929
343.56	23.114
343.92	24.525
344.28	23.764
344.65	23.961
345.01	23.730
345.37	24.199
345.73	22.540
346.10	22.948
346.46	24.003
346.82	23.148
347.19	24.575
347.55	23.731
347.91	21.979
348.27	23.083
348.63	23.655
349.00	23.839
349.36	23.813
349.72	23.700
350.08	23.214
350.45	23.534
350.81	24.388
351.17	22.496
351.53	22.171
351.89	22.300
352.26	22.676
352.62	22.775
352.98	23.466
353.34	22.727
353.70	23.012
354.07	22.154
354.43	23.041
354.79	22.248
355.15	22.588
355.51	23.112
355.87	22.741
356.24	22.556
356.60	22.679
356.96	21.759
357.32	22.683
357.68	22.981
358.04	22.872
358.40	23.013
358.77	22.990
359.13	22.372
359.49	22.090
359.85	22.636
360.21	21.545
360.57	22.044
360.93	22.222
361.29	21.789
361.66	22.968
362.02	21.875
362.38	21.356
362.74	22.293
363.10	22.440
363.46	21.685
363.82	21.529
364.18	22.973
364.54	21.745
364.90	22.088
365.26	21.790
365.62	21.892
365.98	21.610
366.35	21.517
366.71	22.693
367.07	21.092
367.43	22.163
367.79	21.410
368.15	20.963
368.51	21.571
368.87	21.671
369.23	22.245
369.59	21.713
369.95	22.028
370.31	20.876
370.67	21.513
371.03	21.779
371.39	21.537
371.75	20.586
372.11	21.822
372.47	22.260
372.83	20.938
373.19	21.933
373.55	21.375
373.91	21.409
374.27	22.024
374.63	22.034
374.99	21.698
375.35	21.640
375.71	22.230
376.07	21.817
376.42	20.716
376.78	21.195
377.14	21.887
377.50	20.662
377.86	20.756
378.22	20.780
378.58	21.489
378.94	21.364
379.30	21.164
379.66	21.493
380.02	21.232
380.38	20.550
380.74	21.915
381.09	21.612
381.45	20.347
381.81	20.863
382.17	21.123
382.53	20.876
382.89	20.757
383.25	21.018
383.61	20.346
383.97	21.056
384.32	21.037
384.68	22.579
385.04	20.340
385.40	20.759
385.76	20.421
386.12	21.398
386.48	20.486
386.83	21.210
387.19	20.259
387.55	20.907
387.91	21.189
388.27	21.832
388.62	21.244
388.98	20.233
389.34	20.702
389.70	21.167
390.06	21.280
390.42	20.481
390.77	20.516
391.13	20.700
391.49	20.629
391.85	20.862
392.20	20.203
392.56	21.565
392.92	20.101
393.28	20.291
393.64	20.011
393.99	20.036
394.35	19.717
394.71	20.265
395.07	20.073
395.42	19.555
395.78	21.777
396.14	21.024
396.50	20.337
396.85	20.488
397.21	20.578
397.57	21.219
397.92	20.566
398.28	20.077
398.64	20.710
399.00	20.096
399.35	19.753
399.71	20.364
400.07	20.148
400.42	20.657
400.78	19.824
401.14	19.847
401.49	19.988
401.85	20.915
402.21	19.332
402.57	20.407
402.92	19.939
403.28	19.212
403.63	19.305
403.99	20.024
404.35	20.750
404.70	20.673
405.06	20.270
405.42	19.689
405.77	20.011
406.13	19.469
406.49	19.557
406.84	19.346
407.20	20.776
407.55	20.123
407.91	20.485
408.27	19.709
408.62	20.166
408.98	20.402
409.34	19.462
409.69	19.913
410.05	19.439
410.40	19.376
410.76	19.004
411.11	20.024
411.47	19.444
411.83	19.215
412.18	19.626
412.54	19.880
412.89	19.056
413.25	19.612
413.60	19.276
413.96	19.509
414.31	20.071
414.67	20.484
415.03	19.604
415.38	20.189
415.74	20.152
416.09	19.863
416.45	19.910
416.80	19.885
417.16	19.542
417.51	20.191
417.87	19.462
418.22	20.778
418.58	19.936
418.93	19.691
419.29	18.669
419.64	19.685
420.00	20.227
420.35	18.931
420.71	19.895
421.06	18.717
421.42	19.516
421.77	19.822
422.12	19.846
422.48	19.620
422.83	19.810
423.19	18.737
423.54	19.254
423.90	19.819
424.25	19.538
424.61	19.733
424.96	18.803
425.31	18.993
425.67	20.202
426.02	19.349
426.38	18.611
426.73	20.012
427.09	20.285
427.44	18.852
427.79	18.125
428.15	19.446
428.50	19.371
428.85	19.224
429.21	19.179
429.56	18.594
429.92	19.244
430.27	19.352
430.62	19.579
430.98	19.212
431.33	18.700
431.68	17.926
432.04	18.262
432.39	18.606
432.74	19.087
433.10	19.435
433.45	18.667
433.80	20.298
434.16	19.338
434.51	18.885
434.86	19.815
435.22	19.233
435.57	18.969
435.92	18.839
436.28	19.931
436.63	19.341
436.98	19.426
437.34	19.635
437.69	18.645
438.04	19.677
438.39	19.498
438.75	19.599
439.10	18.996
439.45	19.842
439.81	19.260
440.16	19.207
440.51	19.651
440.86	19.886
441.22	18.831
441.57	19.213
441.92	18.411
442.27	18.866
442.63	19.258
442.98	19.235
443.33	19.122
443.68	19.064
444.03	19.180
444.39	18.927
444.74	18.634
445.09	19.221
445.44	18.916
445.79	19.152
446.15	19.000
446.50	18.776
446.85	18.526
447.20	18.259
447.55	18.597
447.91	19.286
448.26	19.436
448.61	18.905
448.96	19.499
449.31	19.032
449.66	19.380
450.02	18.801
450.37	19.045
450.72	19.174
451.07	18.906
451.42	19.858
451.77	19.989
452.12	19.569
452.47	18.591
452.83	19.380
453.18	20.120
453.53	19.834
453.88	18.571
454.23	19.814
454.58	18.765
454.93	18.271
455.28	19.645
455.63	19.622
455.98	19.120
456.34	19.818
456.69	19.817
457.04	19.332
457.39	18.571
457.74	19.313
458.09	18.585
458.44	19.058
458.79	19.098
459.14	18.549
459.49	19.139
459.84	19.402
460.19	19.209
460.54	18.974
460.89	19.296
461.24	18.499
461.59	19.955
461.94	18.381
462.29	19.394
462.64	19.661
462.99	19.130
463.34	20.026
463.69	20.085
464.04	19.056
464.39	18.832
464.74	18.757
465.09	19.501
465.44	19.206
465.79	18.672
466.14	18.389
466.49	19.208
466.84	18.562
467.19	19.332
467.54	18.138
467.89	19.131
468.24	18.413
468.59	18.690
468.94	19.444
469.29	18.876
469.64	20.322
469.99	19.023
470.34	18.912
470.68	19.793
471.03	18.879
471.38	19.338
471.73	19.595
472.08	19.178
472.43	20.546
472.78	18.886
473.13	18.273
473.48	19.438
473.83	18.021
474.17	19.392
474.52	18.957
474.87	18.647
475.22	19.018
475.57	18.888
475.92	18.293
476.27	18.063
476.61	17.909
476.96	19.018
477.31	19.383
477.66	18.894
478.01	18.205
478.36	18.641
478.70	17.965
479.05	18.149
479.40	18.204
479.75	18.769
480.10	18.829
480.45	18.487
480.79	18.479
481.14	17.784
481.49	17.795
481.84	18.470
482.19	18.166
482.53	17.830
482.88	18.459
483.23	17.817
483.58	18.088
483.92	18.327
484.27	17.979
484.62	18.930
484.97	17.647
485.31	17.335
485.66	17.659
486.01	18.136
486.36	17.865
486.70	17.853
487.05	17.401
487.40	17.664
487.75	17.376
488.09	17.273
488.44	17.463
488.79	18.119
489.13	18.104
489.48	17.779
489.83	17.973
490.17	17.506
490.52	17.700
490.87	17.888
491.22	18.085
491.56	18.182
491.91	17.608
492.26	17.862
492.60	17.950
492.95	17.898
493.30	18.380
493.64	17.880
493.99	18.023
494.34	17.436
494.68	17.973
495.03	17.827
495.37	17.605
495.72	18.648
496.07	17.925
496.41	17.941
496.76	18.151
497.11	18.509
497.45	17.931
497.80	17.794
498.14	18.169
498.49	18.106
498.84	17.991
499.18	17.916
499.53	18.236
499.87	17.835
500.22	18.425
500.56	17.967
500.91	18.275
501.26	18.236
501.60	17.987
501.95	17.608
502.29	18.044
502.64	16.983
502.98	17.830
503.33	17.773
503.67	18.411
504.02	17.913
504.36	18.145
504.71	18.212
505.06	18.160
505.40	18.156
505.75	17.961
506.09	17.825
506.44	18.139
506.78	18.573
507.13	18.323
507.47	18.389
507.82	17.762
508.16	17.834
508.51	17.343
508.85	17.901
509.19	17.915
509.54	18.115
509.88	17.902
510.23	17.696
510.57	17.568
510.92	18.382
511.26	18.373
511.61	17.479
511.95	18.019
512.30	18.100
512.64	17.861
512.98	18.145
513.33	18.135
513.67	18.384
514.02	17.091
514.36	17.653
514.70	18.560
515.05	17.848
515.39	17.982
515.74	18.480
516.08	17.810
516.42	19.016
516.77	17.600
517.11	18.347
517.46	18.588
517.80	17.258
518.14	18.592
518.49	17.475
518.83	17.253
519.17	17.915
519.52	18.678
519.86	17.711
520.20	17.534
520.55	17.637
520.89	17.414
521.23	18.049
521.58	17.212
521.92	17.726
522.26	17.713
522.61	18.776
522.95	17.658
523.29	17.778
523.64	17.514
523.98	18.310
524.32	18.454
524.66	17.681
525.01	17.041
525.35	18.150
525.69	17.760
526.04	18.739
526.38	17.775
526.72	17.542
527.06	16.854
527.41	18.077
527.75	18.198
528.09	17.580
528.43	17.694
528.78	18.187
529.12	17.459
529.46	17.592
529.80	18.458
530.15	18.268
530.49	16.968
530.83	17.733
531.17	17.528
531.51	17.658
531.86	17.693
532.20	16.996
532.54	16.824
532.88	18.364
533.22	17.855
533.57	17.511
533.91	18.182
534.25	18.177
534.59	18.480
534.93	18.430
535.27	17.701
535.62	17.270
535.96	18.322
536.30	19.257
536.64	17.702
536.98	18.125
537.32	18.250
537.66	17.602
538.01	18.576
538.35	18.341
538.69	17.294
539.03	17.351
539.37	17.840
539.71	18.333
540.05	17.046
540.39	17.484
540.73	17.975
541.07	17.252
541.42	18.346
541.76	18.126
542.10	17.756
542.44	17.706
542.78	17.306
543.12	17.730
543.46	17.419
543.80	18.108
544.14	17.337
544.48	17.275
544.82	18.043
545.16	17.426
545.50	18.685
545.84	18.561
546.18	18.661
546.52	17.902
546.86	18.569
547.20	16.667
547.54	18.366
547.88	17.640
548.22	17.729
548.56	17.973
548.90	18.149
549.24	17.372
549.58	17.719
549.92	18.009
550.26	17.985
550.60	17.764
550.94	18.792
551.28	17.241
551.62	18.414
551.96	18.446
552.30	17.601
552.64	19.353
552.98	17.848
553.32	16.965
553.66	18.306
554.00	17.568
554.34	17.244
554.68	18.212
555.02	17.651
555.36	18.019
555.69	17.212
556.03	17.834
556.37	17.782
556.71	18.253
557.05	16.710
557.39	18.600
557.73	18.261
558.07	17.639
558.41	17.820
558.75	18.399
559.08	17.298
559.42	17.895
559.76	18.175
560.10	17.275
560.44	18.182
560.78	18.095
561.12	18.436
561.45	16.646
561.79	17.541
562.13	17.372
562.47	16.613
562.81	18.152
563.15	17.841
563.48	17.019
563.82	18.528
564.16	18.159
564.50	17.239
564.84	17.143
565.17	18.122
565.51	18.288
565.85	18.692
566.19	16.905
566.52	17.810
566.86	18.155
567.20	18.034
567.54	17.686
567.88	17.945
568.21	17.923
568.55	18.580
568.89	18.111
569.23	17.170
569.56	17.971
569.90	18.074
570.24	17.547
570.57	17.748
570.91	17.566
571.25	17.705
571.59	17.259
571.92	17.088
572.26	16.819
572.60	17.384
572.93	18.028
573.27	17.720
573.61	17.407
573.95	17.654
574.28	17.426
574.62	17.513
574.96	17.654
575.29	17.206
575.63	17.032
575.97	16.967
576.30	17.059
576.64	17.271
576.98	17.530
577.31	17.872
577.65	17.743
577.98	17.202
578.32	17.289
578.66	17.477
578.99	17.495
579.33	17.073
579.67	17.171
580.00	17.313
580.34	17.456
580.67	17.025
581.01	17.446
581.35	17.412
581.68	16.980
582.02	17.189
582.35	17.701
582.69	17.447
583.02	17.522
583.36	17.233
583.70	17.362
584.03	17.599
584.37	17.415
584.70	17.318
585.04	17.464
585.37	17.493
585.71	17.393
586.04	17.115
586.38	17.189
586.72	17.452
587.05	17.499
587.39	17.345
587.72	17.638
588.06	17.681
588.39	17.323
588.73	17.216
589.06	17.245
589.40	17.433
589.73	17.666
590.07	17.399
590.40	18.258
590.73	18.399
591.07	17.951
591.40	17.246
591.74	17.532
592.07	17.471
592.41	17.986
592.74	17.576
593.08	16.862
593.41	17.295
593.75	17.482
594.08	17.370
594.41	17.172
594.75	17.774
595.08	17.421
595.42	17.643
595.75	17.374
596.09	17.692
596.42	17.444
596.75	17.909
597.09	17.994
597.42	18.041
597.75	17.444
598.09	16.414
598.42	17.462
598.76	18.080
599.09	17.874
599.42	17.266
599.76	17.266
600.09	16.949
600.42	17.403
600.76	16.961
601.09	17.570
601.42	17.388
601.76	17.222
602.09	17.697
602.42	17.523
602.76	17.040
603.09	17.836
603.42	18.092
603.76	18.330
604.09	17.264
604.42	17.401
604.76	18.293
605.09	17.184
605.42	17.473
605.75	17.410
606.09	17.789
606.42	17.136
606.75	17.528
607.09	17.213
607.42	17.477
607.75	17.436
608.08	17.019
608.42	17.659
608.75	16.902
609.08	17.774
609.41	18.136
609.75	18.361
610.08	17.896
610.41	17.611
610.74	18.182
611.07	17.735
611.41	17.377
611.74	17.352
612.07	17.052
612.40	17.495
612.73	17.723
613.07	17.892
613.40	18.647
613.73	17.624
614.06	17.850
614.39	17.828
614.72	17.830
615.06	17.112
615.39	17.673
615.72	16.602
616.05	18.533
616.38	17.402
616.71	17.743
617.05	16.859
617.38	17.416
617.71	18.110
618.04	17.667
618.37	17.343
618.70	17.090
619.03	17.705
619.36	17.714
619.69	17.480
620.03	18.330
620.36	17.341
620.69	18.646
621.02	18.071
621.35	17.479
621.68	19.322
622.01	18.819
622.34	17.480
622.67	17.486
623.00	17.291
623.33	17.881
623.66	17.166
623.99	17.397
624.32	17.751
624.65	17.907
624.99	17.850
625.32	17.435
625.65	17.793
625.98	16.876
626.31	18.249
626.64	18.299
626.97	16.679
627.30	17.702
627.63	18.210
627.96	18.623
628.29	18.317
628.62	18.563
628.95	18.440
629.28	18.580
629.61	18.190
629.94	17.545
630.26	17.678
630.59	18.528
630.92	17.130
631.25	18.767
