SpectraSuite Data File
++++++++++++++++++++++++++++++++++++
Date: Tue May 12 16:38:23 PDT 2015
User: schluterlab
Dark Spectrum Present: Yes
Reference Spectrum Present: Yes
Number of Sampled Component Spectra: 1
Spectrometers: USB2E3373
Integration Time (usec): 3000 (USB2E3373)
Spectra Averaged: 3 (USB2E3373)
Boxcar Smoothing: 0 (USB2E3373)
Correct for Electrical Dark: No (USB2E3373)
Strobe/Lamp Enabled: No (USB2E3373)
Correct for Detector Non-linearity: No (USB2E3373)
Correct for Stray Light: No (USB2E3373)
Number of Pixels in Processed Spectrum: 2048
>>>>>Begin Processed Spectral Data<<<<<
178.53	0.000
178.91	-233.333
179.29	-575.000
179.67	-3200.000
180.04	-73.333
180.42	600.000
180.80	1900.000
181.18	0.000
181.56	-287.500
181.94	0.000
182.31	1033.333
182.69	-3600.000
183.07	471.429
183.45	-3500.000
183.83	-850.000
184.20	410.000
184.58	628.571
184.96	-215.385
185.34	-200.000
185.72	1450.000
186.09	-825.000
186.47	-2100.000
186.85	900.000
187.23	520.000
187.61	1650.000
187.98	362.500
188.36	242.857
188.74	391.667
189.12	300.000
189.49	850.000
189.87	0.000
190.25	462.500
190.63	2600.000
191.00	-150.000
191.38	-3000.000
191.76	-550.000
192.14	437.500
192.51	-2400.000
192.89	2100.000
193.27	1100.000
193.65	-966.667
194.02	-600.000
194.40	500.000
194.78	-250.000
195.15	206.667
195.53	-2600.000
195.91	-640.000
196.29	3700.000
196.66	231.250
197.04	950.000
197.42	-1350.000
197.79	475.000
198.17	341.667
198.55	0.000
198.92	557.143
199.30	1000.000
199.68	2050.000
200.05	516.667
200.43	-516.667
200.81	216.667
201.18	4100.000
201.56	191.667
201.94	-625.000
202.31	-375.000
202.69	-580.000
203.07	2600.000
203.44	-433.333
203.82	275.000
204.19	640.000
204.57	-1250.000
204.95	-500.000
205.32	-740.000
205.70	583.333
206.08	875.000
206.45	-866.667
206.83	344.444
207.20	168.421
207.58	183.333
207.96	460.000
208.33	0.000
208.71	500.000
209.08	560.000
209.46	-2900.000
209.84	-550.000
210.21	820.000
210.59	-600.000
210.96	291.667
211.34	-1125.000
211.71	409.091
212.09	1050.000
212.46	1350.000
212.84	-500.000
213.22	311.111
213.59	-2700.000
213.97	420.000
214.34	825.000
214.72	866.667
215.09	1033.333
215.47	-2700.000
215.84	-410.000
216.22	-500.000
216.59	0.000
216.97	0.000
217.34	1000.000
217.72	-1350.000
218.09	1000.000
218.47	337.500
218.84	825.000
219.22	1033.333
219.59	833.333
219.97	585.714
220.34	488.889
220.72	1400.000
221.09	2600.000
221.47	325.000
221.84	833.333
222.22	280.000
222.59	250.000
222.97	221.429
223.34	256.250
223.72	-1650.000
224.09	800.000
224.46	284.615
224.84	-600.000
225.21	311.111
225.59	266.667
225.96	1200.000
226.34	-540.000
226.71	-650.000
227.08	-420.000
227.46	0.000
227.83	-566.667
228.21	-2100.000
228.58	350.000
228.95	850.000
229.33	344.444
229.70	1075.000
230.08	300.000
230.45	3900.000
230.82	-775.000
231.20	-1000.000
231.57	-1133.333
231.95	540.000
232.32	258.333
232.69	550.000
233.07	216.667
233.44	-1700.000
233.81	320.000
234.19	162.963
234.56	243.750
234.93	223.529
235.31	270.000
235.68	262.500
236.05	182.143
236.43	181.481
236.80	271.429
237.17	186.207
237.55	137.500
237.92	117.500
238.29	163.636
238.67	203.125
239.04	148.780
239.41	120.833
239.79	125.000
240.16	97.917
240.53	98.361
240.91	95.652
241.28	103.390
241.65	95.455
242.02	111.268
242.40	101.429
242.77	97.802
243.14	112.658
243.51	97.980
243.89	91.589
244.26	87.850
244.63	93.069
245.00	88.991
245.38	78.814
245.75	79.545
246.12	85.185
246.49	73.050
246.87	89.344
247.24	80.667
247.61	83.125
247.98	90.476
248.36	73.939
248.73	75.510
249.10	75.595
249.47	74.500
249.84	78.607
250.22	75.676
250.59	72.000
250.96	65.823
251.33	73.953
251.70	76.339
252.08	72.689
252.45	67.729
252.82	66.920
253.19	67.984
253.56	71.154
253.94	68.478
254.31	72.093
254.68	67.944
255.05	71.724
255.42	71.898
255.79	68.078
256.16	69.153
256.54	67.208
256.91	67.974
257.28	69.565
257.65	67.085
258.02	63.127
258.39	68.481
258.76	64.928
259.14	66.571
259.51	69.679
259.88	75.076
260.25	62.912
260.62	64.658
260.99	63.636
261.36	67.409
261.73	65.426
262.10	67.016
262.47	65.250
262.85	64.800
263.22	65.810
263.59	63.939
263.96	66.667
264.33	63.457
264.70	67.076
265.07	66.098
265.44	63.991
265.81	64.387
266.18	65.446
266.55	65.957
266.92	64.206
267.29	64.035
267.66	63.453
268.03	65.919
268.40	62.579
268.77	66.740
269.14	63.124
269.51	64.588
269.88	63.469
270.25	61.123
270.62	64.378
270.99	62.880
271.36	64.228
271.73	62.893
272.10	61.212
272.47	61.905
272.84	60.080
273.21	61.157
273.58	63.360
273.95	63.244
274.32	60.311
274.69	63.189
275.06	60.474
275.43	60.153
275.80	62.264
276.17	59.007
276.54	60.187
276.91	60.075
277.28	59.672
277.65	59.594
278.02	60.110
278.39	60.612
278.76	59.483
279.13	58.007
279.50	59.091
279.87	57.356
280.23	60.405
280.60	62.409
280.97	57.414
281.34	56.766
281.71	58.609
282.08	59.316
282.45	57.601
282.82	58.696
283.19	58.824
283.56	55.868
283.92	56.352
284.29	59.401
284.66	57.311
285.03	57.048
285.40	56.198
285.77	55.401
286.14	54.799
286.51	55.521
286.87	53.639
287.24	53.003
287.61	54.863
287.98	52.985
288.35	54.222
288.72	52.959
289.08	53.153
289.45	53.963
289.82	54.844
290.19	52.709
290.56	51.528
290.93	50.935
291.29	50.691
291.66	51.130
292.03	51.052
292.40	50.542
292.77	49.164
293.13	51.070
293.50	49.798
293.87	47.561
294.24	50.629
294.60	48.991
294.97	50.490
295.34	47.676
295.71	49.409
296.08	48.933
296.44	47.268
296.81	46.526
297.18	47.782
297.55	47.167
297.91	45.690
298.28	45.652
298.65	45.521
299.02	45.235
299.38	45.564
299.75	45.122
300.12	44.495
300.48	46.136
300.85	46.365
301.22	43.256
301.59	45.047
301.95	44.107
302.32	45.052
302.69	43.439
303.05	44.669
303.42	43.498
303.79	43.662
304.15	43.674
304.52	45.032
304.89	43.497
305.25	45.273
305.62	42.537
305.99	43.261
306.35	43.579
306.72	46.306
307.09	43.892
307.45	44.139
307.82	43.930
308.19	44.639
308.55	43.700
308.92	43.768
309.29	45.858
309.65	44.301
310.02	45.030
310.38	44.367
310.75	44.262
311.12	43.487
311.48	45.946
311.85	44.752
312.22	46.036
312.58	44.801
312.95	46.019
313.31	46.348
313.68	45.216
314.05	45.696
314.41	45.996
314.78	47.348
315.14	46.730
315.51	46.641
315.87	45.712
316.24	47.339
316.61	46.374
316.97	46.239
317.34	46.721
317.70	46.883
318.07	48.310
318.43	46.221
318.80	46.935
319.16	47.640
319.53	48.584
319.89	47.401
320.26	48.510
320.62	47.802
320.99	47.283
321.35	49.072
321.72	48.672
322.08	48.661
322.45	47.593
322.81	47.850
323.18	47.247
323.54	48.345
323.91	49.229
324.27	48.806
324.64	46.453
325.00	47.845
325.37	47.555
325.73	47.386
326.10	48.384
326.46	47.316
326.83	47.280
327.19	48.112
327.56	47.604
327.92	48.770
328.29	48.609
328.65	48.288
329.01	48.845
329.38	48.900
329.74	46.456
330.11	48.480
330.47	48.082
330.84	46.506
331.20	48.562
331.56	48.446
331.93	47.391
332.29	46.259
332.66	47.024
333.02	47.595
333.38	46.946
333.75	47.790
334.11	46.309
334.48	48.120
334.84	47.213
335.20	48.075
335.57	45.424
335.93	45.416
336.29	45.688
336.66	48.113
337.02	45.509
337.38	45.830
337.75	46.115
338.11	45.992
338.47	46.317
338.84	45.978
339.20	45.022
339.56	45.332
339.93	45.151
340.29	43.613
340.65	45.096
341.02	45.776
341.38	45.402
341.74	45.183
342.11	44.825
342.47	44.299
342.83	44.791
343.20	44.947
343.56	42.812
343.92	45.747
344.28	45.853
344.65	44.499
345.01	44.048
345.37	43.830
345.73	44.127
346.10	42.709
346.46	43.780
346.82	42.747
347.19	44.590
347.55	43.013
347.91	42.447
348.27	43.145
348.63	43.275
349.00	43.641
349.36	42.957
349.72	42.966
350.08	42.857
350.45	43.641
350.81	43.349
351.17	40.601
351.53	42.648
351.89	41.880
352.26	41.043
352.62	41.704
352.98	41.488
353.34	43.220
353.70	41.055
354.07	42.615
354.43	42.243
354.79	40.547
355.15	40.965
355.51	40.937
355.87	41.114
356.24	41.493
356.60	41.248
356.96	40.637
357.32	40.467
357.68	40.235
358.04	41.185
358.40	40.105
358.77	40.421
359.13	40.240
359.49	40.549
359.85	41.176
360.21	39.896
360.57	40.949
360.93	40.404
361.29	40.332
361.66	40.418
362.02	39.418
362.38	39.827
362.74	41.118
363.10	39.271
363.46	37.707
363.82	39.902
364.18	40.612
364.54	41.059
364.90	39.893
365.26	39.417
365.62	40.401
365.98	39.367
366.35	39.517
366.71	39.695
367.07	38.976
367.43	39.825
367.79	38.497
368.15	37.992
368.51	39.421
368.87	38.587
369.23	38.947
369.59	38.368
369.95	39.301
370.31	38.398
370.67	38.515
371.03	38.585
371.39	39.335
371.75	37.962
372.11	38.613
372.47	38.562
372.83	38.749
373.19	39.411
373.55	38.076
373.91	37.500
374.27	36.640
374.63	37.424
374.99	39.084
375.35	39.046
375.71	37.401
376.07	37.931
376.42	36.829
376.78	37.251
377.14	38.336
377.50	37.203
377.86	37.604
378.22	37.721
378.58	37.651
378.94	38.081
379.30	37.659
379.66	37.026
380.02	38.006
380.38	37.646
380.74	38.005
381.09	36.741
381.45	35.838
381.81	36.407
382.17	37.363
382.53	35.753
382.89	36.724
383.25	35.583
383.61	36.023
383.97	36.833
384.32	36.588
384.68	36.185
385.04	35.873
385.40	36.180
385.76	36.103
386.12	35.745
386.48	36.353
386.83	36.002
387.19	36.278
387.55	36.690
387.91	35.739
388.27	37.121
388.62	36.326
388.98	36.152
389.34	35.039
389.70	35.672
390.06	36.829
390.42	36.212
390.77	35.627
391.13	34.822
391.49	35.330
391.85	35.385
392.20	35.697
392.56	35.484
392.92	35.710
393.28	35.930
393.64	35.378
393.99	35.744
394.35	34.903
394.71	34.620
395.07	34.732
395.42	35.363
395.78	35.287
396.14	36.627
396.50	35.379
396.85	34.878
397.21	34.958
397.57	34.788
397.92	33.911
398.28	34.639
398.64	35.835
399.00	34.420
399.35	33.870
399.71	34.879
400.07	35.160
400.42	34.866
400.78	35.718
401.14	34.880
401.49	34.159
401.85	34.241
402.21	33.919
402.57	34.949
402.92	34.909
403.28	33.890
403.63	33.667
403.99	34.680
404.35	34.818
404.70	35.086
405.06	33.970
405.42	34.411
405.77	33.848
406.13	33.460
406.49	33.940
406.84	32.882
407.20	33.676
407.55	34.400
407.91	35.035
408.27	33.778
408.62	34.240
408.98	33.353
409.34	33.255
409.69	34.785
410.05	32.737
410.40	33.922
410.76	33.200
411.11	34.182
411.47	33.765
411.83	32.806
412.18	33.998
412.54	33.393
412.89	32.979
413.25	33.010
413.60	33.002
413.96	33.273
414.31	33.412
414.67	33.644
415.03	32.312
415.38	32.997
415.74	32.723
416.09	33.417
416.45	33.226
416.80	33.868
417.16	33.227
417.51	33.949
417.87	32.916
418.22	32.989
418.58	34.268
418.93	32.659
419.29	32.101
419.64	32.889
420.00	32.518
420.35	33.391
420.71	32.905
421.06	32.372
421.42	32.412
421.77	33.093
422.12	32.470
422.48	32.922
422.83	33.315
423.19	32.289
423.54	32.803
423.90	33.069
424.25	32.801
424.61	33.082
424.96	31.903
425.31	32.129
425.67	32.884
426.02	32.361
426.38	32.264
426.73	32.389
427.09	32.622
427.44	31.458
427.79	32.590
428.15	32.469
428.50	32.686
428.85	32.628
429.21	32.199
429.56	31.805
429.92	33.466
430.27	32.172
430.62	31.620
430.98	32.385
431.33	31.351
431.68	31.309
432.04	32.178
432.39	31.888
432.74	32.319
433.10	31.395
433.45	32.625
433.80	32.819
434.16	30.793
434.51	32.250
434.86	32.825
435.22	32.145
435.57	31.713
435.92	32.328
436.28	32.661
436.63	31.875
436.98	32.038
437.34	32.192
437.69	30.851
438.04	32.312
438.39	31.699
438.75	32.238
439.10	32.218
439.45	31.713
439.81	32.678
440.16	32.086
440.51	30.968
440.86	32.650
441.22	31.061
441.57	32.178
441.92	31.688
442.27	31.495
442.63	31.809
442.98	31.843
443.33	31.976
443.68	31.891
444.03	32.187
444.39	31.073
444.74	32.091
445.09	31.332
445.44	32.094
445.79	32.407
446.15	30.895
446.50	31.224
446.85	31.773
447.20	31.940
447.55	32.083
447.91	31.913
448.26	31.683
448.61	32.062
448.96	32.081
449.31	31.958
449.66	32.447
450.02	30.740
450.37	32.704
450.72	31.901
451.07	32.403
451.42	31.654
451.77	32.417
452.12	31.480
452.47	31.409
452.83	31.662
453.18	31.772
453.53	31.912
453.88	32.171
454.23	31.435
454.58	32.168
454.93	31.760
455.28	32.558
455.63	31.560
455.98	30.908
456.34	32.584
456.69	32.317
457.04	31.444
457.39	31.829
457.74	32.545
458.09	31.218
458.44	32.147
458.79	31.936
459.14	30.933
459.49	31.767
459.84	32.174
460.19	31.525
460.54	31.738
460.89	31.557
461.24	30.756
461.59	31.746
461.94	31.797
462.29	31.407
462.64	31.910
462.99	30.966
463.34	32.275
463.69	32.002
464.04	31.894
464.39	31.597
464.74	31.067
465.09	31.631
465.44	31.556
465.79	31.192
466.14	30.578
466.49	31.091
466.84	31.438
467.19	31.517
467.54	30.991
467.89	31.338
468.24	30.689
468.59	31.369
468.94	31.280
469.29	31.521
469.64	31.254
469.99	31.105
470.34	31.120
470.68	30.276
471.03	31.087
471.38	31.987
471.73	31.483
472.08	31.963
472.43	31.968
472.78	31.370
473.13	30.288
473.48	30.929
473.83	30.624
474.17	30.699
474.52	30.391
474.87	30.188
475.22	31.639
475.57	30.640
475.92	30.097
476.27	30.740
476.61	30.563
476.96	31.139
477.31	30.386
477.66	31.455
478.01	30.325
478.36	30.484
478.70	31.315
479.05	30.335
479.40	30.010
479.75	30.487
480.10	30.494
480.45	30.579
480.79	30.138
481.14	30.243
481.49	30.421
481.84	29.683
482.19	30.393
482.53	29.996
482.88	30.421
483.23	29.905
483.58	30.925
483.92	30.941
484.27	30.094
484.62	30.178
484.97	30.464
485.31	29.578
485.66	29.573
486.01	29.725
486.36	29.362
486.70	28.933
487.05	29.279
487.40	29.725
487.75	29.487
488.09	29.631
488.44	30.274
488.79	29.677
489.13	29.003
489.48	30.164
489.83	29.650
490.17	29.397
490.52	29.027
490.87	29.914
491.22	30.585
491.56	30.215
491.91	28.763
492.26	29.042
492.60	29.658
492.95	29.678
493.30	29.481
493.64	29.021
493.99	29.114
494.34	29.673
494.68	29.615
495.03	29.367
495.37	29.851
495.72	29.790
496.07	29.155
496.41	29.887
496.76	29.422
497.11	29.991
497.45	29.592
497.80	29.935
498.14	29.542
498.49	28.552
498.84	29.579
499.18	28.793
499.53	29.077
499.87	28.751
500.22	28.881
500.56	29.109
500.91	30.056
501.26	29.031
501.60	28.962
501.95	28.584
502.29	29.378
502.64	28.981
502.98	28.546
503.33	29.310
503.67	28.742
504.02	28.571
504.36	29.593
504.71	29.518
505.06	29.376
505.40	29.153
505.75	29.046
506.09	29.351
506.44	28.853
506.78	29.112
507.13	29.714
507.47	28.627
507.82	29.294
508.16	30.181
508.51	29.179
508.85	28.727
509.19	29.173
509.54	29.150
509.88	29.985
510.23	27.990
510.57	28.137
510.92	28.621
511.26	29.167
511.61	28.705
511.95	29.119
512.30	28.250
512.64	27.726
512.98	28.344
513.33	28.842
513.67	28.949
514.02	28.675
514.36	28.141
514.70	28.427
515.05	27.970
515.39	29.441
515.74	29.415
516.08	29.412
516.42	29.344
516.77	27.787
517.11	28.320
517.46	29.256
517.80	27.908
518.14	28.620
518.49	28.556
518.83	27.308
519.17	28.619
519.52	28.946
519.86	29.373
520.20	28.932
520.55	28.378
520.89	29.253
521.23	28.037
521.58	27.768
521.92	29.155
522.26	28.021
522.61	28.936
522.95	28.709
523.29	28.713
523.64	28.208
523.98	27.758
524.32	27.509
524.66	28.522
525.01	27.811
525.35	27.696
525.69	28.356
526.04	28.376
526.38	27.663
526.72	27.804
527.06	27.912
527.41	28.900
527.75	28.180
528.09	28.417
528.43	28.798
528.78	29.040
529.12	29.380
529.46	28.521
529.80	28.213
530.15	28.049
530.49	27.918
530.83	28.275
531.17	27.921
531.51	27.836
531.86	27.838
532.20	27.998
532.54	27.181
532.88	28.357
533.22	28.519
533.57	28.005
533.91	27.972
534.25	27.755
534.59	28.655
534.93	28.328
535.27	26.238
535.62	27.830
535.96	28.014
536.30	28.702
536.64	28.447
536.98	27.439
537.32	28.688
537.66	27.296
538.01	27.926
538.35	27.760
538.69	26.942
539.03	27.861
539.37	27.488
539.71	29.012
540.05	27.754
540.39	27.925
540.73	26.709
541.07	27.039
541.42	27.177
541.76	28.175
542.10	27.620
542.44	28.803
542.78	27.753
543.12	28.160
543.46	27.318
543.80	28.070
544.14	28.421
544.48	26.582
544.82	28.135
545.16	27.626
545.50	27.228
545.84	26.768
546.18	28.349
546.52	27.410
546.86	27.917
547.20	27.649
547.54	28.626
547.88	27.251
548.22	28.172
548.56	27.696
548.90	27.106
549.24	28.174
549.58	27.062
549.92	27.374
550.26	27.924
550.60	28.277
550.94	28.358
551.28	28.000
551.62	29.655
551.96	28.446
552.30	27.159
552.64	28.544
552.98	26.997
553.32	26.440
553.66	27.362
554.00	26.577
554.34	27.497
554.68	27.688
555.02	28.988
555.36	27.327
555.69	27.421
556.03	27.834
556.37	27.470
556.71	27.314
557.05	26.474
557.39	28.000
557.73	27.089
558.07	27.498
558.41	27.690
558.75	28.112
559.08	28.163
559.42	27.344
559.76	28.154
560.10	26.772
560.44	26.277
560.78	26.982
561.12	27.718
561.45	27.785
561.79	27.653
562.13	26.658
562.47	27.125
562.81	27.261
563.15	27.343
563.48	26.149
563.82	27.698
564.16	27.799
564.50	28.029
564.84	27.416
565.17	27.332
565.51	27.833
565.85	28.439
566.19	28.155
566.52	27.377
566.86	28.488
567.20	27.472
567.54	27.074
567.88	27.856
568.21	27.359
568.55	27.383
568.89	27.281
569.23	27.179
569.56	28.075
569.90	27.416
570.24	27.734
570.57	27.644
570.91	27.207
571.25	26.868
571.59	26.734
571.92	27.180
572.26	26.280
572.60	26.159
572.93	27.027
573.27	26.852
573.61	27.125
573.95	26.917
574.28	26.975
574.62	26.479
574.96	26.537
575.29	26.353
575.63	26.360
575.97	26.315
576.30	26.019
576.64	26.976
576.98	26.538
577.31	27.144
577.65	26.968
577.98	26.842
578.32	26.826
578.66	26.633
578.99	26.809
579.33	26.996
579.67	26.494
580.00	26.439
580.34	26.330
580.67	26.219
581.01	27.255
581.35	26.973
581.68	26.383
582.02	26.992
582.35	26.786
582.69	26.885
583.02	26.875
583.36	26.513
583.70	26.931
584.03	26.995
584.37	27.284
584.70	26.375
585.04	27.028
585.37	26.488
585.71	27.146
586.04	26.181
586.38	26.047
586.72	26.538
587.05	26.943
587.39	26.877
587.72	26.665
588.06	26.496
588.39	26.663
588.73	26.777
589.06	27.225
589.40	27.512
589.73	27.008
590.07	27.419
590.40	27.491
590.73	28.167
591.07	27.324
591.40	27.026
591.74	26.502
592.07	27.038
592.41	27.218
592.74	27.572
593.08	27.116
593.41	26.361
593.75	26.530
594.08	26.763
594.41	26.035
594.75	26.541
595.08	27.332
595.42	26.761
595.75	27.081
596.09	27.320
596.42	26.548
596.75	27.123
597.09	25.877
597.42	26.735
597.75	27.343
598.09	26.631
598.42	26.683
598.76	26.253
599.09	27.069
599.42	26.886
599.76	27.239
600.09	26.881
600.42	26.278
600.76	26.988
601.09	26.786
601.42	26.118
601.76	26.387
602.09	27.116
602.42	26.174
602.76	26.641
603.09	26.998
603.42	27.560
603.76	26.681
604.09	26.638
604.42	26.177
604.76	26.116
605.09	26.367
605.42	26.534
605.75	26.214
606.09	26.702
606.42	26.043
606.75	27.128
607.09	25.977
607.42	26.396
607.75	26.194
608.08	26.523
608.42	26.384
608.75	26.102
609.08	26.529
609.41	26.636
609.75	26.603
610.08	26.933
610.41	26.307
610.74	26.667
611.07	26.194
611.41	26.599
611.74	25.574
612.07	26.590
612.40	26.316
612.73	27.509
613.07	27.167
613.40	27.068
613.73	26.410
614.06	27.050
614.39	26.263
614.72	26.469
615.06	25.915
615.39	26.733
615.72	26.960
616.05	27.172
616.38	26.433
616.71	26.858
617.05	25.865
617.38	26.517
617.71	26.940
618.04	26.304
618.37	27.571
618.70	26.617
619.03	26.740
619.36	27.764
619.69	26.715
620.03	27.528
620.36	26.911
620.69	27.778
621.02	27.989
621.35	26.862
621.68	27.360
622.01	27.011
622.34	26.948
622.67	26.756
623.00	27.366
623.33	26.856
623.66	26.613
623.99	26.712
624.32	26.491
624.65	26.267
624.99	27.721
625.32	27.255
625.65	26.069
625.98	26.290
626.31	26.261
626.64	25.133
626.97	26.473
627.30	26.708
627.63	27.080
627.96	26.213
628.29	26.568
628.62	25.577
628.95	26.596
629.28	27.520
629.61	27.241
629.94	26.448
630.26	28.076
630.59	27.039
630.92	26.368
631.25	26.655
