SpectraSuite Data File
++++++++++++++++++++++++++++++++++++
Date: Tue May 12 17:13:22 PDT 2015
User: schluterlab
Dark Spectrum Present: Yes
Reference Spectrum Present: Yes
Number of Sampled Component Spectra: 1
Spectrometers: USB2E3373
Integration Time (usec): 3000 (USB2E3373)
Spectra Averaged: 3 (USB2E3373)
Boxcar Smoothing: 0 (USB2E3373)
Correct for Electrical Dark: No (USB2E3373)
Strobe/Lamp Enabled: No (USB2E3373)
Correct for Detector Non-linearity: No (USB2E3373)
Correct for Stray Light: No (USB2E3373)
Number of Pixels in Processed Spectrum: 2048
>>>>>Begin Processed Spectral Data<<<<<
178.53	0.000
178.91	-216.667
179.29	-675.000
179.67	-4100.000
180.04	-166.667
180.42	675.000
180.80	1150.000
181.18	0.000
181.56	-362.500
181.94	0.000
182.31	766.667
182.69	-3300.000
183.07	557.143
183.45	-2900.000
183.83	-1450.000
184.20	340.000
184.58	428.571
184.96	-246.154
185.34	-275.000
185.72	1350.000
186.09	-925.000
186.47	-2900.000
186.85	1000.000
187.23	580.000
187.61	1200.000
187.98	512.500
188.36	271.429
188.74	291.667
189.12	383.333
189.49	850.000
189.87	0.000
190.25	525.000
190.63	1400.000
191.00	-191.667
191.38	-3800.000
191.76	-850.000
192.14	500.000
192.51	-2200.000
192.89	1650.000
193.27	733.333
193.65	-833.333
194.02	-680.000
194.40	528.571
194.78	-164.286
195.15	306.667
195.53	-2500.000
195.91	-500.000
196.29	2800.000
196.66	212.500
197.04	650.000
197.42	-1350.000
197.79	650.000
198.17	325.000
198.55	0.000
198.92	357.143
199.30	933.333
199.68	1650.000
200.05	633.333
200.43	-683.333
200.81	233.333
201.18	2600.000
201.56	225.000
201.94	-800.000
202.31	-325.000
202.69	-520.000
203.07	3800.000
203.44	-433.333
203.82	308.333
204.19	640.000
204.57	-1300.000
204.95	-1000.000
205.32	-720.000
205.70	616.667
206.08	825.000
206.45	-833.333
206.83	366.667
207.20	168.421
207.58	291.667
207.96	780.000
208.33	0.000
208.71	585.714
209.08	680.000
209.46	-2400.000
209.84	-800.000
210.21	960.000
210.59	-580.000
210.96	325.000
211.34	-975.000
211.71	345.455
212.09	1125.000
212.46	1750.000
212.84	-450.000
213.22	333.333
213.59	-1600.000
213.97	230.000
214.34	1025.000
214.72	1066.667
215.09	733.333
215.47	-3200.000
215.84	-330.000
216.22	-425.000
216.59	0.000
216.97	0.000
217.34	1350.000
217.72	-1800.000
218.09	800.000
218.47	412.500
218.84	875.000
219.22	933.333
219.59	1100.000
219.97	557.143
220.34	388.889
220.72	2000.000
221.09	3400.000
221.47	266.667
221.84	1366.667
222.22	390.000
222.59	277.778
222.97	264.286
223.34	256.250
223.72	-1400.000
224.09	1033.333
224.46	246.154
224.84	-725.000
225.21	344.444
225.59	253.333
225.96	1233.333
226.34	-720.000
226.71	-650.000
227.08	-660.000
227.46	0.000
227.83	-483.333
228.21	-1550.000
228.58	383.333
228.95	900.000
229.33	322.222
229.70	1075.000
230.08	346.154
230.45	2800.000
230.82	-800.000
231.20	-866.667
231.57	-966.667
231.95	600.000
232.32	275.000
232.69	633.333
233.07	241.667
233.44	-1350.000
233.81	226.667
234.19	155.556
234.56	200.000
234.93	217.647
235.31	215.000
235.68	200.000
236.05	142.857
236.43	185.185
236.80	285.714
237.17	148.276
237.55	125.000
237.92	135.000
238.29	157.576
238.67	125.000
239.04	102.439
239.41	93.750
239.79	102.500
240.16	100.000
240.53	98.361
240.91	75.362
241.28	100.000
241.65	89.394
242.02	91.549
242.40	88.571
242.77	69.231
243.14	82.278
243.51	87.879
243.89	64.486
244.26	71.963
244.63	84.158
245.00	66.972
245.38	58.475
245.75	65.909
246.12	65.926
246.49	58.865
246.87	66.393
247.24	62.667
247.61	63.750
247.98	67.347
248.36	57.576
248.73	60.204
249.10	54.167
249.47	57.500
249.84	53.731
250.22	65.946
250.59	57.000
250.96	47.257
251.33	52.093
251.70	56.250
252.08	51.261
252.45	52.988
252.82	46.768
253.19	51.383
253.56	53.462
253.94	51.449
254.31	54.651
254.68	54.704
255.05	52.414
255.42	53.650
255.79	53.420
256.16	54.576
256.54	56.169
256.91	52.941
257.28	56.522
257.65	45.455
258.02	49.263
258.39	48.138
258.76	46.957
259.14	47.429
259.51	52.478
259.88	50.760
260.25	51.099
260.62	48.493
260.99	43.526
261.36	52.646
261.73	47.606
262.10	51.832
262.47	49.500
262.85	47.733
263.22	49.100
263.59	49.105
263.96	48.622
264.33	46.173
264.70	50.123
265.07	50.976
265.44	47.706
265.81	47.877
266.18	49.657
266.55	48.227
266.92	46.309
267.29	46.711
267.66	47.758
268.03	48.206
268.40	47.569
268.77	50.441
269.14	48.156
269.51	46.325
269.88	47.755
270.25	45.140
270.62	48.283
270.99	48.884
271.36	46.748
271.73	46.960
272.10	45.253
272.47	47.421
272.84	44.112
273.21	46.694
273.58	47.166
273.95	46.612
274.32	47.860
274.69	47.441
275.06	47.541
275.43	44.636
275.80	44.528
276.17	45.221
276.54	44.860
276.91	47.948
277.28	44.343
277.65	47.786
278.02	46.507
278.39	45.144
278.76	44.655
279.13	44.484
279.50	45.818
279.87	41.899
280.23	43.831
280.60	46.168
280.97	43.966
281.34	42.244
281.71	43.304
282.08	44.274
282.45	44.595
282.82	41.137
283.19	45.628
283.56	42.810
283.92	44.951
284.29	42.928
284.66	40.168
285.03	43.947
285.40	41.322
285.77	39.660
286.14	44.427
286.51	41.258
286.87	40.190
287.24	39.339
287.61	43.009
287.98	40.000
288.35	41.185
288.72	39.302
289.08	40.991
289.45	41.311
289.82	42.344
290.19	40.703
290.56	40.902
290.93	39.281
291.29	38.812
291.66	37.429
292.03	39.832
292.40	36.856
292.77	36.630
293.13	37.090
293.50	36.707
293.87	36.450
294.24	38.462
294.60	38.358
294.97	37.902
295.34	37.052
295.71	36.268
296.08	36.933
296.44	37.992
296.81	35.608
297.18	33.840
297.55	36.700
297.91	35.468
298.28	35.628
298.65	34.969
299.02	36.188
299.38	35.132
299.75	35.122
300.12	35.550
300.48	35.831
300.85	35.399
301.22	35.814
301.59	34.906
301.95	32.439
302.32	34.342
302.69	34.615
303.05	34.792
303.42	33.072
303.79	33.911
304.15	35.534
304.52	34.144
304.89	35.714
305.25	36.485
305.62	35.288
305.99	35.000
306.35	35.474
306.72	35.276
307.09	35.714
307.45	36.220
307.82	34.259
308.19	34.742
308.55	34.400
308.92	35.721
309.29	36.686
309.65	36.967
310.02	38.337
310.38	35.992
310.75	38.091
311.12	37.739
311.48	38.803
311.85	38.073
312.22	39.160
312.58	38.192
312.95	39.320
313.31	39.326
313.68	40.432
314.05	41.941
314.41	40.317
314.78	41.193
315.14	42.844
315.51	42.006
315.87	41.515
316.24	43.884
316.61	43.868
316.97	43.394
317.34	44.564
317.70	45.391
318.07	47.242
318.43	47.540
318.80	47.898
319.16	46.766
319.53	47.876
319.89	48.118
320.26	50.186
320.62	51.374
320.99	52.622
321.35	52.134
321.72	52.277
322.08	53.278
322.45	54.314
322.81	54.437
323.18	55.062
323.54	56.969
323.91	59.383
324.27	57.913
324.64	57.958
325.00	60.172
325.37	60.793
325.73	61.046
326.10	62.303
326.46	62.180
326.83	62.560
327.19	65.221
327.56	63.658
327.92	66.066
328.29	64.403
328.65	66.438
329.01	66.638
329.38	67.005
329.74	66.097
330.11	67.246
330.47	68.116
330.84	66.954
331.20	68.190
331.56	69.085
331.93	67.665
332.29	68.537
332.66	69.048
333.02	68.814
333.38	71.030
333.75	69.475
334.11	68.624
334.48	70.598
334.84	69.595
335.20	70.659
335.57	68.934
335.93	69.722
336.29	69.403
336.66	71.612
337.02	69.033
337.38	70.335
337.75	69.932
338.11	71.055
338.47	70.533
338.84	69.941
339.20	71.169
339.56	68.966
339.93	68.813
340.29	69.916
340.65	71.417
341.02	69.992
341.38	72.250
341.74	72.176
342.11	71.202
342.47	71.124
342.83	72.436
343.20	71.544
343.56	69.420
343.92	72.585
344.28	70.574
344.65	72.616
345.01	70.794
345.37	71.554
345.73	71.190
346.10	70.757
346.46	70.654
346.82	68.133
347.19	70.402
347.55	69.555
347.91	70.846
348.27	70.101
348.63	70.886
349.00	71.439
349.36	71.673
349.72	70.872
350.08	70.963
350.45	72.201
350.81	70.413
351.17	69.569
351.53	71.824
351.89	70.085
352.26	70.899
352.62	70.588
352.98	71.472
353.34	71.726
353.70	71.024
354.07	70.538
354.43	71.121
354.79	70.311
355.15	70.597
355.51	71.148
355.87	71.235
356.24	69.592
356.60	70.244
356.96	70.584
357.32	70.535
357.68	70.117
358.04	72.340
358.40	71.139
358.77	72.502
359.13	71.997
359.49	70.719
359.85	71.929
360.21	71.991
360.57	71.606
360.93	70.924
361.29	70.924
361.66	73.378
362.02	70.597
362.38	70.707
362.74	72.328
363.10	70.968
363.46	68.646
363.82	69.635
364.18	70.910
364.54	71.459
364.90	70.884
365.26	71.131
365.62	70.580
365.98	69.787
366.35	70.897
366.71	71.270
367.07	71.263
367.43	69.577
367.79	69.415
368.15	70.285
368.51	70.917
368.87	70.788
369.23	70.755
369.59	69.993
369.95	71.259
370.31	68.789
370.67	70.021
371.03	69.538
371.39	72.091
371.75	69.714
372.11	70.496
372.47	71.370
372.83	71.244
373.19	71.487
373.55	70.103
373.91	69.682
374.27	69.577
374.63	68.475
374.99	69.272
375.35	70.363
375.71	69.657
376.07	70.358
376.42	68.542
376.78	69.750
377.14	70.839
377.50	68.851
377.86	69.763
378.22	69.653
378.58	70.460
378.94	68.799
379.30	69.739
379.66	69.536
380.02	68.504
380.38	69.321
380.74	69.435
381.09	69.743
381.45	67.919
381.81	67.671
382.17	68.926
382.53	69.046
382.89	69.899
383.25	68.917
383.61	68.127
383.97	68.146
384.32	67.390
384.68	69.340
385.04	68.171
385.40	67.616
385.76	66.823
386.12	67.965
386.48	69.240
386.83	68.765
387.19	69.022
387.55	67.786
387.91	67.610
388.27	68.055
388.62	67.547
388.98	65.656
389.34	65.854
389.70	66.627
390.06	67.439
390.42	66.626
390.77	66.708
391.13	66.023
391.49	64.973
391.85	67.692
392.20	64.779
392.56	65.830
392.92	63.560
393.28	64.798
393.64	64.335
393.99	66.627
394.35	63.214
394.71	63.390
395.07	63.869
395.42	64.578
395.78	64.035
396.14	65.000
396.50	64.380
396.85	64.329
397.21	64.079
397.57	63.359
397.92	62.969
398.28	64.258
398.64	63.293
399.00	62.320
399.35	61.353
399.71	62.086
400.07	62.100
400.42	62.746
400.78	62.111
401.14	62.948
401.49	61.463
401.85	62.283
402.21	62.097
402.57	62.298
402.92	62.061
403.28	61.158
403.63	60.742
403.99	59.771
404.35	61.313
404.70	62.197
405.06	59.461
405.42	60.862
405.77	60.088
406.13	58.894
406.49	59.181
406.84	58.658
407.20	60.845
407.55	59.815
407.91	59.860
408.27	58.702
408.62	58.309
408.98	58.604
409.34	57.978
409.69	57.250
410.05	57.841
410.40	57.538
410.76	56.325
411.11	58.472
411.47	57.531
411.83	56.591
412.18	56.703
412.54	56.877
412.89	56.283
413.25	56.670
413.60	57.535
413.96	55.236
414.31	57.733
414.67	57.542
415.03	57.024
415.38	56.972
415.74	57.991
416.09	55.903
416.45	57.014
416.80	56.446
417.16	55.570
417.51	55.796
417.87	54.881
418.22	55.407
418.58	57.452
418.93	55.681
419.29	55.761
419.64	55.784
420.00	56.862
420.35	55.343
420.71	52.975
421.06	55.327
421.42	55.268
421.77	54.914
422.12	55.182
422.48	54.956
422.83	54.408
423.19	54.428
423.54	53.812
423.90	55.040
424.25	55.146
424.61	54.440
424.96	54.037
425.31	53.530
425.67	55.219
426.02	54.459
426.38	54.667
426.73	55.986
427.09	54.033
427.44	53.911
427.79	54.946
428.15	56.453
428.50	54.971
428.85	54.909
429.21	54.403
429.56	54.088
429.92	54.053
430.27	53.556
430.62	52.276
430.98	53.543
431.33	53.327
431.68	52.296
432.04	52.354
432.39	53.513
432.74	55.035
433.10	54.374
433.45	54.107
433.80	54.550
434.16	53.967
434.51	53.251
434.86	53.620
435.22	54.727
435.57	54.594
435.92	54.468
436.28	53.687
436.63	53.377
436.98	54.561
437.34	53.025
437.69	52.912
438.04	52.043
438.39	52.539
438.75	53.062
439.10	52.671
439.45	51.441
439.81	53.499
440.16	52.614
440.51	52.477
440.86	52.536
441.22	52.652
441.57	53.858
441.92	52.616
442.27	52.371
442.63	51.728
442.98	51.832
443.33	51.901
443.68	51.861
444.03	52.309
444.39	52.354
444.74	51.708
445.09	51.764
445.44	52.019
445.79	51.511
446.15	52.211
446.50	51.371
446.85	52.191
447.20	51.443
447.55	52.583
447.91	51.678
448.26	52.343
448.61	51.465
448.96	51.961
449.31	52.970
449.66	51.495
450.02	50.459
450.37	50.972
450.72	51.846
451.07	51.832
451.42	51.274
451.77	51.833
452.12	51.560
452.47	52.491
452.83	52.338
453.18	51.231
453.53	51.687
453.88	50.800
454.23	51.424
454.58	51.166
454.93	50.092
455.28	50.979
455.63	51.714
455.98	50.592
456.34	52.280
456.69	51.098
457.04	50.656
457.39	50.229
457.74	50.676
458.09	49.579
458.44	51.424
458.79	50.080
459.14	49.755
459.49	49.660
459.84	49.891
460.19	49.774
460.54	49.516
460.89	50.800
461.24	48.167
461.59	49.717
461.94	49.645
462.29	49.371
462.64	51.068
462.99	49.456
463.34	48.671
463.69	48.760
464.04	49.568
464.39	48.540
464.74	48.242
465.09	47.591
465.44	47.824
465.79	47.959
466.14	47.271
466.49	48.182
466.84	47.213
467.19	47.979
467.54	48.468
467.89	48.298
468.24	48.292
468.59	47.619
468.94	47.886
469.29	48.870
469.64	47.974
469.99	49.293
470.34	47.881
470.68	47.517
471.03	48.432
471.38	47.616
471.73	47.681
472.08	48.663
472.43	49.472
472.78	47.887
473.13	46.934
473.48	47.005
473.83	47.350
474.17	47.356
474.52	46.505
474.87	46.163
475.22	47.230
475.57	46.327
475.92	46.244
476.27	46.192
476.61	46.810
476.96	46.029
477.31	47.815
477.66	47.719
478.01	45.797
478.36	45.366
478.70	45.211
479.05	45.764
479.40	45.833
479.75	45.581
480.10	46.854
480.45	45.892
480.79	45.253
481.14	45.316
481.49	45.334
481.84	45.558
482.19	45.764
482.53	44.971
482.88	45.968
483.23	44.790
483.58	46.499
483.92	45.658
484.27	44.435
484.62	45.246
484.97	44.137
485.31	42.797
485.66	43.042
486.01	42.839
486.36	42.629
486.70	41.986
487.05	42.518
487.40	42.498
487.75	43.543
488.09	42.955
488.44	43.340
488.79	43.422
489.13	43.822
489.48	44.107
489.83	43.036
490.17	43.394
490.52	44.186
490.87	43.060
491.22	43.883
491.56	44.005
491.91	43.369
492.26	44.321
492.60	44.601
492.95	43.317
493.30	43.676
493.64	42.992
493.99	42.755
494.34	44.330
494.68	42.541
495.03	43.062
495.37	43.134
495.72	43.497
496.07	42.588
496.41	42.007
496.76	41.241
497.11	43.145
497.45	42.657
497.80	43.095
498.14	42.996
498.49	42.386
498.84	43.645
499.18	42.733
499.53	43.271
499.87	41.869
500.22	43.068
500.56	42.433
500.91	42.764
501.26	42.857
501.60	43.397
501.95	42.563
502.29	42.000
502.64	41.906
502.98	41.796
503.33	42.272
503.67	42.296
504.02	41.290
504.36	42.624
504.71	42.857
505.06	41.389
505.40	42.022
505.75	41.721
506.09	41.717
506.44	43.186
506.78	42.533
507.13	42.317
507.47	41.776
507.82	42.676
508.16	43.067
508.51	41.884
508.85	41.690
509.19	42.193
509.54	42.188
509.88	42.069
510.23	41.765
510.57	40.734
510.92	42.557
511.26	41.114
511.61	41.113
511.95	41.364
512.30	41.150
512.64	41.952
512.98	41.005
513.33	41.855
513.67	41.740
514.02	42.026
514.36	41.537
514.70	40.960
515.05	41.449
515.39	42.763
515.74	42.318
516.08	41.285
516.42	43.060
516.77	39.893
517.11	41.280
517.46	40.625
517.80	40.360
518.14	41.915
518.49	42.172
518.83	40.165
519.17	42.097
519.52	41.780
519.86	40.872
520.20	41.644
520.55	41.775
520.89	40.402
521.23	41.764
521.58	40.218
521.92	41.108
522.26	40.758
522.61	41.592
522.95	41.321
523.29	41.637
523.64	41.156
523.98	40.962
524.32	40.715
524.66	41.159
525.01	41.361
525.35	40.424
525.69	40.819
526.04	41.344
526.38	41.436
526.72	41.110
527.06	39.799
527.41	41.173
527.75	41.083
528.09	40.277
528.43	41.306
528.78	41.026
529.12	41.421
529.46	39.977
529.80	40.654
530.15	40.424
530.49	38.989
530.83	40.463
531.17	40.344
531.51	40.221
531.86	38.829
532.20	39.740
532.54	39.485
532.88	40.787
533.22	39.732
533.57	39.963
533.91	38.753
534.25	38.257
534.59	40.468
534.93	38.794
535.27	38.361
535.62	38.331
535.96	39.953
536.30	40.158
536.64	38.323
536.98	39.459
537.32	38.813
537.66	39.094
538.01	39.381
538.35	39.052
538.69	38.774
539.03	38.371
539.37	37.985
539.71	39.259
540.05	38.277
540.39	40.252
540.73	39.937
541.07	38.519
541.42	39.055
541.76	38.903
542.10	38.841
542.44	38.653
542.78	38.326
543.12	37.485
543.46	37.093
543.80	38.659
544.14	38.824
544.48	37.165
544.82	38.654
545.16	37.826
545.50	37.984
545.84	38.763
546.18	38.622
546.52	39.607
546.86	38.620
547.20	37.468
547.54	38.885
547.88	37.348
548.22	38.191
548.56	37.949
548.90	36.121
549.24	38.534
549.58	38.273
549.92	39.227
550.26	38.540
550.60	38.989
550.94	39.756
551.28	39.172
551.62	39.172
551.96	37.770
552.30	36.256
552.64	38.835
552.98	37.951
553.32	37.324
553.66	37.915
554.00	37.001
554.34	39.481
554.68	38.777
555.02	38.086
555.36	38.963
555.69	38.351
556.03	37.452
556.37	36.902
556.71	39.309
557.05	37.484
557.39	38.267
557.73	37.938
558.07	38.028
558.41	37.903
558.75	37.620
559.08	38.027
559.42	38.010
559.76	39.202
560.10	37.784
560.44	37.226
560.78	37.916
561.12	37.317
561.45	36.358
561.79	37.266
562.13	36.955
562.47	37.573
562.81	37.866
563.15	37.492
563.48	36.025
563.82	37.867
564.16	37.562
564.50	36.528
564.84	37.568
565.17	35.769
565.51	37.623
565.85	38.865
566.19	36.667
566.52	35.800
566.86	36.894
567.20	37.135
567.54	37.118
567.88	36.776
568.21	36.146
568.55	36.527
568.89	36.588
569.23	36.583
569.56	36.701
569.90	35.322
570.24	35.332
570.57	35.204
570.91	34.914
571.25	34.757
571.59	34.659
571.92	34.230
572.26	34.313
572.60	34.046
572.93	34.560
573.27	34.693
573.61	34.109
573.95	34.462
574.28	35.022
574.62	34.397
574.96	33.725
575.29	33.665
575.63	33.522
575.97	33.715
576.30	33.738
576.64	34.079
576.98	34.177
577.31	34.043
577.65	34.319
577.98	34.520
578.32	33.377
578.66	34.409
578.99	33.753
579.33	34.055
579.67	33.695
580.00	33.823
580.34	33.706
580.67	33.333
581.01	34.562
581.35	33.572
581.68	33.454
582.02	33.678
582.35	34.064
582.69	33.832
583.02	33.804
583.36	33.980
583.70	34.056
584.03	34.253
584.37	34.276
584.70	34.337
585.04	33.690
585.37	33.814
585.71	34.157
586.04	34.095
586.38	33.732
586.72	34.723
587.05	34.483
587.39	34.134
587.72	34.374
588.06	34.492
588.39	34.672
588.73	33.969
589.06	34.316
589.40	34.836
589.73	33.923
590.07	35.003
590.40	34.808
590.73	36.247
591.07	35.674
591.40	35.170
591.74	34.416
592.07	34.484
592.41	34.892
592.74	34.090
593.08	34.440
593.41	33.752
593.75	33.646
594.08	34.001
594.41	34.018
594.75	34.897
595.08	34.225
595.42	34.628
595.75	34.452
596.09	34.689
596.42	34.086
596.75	34.335
597.09	35.493
597.42	34.286
597.75	35.132
598.09	34.510
598.42	34.272
598.76	33.423
599.09	34.682
599.42	33.875
599.76	33.582
600.09	34.373
600.42	33.909
600.76	33.787
601.09	34.588
601.42	33.369
601.76	34.157
602.09	35.099
602.42	33.937
602.76	34.080
603.09	35.332
603.42	34.862
603.76	33.984
604.09	34.636
604.42	34.689
604.76	34.927
605.09	34.408
605.42	34.417
605.75	34.544
606.09	33.894
606.42	34.123
606.75	34.046
607.09	33.320
607.42	33.507
607.75	33.519
608.08	33.875
608.42	34.690
608.75	33.547
609.08	33.700
609.41	35.364
609.75	35.073
610.08	34.802
610.41	33.816
610.74	34.242
611.07	34.288
611.41	34.615
611.74	34.130
612.07	35.212
612.40	33.821
612.73	35.047
613.07	35.124
613.40	35.038
613.73	35.347
614.06	34.000
614.39	34.293
614.72	33.752
615.06	33.680
615.39	34.109
615.72	33.543
616.05	34.656
616.38	34.754
616.71	34.346
617.05	33.937
617.38	34.775
617.71	35.096
618.04	33.932
618.37	33.685
618.70	35.104
619.03	35.409
619.36	33.982
619.69	34.960
620.03	36.073
620.36	35.196
620.69	35.824
621.02	35.870
621.35	35.172
621.68	34.956
622.01	37.122
622.34	34.669
622.67	35.183
623.00	35.194
623.33	36.100
623.66	35.595
623.99	35.753
624.32	35.366
624.65	35.155
624.99	35.091
625.32	35.003
625.65	34.069
625.98	33.543
626.31	35.163
626.64	35.383
626.97	34.430
627.30	35.171
627.63	36.028
627.96	34.977
628.29	35.561
628.62	33.704
628.95	36.791
629.28	36.897
629.61	35.237
629.94	35.177
630.26	35.355
630.59	36.968
630.92	34.978
631.25	35.721
