SpectraSuite Data File
++++++++++++++++++++++++++++++++++++
Date: Tue May 12 16:05:59 PDT 2015
User: schluterlab
Dark Spectrum Present: Yes
Reference Spectrum Present: Yes
Number of Sampled Component Spectra: 1
Spectrometers: USB2E3373
Integration Time (usec): 3000 (USB2E3373)
Spectra Averaged: 3 (USB2E3373)
Boxcar Smoothing: 0 (USB2E3373)
Correct for Electrical Dark: No (USB2E3373)
Strobe/Lamp Enabled: No (USB2E3373)
Correct for Detector Non-linearity: No (USB2E3373)
Correct for Stray Light: No (USB2E3373)
Number of Pixels in Processed Spectrum: 2048
>>>>>Begin Processed Spectral Data<<<<<
178.53	0.000
178.91	-333.333
179.29	-700.000
179.67	-3900.000
180.04	-160.000
180.42	750.000
180.80	1800.000
181.18	0.000
181.56	-337.500
181.94	0.000
182.31	1533.333
182.69	-3300.000
183.07	728.571
183.45	-4300.000
183.83	-1750.000
184.20	390.000
184.58	542.857
184.96	-253.846
185.34	-200.000
185.72	1800.000
186.09	-950.000
186.47	-4000.000
186.85	1033.333
187.23	840.000
187.61	1750.000
187.98	475.000
188.36	250.000
188.74	325.000
189.12	408.333
189.49	1000.000
189.87	0.000
190.25	475.000
190.63	3100.000
191.00	-291.667
191.38	-3600.000
191.76	-850.000
192.14	575.000
192.51	-3500.000
192.89	1950.000
193.27	900.000
193.65	-1133.333
194.02	-760.000
194.40	628.571
194.78	-271.429
195.15	346.667
195.53	-3000.000
195.91	-740.000
196.29	4000.000
196.66	225.000
197.04	950.000
197.42	-1450.000
197.79	725.000
198.17	408.333
198.55	0.000
198.92	457.143
199.30	1233.333
199.68	2500.000
200.05	716.667
200.43	-550.000
200.81	233.333
201.18	3300.000
201.56	225.000
201.94	-825.000
202.31	-400.000
202.69	-540.000
203.07	2900.000
203.44	-550.000
203.82	275.000
204.19	760.000
204.57	-1750.000
204.95	-800.000
205.32	-820.000
205.70	483.333
206.08	725.000
206.45	-966.667
206.83	377.778
207.20	184.211
207.58	250.000
207.96	780.000
208.33	0.000
208.71	585.714
209.08	700.000
209.46	-3200.000
209.84	-725.000
210.21	880.000
210.59	-620.000
210.96	408.333
211.34	-1175.000
211.71	463.636
212.09	850.000
212.46	1700.000
212.84	-450.000
213.22	522.222
213.59	-1900.000
213.97	320.000
214.34	850.000
214.72	1300.000
215.09	900.000
215.47	-3400.000
215.84	-320.000
216.22	-362.500
216.59	0.000
216.97	0.000
217.34	2050.000
217.72	-1350.000
218.09	1133.333
218.47	562.500
218.84	950.000
219.22	966.667
219.59	800.000
219.97	657.143
220.34	377.778
220.72	1650.000
221.09	3600.000
221.47	275.000
221.84	1100.000
222.22	400.000
222.59	261.111
222.97	257.143
223.34	262.500
223.72	-1500.000
224.09	1366.667
224.46	323.077
224.84	-900.000
225.21	377.778
225.59	266.667
225.96	1500.000
226.34	-800.000
226.71	-625.000
227.08	-580.000
227.46	0.000
227.83	-683.333
228.21	-1550.000
228.58	425.000
228.95	800.000
229.33	377.778
229.70	1100.000
230.08	353.846
230.45	3600.000
230.82	-925.000
231.20	-966.667
231.57	-1000.000
231.95	700.000
232.32	350.000
232.69	600.000
233.07	400.000
233.44	-1800.000
233.81	293.333
234.19	181.481
234.56	193.750
234.93	235.294
235.31	170.000
235.68	250.000
236.05	182.143
236.43	162.963
236.80	285.714
237.17	203.448
237.55	96.875
237.92	120.000
238.29	151.515
238.67	140.625
239.04	107.317
239.41	83.333
239.79	100.000
240.16	91.667
240.53	65.574
240.91	73.913
241.28	84.746
241.65	62.121
242.02	80.282
242.40	85.714
242.77	54.945
243.14	55.696
243.51	63.636
243.89	45.794
244.26	49.533
244.63	47.525
245.00	57.798
245.38	42.373
245.75	40.909
246.12	42.963
246.49	35.461
246.87	36.885
247.24	49.333
247.61	37.500
247.98	43.537
248.36	39.394
248.73	41.837
249.10	35.119
249.47	40.000
249.84	33.333
250.22	30.811
250.59	26.500
250.96	35.021
251.33	38.605
251.70	29.018
252.08	28.992
252.45	30.279
252.82	28.517
253.19	28.458
253.56	27.692
253.94	30.797
254.31	30.620
254.68	29.965
255.05	27.931
255.42	26.642
255.79	31.596
256.16	27.458
256.54	28.571
256.91	29.412
257.28	28.094
257.65	26.019
258.02	24.484
258.39	27.221
258.76	30.145
259.14	23.714
259.51	29.155
259.88	27.356
260.25	24.725
260.62	25.205
260.99	26.722
261.36	27.298
261.73	24.468
262.10	26.702
262.47	26.250
262.85	26.400
263.22	27.506
263.59	26.854
263.96	25.313
264.33	23.457
264.70	26.290
265.07	24.146
265.44	24.541
265.81	26.179
266.18	23.570
266.55	24.113
266.92	21.700
267.29	25.219
267.66	23.318
268.03	23.991
268.40	23.679
268.77	27.974
269.14	21.041
269.51	21.158
269.88	23.878
270.25	21.166
270.62	23.391
270.99	24.341
271.36	22.967
271.73	23.480
272.10	23.232
272.47	24.603
272.84	23.752
273.21	24.587
273.58	24.291
273.95	21.561
274.32	22.568
274.69	25.394
275.06	24.044
275.43	22.031
275.80	23.774
276.17	22.610
276.54	23.178
276.91	25.746
277.28	19.891
277.65	23.247
278.02	22.610
278.39	22.482
278.76	20.690
279.13	21.530
279.50	23.818
279.87	20.670
280.23	21.731
280.60	22.080
280.97	23.276
281.34	21.287
281.71	20.696
282.08	21.026
282.45	20.270
282.82	21.070
283.19	22.099
283.56	20.331
283.92	22.313
284.29	22.130
284.66	17.983
285.03	21.725
285.40	20.496
285.77	20.988
286.14	20.124
286.51	20.552
286.87	18.829
287.24	18.769
287.61	20.517
287.98	20.000
288.35	21.037
288.72	18.361
289.08	20.120
289.45	20.274
289.82	20.781
290.19	19.327
290.56	21.106
290.93	19.424
291.29	19.199
291.66	19.774
292.03	18.093
292.40	18.835
292.77	20.891
293.13	17.689
293.50	19.433
293.87	18.699
294.24	20.000
294.60	20.592
294.97	20.140
295.34	19.124
295.71	19.185
296.08	18.533
296.44	19.187
296.81	17.990
297.18	17.617
297.55	19.828
297.91	18.227
298.28	18.478
298.65	18.160
299.02	18.697
299.38	18.825
299.75	17.561
300.12	18.922
300.48	18.501
300.85	18.951
301.22	17.442
301.59	17.335
301.95	18.436
302.32	18.626
302.69	19.118
303.05	18.967
303.42	16.480
303.79	19.177
304.15	18.372
304.52	18.499
304.89	17.804
305.25	19.355
305.62	19.403
305.99	18.043
306.35	19.368
306.72	20.083
307.09	17.909
307.45	17.951
307.82	18.930
308.19	19.588
308.55	19.000
308.92	19.627
309.29	20.907
309.65	20.218
310.02	20.588
310.38	18.744
310.75	18.322
311.12	19.732
311.48	20.656
311.85	21.469
312.22	21.490
312.58	19.339
312.95	20.874
313.31	22.285
313.68	21.857
314.05	22.711
314.41	22.067
314.78	21.307
315.14	23.697
315.51	22.990
315.87	22.445
316.24	23.716
316.61	23.814
316.97	23.119
317.34	24.169
317.70	24.671
318.07	26.601
318.43	25.659
318.80	25.919
319.16	25.524
319.53	26.106
319.89	25.358
320.26	26.536
320.62	27.198
320.99	28.122
321.35	28.015
321.72	28.653
322.08	28.809
322.45	29.700
322.81	29.552
323.18	30.107
323.54	31.446
323.91	31.369
324.27	31.388
324.64	31.315
325.00	32.586
325.37	32.125
325.73	33.052
326.10	35.128
326.46	33.443
326.83	34.800
327.19	35.663
327.56	35.543
327.92	37.377
328.29	36.579
328.65	36.729
329.01	37.639
329.38	37.563
329.74	37.489
330.11	38.836
330.47	38.534
330.84	37.532
331.20	39.594
331.56	38.860
331.93	38.751
332.29	38.776
332.66	39.286
333.02	39.175
333.38	40.489
333.75	39.199
334.11	38.591
334.48	39.915
334.84	38.007
335.20	38.922
335.57	37.951
335.93	38.856
336.29	38.640
336.66	40.137
337.02	38.751
337.38	39.037
337.75	39.696
338.11	39.494
338.47	40.051
338.84	38.103
339.20	38.788
339.56	38.520
339.93	39.298
340.29	39.160
340.65	38.977
341.02	38.134
341.38	39.901
341.74	38.538
342.11	39.816
342.47	38.720
342.83	38.884
343.20	38.642
343.56	37.331
343.92	38.976
344.28	38.278
344.65	39.283
345.01	38.651
345.37	37.580
345.73	37.619
346.10	38.805
346.46	39.872
346.82	38.194
347.19	39.335
347.55	38.173
347.91	37.689
348.27	38.110
348.63	38.370
349.00	38.462
349.36	38.988
349.72	39.144
350.08	39.053
350.45	39.299
350.81	37.691
351.17	37.982
351.53	38.491
351.89	38.073
352.26	38.171
352.62	37.707
352.98	37.347
353.34	37.211
353.70	37.920
354.07	38.538
354.43	37.634
354.79	37.889
355.15	38.055
355.51	37.840
355.87	37.651
356.24	37.105
356.60	36.758
356.96	38.287
357.32	37.604
357.68	37.959
358.04	37.462
358.40	38.681
358.77	37.791
359.13	37.913
359.49	37.361
359.85	38.198
360.21	36.478
360.57	37.445
360.93	37.879
361.29	37.662
361.66	38.479
362.02	36.861
362.38	38.672
362.74	38.429
363.10	38.149
363.46	36.395
363.82	36.325
364.18	37.553
364.54	37.840
364.90	37.349
365.26	37.890
365.62	36.602
365.98	36.270
366.35	35.862
366.71	37.821
367.07	37.679
367.43	37.408
367.79	37.101
368.15	35.753
368.51	38.043
368.87	37.024
369.23	36.798
369.59	36.952
369.95	37.273
370.31	36.413
370.67	36.294
371.03	36.555
371.39	36.219
371.75	36.706
372.11	36.778
372.47	37.945
372.83	36.438
373.19	36.943
373.55	38.076
373.91	35.773
374.27	35.780
374.63	36.678
374.99	36.658
375.35	36.559
375.71	36.675
376.07	37.334
376.42	35.550
376.78	36.930
377.14	35.911
377.50	35.893
377.86	35.618
378.22	36.076
378.58	36.743
378.94	36.210
379.30	36.143
379.66	37.086
380.02	35.718
380.38	36.066
380.74	36.159
381.09	37.325
381.45	34.566
381.81	36.052
382.17	36.020
382.53	37.193
382.89	36.251
383.25	35.287
383.61	34.986
383.97	36.053
384.32	35.503
384.68	37.017
385.04	36.694
385.40	36.477
385.76	35.108
386.12	35.993
386.48	36.170
386.83	35.269
387.19	35.807
387.55	35.512
387.91	34.873
388.27	36.228
388.62	35.974
388.98	36.152
389.34	34.741
389.70	35.377
390.06	35.793
390.42	36.521
390.77	35.688
391.13	36.210
391.49	35.027
391.85	36.000
392.20	35.221
392.56	34.886
392.92	34.924
393.28	35.090
393.64	34.920
393.99	33.788
394.35	35.491
394.71	34.379
395.07	35.036
395.42	35.246
395.78	35.287
396.14	35.964
396.50	34.597
396.85	34.329
397.21	34.537
397.57	35.445
397.92	34.662
398.28	35.190
398.64	35.253
399.00	33.405
399.35	34.085
399.71	33.940
400.07	35.788
400.42	34.567
400.78	34.135
401.14	34.645
401.49	34.044
401.85	34.473
402.21	34.329
402.57	34.650
402.92	35.030
403.28	33.890
403.63	34.197
403.99	34.680
404.35	34.408
404.70	34.377
405.06	33.240
405.42	34.470
405.77	33.572
406.13	33.134
406.49	33.428
406.84	34.461
407.20	33.904
407.55	33.538
407.91	35.290
408.27	34.021
408.62	34.240
408.98	33.708
409.34	33.431
409.69	33.167
410.05	33.870
410.40	33.451
410.76	32.856
411.11	33.886
411.47	32.654
411.83	33.743
412.18	32.850
412.54	33.453
412.89	33.333
413.25	33.409
413.60	33.762
413.96	34.650
414.31	33.176
414.67	34.202
415.03	33.525
415.38	33.691
415.74	33.797
416.09	34.041
416.45	34.131
416.80	34.124
417.16	33.291
417.51	34.013
417.87	33.104
418.22	34.143
418.58	34.395
418.93	33.135
419.29	33.210
419.64	33.313
420.00	34.248
420.35	33.798
420.71	33.781
421.06	33.314
421.42	34.542
421.77	34.314
422.12	33.241
422.48	33.436
422.83	33.036
423.19	33.747
423.54	33.297
423.90	34.088
424.25	33.627
424.61	34.127
424.96	32.750
425.31	33.935
425.67	34.063
426.02	33.595
426.38	33.897
426.73	34.876
427.09	34.520
427.44	33.765
427.79	34.191
428.15	34.001
428.50	34.686
428.85	35.626
429.21	34.036
429.56	34.048
429.92	33.615
430.27	33.914
430.62	32.403
430.98	33.283
431.33	32.812
431.68	32.691
432.04	33.109
432.39	34.248
432.74	35.129
433.10	34.109
433.45	33.716
433.80	34.584
434.16	33.631
434.51	35.449
434.86	34.948
435.22	33.982
435.57	34.025
435.92	34.946
436.28	33.929
436.63	34.414
436.98	34.741
437.34	34.589
437.69	33.651
438.04	34.892
438.39	34.793
438.75	35.022
439.10	34.053
439.45	34.200
439.81	34.413
440.16	35.113
440.51	33.727
440.86	36.011
441.22	35.065
441.57	34.278
441.92	34.403
442.27	34.124
442.63	34.045
442.98	33.297
443.33	35.351
443.68	35.211
444.03	34.072
444.39	34.181
444.74	33.851
445.09	34.229
445.44	35.335
445.79	34.844
446.15	34.789
446.50	34.810
446.85	34.612
447.20	34.328
447.55	35.835
447.91	35.376
448.26	34.824
448.61	34.992
448.96	35.512
449.31	35.644
449.66	35.770
450.02	34.900
450.37	35.758
450.72	35.317
451.07	35.544
451.42	34.499
451.77	35.452
452.12	34.657
452.47	36.391
452.83	36.000
453.18	35.616
453.53	36.116
453.88	36.343
454.23	36.897
454.58	35.548
454.93	35.868
455.28	36.597
455.63	35.106
455.98	34.969
456.34	35.866
456.69	35.915
457.04	35.621
457.39	35.429
457.74	36.768
458.09	35.261
458.44	35.926
458.79	35.703
459.14	36.116
459.49	35.787
459.84	36.413
460.19	36.441
460.54	35.271
460.89	35.128
461.24	35.166
461.59	35.828
461.94	35.579
462.29	36.670
462.64	37.249
462.99	35.573
463.34	36.099
463.69	36.661
464.04	36.442
464.39	37.035
464.74	34.642
465.09	35.577
465.44	35.528
465.79	36.364
466.14	35.029
466.49	35.648
466.84	36.455
467.19	36.262
467.54	35.736
467.89	36.209
468.24	35.553
468.59	35.000
468.94	36.413
469.29	36.652
469.64	35.305
469.99	36.375
470.34	36.369
470.68	36.759
471.03	36.224
471.38	36.358
471.73	36.577
472.08	36.856
472.43	35.630
472.78	36.812
473.13	35.044
473.48	36.980
473.83	36.219
474.17	36.535
474.52	36.967
474.87	35.361
475.22	36.151
475.57	35.677
475.92	36.127
476.27	35.528
476.61	35.871
476.96	35.789
477.31	37.121
477.66	36.554
478.01	36.050
478.36	35.788
478.70	35.037
479.05	35.513
479.40	35.268
479.75	35.849
480.10	36.157
480.45	35.434
480.79	35.530
481.14	35.283
481.49	35.178
481.84	35.268
482.19	35.983
482.53	35.573
482.88	35.170
483.23	34.687
483.58	35.952
483.92	36.380
484.27	35.488
484.62	35.696
484.97	33.697
485.31	34.670
485.66	33.737
486.01	32.124
486.36	31.676
486.70	31.103
487.05	32.041
487.40	32.407
487.75	32.469
488.09	33.125
488.44	34.098
488.79	34.398
489.13	34.789
489.48	34.878
489.83	34.904
490.17	34.310
490.52	35.099
490.87	35.216
491.22	36.791
491.56	35.617
491.91	34.812
492.26	35.457
492.60	35.854
492.95	34.527
493.30	35.987
493.64	35.804
493.99	34.973
494.34	35.096
494.68	34.883
495.03	34.845
495.37	35.254
495.72	35.804
496.07	34.951
496.41	34.883
496.76	35.163
497.11	34.619
497.45	34.634
497.80	35.681
498.14	35.784
498.49	35.562
498.84	35.794
499.18	35.238
499.53	35.599
499.87	34.367
500.22	34.178
500.56	35.330
500.91	35.761
501.26	36.105
501.60	35.656
501.95	34.588
502.29	34.489
502.64	34.892
502.98	33.615
503.33	34.788
503.67	34.923
504.02	34.886
504.36	35.475
504.71	35.289
505.06	35.148
505.40	34.815
505.75	34.518
506.09	35.184
506.44	34.539
506.78	35.633
507.13	36.064
507.47	34.934
507.82	35.961
508.16	36.012
508.51	35.459
508.85	35.945
509.19	35.144
509.54	35.791
509.88	36.300
510.23	34.804
510.57	35.039
510.92	35.514
511.26	35.994
511.61	35.746
511.95	35.092
512.30	34.650
512.64	35.306
512.98	35.161
513.33	35.502
513.67	34.956
514.02	35.377
514.36	34.995
514.70	36.800
515.05	35.056
515.39	36.458
515.74	36.687
516.08	35.349
516.42	36.885
516.77	36.320
517.11	36.587
517.46	35.722
517.80	34.954
518.14	36.789
518.49	34.620
518.83	35.495
519.17	36.439
519.52	35.882
519.86	36.185
520.20	36.219
520.55	35.387
520.89	35.862
521.23	36.390
521.58	35.743
521.92	36.152
522.26	35.782
522.61	36.304
522.95	36.456
523.29	37.310
523.64	35.954
523.98	36.326
524.32	36.505
524.66	36.928
525.01	35.740
525.35	34.944
525.69	36.544
526.04	36.645
526.38	35.374
526.72	35.919
527.06	34.299
527.41	36.941
527.75	36.397
528.09	35.400
528.43	36.181
528.78	35.659
529.12	37.809
529.46	35.827
529.80	34.521
530.15	35.003
530.49	36.101
530.83	35.954
531.17	34.932
531.51	36.052
531.86	34.903
532.20	35.167
532.54	35.405
532.88	36.040
533.22	35.710
533.57	35.143
533.91	33.800
534.25	34.218
534.59	34.854
534.93	34.357
535.27	33.182
535.62	34.131
535.96	34.574
536.30	35.954
536.64	34.720
536.98	35.053
537.32	34.125
537.66	33.929
538.01	33.994
538.35	35.059
538.69	34.284
539.03	34.080
539.37	34.345
539.71	34.383
540.05	33.908
540.39	35.409
540.73	34.557
541.07	33.626
541.42	35.012
541.76	34.834
542.10	33.724
542.44	35.100
542.78	34.235
543.12	33.067
543.46	33.772
543.80	34.085
544.14	34.799
544.48	33.333
544.82	34.128
545.16	33.576
545.50	32.821
545.84	34.659
546.18	35.826
546.52	35.213
546.86	33.914
547.20	33.979
547.54	33.756
547.88	34.550
548.22	32.908
548.56	32.882
548.90	33.096
549.24	33.797
549.58	33.441
549.92	34.054
550.26	34.686
550.60	34.132
550.94	34.328
551.28	33.931
551.62	35.034
551.96	33.514
552.30	33.751
552.64	33.592
552.98	32.925
553.32	32.907
553.66	32.704
554.00	33.269
554.34	34.554
554.68	33.535
555.02	34.623
555.36	34.043
555.69	34.031
556.03	33.057
556.37	33.078
556.71	33.312
557.05	33.486
557.39	33.467
557.73	34.232
558.07	34.004
558.41	33.927
558.75	34.542
559.08	34.024
559.42	34.646
559.76	34.212
560.10	33.792
560.44	32.050
560.78	33.376
561.12	34.139
561.45	32.416
561.79	32.335
562.13	32.470
562.47	32.641
562.81	32.010
563.15	33.032
563.48	31.366
563.82	33.687
564.16	32.774
564.50	32.188
564.84	31.672
565.17	31.610
565.51	32.451
565.85	32.819
566.19	31.786
566.52	31.889
566.86	31.173
567.20	31.966
567.54	30.841
567.88	30.569
568.21	30.255
568.55	30.496
568.89	29.973
569.23	29.465
569.56	29.073
569.90	27.812
570.24	27.973
570.57	27.969
570.91	28.144
571.25	27.076
571.59	27.016
571.92	25.861
572.26	26.092
572.60	26.604
572.93	27.458
573.27	26.852
573.61	26.394
573.95	26.594
574.28	26.539
574.62	25.803
574.96	25.542
575.29	25.424
575.63	25.465
575.97	25.195
576.30	25.614
576.64	25.614
576.98	25.818
577.31	26.069
577.65	25.510
577.98	25.399
578.32	24.836
578.66	25.194
578.99	25.005
579.33	25.665
579.67	25.225
580.00	24.742
580.34	24.519
580.67	25.168
581.01	25.280
581.35	24.588
581.68	23.888
582.02	24.625
582.35	24.193
582.69	24.882
583.02	24.585
583.36	25.311
583.70	25.340
584.03	25.404
584.37	25.745
584.70	25.454
585.04	25.054
585.37	24.527
585.71	25.438
586.04	24.825
586.38	25.521
586.72	25.611
587.05	25.425
587.39	24.930
587.72	25.445
588.06	25.453
588.39	25.000
588.73	25.143
589.06	25.970
589.40	26.197
589.73	26.090
590.07	26.081
590.40	26.969
590.73	27.617
591.07	27.211
591.40	26.747
591.74	26.623
592.07	27.038
592.41	26.739
592.74	26.108
593.08	25.391
593.41	25.554
593.75	24.685
594.08	25.624
594.41	25.155
594.75	25.925
595.08	25.480
595.42	25.609
595.75	25.732
596.09	26.034
596.42	26.001
596.75	27.244
597.09	26.909
597.42	26.571
597.75	26.613
598.09	25.810
598.42	25.785
598.76	26.291
599.09	25.671
599.42	25.190
599.76	25.611
600.09	25.119
600.42	25.069
600.76	25.493
601.09	25.302
601.42	25.132
601.76	25.636
602.09	26.343
602.42	24.991
602.76	25.769
603.09	26.244
603.42	25.688
603.76	25.452
604.09	25.588
604.42	25.612
604.76	25.998
605.09	25.510
605.42	25.843
605.75	25.622
606.09	25.478
606.42	25.780
606.75	24.951
607.09	24.398
607.42	25.151
607.75	25.955
608.08	25.589
608.42	25.797
608.75	25.289
609.08	25.561
609.41	26.045
609.75	25.778
610.08	26.574
610.41	25.823
610.74	25.758
611.07	25.739
611.41	26.135
611.74	27.055
612.07	26.349
612.40	26.023
612.73	26.111
613.07	26.964
613.40	26.216
613.73	26.610
614.06	25.600
614.39	26.566
614.72	25.465
615.06	25.865
615.39	25.644
615.72	25.653
616.05	26.017
616.38	25.926
616.71	27.564
617.05	26.469
617.38	26.124
617.71	26.434
618.04	26.472
618.37	26.737
618.70	26.270
619.03	26.801
619.36	27.889
619.69	27.375
620.03	28.376
620.36	27.232
620.69	28.033
621.02	28.668
621.35	28.009
621.68	28.245
622.01	28.118
622.34	28.405
622.67	27.949
623.00	28.931
623.33	28.003
623.66	26.414
623.99	28.425
624.32	27.236
624.65	28.045
624.99	27.316
625.32	27.321
625.65	26.552
625.98	26.778
626.31	27.448
626.64	27.335
626.97	29.151
627.30	28.882
627.63	28.336
627.96	27.934
628.29	29.290
628.62	28.400
628.95	29.787
629.28	30.412
629.61	31.107
629.94	29.905
630.26	28.856
630.59	32.092
630.92	28.879
631.25	29.374
