SpectraSuite Data File
++++++++++++++++++++++++++++++++++++
Date: Tue May 12 17:22:22 PDT 2015
User: schluterlab
Dark Spectrum Present: Yes
Reference Spectrum Present: Yes
Number of Sampled Component Spectra: 1
Spectrometers: USB2E3373
Integration Time (usec): 3000 (USB2E3373)
Spectra Averaged: 3 (USB2E3373)
Boxcar Smoothing: 0 (USB2E3373)
Correct for Electrical Dark: No (USB2E3373)
Strobe/Lamp Enabled: No (USB2E3373)
Correct for Detector Non-linearity: No (USB2E3373)
Correct for Stray Light: No (USB2E3373)
Number of Pixels in Processed Spectrum: 2048
>>>>>Begin Processed Spectral Data<<<<<
178.53	0.000
178.91	-225.000
179.29	-725.000
179.67	-3300.000
180.04	-126.667
180.42	675.000
180.80	1350.000
181.18	0.000
181.56	-400.000
181.94	0.000
182.31	900.000
182.69	-3600.000
183.07	514.286
183.45	-3300.000
183.83	-1800.000
184.20	390.000
184.58	457.143
184.96	-230.769
185.34	-225.000
185.72	1600.000
186.09	-800.000
186.47	-2900.000
186.85	1133.333
187.23	620.000
187.61	1600.000
187.98	625.000
188.36	264.286
188.74	283.333
189.12	358.333
189.49	1050.000
189.87	0.000
190.25	500.000
190.63	2700.000
191.00	-158.333
191.38	-3700.000
191.76	-925.000
192.14	450.000
192.51	-2500.000
192.89	2100.000
193.27	1200.000
193.65	-933.333
194.02	-680.000
194.40	557.143
194.78	-207.143
195.15	240.000
195.53	-3800.000
195.91	-500.000
196.29	3300.000
196.66	262.500
197.04	900.000
197.42	-2000.000
197.79	475.000
198.17	250.000
198.55	0.000
198.92	400.000
199.30	1233.333
199.68	2000.000
200.05	683.333
200.43	-500.000
200.81	211.111
201.18	3800.000
201.56	291.667
201.94	-550.000
202.31	-287.500
202.69	-500.000
203.07	3900.000
203.44	-566.667
203.82	283.333
204.19	600.000
204.57	-1600.000
204.95	-600.000
205.32	-680.000
205.70	566.667
206.08	800.000
206.45	-933.333
206.83	388.889
207.20	231.579
207.58	300.000
207.96	640.000
208.33	0.000
208.71	685.714
209.08	700.000
209.46	-4000.000
209.84	-825.000
210.21	920.000
210.59	-740.000
210.96	341.667
211.34	-725.000
211.71	427.273
212.09	825.000
212.46	1800.000
212.84	-483.333
213.22	377.778
213.59	-2500.000
213.97	330.000
214.34	875.000
214.72	1166.667
215.09	1133.333
215.47	-2400.000
215.84	-280.000
216.22	-550.000
216.59	0.000
216.97	0.000
217.34	1500.000
217.72	-1200.000
218.09	1100.000
218.47	350.000
218.84	1050.000
219.22	1233.333
219.59	700.000
219.97	514.286
220.34	522.222
220.72	1700.000
221.09	4000.000
221.47	425.000
221.84	1000.000
222.22	290.000
222.59	294.444
222.97	221.429
223.34	237.500
223.72	-1600.000
224.09	1200.000
224.46	253.846
224.84	-825.000
225.21	411.111
225.59	320.000
225.96	1166.667
226.34	-620.000
226.71	-700.000
227.08	-520.000
227.46	0.000
227.83	-700.000
228.21	-1550.000
228.58	433.333
228.95	900.000
229.33	288.889
229.70	1050.000
230.08	392.308
230.45	4400.000
230.82	-1075.000
231.20	-933.333
231.57	-1100.000
231.95	700.000
232.32	225.000
232.69	616.667
233.07	366.667
233.44	-1850.000
233.81	306.667
234.19	162.963
234.56	287.500
234.93	288.235
235.31	260.000
235.68	218.750
236.05	160.714
236.43	111.111
236.80	250.000
237.17	182.759
237.55	143.750
237.92	135.000
238.29	166.667
238.67	153.125
239.04	134.146
239.41	100.000
239.79	135.000
240.16	133.333
240.53	96.721
240.91	102.899
241.28	108.475
241.65	98.485
242.02	94.366
242.40	108.571
242.77	75.824
243.14	79.747
243.51	81.818
243.89	86.916
244.26	83.178
244.63	83.168
245.00	74.312
245.38	60.169
245.75	75.000
246.12	78.519
246.49	62.411
246.87	64.754
247.24	74.667
247.61	66.875
247.98	64.626
248.36	72.121
248.73	61.224
249.10	64.286
249.47	60.500
249.84	60.199
250.22	69.189
250.59	56.000
250.96	59.072
251.33	58.140
251.70	62.054
252.08	63.866
252.45	60.159
252.82	60.456
253.19	59.289
253.56	60.385
253.94	54.710
254.31	59.302
254.68	57.840
255.05	57.241
255.42	55.474
255.79	56.678
256.16	57.966
256.54	58.117
256.91	55.229
257.28	53.512
257.65	53.292
258.02	51.327
258.39	54.728
258.76	53.623
259.14	52.857
259.51	53.936
259.88	58.055
260.25	51.923
260.62	53.973
260.99	51.240
261.36	56.267
261.73	51.064
262.10	50.785
262.47	53.000
262.85	53.867
263.22	55.270
263.59	53.197
263.96	53.634
264.33	49.877
264.70	58.231
265.07	54.146
265.44	51.376
265.81	52.594
266.18	50.801
266.55	51.064
266.92	53.468
267.29	53.509
267.66	51.570
268.03	52.018
268.40	46.934
268.77	52.863
269.14	50.325
269.51	53.898
269.88	51.633
270.25	48.380
270.62	52.361
270.99	53.144
271.36	47.967
271.73	50.314
272.10	49.697
272.47	50.000
272.84	47.305
273.21	48.554
273.58	50.810
273.95	50.513
274.32	48.444
274.69	51.181
275.06	49.909
275.43	49.617
275.80	48.302
276.17	48.897
276.54	51.028
276.91	50.933
277.28	45.255
277.65	48.524
278.02	49.081
278.39	47.302
278.76	47.931
279.13	47.865
279.50	48.727
279.87	47.114
280.23	48.619
280.60	50.365
280.97	48.793
281.34	45.875
281.71	46.609
282.08	47.179
282.45	46.959
282.82	46.154
283.19	47.536
283.56	47.107
283.92	47.557
284.29	46.423
284.66	45.882
285.03	46.932
285.40	47.273
285.77	46.296
286.14	46.285
286.51	45.245
286.87	44.937
287.24	43.694
287.61	47.568
287.98	45.373
288.35	44.444
288.72	45.524
289.08	45.495
289.45	45.122
289.82	45.781
290.19	45.827
290.56	45.852
290.93	45.612
291.29	44.061
291.66	43.079
292.03	45.021
292.40	43.631
292.77	43.872
293.13	43.795
293.50	42.780
293.87	40.379
294.24	42.797
294.60	42.127
294.97	43.636
295.34	42.364
295.71	40.867
296.08	42.933
296.44	41.931
296.81	41.935
297.18	38.657
297.55	40.764
297.91	39.532
298.28	40.097
298.65	39.141
299.02	40.531
299.38	41.847
299.75	39.512
300.12	39.106
300.48	42.155
300.85	40.524
301.22	38.605
301.59	39.858
301.95	39.790
302.32	39.581
302.69	40.611
303.05	40.292
303.42	39.462
303.79	41.712
304.15	40.044
304.52	39.323
304.89	38.913
305.25	41.157
305.62	39.765
305.99	40.326
306.35	40.316
306.72	40.583
307.09	40.476
307.45	39.704
307.82	39.506
308.19	40.103
308.55	39.400
308.92	37.978
309.29	40.927
309.65	40.733
310.02	41.684
310.38	40.778
310.75	41.080
311.12	41.475
311.48	43.340
311.85	41.603
312.22	41.452
312.58	42.663
312.95	41.845
313.31	42.228
313.68	42.026
314.05	43.956
314.41	43.762
314.78	45.739
315.14	45.687
315.51	45.506
315.87	45.620
316.24	45.845
316.61	45.658
316.97	47.615
317.34	47.529
317.70	47.586
318.07	47.776
318.43	49.297
318.80	49.212
319.16	50.000
319.53	51.416
319.89	50.806
320.26	51.769
320.62	52.656
320.99	53.575
321.35	54.082
321.72	56.641
322.08	55.586
322.45	57.130
322.81	57.731
323.18	59.236
323.54	60.192
323.91	62.194
324.27	59.859
324.64	61.938
325.00	64.569
325.37	62.395
325.73	63.575
326.10	65.866
326.46	66.639
326.83	66.480
327.19	70.924
327.56	70.288
327.92	72.213
328.29	71.768
328.65	73.545
329.01	73.567
329.38	74.788
329.74	72.502
330.11	76.542
330.47	75.107
330.84	74.288
331.20	75.550
331.56	79.447
331.93	78.529
332.29	76.701
332.66	78.486
333.02	78.436
333.38	79.843
333.75	78.899
334.11	78.943
334.48	80.427
334.84	79.899
335.20	79.299
335.57	78.421
335.93	80.824
336.29	77.695
336.66	83.190
337.02	82.207
337.38	80.997
337.75	80.490
338.11	82.194
338.47	81.626
338.84	81.118
339.20	81.212
339.56	81.749
339.93	82.358
340.29	81.345
340.65	81.643
341.02	80.611
341.38	81.034
341.74	81.146
342.11	82.137
342.47	81.870
342.83	83.593
343.20	82.538
343.56	79.666
343.92	83.154
344.28	82.536
344.65	82.478
345.01	81.190
345.37	81.250
345.73	83.492
346.10	83.187
346.46	84.051
346.82	82.407
347.19	81.839
347.55	82.279
347.91	82.251
348.27	83.888
348.63	84.098
349.00	82.178
349.36	84.358
349.72	83.563
350.08	85.870
350.45	84.158
350.81	84.557
351.17	83.436
351.53	84.065
351.89	83.528
352.26	83.447
352.62	82.127
352.98	83.666
353.34	84.977
353.70	83.716
354.07	84.308
354.43	84.178
354.79	83.068
355.15	85.681
355.51	84.290
355.87	84.864
356.24	85.758
356.60	83.714
356.96	84.685
357.32	84.175
357.68	83.113
358.04	85.258
358.40	85.232
358.77	84.147
359.13	84.234
359.49	84.136
359.85	86.076
360.21	84.844
360.57	83.723
360.93	84.848
361.29	84.560
361.66	85.235
362.02	82.670
362.38	85.498
362.74	85.704
363.10	84.923
363.46	83.494
363.82	85.063
364.18	86.273
364.54	86.123
364.90	85.341
365.26	85.913
365.62	86.809
365.98	85.134
366.35	84.621
366.71	85.982
367.07	85.324
367.43	84.218
367.79	85.173
368.15	84.532
368.51	84.631
368.87	84.851
369.23	86.071
369.59	85.165
369.95	87.762
370.31	86.858
370.67	84.872
371.03	84.804
371.39	86.288
371.75	86.811
372.11	86.200
372.47	86.712
372.83	86.472
373.19	86.703
373.55	87.354
373.91	86.533
374.27	85.780
374.63	85.763
374.99	85.175
375.35	87.500
375.71	87.335
376.07	87.268
376.42	85.486
376.78	86.320
377.14	88.204
377.50	85.581
377.86	86.739
378.22	86.289
378.58	88.620
378.94	86.542
379.30	86.052
379.66	87.417
380.02	86.041
380.38	86.475
380.74	87.832
381.09	86.215
381.45	85.549
381.81	86.702
382.17	87.485
382.53	87.223
382.89	87.995
383.25	85.909
383.61	85.994
383.97	85.363
384.32	86.016
384.68	87.225
385.04	86.401
385.40	86.121
385.76	86.074
386.12	85.714
386.48	87.416
386.83	87.897
387.19	86.867
387.55	86.042
387.91	87.009
388.27	87.091
388.62	86.150
388.98	85.073
389.34	85.306
389.70	85.377
390.06	86.585
390.42	84.948
390.77	85.381
391.13	87.447
391.49	85.602
391.85	87.015
392.20	86.055
392.56	86.081
392.92	86.244
393.28	86.099
393.64	85.550
393.99	86.307
394.35	85.344
394.71	84.258
395.07	85.645
395.42	85.012
395.78	86.922
396.14	85.241
396.50	86.221
396.85	84.878
397.21	84.116
397.57	85.236
397.92	82.842
398.28	84.997
398.64	83.072
399.00	83.218
399.35	83.629
399.71	84.658
400.07	84.132
400.42	85.075
400.78	82.874
401.14	84.615
401.49	83.525
401.85	83.951
402.21	83.714
402.57	84.620
402.92	84.364
403.28	82.578
403.63	82.225
403.99	82.690
404.35	82.943
404.70	83.284
405.06	81.583
405.42	82.825
405.77	82.249
406.13	81.616
406.49	80.102
406.84	80.372
407.20	82.363
407.55	82.646
407.91	83.535
408.27	81.261
408.62	81.017
408.98	82.141
409.34	79.836
409.69	80.523
410.05	80.024
410.40	81.272
410.76	80.939
411.11	81.457
411.47	80.185
411.83	78.735
412.18	81.461
412.54	80.661
412.89	80.354
413.25	81.642
413.60	79.848
413.96	79.892
414.31	80.579
414.67	80.819
415.03	80.077
415.38	82.334
415.74	81.996
416.09	81.699
416.45	81.836
416.80	83.066
417.16	80.267
417.51	81.146
417.87	81.289
418.22	79.405
418.58	82.102
418.93	81.678
419.29	80.776
419.64	80.012
420.00	80.191
420.35	82.695
420.71	81.039
421.06	80.518
421.42	80.311
421.77	80.733
422.12	81.863
422.48	79.558
422.83	81.641
423.19	80.832
423.54	80.965
423.90	80.464
424.25	82.334
424.61	80.615
424.96	82.101
425.31	81.117
425.67	83.221
426.02	81.155
426.38	80.572
426.73	81.608
427.09	83.096
427.44	82.048
427.79	82.962
428.15	82.616
428.50	82.800
428.85	81.775
429.21	80.713
429.56	82.702
429.92	81.054
430.27	80.842
430.62	80.225
430.98	79.990
431.33	81.401
431.68	79.605
432.04	82.359
432.39	83.425
432.74	82.553
433.10	83.167
433.45	82.079
433.80	83.894
434.16	82.291
434.51	80.650
434.86	82.744
435.22	82.496
435.57	82.217
435.92	83.267
436.28	83.295
436.63	82.334
436.98	82.264
437.34	82.021
437.69	79.563
438.04	80.968
438.39	81.378
438.75	81.737
439.10	81.166
439.45	80.328
439.81	83.806
440.16	81.453
440.51	81.250
440.86	82.564
441.22	81.710
441.57	82.677
441.92	81.639
442.27	81.082
442.63	81.911
442.98	80.550
443.33	82.003
443.68	82.897
444.03	81.338
444.39	82.721
444.74	81.884
445.09	81.411
445.44	81.668
445.79	82.212
446.15	81.684
446.50	82.068
446.85	82.221
447.20	81.493
447.55	82.980
447.91	81.886
448.26	80.671
448.61	82.698
448.96	81.373
449.31	82.068
449.66	82.171
450.02	82.982
450.37	82.066
450.72	83.636
451.07	80.745
451.42	81.506
451.77	82.302
452.12	82.189
452.47	81.774
452.83	83.324
453.18	82.102
453.53	81.705
453.88	82.914
454.23	82.452
454.58	81.002
454.93	81.055
455.28	82.313
455.63	80.615
455.98	81.275
456.34	84.438
456.69	83.659
457.04	82.936
457.39	82.343
457.74	81.419
458.09	80.517
458.44	79.901
458.79	81.273
459.14	80.797
459.49	81.880
459.84	82.337
460.19	81.469
460.54	79.544
460.89	81.663
461.24	79.439
461.59	82.313
461.94	80.319
462.29	80.378
462.64	81.533
462.99	80.870
463.34	80.169
463.69	81.972
464.04	82.096
464.39	80.481
464.74	79.601
465.09	79.803
465.44	79.815
465.79	78.498
466.14	78.537
466.49	80.304
466.84	79.822
467.19	78.617
467.54	79.399
467.89	79.636
468.24	80.197
468.59	79.107
468.94	79.952
469.29	80.696
469.64	76.913
469.99	79.627
470.34	79.001
470.68	79.448
471.03	80.320
471.38	79.669
471.73	79.752
472.08	81.605
472.43	80.199
472.78	80.474
473.13	76.909
473.48	78.606
473.83	79.446
474.17	80.243
474.52	78.495
474.87	79.022
475.22	79.212
475.57	77.282
475.92	78.487
476.27	77.367
476.61	77.480
476.96	77.429
477.31	78.560
477.66	79.388
478.01	78.288
478.36	78.115
478.70	77.370
479.05	79.027
479.40	77.381
479.75	79.047
480.10	79.284
480.45	77.731
480.79	76.544
481.14	78.079
481.49	77.493
481.84	76.253
482.19	77.031
482.53	77.514
482.88	78.047
483.23	76.410
483.58	78.411
483.92	77.651
484.27	77.098
484.62	78.226
484.97	75.847
485.31	75.933
485.66	75.409
486.01	74.368
486.36	74.165
486.70	73.270
487.05	74.132
487.40	74.383
487.75	74.533
488.09	74.460
488.44	74.857
488.79	75.668
489.13	77.342
489.48	76.908
489.83	76.772
490.17	75.145
490.52	77.347
490.87	76.897
491.22	76.418
491.56	78.524
491.91	75.448
492.26	76.704
492.60	76.811
492.95	77.662
493.30	76.479
493.64	75.741
493.99	75.447
494.34	75.975
494.68	77.114
495.03	76.201
495.37	76.947
495.72	76.317
496.07	76.505
496.41	75.630
496.76	76.150
497.11	75.450
497.45	74.485
497.80	76.413
498.14	75.451
498.49	74.791
498.84	75.888
499.18	75.503
499.53	77.079
499.87	77.403
500.22	76.186
500.56	75.905
500.91	76.299
501.26	75.195
501.60	76.275
501.95	75.358
502.29	75.422
502.64	74.901
502.98	74.211
503.33	75.367
503.67	74.260
504.02	74.384
504.36	75.294
504.71	76.916
505.06	75.317
505.40	75.058
505.75	74.275
506.09	75.035
506.44	76.598
506.78	75.851
507.13	75.279
507.47	75.061
507.82	76.399
508.16	76.139
508.51	75.749
508.85	73.267
509.19	74.890
509.54	74.707
509.88	75.883
510.23	74.314
510.57	73.745
510.92	75.974
511.26	75.402
511.61	74.151
511.95	74.614
512.30	74.900
512.64	74.507
512.98	74.372
513.33	74.641
513.67	75.505
514.02	74.857
514.36	74.663
514.70	76.640
515.05	74.534
515.39	76.645
515.74	75.834
516.08	76.580
516.42	77.869
516.77	74.933
517.11	74.827
517.46	75.431
517.80	76.625
518.14	76.394
518.49	75.524
518.83	74.396
519.17	75.208
519.52	76.461
519.86	75.150
520.20	75.288
520.55	76.088
520.89	75.115
521.23	77.220
521.58	75.158
521.92	74.169
522.26	75.592
522.61	77.362
522.95	77.477
523.29	75.906
523.64	74.855
523.98	77.113
524.32	74.971
524.66	75.362
525.01	76.450
525.35	74.779
525.69	76.821
526.04	75.967
526.38	74.279
526.72	73.926
527.06	74.157
527.41	76.602
527.75	75.107
528.09	75.497
528.43	75.534
528.78	74.896
529.12	78.326
529.46	75.628
529.80	74.065
530.15	73.424
530.49	74.248
530.83	75.868
531.17	74.170
531.51	74.372
531.86	73.973
532.20	74.536
532.54	75.141
532.88	75.578
533.22	75.503
533.57	75.595
533.91	74.184
534.25	72.129
534.59	75.965
534.93	73.891
535.27	72.681
535.62	74.854
535.96	74.764
536.30	75.686
536.64	72.981
536.98	75.393
537.32	74.812
537.66	74.936
538.01	74.303
538.35	73.737
538.69	73.362
539.03	74.502
539.37	72.876
539.71	73.519
540.05	74.031
540.39	74.465
540.73	73.861
541.07	72.146
541.42	72.948
541.76	73.736
542.10	73.120
542.44	74.002
542.78	74.449
543.12	72.147
543.46	73.058
543.80	73.559
544.14	75.170
544.48	74.331
544.82	73.272
545.16	72.556
545.50	74.431
545.84	74.242
546.18	74.252
546.52	73.902
546.86	73.759
547.20	72.997
547.54	73.084
547.88	72.445
548.22	73.892
548.56	72.186
548.90	71.234
549.24	74.984
549.58	72.809
549.92	74.198
550.26	75.727
550.60	73.120
550.94	74.559
551.28	74.414
551.62	75.034
551.96	72.703
552.30	72.907
552.64	73.981
552.98	73.067
553.32	71.959
553.66	72.117
554.00	72.394
554.34	73.702
554.68	72.513
555.02	73.320
555.36	72.141
555.69	72.251
556.03	71.529
556.37	71.319
556.71	73.012
557.05	71.822
557.39	71.867
557.73	72.305
558.07	72.099
558.41	72.378
558.75	73.119
559.08	73.553
559.42	74.159
559.76	74.626
560.10	71.989
560.44	72.860
560.78	72.379
561.12	72.664
561.45	72.153
561.79	70.599
562.13	71.699
562.47	71.772
562.81	71.308
563.15	70.588
563.48	69.814
563.82	72.614
564.16	72.139
564.50	69.078
564.84	71.368
565.17	69.222
565.51	72.106
565.85	73.103
566.19	69.762
566.52	71.119
566.86	71.804
567.20	71.067
567.54	71.343
567.88	71.049
568.21	68.048
568.55	70.477
568.89	68.796
569.23	67.947
569.56	68.490
569.90	66.547
570.24	67.905
570.57	67.586
570.91	66.989
571.25	65.629
571.59	64.946
571.92	65.608
572.26	65.229
572.60	65.343
572.93	65.957
573.27	67.260
573.61	65.051
573.95	65.862
574.28	65.148
574.62	64.858
574.96	64.534
575.29	64.365
575.63	63.958
575.97	64.533
576.30	63.781
576.64	64.729
576.98	63.989
577.31	65.778
577.65	64.202
577.98	64.345
578.32	63.488
578.66	64.114
578.99	64.107
579.33	63.893
579.67	63.697
580.00	63.334
580.34	63.724
580.67	63.333
581.01	64.077
581.35	64.122
581.68	63.056
582.02	63.505
582.35	63.895
582.69	63.033
583.02	63.390
583.36	63.657
583.70	63.316
584.03	64.131
584.37	64.235
584.70	63.697
585.04	64.478
585.37	64.022
585.71	64.135
586.04	63.712
586.38	63.395
586.72	62.934
587.05	63.407
587.39	63.995
587.72	63.186
588.06	62.900
588.39	64.023
588.73	63.498
589.06	63.875
589.40	64.382
589.73	63.913
590.07	65.100
590.40	64.704
590.73	65.883
591.07	65.996
591.40	64.072
591.74	64.935
592.07	64.018
592.41	64.788
592.74	63.310
593.08	63.477
593.41	64.123
593.75	62.020
594.08	63.874
594.41	63.767
594.75	63.904
595.08	63.683
595.42	63.891
595.75	63.639
596.09	64.164
596.42	63.838
596.75	65.665
597.09	65.002
597.42	63.878
597.75	64.706
598.09	63.931
598.42	64.259
598.76	62.375
599.09	63.663
599.42	62.907
599.76	62.246
600.09	63.424
600.42	63.156
600.76	63.460
601.09	63.583
601.42	62.232
601.76	63.981
602.09	62.730
602.42	63.031
602.76	64.099
603.09	64.555
603.42	64.257
603.76	63.268
604.09	62.685
604.42	63.089
604.76	63.690
605.09	62.776
605.42	63.673
605.75	63.008
606.09	63.619
606.42	62.683
606.75	62.340
607.09	62.535
607.42	62.917
607.75	63.018
608.08	62.998
608.42	63.045
608.75	62.131
609.08	62.429
609.41	63.818
609.75	63.187
610.08	63.399
610.41	63.065
610.74	63.810
611.07	63.620
611.41	64.782
611.74	64.340
612.07	64.162
612.40	64.230
612.73	64.353
613.07	64.065
613.40	64.561
613.73	63.405
614.06	62.800
614.39	64.697
614.72	62.933
615.06	62.661
615.39	63.069
615.72	62.197
616.05	62.783
616.38	62.811
616.71	64.840
617.05	62.548
617.38	62.809
617.71	63.723
618.04	63.825
618.37	62.813
618.70	63.279
619.03	63.309
619.36	64.133
619.69	63.193
620.03	65.166
620.36	64.997
620.69	65.709
621.02	65.149
621.35	64.613
621.68	65.855
622.01	67.085
622.34	67.225
622.67	64.747
623.00	64.466
623.33	64.170
623.66	63.606
623.99	63.836
624.32	64.566
624.65	64.384
624.99	65.652
625.32	64.930
625.65	63.517
625.98	63.110
626.31	64.614
626.64	64.844
626.97	64.193
627.30	65.295
627.63	66.484
627.96	65.884
628.29	66.172
628.62	65.269
628.95	65.160
629.28	67.660
629.61	65.993
629.94	65.255
630.26	65.771
630.59	66.489
630.92	65.561
