SpectraSuite Data File
++++++++++++++++++++++++++++++++++++
Date: Tue May 12 15:29:18 PDT 2015
User: schluterlab
Dark Spectrum Present: Yes
Reference Spectrum Present: Yes
Number of Sampled Component Spectra: 1
Spectrometers: USB2E3373
Integration Time (usec): 3000 (USB2E3373)
Spectra Averaged: 3 (USB2E3373)
Boxcar Smoothing: 0 (USB2E3373)
Correct for Electrical Dark: No (USB2E3373)
Strobe/Lamp Enabled: No (USB2E3373)
Correct for Detector Non-linearity: No (USB2E3373)
Correct for Stray Light: No (USB2E3373)
Number of Pixels in Processed Spectrum: 2048
>>>>>Begin Processed Spectral Data<<<<<
178.53	0.000
178.91	-233.333
179.29	-875.000
179.67	-4200.000
180.04	-146.667
180.42	800.000
180.80	1550.000
181.18	0.000
181.56	-387.500
181.94	0.000
182.31	1266.667
182.69	-3300.000
183.07	614.286
183.45	-3300.000
183.83	-1700.000
184.20	390.000
184.58	542.857
184.96	-269.231
185.34	-258.333
185.72	2100.000
186.09	-750.000
186.47	-3300.000
186.85	1100.000
187.23	640.000
187.61	1750.000
187.98	625.000
188.36	300.000
188.74	341.667
189.12	383.333
189.49	975.000
189.87	0.000
190.25	700.000
190.63	2400.000
191.00	-241.667
191.38	-4400.000
191.76	-625.000
192.14	512.500
192.51	-2800.000
192.89	1950.000
193.27	1066.667
193.65	-1200.000
194.02	-860.000
194.40	557.143
194.78	-228.571
195.15	226.667
195.53	-3500.000
195.91	-560.000
196.29	5300.000
196.66	262.500
197.04	775.000
197.42	-1550.000
197.79	675.000
198.17	500.000
198.55	0.000
198.92	528.571
199.30	1500.000
199.68	1750.000
200.05	766.667
200.43	-483.333
200.81	200.000
201.18	4400.000
201.56	325.000
201.94	-800.000
202.31	-312.500
202.69	-680.000
203.07	3600.000
203.44	-483.333
203.82	283.333
204.19	880.000
204.57	-1650.000
204.95	-750.000
205.32	-620.000
205.70	650.000
206.08	950.000
206.45	-900.000
206.83	466.667
207.20	189.474
207.58	291.667
207.96	800.000
208.33	0.000
208.71	757.143
209.08	800.000
209.46	-3900.000
209.84	-1125.000
210.21	900.000
210.59	-600.000
210.96	358.333
211.34	-950.000
211.71	336.364
212.09	950.000
212.46	2300.000
212.84	-483.333
213.22	466.667
213.59	-2700.000
213.97	330.000
214.34	875.000
214.72	1233.333
215.09	866.667
215.47	-3600.000
215.84	-380.000
216.22	-412.500
216.59	0.000
216.97	0.000
217.34	1650.000
217.72	-1750.000
218.09	1366.667
218.47	512.500
218.84	850.000
219.22	1333.333
219.59	1000.000
219.97	728.571
220.34	388.889
220.72	1650.000
221.09	3300.000
221.47	300.000
221.84	1166.667
222.22	330.000
222.59	266.667
222.97	264.286
223.34	231.250
223.72	-1600.000
224.09	1466.667
224.46	338.462
224.84	-925.000
225.21	411.111
225.59	286.667
225.96	1466.667
226.34	-500.000
226.71	-575.000
227.08	-700.000
227.46	0.000
227.83	-550.000
228.21	-1850.000
228.58	291.667
228.95	975.000
229.33	488.889
229.70	825.000
230.08	338.462
230.45	3400.000
230.82	-1050.000
231.20	-800.000
231.57	-933.333
231.95	660.000
232.32	341.667
232.69	633.333
233.07	258.333
233.44	-1750.000
233.81	280.000
234.19	144.444
234.56	237.500
234.93	258.824
235.31	260.000
235.68	281.250
236.05	160.714
236.43	140.741
236.80	250.000
237.17	148.276
237.55	128.125
237.92	117.500
238.29	139.394
238.67	131.250
239.04	87.805
239.41	91.667
239.79	112.500
240.16	87.500
240.53	65.574
240.91	69.565
241.28	76.271
241.65	69.697
242.02	74.648
242.40	78.571
242.77	61.538
243.14	51.899
243.51	56.566
243.89	57.009
244.26	46.729
244.63	55.446
245.00	45.872
245.38	44.068
245.75	43.939
246.12	48.889
246.49	41.844
246.87	45.082
247.24	45.333
247.61	42.500
247.98	40.816
248.36	32.727
248.73	40.306
249.10	36.905
249.47	33.500
249.84	36.318
250.22	36.757
250.59	34.000
250.96	37.131
251.33	34.884
251.70	37.500
252.08	32.353
252.45	30.677
252.82	31.179
253.19	28.458
253.56	29.231
253.94	30.435
254.31	31.008
254.68	31.359
255.05	30.000
255.42	30.657
255.79	28.339
256.16	29.153
256.54	28.571
256.91	29.739
257.28	28.094
257.65	21.944
258.02	26.549
258.39	26.074
258.76	30.725
259.14	22.000
259.51	26.239
259.88	29.787
260.25	22.802
260.62	28.219
260.99	22.865
261.36	25.905
261.73	23.670
262.10	26.963
262.47	23.750
262.85	23.733
263.22	24.165
263.59	23.018
263.96	24.812
264.33	22.222
264.70	25.799
265.07	24.634
265.44	25.229
265.81	23.821
266.18	23.799
266.55	22.695
266.92	23.043
267.29	24.561
267.66	22.646
268.03	22.870
268.40	21.142
268.77	23.348
269.14	21.258
269.51	20.267
269.88	24.286
270.25	21.814
270.62	23.391
270.99	23.935
271.36	23.171
271.73	21.803
272.10	21.818
272.47	21.032
272.84	22.555
273.21	21.901
273.58	22.874
273.95	20.534
274.32	20.817
274.69	21.063
275.06	20.947
275.43	20.498
275.80	20.566
276.17	21.324
276.54	19.813
276.91	21.642
277.28	21.350
277.65	21.218
278.02	19.669
278.39	20.683
278.76	20.345
279.13	21.886
279.50	21.273
279.87	20.112
280.23	21.547
280.60	21.350
280.97	21.724
281.34	21.122
281.71	20.522
282.08	21.709
282.45	18.919
282.82	20.569
283.19	20.668
283.56	20.000
283.92	21.661
284.29	20.300
284.66	21.008
285.03	23.715
285.40	19.174
285.77	18.519
286.14	21.672
286.51	22.699
286.87	17.722
287.24	21.171
287.61	20.517
287.98	20.448
288.35	21.037
288.72	20.789
289.08	20.721
289.45	22.104
289.82	20.781
290.19	20.644
290.56	20.961
290.93	20.863
291.29	20.442
291.66	22.034
292.03	20.757
292.40	21.680
292.77	19.916
293.13	20.827
293.50	19.568
293.87	21.274
294.24	19.860
294.60	21.669
294.97	22.238
295.34	19.920
295.71	22.470
296.08	21.333
296.44	21.474
296.81	20.347
297.18	21.293
297.55	19.828
297.91	20.813
298.28	22.222
298.65	21.104
299.02	22.678
299.38	21.343
299.75	21.585
300.12	21.789
300.48	24.824
300.85	20.977
301.22	21.860
301.59	21.698
301.95	21.004
302.32	22.235
302.69	22.398
303.05	23.457
303.42	21.300
303.79	22.860
304.15	21.782
304.52	22.410
304.89	22.814
305.25	24.583
305.62	22.388
305.99	21.196
306.35	21.053
306.72	23.101
307.09	22.257
307.45	22.809
307.82	23.251
308.19	24.227
308.55	23.700
308.92	23.847
309.29	24.260
309.65	23.389
310.02	24.138
310.38	24.028
310.75	23.337
311.12	23.180
311.48	25.000
311.85	25.382
312.22	24.260
312.58	24.198
312.95	23.398
313.31	24.532
313.68	25.141
314.05	25.549
314.41	24.767
314.78	25.663
315.14	26.730
315.51	26.774
315.87	25.821
316.24	25.490
316.61	26.321
316.97	25.872
317.34	26.954
317.70	26.163
318.07	28.648
318.43	28.120
318.80	27.758
319.16	27.273
319.53	27.080
319.89	26.613
320.26	28.864
320.62	28.571
320.99	29.743
321.35	30.056
321.72	29.981
322.08	30.471
322.45	29.700
322.81	30.467
323.18	30.284
323.54	30.139
323.91	31.913
324.27	30.946
324.64	30.882
325.00	31.379
325.37	31.956
325.73	31.535
326.10	33.223
326.46	32.370
326.83	32.080
327.19	32.610
327.56	32.428
327.92	33.934
328.29	33.797
328.65	34.247
329.01	33.533
329.38	34.095
329.74	34.244
330.11	32.667
330.47	34.101
330.84	32.528
331.20	32.318
331.56	33.420
331.93	33.875
332.29	32.398
332.66	34.269
333.02	32.302
333.38	33.246
333.75	33.611
334.11	33.893
334.48	32.821
334.84	33.446
335.20	32.763
335.57	32.914
335.93	33.810
336.29	33.582
336.66	33.448
337.02	33.191
337.38	32.846
337.75	33.193
338.11	34.262
338.47	32.854
338.84	32.091
339.20	32.900
339.56	31.707
339.93	33.361
340.29	31.176
340.65	32.355
341.02	33.387
341.38	32.266
341.74	31.728
342.11	32.554
342.47	32.568
342.83	33.142
343.20	32.175
343.56	31.056
343.92	33.031
344.28	32.536
344.65	31.866
345.01	32.540
345.37	32.532
345.73	31.746
346.10	30.598
346.46	31.978
346.82	31.019
347.19	32.380
347.55	31.304
347.91	31.722
348.27	30.984
348.63	31.487
349.00	30.845
349.36	31.907
349.72	32.110
350.08	31.366
350.45	32.521
350.81	31.881
351.17	30.431
351.53	31.409
351.89	31.002
352.26	30.688
352.62	31.146
352.98	31.672
353.34	31.587
353.70	30.963
354.07	30.923
354.43	31.874
354.79	30.752
355.15	31.394
355.51	30.967
355.87	31.250
356.24	31.101
356.60	30.518
356.96	31.539
357.32	31.575
357.68	30.764
358.04	32.903
358.40	32.384
358.77	32.156
359.13	31.456
359.49	30.096
359.85	30.975
360.21	31.204
360.57	31.533
360.93	32.179
361.29	31.962
361.66	31.693
362.02	30.327
362.38	31.025
362.74	31.352
363.10	31.627
363.46	31.492
363.82	31.837
364.18	31.579
364.54	31.617
364.90	31.526
365.26	31.645
365.62	30.801
365.98	31.521
366.35	30.828
366.71	31.367
367.07	30.785
367.43	31.968
367.79	30.519
368.15	31.750
368.51	31.978
368.87	30.639
369.23	30.908
369.59	31.086
369.95	32.238
370.31	31.554
370.67	32.269
371.03	32.913
371.39	31.787
371.75	31.542
372.11	31.951
372.47	32.945
372.83	30.863
373.19	31.666
373.55	32.509
373.91	31.768
374.27	31.217
374.63	30.983
374.99	32.210
375.35	31.586
375.71	32.520
376.07	31.631
376.42	32.033
376.78	32.049
377.14	31.979
377.50	31.773
377.86	31.775
378.22	32.054
378.58	32.143
378.94	31.623
379.30	32.141
379.66	32.390
380.02	32.375
380.38	32.319
380.74	32.584
381.09	32.126
381.45	31.503
381.81	32.388
382.17	32.112
382.53	31.554
382.89	31.815
383.25	31.557
383.61	31.931
383.97	31.794
384.32	32.851
384.68	32.917
385.04	32.708
385.40	32.444
385.76	32.066
386.12	32.096
386.48	33.009
386.83	31.418
387.19	32.509
387.55	31.743
387.91	32.159
388.27	32.659
388.62	32.394
388.98	31.079
389.34	30.399
389.70	31.132
390.06	31.951
390.42	31.832
390.77	32.248
391.13	32.710
391.49	32.123
391.85	32.677
392.20	32.181
392.56	31.123
392.92	31.331
393.28	31.951
393.64	32.511
393.99	30.587
394.35	31.195
394.71	31.182
395.07	31.752
395.42	32.084
395.78	32.696
396.14	32.590
396.50	31.709
396.85	32.622
397.21	32.070
397.57	31.441
397.92	30.445
398.28	31.440
398.64	31.530
399.00	30.091
399.35	29.791
399.71	30.519
400.07	31.564
400.42	31.463
400.78	31.437
401.14	30.534
401.49	31.221
401.85	30.533
402.21	30.639
402.57	31.957
402.92	30.667
403.28	30.489
403.63	30.606
403.99	30.458
404.35	30.832
404.70	30.892
405.06	29.478
405.42	30.700
405.77	30.761
406.13	29.989
406.49	29.847
406.84	28.708
407.20	30.080
407.55	30.892
407.91	30.313
408.27	30.139
408.62	29.746
408.98	30.514
409.34	29.632
409.69	29.496
410.05	30.471
410.40	29.093
410.76	30.109
411.11	29.088
411.47	29.444
411.83	29.233
412.18	29.348
412.54	30.450
412.89	29.853
413.25	29.989
413.60	29.614
413.96	28.306
414.31	30.283
414.67	30.850
415.03	30.204
415.38	29.085
415.74	30.575
416.09	30.793
416.45	30.317
416.80	29.378
417.16	30.172
417.51	30.510
417.87	30.413
418.22	29.222
418.58	30.255
418.93	29.804
419.29	29.575
419.64	29.255
420.00	30.967
420.35	30.023
420.71	29.113
421.06	30.018
421.42	30.109
421.77	30.039
422.12	29.052
422.48	29.276
422.83	30.748
423.19	30.022
423.54	29.786
423.90	30.974
424.25	31.260
424.61	30.412
424.96	29.870
425.31	30.378
425.67	30.920
426.02	29.781
426.38	31.797
426.73	30.769
427.09	31.791
427.44	30.895
427.79	31.275
428.15	30.937
428.50	31.429
428.85	31.099
429.21	31.605
429.56	30.508
429.92	31.129
430.27	31.011
430.62	30.886
430.98	30.489
431.33	30.393
431.68	31.901
432.04	30.781
432.39	31.504
432.74	31.674
433.10	32.669
433.45	31.706
433.80	33.039
434.16	31.739
434.51	31.631
434.86	31.628
435.22	31.551
435.57	31.713
435.92	32.214
436.28	32.776
436.63	33.063
436.98	32.883
437.34	31.906
437.69	31.299
438.04	31.022
438.39	32.458
438.75	32.071
439.10	32.110
439.45	31.713
439.81	33.025
440.16	33.132
440.51	32.320
440.86	33.105
441.22	32.089
441.57	32.651
441.92	32.083
442.27	32.165
442.63	32.673
442.98	31.735
443.33	32.726
443.68	32.646
444.03	32.045
444.39	32.910
444.74	32.505
445.09	32.543
445.44	32.997
445.79	32.115
446.15	32.632
446.50	31.962
446.85	33.068
447.20	32.239
447.55	32.626
447.91	32.872
448.26	33.014
448.61	33.610
448.96	33.170
449.31	32.618
449.66	33.776
450.02	33.549
450.37	32.871
450.72	33.554
451.07	33.857
451.42	33.669
451.77	33.620
452.12	34.203
452.47	33.354
452.83	33.577
453.18	33.814
453.53	33.748
453.88	34.114
454.23	33.527
454.58	34.207
454.93	32.863
455.28	33.782
455.63	33.924
455.98	34.179
456.34	33.556
456.69	34.146
457.04	33.950
457.39	33.143
457.74	32.939
458.09	33.240
458.44	33.187
458.79	33.687
459.14	32.733
459.49	33.918
459.84	32.609
460.19	32.994
460.54	33.732
460.89	33.849
461.24	32.761
461.59	33.617
461.94	32.388
462.29	33.352
462.64	33.982
462.99	33.461
463.34	34.867
463.69	34.906
464.04	33.967
464.39	33.028
464.74	33.353
465.09	33.604
465.44	33.569
465.79	33.478
466.14	32.432
466.49	33.532
466.84	32.274
467.19	33.275
467.54	32.793
467.89	33.216
468.24	32.368
468.59	33.333
468.94	33.514
469.29	33.781
469.64	33.826
469.99	34.512
470.34	32.827
470.68	33.448
471.03	33.956
471.38	33.841
471.73	32.854
472.08	34.051
472.43	34.202
472.78	34.059
473.13	33.730
473.48	33.557
473.83	33.569
474.17	33.678
474.52	33.945
474.87	32.803
475.22	33.067
475.57	32.949
475.92	32.039
476.27	32.263
476.61	32.493
476.96	33.177
477.31	33.419
477.66	34.085
478.01	33.419
478.36	33.007
478.70	32.506
479.05	33.316
479.40	33.135
479.75	33.466
480.10	34.656
480.45	33.427
480.79	32.811
481.14	32.430
481.49	31.930
481.84	32.058
482.19	32.926
482.53	33.289
482.88	32.124
483.23	32.115
483.58	32.451
483.92	33.958
484.27	33.005
484.62	33.616
484.97	32.256
485.31	32.124
485.66	32.288
486.01	30.692
486.36	29.952
486.70	29.328
487.05	29.746
487.40	30.247
487.75	31.043
488.09	31.307
488.44	31.804
488.79	32.454
489.13	31.878
489.48	32.920
489.83	31.359
490.17	32.040
490.52	32.084
490.87	32.284
491.22	33.289
491.56	33.289
491.91	31.676
492.26	32.249
492.60	32.756
492.95	32.669
493.30	32.621
493.64	32.659
493.99	32.648
494.34	31.824
494.68	31.873
495.03	32.420
495.37	32.913
495.72	32.867
496.07	31.986
496.41	32.450
496.76	31.617
497.11	32.305
497.45	32.135
497.80	32.669
498.14	31.808
498.49	31.894
498.84	32.897
499.18	31.399
499.53	33.073
499.87	32.345
500.22	32.381
500.56	32.405
500.91	33.117
501.26	31.971
501.60	32.286
501.95	31.631
502.29	33.067
502.64	31.716
502.98	32.103
503.33	32.606
503.67	32.318
504.02	31.661
504.36	32.670
504.71	32.687
505.06	31.957
505.40	32.990
505.75	31.431
506.09	33.084
506.44	31.156
506.78	32.703
507.13	32.429
507.47	31.975
507.82	33.090
508.16	32.386
508.51	33.188
508.85	32.574
509.19	32.256
509.54	32.617
509.88	32.571
510.23	32.549
510.57	31.660
510.92	32.617
511.26	33.032
511.61	31.807
511.95	32.603
512.30	32.350
512.64	32.087
512.98	32.035
513.33	31.762
513.67	32.729
514.02	33.039
514.36	32.555
514.70	32.800
515.05	33.245
515.39	33.388
515.74	33.625
516.08	33.606
516.42	33.770
516.77	33.173
517.11	33.387
517.46	32.812
517.80	32.496
518.14	33.577
518.49	32.690
518.83	31.758
519.17	33.500
519.52	32.059
519.86	33.025
520.20	33.205
520.55	33.239
520.89	32.989
521.23	33.178
521.58	33.333
521.92	33.120
522.26	32.524
522.61	33.333
522.95	33.874
523.29	33.041
523.64	32.428
523.98	33.099
524.32	32.814
524.66	33.043
525.01	32.604
525.35	32.999
525.69	33.052
526.04	32.719
526.38	32.902
526.72	33.234
527.06	32.052
527.41	33.434
527.75	32.745
528.09	32.691
528.43	33.740
528.78	32.618
529.12	32.992
529.46	32.203
529.80	31.951
530.15	33.530
530.49	31.949
530.83	32.785
531.17	32.718
531.51	32.679
531.86	32.065
532.20	31.459
532.54	31.387
532.88	31.980
533.22	32.541
533.57	31.971
533.91	31.061
534.25	30.929
534.59	31.228
534.93	31.115
535.27	30.507
535.62	31.214
535.96	30.556
536.30	32.602
536.64	31.118
536.98	31.089
537.32	31.750
537.66	31.696
538.01	32.012
538.35	31.254
538.69	31.311
539.03	31.779
539.37	30.522
539.71	32.099
540.05	30.954
540.39	32.075
540.73	31.582
541.07	30.991
541.42	31.219
541.76	31.443
542.10	30.395
542.44	31.484
542.78	31.403
543.12	29.693
543.46	30.013
543.80	31.266
544.14	30.960
544.48	29.988
544.82	31.131
545.16	30.358
545.50	30.117
545.84	31.439
546.18	31.534
546.52	31.607
546.86	30.561
547.20	31.072
547.54	30.336
547.88	30.839
548.22	30.662
548.56	29.523
548.90	29.953
549.24	30.385
549.58	29.768
549.92	30.517
550.26	31.981
550.60	31.470
550.94	30.326
551.28	30.966
551.62	32.138
551.96	29.865
552.30	29.466
552.64	31.586
552.98	30.412
553.32	29.770
553.66	30.423
554.00	29.923
554.34	31.092
554.68	31.250
555.02	31.432
555.36	30.851
555.69	29.777
556.03	29.490
556.37	30.019
556.71	30.965
557.05	29.292
557.39	31.000
557.73	30.728
558.07	30.449
558.41	30.089
558.75	30.917
559.08	31.094
559.42	31.496
559.76	31.504
560.10	30.420
560.44	29.728
560.78	30.499
561.12	29.561
561.45	29.725
561.79	29.463
562.13	28.680
562.47	30.435
562.81	29.408
563.15	29.541
563.48	28.447
563.82	30.006
564.16	29.789
564.50	29.174
564.84	28.693
565.17	28.461
565.51	29.988
565.85	30.043
566.19	28.929
566.52	28.219
566.86	29.772
567.20	29.382
567.54	28.384
567.88	28.691
568.21	27.858
568.55	27.626
568.89	27.418
569.23	27.394
569.56	27.756
569.90	26.518
570.24	26.303
570.57	26.152
570.91	25.710
571.25	25.563
571.59	24.845
571.92	24.327
572.26	24.690
572.60	25.076
572.93	25.503
573.27	24.641
573.61	24.689
573.95	24.577
574.28	24.503
574.62	24.034
574.96	23.892
575.29	23.817
575.63	24.217
575.97	23.807
576.30	24.146
576.64	24.155
576.98	23.961
577.31	24.502
577.65	23.907
577.98	23.898
578.32	23.522
578.66	23.834
578.99	23.810
579.33	23.996
579.67	23.817
580.00	23.481
580.34	24.050
580.67	23.803
581.01	24.161
581.35	24.150
581.68	22.857
582.02	23.241
582.35	23.172
582.69	23.420
583.02	23.325
583.36	24.193
583.70	23.749
584.03	24.932
584.37	24.533
584.70	24.434
585.04	23.983
585.37	23.693
585.71	24.494
586.04	24.011
586.38	23.725
586.72	23.784
587.05	23.572
587.39	24.273
587.72	23.859
588.06	24.485
588.39	24.104
588.73	24.026
589.06	24.365
589.40	24.538
589.73	24.877
590.07	25.944
590.40	25.610
590.73	26.037
591.07	26.034
591.40	25.788
591.74	25.446
592.07	25.250
592.41	25.260
592.74	24.936
593.08	24.284
593.41	23.758
593.75	23.982
594.08	24.392
594.41	24.210
594.75	25.034
595.08	24.657
595.42	25.115
595.75	24.646
596.09	25.443
596.42	24.873
596.75	25.801
597.09	25.712
597.42	26.082
597.75	24.990
598.09	25.236
598.42	25.255
598.76	24.865
599.09	25.120
599.42	24.464
599.76	24.864
600.09	24.305
600.42	24.171
600.76	24.677
601.09	24.232
601.42	24.463
601.76	24.705
602.09	25.423
602.42	24.251
602.76	24.592
603.09	25.226
603.42	24.991
603.76	24.042
604.09	24.466
604.42	24.218
604.76	24.852
605.09	24.204
605.42	24.787
605.75	24.714
606.09	24.024
606.42	24.051
606.75	24.252
607.09	24.793
607.42	24.990
607.75	24.602
608.08	24.289
608.42	24.748
608.75	24.818
609.08	24.725
609.41	25.455
609.75	25.595
610.08	24.955
610.41	24.594
610.74	24.589
611.07	24.693
611.41	25.579
611.74	25.287
612.07	25.000
612.40	25.975
612.73	25.362
613.07	25.596
613.40	24.912
613.73	25.412
614.06	24.700
614.39	25.051
614.72	25.364
615.06	24.728
615.39	24.604
615.72	24.589
616.05	26.369
616.38	25.114
616.71	25.122
617.05	24.876
617.38	25.674
617.71	25.591
618.04	26.080
618.37	25.792
618.70	24.942
619.03	25.763
619.36	26.884
619.69	26.319
620.03	27.136
620.36	27.103
620.69	27.458
621.02	26.970
621.35	26.433
621.68	27.729
622.01	27.823
622.34	26.730
622.67	26.966
623.00	25.528
623.33	26.653
623.66	26.946
623.99	26.918
624.32	26.965
624.65	25.938
624.99	26.031
625.32	26.319
625.65	24.690
625.98	26.011
626.31	28.042
626.64	26.348
626.97	27.161
627.30	26.398
627.63	27.080
627.96	27.308
628.29	26.238
628.62	27.032
628.95	29.433
629.28	28.659
629.61	27.592
629.94	27.485
630.26	28.250
630.59	27.571
630.92	27.265
631.25	28.921
