SpectraSuite Data File
++++++++++++++++++++++++++++++++++++
Date: Tue May 12 15:29:15 PDT 2015
User: schluterlab
Dark Spectrum Present: Yes
Reference Spectrum Present: Yes
Number of Sampled Component Spectra: 1
Spectrometers: USB2E3373
Integration Time (usec): 3000 (USB2E3373)
Spectra Averaged: 3 (USB2E3373)
Boxcar Smoothing: 0 (USB2E3373)
Correct for Electrical Dark: No (USB2E3373)
Strobe/Lamp Enabled: No (USB2E3373)
Correct for Detector Non-linearity: No (USB2E3373)
Correct for Stray Light: No (USB2E3373)
Number of Pixels in Processed Spectrum: 2048
>>>>>Begin Processed Spectral Data<<<<<
178.53	0.000
178.91	-316.667
179.29	-875.000
179.67	-3200.000
180.04	-120.000
180.42	850.000
180.80	1900.000
181.18	0.000
181.56	-337.500
181.94	0.000
182.31	1266.667
182.69	-3700.000
183.07	671.429
183.45	-4500.000
183.83	-1500.000
184.20	400.000
184.58	642.857
184.96	-230.769
185.34	-208.333
185.72	1700.000
186.09	-900.000
186.47	-3000.000
186.85	1133.333
187.23	640.000
187.61	2300.000
187.98	537.500
188.36	364.286
188.74	416.667
189.12	383.333
189.49	900.000
189.87	0.000
190.25	562.500
190.63	3600.000
191.00	-291.667
191.38	-3500.000
191.76	-1025.000
192.14	512.500
192.51	-2400.000
192.89	1650.000
193.27	1100.000
193.65	-1466.667
194.02	-600.000
194.40	571.429
194.78	-214.286
195.15	246.667
195.53	-2900.000
195.91	-560.000
196.29	4100.000
196.66	293.750
197.04	750.000
197.42	-1650.000
197.79	700.000
198.17	391.667
198.55	0.000
198.92	642.857
199.30	1466.667
199.68	2200.000
200.05	633.333
200.43	-633.333
200.81	233.333
201.18	4000.000
201.56	425.000
201.94	-825.000
202.31	-412.500
202.69	-520.000
203.07	2500.000
203.44	-533.333
203.82	358.333
204.19	660.000
204.57	-1400.000
204.95	-800.000
205.32	-620.000
205.70	566.667
206.08	850.000
206.45	-1000.000
206.83	400.000
207.20	221.053
207.58	308.333
207.96	740.000
208.33	0.000
208.71	657.143
209.08	780.000
209.46	-3500.000
209.84	-1100.000
210.21	880.000
210.59	-760.000
210.96	308.333
211.34	-925.000
211.71	427.273
212.09	1100.000
212.46	2000.000
212.84	-533.333
213.22	500.000
213.59	-3500.000
213.97	300.000
214.34	1000.000
214.72	1500.000
215.09	1233.333
215.47	-3200.000
215.84	-370.000
216.22	-412.500
216.59	0.000
216.97	0.000
217.34	2100.000
217.72	-1700.000
218.09	1033.333
218.47	550.000
218.84	975.000
219.22	1100.000
219.59	933.333
219.97	571.429
220.34	433.333
220.72	2350.000
221.09	4200.000
221.47	325.000
221.84	1333.333
222.22	320.000
222.59	294.444
222.97	235.714
223.34	275.000
223.72	-1750.000
224.09	1200.000
224.46	200.000
224.84	-725.000
225.21	500.000
225.59	286.667
225.96	1366.667
226.34	-860.000
226.71	-700.000
227.08	-600.000
227.46	0.000
227.83	-500.000
228.21	-1950.000
228.58	316.667
228.95	900.000
229.33	344.444
229.70	1225.000
230.08	438.462
230.45	3900.000
230.82	-850.000
231.20	-1000.000
231.57	-1166.667
231.95	700.000
232.32	383.333
232.69	850.000
233.07	300.000
233.44	-1950.000
233.81	280.000
234.19	192.593
234.56	306.250
234.93	252.941
235.31	265.000
235.68	281.250
236.05	160.714
236.43	181.481
236.80	271.429
237.17	141.379
237.55	175.000
237.92	145.000
238.29	181.818
238.67	162.500
239.04	121.951
239.41	104.167
239.79	97.500
240.16	106.250
240.53	98.361
240.91	91.304
241.28	105.085
241.65	96.970
242.02	90.141
242.40	97.143
242.77	76.923
243.14	91.139
243.51	83.838
243.89	70.093
244.26	68.224
244.63	70.297
245.00	74.312
245.38	55.085
245.75	64.394
246.12	63.704
246.49	63.121
246.87	60.656
247.24	59.333
247.61	58.125
247.98	65.306
248.36	58.182
248.73	58.163
249.10	54.762
249.47	57.000
249.84	51.741
250.22	60.541
250.59	54.500
250.96	50.633
251.33	51.628
251.70	50.000
252.08	49.580
252.45	50.996
252.82	51.711
253.19	43.478
253.56	51.538
253.94	50.362
254.31	47.287
254.68	49.826
255.05	45.862
255.42	48.175
255.79	51.466
256.16	51.525
256.54	50.000
256.91	46.405
257.28	47.157
257.65	42.947
258.02	49.263
258.39	48.138
258.76	47.246
259.14	44.857
259.51	45.481
259.88	49.544
260.25	44.780
260.62	47.397
260.99	41.598
261.36	45.682
261.73	45.745
262.10	47.644
262.47	44.750
262.85	47.733
263.22	44.987
263.59	45.269
263.96	44.862
264.33	45.679
264.70	45.700
265.07	48.293
265.44	44.266
265.81	45.519
266.18	42.563
266.55	43.026
266.92	42.953
267.29	44.956
267.66	41.256
268.03	42.825
268.40	40.803
268.77	42.952
269.14	41.649
269.51	42.539
269.88	44.286
270.25	38.877
270.62	41.845
270.99	41.176
271.36	44.715
271.73	42.348
272.10	39.596
272.47	41.071
272.84	40.120
273.21	41.942
273.58	43.320
273.95	41.889
274.32	40.467
274.69	45.079
275.06	42.987
275.43	41.188
275.80	40.943
276.17	41.360
276.54	42.056
276.91	43.470
277.28	40.693
277.65	39.668
278.02	41.176
278.39	40.647
278.76	39.310
279.13	40.391
279.50	40.727
279.87	40.410
280.23	39.779
280.60	42.518
280.97	42.586
281.34	39.604
281.71	41.391
282.08	39.658
282.45	37.669
282.82	37.793
283.19	39.746
283.56	38.182
283.92	41.531
284.29	41.265
284.66	38.824
285.03	40.962
285.40	38.678
285.77	37.191
286.14	40.867
286.51	39.110
286.87	37.816
287.24	38.739
287.61	40.578
287.98	39.851
288.35	40.148
288.72	37.329
289.08	40.691
289.45	39.482
289.82	39.531
290.19	39.824
290.56	40.175
290.93	39.712
291.29	40.331
291.66	37.571
292.03	37.588
292.40	41.057
292.77	39.554
293.13	40.086
293.50	40.081
293.87	38.618
294.24	39.161
294.60	41.588
294.97	42.657
295.34	40.505
295.71	40.473
296.08	40.267
296.44	40.025
296.81	38.089
297.18	39.670
297.55	42.488
297.91	39.286
298.28	40.459
298.65	38.405
299.02	40.169
299.38	41.127
299.75	40.854
300.12	40.138
300.48	41.101
300.85	42.670
301.22	40.814
301.59	40.802
301.95	41.774
302.32	42.026
302.69	43.326
303.05	41.414
303.42	39.686
303.79	40.195
304.15	42.244
304.52	41.543
304.89	42.431
305.25	42.380
305.62	41.578
305.99	42.500
306.35	40.526
306.72	42.040
307.09	41.304
307.45	42.872
307.82	42.284
308.19	42.165
308.55	42.900
308.92	43.180
309.29	44.773
309.65	44.896
310.02	44.828
310.38	44.367
310.75	44.648
311.12	43.487
311.48	44.981
311.85	45.897
312.22	45.463
312.58	47.036
312.95	46.990
313.31	46.161
313.68	46.435
314.05	47.253
314.41	47.114
314.78	46.780
315.14	48.531
315.51	48.534
315.87	47.719
316.24	47.993
316.61	48.970
316.97	48.532
317.34	50.854
317.70	49.605
318.07	50.979
318.43	50.967
318.80	52.277
319.16	50.874
319.53	50.973
319.89	52.240
320.26	53.631
320.62	53.297
320.99	53.480
321.35	53.618
321.72	54.080
322.08	55.586
322.45	57.402
322.81	55.810
323.18	57.105
323.54	56.882
323.91	59.112
324.27	58.267
324.64	57.007
325.00	59.741
325.37	59.865
325.73	60.287
326.10	61.806
326.46	60.694
326.83	59.840
327.19	61.687
327.56	59.425
327.92	62.705
328.29	62.520
328.65	63.271
329.01	62.361
329.38	62.690
329.74	61.401
330.11	63.249
330.47	64.194
330.84	60.397
331.20	62.267
331.56	62.176
331.93	63.730
332.29	61.395
332.66	62.415
333.02	61.426
333.38	63.962
333.75	62.385
334.11	62.668
334.48	63.932
334.84	60.980
335.20	60.222
335.57	61.209
335.93	61.901
336.29	60.697
336.66	63.808
337.02	61.163
337.38	60.963
337.75	61.993
338.11	61.350
338.47	62.405
338.84	61.304
339.20	61.472
339.56	61.060
339.93	60.201
340.29	60.336
340.65	60.855
341.02	60.257
341.38	60.509
341.74	61.711
342.11	62.270
342.47	60.952
342.83	60.377
343.20	60.711
343.56	59.253
343.92	60.776
344.28	59.809
344.65	60.962
345.01	59.603
345.37	60.256
345.73	58.968
346.10	59.681
346.46	59.490
346.82	58.256
347.19	59.660
347.55	58.782
347.91	58.535
348.27	59.334
348.63	59.573
349.00	57.959
349.36	59.767
349.72	59.174
350.08	60.637
350.45	59.101
350.81	60.168
351.17	58.552
351.53	58.814
351.89	57.964
352.26	57.974
352.62	59.879
352.98	59.969
353.34	60.015
353.70	58.869
354.07	59.462
354.43	59.831
354.79	59.529
355.15	59.418
355.51	61.254
355.87	60.768
356.24	60.123
356.60	59.132
356.96	59.136
357.32	58.855
357.68	58.811
358.04	59.043
358.40	59.070
358.77	59.504
359.13	58.408
359.49	59.674
359.85	59.643
360.21	57.727
360.57	58.321
360.93	59.307
361.29	59.885
361.66	58.166
362.02	59.091
362.38	59.957
362.74	59.094
363.10	58.626
363.46	58.564
363.82	59.116
364.18	59.957
364.54	59.013
364.90	58.233
365.26	60.722
365.62	59.738
365.98	58.156
366.35	59.172
366.71	60.097
367.07	60.068
367.43	58.160
367.79	59.043
368.15	57.938
368.51	58.856
368.87	60.190
369.23	59.044
369.59	58.395
369.95	59.930
370.31	58.522
370.67	59.403
371.03	58.543
371.39	60.596
371.75	59.456
372.11	58.668
372.47	58.973
372.83	59.619
373.19	60.658
373.55	59.794
373.91	59.116
374.27	60.119
374.63	58.915
374.99	59.501
375.35	61.559
375.71	61.148
376.07	59.814
376.42	59.399
376.78	60.629
377.14	60.157
377.50	59.613
377.86	60.090
378.22	60.756
378.58	60.835
378.94	60.531
379.30	60.764
379.66	60.205
380.02	60.293
380.38	59.602
380.74	60.957
381.09	59.463
381.45	59.133
381.81	59.574
382.17	60.501
382.53	60.648
382.89	59.373
383.25	59.621
383.61	59.251
383.97	58.488
384.32	60.398
384.68	61.022
385.04	59.965
385.40	59.193
385.76	59.626
386.12	60.297
386.48	60.486
386.83	59.474
387.19	59.894
387.55	60.601
387.91	59.296
388.27	59.429
388.62	59.742
388.98	59.300
389.34	58.656
389.70	58.726
390.06	58.720
390.42	58.853
390.77	58.047
391.13	58.721
391.49	57.350
391.85	59.323
392.20	58.880
392.56	58.423
392.92	59.573
393.28	58.800
393.64	57.397
393.99	58.210
394.35	58.093
394.71	57.238
395.07	58.394
395.42	59.251
395.78	58.544
396.14	57.831
396.50	57.822
396.85	58.476
397.21	56.919
397.57	58.159
397.92	56.846
398.28	58.191
398.64	57.417
399.00	56.334
399.35	56.683
399.71	55.850
400.07	57.078
400.42	58.567
400.78	57.771
401.14	57.487
401.49	57.604
401.85	56.315
402.21	57.235
402.57	57.092
402.92	57.333
403.28	56.265
403.63	56.151
403.99	55.187
404.35	57.503
404.70	57.531
405.06	55.811
405.42	57.391
405.77	56.064
406.13	55.260
406.49	55.884
406.84	55.274
407.20	56.336
407.55	55.631
407.91	55.712
408.27	56.034
408.62	56.357
408.98	55.411
409.34	54.763
409.69	55.196
410.05	54.323
410.40	54.005
410.76	53.978
411.11	55.213
411.47	54.321
411.83	54.013
412.18	55.374
412.54	54.354
412.89	55.575
413.25	55.074
413.60	54.498
413.96	54.159
414.31	55.254
414.67	56.176
415.03	56.194
415.38	54.259
415.74	55.085
416.09	55.278
416.45	55.591
416.80	55.228
417.16	54.297
417.51	56.306
417.87	55.632
418.22	54.860
418.58	55.924
418.93	54.491
419.29	54.837
419.64	56.027
420.00	56.146
420.35	55.865
420.71	55.018
421.06	55.562
421.42	55.383
421.77	55.580
422.12	55.623
422.48	54.751
422.83	54.855
423.19	55.292
423.54	55.787
423.90	55.719
424.25	57.017
424.61	56.181
424.96	56.014
425.31	56.267
425.67	56.397
426.02	56.366
426.38	56.709
426.73	55.986
427.09	56.584
427.44	56.669
427.79	57.176
428.15	57.278
428.50	56.571
428.85	56.849
429.21	56.726
429.56	56.680
429.92	56.937
430.27	56.797
430.62	55.507
430.98	55.838
431.33	55.746
431.68	56.049
432.04	55.923
432.39	56.476
432.74	59.426
433.10	58.084
433.45	58.128
433.80	58.356
434.16	57.068
434.51	58.875
434.86	58.193
435.22	58.293
435.57	58.921
435.92	59.932
436.28	59.677
436.63	59.049
436.98	59.797
437.34	58.390
437.69	58.511
438.04	58.817
438.39	59.019
438.75	58.630
439.10	58.662
439.45	57.547
439.81	59.283
440.16	58.668
440.51	58.615
440.86	60.399
441.22	59.145
441.57	59.633
441.92	59.970
442.27	59.021
442.63	58.384
442.98	59.267
443.33	59.775
443.68	58.853
444.03	59.331
444.39	59.934
444.74	58.954
445.09	58.662
445.44	59.139
445.79	58.967
446.15	58.579
446.50	59.177
446.85	58.964
447.20	59.652
447.55	60.413
447.91	59.776
448.26	59.052
448.61	60.365
448.96	61.329
449.31	61.551
449.66	60.465
450.02	59.481
450.37	60.966
450.72	61.157
451.07	59.919
451.42	59.870
451.77	61.512
452.12	60.522
452.47	59.781
452.83	61.070
453.18	60.541
453.53	61.338
453.88	61.200
454.23	60.198
454.58	59.965
454.93	61.312
455.28	60.955
455.63	61.052
455.98	60.857
456.34	61.702
456.69	60.183
457.04	61.277
457.39	60.971
457.74	61.036
458.09	60.303
458.44	61.227
458.79	60.053
459.14	61.102
459.49	60.249
459.84	61.304
460.19	60.226
460.54	61.538
460.89	61.141
461.24	59.336
461.59	60.601
461.94	60.757
462.29	61.327
462.64	61.935
462.99	61.612
463.34	61.050
463.69	61.464
464.04	61.255
464.39	60.618
464.74	60.199
465.09	60.940
465.44	60.609
465.79	60.479
466.14	60.254
466.49	59.957
466.84	60.145
467.19	59.754
467.54	60.721
467.89	60.857
468.24	61.610
468.59	61.190
468.94	60.628
469.29	61.148
469.64	61.286
469.99	59.704
470.34	61.733
470.68	61.310
471.03	61.708
471.38	61.987
471.73	61.137
472.08	61.905
472.43	62.632
472.78	61.652
473.13	60.075
473.48	61.491
473.83	60.306
474.17	62.188
474.52	61.552
474.87	60.034
475.22	61.336
475.57	60.021
475.92	61.318
476.27	60.283
476.61	60.429
476.96	59.300
477.31	61.234
477.66	62.050
478.01	60.444
478.36	60.865
478.70	59.702
479.05	61.559
479.40	60.764
479.75	59.583
480.10	61.423
480.45	60.644
480.79	60.461
481.14	60.295
481.49	58.875
481.84	60.334
482.19	59.869
482.53	58.191
482.88	60.394
483.23	59.856
483.58	60.368
483.92	60.832
484.27	59.075
484.62	59.975
484.97	58.785
485.31	59.191
485.66	59.278
486.01	57.887
486.36	56.517
486.70	55.367
487.05	55.980
487.40	56.387
487.75	57.261
488.09	57.841
488.44	58.094
488.79	60.292
489.13	59.985
489.48	59.688
489.83	59.842
490.17	58.175
490.52	59.819
490.87	59.138
491.22	59.929
491.56	59.376
491.91	58.826
492.26	59.332
492.60	59.772
492.95	58.405
493.30	58.781
493.64	58.625
493.99	57.916
494.34	60.601
494.68	59.805
495.03	58.734
495.37	58.712
495.72	60.420
496.07	59.030
496.41	58.992
496.76	57.999
497.11	57.755
497.45	59.053
497.80	59.453
498.14	58.807
498.49	58.960
498.84	60.654
499.18	58.867
499.53	58.475
499.87	58.895
500.22	60.295
500.56	58.821
500.91	60.111
501.26	59.394
501.60	59.426
501.95	59.050
502.29	58.933
502.64	59.153
502.98	57.670
503.33	58.441
503.67	58.896
504.02	58.352
504.36	58.688
504.71	60.454
505.06	59.690
505.40	58.680
505.75	58.138
506.09	58.609
506.44	60.338
506.78	59.026
507.13	60.397
507.47	58.855
507.82	59.659
508.16	62.028
508.51	59.855
508.85	59.497
509.19	59.863
509.54	59.277
509.88	59.821
510.23	58.922
510.57	58.736
510.92	60.140
511.26	61.295
511.61	58.986
511.95	58.537
512.30	58.550
512.64	60.228
512.98	59.354
513.33	60.041
513.67	59.762
514.02	60.468
514.36	59.553
514.70	60.640
515.05	60.256
515.39	61.020
515.74	61.728
516.08	60.839
516.42	62.350
516.77	60.000
517.11	59.680
517.46	60.614
517.80	59.803
518.14	61.239
518.49	59.978
518.83	59.890
519.17	61.009
519.52	60.513
519.86	62.071
520.20	60.438
520.55	59.299
520.89	61.092
521.23	61.215
521.58	59.839
521.92	60.758
522.26	60.841
522.61	61.616
522.95	61.141
523.29	60.409
523.64	60.116
523.98	60.622
524.32	59.804
524.66	60.464
525.01	60.296
525.35	59.929
525.69	60.927
526.04	60.976
526.38	60.918
526.72	60.501
527.06	59.255
527.41	60.701
527.75	60.377
528.09	59.723
528.43	60.708
528.78	60.048
529.12	62.793
529.46	58.971
529.80	58.995
530.15	59.163
530.49	59.085
530.83	60.512
531.17	60.209
531.51	59.166
531.86	59.300
532.20	58.900
532.54	60.075
532.88	60.337
533.22	59.476
533.57	60.769
533.91	57.459
534.25	57.877
534.59	58.713
534.93	58.362
535.27	56.631
535.62	58.343
535.96	58.747
536.30	60.634
536.64	58.509
536.98	58.087
537.32	58.312
537.66	58.737
538.01	57.585
538.35	59.139
538.69	57.888
539.03	57.649
539.37	56.371
539.71	58.395
540.05	58.215
540.39	58.365
540.73	58.228
541.07	58.532
541.42	57.400
541.76	57.028
542.10	56.843
542.44	57.668
542.78	58.653
543.12	56.258
543.46	57.206
543.80	58.083
544.14	57.214
544.48	58.090
544.82	57.125
545.16	56.709
545.50	56.976
545.84	57.449
546.18	58.257
546.52	58.820
546.86	57.834
547.20	57.558
547.54	56.555
547.88	57.056
548.22	58.591
548.56	56.276
548.90	55.635
549.24	56.601
549.58	56.121
549.92	58.153
550.26	58.350
550.60	58.350
550.94	59.905
551.28	57.241
551.62	58.759
551.96	56.824
552.30	55.372
552.64	58.317
552.98	56.057
553.32	56.210
553.66	56.352
554.00	57.014
554.34	58.123
554.68	57.325
555.02	57.230
555.36	57.048
555.69	56.021
556.03	55.987
556.37	56.469
556.71	58.018
557.05	56.946
557.39	56.800
557.73	57.412
558.07	56.003
558.41	55.106
558.75	56.430
559.08	56.826
559.42	57.695
559.76	56.593
560.10	57.192
560.44	56.271
560.78	55.563
561.12	57.533
561.45	55.507
561.79	56.617
562.13	56.412
562.47	57.755
562.81	56.344
563.15	56.626
563.48	55.280
563.82	56.893
564.16	55.846
564.50	54.491
564.84	55.076
565.17	55.615
565.51	57.204
565.85	56.447
566.19	56.310
566.52	54.212
566.86	56.918
567.20	55.449
567.54	54.858
567.88	55.764
568.21	53.220
568.55	53.453
568.89	53.376
569.23	52.977
569.56	53.594
569.90	52.425
570.24	52.402
570.57	52.109
570.91	51.669
571.25	50.890
571.59	50.508
571.92	49.865
572.26	50.081
572.60	49.986
572.93	51.294
573.27	50.804
573.61	50.433
573.95	50.598
574.28	50.339
574.62	49.814
574.96	49.005
575.29	49.785
575.63	48.975
575.97	48.296
576.30	49.760
576.64	49.526
576.98	49.501
577.31	50.190
577.65	49.354
577.98	49.625
578.32	48.545
578.66	48.989
578.99	48.983
579.33	48.940
579.67	48.835
580.00	49.897
580.34	48.838
580.67	48.546
581.01	49.243
581.35	48.559
581.68	48.427
582.02	48.650
582.35	48.586
582.69	48.738
583.02	49.132
583.36	49.357
583.70	49.020
584.03	51.230
584.37	50.404
584.70	49.540
585.04	49.584
585.37	49.459
585.71	49.438
586.04	48.903
586.38	49.390
586.72	49.575
587.05	49.691
587.39	49.937
587.72	50.085
588.06	49.888
588.39	49.616
588.73	49.469
589.06	49.985
589.40	51.362
589.73	50.475
590.07	51.030
590.40	51.324
590.73	52.259
591.07	50.968
591.40	50.978
591.74	50.852
592.07	50.666
592.41	51.119
592.74	50.934
593.08	49.935
593.41	49.521
593.75	49.341
594.08	48.999
594.41	49.365
594.75	50.411
595.08	50.652
595.42	50.000
595.75	50.115
596.09	51.025
596.42	50.910
596.75	51.803
597.09	51.259
597.42	51.224
597.75	50.183
598.09	50.677
598.42	51.408
598.76	49.422
599.09	50.129
599.42	48.651
599.76	49.966
600.09	48.542
600.42	49.378
600.76	49.286
601.09	50.086
601.42	48.962
601.76	50.054
602.09	50.331
602.42	48.614
602.76	49.981
603.09	50.452
603.42	50.018
603.76	50.470
604.09	48.896
604.42	49.793
604.76	50.099
605.09	50.531
605.42	49.777
605.75	49.625
606.09	49.311
606.42	48.891
606.75	49.786
607.09	49.151
607.42	49.819
607.75	49.283
608.08	49.634
608.42	50.294
608.75	49.508
609.08	50.242
609.41	50.545
609.75	50.687
610.08	50.899
610.41	50.198
610.74	49.654
611.07	49.795
611.41	50.278
611.74	50.669
612.07	51.060
612.40	50.828
612.73	50.524
613.07	50.380
613.40	50.877
613.73	50.924
614.06	50.450
614.39	49.949
614.72	48.970
615.06	49.159
615.39	49.950
615.72	49.564
616.05	50.427
616.38	49.772
616.71	51.275
617.05	51.126
617.38	51.011
617.71	51.856
618.04	50.869
618.37	49.639
618.70	50.404
619.03	52.015
619.36	51.131
619.69	50.660
620.03	51.859
620.36	52.023
620.69	52.299
621.02	51.766
621.35	51.504
621.68	51.844
622.01	52.177
622.34	52.877
622.67	51.124
623.00	50.374
623.33	52.901
623.66	50.965
623.99	52.329
624.32	51.897
624.65	49.177
624.99	51.724
625.32	52.037
625.65	50.690
625.98	51.604
626.31	53.338
626.64	51.936
626.97	51.186
627.30	50.621
627.63	53.454
627.96	52.113
628.29	51.568
628.62	51.326
628.95	54.699
629.28	52.498
629.61	53.076
629.94	53.241
630.26	53.466
630.59	52.660
630.92	53.812
