SpectraSuite Data File
++++++++++++++++++++++++++++++++++++
Date: Tue May 12 17:04:07 PDT 2015
User: schluterlab
Dark Spectrum Present: Yes
Reference Spectrum Present: Yes
Number of Sampled Component Spectra: 1
Spectrometers: USB2E3373
Integration Time (usec): 3000 (USB2E3373)
Spectra Averaged: 3 (USB2E3373)
Boxcar Smoothing: 0 (USB2E3373)
Correct for Electrical Dark: No (USB2E3373)
Strobe/Lamp Enabled: No (USB2E3373)
Correct for Detector Non-linearity: No (USB2E3373)
Correct for Stray Light: No (USB2E3373)
Number of Pixels in Processed Spectrum: 2048
>>>>>Begin Processed Spectral Data<<<<<
178.53	0.000
178.91	-216.667
179.29	-725.000
179.67	-3500.000
180.04	-106.667
180.42	700.000
180.80	1500.000
181.18	0.000
181.56	-362.500
181.94	0.000
182.31	1266.667
182.69	-4100.000
183.07	528.571
183.45	-3900.000
183.83	-1500.000
184.20	410.000
184.58	557.143
184.96	-215.385
185.34	-150.000
185.72	1600.000
186.09	-850.000
186.47	-3900.000
186.85	1400.000
187.23	620.000
187.61	1850.000
187.98	562.500
188.36	292.857
188.74	341.667
189.12	358.333
189.49	1025.000
189.87	0.000
190.25	575.000
190.63	2700.000
191.00	-216.667
191.38	-3500.000
191.76	-900.000
192.14	500.000
192.51	-2100.000
192.89	1400.000
193.27	1033.333
193.65	-1233.333
194.02	-820.000
194.40	585.714
194.78	-178.571
195.15	220.000
195.53	-2500.000
195.91	-520.000
196.29	3500.000
196.66	281.250
197.04	775.000
197.42	-1400.000
197.79	775.000
198.17	400.000
198.55	0.000
198.92	414.286
199.30	1166.667
199.68	1950.000
200.05	750.000
200.43	-633.333
200.81	200.000
201.18	3500.000
201.56	333.333
201.94	-825.000
202.31	-400.000
202.69	-540.000
203.07	3500.000
203.44	-600.000
203.82	325.000
204.19	780.000
204.57	-1550.000
204.95	-850.000
205.32	-680.000
205.70	550.000
206.08	875.000
206.45	-1000.000
206.83	311.111
207.20	215.789
207.58	300.000
207.96	620.000
208.33	0.000
208.71	671.429
209.08	740.000
209.46	-3200.000
209.84	-650.000
210.21	960.000
210.59	-380.000
210.96	341.667
211.34	-950.000
211.71	336.364
212.09	750.000
212.46	1600.000
212.84	-366.667
213.22	477.778
213.59	-3700.000
213.97	400.000
214.34	1025.000
214.72	933.333
215.09	1066.667
215.47	-3200.000
215.84	-380.000
216.22	-437.500
216.59	0.000
216.97	0.000
217.34	1550.000
217.72	-1500.000
218.09	1266.667
218.47	512.500
218.84	725.000
219.22	866.667
219.59	1100.000
219.97	471.429
220.34	444.444
220.72	1850.000
221.09	3400.000
221.47	316.667
221.84	933.333
222.22	310.000
222.59	261.111
222.97	250.000
223.34	231.250
223.72	-1900.000
224.09	1033.333
224.46	292.308
224.84	-675.000
225.21	433.333
225.59	260.000
225.96	1433.333
226.34	-840.000
226.71	-750.000
227.08	-500.000
227.46	0.000
227.83	-633.333
228.21	-2050.000
228.58	366.667
228.95	900.000
229.33	344.444
229.70	800.000
230.08	307.692
230.45	3600.000
230.82	-950.000
231.20	-1200.000
231.57	-1133.333
231.95	660.000
232.32	283.333
232.69	433.333
233.07	275.000
233.44	-1300.000
233.81	246.667
234.19	166.667
234.56	262.500
234.93	211.765
235.31	205.000
235.68	312.500
236.05	178.571
236.43	148.148
236.80	242.857
237.17	110.345
237.55	137.500
237.92	132.500
238.29	139.394
238.67	165.625
239.04	129.268
239.41	100.000
239.79	87.500
240.16	120.833
240.53	90.164
240.91	75.362
241.28	108.475
241.65	78.788
242.02	97.183
242.40	91.429
242.77	67.033
243.14	58.228
243.51	75.758
243.89	71.028
244.26	56.075
244.63	69.307
245.00	67.890
245.38	54.237
245.75	55.303
246.12	59.259
246.49	56.738
246.87	54.918
247.24	60.000
247.61	53.125
247.98	56.463
248.36	42.424
248.73	52.041
249.10	44.643
249.47	51.500
249.84	51.741
250.22	54.595
250.59	47.500
250.96	44.726
251.33	52.093
251.70	49.554
252.08	46.639
252.45	42.629
252.82	46.388
253.19	47.431
253.56	44.231
253.94	44.565
254.31	45.736
254.68	46.341
255.05	46.897
255.42	45.985
255.79	44.951
256.16	49.153
256.54	45.455
256.91	46.732
257.28	44.482
257.65	40.439
258.02	39.823
258.39	44.126
258.76	46.957
259.14	42.000
259.51	41.108
259.88	44.681
260.25	39.835
260.62	42.466
260.99	41.047
261.36	42.618
261.73	43.351
262.10	41.623
262.47	43.000
262.85	41.333
263.22	45.758
263.59	40.665
263.96	40.602
264.33	40.741
264.70	41.278
265.07	41.463
265.44	42.202
265.81	39.623
266.18	43.021
266.55	40.426
266.92	41.387
267.29	40.789
267.66	40.359
268.03	42.152
268.40	40.803
268.77	41.850
269.14	39.479
269.51	40.535
269.88	43.061
270.25	36.933
270.62	39.485
270.99	41.785
271.36	40.650
271.73	38.994
272.10	37.576
272.47	39.286
272.84	38.323
273.21	40.909
273.58	41.700
273.95	40.246
274.32	40.272
274.69	41.339
275.06	41.166
275.43	36.973
275.80	37.547
276.17	41.544
276.54	38.505
276.91	41.791
277.28	36.679
277.65	38.745
278.02	40.257
278.39	36.691
278.76	40.345
279.13	38.968
279.50	40.727
279.87	38.361
280.23	37.017
280.60	39.234
280.97	38.448
281.34	37.129
281.71	36.696
282.08	38.462
282.45	36.993
282.82	39.632
283.19	35.612
283.56	37.355
283.92	38.274
284.29	38.769
284.66	38.151
285.03	38.474
285.40	37.521
285.77	35.648
286.14	37.307
286.51	36.043
286.87	36.392
287.24	34.084
287.61	35.410
287.98	36.269
288.35	33.778
288.72	35.812
289.08	34.835
289.45	38.720
289.82	35.000
290.19	33.529
290.56	35.371
290.93	34.964
291.29	33.978
291.66	32.486
292.03	34.783
292.40	33.198
292.77	31.058
293.13	33.524
293.50	33.063
293.87	32.249
294.24	33.007
294.60	31.763
294.97	33.287
295.34	31.740
295.71	32.852
296.08	32.933
296.44	32.020
296.81	31.017
297.18	30.672
297.55	31.404
297.91	31.158
298.28	30.193
298.65	31.779
299.02	31.604
299.38	30.456
299.75	32.073
300.12	31.766
300.48	31.850
300.85	32.658
301.22	31.163
301.59	31.014
301.95	32.322
302.32	31.548
302.69	31.335
303.05	32.884
303.42	31.166
303.79	29.902
304.15	29.703
304.52	29.810
304.89	31.237
305.25	31.368
305.62	31.450
305.99	30.652
306.35	31.684
306.72	32.674
307.09	31.781
307.45	30.729
307.82	31.893
308.19	31.134
308.55	32.000
308.92	33.366
309.29	32.347
309.65	33.102
310.02	33.570
310.38	32.403
310.75	32.112
311.12	32.663
311.48	33.977
311.85	33.492
312.22	34.575
312.58	34.402
312.95	33.689
313.31	35.300
313.68	33.865
314.05	35.256
314.41	35.754
314.78	35.701
315.14	37.251
315.51	37.938
315.87	34.854
316.24	36.508
316.61	36.168
316.97	37.339
317.34	38.365
317.70	37.928
318.07	38.879
318.43	38.313
318.80	39.405
319.16	39.685
319.53	39.823
319.89	40.233
320.26	42.365
320.62	40.842
320.99	40.991
321.35	40.724
321.72	43.264
322.08	42.567
322.45	42.325
322.81	43.458
323.18	43.339
323.54	44.599
323.91	45.150
324.27	44.828
324.64	45.848
325.00	46.121
325.37	45.616
325.73	46.290
326.10	46.810
326.46	47.151
326.83	46.160
327.19	49.157
327.56	47.923
327.92	49.590
328.29	49.918
328.65	49.743
329.01	49.358
329.38	50.508
329.74	49.787
330.11	50.565
330.47	50.213
330.84	49.525
331.20	49.662
331.56	51.900
331.93	52.695
332.29	49.490
332.66	51.361
333.02	48.797
333.38	51.309
333.75	51.209
334.11	51.007
334.48	51.026
334.84	51.774
335.20	50.385
335.57	49.622
335.93	51.472
336.29	48.342
336.66	51.973
337.02	50.898
337.38	50.129
337.75	50.845
338.11	50.717
338.47	50.212
338.84	50.466
339.20	49.524
339.56	50.463
339.93	50.502
340.29	50.000
340.65	50.964
341.02	51.891
341.38	50.164
341.74	50.083
342.11	51.002
342.47	49.795
342.83	50.533
343.20	51.334
343.56	48.133
343.92	51.197
344.28	50.239
344.65	51.100
345.01	50.635
345.37	50.160
345.73	50.635
346.10	50.518
346.46	50.797
346.82	50.077
347.19	51.082
347.55	48.322
347.91	50.453
348.27	49.574
348.63	51.899
349.00	50.876
349.36	50.895
349.72	51.988
350.08	51.087
350.45	52.018
350.81	51.529
351.17	51.233
351.53	50.885
351.89	50.505
352.26	50.567
352.62	50.452
352.98	52.684
353.34	50.847
353.70	51.147
354.07	51.385
354.43	51.843
354.79	49.810
355.15	53.216
355.51	52.568
355.87	50.151
356.24	52.194
356.60	50.609
356.96	52.919
357.32	51.846
357.68	50.881
358.04	52.736
358.40	51.874
358.77	51.916
359.13	52.027
359.49	50.482
359.85	51.824
360.21	52.155
360.57	51.752
360.93	51.804
361.29	52.165
361.66	53.169
362.02	51.065
362.38	53.824
362.74	52.654
363.10	51.893
363.46	52.003
363.82	52.875
364.18	52.703
364.54	52.575
364.90	53.548
365.26	54.198
365.62	52.762
365.98	51.617
366.35	52.690
366.71	54.129
367.07	53.788
367.43	52.518
367.79	52.660
368.15	51.764
368.51	52.240
368.87	52.378
369.23	53.846
369.59	52.731
369.95	55.175
370.31	52.977
370.67	54.337
371.03	53.992
371.39	53.393
371.75	54.850
372.11	55.133
372.47	54.521
372.83	55.608
373.19	55.655
373.55	54.914
373.91	52.901
374.27	54.630
374.63	55.525
374.99	54.852
375.35	55.981
375.71	55.673
376.07	56.167
376.42	54.668
376.78	55.812
377.14	55.111
377.50	54.994
377.86	54.965
378.22	56.368
378.58	56.356
378.94	56.005
379.30	56.337
379.66	55.750
380.02	55.953
380.38	54.977
380.74	55.940
381.09	56.192
381.45	55.029
381.81	55.378
382.17	55.372
382.53	56.509
382.89	55.707
383.25	56.306
383.61	56.311
383.97	56.629
384.32	57.746
384.68	58.348
385.04	55.979
385.40	56.880
385.76	56.407
386.12	57.081
386.48	57.021
386.83	57.152
387.19	56.949
387.55	56.302
387.91	58.776
388.27	58.061
388.62	56.573
388.98	56.851
389.34	57.228
389.70	57.606
390.06	57.683
390.42	55.521
390.77	56.327
391.13	56.910
391.49	56.987
391.85	58.769
392.20	56.853
392.56	56.033
392.92	56.934
393.28	57.119
393.64	56.307
393.99	57.084
394.35	56.857
394.71	56.815
395.07	57.664
395.42	57.611
395.78	57.619
396.14	57.229
396.50	56.679
396.85	57.012
397.21	57.100
397.57	56.246
397.92	56.961
398.28	57.308
398.64	57.592
399.00	56.761
399.35	56.253
399.71	56.678
400.07	56.164
400.42	56.836
400.78	57.302
401.14	57.604
401.49	57.834
401.85	57.474
402.21	56.883
402.57	58.169
402.92	58.182
403.28	56.205
403.63	56.857
403.99	56.273
404.35	56.155
404.70	57.944
405.06	56.990
405.42	56.673
405.77	56.009
406.13	55.260
406.49	56.339
406.84	54.258
407.20	56.906
407.55	55.446
407.91	57.052
408.27	55.791
408.62	56.535
408.98	57.303
409.34	55.523
409.69	56.565
410.05	55.814
410.40	55.418
410.76	55.982
411.11	56.398
411.47	56.420
411.83	54.716
412.18	54.952
412.54	55.435
412.89	55.575
413.25	55.245
413.60	55.841
413.96	55.296
414.31	56.021
414.67	56.238
415.03	55.556
415.38	56.467
415.74	56.286
416.09	56.027
416.45	55.785
416.80	56.703
417.16	55.188
417.51	55.860
417.87	55.695
418.22	54.678
418.58	56.306
418.93	55.503
419.29	55.083
419.64	55.542
420.00	55.131
420.35	55.459
420.71	55.718
421.06	55.268
421.42	55.498
421.77	54.858
422.12	55.678
422.48	54.186
422.83	55.134
423.19	54.320
423.54	55.019
423.90	55.436
424.25	55.751
424.61	55.601
424.96	54.263
425.31	54.735
425.67	55.780
426.02	55.244
426.38	54.609
426.73	56.507
427.09	55.575
427.44	55.149
427.79	56.032
428.15	57.160
428.50	56.114
428.85	55.438
429.21	55.105
429.56	54.287
429.92	54.699
430.27	54.620
430.62	53.157
430.98	53.942
431.33	54.435
431.68	53.333
432.04	53.337
432.39	55.653
432.74	55.269
433.10	56.312
433.45	55.715
433.80	56.646
434.16	54.913
434.51	55.160
434.86	55.743
435.22	55.375
435.57	55.661
435.92	56.574
436.28	55.300
436.63	55.213
436.98	56.250
437.34	55.936
437.69	54.031
438.04	54.946
438.39	55.400
438.75	54.955
439.10	54.236
439.45	54.438
439.81	55.003
440.16	55.476
440.51	53.716
440.86	56.467
441.22	56.277
441.57	55.223
441.92	55.577
442.27	55.515
442.63	54.929
442.98	53.610
443.33	55.490
443.68	55.080
444.03	54.571
444.39	55.508
444.74	54.762
445.09	54.555
445.44	55.420
445.79	54.825
446.15	55.263
446.50	55.274
446.85	55.777
447.20	54.925
447.55	55.791
447.91	55.408
448.26	54.207
448.61	56.827
448.96	56.427
449.31	55.171
449.66	54.762
450.02	54.835
450.37	56.191
450.72	56.364
451.07	55.265
451.42	55.542
451.77	56.014
452.12	54.906
452.47	55.529
452.83	54.648
453.18	56.336
453.53	55.121
453.88	55.143
454.23	54.968
454.58	54.662
454.93	55.181
455.28	54.590
455.63	55.083
455.98	54.258
456.34	56.353
456.69	55.427
457.04	54.654
457.39	53.314
457.74	54.899
458.09	53.846
458.44	54.053
458.79	54.748
459.14	53.573
459.49	53.964
459.84	56.196
460.19	55.254
460.54	55.214
460.89	54.904
461.24	54.066
461.59	55.102
461.94	54.728
462.29	53.604
462.64	55.276
462.99	54.191
463.34	53.662
463.69	55.233
464.04	54.634
464.39	53.978
464.74	53.517
465.09	53.569
465.44	53.373
465.79	53.511
466.14	53.524
466.49	53.825
466.84	52.676
467.19	53.661
467.54	54.114
467.89	53.756
468.24	54.082
468.59	53.929
468.94	53.986
469.29	53.879
469.64	54.469
469.99	53.856
470.34	54.080
470.68	53.103
471.03	53.903
471.38	53.377
471.73	53.037
472.08	54.860
472.43	54.935
472.78	53.841
473.13	51.126
473.48	53.423
473.83	53.062
474.17	53.252
474.52	52.903
474.87	53.781
475.22	53.741
475.57	52.256
475.92	53.245
476.27	52.829
476.61	53.298
476.96	51.620
477.31	52.494
477.66	53.677
478.01	52.656
478.36	52.575
478.70	51.911
479.05	52.040
479.40	52.480
479.75	53.029
480.10	53.001
480.45	50.840
480.79	51.244
481.14	51.831
481.49	50.595
481.84	50.792
482.19	52.009
482.53	50.505
482.88	51.299
483.23	50.970
483.58	51.032
483.92	52.285
484.27	51.070
484.62	50.976
484.97	50.175
485.31	50.750
485.66	49.710
486.01	48.958
486.36	48.734
486.70	48.989
487.05	48.731
487.40	47.911
487.75	49.092
488.09	48.722
488.44	49.235
488.79	49.879
489.13	49.832
489.48	50.380
489.83	50.125
490.17	49.216
490.52	50.301
490.87	50.431
491.22	50.798
491.56	50.022
491.91	49.776
492.26	49.577
492.60	51.526
492.95	49.751
493.30	50.273
493.64	49.730
493.99	50.224
494.34	49.933
494.68	50.996
495.03	50.651
495.37	49.752
495.72	49.697
496.07	49.057
496.41	49.435
496.76	49.852
497.11	49.186
497.45	49.233
497.80	50.093
498.14	49.422
498.49	49.025
498.84	50.374
499.18	48.537
499.53	49.472
499.87	48.787
500.22	49.747
500.56	49.211
500.91	49.814
501.26	49.426
501.60	49.317
501.95	49.642
502.29	48.800
502.64	48.963
502.98	47.577
503.33	48.330
503.67	48.344
504.02	48.231
504.36	48.190
504.71	50.000
505.06	48.522
505.40	48.339
505.75	48.644
506.09	48.997
506.44	48.684
506.78	48.440
507.13	50.170
507.47	48.375
507.82	49.294
508.16	49.143
508.51	49.130
508.85	48.148
509.19	49.046
509.54	48.535
509.88	48.732
510.23	48.382
510.57	47.539
510.92	48.152
511.26	49.147
511.61	47.366
511.95	48.084
512.30	47.300
512.64	48.079
512.98	47.924
513.33	48.514
513.67	48.887
514.02	47.844
514.36	48.027
514.70	48.373
515.05	48.748
515.39	49.397
515.74	48.660
516.08	48.475
516.42	50.000
516.77	47.733
517.11	48.480
517.46	48.384
517.80	48.443
518.14	49.296
518.49	47.574
518.83	47.747
519.17	49.140
519.52	48.662
519.86	48.065
520.20	48.548
520.55	47.484
520.89	47.471
521.23	48.131
521.58	49.111
521.92	48.513
522.26	48.400
522.61	48.723
522.95	48.709
523.29	47.836
523.64	48.035
523.98	47.594
524.32	48.212
524.66	46.667
525.01	47.278
525.35	47.967
525.69	47.923
526.04	48.721
526.38	48.381
526.72	47.792
527.06	46.836
527.41	46.917
527.75	47.657
528.09	46.719
528.43	48.139
528.78	48.002
529.12	48.946
529.46	46.815
529.80	47.547
530.15	47.201
530.49	46.149
530.83	47.898
531.17	47.048
531.51	46.536
531.86	46.256
532.20	46.292
532.54	48.148
532.88	46.284
533.22	47.044
533.57	47.346
533.91	46.387
534.25	46.163
534.59	47.544
534.93	45.791
535.27	44.280
535.62	45.274
535.96	46.513
536.30	46.923
536.64	46.522
536.98	46.507
537.32	47.562
537.66	47.003
538.01	46.502
538.35	47.349
538.69	46.541
539.03	45.896
539.37	46.481
539.71	45.370
540.05	45.108
540.39	46.855
540.73	46.392
541.07	45.671
541.42	46.331
541.76	46.363
542.10	45.684
542.44	45.823
542.78	45.500
543.12	45.828
543.46	45.050
543.80	45.050
544.14	45.635
544.48	44.951
544.82	44.587
545.16	44.748
545.50	45.482
545.84	45.960
546.18	46.034
546.52	45.902
546.86	45.132
547.20	45.284
547.54	44.902
547.88	45.620
548.22	45.780
548.56	44.667
548.90	44.603
549.24	45.799
549.58	43.750
549.92	45.972
550.26	45.504
550.60	45.642
550.94	44.912
551.28	45.586
551.62	46.345
551.96	45.473
552.30	44.364
552.64	45.631
552.98	44.974
553.32	44.238
553.66	44.625
554.00	44.208
554.34	45.872
554.68	44.556
555.02	44.874
555.36	42.886
555.69	44.175
556.03	44.777
556.37	43.977
556.71	45.502
557.05	43.709
557.39	43.800
557.73	45.553
558.07	43.997
558.41	44.757
558.75	42.818
559.08	45.461
559.42	45.741
559.76	45.046
560.10	44.597
560.44	43.331
560.78	45.588
561.12	45.200
561.45	43.742
561.79	43.446
562.13	43.841
562.47	43.413
562.81	42.811
563.15	44.473
563.48	42.174
563.82	44.354
564.16	45.771
564.50	42.556
564.84	44.195
565.17	42.365
565.51	44.520
565.85	42.813
566.19	43.988
566.52	42.720
566.86	43.608
567.20	43.708
567.54	43.286
567.88	43.662
568.21	42.686
568.55	42.802
568.89	41.743
569.23	42.105
569.56	41.973
569.90	40.532
570.24	40.852
570.57	41.337
570.91	40.562
571.25	40.391
571.59	39.594
571.92	40.043
572.26	39.704
572.60	39.656
572.93	40.857
573.27	40.580
573.61	40.092
573.95	40.239
574.28	40.330
574.62	40.102
574.96	39.512
575.29	38.714
575.63	39.411
575.97	38.900
576.30	39.028
576.64	39.163
576.98	38.867
577.31	39.754
577.65	39.213
577.98	38.869
578.32	39.178
578.66	38.802
578.99	39.123
579.33	39.310
579.67	39.026
580.00	38.065
580.34	38.914
580.67	38.523
581.01	38.776
581.35	38.859
581.68	38.192
582.02	38.663
582.35	38.581
582.69	38.708
583.02	38.786
583.36	38.515
583.70	38.644
584.03	39.448
584.37	39.551
584.70	38.890
585.04	38.568
585.37	38.436
585.71	38.899
586.04	38.481
586.38	38.880
586.72	39.073
587.05	38.600
587.39	38.660
587.72	39.107
588.06	38.763
588.39	39.253
588.73	39.036
589.06	39.481
589.40	39.937
589.73	38.971
590.07	39.774
590.40	39.861
590.73	40.544
591.07	39.772
591.40	39.840
591.74	39.854
592.07	39.226
592.41	39.568
592.74	39.656
593.08	39.583
593.41	38.630
593.75	38.389
594.08	38.713
594.41	39.003
594.75	38.493
595.08	39.095
595.42	38.776
595.75	38.697
596.09	38.825
596.42	39.148
596.75	40.425
597.09	39.744
597.42	38.857
597.75	38.945
598.09	39.229
598.42	38.392
598.76	38.782
599.09	39.132
599.42	37.924
599.76	38.772
600.09	38.169
600.42	38.916
600.76	38.545
601.09	38.764
601.42	37.522
601.76	38.668
602.09	38.742
602.42	38.004
602.76	38.330
603.09	38.537
603.42	38.459
603.76	38.178
604.09	38.473
604.42	38.230
604.76	38.720
605.09	39.061
605.42	38.724
605.75	38.492
606.09	38.485
606.42	37.693
606.75	38.321
607.09	38.887
607.42	38.369
607.75	38.177
608.08	37.815
608.42	38.507
608.75	38.169
609.08	38.099
609.41	39.136
609.75	39.286
610.08	39.164
610.41	38.208
610.74	38.528
611.07	39.336
611.41	38.879
611.74	38.958
612.07	38.295
612.40	38.938
612.73	39.491
613.07	39.888
613.40	38.747
613.73	39.341
614.06	38.550
614.39	39.444
614.72	38.322
615.06	38.180
615.39	38.218
615.72	38.238
616.05	39.729
616.38	38.508
616.71	39.230
617.05	38.166
617.38	37.753
617.71	40.045
618.04	38.923
618.37	39.077
618.70	38.741
619.03	39.988
619.36	39.698
619.69	39.380
620.03	39.922
620.36	39.178
620.69	40.166
621.02	39.878
621.35	37.822
621.68	40.339
622.01	41.107
622.34	40.277
622.67	39.958
623.00	40.231
623.33	39.744
623.66	40.053
623.99	39.110
624.32	39.499
624.65	38.841
624.99	39.757
625.32	38.410
625.65	37.931
625.98	39.191
626.31	40.653
626.64	39.256
626.97	38.562
627.30	39.752
627.63	40.816
627.96	38.889
628.29	40.099
628.62	38.238
628.95	40.160
629.28	41.367
629.61	38.401
629.94	40.277
630.26	40.815
630.59	41.223
630.92	40.000
631.25	40.163
