SpectraSuite Data File
++++++++++++++++++++++++++++++++++++
Date: Tue May 12 16:39:48 PDT 2015
User: schluterlab
Dark Spectrum Present: Yes
Reference Spectrum Present: Yes
Number of Sampled Component Spectra: 1
Spectrometers: USB2E3373
Integration Time (usec): 3000 (USB2E3373)
Spectra Averaged: 3 (USB2E3373)
Boxcar Smoothing: 0 (USB2E3373)
Correct for Electrical Dark: No (USB2E3373)
Strobe/Lamp Enabled: No (USB2E3373)
Correct for Detector Non-linearity: No (USB2E3373)
Correct for Stray Light: No (USB2E3373)
Number of Pixels in Processed Spectrum: 2048
>>>>>Begin Processed Spectral Data<<<<<
178.53	0.000
178.91	-191.667
179.29	-950.000
179.67	-3600.000
180.04	-146.667
180.42	725.000
180.80	1550.000
181.18	0.000
181.56	-400.000
181.94	0.000
182.31	1066.667
182.69	-2900.000
183.07	614.286
183.45	-3600.000
183.83	-1350.000
184.20	390.000
184.58	485.714
184.96	-176.923
185.34	-183.333
185.72	1500.000
186.09	-475.000
186.47	-2200.000
186.85	1100.000
187.23	800.000
187.61	1750.000
187.98	487.500
188.36	242.857
188.74	291.667
189.12	325.000
189.49	625.000
189.87	0.000
190.25	437.500
190.63	2000.000
191.00	-175.000
191.38	-3200.000
191.76	-675.000
192.14	487.500
192.51	-2700.000
192.89	1200.000
193.27	1100.000
193.65	-1133.333
194.02	-700.000
194.40	600.000
194.78	-171.429
195.15	233.333
195.53	-2600.000
195.91	-540.000
196.29	4500.000
196.66	250.000
197.04	825.000
197.42	-1400.000
197.79	525.000
198.17	291.667
198.55	0.000
198.92	357.143
199.30	1066.667
199.68	1800.000
200.05	516.667
200.43	-300.000
200.81	205.556
201.18	2700.000
201.56	250.000
201.94	-600.000
202.31	-212.500
202.69	-440.000
203.07	3100.000
203.44	-333.333
203.82	341.667
204.19	520.000
204.57	-1400.000
204.95	-575.000
205.32	-600.000
205.70	466.667
206.08	525.000
206.45	-800.000
206.83	344.444
207.20	157.895
207.58	283.333
207.96	660.000
208.33	0.000
208.71	442.857
209.08	580.000
209.46	-2900.000
209.84	-800.000
210.21	660.000
210.59	-540.000
210.96	266.667
211.34	-750.000
211.71	363.636
212.09	875.000
212.46	1350.000
212.84	-300.000
213.22	355.556
213.59	-2500.000
213.97	320.000
214.34	825.000
214.72	933.333
215.09	700.000
215.47	-3400.000
215.84	-240.000
216.22	-462.500
216.59	0.000
216.97	0.000
217.34	1100.000
217.72	-1300.000
218.09	1166.667
218.47	437.500
218.84	675.000
219.22	1000.000
219.59	566.667
219.97	542.857
220.34	377.778
220.72	1500.000
221.09	2500.000
221.47	233.333
221.84	800.000
222.22	330.000
222.59	222.222
222.97	278.571
223.34	231.250
223.72	-1500.000
224.09	1066.667
224.46	246.154
224.84	-675.000
225.21	411.111
225.59	306.667
225.96	1233.333
226.34	-640.000
226.71	-575.000
227.08	-400.000
227.46	0.000
227.83	-433.333
228.21	-1100.000
228.58	325.000
228.95	875.000
229.33	300.000
229.70	900.000
230.08	307.692
230.45	3100.000
230.82	-575.000
231.20	-933.333
231.57	-766.667
231.95	500.000
232.32	250.000
232.69	466.667
233.07	266.667
233.44	-1500.000
233.81	286.667
234.19	200.000
234.56	175.000
234.93	152.941
235.31	175.000
235.68	218.750
236.05	135.714
236.43	100.000
236.80	200.000
237.17	158.621
237.55	103.125
237.92	110.000
238.29	84.848
238.67	131.250
239.04	102.439
239.41	60.417
239.79	62.500
240.16	72.917
240.53	70.492
240.91	68.116
241.28	57.627
241.65	43.939
242.02	38.028
242.40	61.429
242.77	37.363
243.14	35.443
243.51	43.434
243.89	43.925
244.26	35.514
244.63	41.584
245.00	37.615
245.38	24.576
245.75	32.576
246.12	35.556
246.49	29.078
246.87	27.869
247.24	32.667
247.61	26.250
247.98	29.252
248.36	21.818
248.73	32.143
249.10	22.619
249.47	25.000
249.84	25.871
250.22	23.784
250.59	26.500
250.96	25.316
251.33	20.930
251.70	28.125
252.08	19.748
252.45	20.717
252.82	18.251
253.19	19.368
253.56	21.538
253.94	19.565
254.31	21.705
254.68	20.557
255.05	20.345
255.42	17.883
255.79	22.476
256.16	22.034
256.54	21.104
256.91	19.935
257.28	19.064
257.65	17.241
258.02	19.764
258.39	20.630
258.76	18.261
259.14	16.571
259.51	20.117
259.88	17.325
260.25	15.110
260.62	17.260
260.99	12.948
261.36	18.384
261.73	15.957
262.10	18.586
262.47	16.500
262.85	16.267
263.22	19.280
263.59	15.857
263.96	19.048
264.33	16.543
264.70	21.867
265.07	19.756
265.44	17.431
265.81	16.745
266.18	16.476
266.55	17.258
266.92	14.765
267.29	16.447
267.66	17.265
268.03	15.695
268.40	15.645
268.77	18.722
269.14	14.534
269.51	16.258
269.88	16.531
270.25	12.527
270.62	14.163
270.99	17.241
271.36	16.667
271.73	14.046
272.10	14.949
272.47	16.865
272.84	14.970
273.21	14.050
273.58	15.385
273.95	13.552
274.32	15.759
274.69	16.339
275.06	17.304
275.43	13.985
275.80	13.019
276.17	15.441
276.54	17.383
276.91	16.045
277.28	14.051
277.65	15.314
278.02	13.419
278.39	13.849
278.76	15.000
279.13	14.413
279.50	14.727
279.87	14.525
280.23	14.365
280.60	13.504
280.97	12.586
281.34	14.521
281.71	14.087
282.08	15.214
282.45	13.851
282.82	12.876
283.19	14.626
283.56	13.554
283.92	13.355
284.29	14.809
284.66	12.941
285.03	14.925
285.40	12.727
285.77	13.117
286.14	14.861
286.51	13.190
286.87	12.816
287.24	11.111
287.61	14.134
287.98	13.433
288.35	12.741
288.72	11.381
289.08	12.763
289.45	12.805
289.82	13.594
290.19	12.299
290.56	13.537
290.93	10.647
291.29	12.431
291.66	10.876
292.03	13.043
292.40	10.976
292.77	13.092
293.13	12.268
293.50	10.256
293.87	9.350
294.24	11.748
294.60	12.517
294.97	13.007
295.34	10.890
295.71	11.827
296.08	12.000
296.44	11.182
296.81	10.422
297.18	9.886
297.55	10.714
297.91	9.360
298.28	10.990
298.65	9.939
299.02	10.856
299.38	10.552
299.75	10.366
300.12	10.780
300.48	10.422
300.85	10.846
301.22	9.651
301.59	9.316
301.95	10.502
302.32	10.827
302.69	10.633
303.05	10.550
303.42	9.641
303.79	10.401
304.15	10.231
304.52	10.254
304.89	10.341
305.25	9.344
305.62	10.554
305.99	8.696
306.35	8.737
306.72	9.261
307.09	10.352
307.45	9.293
307.82	10.185
308.19	9.485
308.55	8.700
308.92	10.108
309.29	11.834
309.65	8.821
310.02	9.533
310.38	8.475
310.75	8.968
311.12	10.345
311.48	10.328
311.85	10.782
312.22	9.742
312.58	8.649
312.95	9.029
313.31	9.551
313.68	9.006
314.05	10.256
314.41	9.404
314.78	8.807
315.14	9.763
315.51	10.028
315.87	10.036
316.24	9.244
316.61	10.027
316.97	9.541
317.34	9.883
317.70	9.570
318.07	9.964
318.43	10.633
318.80	9.895
319.16	9.790
319.53	9.912
319.89	9.857
320.26	10.521
320.62	10.073
320.99	9.819
321.35	9.555
321.72	10.057
322.08	10.249
322.45	10.263
322.81	10.064
323.18	9.680
323.54	10.889
323.91	10.607
324.27	10.433
324.64	8.910
325.00	10.172
325.37	10.371
325.73	10.961
326.10	11.019
326.46	11.065
326.83	9.600
327.19	10.683
327.56	9.824
327.92	11.148
328.29	11.211
328.65	10.616
329.01	10.607
329.38	10.152
329.74	9.479
330.11	10.513
330.47	10.912
330.84	10.009
331.20	9.475
331.56	11.572
331.93	10.265
332.29	8.673
332.66	10.204
333.02	10.395
333.38	11.169
333.75	10.259
334.11	10.738
334.48	11.197
334.84	9.966
335.20	10.436
335.57	9.992
335.93	10.597
336.29	9.784
336.66	11.063
337.02	9.495
337.38	8.684
337.75	9.966
338.11	10.211
338.47	10.584
338.84	10.161
339.20	9.264
339.56	9.672
339.93	10.535
340.29	9.664
340.65	10.142
341.02	10.378
341.38	10.263
341.74	10.299
342.11	8.932
342.47	9.188
342.83	8.942
343.20	10.105
343.56	8.658
343.92	9.579
344.28	10.128
344.65	9.291
345.01	9.206
345.37	8.894
345.73	10.000
346.10	9.801
346.46	9.649
346.82	9.877
347.19	9.505
347.55	8.041
347.91	9.063
348.27	8.443
348.63	9.731
349.00	9.444
349.36	9.261
349.72	9.557
350.08	9.860
350.45	9.596
350.81	9.939
351.17	8.629
351.53	8.776
351.89	8.392
352.26	9.599
352.62	8.597
352.98	9.356
353.34	9.938
353.70	8.563
354.07	9.615
354.43	8.295
354.79	8.808
355.15	8.652
355.51	8.233
355.87	9.714
356.24	9.854
356.60	9.285
356.96	8.491
357.32	9.721
357.68	8.957
358.04	9.271
358.40	9.445
358.77	9.391
359.13	9.384
359.49	8.747
359.85	10.052
360.21	7.875
360.57	9.124
360.93	8.658
361.29	9.163
361.66	8.799
362.02	7.812
362.38	9.812
362.74	9.342
363.10	9.327
363.46	9.047
363.82	9.537
364.18	9.175
364.54	8.226
364.90	9.170
365.26	9.438
365.62	8.633
365.98	8.465
366.35	8.207
366.71	8.952
367.07	9.283
367.43	8.798
367.79	8.577
368.15	8.412
368.51	8.477
368.87	7.745
369.23	8.316
369.59	9.305
369.95	9.441
370.31	8.898
370.67	8.952
371.03	8.403
371.39	8.934
371.75	8.932
372.11	9.109
372.47	7.603
372.83	8.702
373.19	9.801
373.55	8.041
373.91	8.287
374.27	8.069
374.63	9.220
374.99	8.962
375.35	8.333
375.71	9.235
376.07	8.687
376.42	8.568
376.78	8.927
377.14	8.716
377.50	8.240
377.86	8.712
378.22	8.775
378.58	10.048
378.94	9.234
379.30	8.490
379.66	8.609
380.02	9.091
380.38	8.021
380.74	8.535
381.09	9.579
381.45	8.382
381.81	8.097
382.17	7.937
382.53	8.578
382.89	8.161
383.25	8.467
383.61	8.184
383.97	7.918
384.32	8.921
384.68	9.388
385.04	9.086
385.40	8.363
385.76	8.367
386.12	8.472
386.48	8.267
386.83	9.230
387.19	7.892
387.55	9.246
387.91	9.007
388.27	8.328
388.62	9.390
388.98	8.455
389.34	8.388
389.70	7.724
390.06	8.841
390.42	8.513
390.77	8.784
391.13	8.328
391.49	8.590
391.85	8.738
392.20	8.999
392.56	9.379
392.92	8.198
393.28	8.408
393.64	8.085
393.99	8.417
394.35	9.005
394.71	8.263
395.07	8.637
395.42	8.431
395.78	9.870
396.14	9.096
396.50	8.243
396.85	8.841
397.21	8.484
397.57	9.444
397.92	8.550
398.28	8.494
398.64	8.319
399.00	8.017
399.35	8.052
399.71	8.664
400.07	8.447
400.42	8.478
400.78	8.328
401.14	8.573
401.49	8.583
401.85	8.980
402.21	8.260
402.57	8.797
402.92	8.424
403.28	8.413
403.63	8.476
403.99	8.625
404.35	9.906
404.70	8.860
405.06	8.815
405.42	8.498
405.77	9.261
406.13	8.677
406.49	8.926
406.84	8.460
407.20	8.162
407.55	8.369
407.91	9.190
408.27	8.733
408.62	8.870
408.98	8.870
409.34	8.358
409.69	9.023
410.05	8.348
410.40	9.482
410.76	8.701
411.11	8.590
411.47	9.259
411.83	7.791
412.18	8.635
412.54	8.889
412.89	8.378
413.25	8.438
413.60	8.879
413.96	8.438
414.31	8.678
414.67	8.876
415.03	8.365
415.38	9.085
415.74	8.212
416.09	8.807
416.45	9.244
416.80	9.365
417.16	8.530
417.51	9.045
417.87	9.512
418.22	8.627
418.58	8.662
418.93	8.923
419.29	7.887
419.64	8.540
420.00	9.248
420.35	7.724
420.71	8.226
421.06	7.828
421.42	8.520
421.77	8.939
422.12	9.041
422.48	8.885
422.83	8.929
423.19	8.639
423.54	8.228
423.90	8.720
424.25	8.310
424.61	8.532
424.96	8.583
425.31	8.429
425.67	8.361
426.02	9.086
426.38	8.168
426.73	8.965
427.09	8.660
427.44	8.047
427.79	8.062
428.15	9.487
428.50	8.514
428.85	8.936
429.21	8.698
429.56	8.724
429.92	9.000
430.27	8.515
430.62	7.685
430.98	8.583
431.33	7.661
431.68	7.901
432.04	7.863
432.39	9.056
432.74	9.075
433.10	8.361
433.45	8.731
433.80	9.211
434.16	8.092
434.51	8.101
434.86	8.547
435.22	8.212
435.57	8.536
435.92	8.708
436.28	8.525
436.63	8.590
436.98	9.009
437.34	9.874
437.69	7.671
438.04	9.247
438.39	8.523
438.75	8.964
439.10	8.473
439.45	8.536
439.81	8.965
440.16	9.081
440.51	8.727
440.86	9.288
441.22	8.929
441.57	8.976
441.92	8.095
442.27	8.299
442.63	8.232
442.98	8.297
443.33	8.784
443.68	8.551
444.03	8.106
444.39	8.757
444.74	8.540
445.09	8.162
445.44	8.714
445.79	8.626
446.15	8.632
446.50	9.072
446.85	8.267
447.20	8.706
447.55	8.755
447.91	9.110
448.26	8.786
448.61	8.292
448.96	8.824
449.31	8.966
449.66	8.970
450.02	8.104
450.37	8.828
450.72	8.815
451.07	9.075
451.42	8.832
451.77	9.679
452.12	9.586
452.47	8.384
452.83	8.901
453.18	9.009
453.53	9.295
453.88	9.486
454.23	8.774
454.58	9.965
454.93	8.522
455.28	9.364
455.63	8.570
455.98	9.532
456.34	9.301
456.69	9.207
457.04	8.831
457.39	9.086
457.74	9.234
458.09	8.198
458.44	8.708
458.79	9.549
459.14	8.674
459.49	9.117
459.84	8.804
460.19	9.322
460.54	9.402
460.89	9.168
461.24	8.648
461.59	9.014
461.94	9.279
462.29	8.696
462.64	9.359
462.99	9.341
463.34	9.592
463.69	9.740
464.04	8.866
464.39	8.758
464.74	7.855
465.09	9.112
465.44	9.249
465.79	8.002
466.14	8.850
466.49	8.573
466.84	9.030
467.19	8.905
467.54	9.550
467.89	9.800
468.24	8.222
468.59	8.869
468.94	9.843
469.29	9.713
469.64	10.096
469.99	9.512
470.34	8.855
470.68	9.310
471.03	9.073
471.38	9.470
471.73	9.928
472.08	9.263
472.43	9.249
472.78	8.387
473.13	9.199
473.48	9.413
473.83	8.657
474.17	9.179
474.52	8.353
474.87	8.584
475.22	9.252
475.57	8.762
475.92	8.636
476.27	8.324
476.61	8.043
476.96	9.509
477.31	8.997
477.66	8.803
478.01	8.871
478.36	8.908
478.70	8.734
479.05	8.054
479.40	9.077
479.75	8.987
480.10	8.761
480.45	8.403
480.79	8.848
481.14	8.369
481.49	8.326
481.84	9.235
482.19	8.515
482.53	8.608
482.88	9.229
483.23	8.300
483.58	8.618
483.92	9.004
484.27	8.733
484.62	8.701
484.97	8.726
485.31	8.022
485.66	7.433
486.01	7.124
486.36	7.131
486.70	7.036
487.05	7.594
487.40	7.574
487.75	8.247
488.09	7.727
488.44	8.031
488.79	8.018
489.13	8.287
489.48	8.350
489.83	8.173
490.17	8.134
490.52	8.742
490.87	8.793
491.22	8.378
491.56	9.310
491.91	8.468
492.26	8.864
492.60	8.610
492.95	8.971
493.30	8.462
493.64	8.356
493.99	8.900
494.34	8.068
494.68	8.278
495.03	8.666
495.37	8.825
495.72	9.371
496.07	9.075
496.41	8.732
496.76	9.118
497.11	8.440
497.45	8.505
497.80	8.665
498.14	9.061
498.49	8.542
498.84	8.645
499.18	8.272
499.53	8.544
499.87	8.715
500.22	9.258
500.56	8.542
500.91	8.952
501.26	9.600
501.60	9.153
501.95	8.423
502.29	8.578
502.64	8.602
502.98	8.359
503.33	8.552
503.67	9.051
504.02	8.374
504.36	8.778
504.71	9.035
505.06	9.010
505.40	9.078
505.75	8.138
506.09	9.659
506.44	9.258
506.78	9.641
507.13	8.386
507.47	8.394
507.82	9.684
508.16	9.505
508.51	9.324
508.85	9.212
509.19	9.104
509.54	9.668
509.88	9.349
510.23	9.069
510.57	8.832
510.92	8.941
511.26	8.986
511.61	9.306
511.95	9.358
512.30	9.550
512.64	8.515
512.98	8.919
513.33	8.914
513.67	9.011
514.02	9.299
514.36	9.086
514.70	8.320
515.05	8.631
515.39	9.485
515.74	8.967
516.08	8.987
516.42	10.055
516.77	8.960
517.11	10.080
517.46	9.321
517.80	9.721
518.14	9.070
518.49	8.931
518.83	9.451
519.17	9.540
519.52	10.158
519.86	9.755
520.20	9.425
520.55	9.723
520.89	9.253
521.23	9.930
521.58	9.409
521.92	9.446
522.26	9.538
522.61	9.982
522.95	9.730
523.29	9.591
523.64	9.595
523.98	9.859
524.32	9.516
524.66	9.739
525.01	9.172
525.35	9.546
525.69	10.175
526.04	10.767
526.38	9.594
526.72	9.487
527.06	9.521
527.41	9.734
527.75	10.225
528.09	9.091
528.43	10.494
528.78	9.600
529.12	10.175
529.46	9.819
529.80	10.339
530.15	10.136
530.49	9.085
530.83	8.775
531.17	9.348
531.51	9.626
531.86	9.722
532.20	10.136
532.54	9.416
532.88	9.994
533.22	9.750
533.57	9.701
533.91	9.790
534.25	8.886
534.59	10.292
534.93	10.011
535.27	9.106
535.62	9.043
535.96	9.574
536.30	10.360
536.64	9.317
536.98	9.943
537.32	10.250
537.66	8.163
538.01	9.907
538.35	9.545
538.69	8.981
539.03	9.080
539.37	9.769
539.71	8.951
540.05	9.477
540.39	9.937
540.73	9.304
541.07	8.657
541.42	9.701
541.76	8.878
542.10	9.125
542.44	9.289
542.78	9.251
543.12	9.448
543.46	10.150
543.80	9.148
544.14	9.164
544.48	9.611
544.82	9.419
545.16	9.715
545.50	9.834
545.84	9.533
546.18	11.118
546.52	10.164
546.86	9.671
547.20	9.948
547.54	8.613
547.88	10.036
548.22	9.107
548.56	9.723
548.90	9.134
549.24	10.360
549.58	8.505
549.92	9.889
550.26	8.993
550.60	9.448
550.94	10.109
551.28	10.207
551.62	10.690
551.96	9.797
552.30	9.229
552.64	9.644
552.98	9.149
553.32	8.899
553.66	9.251
554.00	10.103
554.34	10.453
554.68	9.812
555.02	9.776
555.36	9.574
555.69	9.948
556.03	9.936
556.37	9.433
556.71	9.909
557.05	9.305
557.39	9.600
557.73	10.243
558.07	9.792
558.41	10.007
558.75	9.986
559.08	10.007
559.42	10.236
559.76	10.691
560.10	10.117
560.44	10.086
560.78	9.974
561.12	9.282
561.45	9.199
561.79	9.488
562.13	9.033
562.47	9.150
562.81	8.328
563.15	9.632
563.48	8.758
563.82	10.667
564.16	9.888
564.50	9.102
564.84	9.422
565.17	9.685
565.51	8.867
565.85	9.932
566.19	9.345
566.52	8.544
566.86	9.982
567.20	9.494
567.54	8.788
567.88	9.338
568.21	8.687
568.55	8.268
568.89	8.531
569.23	8.801
569.56	8.347
569.90	8.121
570.24	8.348
570.57	7.625
570.91	7.800
571.25	7.355
571.59	7.219
571.92	7.508
572.26	6.873
572.60	7.415
572.93	7.389
573.27	7.496
573.61	7.499
573.95	7.221
574.28	7.319
574.62	6.917
574.96	7.211
575.29	7.018
575.63	7.303
575.97	7.059
576.30	6.707
576.64	7.127
576.98	7.476
577.31	7.324
577.65	7.226
577.98	6.869
578.32	6.796
578.66	6.940
578.99	7.258
579.33	7.240
579.67	7.039
580.00	6.879
580.34	7.264
580.67	7.002
581.01	7.307
581.35	6.937
581.68	6.709
582.02	6.752
582.35	6.642
582.69	6.721
583.02	6.795
583.36	6.982
583.70	7.194
584.03	7.606
584.37	7.673
584.70	7.315
585.04	7.185
585.37	6.650
585.71	7.124
586.04	6.805
586.38	7.158
586.72	7.336
587.05	7.385
587.39	7.080
587.72	7.075
588.06	7.276
588.39	6.679
588.73	7.464
589.06	7.470
589.40	7.887
589.73	8.161
590.07	7.962
590.40	8.397
590.73	8.336
591.07	8.501
591.40	7.904
591.74	8.036
592.07	7.529
592.41	8.114
592.74	7.982
593.08	7.292
593.41	7.271
593.75	6.969
594.08	7.607
594.41	7.462
594.75	7.705
595.08	7.819
595.42	8.427
595.75	7.963
596.09	7.890
596.42	7.575
596.75	8.173
597.09	8.378
597.42	8.204
597.75	7.870
598.09	7.838
598.42	7.874
598.76	8.057
599.09	8.202
599.42	7.647
599.76	7.632
600.09	7.356
600.42	7.597
600.76	7.172
601.09	6.904
601.42	7.849
601.76	7.590
602.09	8.352
602.42	7.763
602.76	7.818
603.09	7.805
603.42	7.890
603.76	7.918
604.09	7.600
604.42	7.608
604.76	8.021
605.09	8.041
605.42	7.802
605.75	8.448
606.09	7.689
606.42	8.155
606.75	7.695
607.09	7.540
607.42	7.634
607.75	7.683
608.08	7.636
608.42	7.886
608.75	7.531
609.08	7.743
609.41	7.955
609.75	8.150
610.08	8.318
610.41	7.905
610.74	8.485
611.07	8.640
611.41	8.202
611.74	7.983
612.07	8.141
612.40	8.090
612.73	8.887
613.07	8.870
613.40	8.872
613.73	8.487
614.06	7.650
614.39	8.535
614.72	7.785
615.06	8.358
615.39	8.218
615.72	8.035
616.05	8.237
616.38	8.422
616.71	8.736
617.05	8.018
617.38	7.528
617.71	9.055
618.04	8.020
618.37	8.783
618.70	8.199
619.03	8.547
619.36	9.234
619.69	9.103
620.03	9.459
620.36	9.184
620.69	9.132
621.02	10.190
621.35	8.883
621.68	9.366
622.01	9.446
622.34	8.886
622.67	9.761
623.00	10.347
623.33	8.839
623.66	9.847
623.99	9.863
624.32	9.011
624.65	8.887
624.99	9.398
625.32	8.751
625.65	8.483
625.98	9.135
626.31	10.015
626.64	9.036
626.97	9.487
627.30	10.016
627.63	10.047
627.96	9.546
628.29	9.653
628.62	9.239
628.95	10.106
629.28	11.131
629.61	9.227
629.94	9.939
630.26	10.745
630.59	10.816
630.92	9.955
631.25	11.333
631.58	11.958
631.91	9.515
632.24	9.232
632.57	9.627
632.90	10.870
633.23	10.808
633.56	12.118
633.89	11.040
634.22	10.549
634.55	10.108
634.88	12.377
635.20	11.099
635.53	11.382
635.86	11.857
636.19	10.438
636.52	9.838
636.85	9.924
637.18	11.051
637.51	11.285
637.83	10.870
638.16	11.254
638.49	11.018
638.82	12.559
639.15	10.928
639.48	12.796
639.81	10.501
640.13	11.411
640.46	11.757
640.79	11.834
641.12	10.367
641.45	12.678
641.77	11.625
642.10	12.316
642.43	10.953
642.76	10.653
643.09	10.951
643.41	12.903
643.74	10.791
644.07	12.684
644.40	11.982
644.73	12.012
645.05	13.373
645.38	13.017
645.71	11.988
646.04	14.198
646.36	11.581
646.69	13.120
647.02	11.680
647.35	11.654
647.67	10.697
648.00	11.726
648.33	12.632
648.66	10.758
648.98	12.464
649.31	11.336
649.64	10.788
