SpectraSuite Data File
++++++++++++++++++++++++++++++++++++
Date: Wed May 13 21:46:57 PDT 2015
User: schluterlab
Dark Spectrum Present: Yes
Reference Spectrum Present: Yes
Number of Sampled Component Spectra: 1
Spectrometers: USB2E3373
Integration Time (usec): 3000 (USB2E3373)
Spectra Averaged: 3 (USB2E3373)
Boxcar Smoothing: 0 (USB2E3373)
Correct for Electrical Dark: No (USB2E3373)
Strobe/Lamp Enabled: No (USB2E3373)
Correct for Detector Non-linearity: No (USB2E3373)
Correct for Stray Light: No (USB2E3373)
Number of Pixels in Processed Spectrum: 2048
>>>>>Begin Processed Spectral Data<<<<<
178.53	0.000
178.91	650.000
179.29	200.000
179.67	-950.000
180.04	-333.333
180.42	160.000
180.80	1500.000
181.18	133.333
181.56	-525.000
181.94	-250.000
182.31	-9.091
182.69	107.692
183.07	-60.000
183.45	300.000
183.83	155.556
184.20	14.286
184.58	-233.333
184.96	233.333
185.34	185.714
185.72	0.000
186.09	-400.000
186.47	-280.000
186.85	140.000
187.23	-150.000
187.61	750.000
187.98	1300.000
188.36	12.500
188.74	0.000
189.12	-45.455
189.49	0.000
189.87	133.333
190.25	60.000
190.63	900.000
191.00	-100.000
191.38	240.000
191.76	125.000
192.14	183.333
192.51	-36.842
192.89	333.333
193.27	150.000
193.65	-320.000
194.02	181.818
194.40	130.000
194.78	100.000
195.15	220.000
195.53	-140.000
195.91	87.500
196.29	-66.667
196.66	0.000
197.04	500.000
197.42	80.000
197.79	20.000
198.17	-125.000
198.55	-600.000
198.92	125.000
199.30	-300.000
199.68	-110.000
200.05	450.000
200.43	183.333
200.81	200.000
201.18	-20.000
201.56	-100.000
201.94	725.000
202.31	0.000
202.69	-85.714
203.07	-500.000
203.44	-280.000
203.82	-633.333
204.19	-40.000
204.57	0.000
204.95	-116.667
205.32	0.000
205.70	-300.000
206.08	-275.000
206.45	-166.667
206.83	500.000
207.20	-300.000
207.58	10.000
207.96	-1000.000
208.33	-142.857
208.71	-1000.000
209.08	225.000
209.46	125.000
209.84	0.000
210.21	170.000
210.59	2900.000
210.96	180.000
211.34	1000.000
211.71	-250.000
212.09	-33.333
212.46	-190.000
212.84	-133.333
213.22	-50.000
213.59	600.000
213.97	-1100.000
214.34	-450.000
214.72	-53.846
215.09	150.000
215.47	100.000
215.84	250.000
216.22	-12.500
216.59	-400.000
216.97	433.333
217.34	88.889
217.72	0.000
218.09	400.000
218.47	-500.000
218.84	-128.571
219.22	-212.500
219.59	-100.000
219.97	50.000
220.34	-25.000
220.72	-20.000
221.09	0.000
221.47	-116.667
221.84	-1000.000
222.22	0.000
222.59	600.000
222.97	0.000
223.34	-8.333
223.72	-500.000
224.09	-300.000
224.46	-9.091
224.84	0.000
225.21	-100.000
225.59	-350.000
225.96	-133.333
226.34	0.000
226.71	-185.714
227.08	850.000
227.46	-50.000
227.83	-300.000
228.21	-62.500
228.58	-500.000
228.95	-35.294
229.33	-25.000
229.70	-62.500
230.08	-61.538
230.45	-187.500
230.82	-91.667
231.20	214.286
231.57	-350.000
231.95	700.000
232.32	-25.000
232.69	23.529
233.07	-1400.000
233.44	-34.783
233.81	-550.000
234.19	29.167
234.56	-13.333
234.93	0.000
235.31	-15.789
235.68	-15.385
236.05	-53.846
236.43	-27.778
236.80	33.333
237.17	-33.333
237.55	-82.353
237.92	6.897
238.29	-51.852
238.67	0.000
239.04	-16.129
239.41	10.638
239.79	21.277
240.16	20.930
240.53	21.429
240.91	23.214
241.28	3.571
241.65	27.419
242.02	15.789
242.40	31.884
242.77	14.493
243.14	17.949
243.51	22.340
243.89	25.000
244.26	35.849
244.63	25.000
245.00	29.167
245.38	23.529
245.75	27.049
246.12	27.068
246.49	22.764
246.87	22.689
247.24	30.405
247.61	27.815
247.98	24.359
248.36	22.485
248.73	27.528
249.10	17.677
249.47	25.269
249.84	24.737
250.22	24.876
250.59	26.636
250.96	30.000
251.33	18.182
251.70	28.870
252.08	23.013
252.45	28.395
252.82	26.616
253.19	28.016
253.56	19.784
253.94	30.605
254.31	26.408
254.68	32.550
255.05	25.083
255.42	25.175
255.79	25.153
256.16	23.344
256.54	25.714
256.91	22.468
257.28	27.044
257.65	24.522
258.02	25.806
258.39	27.485
258.76	25.872
259.14	26.705
259.51	26.404
259.88	26.558
260.25	25.000
260.62	26.966
260.99	27.056
261.36	29.534
261.73	26.914
262.10	27.735
262.47	26.667
262.85	26.617
263.22	31.282
263.59	25.455
263.96	25.791
264.33	26.923
264.70	29.070
265.07	27.778
265.44	28.736
265.81	24.714
266.18	25.968
266.55	25.546
266.92	25.847
267.29	28.807
267.66	26.327
268.03	26.749
268.40	25.424
268.77	24.174
269.14	27.755
269.51	31.622
269.88	27.699
270.25	29.661
270.62	27.664
270.99	28.150
271.36	26.190
271.73	25.703
272.10	26.857
272.47	27.639
272.84	25.591
273.21	26.027
273.58	27.254
273.95	24.906
274.32	25.933
274.69	24.226
275.06	26.148
275.43	25.612
275.80	26.241
276.17	26.703
276.54	25.222
276.91	27.003
277.28	27.437
277.65	26.573
278.02	28.750
278.39	24.512
278.76	27.090
279.13	24.700
279.50	26.552
279.87	24.457
280.23	25.946
280.60	24.048
280.97	24.675
281.34	26.025
281.71	23.740
282.08	25.812
282.45	27.705
282.82	25.399
283.19	26.067
283.56	24.063
283.92	25.382
284.29	25.585
284.66	26.689
285.03	25.244
285.40	25.378
285.77	26.126
286.14	26.140
286.51	27.136
286.87	26.462
287.24	24.779
287.61	26.807
287.98	25.147
288.35	24.888
288.72	25.108
289.08	25.499
289.45	22.467
289.82	25.567
290.19	24.123
290.56	24.432
290.93	22.652
291.29	22.845
291.66	23.087
292.03	24.659
292.40	24.899
292.77	23.561
293.13	24.965
293.50	23.922
293.87	23.600
294.24	23.413
294.60	23.407
294.97	23.677
295.34	22.559
295.71	21.025
296.08	21.466
296.44	19.898
296.81	22.777
297.18	22.000
297.55	21.226
297.91	21.863
298.28	22.034
298.65	20.936
299.02	23.321
299.38	20.491
299.75	20.913
300.12	20.814
300.48	21.520
300.85	20.670
301.22	22.532
301.59	19.836
301.95	20.209
302.32	20.887
302.69	18.983
303.05	21.373
303.42	20.227
303.79	22.397
304.15	19.058
304.52	21.290
304.89	20.819
305.25	20.856
305.62	20.607
305.99	21.545
306.35	21.735
306.72	20.753
307.09	19.812
307.45	20.128
307.82	19.368
308.19	18.704
308.55	19.140
308.92	20.236
309.29	18.919
309.65	20.579
310.02	20.477
310.38	21.037
310.75	19.625
311.12	20.797
311.48	20.475
311.85	19.587
312.22	21.954
312.58	21.063
312.95	20.199
313.31	20.569
313.68	20.324
314.05	20.888
314.41	20.845
314.78	21.537
315.14	21.204
315.51	22.360
315.87	19.926
316.24	20.845
316.61	19.909
316.97	19.907
317.34	20.410
317.70	21.499
318.07	21.207
318.43	21.861
318.80	20.157
319.16	19.098
319.53	20.609
319.89	19.874
320.26	20.333
320.62	21.779
320.99	20.349
321.35	20.767
321.72	20.789
322.08	21.587
322.45	21.647
322.81	21.442
323.18	20.304
323.54	21.029
323.91	20.235
324.27	21.062
324.64	20.035
325.00	21.260
325.37	21.331
325.73	19.529
326.10	20.185
326.46	20.485
326.83	21.278
327.19	20.407
327.56	19.984
327.92	20.113
328.29	21.953
328.65	20.333
329.01	19.789
329.38	21.217
329.74	20.944
330.11	20.559
330.47	20.399
330.84	20.307
331.20	19.556
331.56	21.105
331.93	21.102
332.29	20.504
332.66	20.424
333.02	21.720
333.38	20.965
333.75	20.392
334.11	19.705
334.48	19.878
334.84	19.965
335.20	19.983
335.57	20.801
335.93	20.447
336.29	20.403
336.66	19.744
337.02	20.174
337.38	19.495
337.75	21.016
338.11	18.958
338.47	19.777
338.84	19.502
339.20	20.106
339.56	20.478
339.93	19.793
340.29	19.812
340.65	19.418
341.02	19.967
341.38	19.257
341.74	19.832
342.11	20.231
342.47	18.996
342.83	20.180
343.20	19.036
343.56	18.970
343.92	18.765
344.28	19.156
344.65	19.837
345.01	20.016
345.37	19.984
345.73	19.363
346.10	19.502
346.46	19.675
346.82	18.780
347.19	19.304
347.55	19.952
347.91	19.096
348.27	19.716
348.63	19.872
349.00	18.868
349.36	19.545
349.72	18.716
350.08	19.267
350.45	18.559
350.81	19.640
351.17	20.400
351.53	19.482
351.89	18.824
352.26	18.378
352.62	18.992
352.98	18.211
353.34	19.243
353.70	20.016
354.07	18.667
354.43	18.818
354.79	18.990
355.15	18.168
355.51	19.058
355.87	18.608
356.24	18.860
356.60	19.077
356.96	19.033
357.32	19.040
357.68	18.869
358.04	18.852
358.40	19.147
358.77	19.037
359.13	18.599
359.49	18.622
359.85	19.181
360.21	18.119
360.57	18.935
360.93	18.437
361.29	18.727
361.66	18.983
362.02	18.606
362.38	18.612
362.74	19.434
363.10	18.004
363.46	18.228
363.82	18.995
364.18	17.694
364.54	17.943
364.90	18.049
365.26	18.825
365.62	18.608
365.98	18.505
366.35	19.433
366.71	18.616
367.07	18.072
367.43	17.213
367.79	18.833
368.15	18.214
368.51	18.917
368.87	18.842
369.23	18.221
369.59	18.887
369.95	17.126
370.31	18.061
370.67	18.465
371.03	18.114
371.39	18.098
371.75	19.000
372.11	18.732
372.47	18.601
372.83	18.585
373.19	18.201
373.55	19.003
373.91	19.024
374.27	17.704
374.63	17.852
374.99	17.827
375.35	17.534
375.71	18.071
376.07	18.300
376.42	17.647
376.78	18.824
377.14	18.644
377.50	18.970
377.86	18.327
378.22	17.952
378.58	18.474
378.94	19.188
379.30	19.550
379.66	18.681
380.02	18.015
380.38	19.458
380.74	18.948
381.09	18.637
381.45	18.984
381.81	17.930
382.17	18.841
382.53	18.769
382.89	18.697
383.25	17.901
383.61	19.370
383.97	18.625
384.32	17.643
384.68	18.260
385.04	18.265
385.40	18.867
385.76	19.282
386.12	18.270
386.48	18.746
386.83	18.899
387.19	18.384
387.55	19.559
387.91	19.496
388.27	18.927
388.62	19.476
388.98	19.775
389.34	18.734
389.70	18.071
390.06	18.937
390.42	19.008
390.77	18.514
391.13	19.886
391.49	19.418
391.85	18.850
392.20	18.672
392.56	19.556
392.92	18.841
393.28	19.582
393.64	19.694
393.99	19.033
394.35	19.198
394.71	18.846
395.07	18.365
395.42	19.257
395.78	19.048
396.14	18.580
396.50	19.594
396.85	19.567
397.21	18.414
397.57	18.696
397.92	18.623
398.28	17.823
398.64	18.519
399.00	18.806
399.35	19.467
399.71	18.521
400.07	20.060
400.42	18.746
400.78	18.671
401.14	18.578
401.49	18.993
401.85	19.287
402.21	18.638
402.57	18.271
402.92	19.086
403.28	18.887
403.63	19.777
403.99	18.618
404.35	18.329
404.70	18.429
405.06	19.436
405.42	18.279
405.77	18.030
406.13	18.457
406.49	18.574
406.84	19.170
407.20	18.769
407.55	18.831
407.91	18.001
408.27	18.403
408.62	19.521
408.98	18.557
409.34	18.874
409.69	18.778
410.05	18.968
410.40	18.198
410.76	18.953
411.11	18.905
411.47	19.376
411.83	18.403
412.18	18.388
412.54	18.985
412.89	18.370
413.25	18.230
413.60	19.185
413.96	18.664
414.31	18.187
414.67	18.921
415.03	18.336
415.38	18.428
415.74	18.713
416.09	18.308
416.45	18.524
416.80	18.926
417.16	18.961
417.51	19.022
417.87	18.320
418.22	18.487
418.58	19.054
418.93	18.267
419.29	18.878
419.64	18.575
420.00	18.095
420.35	19.127
420.71	17.428
421.06	19.373
421.42	19.343
421.77	18.266
422.12	19.656
422.48	18.048
422.83	18.901
423.19	18.919
423.54	18.787
423.90	18.230
424.25	18.544
424.61	18.792
424.96	18.687
425.31	18.172
425.67	19.636
426.02	19.729
426.38	19.652
426.73	19.243
427.09	18.699
427.44	19.260
427.79	19.181
428.15	18.777
428.50	18.127
428.85	19.557
429.21	19.302
429.56	19.182
429.92	18.688
430.27	19.325
430.62	19.360
430.98	19.249
431.33	18.538
431.68	19.223
432.04	18.704
432.39	19.284
432.74	18.516
433.10	18.884
433.45	18.994
433.80	19.023
434.16	18.351
434.51	19.076
434.86	19.788
435.22	19.355
435.57	18.612
435.92	19.662
436.28	19.459
436.63	19.804
436.98	18.743
437.34	19.780
437.69	19.717
438.04	19.808
438.39	19.738
438.75	19.249
439.10	19.549
439.45	19.492
439.81	19.643
440.16	20.000
440.51	19.679
440.86	20.213
441.22	19.507
441.57	19.469
441.92	19.803
442.27	19.913
442.63	19.376
442.98	19.734
443.33	19.752
443.68	19.663
444.03	19.573
444.39	19.831
444.74	19.823
445.09	19.604
445.44	20.789
445.79	20.134
446.15	19.800
446.50	20.760
446.85	20.951
447.20	20.910
447.55	19.082
447.91	20.506
448.26	19.668
448.61	19.850
448.96	20.501
449.31	20.103
449.66	21.168
450.02	20.750
450.37	20.858
450.72	20.264
451.07	20.752
451.42	19.963
451.77	20.694
452.12	19.608
452.47	19.819
452.83	19.988
453.18	20.687
453.53	19.609
453.88	20.663
454.23	21.323
454.58	20.343
454.93	20.269
455.28	20.295
455.63	20.399
455.98	20.998
456.34	20.153
456.69	21.022
457.04	20.681
457.39	21.467
457.74	20.826
458.09	21.149
458.44	21.152
458.79	20.209
459.14	19.607
459.49	21.098
459.84	20.744
460.19	19.868
460.54	21.168
460.89	21.453
461.24	20.345
461.59	20.411
461.94	20.860
462.29	21.324
462.64	20.976
462.99	21.462
463.34	22.030
463.69	21.198
464.04	20.168
464.39	21.110
464.74	21.192
465.09	20.707
465.44	21.493
465.79	21.334
466.14	20.924
466.49	21.818
466.84	21.040
467.19	20.446
467.54	21.063
467.89	20.553
468.24	21.143
468.59	21.096
468.94	21.584
469.29	21.943
469.64	21.269
469.99	23.172
470.34	21.510
470.68	21.859
471.03	21.227
471.38	21.905
471.73	21.468
472.08	20.893
472.43	21.570
472.78	22.718
473.13	20.976
473.48	20.874
473.83	20.778
474.17	21.615
474.52	21.683
474.87	20.567
475.22	21.014
475.57	21.361
475.92	22.137
476.27	21.503
476.61	21.404
476.96	20.959
477.31	21.683
477.66	22.260
478.01	20.769
478.36	21.090
478.70	20.945
479.05	21.532
479.40	21.373
479.75	21.573
480.10	21.112
480.45	20.893
480.79	21.802
481.14	21.277
481.49	22.595
481.84	20.924
482.19	21.491
482.53	21.381
482.88	21.477
483.23	21.319
483.58	21.597
483.92	21.449
484.27	20.677
484.62	20.772
484.97	21.609
485.31	21.156
485.66	20.508
486.01	21.090
486.36	21.389
486.70	21.232
487.05	21.176
487.40	21.571
487.75	21.591
488.09	21.020
488.44	21.171
488.79	21.007
489.13	20.477
489.48	20.992
489.83	21.885
490.17	20.744
490.52	21.879
490.87	21.187
491.22	21.196
491.56	21.610
491.91	20.883
492.26	21.132
492.60	20.298
492.95	21.137
493.30	21.366
493.64	20.767
493.99	21.691
494.34	21.339
494.68	21.527
495.03	21.146
495.37	21.363
495.72	21.103
496.07	21.383
496.41	21.245
496.76	21.618
497.11	21.080
497.45	21.595
497.80	21.201
498.14	21.914
498.49	21.230
498.84	21.711
499.18	20.508
499.53	21.024
499.87	20.573
500.22	21.752
500.56	21.565
500.91	21.479
501.26	21.330
501.60	20.833
501.95	21.083
502.29	21.796
502.64	21.408
502.98	20.906
503.33	21.557
503.67	21.908
504.02	21.176
504.36	20.802
504.71	20.630
505.06	22.058
505.40	22.268
505.75	21.414
506.09	21.666
506.44	21.875
506.78	21.686
507.13	21.622
507.47	21.421
507.82	21.088
508.16	21.953
508.51	21.281
508.85	21.306
509.19	21.429
509.54	21.930
509.88	22.043
510.23	21.526
510.57	22.511
510.92	22.414
511.26	21.562
511.61	21.350
511.95	21.499
512.30	21.266
512.64	22.191
512.98	21.773
513.33	21.577
513.67	20.897
514.02	21.266
514.36	20.843
514.70	21.651
515.05	22.469
515.39	20.991
515.74	21.374
516.08	21.121
516.42	21.429
516.77	21.500
517.11	20.576
517.46	22.689
517.80	22.942
518.14	21.862
518.49	21.157
518.83	22.255
519.17	22.169
519.52	21.532
519.86	21.676
520.20	20.922
520.55	21.828
520.89	22.138
521.23	22.500
521.58	21.618
521.92	22.187
522.26	21.080
522.61	22.301
522.95	21.244
523.29	21.905
523.64	21.615
523.98	21.410
524.32	21.298
524.66	21.623
525.01	21.625
525.35	21.330
525.69	21.803
526.04	22.150
526.38	22.498
526.72	21.170
527.06	20.954
527.41	20.516
527.75	21.696
528.09	21.920
528.43	22.252
528.78	20.995
529.12	21.281
529.46	21.689
529.80	20.971
530.15	21.622
530.49	21.496
530.83	21.327
531.17	20.685
531.51	20.634
531.86	21.883
532.20	22.123
532.54	20.897
532.88	21.375
533.22	22.020
533.57	21.126
533.91	21.742
534.25	20.898
534.59	21.171
534.93	20.855
535.27	20.191
535.62	21.776
535.96	21.470
536.30	21.343
536.64	19.617
536.98	21.303
537.32	20.641
537.66	21.016
538.01	20.874
538.35	21.064
538.69	20.803
539.03	20.336
539.37	19.718
539.71	20.873
540.05	21.120
540.39	20.922
540.73	20.461
541.07	19.796
541.42	21.010
541.76	20.839
542.10	20.582
542.44	20.582
542.78	19.500
543.12	20.957
543.46	20.111
543.80	19.552
544.14	21.610
544.48	18.978
544.82	20.847
545.16	20.149
545.50	20.864
545.84	19.986
546.18	19.986
546.52	20.819
546.86	19.717
547.20	19.228
547.54	20.515
547.88	20.783
548.22	20.847
548.56	20.013
548.90	20.839
549.24	19.792
549.58	20.498
549.92	21.423
550.26	20.664
550.60	21.021
550.94	19.328
551.28	20.742
551.62	20.376
551.96	20.425
552.30	19.360
552.64	19.845
552.98	21.023
553.32	20.404
553.66	20.763
554.00	20.590
554.34	20.440
554.68	19.538
555.02	19.760
555.36	19.894
555.69	20.393
556.03	20.515
556.37	19.986
556.71	20.042
557.05	20.590
557.39	20.497
557.73	20.121
558.07	19.518
558.41	20.666
558.75	20.554
559.08	19.487
559.42	20.535
559.76	19.266
560.10	20.369
560.44	20.118
560.78	20.360
561.12	20.112
561.45	20.612
561.79	20.220
562.13	19.198
562.47	20.357
562.81	19.697
563.15	19.972
563.48	20.096
563.82	19.494
564.16	20.108
564.50	20.692
564.84	20.000
565.17	20.861
565.51	20.053
565.85	18.854
566.19	20.397
566.52	19.725
566.86	19.659
567.20	20.037
567.54	19.804
567.88	18.813
568.21	19.337
568.55	19.770
568.89	19.192
569.23	19.248
569.56	19.650
569.90	19.939
570.24	19.025
570.57	19.208
570.91	19.241
571.25	18.949
571.59	18.461
571.92	18.891
572.26	19.305
572.60	19.495
572.93	18.713
573.27	19.678
573.61	19.234
573.95	19.170
574.28	19.077
574.62	19.106
574.96	19.316
575.29	18.581
575.63	19.099
575.97	18.967
576.30	18.833
576.64	18.889
576.98	19.173
577.31	19.250
577.65	19.174
577.98	18.808
578.32	18.880
578.66	19.121
578.99	19.108
579.33	19.065
579.67	18.788
580.00	18.758
580.34	18.614
580.67	18.937
581.01	18.960
581.35	18.827
581.68	19.061
582.02	19.009
582.35	19.166
582.69	19.188
583.02	19.089
583.36	18.728
583.70	19.348
584.03	19.520
584.37	18.525
584.70	18.722
585.04	19.578
585.37	18.785
585.71	19.296
586.04	19.198
586.38	18.837
586.72	19.022
587.05	19.318
587.39	19.033
587.72	18.910
588.06	19.179
588.39	18.668
588.73	19.495
589.06	19.043
589.40	19.436
589.73	18.074
590.07	18.848
590.40	19.387
590.73	19.652
591.07	19.056
591.40	19.217
591.74	18.586
592.07	19.671
592.41	19.219
592.74	19.599
593.08	18.427
593.41	19.300
593.75	18.637
594.08	18.722
594.41	18.903
594.75	19.040
595.08	18.596
595.42	18.432
595.75	18.908
596.09	18.591
596.42	18.873
596.75	19.482
597.09	19.563
597.42	19.695
597.75	19.644
598.09	19.444
598.42	19.687
598.76	19.479
599.09	19.368
599.42	19.109
599.76	19.602
600.09	19.465
600.42	19.021
600.76	19.845
601.09	19.623
601.42	18.855
601.76	19.382
602.09	19.173
602.42	19.604
602.76	19.547
603.09	19.014
603.42	19.272
603.76	19.408
604.09	18.814
604.42	18.418
604.76	18.682
605.09	19.846
605.42	19.748
605.75	19.058
606.09	18.957
606.42	18.869
606.75	18.312
607.09	18.440
607.42	18.827
607.75	18.862
608.08	19.793
608.42	19.353
608.75	19.111
609.08	19.010
609.41	18.977
609.75	19.012
610.08	18.886
610.41	19.291
610.74	19.634
611.07	18.888
611.41	19.601
611.74	19.669
612.07	18.760
612.40	20.108
612.73	18.990
613.07	18.625
613.40	19.218
613.73	19.231
614.06	18.850
614.39	18.677
614.72	19.100
615.06	18.778
615.39	20.088
615.72	19.060
616.05	19.200
616.38	19.129
616.71	18.836
617.05	20.332
617.38	19.409
617.71	18.750
618.04	19.500
618.37	18.486
618.70	19.470
619.03	18.694
619.36	19.715
619.69	18.275
620.03	18.869
620.36	18.928
620.69	17.773
621.02	18.923
621.35	18.724
621.68	18.908
622.01	19.579
622.34	18.002
622.67	19.264
623.00	18.541
623.33	18.923
623.66	18.067
623.99	19.505
624.32	19.002
624.65	18.620
624.99	19.544
625.32	19.119
625.65	18.760
625.98	19.115
626.31	18.449
626.64	18.659
626.97	18.512
627.30	19.162
627.63	18.512
627.96	16.623
628.29	19.256
628.62	17.795
628.95	18.838
629.28	18.621
629.61	18.852
629.94	18.859
630.26	20.887
630.59	18.282
630.92	18.373
631.25	17.302
631.58	19.486
631.91	17.073
632.24	19.429
632.57	17.667
632.90	20.303
