SpectraSuite Data File
++++++++++++++++++++++++++++++++++++
Date: Tue May 12 15:15:46 PDT 2015
User: schluterlab
Dark Spectrum Present: Yes
Reference Spectrum Present: Yes
Number of Sampled Component Spectra: 1
Spectrometers: USB2E3373
Integration Time (usec): 3000 (USB2E3373)
Spectra Averaged: 3 (USB2E3373)
Boxcar Smoothing: 0 (USB2E3373)
Correct for Electrical Dark: No (USB2E3373)
Strobe/Lamp Enabled: No (USB2E3373)
Correct for Detector Non-linearity: No (USB2E3373)
Correct for Stray Light: No (USB2E3373)
Number of Pixels in Processed Spectrum: 2048
>>>>>Begin Processed Spectral Data<<<<<
178.53	0.000
178.91	-200.000
179.29	-500.000
179.67	-2900.000
180.04	-80.000
180.42	550.000
180.80	1150.000
181.18	0.000
181.56	-212.500
181.94	0.000
182.31	700.000
182.69	-2100.000
183.07	414.286
183.45	-2500.000
183.83	-1700.000
184.20	350.000
184.58	457.143
184.96	-153.846
185.34	-116.667
185.72	900.000
186.09	-575.000
186.47	-2100.000
186.85	966.667
187.23	520.000
187.61	1100.000
187.98	512.500
188.36	221.429
188.74	216.667
189.12	250.000
189.49	950.000
189.87	0.000
190.25	387.500
190.63	1900.000
191.00	-125.000
191.38	-2800.000
191.76	-575.000
192.14	400.000
192.51	-1900.000
192.89	1600.000
193.27	1100.000
193.65	-566.667
194.02	-540.000
194.40	457.143
194.78	-114.286
195.15	206.667
195.53	-3000.000
195.91	-300.000
196.29	2700.000
196.66	231.250
197.04	625.000
197.42	-1050.000
197.79	625.000
198.17	300.000
198.55	0.000
198.92	414.286
199.30	1233.333
199.68	1100.000
200.05	566.667
200.43	-333.333
200.81	166.667
201.18	1900.000
201.56	266.667
201.94	-475.000
202.31	-287.500
202.69	-420.000
203.07	1600.000
203.44	-366.667
203.82	283.333
204.19	560.000
204.57	-1050.000
204.95	-750.000
205.32	-640.000
205.70	466.667
206.08	950.000
206.45	-433.333
206.83	344.444
207.20	173.684
207.58	258.333
207.96	320.000
208.33	0.000
208.71	442.857
209.08	340.000
209.46	-2300.000
209.84	-675.000
210.21	620.000
210.59	-480.000
210.96	275.000
211.34	-1075.000
211.71	336.364
212.09	700.000
212.46	1350.000
212.84	-433.333
213.22	288.889
213.59	-2200.000
213.97	280.000
214.34	700.000
214.72	600.000
215.09	900.000
215.47	-2800.000
215.84	-270.000
216.22	-300.000
216.59	0.000
216.97	0.000
217.34	450.000
217.72	-1350.000
218.09	1100.000
218.47	287.500
218.84	675.000
219.22	800.000
219.59	833.333
219.97	542.857
220.34	322.222
220.72	1200.000
221.09	2400.000
221.47	250.000
221.84	466.667
222.22	270.000
222.59	227.778
222.97	164.286
223.34	175.000
223.72	-1750.000
224.09	900.000
224.46	284.615
224.84	-400.000
225.21	244.444
225.59	280.000
225.96	833.333
226.34	-620.000
226.71	-375.000
227.08	-480.000
227.46	0.000
227.83	-466.667
228.21	-1650.000
228.58	375.000
228.95	800.000
229.33	200.000
229.70	925.000
230.08	253.846
230.45	3100.000
230.82	-575.000
231.20	-500.000
231.57	-700.000
231.95	540.000
232.32	208.333
232.69	300.000
233.07	233.333
233.44	-650.000
233.81	200.000
234.19	122.222
234.56	200.000
234.93	182.353
235.31	145.000
235.68	150.000
236.05	114.286
236.43	103.704
236.80	192.857
237.17	86.207
237.55	53.125
237.92	90.000
238.29	81.818
238.67	90.625
239.04	68.293
239.41	64.583
239.79	77.500
240.16	45.833
240.53	32.787
240.91	53.623
241.28	61.017
241.65	33.333
242.02	43.662
242.40	34.286
242.77	32.967
243.14	15.190
243.51	38.384
243.89	41.121
244.26	29.907
244.63	32.673
245.00	29.358
245.38	16.102
245.75	22.727
246.12	25.926
246.49	23.404
246.87	14.754
247.24	25.333
247.61	25.000
247.98	21.769
248.36	15.758
248.73	24.490
249.10	20.238
249.47	19.500
249.84	20.398
250.22	16.216
250.59	20.000
250.96	18.565
251.33	15.814
251.70	16.964
252.08	16.387
252.45	17.131
252.82	14.449
253.19	14.625
253.56	10.769
253.94	15.217
254.31	10.853
254.68	12.892
255.05	14.138
255.42	14.599
255.79	10.749
256.16	12.203
256.54	15.584
256.91	12.745
257.28	10.702
257.65	10.972
258.02	11.504
258.39	11.748
258.76	11.884
259.14	8.000
259.51	12.536
259.88	10.334
260.25	9.890
260.62	11.507
260.99	6.061
261.36	7.799
261.73	8.245
262.10	11.780
262.47	11.750
262.85	10.667
263.22	8.740
263.59	11.765
263.96	14.035
264.33	8.642
264.70	10.319
265.07	11.951
265.44	8.716
265.81	8.019
266.18	11.442
266.55	8.983
266.92	10.515
267.29	7.895
267.66	4.933
268.03	7.399
268.40	8.668
268.77	9.251
269.14	7.375
269.51	7.572
269.88	10.000
270.25	6.911
270.62	6.223
270.99	10.142
271.36	10.366
271.73	7.547
272.10	8.889
272.47	8.730
272.84	7.585
273.21	7.438
273.58	8.300
273.95	7.392
274.32	11.284
274.69	7.874
275.06	8.743
275.43	7.854
275.80	8.679
276.17	8.640
276.54	8.037
276.91	10.634
277.28	8.942
277.65	8.856
278.02	9.743
278.39	9.173
278.76	7.931
279.13	7.473
279.50	7.455
279.87	6.331
280.23	7.551
280.60	7.664
280.97	8.103
281.34	5.611
281.71	8.174
282.08	9.573
282.45	6.419
282.82	8.528
283.19	8.585
283.56	6.612
283.92	6.352
284.29	6.656
284.66	6.723
285.03	9.287
285.40	5.455
285.77	6.019
286.14	7.430
286.51	7.822
286.87	5.854
287.24	6.306
287.61	7.295
287.98	8.955
288.35	6.963
288.72	6.373
289.08	6.456
289.45	8.232
289.82	8.125
290.19	7.760
290.56	7.278
290.93	6.906
291.29	6.768
291.66	7.486
292.03	6.452
292.40	6.098
292.77	6.128
293.13	6.277
293.50	6.883
293.87	4.607
294.24	6.713
294.60	6.191
294.97	7.692
295.34	7.304
295.71	7.622
296.08	7.200
296.44	6.099
296.81	6.452
297.18	5.703
297.55	7.389
297.91	4.557
298.28	5.797
298.65	6.503
299.02	5.549
299.38	5.995
299.75	4.146
300.12	7.454
300.48	7.026
300.85	5.721
301.22	5.814
301.59	5.071
301.95	6.301
302.32	5.937
302.69	7.240
303.05	6.622
303.42	5.942
303.79	6.609
304.15	5.831
304.52	6.025
304.89	5.437
305.25	7.008
305.62	7.249
305.99	6.087
306.35	5.158
306.72	5.827
307.09	5.901
307.45	5.069
307.82	5.247
308.19	6.186
308.55	5.900
308.92	6.183
309.29	6.213
309.65	5.451
310.02	5.882
310.38	5.384
310.75	5.593
311.12	6.130
311.48	7.046
311.85	5.916
312.22	6.017
312.58	4.470
312.95	4.951
313.31	5.899
313.68	6.754
314.05	7.509
314.41	5.773
314.78	5.398
315.14	5.782
315.51	6.244
315.87	6.204
316.24	5.509
316.61	5.282
316.97	3.486
317.34	5.660
317.70	5.092
318.07	5.338
318.43	6.063
318.80	6.217
319.16	5.332
319.53	5.575
319.89	5.735
320.26	5.866
320.62	6.777
320.99	5.815
321.35	5.380
321.72	6.357
322.08	5.540
322.45	6.358
322.81	4.849
323.18	6.394
323.54	6.272
323.91	6.709
324.27	6.366
324.64	4.844
325.00	5.776
325.37	6.155
325.73	5.902
326.10	7.208
326.46	6.689
326.83	5.040
327.19	6.827
327.56	6.070
327.92	5.984
328.29	6.874
328.65	7.106
329.01	7.271
329.38	5.584
329.74	5.892
330.11	6.516
330.47	6.991
330.84	5.953
331.20	6.684
331.56	6.649
331.93	6.074
332.29	5.867
332.66	5.952
333.02	4.811
333.38	6.370
333.75	6.756
334.11	6.628
334.48	5.128
334.84	6.419
335.20	6.758
335.57	5.626
335.93	7.317
336.29	5.887
336.66	5.746
337.02	5.902
337.38	6.191
337.75	7.264
338.11	6.245
338.47	5.419
338.84	6.943
339.20	5.368
339.56	6.224
339.93	6.856
340.29	5.042
340.65	6.957
341.02	7.160
341.38	5.337
341.74	6.063
342.11	5.008
342.47	5.742
342.83	6.891
343.20	7.276
343.56	5.798
343.92	5.615
344.28	6.140
344.65	5.623
345.01	6.270
345.37	4.968
345.73	5.794
346.10	6.454
346.46	6.619
346.82	5.401
347.19	6.182
347.55	5.386
347.91	6.420
348.27	5.267
348.63	6.487
349.00	7.007
349.36	6.226
349.72	5.887
350.08	6.056
350.45	5.788
350.81	5.428
351.17	5.470
351.53	4.927
351.89	5.594
352.26	5.518
352.62	6.486
352.98	5.982
353.34	5.624
353.70	5.199
354.07	5.308
354.43	5.607
354.79	4.480
355.15	5.513
355.51	5.740
355.87	5.873
356.24	5.312
356.60	4.947
356.96	4.473
357.32	5.576
357.68	5.947
358.04	5.471
358.40	5.697
358.77	6.086
359.13	4.955
359.49	5.337
359.85	5.361
360.21	5.944
360.57	5.255
360.93	5.123
361.29	5.556
361.66	5.817
362.02	4.759
362.38	4.834
362.74	5.732
363.10	4.698
363.46	4.765
363.82	5.610
364.18	4.481
364.54	5.508
364.90	5.556
365.26	5.205
365.62	4.903
365.98	4.749
366.35	5.034
366.71	5.899
367.07	5.529
367.43	6.313
367.79	5.053
368.15	4.342
368.51	5.789
368.87	4.348
369.23	4.643
369.59	5.462
369.95	5.105
370.31	4.381
370.67	5.413
371.03	6.022
371.39	5.609
371.75	4.885
372.11	5.914
372.47	5.685
372.83	5.031
373.19	5.483
373.55	5.017
373.91	4.903
374.27	5.357
374.63	5.492
374.99	4.987
375.35	4.906
375.71	4.617
376.07	5.106
376.42	5.115
376.78	5.074
377.14	4.980
377.50	4.931
377.86	5.381
378.22	4.936
378.58	5.206
378.94	5.733
379.30	4.548
379.66	4.636
380.02	5.572
380.38	4.040
380.74	5.594
381.09	5.315
381.45	4.162
381.81	4.314
382.17	5.250
382.53	4.559
382.89	4.672
383.25	4.500
383.61	5.360
383.97	4.799
384.32	4.702
384.68	5.645
385.04	5.744
385.40	5.042
385.76	4.974
386.12	4.515
386.48	4.681
386.83	4.645
387.19	4.947
387.55	4.770
387.91	5.485
388.27	5.532
388.62	4.754
388.98	4.606
389.34	4.700
389.70	4.658
390.06	4.939
390.42	5.429
390.77	5.037
391.13	5.552
391.49	5.263
391.85	5.108
392.20	5.721
392.56	5.914
392.92	4.885
393.28	4.709
393.64	4.874
393.99	4.920
394.35	4.591
394.71	3.739
395.07	4.319
395.42	4.508
395.78	5.614
396.14	5.301
396.50	4.272
396.85	4.695
397.21	4.573
397.57	5.021
397.92	4.217
398.28	3.696
398.64	5.643
399.00	4.650
399.35	5.475
399.71	5.077
400.07	4.623
400.42	4.657
400.78	4.575
401.14	5.696
401.49	4.781
401.85	4.693
402.21	4.394
402.57	5.087
402.92	4.667
403.28	4.594
403.63	5.356
403.99	4.946
404.35	6.038
404.70	4.843
405.06	4.267
405.42	4.967
405.77	4.851
406.13	5.260
406.49	4.264
406.84	4.907
407.20	5.080
407.55	4.862
407.91	4.914
408.27	4.669
408.62	4.967
408.98	4.554
409.34	5.085
409.69	4.978
410.05	4.472
410.40	4.476
410.76	4.350
411.11	4.325
411.47	4.630
411.83	4.687
412.18	4.408
412.54	4.745
412.89	4.602
413.25	5.017
413.60	4.206
413.96	4.608
414.31	4.191
414.67	5.090
415.03	4.342
415.38	4.606
415.74	4.232
416.09	4.809
416.45	4.590
416.80	4.682
417.16	4.392
417.51	4.522
417.87	3.942
418.22	4.678
418.58	4.076
418.93	4.581
419.29	4.498
419.64	4.785
420.00	4.535
420.35	3.659
420.71	4.376
421.06	4.473
421.42	3.397
421.77	4.775
422.12	4.465
422.48	4.828
422.83	5.134
423.19	4.320
423.54	4.772
423.90	4.530
424.25	4.238
424.61	4.701
424.96	4.178
425.31	4.160
425.67	4.265
426.02	4.206
426.38	4.317
426.73	4.222
427.09	4.923
427.44	3.545
427.79	3.602
428.15	4.773
428.50	5.143
428.85	5.350
429.21	4.538
429.56	4.885
429.92	4.525
430.27	5.031
430.62	3.720
430.98	4.790
431.33	3.831
431.68	3.506
432.04	4.190
432.39	4.830
432.74	4.625
433.10	3.987
433.45	4.136
433.80	5.130
434.16	3.783
434.51	4.180
434.86	4.682
435.22	4.160
435.57	3.734
435.92	5.065
436.28	4.839
436.63	4.754
436.98	4.955
437.34	4.566
437.69	3.695
438.04	4.624
438.39	4.203
438.75	4.733
439.10	3.886
439.45	4.183
439.81	4.974
440.16	4.348
440.51	3.941
440.86	5.356
441.22	4.383
441.57	3.885
441.92	4.195
442.27	4.021
442.63	4.421
442.98	4.472
443.33	4.928
443.68	4.728
444.03	4.147
444.39	4.708
444.74	3.778
445.09	4.476
445.44	4.038
445.79	4.581
446.15	4.158
446.50	4.061
446.85	3.685
447.20	3.831
447.55	3.426
447.91	4.635
448.26	4.420
448.61	3.814
448.96	4.739
449.31	4.455
449.66	4.485
450.02	3.890
450.37	4.553
450.72	4.077
451.07	5.119
451.42	4.564
451.77	4.238
452.12	4.368
452.47	5.043
452.83	4.394
453.18	4.925
453.53	4.085
453.88	5.143
454.23	4.765
454.58	4.779
454.93	4.721
455.28	4.835
455.63	4.492
455.98	3.892
456.34	4.863
456.69	4.329
457.04	4.415
457.39	3.943
457.74	5.124
458.09	3.987
458.44	4.436
458.79	4.191
459.14	3.655
459.49	4.813
459.84	4.620
460.19	4.576
460.54	5.242
460.89	4.318
461.24	4.181
461.59	5.159
461.94	4.728
462.29	4.462
462.64	4.334
462.99	4.223
463.34	4.731
463.69	4.900
464.04	4.145
464.39	4.980
464.74	3.517
465.09	4.817
465.44	5.332
465.79	3.974
466.14	4.028
466.49	4.666
466.84	5.295
467.19	5.097
467.54	4.264
467.89	4.167
468.24	3.880
468.59	3.810
468.94	4.891
469.29	4.582
469.64	5.402
469.99	5.141
470.34	4.428
470.68	5.103
471.03	5.070
471.38	4.636
471.73	5.095
472.08	4.436
472.43	4.593
472.78	4.802
473.13	4.380
473.48	4.829
473.83	4.535
474.17	4.620
474.52	5.687
474.87	3.980
475.22	4.569
475.57	4.460
475.92	4.446
476.27	3.645
476.61	3.861
476.96	4.807
477.31	4.781
477.66	4.670
478.01	4.229
478.36	3.811
478.70	4.218
479.05	3.452
479.40	4.216
479.75	4.518
480.10	4.211
480.45	4.388
480.79	4.101
481.14	3.614
481.49	3.660
481.84	4.573
482.19	4.541
482.53	4.655
482.88	4.480
483.23	3.969
483.58	3.815
483.92	4.799
484.27	4.152
484.62	3.947
484.97	4.285
485.31	3.314
485.66	3.769
486.01	3.404
486.36	3.309
486.70	3.222
487.05	3.574
487.40	3.371
487.75	3.397
488.09	4.062
488.44	3.569
488.79	3.506
489.13	3.509
489.48	3.436
489.83	3.837
490.17	4.005
490.52	4.350
490.87	4.569
491.22	4.078
491.56	4.655
491.91	3.943
492.26	3.964
492.60	4.328
492.95	3.897
493.30	4.368
493.64	4.313
493.99	4.204
494.34	3.855
494.68	4.028
495.03	4.670
495.37	4.953
495.72	4.662
496.07	4.492
496.41	4.518
496.76	4.432
497.11	4.756
497.45	4.910
497.80	3.800
498.14	4.854
498.49	4.457
498.84	4.626
499.18	4.022
499.53	4.410
499.87	4.178
500.22	3.915
500.56	3.946
500.91	5.009
501.26	4.639
501.60	4.098
501.95	4.167
502.29	4.578
502.64	3.573
502.98	4.446
503.33	4.143
503.67	4.768
504.02	3.807
504.36	4.480
504.71	4.683
505.06	4.270
505.40	4.305
505.75	3.929
506.09	4.060
506.44	4.135
506.78	4.726
507.13	3.635
507.47	4.270
507.82	4.574
508.16	5.243
508.51	4.300
508.85	4.179
509.19	4.503
509.54	4.688
509.88	4.575
510.23	4.755
510.57	4.875
510.92	4.845
511.26	4.418
511.61	4.234
511.95	4.928
512.30	4.850
512.64	4.361
512.98	4.100
513.33	5.174
513.67	4.816
514.02	4.364
514.36	4.154
514.70	4.000
515.05	3.570
515.39	4.496
515.74	4.921
516.08	4.847
516.42	5.301
516.77	4.587
517.11	4.587
517.46	5.119
517.80	4.642
518.14	4.000
518.49	3.969
518.83	4.451
519.17	4.603
519.52	5.025
519.86	5.559
520.20	4.986
520.55	4.748
520.89	4.885
521.23	4.498
521.58	3.614
521.92	4.198
522.26	4.799
522.61	4.516
522.95	4.745
523.29	4.737
523.64	4.162
523.98	4.519
524.32	5.075
524.66	4.870
525.01	3.964
525.35	5.186
525.69	5.659
526.04	5.175
526.38	5.003
526.72	4.535
527.06	4.140
527.41	5.260
527.75	5.052
528.09	4.816
528.43	4.515
528.78	4.532
529.12	4.515
529.46	4.442
529.80	4.673
530.15	4.832
530.49	3.430
530.83	4.753
531.17	4.244
531.51	4.598
531.86	5.133
532.20	5.006
532.54	3.641
532.88	4.435
533.22	4.692
533.57	4.881
533.91	4.079
534.25	4.155
534.59	4.854
534.93	4.892
535.27	4.155
535.62	4.842
535.96	4.137
536.30	4.753
536.64	4.596
536.98	4.720
537.32	4.875
537.66	4.592
538.01	5.263
538.35	4.741
538.69	4.126
539.03	4.726
539.37	4.430
539.71	4.259
540.05	5.046
540.39	5.157
540.73	4.241
541.07	4.266
541.42	5.224
541.76	4.562
542.10	4.316
542.44	4.988
542.78	4.405
543.12	4.356
543.46	4.699
543.80	4.950
544.14	4.954
544.48	4.684
544.82	4.526
545.16	4.250
545.50	4.610
545.84	5.051
546.18	5.267
546.52	5.639
546.86	5.029
547.20	3.941
547.54	5.130
547.88	4.866
548.22	4.554
548.56	5.068
548.90	4.745
549.24	4.296
549.58	4.575
549.92	4.977
550.26	4.192
550.60	5.057
550.94	4.613
551.28	5.172
551.62	5.862
551.96	5.068
552.30	4.548
552.64	5.178
552.98	4.124
553.32	4.673
553.66	4.756
554.00	5.019
554.34	5.126
554.68	4.637
555.02	4.752
555.36	4.920
555.69	4.450
556.03	4.650
556.37	4.780
556.71	4.954
557.05	4.128
557.39	4.933
557.73	4.784
558.07	5.433
558.41	4.798
558.75	5.540
559.08	4.932
559.42	5.369
559.76	5.274
560.10	4.680
560.44	5.242
560.78	5.051
561.12	4.832
561.45	4.506
561.79	4.744
562.13	3.980
562.47	4.413
562.81	4.619
563.15	4.202
563.48	4.348
563.82	4.991
564.16	3.980
564.50	4.702
564.84	4.924
565.17	5.051
565.51	4.126
565.85	4.503
566.19	4.762
566.52	4.152
566.86	5.429
567.20	4.551
567.54	3.657
567.88	4.747
568.21	4.194
568.55	4.572
568.89	4.151
569.23	4.012
569.56	4.153
569.90	4.132
570.24	4.123
570.57	4.056
570.91	3.495
571.25	3.826
571.59	3.469
571.92	3.471
572.26	3.396
572.60	3.360
572.93	3.910
573.27	3.791
573.61	3.384
573.95	3.461
574.28	3.732
574.62	3.423
574.96	3.187
575.29	3.668
575.63	3.251
575.97	3.116
576.30	3.240
576.64	3.381
576.98	3.506
577.31	3.427
577.65	3.394
577.98	3.271
578.32	3.173
578.66	3.460
578.99	3.545
579.33	3.496
579.67	3.023
580.00	3.141
580.34	3.196
580.67	3.423
581.01	3.621
581.35	3.578
581.68	3.074
582.02	3.118
582.35	3.279
582.69	3.186
583.02	3.169
583.36	3.333
583.70	3.643
584.03	3.306
584.37	3.508
584.70	3.210
585.04	3.283
585.37	3.427
585.71	3.551
586.04	3.165
586.38	3.208
586.72	3.243
587.05	3.731
587.39	3.439
587.72	3.684
588.06	3.452
588.39	3.557
588.73	3.351
589.06	3.560
589.40	3.537
589.73	3.704
590.07	3.741
590.40	4.146
590.73	4.223
591.07	3.833
591.40	4.072
591.74	3.896
592.07	3.494
592.41	4.197
592.74	3.405
593.08	3.418
593.41	3.621
593.75	3.631
594.08	3.788
594.41	3.617
594.75	3.596
595.08	4.047
595.42	3.851
595.75	4.080
596.09	4.032
596.42	4.042
596.75	3.966
597.09	3.797
597.42	3.878
597.75	3.692
598.09	3.570
598.42	4.570
598.76	4.163
599.09	4.524
599.42	3.529
599.76	4.071
600.09	3.593
600.42	3.522
600.76	3.467
601.09	3.590
601.42	3.801
601.76	3.903
602.09	3.606
602.42	3.808
602.76	3.491
603.09	4.336
603.42	4.367
603.76	3.651
604.09	3.474
604.42	3.540
604.76	3.635
605.09	4.408
605.42	4.185
605.75	3.514
606.09	3.979
606.42	4.547
606.75	3.731
607.09	3.908
607.42	3.736
607.75	4.180
608.08	3.818
608.42	4.153
608.75	3.594
609.08	4.223
609.41	3.727
609.75	3.800
610.08	3.822
610.41	4.523
610.74	4.416
611.07	3.956
611.41	3.568
611.74	4.111
612.07	3.854
612.40	4.581
612.73	3.944
613.07	4.055
613.40	3.960
613.73	3.944
614.06	4.000
614.39	4.293
614.72	4.269
615.06	3.511
615.39	4.406
615.72	4.066
616.05	4.671
616.38	4.566
616.71	3.798
617.05	4.393
617.38	3.989
617.71	4.218
618.04	4.655
618.37	3.891
618.70	4.157
619.03	4.396
619.36	5.025
619.69	4.420
620.03	4.827
620.36	4.624
620.69	4.917
621.02	4.823
621.35	4.799
621.68	4.720
622.01	5.018
622.34	4.079
622.67	5.688
623.00	4.493
623.33	5.533
623.66	5.256
623.99	4.863
624.32	5.217
624.65	5.530
624.99	4.327
625.32	5.077
625.65	4.207
625.98	4.672
626.31	4.674
626.64	4.252
626.97	4.132
627.30	4.270
627.63	4.396
627.96	4.851
628.29	5.198
628.62	4.534
628.95	5.230
629.28	6.310
629.61	4.569
629.94	5.445
630.26	4.766
630.59	6.383
630.92	4.395
631.25	6.346
631.58	6.075
631.91	5.138
632.24	4.373
632.57	5.501
632.90	5.694
633.23	5.666
633.56	5.690
633.89	5.681
634.22	6.459
634.55	6.452
634.88	6.353
635.20	5.717
635.53	5.575
635.86	6.152
636.19	6.173
636.52	4.865
636.85	5.609
637.18	5.742
637.51	4.916
637.83	4.462
638.16	6.800
638.49	6.946
638.82	5.751
639.15	5.640
639.48	7.109
639.81	5.983
640.13	6.012
640.46	6.827
640.79	5.072
641.12	5.643
641.45	6.986
641.77	5.548
642.10	5.489
642.43	5.974
642.76	5.114
643.09	5.908
643.41	6.732
643.74	7.338
644.07	7.817
644.40	5.030
644.73	5.856
645.05	7.578
645.38	6.126
645.71	8.042
646.04	6.565
646.36	6.573
646.69	7.200
647.02	7.040
647.35	5.354
647.67	6.321
648.00	5.375
648.33	6.767
648.66	5.758
648.98	6.377
649.31	6.208
649.64	6.362
649.96	4.267
650.29	7.000
650.62	7.364
650.94	8.886
651.27	7.974
651.60	6.886
651.92	8.909
652.25	7.717
652.58	8.369
652.90	7.186
653.23	6.056
653.56	6.825
653.88	7.342
654.21	6.452
654.54	6.881
654.86	6.195
655.19	9.103
655.52	5.537
655.84	2.843
656.17	2.894
