SpectraSuite Data File
++++++++++++++++++++++++++++++++++++
Date: Tue May 12 17:01:51 PDT 2015
User: schluterlab
Dark Spectrum Present: Yes
Reference Spectrum Present: Yes
Number of Sampled Component Spectra: 1
Spectrometers: USB2E3373
Integration Time (usec): 3000 (USB2E3373)
Spectra Averaged: 3 (USB2E3373)
Boxcar Smoothing: 0 (USB2E3373)
Correct for Electrical Dark: No (USB2E3373)
Strobe/Lamp Enabled: No (USB2E3373)
Correct for Detector Non-linearity: No (USB2E3373)
Correct for Stray Light: No (USB2E3373)
Number of Pixels in Processed Spectrum: 2048
>>>>>Begin Processed Spectral Data<<<<<
178.53	0.000
178.91	-258.333
179.29	-600.000
179.67	-3800.000
180.04	-180.000
180.42	800.000
180.80	1300.000
181.18	0.000
181.56	-487.500
181.94	0.000
182.31	1066.667
182.69	-3500.000
183.07	614.286
183.45	-4000.000
183.83	-1350.000
184.20	360.000
184.58	357.143
184.96	-230.769
185.34	-225.000
185.72	1550.000
186.09	-775.000
186.47	-3500.000
186.85	1166.667
187.23	620.000
187.61	1650.000
187.98	562.500
188.36	307.143
188.74	266.667
189.12	341.667
189.49	1100.000
189.87	0.000
190.25	575.000
190.63	3300.000
191.00	-183.333
191.38	-3200.000
191.76	-800.000
192.14	487.500
192.51	-2800.000
192.89	1850.000
193.27	900.000
193.65	-1133.333
194.02	-720.000
194.40	471.429
194.78	-221.429
195.15	193.333
195.53	-2800.000
195.91	-640.000
196.29	4300.000
196.66	268.750
197.04	700.000
197.42	-1700.000
197.79	675.000
198.17	283.333
198.55	0.000
198.92	557.143
199.30	1333.333
199.68	1800.000
200.05	666.667
200.43	-300.000
200.81	172.222
201.18	3500.000
201.56	358.333
201.94	-550.000
202.31	-437.500
202.69	-500.000
203.07	3800.000
203.44	-466.667
203.82	400.000
204.19	580.000
204.57	-1450.000
204.95	-950.000
205.32	-660.000
205.70	683.333
206.08	950.000
206.45	-866.667
206.83	366.667
207.20	184.211
207.58	291.667
207.96	740.000
208.33	0.000
208.71	557.143
209.08	520.000
209.46	-3000.000
209.84	-1000.000
210.21	1020.000
210.59	-540.000
210.96	308.333
211.34	-925.000
211.71	372.727
212.09	1050.000
212.46	1750.000
212.84	-416.667
213.22	433.333
213.59	-3200.000
213.97	340.000
214.34	950.000
214.72	1200.000
215.09	1033.333
215.47	-3000.000
215.84	-410.000
216.22	-487.500
216.59	0.000
216.97	0.000
217.34	1400.000
217.72	-1450.000
218.09	1133.333
218.47	525.000
218.84	1000.000
219.22	1133.333
219.59	1166.667
219.97	600.000
220.34	488.889
220.72	1700.000
221.09	4200.000
221.47	258.333
221.84	1033.333
222.22	390.000
222.59	255.556
222.97	214.286
223.34	250.000
223.72	-1900.000
224.09	1233.333
224.46	292.308
224.84	-700.000
225.21	355.556
225.59	273.333
225.96	1100.000
226.34	-700.000
226.71	-775.000
227.08	-400.000
227.46	0.000
227.83	-550.000
228.21	-1850.000
228.58	341.667
228.95	800.000
229.33	388.889
229.70	1100.000
230.08	338.462
230.45	2700.000
230.82	-1000.000
231.20	-966.667
231.57	-1100.000
231.95	580.000
232.32	316.667
232.69	616.667
233.07	291.667
233.44	-1450.000
233.81	293.333
234.19	170.370
234.56	206.250
234.93	276.471
235.31	195.000
235.68	318.750
236.05	214.286
236.43	170.370
236.80	257.143
237.17	168.966
237.55	165.625
237.92	125.000
238.29	139.394
238.67	150.000
239.04	121.951
239.41	100.000
239.79	117.500
240.16	106.250
240.53	73.770
240.91	102.899
241.28	84.746
241.65	78.788
242.02	87.324
242.40	72.857
242.77	83.516
243.14	73.418
243.51	74.747
243.89	57.944
244.26	63.551
244.63	64.356
245.00	64.220
245.38	55.932
245.75	54.545
246.12	64.444
246.49	53.901
246.87	59.836
247.24	56.667
247.61	59.375
247.98	61.224
248.36	58.182
248.73	59.184
249.10	46.429
249.47	56.500
249.84	47.264
250.22	57.838
250.59	51.500
250.96	47.679
251.33	48.837
251.70	51.339
252.08	50.000
252.45	45.020
252.82	44.487
253.19	49.407
253.56	47.692
253.94	49.275
254.31	48.062
254.68	45.993
255.05	48.966
255.42	47.080
255.79	43.648
256.16	47.797
256.54	50.325
256.91	44.444
257.28	47.826
257.65	43.260
258.02	47.493
258.39	43.840
258.76	43.768
259.14	42.857
259.51	47.230
259.88	49.544
260.25	41.209
260.62	42.466
260.99	43.526
261.36	45.125
261.73	43.617
262.10	45.288
262.47	43.250
262.85	44.267
263.22	42.931
263.59	42.967
263.96	45.113
264.33	41.975
264.70	44.963
265.07	45.122
265.44	43.578
265.81	42.925
266.18	41.190
266.55	40.426
266.92	42.729
267.29	42.325
267.66	43.049
268.03	41.704
268.40	42.706
268.77	44.273
269.14	40.781
269.51	41.203
269.88	42.245
270.25	39.093
270.62	41.202
270.99	44.422
271.36	44.919
271.73	41.929
272.10	42.020
272.47	39.683
272.84	39.721
273.21	42.355
273.58	40.283
273.95	38.809
274.32	40.272
274.69	44.882
275.06	40.619
275.43	40.613
275.80	39.811
276.17	40.441
276.54	41.308
276.91	42.537
277.28	38.869
277.65	41.144
278.02	38.787
278.39	35.791
278.76	39.483
279.13	39.502
279.50	40.182
279.87	37.616
280.23	39.779
280.60	38.686
280.97	39.138
281.34	38.944
281.71	41.043
282.08	38.291
282.45	36.486
282.82	38.963
283.19	37.361
283.56	38.678
283.92	39.251
284.29	39.434
284.66	38.487
285.03	38.972
285.40	38.347
285.77	36.728
286.14	37.307
286.51	37.423
286.87	35.918
287.24	36.336
287.61	37.994
287.98	36.269
288.35	37.037
288.72	35.357
289.08	36.787
289.45	35.671
289.82	37.344
290.19	34.407
290.56	36.681
290.93	35.540
291.29	34.807
291.66	35.311
292.03	34.362
292.40	31.843
292.77	33.287
293.13	34.665
293.50	33.468
293.87	32.791
294.24	33.846
294.60	32.840
294.97	33.986
295.34	32.404
295.71	32.326
296.08	33.333
296.44	30.623
296.81	30.769
297.18	31.432
297.55	31.773
297.91	30.788
298.28	30.797
298.65	31.043
299.02	29.554
299.38	32.014
299.75	30.732
300.12	31.307
300.48	32.201
300.85	31.228
301.22	29.535
301.59	29.245
301.95	29.172
302.32	31.083
302.69	28.620
303.05	31.762
303.42	27.018
303.79	29.902
304.15	30.693
304.52	28.858
304.89	29.744
305.25	30.145
305.62	29.424
305.99	29.891
306.35	29.368
306.72	30.905
307.09	28.986
307.45	29.778
307.82	30.658
308.19	29.691
308.55	28.300
308.92	29.833
309.29	31.262
309.65	30.129
310.02	31.034
310.38	30.010
310.75	28.640
311.12	29.406
311.48	32.046
311.85	31.107
312.22	31.232
312.58	29.738
312.95	30.583
313.31	33.240
313.68	30.863
314.05	32.967
314.41	31.192
314.78	31.345
315.14	33.555
315.51	34.248
315.87	33.668
316.24	35.294
316.61	33.214
316.97	33.578
317.34	35.490
317.70	34.504
318.07	35.765
318.43	35.237
318.80	34.764
319.16	35.752
319.53	36.372
319.89	35.753
320.26	39.385
320.62	36.905
320.99	38.036
321.35	37.570
321.72	38.615
322.08	39.520
322.45	39.510
322.81	38.701
323.18	39.876
323.54	41.028
323.91	40.526
324.27	40.760
324.64	38.668
325.00	41.293
325.37	41.737
325.73	40.472
326.10	42.502
326.46	40.875
326.83	41.840
327.19	42.892
327.56	42.732
327.92	44.426
328.29	43.699
328.65	43.750
329.01	43.798
329.38	44.585
329.74	43.040
330.11	43.354
330.47	44.501
330.84	43.486
331.20	43.909
331.56	42.919
331.93	44.055
332.29	41.922
332.66	45.153
333.02	43.471
333.38	44.677
333.75	44.287
334.11	42.785
334.48	45.043
334.84	41.723
335.20	44.568
335.57	43.073
335.93	44.828
336.29	42.454
336.66	45.026
337.02	42.686
337.38	41.960
337.75	42.990
338.11	43.122
338.47	43.268
338.84	42.252
339.20	42.684
339.56	42.725
339.93	42.893
340.29	42.437
340.65	43.839
341.02	43.121
341.38	43.514
341.74	43.023
342.11	42.487
342.47	42.330
342.83	43.068
343.20	42.037
343.56	41.223
343.92	42.609
344.28	41.707
344.65	43.032
345.01	43.016
345.37	42.548
345.73	42.619
346.10	41.594
346.46	44.019
346.82	42.130
347.19	42.195
347.55	41.608
347.91	41.012
348.27	42.060
348.63	42.405
349.00	41.889
349.36	42.412
349.72	42.125
350.08	41.925
350.45	42.574
350.81	42.049
351.17	41.294
351.53	41.801
351.89	41.570
352.26	41.043
352.62	41.026
352.98	42.715
353.34	42.219
353.70	41.055
354.07	41.538
354.43	42.243
354.79	40.774
355.15	42.343
355.51	42.221
355.87	41.566
356.24	42.109
356.60	40.944
356.96	40.788
357.32	40.543
357.68	40.969
358.04	41.565
358.40	41.379
358.77	42.224
359.13	40.916
359.49	40.993
359.85	40.357
360.21	41.382
360.57	42.701
360.93	41.270
361.29	42.352
361.66	41.834
362.02	40.625
362.38	41.558
362.74	42.109
363.10	41.865
363.46	40.677
363.82	40.743
364.18	43.243
364.54	42.775
364.90	41.232
365.26	41.568
365.62	41.713
365.98	40.330
366.35	41.034
366.71	41.083
367.07	41.297
367.43	40.497
367.79	41.356
368.15	40.299
368.51	42.936
368.87	41.508
369.23	41.234
369.59	41.133
369.95	42.937
370.31	42.505
370.67	40.874
371.03	41.387
371.39	41.620
371.75	41.661
372.11	41.536
372.47	41.781
372.83	41.672
373.19	41.947
373.55	42.337
373.91	40.470
374.27	41.667
374.63	41.492
374.99	42.722
375.35	42.540
375.71	42.414
376.07	42.573
376.42	40.793
376.78	42.261
377.14	41.612
377.50	42.821
377.86	41.960
378.22	42.048
378.58	41.828
378.94	42.547
379.30	43.481
379.66	43.046
380.02	41.818
380.38	41.276
380.74	42.676
381.09	42.815
381.45	41.156
381.81	41.548
382.17	42.308
382.53	42.412
382.89	42.105
383.25	42.096
383.61	42.363
383.97	42.711
384.32	43.400
384.68	42.246
385.04	43.200
385.40	42.527
385.76	43.593
386.12	42.177
386.48	42.857
386.83	43.093
387.19	42.638
387.55	43.051
387.91	43.072
388.27	42.653
388.62	43.369
388.98	41.983
389.34	41.761
389.70	42.158
390.06	44.085
390.42	43.183
390.77	43.243
391.13	43.211
391.49	42.529
391.85	44.062
392.20	42.312
392.56	43.429
392.92	42.785
393.28	42.657
393.64	41.399
393.99	42.857
394.35	42.966
394.71	43.124
395.07	43.187
395.42	43.033
395.78	44.109
396.14	43.916
396.50	43.141
396.85	42.683
397.21	43.261
397.57	43.096
397.92	42.403
398.28	42.306
398.64	43.455
399.00	42.330
399.35	42.458
399.71	42.605
400.07	42.808
400.42	42.806
400.78	43.636
401.14	43.629
401.49	43.260
401.85	42.932
402.21	42.941
402.57	43.926
402.92	44.545
403.28	41.945
403.63	43.084
403.99	43.366
404.35	43.376
404.70	42.942
405.06	43.122
405.42	42.849
405.77	43.440
406.13	42.733
406.49	41.217
406.84	42.076
407.20	43.037
407.55	43.569
407.91	43.204
408.27	44.209
408.62	43.229
408.98	42.815
409.34	42.840
409.69	43.497
410.05	43.172
410.40	43.051
410.76	42.187
411.11	42.891
411.47	42.407
411.83	42.179
412.18	42.391
412.54	42.823
412.89	42.065
413.25	42.588
413.60	41.472
413.96	41.831
414.31	43.447
414.67	43.948
415.03	43.231
415.38	43.281
415.74	43.462
416.09	42.973
416.45	43.310
416.80	43.810
417.16	41.820
417.51	43.631
417.87	42.678
418.22	41.920
418.58	43.312
418.93	42.415
419.29	41.466
419.64	42.459
420.00	42.900
420.35	42.393
420.71	41.424
421.06	42.319
421.42	42.832
421.77	43.254
422.12	42.889
422.48	41.654
422.83	42.355
423.19	42.441
423.54	43.061
423.90	43.601
424.25	42.763
424.61	42.078
424.96	42.857
425.31	42.310
425.67	43.378
426.02	42.232
426.38	42.590
426.73	42.857
427.09	42.289
427.44	42.093
427.79	41.738
428.15	44.313
428.50	42.686
428.85	42.622
429.21	43.112
429.56	42.024
429.92	42.367
430.27	42.187
430.62	41.116
430.98	41.766
431.33	40.978
431.68	41.383
432.04	42.680
432.39	43.030
432.74	44.028
433.10	42.802
433.45	42.504
433.80	43.850
434.16	41.986
434.51	42.518
434.86	42.950
435.22	41.707
435.57	43.272
435.92	43.028
436.28	43.088
436.63	42.626
436.98	44.032
437.34	42.409
437.69	41.601
438.04	42.957
438.39	42.382
438.75	42.595
439.10	42.364
439.45	41.436
439.81	42.394
440.16	42.983
440.51	42.117
440.86	42.735
441.22	42.424
441.57	43.202
441.92	42.103
442.27	42.062
442.63	40.904
442.98	42.295
443.33	42.957
443.68	41.650
444.03	41.517
444.39	43.126
444.74	42.754
445.09	42.707
445.44	42.880
445.79	41.667
446.15	42.737
446.50	43.460
446.85	42.032
447.20	42.090
447.55	42.414
447.91	43.527
448.26	41.747
448.61	42.233
448.96	42.756
449.31	42.409
449.66	42.414
450.02	41.761
450.37	42.310
450.72	43.361
451.07	42.059
451.42	42.146
451.77	42.497
452.12	42.995
452.47	41.555
452.83	42.197
453.18	42.282
453.53	42.806
453.88	43.086
454.23	42.185
454.58	41.608
454.93	42.489
455.28	42.105
455.63	42.376
455.98	41.737
456.34	43.526
456.69	42.317
457.04	42.005
457.39	42.800
457.74	42.117
458.09	41.213
458.44	41.621
458.79	42.918
459.14	42.226
459.49	41.733
459.84	42.391
460.19	41.977
460.54	42.678
460.89	42.111
461.24	40.951
461.59	42.460
461.94	41.903
462.29	41.476
462.64	42.776
462.99	41.459
463.34	41.413
463.69	42.408
464.04	41.854
464.39	42.129
464.74	42.204
465.09	41.149
465.44	42.057
465.79	41.372
466.14	41.494
466.49	42.322
466.84	41.583
467.19	41.535
467.54	40.781
467.89	42.723
468.24	42.038
468.59	41.905
468.94	40.761
469.29	42.334
469.64	40.579
469.99	42.159
470.34	41.429
470.68	41.448
471.03	42.962
471.38	41.788
471.73	42.064
472.08	43.314
472.43	41.589
472.78	41.805
473.13	40.989
473.48	40.892
473.83	41.637
474.17	41.155
474.52	42.299
474.87	41.444
475.22	41.291
475.57	40.714
475.92	40.879
476.27	40.805
476.61	40.214
476.96	40.805
477.31	41.080
477.66	41.492
478.01	41.619
478.36	40.783
478.70	40.050
479.05	40.167
479.40	40.774
479.75	41.311
480.10	40.513
480.45	40.336
480.79	40.276
481.14	40.181
481.49	39.387
481.84	40.457
482.19	40.349
482.53	39.570
482.88	39.561
483.23	39.378
483.58	41.158
483.92	40.631
484.27	39.384
484.62	39.983
484.97	39.307
485.31	39.309
485.66	38.719
486.01	38.170
486.36	37.253
486.70	37.334
487.05	37.036
487.40	37.797
487.75	37.733
488.09	38.182
488.44	37.763
488.79	38.737
489.13	39.082
489.48	39.433
489.83	39.158
490.17	37.944
490.52	39.707
490.87	38.836
491.22	39.805
491.56	39.614
491.91	38.978
492.26	38.040
492.60	40.364
492.95	38.197
493.30	38.854
493.64	39.533
493.99	39.043
494.34	38.772
494.68	38.734
495.03	38.572
495.37	39.487
495.72	38.928
496.07	39.039
496.41	37.967
496.76	38.244
497.11	38.346
497.45	38.097
497.80	38.415
498.14	38.604
498.49	39.090
498.84	40.000
499.18	38.117
499.53	37.896
499.87	38.634
500.22	38.692
500.56	38.208
500.91	38.868
501.26	38.861
501.60	37.978
501.95	38.978
502.29	38.356
502.64	37.318
502.98	37.617
503.33	37.016
503.67	37.263
504.02	38.334
504.36	37.919
504.71	38.221
505.06	38.292
505.40	37.108
505.75	37.278
506.09	38.357
506.44	38.393
506.78	37.760
507.13	38.730
507.47	37.943
507.82	38.248
508.16	38.413
508.51	38.454
508.85	38.367
509.19	38.081
509.54	37.646
509.88	38.538
510.23	37.794
510.57	37.114
510.92	38.312
511.26	38.855
511.61	38.257
511.95	37.332
512.30	37.300
512.64	37.695
512.98	37.622
513.33	38.064
513.67	38.063
514.02	37.662
514.36	37.331
514.70	38.187
515.05	37.560
515.39	38.322
515.74	38.491
516.08	37.908
516.42	38.033
516.77	37.867
517.11	37.227
517.46	36.746
517.80	38.121
518.14	38.028
518.49	37.211
518.83	36.648
519.17	38.991
519.52	38.067
519.86	38.856
520.20	38.356
520.55	36.687
520.89	38.333
521.23	37.558
521.58	36.948
521.92	39.417
522.26	37.026
522.61	37.671
522.95	37.297
523.29	37.310
523.64	36.532
523.98	38.615
524.32	36.794
524.66	36.928
525.01	36.627
525.35	37.301
525.69	37.207
526.04	37.537
526.38	36.845
526.72	36.933
527.06	36.192
527.41	36.457
527.75	37.736
528.09	36.845
528.43	37.279
528.78	37.329
529.12	37.628
529.46	36.236
529.80	36.449
530.15	36.771
530.49	35.740
530.83	36.685
531.17	36.716
531.51	36.910
531.86	35.085
532.20	35.538
532.54	36.535
532.88	37.789
533.22	37.112
533.57	37.645
533.91	36.189
534.25	36.007
534.59	36.082
534.93	35.267
535.27	35.287
535.62	35.764
535.96	36.111
536.30	37.233
536.64	36.025
536.98	35.368
537.32	35.500
537.66	35.651
538.01	35.418
538.35	36.120
538.69	35.801
539.03	35.012
539.37	35.498
539.71	35.802
540.05	34.523
540.39	35.535
540.73	35.380
541.07	35.257
541.42	35.448
541.76	35.512
542.10	35.327
542.44	35.474
542.78	35.746
543.12	34.110
543.46	35.276
543.80	35.840
544.14	34.365
544.48	35.341
544.82	34.679
545.16	34.244
545.50	34.173
545.84	36.427
546.18	36.866
546.52	35.279
546.86	35.074
547.20	35.530
547.54	34.642
547.88	34.246
548.22	35.641
548.56	34.178
548.90	34.223
549.24	35.376
549.58	33.892
549.92	35.036
550.26	35.362
550.60	34.664
550.94	35.346
551.28	34.966
551.62	35.724
551.96	33.919
552.30	33.883
552.64	35.340
552.98	34.343
553.32	33.803
553.66	34.137
554.00	34.363
554.34	35.619
554.68	34.879
555.02	34.487
555.36	33.444
555.69	34.228
556.03	33.312
556.37	33.206
556.71	34.355
557.05	33.290
557.39	33.467
557.73	34.299
558.07	34.138
558.41	34.407
558.75	33.858
559.08	35.168
559.42	34.001
559.76	33.713
560.10	33.242
560.44	33.112
560.78	33.760
561.12	33.630
561.45	33.166
561.79	34.020
562.13	33.039
562.47	34.069
562.81	33.116
563.15	33.355
563.48	31.801
563.82	33.624
564.16	33.582
564.50	32.188
564.84	33.009
565.17	32.204
565.51	33.251
565.85	33.806
566.19	32.440
566.52	31.949
566.86	33.158
567.20	33.258
567.54	31.769
567.88	32.551
568.21	31.103
568.55	31.420
568.89	31.934
569.23	31.018
569.56	31.629
569.90	30.291
570.24	31.550
570.57	30.662
570.91	30.546
571.25	29.834
571.59	30.090
571.92	29.898
572.26	29.299
572.60	30.186
572.93	30.679
573.27	29.983
573.61	29.561
573.95	29.557
574.28	30.126
574.62	29.879
574.96	28.820
575.29	29.160
575.63	29.069
575.97	28.676
576.30	29.360
576.64	29.482
576.98	28.930
577.31	29.877
577.65	29.571
577.98	28.921
578.32	28.928
578.66	28.946
578.99	29.369
579.33	29.364
579.67	28.756
580.00	28.870
580.34	29.079
580.67	29.195
581.01	29.274
581.35	29.159
581.68	28.608
582.02	29.126
582.35	28.509
582.69	28.609
583.02	28.574
583.36	28.644
583.70	28.545
584.03	29.282
584.37	29.354
584.70	29.012
585.04	28.622
585.37	28.855
585.71	29.371
586.04	28.714
586.38	29.016
586.72	28.391
587.05	29.336
587.39	28.900
587.72	28.519
588.06	28.433
588.39	28.378
588.73	28.412
589.06	29.297
589.40	29.264
589.73	28.777
590.07	29.478
590.40	29.094
590.73	29.930
591.07	29.829
591.40	29.341
591.74	30.032
592.07	28.536
592.41	29.496
592.74	29.110
593.08	29.134
593.41	28.516
593.75	28.375
594.08	28.488
594.41	28.706
594.75	28.253
595.08	29.047
595.42	28.934
595.75	28.759
596.09	28.710
596.42	28.587
596.75	28.285
597.09	29.220
597.42	28.980
597.75	28.682
598.09	28.683
598.42	28.682
598.76	28.797
599.09	29.239
599.42	28.304
599.76	28.392
600.09	28.339
600.42	28.211
600.76	28.246
601.09	28.340
601.42	27.807
601.76	28.285
602.09	28.698
602.42	27.726
602.76	28.387
603.09	28.884
603.42	28.440
603.76	28.200
604.09	28.701
604.42	28.701
604.76	28.487
605.09	28.408
605.42	28.281
605.75	28.069
606.09	28.309
606.42	28.598
606.75	28.372
607.09	28.346
607.42	28.526
607.75	27.627
608.08	27.295
608.42	28.775
608.75	27.771
609.08	28.553
609.41	28.591
609.75	28.068
610.08	28.327
610.41	27.800
610.74	28.485
611.07	28.558
611.41	28.823
611.74	27.916
612.07	28.179
612.40	28.119
612.73	27.958
613.07	28.180
613.40	29.273
613.73	28.407
614.06	27.750
614.39	28.687
614.72	28.830
615.06	27.695
615.39	28.069
615.72	27.638
616.05	28.579
616.38	28.513
616.71	27.781
617.05	28.830
617.38	28.146
617.71	28.290
618.04	27.930
618.37	28.460
618.70	27.714
619.03	28.938
619.36	28.392
619.69	28.826
620.03	29.615
620.36	28.581
620.69	29.630
621.02	29.416
621.35	28.510
621.68	28.909
622.01	28.856
622.34	28.114
622.67	28.722
623.00	28.795
623.33	29.217
623.66	28.743
623.99	29.521
624.32	29.065
624.65	28.176
624.99	28.803
625.32	28.657
625.65	28.138
625.98	28.661
626.31	29.080
626.64	28.170
626.97	28.615
627.30	28.494
627.63	29.827
627.96	29.186
628.29	29.703
628.62	27.887
628.95	29.699
629.28	30.237
629.61	28.295
629.94	29.559
630.26	29.549
630.59	30.319
630.92	28.610
