SpectraSuite Data File
++++++++++++++++++++++++++++++++++++
Date: Wed May 13 21:50:18 PDT 2015
User: schluterlab
Dark Spectrum Present: Yes
Reference Spectrum Present: Yes
Number of Sampled Component Spectra: 1
Spectrometers: USB2E3373
Integration Time (usec): 3000 (USB2E3373)
Spectra Averaged: 3 (USB2E3373)
Boxcar Smoothing: 0 (USB2E3373)
Correct for Electrical Dark: No (USB2E3373)
Strobe/Lamp Enabled: No (USB2E3373)
Correct for Detector Non-linearity: No (USB2E3373)
Correct for Stray Light: No (USB2E3373)
Number of Pixels in Processed Spectrum: 2048
>>>>>Begin Processed Spectral Data<<<<<
178.53	0.000
178.91	150.000
179.29	175.000
179.67	-650.000
180.04	-433.333
180.42	220.000
180.80	1700.000
181.18	233.333
181.56	-375.000
181.94	-225.000
182.31	0.000
182.69	76.923
183.07	-200.000
183.45	333.333
183.83	88.889
184.20	242.857
184.58	-33.333
184.96	366.667
185.34	185.714
185.72	0.000
186.09	-1300.000
186.47	-280.000
186.85	-0.000
187.23	-300.000
187.61	300.000
187.98	1500.000
188.36	-37.500
188.74	0.000
189.12	-109.091
189.49	-20.000
189.87	108.333
190.25	480.000
190.63	1000.000
191.00	-180.000
191.38	300.000
191.76	325.000
192.14	158.333
192.51	-21.053
192.89	366.667
193.27	450.000
193.65	-160.000
194.02	172.727
194.40	200.000
194.78	-400.000
195.15	220.000
195.53	-160.000
195.91	-50.000
196.29	-400.000
196.66	0.000
197.04	650.000
197.42	-40.000
197.79	-70.000
198.17	-187.500
198.55	-433.333
198.92	125.000
199.30	-133.333
199.68	20.000
200.05	600.000
200.43	266.667
200.81	-1200.000
201.18	-340.000
201.56	-200.000
201.94	500.000
202.31	13.043
202.69	-42.857
203.07	-533.333
203.44	-140.000
203.82	-633.333
204.19	-70.000
204.57	0.000
204.95	-233.333
205.32	0.000
205.70	-450.000
206.08	-450.000
206.45	-100.000
206.83	500.000
207.20	-500.000
207.58	-120.000
207.96	-1200.000
208.33	-71.429
208.71	-1200.000
209.08	50.000
209.46	275.000
209.84	0.000
210.21	80.000
210.59	1100.000
210.96	200.000
211.34	1700.000
211.71	-750.000
212.09	-150.000
212.46	-120.000
212.84	-100.000
213.22	-200.000
213.59	-1200.000
213.97	-850.000
214.34	-400.000
214.72	23.077
215.09	237.500
215.47	188.889
215.84	1100.000
216.22	-112.500
216.59	-300.000
216.97	833.333
217.34	133.333
217.72	0.000
218.09	633.333
218.47	-400.000
218.84	-200.000
219.22	-150.000
219.59	-366.667
219.97	-300.000
220.34	-87.500
220.72	-20.000
221.09	0.000
221.47	0.000
221.84	-300.000
222.22	0.000
222.59	800.000
222.97	-266.667
223.34	-108.333
223.72	-600.000
224.09	-800.000
224.46	-72.727
224.84	-62.500
225.21	-85.714
225.59	-250.000
225.96	-116.667
226.34	-20.000
226.71	-71.429
227.08	850.000
227.46	-50.000
227.83	-500.000
228.21	-12.500
228.58	-325.000
228.95	-11.765
229.33	-43.750
229.70	-62.500
230.08	-38.462
230.45	-87.500
230.82	-83.333
231.20	114.286
231.57	-475.000
231.95	1600.000
232.32	-25.000
232.69	-35.294
233.07	-2400.000
233.44	-34.783
233.81	-400.000
234.19	0.000
234.56	6.667
234.93	-40.000
235.31	-5.263
235.68	-100.000
236.05	-76.923
236.43	-33.333
236.80	0.000
237.17	-26.667
237.55	23.529
237.92	-17.241
238.29	-7.407
238.67	-11.111
239.04	-22.581
239.41	0.000
239.79	2.128
240.16	6.977
240.53	5.357
240.91	7.143
241.28	7.143
241.65	17.742
242.02	13.158
242.40	30.435
242.77	5.797
243.14	23.077
243.51	13.830
243.89	15.385
244.26	19.811
244.63	12.500
245.00	23.958
245.38	20.168
245.75	27.869
246.12	27.820
246.49	11.382
246.87	21.849
247.24	26.351
247.61	21.854
247.98	21.154
248.36	21.893
248.73	16.292
249.10	22.222
249.47	21.505
249.84	25.263
250.22	26.368
250.59	25.234
250.96	23.636
251.33	16.746
251.70	24.268
252.08	23.013
252.45	26.337
252.82	27.376
253.19	22.957
253.56	21.942
253.94	29.181
254.31	23.239
254.68	25.503
255.05	24.752
255.42	24.476
255.79	26.380
256.16	25.868
256.54	25.079
256.91	20.570
257.28	26.101
257.65	24.204
258.02	21.114
258.39	25.146
258.76	23.547
259.14	24.716
259.51	23.034
259.88	25.474
260.25	28.056
260.62	25.281
260.99	27.056
261.36	26.943
261.73	25.926
262.10	27.735
262.47	27.160
262.85	25.622
263.22	24.872
263.59	26.753
263.96	27.251
264.33	25.481
264.70	26.744
265.07	25.694
265.44	30.345
265.81	25.400
266.18	28.246
266.55	26.201
266.92	26.907
267.29	25.103
267.66	27.813
268.03	27.778
268.40	23.941
268.77	28.306
269.14	24.082
269.51	26.694
269.88	23.218
270.25	25.636
270.62	26.025
270.99	27.756
271.36	25.198
271.73	27.108
272.10	23.238
272.47	26.296
272.84	26.772
273.21	27.202
273.58	25.205
273.95	26.226
274.32	25.373
274.69	26.958
275.06	27.739
275.43	26.930
275.80	24.823
276.17	24.309
276.54	25.577
276.91	26.132
277.28	23.466
277.65	25.699
278.02	26.786
278.39	24.334
278.76	25.920
279.13	24.528
279.50	27.586
279.87	25.000
280.23	26.847
280.60	27.682
280.97	26.136
281.34	27.918
281.71	25.854
282.08	26.154
282.45	26.066
282.82	25.240
283.19	26.524
283.56	26.563
283.92	25.382
284.29	25.429
284.66	27.183
285.03	25.081
285.40	24.018
285.77	26.276
286.14	24.316
286.51	27.886
286.87	25.077
287.24	24.041
287.61	24.096
287.98	24.559
288.35	23.249
288.72	25.968
289.08	26.211
289.45	23.789
289.82	26.778
290.19	24.123
290.56	23.011
290.93	21.961
291.29	22.572
291.66	23.770
292.03	22.343
292.40	21.803
292.77	23.427
293.13	22.594
293.50	24.052
293.87	23.600
294.24	21.296
294.60	22.757
294.97	23.148
295.34	21.108
295.71	22.339
296.08	20.288
296.44	22.321
296.81	21.072
297.18	23.875
297.55	22.642
297.91	21.242
298.28	22.276
298.65	20.320
299.02	21.856
299.38	22.822
299.75	19.952
300.12	19.535
300.48	21.053
300.85	19.746
301.22	20.790
301.59	21.479
301.95	19.164
302.32	21.937
302.69	19.209
303.05	19.491
303.42	20.114
303.79	20.715
304.15	21.687
304.52	21.720
304.89	20.930
305.25	19.210
305.62	19.957
305.99	20.131
306.35	20.585
306.72	19.939
307.09	21.689
307.45	19.702
307.82	21.368
308.19	20.063
308.55	21.085
308.92	21.709
309.29	21.021
309.65	21.179
310.02	20.676
310.38	21.341
310.75	20.020
311.12	22.060
311.48	21.958
311.85	21.949
312.22	23.017
312.58	22.609
312.95	23.184
313.31	22.498
313.68	21.756
314.05	24.008
314.41	22.863
314.78	24.099
315.14	21.759
315.51	24.167
315.87	23.818
316.24	24.702
316.61	25.297
316.97	25.370
317.34	24.421
317.70	26.048
318.07	25.998
318.43	26.558
318.80	25.480
319.16	26.172
319.53	27.330
319.89	26.739
320.26	28.189
320.62	27.155
320.99	27.519
321.35	28.344
321.72	29.644
322.08	30.258
322.45	30.342
322.81	29.482
323.18	29.070
323.54	30.866
323.91	31.075
324.27	31.053
324.64	29.878
325.00	31.496
325.37	32.167
325.73	31.145
326.10	31.876
326.46	33.110
326.83	33.576
327.19	33.171
327.56	34.166
327.92	33.146
328.29	34.891
328.65	33.830
329.01	34.741
329.38	34.435
329.74	33.906
330.11	34.175
330.47	33.767
330.84	34.477
331.20	34.500
331.56	35.598
331.93	34.798
332.29	36.924
332.66	34.661
333.02	34.579
333.38	35.614
333.75	34.300
334.11	34.549
334.48	36.356
334.84	34.717
335.20	34.220
335.57	35.509
335.93	34.794
336.29	35.639
336.66	34.957
337.02	35.391
337.38	34.465
337.75	34.109
338.11	34.159
338.47	34.161
338.84	35.223
339.20	35.979
339.56	35.666
339.93	34.399
340.29	33.903
340.65	35.843
341.02	34.110
341.38	36.486
341.74	33.025
342.11	36.086
342.47	35.397
342.83	34.804
343.20	35.448
343.56	35.159
343.92	35.418
344.28	34.984
344.65	35.510
345.01	33.818
345.37	36.020
345.73	35.539
346.10	34.912
346.46	35.285
346.82	35.152
347.19	34.335
347.55	34.572
347.91	34.996
348.27	34.227
348.63	34.776
349.00	34.670
349.36	35.793
349.72	33.333
350.08	33.697
350.45	35.709
350.81	35.603
351.17	35.335
351.53	34.014
351.89	34.551
352.26	33.205
352.62	34.341
352.98	35.942
353.34	34.783
353.70	36.059
354.07	34.039
354.43	34.370
354.79	35.176
355.15	36.180
355.51	34.624
355.87	35.496
356.24	35.233
356.60	34.089
356.96	34.689
357.32	34.288
357.68	36.058
358.04	34.833
358.40	35.349
358.77	34.251
359.13	35.331
359.49	35.276
359.85	33.738
360.21	34.773
360.57	35.133
360.93	35.053
361.29	35.751
361.66	36.295
362.02	34.470
362.38	34.638
362.74	34.010
363.10	34.779
363.46	34.582
363.82	36.364
364.18	34.735
364.54	34.209
364.90	34.843
365.26	34.536
365.62	34.801
365.98	35.018
366.35	35.319
366.71	34.522
367.07	35.365
367.43	35.331
367.79	35.441
368.15	35.302
368.51	34.318
368.87	34.822
369.23	34.093
369.59	35.025
369.95	35.486
370.31	34.658
370.67	34.540
371.03	35.709
371.39	35.415
371.75	35.143
372.11	34.615
372.47	34.463
372.83	34.882
373.19	35.540
373.55	35.043
373.91	34.724
374.27	33.887
374.63	34.922
374.99	34.401
375.35	35.342
375.71	34.986
376.07	35.915
376.42	35.695
376.78	35.205
377.14	36.475
377.50	35.398
377.86	35.126
378.22	34.387
378.58	34.678
378.94	36.312
379.30	36.415
379.66	34.155
380.02	34.681
380.38	34.578
380.74	35.266
381.09	34.982
381.45	35.973
381.81	35.983
382.17	34.342
382.53	34.769
382.89	35.585
383.25	36.111
383.61	35.835
383.97	34.875
384.32	34.216
384.68	35.904
385.04	34.392
385.40	35.928
385.76	35.949
386.12	35.507
386.48	35.172
386.83	34.668
387.19	35.534
387.55	35.500
387.91	35.670
388.27	35.635
388.62	35.331
388.98	35.857
389.34	36.090
389.70	35.165
390.06	35.500
390.42	35.374
390.77	36.003
391.13	35.354
391.49	34.535
391.85	35.399
392.20	34.649
392.56	35.238
392.92	35.284
393.28	34.863
393.64	36.758
393.99	34.272
394.35	34.630
394.71	34.744
395.07	33.459
395.42	35.405
395.78	34.170
396.14	34.940
396.50	35.574
396.85	36.138
397.21	35.643
397.57	34.410
397.92	33.832
398.28	34.518
398.64	33.940
399.00	34.877
399.35	34.279
399.71	35.236
400.07	34.217
400.42	35.361
400.78	34.924
401.14	33.906
401.49	33.313
401.85	34.521
402.21	35.356
402.57	34.580
402.92	35.294
403.28	34.897
403.63	33.664
403.99	33.397
404.35	33.978
404.70	33.958
405.06	34.880
405.42	34.171
405.77	34.274
406.13	34.286
406.49	34.572
406.84	34.066
407.20	34.103
407.55	34.740
407.91	34.216
408.27	32.626
408.62	34.991
408.98	33.909
409.34	33.911
409.69	34.568
410.05	33.396
410.40	33.658
410.76	33.454
411.11	34.080
411.47	35.435
411.83	33.624
412.18	33.060
412.54	33.772
412.89	33.480
413.25	33.333
413.60	33.793
413.96	33.770
414.31	34.834
414.67	34.857
415.03	34.100
415.38	33.554
415.74	33.788
416.09	34.633
416.45	34.723
416.80	33.490
417.16	33.873
417.51	34.762
417.87	34.259
418.22	33.872
418.58	33.509
418.93	34.526
419.29	34.719
419.64	33.461
420.00	34.730
420.35	33.772
420.71	33.943
421.06	34.071
421.42	35.341
421.77	34.277
422.12	34.327
422.48	34.624
422.83	35.027
423.19	34.963
423.54	35.100
423.90	34.264
424.25	35.586
424.61	35.059
424.96	35.009
425.31	34.212
425.67	34.685
426.02	33.569
426.38	35.012
426.73	34.453
427.09	35.084
427.44	34.175
427.79	35.214
428.15	35.168
428.50	34.562
428.85	35.055
429.21	33.877
429.56	35.388
429.92	35.450
430.27	34.560
430.62	35.414
430.98	36.224
431.33	35.895
431.68	35.996
432.04	34.704
432.39	34.873
432.74	35.009
433.10	35.793
433.45	35.444
433.80	35.862
434.16	34.681
434.51	35.598
434.86	36.867
435.22	36.333
435.57	35.749
435.92	35.887
436.28	35.375
436.63	35.970
436.98	36.016
437.34	36.935
437.69	36.068
438.04	34.975
438.39	36.301
438.75	36.293
439.10	36.032
439.45	35.412
439.81	35.899
440.16	36.174
440.51	36.266
440.86	36.277
441.22	36.259
441.57	37.093
441.92	36.910
442.27	36.742
442.63	37.621
442.98	35.995
443.33	36.005
443.68	35.213
444.03	36.314
444.39	36.440
444.74	37.714
445.09	35.022
445.44	36.563
445.79	36.448
446.15	36.439
446.50	36.399
446.85	35.863
447.20	36.958
447.55	36.486
447.91	36.067
448.26	35.963
448.61	36.536
448.96	36.162
449.31	36.836
449.66	36.206
450.02	37.067
450.37	36.486
450.72	36.510
451.07	35.862
451.42	36.432
451.77	37.188
452.12	36.423
452.47	36.217
452.83	36.616
453.18	37.110
453.53	36.066
453.88	36.928
454.23	35.909
454.58	35.784
454.93	36.562
455.28	37.508
455.63	36.806
455.98	38.284
456.34	36.618
456.69	36.038
457.04	35.913
457.39	37.823
457.74	36.625
458.09	37.085
458.44	36.310
458.79	36.079
459.14	35.730
459.49	37.622
459.84	36.471
460.19	35.234
460.54	36.253
460.89	36.937
461.24	36.683
461.59	36.473
461.94	37.105
462.29	36.336
462.64	37.269
462.99	37.357
463.34	38.260
463.69	37.049
464.04	35.414
464.39	36.852
464.74	35.811
465.09	36.082
465.44	36.251
465.79	36.343
466.14	36.089
466.49	37.654
466.84	36.820
467.19	36.433
467.54	37.589
467.89	37.398
468.24	37.246
468.59	36.456
468.94	36.973
469.29	35.426
469.64	37.029
469.99	36.828
470.34	36.480
470.68	36.877
471.03	36.671
471.38	36.648
471.73	36.831
472.08	37.045
472.43	36.478
472.78	37.255
473.13	35.488
473.48	36.269
473.83	35.782
474.17	37.500
474.52	36.828
474.87	36.429
475.22	35.990
475.57	37.702
475.92	36.369
476.27	35.781
476.61	36.523
476.96	37.122
477.31	36.516
477.66	37.175
478.01	36.209
478.36	36.076
478.70	36.412
479.05	37.236
479.40	37.129
479.75	36.823
480.10	36.614
480.45	36.439
480.79	37.033
481.14	37.133
481.49	37.839
481.84	36.569
482.19	36.174
482.53	36.952
482.88	35.858
483.23	35.900
483.58	36.106
483.92	36.770
484.27	36.185
484.62	35.952
484.97	36.831
485.31	36.568
485.66	35.059
486.01	36.071
486.36	36.147
486.70	37.631
487.05	37.529
487.40	37.204
487.75	37.066
488.09	36.972
488.44	36.768
488.79	36.980
489.13	35.109
489.48	36.640
489.83	36.534
490.17	36.768
490.52	36.886
490.87	35.883
491.22	37.918
491.56	37.374
491.91	36.918
492.26	36.702
492.60	36.604
492.95	36.540
493.30	36.095
493.64	36.019
493.99	37.005
494.34	37.139
494.68	36.468
495.03	36.413
495.37	36.545
495.72	37.093
496.07	35.801
496.41	36.500
496.76	36.700
497.11	36.854
497.45	36.625
497.80	36.749
498.14	37.733
498.49	36.359
498.84	37.045
499.18	36.784
499.53	36.731
499.87	36.536
500.22	38.079
500.56	37.111
500.91	37.173
501.26	36.749
501.60	36.667
501.95	37.422
502.29	37.184
502.64	37.898
502.98	36.175
503.33	37.226
503.67	37.731
504.02	37.059
504.36	37.395
504.71	37.449
505.06	37.596
505.40	37.629
505.75	37.386
506.09	37.506
506.44	36.744
506.78	37.481
507.13	36.798
507.47	36.903
507.82	37.206
508.16	37.045
508.51	36.983
508.85	36.910
509.19	37.407
509.54	37.105
509.88	37.151
510.23	36.895
510.57	37.129
510.92	37.500
511.26	37.569
511.61	37.980
511.95	37.817
512.30	37.535
512.64	38.309
512.98	37.839
513.33	37.690
513.67	37.195
514.02	37.514
514.36	37.135
514.70	37.067
515.05	38.327
515.39	37.795
515.74	36.945
516.08	36.637
516.42	36.290
516.77	36.321
517.11	36.802
517.46	38.655
517.80	38.801
518.14	37.048
518.49	37.251
518.83	37.112
519.17	37.952
519.52	37.394
519.86	38.191
520.20	36.507
520.55	37.313
520.89	37.761
521.23	38.269
521.58	38.432
521.92	36.141
522.26	36.825
522.61	37.298
522.95	37.953
523.29	36.762
523.64	38.017
523.98	38.945
524.32	37.618
524.66	37.857
525.01	38.794
525.35	38.249
525.69	37.111
526.04	37.264
526.38	37.731
526.72	38.067
527.06	36.686
527.41	37.326
527.75	37.116
528.09	39.278
528.43	37.924
528.78	37.145
529.12	37.387
529.46	37.812
529.80	37.994
530.15	36.744
530.49	37.871
530.83	37.576
531.17	38.767
531.51	38.301
531.86	36.856
532.20	38.939
532.54	37.517
532.88	38.870
533.22	37.576
533.57	37.748
533.91	38.710
534.25	38.672
534.59	37.709
534.93	37.372
535.27	37.134
535.62	38.618
535.96	38.386
536.30	38.165
536.64	36.842
536.98	37.071
537.32	37.794
537.66	38.999
538.01	38.488
538.35	36.809
538.69	36.589
539.03	36.242
539.37	36.955
539.71	36.698
540.05	36.640
540.39	36.545
540.73	37.779
541.07	36.531
541.42	37.845
541.76	37.145
542.10	36.154
542.44	37.076
542.78	37.821
543.12	38.073
543.46	36.904
543.80	37.407
544.14	37.853
544.48	37.027
544.82	37.458
545.16	38.066
545.50	37.812
545.84	37.728
546.18	36.185
546.52	37.332
546.86	36.396
547.20	37.813
547.54	37.455
547.88	38.124
548.22	36.743
548.56	36.624
548.90	37.415
549.24	37.847
549.58	37.438
549.92	39.618
550.26	39.041
550.60	37.613
550.94	37.836
551.28	37.245
551.62	38.045
551.96	38.433
552.30	36.827
552.64	36.935
552.98	38.494
553.32	38.212
553.66	38.225
554.00	37.437
554.34	37.875
554.68	38.330
555.02	37.575
555.36	37.670
555.69	37.291
556.03	37.098
556.37	38.407
556.71	37.421
557.05	37.638
557.39	38.206
557.73	36.838
558.07	38.206
558.41	38.834
558.75	37.567
559.08	36.407
559.42	38.474
559.76	37.232
560.10	37.971
560.44	38.762
560.78	38.489
561.12	38.542
561.45	37.279
561.79	37.345
562.13	38.397
562.47	38.929
562.81	38.312
563.15	38.669
563.48	36.958
563.82	37.756
564.16	37.508
564.50	38.535
564.84	38.108
565.17	37.616
565.51	38.369
565.85	37.175
566.19	38.411
566.52	37.615
566.86	36.662
567.20	38.302
567.54	37.536
567.88	37.178
568.21	37.425
568.55	37.820
568.89	37.338
569.23	37.672
569.56	36.921
569.90	37.270
570.24	36.895
570.57	37.291
570.91	37.716
571.25	36.720
571.59	37.072
571.92	37.254
572.26	37.363
572.60	37.542
572.93	37.082
573.27	36.562
573.61	37.403
573.95	37.441
574.28	37.020
574.62	36.732
574.96	37.426
575.29	37.362
575.63	36.960
575.97	37.690
576.30	36.977
576.64	37.752
576.98	37.311
577.31	36.966
577.65	36.536
577.98	36.954
578.32	37.188
578.66	36.775
578.99	37.606
579.33	37.106
579.67	37.271
580.00	37.068
580.34	36.840
580.67	37.874
581.01	37.057
581.35	36.944
581.68	36.759
582.02	36.973
582.35	37.394
582.69	37.082
583.02	37.460
583.36	37.762
583.70	37.696
584.03	37.503
584.37	37.077
584.70	37.443
585.04	37.998
585.37	37.740
585.71	37.024
586.04	37.393
586.38	37.885
586.72	37.173
587.05	38.776
587.39	37.605
587.72	37.660
588.06	37.921
588.39	37.699
588.73	37.515
589.06	37.892
589.40	37.393
589.73	37.837
590.07	37.769
590.40	37.486
590.73	38.574
591.07	38.195
591.40	37.957
591.74	38.284
592.07	38.339
592.41	38.996
592.74	38.117
593.08	37.709
593.41	38.118
593.75	38.566
594.08	38.100
594.41	38.501
594.75	38.568
595.08	37.603
595.42	37.366
595.75	37.889
596.09	38.106
596.42	38.358
596.75	38.394
597.09	38.399
597.42	38.537
597.75	38.578
598.09	37.887
598.42	38.658
598.76	37.867
599.09	39.056
599.42	38.708
599.76	39.204
600.09	38.140
600.42	38.569
600.76	38.064
601.09	38.456
601.42	37.868
601.76	37.413
602.09	38.306
602.42	38.919
602.76	38.171
603.09	38.111
603.42	38.984
603.76	38.075
604.09	38.972
604.42	38.552
604.76	38.106
605.09	38.695
605.42	38.866
605.75	37.645
606.09	38.907
606.42	38.820
606.75	37.965
607.09	38.475
607.42	38.573
607.75	37.593
608.08	38.413
608.42	39.128
608.75	38.796
609.08	39.294
609.41	38.500
609.75	37.721
610.08	38.067
610.41	38.727
610.74	38.547
611.07	39.128
611.41	39.150
611.74	38.665
612.07	37.467
612.40	39.946
612.73	38.364
613.07	39.135
613.40	39.207
613.73	39.166
614.06	39.193
614.39	39.022
614.72	39.756
615.06	39.111
615.39	39.073
615.72	38.391
616.05	39.189
616.38	39.061
616.71	38.512
617.05	40.049
617.38	38.447
617.71	38.419
618.04	38.635
618.37	39.748
618.70	39.263
619.03	38.144
619.36	38.577
619.69	38.889
620.03	38.092
620.36	38.900
620.69	37.473
621.02	38.385
621.35	38.675
621.68	38.794
622.01	39.159
622.34	40.523
622.67	38.215
623.00	39.514
623.33	38.594
623.66	37.918
623.99	39.985
624.32	39.252
624.65	39.540
624.99	39.236
625.32	40.254
625.65	39.070
625.98	39.494
626.31	39.265
626.64	38.521
626.97	38.322
627.30	39.350
627.63	39.273
627.96	36.537
628.29	40.837
628.62	38.878
628.95	38.978
629.28	40.493
629.61	39.043
629.94	39.942
630.26	40.296
630.59	39.361
630.92	37.952
631.25	38.723
631.58	39.829
631.91	38.388
632.24	38.749
