SpectraSuite Data File
++++++++++++++++++++++++++++++++++++
Date: Tue May 12 17:15:24 PDT 2015
User: schluterlab
Dark Spectrum Present: Yes
Reference Spectrum Present: Yes
Number of Sampled Component Spectra: 1
Spectrometers: USB2E3373
Integration Time (usec): 3000 (USB2E3373)
Spectra Averaged: 3 (USB2E3373)
Boxcar Smoothing: 0 (USB2E3373)
Correct for Electrical Dark: No (USB2E3373)
Strobe/Lamp Enabled: No (USB2E3373)
Correct for Detector Non-linearity: No (USB2E3373)
Correct for Stray Light: No (USB2E3373)
Number of Pixels in Processed Spectrum: 2048
>>>>>Begin Processed Spectral Data<<<<<
178.53	0.000
178.91	-225.000
179.29	-650.000
179.67	-3400.000
180.04	-166.667
180.42	950.000
180.80	1200.000
181.18	0.000
181.56	-300.000
181.94	0.000
182.31	1233.333
182.69	-2300.000
183.07	614.286
183.45	-3100.000
183.83	-1300.000
184.20	390.000
184.58	528.571
184.96	-238.462
185.34	-175.000
185.72	1650.000
186.09	-900.000
186.47	-1900.000
186.85	1200.000
187.23	560.000
187.61	1950.000
187.98	537.500
188.36	242.857
188.74	375.000
189.12	358.333
189.49	925.000
189.87	0.000
190.25	450.000
190.63	2700.000
191.00	-183.333
191.38	-3900.000
191.76	-625.000
192.14	587.500
192.51	-2500.000
192.89	1750.000
193.27	1066.667
193.65	-1200.000
194.02	-740.000
194.40	428.571
194.78	-207.143
195.15	206.667
195.53	-4000.000
195.91	-520.000
196.29	3500.000
196.66	225.000
197.04	700.000
197.42	-1600.000
197.79	800.000
198.17	341.667
198.55	0.000
198.92	514.286
199.30	1000.000
199.68	1250.000
200.05	616.667
200.43	-350.000
200.81	238.889
201.18	2600.000
201.56	216.667
201.94	-750.000
202.31	-262.500
202.69	-480.000
203.07	4100.000
203.44	-483.333
203.82	283.333
204.19	520.000
204.57	-1100.000
204.95	-700.000
205.32	-600.000
205.70	616.667
206.08	925.000
206.45	-933.333
206.83	366.667
207.20	189.474
207.58	258.333
207.96	620.000
208.33	0.000
208.71	485.714
209.08	500.000
209.46	-2400.000
209.84	-650.000
210.21	760.000
210.59	-360.000
210.96	258.333
211.34	-825.000
211.71	427.273
212.09	825.000
212.46	1750.000
212.84	-533.333
213.22	366.667
213.59	-2700.000
213.97	370.000
214.34	775.000
214.72	933.333
215.09	800.000
215.47	-3400.000
215.84	-340.000
216.22	-237.500
216.59	0.000
216.97	0.000
217.34	1750.000
217.72	-1450.000
218.09	1000.000
218.47	437.500
218.84	800.000
219.22	733.333
219.59	1166.667
219.97	571.429
220.34	400.000
220.72	1350.000
221.09	3800.000
221.47	258.333
221.84	866.667
222.22	300.000
222.59	211.111
222.97	178.571
223.34	193.750
223.72	-1700.000
224.09	1266.667
224.46	284.615
224.84	-825.000
225.21	366.667
225.59	293.333
225.96	1500.000
226.34	-680.000
226.71	-725.000
227.08	-400.000
227.46	0.000
227.83	-500.000
228.21	-1350.000
228.58	308.333
228.95	775.000
229.33	288.889
229.70	875.000
230.08	284.615
230.45	3900.000
230.82	-825.000
231.20	-866.667
231.57	-1233.333
231.95	420.000
232.32	241.667
232.69	400.000
233.07	291.667
233.44	-1050.000
233.81	246.667
234.19	144.444
234.56	181.250
234.93	164.706
235.31	170.000
235.68	231.250
236.05	132.143
236.43	114.815
236.80	214.286
237.17	120.690
237.55	90.625
237.92	107.500
238.29	100.000
238.67	75.000
239.04	80.488
239.41	45.833
239.79	70.000
240.16	77.083
240.53	63.934
240.91	62.319
241.28	57.627
241.65	50.000
242.02	57.746
242.40	52.857
242.77	35.165
243.14	39.241
243.51	37.374
243.89	21.495
244.26	33.645
244.63	31.683
245.00	28.440
245.38	22.881
245.75	21.970
246.12	34.815
246.49	26.950
246.87	20.492
247.24	20.667
247.61	25.625
247.98	24.490
248.36	19.394
248.73	25.510
249.10	17.262
249.47	16.000
249.84	19.403
250.22	21.081
250.59	17.500
250.96	19.409
251.33	16.744
251.70	19.196
252.08	16.387
252.45	15.139
252.82	14.449
253.19	14.229
253.56	9.615
253.94	16.304
254.31	13.178
254.68	13.240
255.05	14.828
255.42	14.234
255.79	12.052
256.16	14.237
256.54	15.909
256.91	13.399
257.28	14.047
257.65	7.837
258.02	9.735
258.39	14.613
258.76	12.174
259.14	10.000
259.51	13.703
259.88	10.638
260.25	10.714
260.62	12.603
260.99	11.570
261.36	8.914
261.73	10.904
262.10	11.257
262.47	11.000
262.85	9.333
263.22	11.311
263.59	11.765
263.96	10.526
264.33	9.877
264.70	11.302
265.07	9.756
265.44	10.092
265.81	9.906
266.18	10.297
266.55	8.038
266.92	9.396
267.29	10.526
267.66	9.193
268.03	7.623
268.40	9.937
268.77	11.454
269.14	10.195
269.51	10.022
269.88	10.000
270.25	6.479
270.62	8.798
270.99	11.765
271.36	10.569
271.73	6.499
272.10	6.667
272.47	7.937
272.84	7.385
273.21	9.298
273.58	11.538
273.95	9.035
274.32	11.089
274.69	9.843
275.06	8.561
275.43	8.621
275.80	8.491
276.17	10.478
276.54	10.654
276.91	8.582
277.28	10.219
277.65	8.672
278.02	8.640
278.39	6.475
278.76	8.621
279.13	8.897
279.50	7.818
279.87	6.704
280.23	4.972
280.60	7.299
280.97	8.276
281.34	7.426
281.71	8.696
282.08	9.573
282.45	5.743
282.82	7.525
283.19	9.221
283.56	8.264
283.92	7.329
284.29	7.987
284.66	7.227
285.03	9.121
285.40	3.802
285.77	6.327
286.14	7.895
286.51	7.822
286.87	6.171
287.24	5.556
287.61	7.143
287.98	8.507
288.35	6.222
288.72	6.222
289.08	8.108
289.45	8.384
289.82	7.500
290.19	7.321
290.56	7.278
290.93	6.906
291.29	5.939
291.66	5.791
292.03	7.013
292.40	7.046
292.77	5.014
293.13	5.991
293.50	6.478
293.87	5.420
294.24	6.154
294.60	7.133
294.97	8.671
295.34	6.242
295.71	6.702
296.08	7.600
296.44	7.116
296.81	7.320
297.18	5.323
297.55	6.773
297.91	5.419
298.28	6.522
298.65	5.399
299.02	6.031
299.38	8.034
299.75	6.098
300.12	6.078
300.48	7.963
300.85	6.555
301.22	5.698
301.59	5.778
301.95	5.718
302.32	6.403
302.69	6.787
303.05	6.397
303.42	6.278
303.79	6.392
304.15	4.730
304.52	4.968
304.89	5.757
305.25	6.229
305.62	6.610
305.99	4.565
306.35	5.895
306.72	6.348
307.09	5.797
307.45	5.385
307.82	6.173
308.19	6.186
308.55	5.400
308.92	6.477
309.29	7.495
309.65	6.145
310.02	6.592
310.38	5.683
310.75	5.689
311.12	6.322
311.48	7.046
311.85	6.202
312.22	7.163
312.58	5.734
312.95	5.340
313.31	5.993
313.68	5.816
314.05	7.967
314.41	5.493
314.78	6.061
315.14	6.919
315.51	6.717
315.87	6.022
316.24	7.190
316.61	6.893
316.97	5.046
317.34	6.739
317.70	6.058
318.07	7.651
318.43	7.206
318.80	6.655
319.16	6.381
319.53	7.080
319.89	5.824
320.26	6.983
320.62	7.418
320.99	7.626
321.35	6.494
321.72	7.590
322.08	7.110
322.45	6.812
322.81	6.130
323.18	6.927
323.54	8.362
323.91	8.250
324.27	7.427
324.64	5.969
325.00	7.586
325.37	7.083
325.73	6.998
326.10	8.036
326.46	7.762
326.83	6.880
327.19	8.514
327.56	7.668
327.92	8.115
328.29	9.083
328.65	8.476
329.01	8.554
329.38	8.376
329.74	7.344
330.11	8.341
330.47	9.633
330.84	8.110
331.20	8.206
331.56	9.240
331.93	7.870
332.29	6.973
332.66	8.333
333.02	6.873
333.38	7.155
333.75	7.923
334.11	7.886
334.48	7.436
334.84	8.193
335.20	7.699
335.57	8.060
335.93	7.738
336.29	7.794
336.66	8.919
337.02	7.613
337.38	8.942
337.75	7.770
338.11	8.101
338.47	7.451
338.84	8.467
339.20	7.706
339.56	8.158
339.93	7.441
340.29	6.891
340.65	8.215
341.02	8.930
341.38	7.800
341.74	7.641
342.11	6.260
342.47	6.645
342.83	8.532
343.20	8.569
343.56	6.275
343.92	7.762
344.28	7.576
344.65	8.313
345.01	7.778
345.37	6.971
345.73	7.778
346.10	7.331
346.46	7.895
346.82	6.790
347.19	7.419
347.55	7.182
347.91	6.647
348.27	6.429
348.63	7.437
349.00	6.702
349.36	6.381
349.72	7.492
350.08	7.298
350.45	7.235
350.81	7.875
351.17	7.088
351.53	6.236
351.89	6.915
352.26	6.576
352.62	7.466
352.98	7.745
353.34	7.935
353.70	6.422
354.07	7.077
354.43	6.759
354.79	5.619
355.15	6.891
355.51	6.949
355.87	6.777
356.24	7.236
356.60	6.773
356.96	6.444
357.32	6.858
357.68	7.195
358.04	7.371
358.40	7.646
358.77	7.213
359.13	6.231
359.49	6.746
359.85	6.999
360.21	5.572
360.57	7.153
360.93	7.287
361.29	6.421
361.66	7.308
362.02	6.179
362.38	6.133
362.74	7.502
363.10	6.311
363.46	6.077
363.82	7.433
364.18	7.041
364.54	6.223
364.90	7.831
365.26	6.731
365.62	6.354
365.98	6.263
366.35	5.448
366.71	6.940
367.07	7.167
367.43	6.716
367.79	5.918
368.15	5.970
368.51	5.651
368.87	6.046
369.23	6.168
369.59	6.541
369.95	6.503
370.31	5.270
370.67	6.662
371.03	6.933
371.39	6.994
371.75	6.001
372.11	6.254
372.47	6.849
372.83	6.254
373.19	6.854
373.55	6.667
373.91	5.110
374.27	6.481
374.63	6.237
374.99	7.143
375.35	5.914
375.71	6.464
376.07	6.300
376.42	5.499
376.78	6.230
377.14	6.356
377.50	5.493
377.86	5.381
378.22	5.850
378.58	6.174
378.94	6.397
379.30	5.276
379.66	6.141
380.02	6.862
380.38	5.328
380.74	6.401
381.09	6.542
381.45	5.607
381.81	5.733
382.17	5.556
382.53	5.219
382.89	5.736
383.25	5.151
383.61	5.937
383.97	5.939
384.32	5.787
384.68	6.239
385.04	5.627
385.40	5.991
385.76	5.968
386.12	5.690
386.48	5.593
386.83	5.196
387.19	5.595
387.55	5.595
387.91	6.524
388.27	5.175
388.62	5.458
388.98	5.948
389.34	5.354
389.70	4.953
390.06	5.549
390.42	5.984
390.77	5.774
391.13	5.975
391.49	5.808
391.85	5.354
392.20	5.781
392.56	6.392
392.92	4.997
393.28	5.101
393.64	4.874
393.99	5.335
394.35	4.768
394.71	5.187
395.07	5.474
395.42	4.977
395.78	5.367
396.14	5.422
396.50	4.813
396.85	5.610
397.21	4.573
397.57	5.140
397.92	4.968
398.28	5.074
398.64	6.050
399.00	4.917
399.35	4.240
399.71	4.912
400.07	4.623
400.42	4.418
400.78	5.044
401.14	5.402
401.49	4.839
401.85	5.736
402.21	3.866
402.57	5.027
402.92	4.970
403.28	4.594
403.63	5.238
403.99	4.825
404.35	5.334
404.70	5.375
405.06	4.492
405.42	5.027
405.77	5.072
406.13	5.369
406.49	4.719
406.84	5.189
407.20	5.479
407.55	4.923
407.91	4.722
408.27	4.791
408.62	4.849
408.98	5.027
409.34	4.325
409.69	4.667
410.05	4.830
410.40	4.535
410.76	4.751
411.11	4.562
411.47	5.123
411.83	4.569
412.18	4.529
412.54	4.565
412.89	4.779
413.25	5.017
413.60	4.965
413.96	4.428
414.31	4.782
414.67	5.525
415.03	5.492
415.38	5.047
415.74	5.243
416.09	4.747
416.45	6.141
416.80	5.581
417.16	5.029
417.51	4.777
417.87	4.944
418.22	4.921
418.58	5.032
418.93	4.581
419.29	3.882
419.64	5.391
420.00	5.251
420.35	4.472
420.71	5.076
421.06	4.238
421.42	4.433
421.77	5.330
422.12	4.465
422.48	4.468
422.83	5.078
423.19	4.644
423.54	4.334
423.90	4.643
424.25	4.898
424.61	4.991
424.96	4.404
425.31	4.981
425.67	4.433
426.02	4.767
426.38	4.667
426.73	4.743
427.09	5.042
427.44	4.389
427.79	4.174
428.15	4.832
428.50	5.143
428.85	5.526
429.21	4.862
429.56	5.234
429.92	4.923
430.27	4.354
430.62	4.552
430.98	4.591
431.33	3.881
431.68	4.000
432.04	4.242
432.39	5.049
432.74	4.859
433.10	4.651
433.45	4.825
433.80	5.847
434.16	4.204
434.51	4.696
434.86	5.661
435.22	4.160
435.57	4.861
435.92	5.293
436.28	5.127
436.63	4.538
436.98	4.842
437.34	5.251
437.69	4.479
438.04	5.484
438.39	5.196
438.75	5.512
439.10	5.019
439.45	4.635
439.81	4.916
440.16	5.559
440.51	5.124
440.86	5.128
441.22	5.303
441.57	5.249
441.92	4.837
442.27	4.845
442.63	5.183
442.98	4.795
443.33	5.196
443.68	5.533
444.03	5.467
444.39	4.896
444.74	4.503
445.09	4.581
445.44	5.207
445.79	5.312
446.15	4.947
446.50	4.852
446.85	5.378
447.20	5.373
447.55	4.948
447.91	5.061
448.26	5.059
448.61	5.030
448.96	5.610
449.31	5.281
449.66	5.482
450.02	5.619
450.37	5.219
450.72	5.399
451.07	5.876
451.42	5.453
451.77	5.556
452.12	5.445
452.47	5.711
452.83	5.577
453.18	5.826
453.53	5.388
453.88	5.714
454.23	6.217
454.58	5.361
454.93	5.579
455.28	5.692
455.63	5.496
455.98	5.076
456.34	6.079
456.69	5.671
457.04	6.265
457.39	5.543
457.74	6.137
458.09	5.166
458.44	6.188
458.79	5.199
459.14	4.855
459.49	5.719
459.84	5.435
460.19	5.876
460.54	6.097
460.89	5.224
461.24	6.415
461.59	6.122
461.94	5.378
462.29	6.350
462.64	5.967
462.99	5.502
463.34	6.805
463.69	6.655
464.04	6.218
464.39	5.781
464.74	5.569
465.09	5.804
465.44	5.713
465.79	5.171
466.14	5.617
466.49	5.263
466.84	6.020
467.19	6.385
467.54	5.706
467.89	6.514
468.24	5.790
468.59	5.417
468.94	6.341
469.29	6.597
469.64	6.302
469.99	6.170
470.34	6.325
470.68	5.931
471.03	6.471
471.38	5.762
471.73	6.074
472.08	6.262
472.43	5.773
472.78	6.850
473.13	5.006
473.48	6.112
473.83	5.595
474.17	5.957
474.52	6.754
474.87	5.344
475.22	6.339
475.57	6.401
475.92	5.212
476.27	5.441
476.61	5.737
476.96	5.538
477.31	5.758
477.66	6.495
478.01	6.034
478.36	5.510
478.70	5.608
479.05	4.655
479.40	6.300
479.75	5.412
480.10	5.760
480.45	5.415
480.79	5.991
481.14	4.993
481.49	5.352
481.84	5.761
482.19	5.546
482.53	5.841
482.88	5.332
483.23	5.232
483.58	4.982
483.92	5.987
484.27	5.394
484.62	5.263
484.97	5.181
485.31	5.058
485.66	4.692
486.01	4.520
486.36	4.195
486.70	4.143
487.05	4.731
487.40	4.772
487.75	4.901
488.09	5.057
488.44	4.748
488.79	4.825
489.13	5.226
489.48	5.473
489.83	5.171
490.17	4.872
490.52	5.599
490.87	6.121
491.22	5.275
491.56	6.324
491.91	5.018
492.26	5.612
492.60	5.786
492.95	5.709
493.30	6.233
493.64	5.885
493.99	5.769
494.34	4.841
494.68	5.356
495.03	5.254
495.37	5.943
495.72	5.828
496.07	5.301
496.41	5.864
496.76	5.867
497.11	5.870
497.45	5.831
497.80	5.746
498.14	5.964
498.49	5.803
498.84	5.841
499.18	6.079
499.53	6.109
499.87	5.121
500.22	5.758
500.56	5.339
500.91	6.447
501.26	6.982
501.60	5.783
501.95	5.600
502.29	5.689
502.64	6.131
502.98	5.602
503.33	5.657
503.67	5.784
504.02	5.374
504.36	5.882
504.71	6.008
505.06	5.772
505.40	5.194
505.75	5.613
506.09	6.580
506.44	6.297
506.78	5.718
507.13	6.253
507.47	5.968
507.82	6.521
508.16	6.663
508.51	5.894
508.85	6.268
509.19	5.678
509.54	6.152
509.88	6.067
510.23	6.029
510.57	6.226
510.92	6.294
511.26	6.576
511.61	6.007
511.95	6.421
512.30	6.400
512.64	5.763
512.98	6.304
513.33	6.557
513.67	6.214
514.02	6.390
514.36	5.659
514.70	6.080
515.05	6.074
515.39	6.195
515.74	6.670
516.08	6.100
516.42	6.831
516.77	6.560
517.11	6.347
517.46	6.519
517.80	5.844
518.14	6.535
518.49	6.284
518.83	5.824
519.17	6.600
519.52	6.445
519.86	6.267
520.20	7.233
520.55	6.444
520.89	7.126
521.23	6.834
521.58	6.139
521.92	6.997
522.26	6.576
522.61	6.833
522.95	6.486
523.29	6.491
523.64	5.376
523.98	6.749
524.32	6.459
524.66	6.493
525.01	6.036
525.35	7.012
525.69	6.683
526.04	7.020
526.38	6.298
526.72	6.504
527.06	6.150
527.41	7.134
527.75	6.999
528.09	6.442
528.43	6.772
528.78	6.738
529.12	6.863
529.46	6.663
529.80	6.484
530.15	6.246
530.49	5.836
530.83	7.313
531.17	6.704
531.51	6.499
531.86	6.703
532.20	6.489
532.54	6.968
532.88	6.558
533.22	7.313
533.57	6.711
533.91	6.235
534.25	6.290
534.59	6.257
534.93	6.712
535.27	5.635
535.62	6.243
535.96	6.206
536.30	7.434
536.64	6.025
536.98	6.419
537.32	7.688
537.66	6.633
538.01	6.625
538.35	7.049
538.69	6.614
539.03	7.214
539.37	6.796
539.71	6.790
540.05	7.262
540.39	6.038
540.73	5.823
541.07	6.148
541.42	6.157
541.76	6.473
542.10	5.919
542.44	6.484
542.78	6.545
543.12	6.258
543.46	6.454
543.80	6.704
544.14	7.307
544.48	6.509
544.82	6.361
545.16	5.768
545.50	6.699
545.84	7.386
546.18	7.347
546.52	6.623
546.86	6.963
547.20	7.041
547.54	7.536
547.88	6.022
548.22	6.557
548.56	6.718
548.90	7.117
549.24	6.570
549.58	6.894
549.92	7.138
550.26	6.423
550.60	7.119
550.94	6.513
551.28	6.966
551.62	7.586
551.96	6.892
552.30	5.603
552.64	7.249
552.98	6.637
553.32	6.466
553.66	7.101
554.00	6.628
554.34	7.390
554.68	7.527
555.02	6.993
555.36	7.114
555.69	7.853
556.03	6.879
556.37	7.330
556.71	6.845
557.05	5.111
557.39	6.400
557.73	6.873
558.07	6.908
558.41	6.443
558.75	7.250
559.08	7.291
559.42	6.943
559.76	7.484
560.10	7.089
560.44	6.967
560.78	7.545
561.12	6.294
561.45	6.571
561.79	6.492
562.13	6.128
562.47	6.230
562.81	6.897
563.15	6.787
563.48	6.149
563.82	6.987
564.16	7.027
564.50	6.992
564.84	6.626
565.17	6.892
565.51	6.589
565.85	6.848
566.19	5.952
566.52	6.017
566.86	6.713
567.20	7.135
567.54	5.786
567.88	6.051
568.21	5.841
568.55	6.420
568.89	6.113
569.23	6.040
569.56	5.751
569.90	5.570
570.24	5.622
570.57	5.775
570.91	5.491
571.25	5.546
571.59	5.189
571.92	4.925
572.26	4.879
572.60	5.110
572.93	5.233
573.27	5.342
573.61	5.089
573.95	5.179
574.28	5.259
574.62	4.774
574.96	4.905
575.29	4.958
575.63	4.971
575.97	4.747
576.30	4.986
576.64	4.914
576.98	4.644
577.31	5.263
577.65	5.019
577.98	4.907
578.32	4.637
578.66	4.685
578.99	4.930
579.33	4.691
579.67	5.077
580.00	5.068
580.34	4.694
580.67	4.855
581.01	5.179
581.35	4.711
581.68	4.738
582.02	4.702
582.35	4.534
582.69	4.893
583.02	4.867
583.36	5.104
583.70	5.096
584.03	4.947
584.37	5.578
584.70	5.250
585.04	5.139
585.37	4.892
585.71	5.124
586.04	5.223
586.38	5.004
586.72	5.277
587.05	5.430
587.39	5.234
587.72	5.367
588.06	5.314
588.39	5.143
588.73	5.366
589.06	4.990
589.40	5.634
589.73	5.605
590.07	5.491
590.40	6.202
590.73	6.610
591.07	6.300
591.40	5.828
591.74	6.047
592.07	5.075
592.41	6.035
592.74	5.822
593.08	5.339
593.41	5.206
593.75	5.095
594.08	5.913
594.41	5.833
594.75	5.548
595.08	5.727
595.42	5.629
595.75	5.824
596.09	5.527
596.42	6.009
596.75	6.490
597.09	6.232
597.42	5.714
597.75	5.396
598.09	5.786
598.42	5.753
598.76	6.168
599.09	6.032
599.42	6.021
599.76	6.242
600.09	5.661
600.42	5.663
600.76	5.065
601.09	5.730
601.42	5.808
601.76	5.514
602.09	6.181
602.42	5.989
602.76	5.882
603.09	5.581
603.42	6.128
603.76	5.712
604.09	5.755
604.42	5.763
604.76	6.085
605.09	5.714
605.42	5.892
605.75	6.001
606.09	5.777
606.42	6.238
606.75	5.791
607.09	6.001
607.42	5.665
607.75	5.693
608.08	5.605
608.42	5.872
608.75	5.691
609.08	5.719
609.41	6.182
609.75	6.456
610.08	6.295
610.41	5.797
610.74	6.017
611.07	6.230
611.41	6.580
611.74	6.214
612.07	6.021
612.40	6.481
612.73	6.790
613.07	6.538
613.40	5.915
613.73	6.191
614.06	6.100
614.39	6.364
614.72	6.278
615.06	6.133
615.39	6.139
615.72	5.954
616.05	5.977
616.38	6.697
616.71	6.348
617.05	6.645
617.38	5.787
617.71	6.468
618.04	6.169
618.37	6.003
618.70	6.120
619.03	6.166
619.36	7.224
619.69	6.794
620.03	7.175
620.36	6.358
620.69	7.535
621.02	7.065
621.35	6.662
621.68	7.227
622.01	7.897
622.34	6.482
622.67	7.233
623.00	7.284
623.33	7.152
623.66	6.587
623.99	6.438
624.32	6.978
624.65	7.110
624.99	6.356
625.32	6.079
625.65	6.138
625.98	5.997
626.31	7.344
626.64	6.530
626.97	7.192
627.30	6.444
627.63	7.614
627.96	6.729
628.29	6.931
628.62	6.672
628.95	7.535
629.28	8.326
629.61	7.118
629.94	7.606
630.26	8.146
630.59	8.333
630.92	8.251
631.25	7.978
631.58	7.522
631.91	8.183
632.24	6.803
632.57	7.171
632.90	9.731
633.23	7.975
633.56	8.008
633.89	8.467
634.22	8.181
634.55	7.204
634.88	8.981
635.20	8.520
635.53	8.246
635.86	8.277
636.19	8.642
636.52	7.351
636.85	7.120
637.18	9.209
637.51	8.156
637.83	8.581
638.16	9.496
638.49	8.623
638.82	8.803
639.15	8.226
639.48	9.005
639.81	8.303
640.13	8.344
640.46	9.102
640.79	8.062
641.12	7.612
641.45	9.961
641.77	9.247
642.10	8.969
642.43	10.100
642.76	8.807
643.09	7.493
643.41	8.976
643.74	10.360
644.07	10.029
644.40	8.728
644.73	11.261
645.05	11.738
645.38	9.035
645.71	10.319
646.04	9.771
646.36	9.546
646.69	9.120
647.02	8.640
647.35	8.661
647.67	9.724
648.00	9.446
648.33	11.278
648.66	10.000
648.98	7.101
649.31	7.962
649.64	7.884
649.96	8.108
650.29	8.714
650.62	10.162
650.94	11.295
651.27	11.005
651.60	9.390
651.92	10.138
652.25	9.291
652.58	9.787
652.90	7.784
653.23	9.897
653.56	10.386
653.88	8.957
654.21	8.944
654.54	9.663
654.86	8.260
655.19	8.971
