SpectraSuite Data File
++++++++++++++++++++++++++++++++++++
Date: Tue May 12 17:24:26 PDT 2015
User: schluterlab
Dark Spectrum Present: Yes
Reference Spectrum Present: Yes
Number of Sampled Component Spectra: 1
Spectrometers: USB2E3373
Integration Time (usec): 3000 (USB2E3373)
Spectra Averaged: 3 (USB2E3373)
Boxcar Smoothing: 0 (USB2E3373)
Correct for Electrical Dark: No (USB2E3373)
Strobe/Lamp Enabled: No (USB2E3373)
Correct for Detector Non-linearity: No (USB2E3373)
Correct for Stray Light: No (USB2E3373)
Number of Pixels in Processed Spectrum: 2048
>>>>>Begin Processed Spectral Data<<<<<
178.53	0.000
178.91	-241.667
179.29	-675.000
179.67	-4200.000
180.04	-120.000
180.42	550.000
180.80	1150.000
181.18	0.000
181.56	-312.500
181.94	0.000
182.31	1166.667
182.69	-2500.000
183.07	514.286
183.45	-3500.000
183.83	-1400.000
184.20	340.000
184.58	500.000
184.96	-261.538
185.34	-175.000
185.72	1800.000
186.09	-775.000
186.47	-3700.000
186.85	1100.000
187.23	640.000
187.61	1400.000
187.98	562.500
188.36	271.429
188.74	258.333
189.12	333.333
189.49	950.000
189.87	0.000
190.25	500.000
190.63	2200.000
191.00	-216.667
191.38	-3600.000
191.76	-650.000
192.14	575.000
192.51	-2800.000
192.89	1400.000
193.27	1100.000
193.65	-1066.667
194.02	-740.000
194.40	614.286
194.78	-207.143
195.15	300.000
195.53	-3600.000
195.91	-380.000
196.29	4000.000
196.66	181.250
197.04	550.000
197.42	-1250.000
197.79	450.000
198.17	275.000
198.55	0.000
198.92	485.714
199.30	1033.333
199.68	2150.000
200.05	700.000
200.43	-350.000
200.81	183.333
201.18	3800.000
201.56	250.000
201.94	-575.000
202.31	-350.000
202.69	-500.000
203.07	3300.000
203.44	-500.000
203.82	300.000
204.19	500.000
204.57	-1600.000
204.95	-900.000
205.32	-780.000
205.70	516.667
206.08	675.000
206.45	-733.333
206.83	322.222
207.20	157.895
207.58	266.667
207.96	640.000
208.33	0.000
208.71	571.429
209.08	800.000
209.46	-3100.000
209.84	-800.000
210.21	760.000
210.59	-640.000
210.96	258.333
211.34	-900.000
211.71	381.818
212.09	1050.000
212.46	1700.000
212.84	-416.667
213.22	400.000
213.59	-2900.000
213.97	450.000
214.34	925.000
214.72	1166.667
215.09	900.000
215.47	-1900.000
215.84	-280.000
216.22	-350.000
216.59	0.000
216.97	0.000
217.34	1900.000
217.72	-1200.000
218.09	1133.333
218.47	412.500
218.84	850.000
219.22	900.000
219.59	1300.000
219.97	571.429
220.34	411.111
220.72	1800.000
221.09	3500.000
221.47	241.667
221.84	1266.667
222.22	440.000
222.59	261.111
222.97	164.286
223.34	281.250
223.72	-1950.000
224.09	766.667
224.46	323.077
224.84	-600.000
225.21	433.333
225.59	286.667
225.96	1300.000
226.34	-720.000
226.71	-700.000
227.08	-520.000
227.46	0.000
227.83	-583.333
228.21	-1450.000
228.58	383.333
228.95	1125.000
229.33	388.889
229.70	925.000
230.08	338.462
230.45	3700.000
230.82	-825.000
231.20	-833.333
231.57	-966.667
231.95	560.000
232.32	291.667
232.69	533.333
233.07	333.333
233.44	-1850.000
233.81	206.667
234.19	170.370
234.56	206.250
234.93	176.471
235.31	225.000
235.68	312.500
236.05	153.571
236.43	166.667
236.80	292.857
237.17	165.517
237.55	109.375
237.92	147.500
238.29	163.636
238.67	168.750
239.04	129.268
239.41	116.667
239.79	112.500
240.16	131.250
240.53	85.246
240.91	95.652
241.28	106.780
241.65	83.333
242.02	90.141
242.40	90.000
242.77	83.516
243.14	87.342
243.51	94.949
243.89	77.570
244.26	73.832
244.63	80.198
245.00	76.147
245.38	68.644
245.75	68.939
246.12	73.333
246.49	71.631
246.87	70.492
247.24	70.000
247.61	66.250
247.98	74.150
248.36	67.273
248.73	66.837
249.10	64.881
249.47	63.500
249.84	52.736
250.22	67.027
250.59	63.000
250.96	57.384
251.33	57.209
251.70	57.589
252.08	59.244
252.45	58.566
252.82	58.935
253.19	54.941
253.56	61.154
253.94	53.623
254.31	59.302
254.68	54.007
255.05	60.690
255.42	57.664
255.79	57.329
256.16	62.034
256.54	58.442
256.91	54.575
257.28	60.201
257.65	53.918
258.02	56.637
258.39	53.582
258.76	55.942
259.14	53.714
259.51	59.475
259.88	59.574
260.25	53.022
260.62	56.712
260.99	54.270
261.36	53.203
261.73	53.989
262.10	57.592
262.47	54.250
262.85	57.333
263.22	53.213
263.59	52.685
263.96	55.890
264.33	50.617
264.70	56.757
265.07	53.415
265.44	54.817
265.81	51.179
266.18	54.462
266.55	54.374
266.92	51.454
267.29	51.535
267.66	53.139
268.03	53.812
268.40	52.854
268.77	51.322
269.14	51.627
269.51	51.448
269.88	51.633
270.25	51.404
270.62	53.219
270.99	50.710
271.36	53.049
271.73	52.411
272.10	50.707
272.47	51.587
272.84	51.297
273.21	50.826
273.58	50.405
273.95	53.183
274.32	50.584
274.69	50.394
275.06	49.362
275.43	52.107
275.80	51.321
276.17	49.081
276.54	49.907
276.91	50.746
277.28	49.270
277.65	50.185
278.02	47.610
278.39	49.640
278.76	50.000
279.13	50.178
279.50	52.909
279.87	50.466
280.23	50.460
280.60	51.825
280.97	49.655
281.34	49.340
281.71	49.565
282.08	49.915
282.45	48.142
282.82	47.659
283.19	46.582
283.56	46.281
283.92	49.511
284.29	46.589
284.66	45.378
285.03	49.420
285.40	45.950
285.77	43.981
286.14	46.440
286.51	46.779
286.87	43.987
287.24	43.994
287.61	45.897
287.98	44.328
288.35	43.852
288.72	46.131
289.08	44.745
289.45	42.378
289.82	46.250
290.19	44.510
290.56	43.086
290.93	42.878
291.29	42.127
291.66	41.949
292.03	44.320
292.40	41.463
292.77	41.365
293.13	41.797
293.50	41.430
293.87	39.837
294.24	40.979
294.60	40.242
294.97	39.860
295.34	39.044
295.71	38.108
296.08	40.400
296.44	37.357
296.81	37.717
297.18	38.023
297.55	39.039
297.91	38.177
298.28	36.715
298.65	37.791
299.02	36.791
299.38	37.530
299.75	36.951
300.12	36.468
300.48	35.480
300.85	38.141
301.22	36.163
301.59	35.967
301.95	36.523
302.32	36.903
302.69	36.765
303.05	37.710
303.42	34.978
303.79	37.378
304.15	36.524
304.52	35.095
304.89	35.714
305.25	35.150
305.62	35.608
305.99	36.196
306.35	34.842
306.72	35.068
307.09	36.025
307.45	36.431
307.82	34.774
308.19	36.598
308.55	34.900
308.92	37.488
309.29	38.363
309.65	36.075
310.02	37.323
310.38	35.593
310.75	35.391
311.12	38.027
311.48	39.286
311.85	38.073
312.22	38.013
312.58	38.290
312.95	39.417
313.31	38.858
313.68	39.869
314.05	39.377
314.41	39.479
314.78	40.436
315.14	43.886
315.51	43.141
315.87	41.606
316.24	43.044
316.61	44.763
316.97	43.211
317.34	45.373
317.70	44.601
318.07	45.641
318.43	47.188
318.80	48.424
319.16	47.552
319.53	47.876
319.89	48.746
320.26	51.210
320.62	50.641
320.99	50.906
321.35	50.928
321.72	53.226
322.08	52.909
322.45	53.406
322.81	54.437
323.18	57.282
323.54	57.578
323.91	58.749
324.27	60.477
324.64	59.862
325.00	62.241
325.37	61.551
325.73	63.659
326.10	64.623
326.46	64.162
326.83	64.480
327.19	66.827
327.56	65.176
327.92	67.623
328.29	67.512
328.65	67.551
329.01	68.606
329.38	70.051
329.74	68.745
330.11	71.590
330.47	69.991
330.84	68.594
331.20	70.135
331.56	72.107
331.93	72.541
332.29	73.384
332.66	73.724
333.02	70.876
333.38	73.037
333.75	72.644
334.11	71.896
334.48	74.615
334.84	72.128
335.20	73.139
335.57	72.124
335.93	72.666
336.29	71.808
336.66	74.957
337.02	74.337
337.38	72.313
337.75	75.591
338.11	74.852
338.47	73.582
338.84	73.751
339.20	74.372
339.56	72.750
339.93	74.331
340.29	72.521
340.65	74.686
341.02	73.693
341.38	72.578
341.74	75.415
342.11	75.626
342.47	74.323
342.83	75.964
343.20	73.888
343.56	73.550
343.92	75.723
344.28	74.561
344.65	76.039
345.01	72.063
345.37	74.119
345.73	75.397
346.10	73.227
346.46	76.156
346.82	73.611
347.19	74.498
347.55	73.224
347.91	73.187
348.27	74.129
348.63	75.079
349.00	74.943
349.36	77.276
349.72	75.459
350.08	74.534
350.45	74.334
350.81	75.076
351.17	75.501
351.53	75.443
351.89	73.815
352.26	74.225
352.62	74.661
352.98	74.310
353.34	75.039
353.70	73.700
354.07	76.308
354.43	74.424
354.79	72.969
355.15	75.574
355.51	74.622
355.87	74.096
356.24	74.981
356.60	74.505
356.96	74.375
357.32	75.057
357.68	75.477
358.04	75.608
358.40	74.663
358.77	76.033
359.13	75.450
359.49	73.684
359.85	75.652
360.21	74.517
360.57	74.818
360.93	75.541
361.29	75.036
361.66	77.330
362.02	74.929
362.38	76.479
362.74	76.008
363.10	76.157
363.46	74.931
363.82	75.035
364.18	75.533
364.54	74.535
364.90	76.037
365.26	75.642
365.62	77.003
365.98	75.705
366.35	74.690
366.71	75.920
367.07	75.836
367.43	75.084
367.79	75.798
368.15	73.881
368.51	77.326
368.87	76.155
369.23	74.844
369.59	75.320
369.95	76.084
370.31	75.359
370.67	74.393
371.03	75.210
371.39	76.870
371.75	76.692
372.11	75.731
372.47	75.274
372.83	76.751
373.19	76.422
373.55	76.495
373.91	76.105
374.27	75.066
374.63	74.847
374.99	77.628
375.35	77.218
375.71	76.253
376.07	77.056
376.42	75.384
376.78	75.787
377.14	75.033
377.50	76.155
377.86	76.874
378.22	76.173
378.58	77.542
378.94	76.222
379.30	75.743
379.66	76.942
380.02	77.302
380.38	77.049
380.74	77.451
381.09	76.928
381.45	75.434
381.81	75.355
382.17	75.641
382.53	76.665
382.89	77.824
383.25	76.732
383.61	76.023
383.97	76.005
384.32	76.311
384.68	78.491
385.04	77.960
385.40	76.216
385.76	76.068
386.12	77.489
386.48	77.082
386.83	77.078
387.19	76.737
387.55	78.622
387.91	75.462
388.27	78.049
388.62	76.526
388.98	75.685
389.34	76.621
389.70	76.592
390.06	76.951
390.42	77.298
390.77	75.246
391.13	77.852
391.49	76.104
391.85	76.800
392.20	75.685
392.56	75.747
392.92	74.733
393.28	75.000
393.64	76.147
393.99	75.697
394.35	74.985
394.71	73.462
395.07	75.547
395.42	74.415
395.78	76.990
396.14	75.120
396.50	75.451
396.85	75.122
397.21	74.910
397.57	73.879
397.92	74.523
398.28	75.069
398.64	75.334
399.00	73.383
399.35	73.913
399.71	72.958
400.07	74.658
400.42	73.791
400.78	73.842
401.14	73.928
401.49	73.560
401.85	73.349
402.21	74.165
402.57	74.267
402.92	73.273
403.28	72.971
403.63	73.455
403.99	72.316
404.35	72.919
404.70	74.070
405.06	72.207
405.42	73.190
405.77	71.114
406.13	72.777
406.49	72.143
406.84	71.235
407.20	73.630
407.55	72.985
407.91	72.814
408.27	72.347
408.62	71.260
408.98	71.614
409.34	71.537
409.69	72.060
410.05	71.258
410.40	70.318
410.76	69.548
411.11	70.853
411.47	71.358
411.83	69.303
412.18	70.713
412.54	70.931
412.89	69.381
413.25	69.669
413.60	70.035
413.96	70.377
414.31	70.189
414.67	70.391
415.03	69.732
415.38	69.968
415.74	71.131
416.09	70.081
416.45	69.942
416.80	69.917
417.16	68.491
417.51	68.981
417.87	69.212
418.22	68.226
418.58	68.917
418.93	67.876
419.29	68.515
419.64	67.050
420.00	70.048
420.35	67.770
420.71	67.561
421.06	67.098
421.42	68.164
421.77	68.462
422.12	68.192
422.48	65.896
422.83	68.248
423.19	66.955
423.54	66.100
423.90	67.894
424.25	68.575
424.61	67.499
424.96	66.403
425.31	67.707
425.67	67.789
426.02	67.471
426.38	67.445
426.73	67.727
427.09	66.429
427.44	65.729
427.79	67.238
428.15	68.002
428.50	67.371
428.85	66.255
429.21	66.451
429.56	66.351
429.92	65.838
430.27	64.973
430.62	65.247
430.98	65.220
431.33	64.466
431.68	63.852
432.04	64.977
432.39	66.191
432.74	66.335
433.10	66.334
433.45	66.284
433.80	65.803
434.16	64.109
434.51	64.912
434.86	65.651
435.22	65.478
435.57	65.916
435.92	64.769
436.28	65.841
436.63	64.776
436.98	66.723
437.34	65.240
437.69	63.942
438.04	62.742
438.39	64.273
438.75	64.532
439.10	63.950
439.45	62.408
439.81	63.968
440.16	64.777
440.51	64.245
440.86	64.729
441.22	62.771
441.57	63.937
441.92	63.228
442.27	62.990
442.63	63.516
442.98	64.224
443.33	63.310
443.68	62.676
444.03	63.195
444.39	63.465
444.74	62.371
445.09	62.454
445.44	62.646
445.79	63.304
446.15	62.789
446.50	62.500
446.85	62.400
447.20	62.637
447.55	63.187
447.91	62.334
448.26	62.460
448.61	63.350
448.96	63.290
449.31	62.871
449.66	62.071
450.02	62.345
450.37	61.688
450.72	62.369
451.07	62.304
451.42	62.656
451.77	62.829
452.12	63.244
452.47	62.637
452.83	62.986
453.18	63.303
453.53	63.588
453.88	62.571
454.23	62.406
454.58	62.471
454.93	61.435
455.28	62.240
455.63	63.239
455.98	61.309
456.34	62.553
456.69	61.402
457.04	62.411
457.39	62.571
457.74	62.669
458.09	61.314
458.44	60.131
458.79	60.265
459.14	60.175
459.49	60.759
459.84	62.337
460.19	60.169
460.54	61.197
460.89	60.714
461.24	59.336
461.59	61.621
461.94	60.461
462.29	61.728
462.64	61.181
462.99	61.548
463.34	61.892
463.69	61.222
464.04	62.349
464.39	60.103
464.74	59.555
465.09	60.476
465.44	59.684
465.79	59.390
466.14	58.082
466.49	59.957
466.84	59.866
467.19	60.281
467.54	59.339
467.89	60.505
468.24	60.278
468.59	60.000
468.94	61.051
469.29	58.338
469.64	60.129
469.99	60.219
470.34	60.595
470.68	60.414
471.03	61.374
471.38	60.397
471.73	59.046
472.08	60.339
472.43	60.770
472.78	60.115
473.13	60.075
473.48	59.963
473.83	59.776
474.17	60.486
474.52	59.893
474.87	58.840
475.22	58.652
475.57	58.395
475.92	58.815
476.27	58.542
476.61	58.499
476.96	57.106
477.31	59.023
477.66	59.581
478.01	57.710
478.36	58.342
478.70	57.965
479.05	59.100
479.40	57.391
479.75	58.441
480.10	57.841
480.45	57.470
480.79	57.051
481.14	58.060
481.49	56.542
481.84	57.520
482.19	57.467
482.53	56.653
482.88	56.944
483.23	57.871
483.58	58.618
483.92	57.130
484.27	56.764
484.62	58.065
484.97	55.902
485.31	55.319
485.66	53.005
486.01	52.530
486.36	51.856
486.70	52.211
487.05	53.787
487.40	54.060
487.75	54.720
488.09	54.631
488.44	54.780
488.79	54.946
489.13	55.730
489.48	56.332
489.83	55.796
490.17	55.574
490.52	55.771
490.87	55.388
491.22	56.871
491.56	56.610
491.91	56.362
492.26	55.501
492.60	57.813
492.95	56.955
493.30	56.415
493.64	56.244
493.99	55.054
494.34	55.894
494.68	54.316
495.03	55.456
495.37	56.281
495.72	56.597
496.07	55.526
496.41	54.996
496.76	55.382
497.11	55.656
497.45	54.932
497.80	56.905
498.14	55.802
498.49	55.246
498.84	56.262
499.18	54.205
499.53	55.168
499.87	55.256
500.22	55.643
500.56	55.664
500.91	55.659
501.26	54.662
501.60	55.373
501.95	54.301
502.29	55.511
502.64	54.080
502.98	53.802
503.33	55.278
503.67	53.819
504.02	54.948
504.36	54.661
504.71	55.913
505.06	54.998
505.40	55.686
505.75	53.742
506.09	55.623
506.44	54.793
506.78	55.198
507.13	55.356
507.47	54.828
507.82	56.399
508.16	56.345
508.51	55.556
508.85	54.321
509.19	55.458
509.54	55.371
509.88	55.793
510.23	56.029
510.57	53.958
510.92	55.594
511.26	56.426
511.61	54.998
511.95	55.500
512.30	54.750
512.64	54.829
512.98	54.792
513.33	55.584
513.67	55.049
514.02	55.273
514.36	54.933
514.70	56.160
515.05	55.834
515.39	57.895
515.74	56.260
516.08	55.828
516.42	57.541
516.77	55.893
517.11	55.360
517.46	55.388
517.80	54.997
518.14	56.563
518.49	56.009
518.83	55.000
519.17	56.628
519.52	56.253
519.86	55.422
520.20	55.616
520.55	55.172
520.89	55.517
521.23	56.367
521.58	56.225
521.92	57.026
522.26	55.628
522.61	57.160
522.95	56.817
523.29	56.667
523.64	55.896
523.98	56.573
524.32	57.036
524.66	55.768
525.01	55.799
525.35	55.215
525.69	56.111
526.04	56.038
526.38	54.856
526.72	54.833
527.06	55.943
527.41	57.799
527.75	56.604
528.09	55.689
528.43	56.132
528.78	55.397
529.12	57.435
529.46	55.406
529.80	55.199
530.15	55.274
530.49	55.054
530.83	56.002
531.17	56.027
531.51	55.242
531.86	54.710
532.20	55.192
532.54	57.062
532.88	56.590
533.22	54.784
533.57	55.278
533.91	55.012
534.25	54.126
534.59	55.029
534.93	54.039
535.27	53.045
535.62	54.084
535.96	53.723
536.30	56.002
536.64	54.845
536.98	54.122
537.32	54.500
537.66	54.847
538.01	54.613
538.35	53.899
538.69	52.549
539.03	53.794
539.37	54.551
539.71	54.877
540.05	52.985
540.39	54.969
540.73	53.924
541.07	52.760
541.42	54.229
541.76	53.761
542.10	52.836
542.44	52.868
542.78	54.374
543.12	53.067
543.46	52.694
543.80	52.945
544.14	53.622
544.48	52.494
544.82	52.905
545.16	51.791
545.50	52.981
545.84	52.083
546.18	54.746
546.52	54.230
546.86	53.772
547.20	53.036
547.54	52.502
547.88	51.886
548.22	54.098
548.56	51.915
548.90	51.246
549.24	53.190
549.58	52.255
549.92	52.914
550.26	53.685
550.60	53.759
550.94	54.003
551.28	53.862
551.62	53.517
551.96	51.486
552.30	51.879
552.64	52.104
552.98	51.611
553.32	51.216
553.66	51.466
554.00	52.445
554.34	53.129
554.68	52.957
555.02	52.749
555.36	51.130
555.69	52.814
556.03	51.401
556.37	50.988
556.71	52.151
557.05	52.163
557.39	51.533
557.73	53.100
558.07	51.375
558.41	51.542
558.75	51.778
559.08	52.466
559.42	52.971
559.76	52.031
560.10	52.443
560.44	52.157
560.78	52.174
561.12	51.113
561.45	52.128
561.79	50.811
562.13	51.548
562.47	51.330
562.81	51.204
563.15	50.614
563.48	50.000
563.82	51.279
564.16	50.746
564.50	49.548
564.84	49.301
565.17	50.683
565.51	51.416
565.85	51.018
566.19	50.000
566.52	50.542
566.86	50.321
567.20	50.562
567.54	50.164
567.88	50.026
568.21	48.627
568.55	47.617
568.89	47.354
569.23	47.455
569.56	48.003
569.90	46.245
570.24	46.644
570.57	45.944
570.91	45.055
571.25	45.077
571.59	44.867
571.92	44.241
572.26	44.340
572.60	44.710
572.93	44.796
573.27	45.434
573.61	44.857
573.95	43.924
574.28	44.813
574.62	43.712
574.96	43.241
575.29	43.808
575.63	43.746
575.97	43.427
576.30	43.837
576.64	43.931
576.98	43.209
577.31	44.121
577.65	43.544
577.98	43.236
578.32	42.651
578.66	43.021
578.99	42.962
579.33	43.730
579.67	42.765
580.00	43.041
580.34	42.356
580.67	42.125
581.01	42.967
581.35	42.437
581.68	42.224
582.02	42.364
582.35	42.162
582.69	42.556
583.02	42.661
583.36	43.050
583.70	43.740
584.03	43.947
584.37	43.539
584.70	42.448
585.04	42.517
585.37	42.583
585.71	42.517
586.04	42.844
586.38	42.542
586.72	43.140
587.05	42.383
587.39	43.186
587.72	43.108
588.06	42.389
588.39	43.296
588.73	42.631
589.06	43.799
589.40	43.631
589.73	43.527
590.07	44.852
590.40	44.913
590.73	44.767
591.07	44.478
591.40	44.112
591.74	44.399
592.07	43.386
592.41	44.325
592.74	43.208
593.08	42.480
593.41	41.981
593.75	42.079
594.08	42.193
594.41	43.597
594.75	43.459
595.08	43.450
595.42	43.581
595.75	43.435
596.09	42.475
596.42	42.935
596.75	44.030
597.09	43.830
597.42	42.898
597.75	43.367
598.09	42.840
598.42	43.084
598.76	42.251
599.09	42.883
599.42	42.180
599.76	42.130
600.09	41.966
600.42	42.196
600.76	41.638
601.09	42.182
601.42	41.887
601.76	42.392
602.09	42.531
602.42	41.996
602.76	42.543
603.09	43.137
603.42	42.202
603.76	41.866
604.09	42.273
604.42	42.260
604.76	42.394
605.09	42.776
605.42	42.828
605.75	41.848
606.09	42.464
606.42	41.826
606.75	42.518
607.09	41.098
607.42	42.587
607.75	41.242
608.08	42.323
608.42	42.534
608.75	42.191
609.08	42.543
609.41	42.955
609.75	41.987
610.08	42.761
610.41	42.688
610.74	41.948
611.07	42.929
611.41	42.678
611.74	43.499
612.07	43.112
612.40	43.275
612.73	42.686
613.07	43.588
613.40	42.707
613.73	43.335
614.06	42.750
614.39	44.343
614.72	42.692
615.06	42.681
615.39	42.327
615.72	41.336
616.05	42.692
616.38	42.618
616.71	43.082
617.05	42.779
617.38	42.921
617.71	44.319
618.04	44.195
618.37	43.135
618.70	43.072
619.03	43.407
619.36	43.405
619.69	45.317
620.03	44.618
620.36	44.573
620.69	44.955
621.02	44.158
621.35	44.054
621.68	45.870
622.01	44.354
622.34	45.011
622.67	44.382
623.00	42.954
623.33	43.860
623.66	43.979
623.99	44.521
624.32	43.835
624.65	42.923
624.99	43.611
625.32	44.556
625.65	43.448
625.98	44.491
626.31	46.068
626.64	45.103
626.97	43.688
627.30	44.643
627.63	45.133
627.96	42.879
628.29	45.875
628.62	44.397
628.95	46.099
629.28	47.765
629.61	44.728
629.94	44.685
630.26	46.187
630.59	45.567
630.92	45.202
631.25	46.782
