SpectraSuite Data File
++++++++++++++++++++++++++++++++++++
Date: Tue May 12 17:21:57 PDT 2015
User: schluterlab
Dark Spectrum Present: Yes
Reference Spectrum Present: Yes
Number of Sampled Component Spectra: 1
Spectrometers: USB2E3373
Integration Time (usec): 3000 (USB2E3373)
Spectra Averaged: 3 (USB2E3373)
Boxcar Smoothing: 0 (USB2E3373)
Correct for Electrical Dark: No (USB2E3373)
Strobe/Lamp Enabled: No (USB2E3373)
Correct for Detector Non-linearity: No (USB2E3373)
Correct for Stray Light: No (USB2E3373)
Number of Pixels in Processed Spectrum: 2048
>>>>>Begin Processed Spectral Data<<<<<
178.53	0.000
178.91	-200.000
179.29	-425.000
179.67	-3400.000
180.04	-126.667
180.42	725.000
180.80	1550.000
181.18	0.000
181.56	-325.000
181.94	0.000
182.31	1000.000
182.69	-3100.000
183.07	585.714
183.45	-3700.000
183.83	-1450.000
184.20	330.000
184.58	414.286
184.96	-300.000
185.34	-200.000
185.72	1050.000
186.09	-900.000
186.47	-3300.000
186.85	1100.000
187.23	640.000
187.61	1500.000
187.98	500.000
188.36	257.143
188.74	350.000
189.12	391.667
189.49	750.000
189.87	0.000
190.25	500.000
190.63	2600.000
191.00	-233.333
191.38	-2800.000
191.76	-575.000
192.14	562.500
192.51	-3800.000
192.89	2100.000
193.27	1200.000
193.65	-866.667
194.02	-780.000
194.40	614.286
194.78	-214.286
195.15	246.667
195.53	-3000.000
195.91	-640.000
196.29	3300.000
196.66	256.250
197.04	800.000
197.42	-1300.000
197.79	650.000
198.17	308.333
198.55	0.000
198.92	542.857
199.30	1400.000
199.68	1650.000
200.05	700.000
200.43	-350.000
200.81	216.667
201.18	3100.000
201.56	241.667
201.94	-900.000
202.31	-287.500
202.69	-360.000
203.07	3100.000
203.44	-450.000
203.82	333.333
204.19	520.000
204.57	-1300.000
204.95	-700.000
205.32	-680.000
205.70	533.333
206.08	925.000
206.45	-766.667
206.83	422.222
207.20	110.526
207.58	333.333
207.96	900.000
208.33	0.000
208.71	642.857
209.08	860.000
209.46	-2600.000
209.84	-800.000
210.21	880.000
210.59	-700.000
210.96	275.000
211.34	-725.000
211.71	336.364
212.09	850.000
212.46	1100.000
212.84	-400.000
213.22	444.444
213.59	-3500.000
213.97	310.000
214.34	925.000
214.72	1066.667
215.09	1100.000
215.47	-3200.000
215.84	-270.000
216.22	-337.500
216.59	0.000
216.97	0.000
217.34	1250.000
217.72	-1450.000
218.09	1233.333
218.47	487.500
218.84	600.000
219.22	1266.667
219.59	800.000
219.97	557.143
220.34	355.556
220.72	1750.000
221.09	2500.000
221.47	283.333
221.84	1066.667
222.22	300.000
222.59	244.444
222.97	207.143
223.34	206.250
223.72	-1150.000
224.09	1233.333
224.46	230.769
224.84	-550.000
225.21	400.000
225.59	233.333
225.96	1066.667
226.34	-560.000
226.71	-550.000
227.08	-480.000
227.46	0.000
227.83	-533.333
228.21	-1450.000
228.58	275.000
228.95	750.000
229.33	266.667
229.70	775.000
230.08	261.538
230.45	3300.000
230.82	-725.000
231.20	-966.667
231.57	-833.333
231.95	460.000
232.32	258.333
232.69	516.667
233.07	233.333
233.44	-1450.000
233.81	193.333
234.19	155.556
234.56	181.250
234.93	176.471
235.31	175.000
235.68	243.750
236.05	142.857
236.43	133.333
236.80	214.286
237.17	110.345
237.55	128.125
237.92	117.500
238.29	127.273
238.67	81.250
239.04	70.732
239.41	52.083
239.79	55.000
240.16	58.333
240.53	54.098
240.91	53.623
241.28	50.847
241.65	40.909
242.02	61.972
242.40	55.714
242.77	46.154
243.14	26.582
243.51	54.545
243.89	40.187
244.26	34.579
244.63	24.752
245.00	33.945
245.38	26.271
245.75	30.303
246.12	30.370
246.49	24.823
246.87	14.754
247.24	24.667
247.61	27.500
247.98	30.612
248.36	21.818
248.73	23.469
249.10	22.619
249.47	25.000
249.84	17.413
250.22	21.081
250.59	14.500
250.96	21.519
251.33	19.535
251.70	17.411
252.08	15.126
252.45	15.139
252.82	17.871
253.19	16.601
253.56	13.462
253.94	16.304
254.31	14.341
254.68	16.725
255.05	16.552
255.42	13.139
255.79	15.961
256.16	13.898
256.54	15.260
256.91	15.686
257.28	14.381
257.65	12.226
258.02	9.735
258.39	12.894
258.76	16.812
259.14	10.286
259.51	13.703
259.88	13.374
260.25	10.440
260.62	13.425
260.99	8.540
261.36	13.092
261.73	8.777
262.10	9.424
262.47	10.750
262.85	11.733
263.22	12.339
263.59	9.974
263.96	12.281
264.33	9.630
264.70	10.319
265.07	10.000
265.44	11.009
265.81	10.377
266.18	10.069
266.55	7.565
266.92	7.830
267.29	10.965
267.66	10.090
268.03	7.848
268.40	12.051
268.77	10.793
269.14	8.460
269.51	7.795
269.88	12.653
270.25	8.639
270.62	8.584
270.99	10.548
271.36	10.163
271.73	9.434
272.10	7.273
272.47	7.937
272.84	8.982
273.21	7.851
273.58	8.907
273.95	7.598
274.32	8.560
274.69	8.268
275.06	10.200
275.43	7.854
275.80	8.302
276.17	8.456
276.54	9.533
276.91	9.328
277.28	6.569
277.65	9.594
278.02	7.353
278.39	6.475
278.76	8.103
279.13	9.075
279.50	7.818
279.87	6.145
280.23	7.182
280.60	7.664
280.97	8.448
281.34	6.271
281.71	6.609
282.08	7.521
282.45	7.264
282.82	7.692
283.19	7.472
283.56	7.934
283.92	5.700
284.29	5.824
284.66	6.723
285.03	7.960
285.40	5.950
285.77	4.938
286.14	8.978
286.51	8.282
286.87	5.222
287.24	5.706
287.61	6.383
287.98	7.761
288.35	5.778
288.72	5.008
289.08	8.408
289.45	7.012
289.82	7.188
290.19	7.174
290.56	7.860
290.93	6.475
291.29	8.149
291.66	7.062
292.03	7.013
292.40	7.182
292.77	5.989
293.13	6.847
293.50	6.208
293.87	6.504
294.24	7.273
294.60	7.537
294.97	6.993
295.34	6.906
295.71	6.965
296.08	6.667
296.44	7.751
296.81	5.707
297.18	4.943
297.55	6.034
297.91	4.926
298.28	6.280
298.65	5.521
299.02	6.393
299.38	5.995
299.75	6.220
300.12	6.995
300.48	6.206
300.85	5.959
301.22	7.093
301.59	5.660
301.95	5.134
302.32	7.101
302.69	6.448
303.05	5.612
303.42	5.269
303.79	5.309
304.15	5.281
304.52	5.497
304.89	5.224
305.25	5.562
305.62	6.716
305.99	3.913
306.35	4.526
306.72	5.099
307.09	5.901
307.45	4.646
307.82	4.835
308.19	5.258
308.55	5.100
308.92	6.183
309.29	6.114
309.65	5.550
310.02	5.680
310.38	3.988
310.75	4.725
311.12	5.172
311.48	6.178
311.85	6.011
312.22	6.495
312.58	5.053
312.95	6.019
313.31	4.682
313.68	4.128
314.05	5.220
314.41	5.028
314.78	4.735
315.14	5.213
315.51	5.771
315.87	4.197
316.24	4.388
316.61	4.924
316.97	3.853
317.34	5.660
317.70	5.004
318.07	5.783
318.43	5.712
318.80	5.954
319.16	5.507
319.53	5.664
319.89	4.928
320.26	6.052
320.62	5.220
320.99	5.529
321.35	5.380
321.72	6.546
322.08	6.371
322.45	4.814
322.81	4.758
323.18	6.217
323.54	6.359
323.91	5.349
324.27	5.040
324.64	4.498
325.00	6.121
325.37	5.734
325.73	5.312
326.10	5.882
326.46	6.358
326.83	4.800
327.19	6.265
327.56	5.591
327.92	6.639
328.29	7.038
328.65	6.935
329.01	6.245
329.38	6.176
329.74	5.038
330.11	6.255
330.47	6.223
330.84	5.695
331.20	5.245
331.56	6.649
331.93	6.929
332.29	5.102
332.66	6.633
333.02	6.529
333.38	5.236
333.75	6.756
334.11	5.537
334.48	6.667
334.84	5.997
335.20	5.389
335.57	6.633
335.93	6.728
336.29	6.053
336.66	7.033
337.02	5.218
337.38	5.159
337.75	5.405
338.11	7.004
338.47	5.927
338.84	6.520
339.20	4.762
339.56	5.803
339.93	6.020
340.29	5.378
340.65	6.287
341.02	6.838
341.38	5.501
341.74	5.316
342.11	5.008
342.47	5.414
342.83	6.235
343.20	5.578
343.56	4.845
343.92	5.450
344.28	5.104
344.65	5.216
345.01	5.714
345.37	4.167
345.73	5.000
346.10	4.861
346.46	6.380
346.82	4.707
347.19	5.873
347.55	5.308
347.91	4.683
348.27	5.112
348.63	5.538
349.00	5.788
349.36	5.370
349.72	5.581
350.08	5.668
350.45	5.484
350.81	5.581
351.17	4.700
351.53	5.543
351.89	5.128
352.26	4.686
352.62	5.581
352.98	6.518
353.34	5.393
353.70	4.358
354.07	4.692
354.43	5.376
354.79	4.404
355.15	5.130
355.51	5.060
355.87	5.196
356.24	5.158
356.60	4.718
356.96	3.942
357.32	5.501
357.68	5.507
358.04	5.319
358.40	5.547
358.77	5.034
359.13	5.330
359.49	5.115
359.85	5.361
360.21	4.829
360.57	5.547
360.93	5.339
361.29	5.339
361.66	5.369
362.02	4.474
362.38	4.762
362.74	4.954
363.10	5.610
363.46	4.351
363.82	5.540
364.18	5.050
364.54	4.793
364.90	5.355
365.26	4.719
365.62	4.213
365.98	4.611
366.35	4.414
366.71	5.066
367.07	4.983
367.43	4.835
367.79	4.721
368.15	4.071
368.51	5.307
368.87	4.755
369.23	4.435
369.59	4.181
369.95	4.685
370.31	4.860
370.67	4.580
371.03	5.322
371.39	4.848
371.75	4.466
372.11	5.099
372.47	5.342
372.83	5.235
373.19	5.003
373.55	4.811
373.91	4.006
374.27	4.630
374.63	4.203
374.99	5.121
375.35	4.234
375.71	5.145
376.07	5.239
376.42	4.412
376.78	5.588
377.14	5.111
377.50	4.806
377.86	4.484
378.22	4.327
378.58	5.206
378.94	4.707
379.30	4.427
379.66	4.576
380.02	4.927
380.38	3.806
380.74	5.306
381.09	4.614
381.45	4.393
381.81	4.905
382.17	4.212
382.53	4.439
382.89	4.435
383.25	4.263
383.61	4.380
383.97	4.499
384.32	4.822
384.68	5.585
385.04	4.279
385.40	4.864
385.76	4.330
386.12	5.257
386.48	4.559
386.83	4.768
387.19	4.829
387.55	4.594
387.91	4.908
388.27	4.938
388.62	4.812
388.98	4.665
389.34	4.402
389.70	5.189
390.06	4.573
390.42	5.182
390.77	4.914
391.13	5.311
391.49	5.324
391.85	5.169
392.20	5.006
392.56	5.795
392.92	4.604
393.28	4.765
393.64	4.300
393.99	4.268
394.35	5.003
394.71	4.765
395.07	3.954
395.42	4.742
395.78	5.799
396.14	5.964
396.50	4.091
396.85	4.939
397.21	3.911
397.57	5.081
397.92	4.448
398.28	4.413
398.64	5.294
399.00	4.062
399.35	4.509
399.71	4.525
400.07	4.623
400.42	4.716
400.78	4.340
401.14	4.463
401.49	4.666
401.85	4.635
402.21	4.159
402.57	5.206
402.92	4.848
403.28	4.356
403.63	4.826
403.99	4.343
404.35	5.920
404.70	5.198
405.06	4.548
405.42	4.728
405.77	4.741
406.13	4.989
406.49	4.207
406.84	4.963
407.20	5.194
407.55	5.231
407.91	5.552
408.27	4.973
408.62	4.435
408.98	5.086
409.34	4.676
409.69	4.480
410.05	4.472
410.40	4.947
410.76	4.293
411.11	4.739
411.47	5.123
411.83	4.687
412.18	4.046
412.54	4.925
412.89	3.953
413.25	4.846
413.60	4.790
413.96	4.369
414.31	4.959
414.67	5.214
415.03	4.278
415.38	4.858
415.74	4.296
416.09	5.309
416.45	5.688
416.80	5.452
417.16	4.583
417.51	4.204
417.87	4.819
418.22	5.225
418.58	4.968
418.93	4.938
419.29	4.559
419.64	5.270
420.00	5.012
420.35	4.123
420.71	4.784
421.06	3.649
421.42	5.066
421.77	4.386
422.12	4.135
422.48	4.520
422.83	4.855
423.19	3.888
423.54	5.047
423.90	4.530
424.25	4.568
424.61	4.759
424.96	4.009
425.31	4.324
425.67	4.209
426.02	4.543
426.38	4.376
426.73	4.106
427.09	4.864
427.44	3.939
427.79	3.716
428.15	4.950
428.50	5.371
428.85	4.703
429.21	4.214
429.56	4.536
429.92	4.475
430.27	4.064
430.62	3.965
430.98	4.391
431.33	3.982
431.68	2.963
432.04	4.604
432.39	4.336
432.74	4.625
433.10	4.319
433.45	4.078
433.80	4.964
434.16	4.414
434.51	4.231
434.86	4.736
435.22	3.512
435.57	4.327
435.92	5.122
436.28	4.608
436.63	4.430
436.98	3.998
437.34	4.452
437.69	4.031
438.04	4.194
438.39	5.020
438.75	4.510
439.10	4.479
439.45	4.522
439.81	4.800
440.16	4.293
440.51	4.110
440.86	4.843
441.22	4.708
441.57	4.829
441.92	3.899
442.27	4.433
442.63	4.319
442.98	4.687
443.33	4.767
443.68	4.980
444.03	3.911
444.39	4.190
444.74	4.348
445.09	4.581
445.44	3.932
445.79	4.532
446.15	4.053
446.50	4.167
446.85	4.133
447.20	3.930
447.55	4.133
447.91	6.020
448.26	4.792
448.61	4.643
448.96	4.521
449.31	4.235
449.66	5.316
450.02	4.160
450.37	4.664
450.72	4.848
451.07	5.236
451.42	5.157
451.77	5.155
452.12	4.141
452.47	4.739
452.83	4.563
453.18	5.345
453.53	4.322
453.88	4.800
454.23	5.520
454.58	5.012
454.93	4.598
455.28	5.263
455.63	4.492
455.98	5.415
456.34	5.593
456.69	4.573
457.04	4.714
457.39	4.686
457.74	4.899
458.09	4.436
458.44	5.586
458.79	4.828
459.14	4.201
459.49	5.436
459.84	4.402
460.19	4.972
460.54	5.470
460.89	5.544
461.24	4.868
461.59	4.762
461.94	4.610
462.29	4.977
462.64	4.334
462.99	5.502
463.34	5.898
463.69	5.384
464.04	5.987
464.39	4.579
464.74	3.810
465.09	5.107
465.44	5.005
465.79	4.246
466.14	4.875
466.49	5.100
466.84	4.738
467.19	5.272
467.54	5.105
467.89	6.045
468.24	4.922
468.59	5.238
468.94	5.435
469.29	5.131
469.64	5.788
469.99	5.206
470.34	5.060
470.68	5.172
471.03	4.803
471.38	5.099
471.73	5.225
472.08	4.892
472.43	5.276
472.78	5.058
473.13	4.819
473.48	5.440
473.83	5.006
474.17	4.255
474.52	5.273
474.87	5.571
475.22	5.540
475.57	4.669
475.92	4.088
476.27	4.951
476.61	4.558
476.96	5.277
477.31	4.216
477.66	4.885
478.01	5.621
478.36	4.892
478.70	4.715
479.05	4.498
479.40	4.514
479.75	4.667
480.10	4.550
480.45	4.388
480.79	5.253
481.14	4.280
481.49	4.071
481.84	4.925
482.19	5.153
482.53	4.436
482.88	4.749
483.23	4.646
483.58	4.758
483.92	5.027
484.27	4.966
484.62	4.499
484.97	4.597
485.31	4.604
485.66	4.006
486.01	3.646
486.36	3.682
486.70	3.567
487.05	3.980
487.40	3.870
487.75	4.072
488.09	4.545
488.44	4.302
488.79	4.131
489.13	4.741
489.48	4.914
489.83	4.128
490.17	4.211
490.52	4.823
490.87	4.698
491.22	5.142
491.56	5.665
491.91	4.659
492.26	4.410
492.60	5.194
492.95	4.758
493.30	5.414
493.64	4.897
493.99	5.277
494.34	4.437
494.68	5.312
495.03	5.119
495.37	5.538
495.72	5.035
496.07	4.897
496.41	4.952
496.76	4.981
497.11	5.441
497.45	5.173
497.80	4.866
498.14	5.224
498.49	4.689
498.84	4.626
499.18	5.119
499.53	4.548
499.87	4.447
500.22	5.205
500.56	5.153
500.91	5.891
501.26	5.650
501.60	4.827
501.95	3.898
502.29	4.622
502.64	4.720
502.98	4.669
503.33	5.122
503.67	5.033
504.02	4.523
504.36	4.344
504.71	5.203
505.06	4.693
505.40	4.820
505.75	4.771
506.09	5.366
506.44	5.263
506.78	5.198
507.13	4.556
507.47	4.755
507.82	6.034
508.16	5.781
508.51	5.121
508.85	4.986
509.19	4.944
509.54	5.420
509.88	5.470
510.23	5.784
510.57	4.585
510.92	5.095
511.26	5.371
511.61	5.416
511.95	5.923
512.30	5.900
512.64	4.621
512.98	5.177
513.33	5.225
513.67	5.593
514.02	4.935
514.36	5.607
514.70	5.120
515.05	5.434
515.39	5.099
515.74	5.960
516.08	5.447
516.42	6.612
516.77	5.493
517.11	5.653
517.46	6.412
517.80	5.243
518.14	5.352
518.49	4.741
518.83	4.725
519.17	6.045
519.52	5.789
519.86	5.068
520.20	5.918
520.55	5.653
520.89	5.460
521.23	5.607
521.58	5.221
521.92	5.073
522.26	5.213
522.61	5.764
522.95	6.006
523.29	6.257
523.64	5.376
523.98	5.927
524.32	5.363
524.66	5.681
525.01	5.444
525.35	5.598
525.69	6.081
526.04	6.127
526.38	5.886
526.72	5.668
527.06	5.145
527.41	6.288
527.75	6.208
528.09	6.020
528.43	6.162
528.78	6.380
529.12	6.562
529.46	5.377
529.80	5.841
530.15	6.246
530.49	5.716
530.83	6.399
531.17	5.166
531.51	6.254
531.86	6.824
532.20	6.180
532.54	5.964
532.88	5.746
533.22	6.520
533.57	5.247
533.91	6.002
534.25	5.309
534.59	5.731
534.93	5.973
535.27	5.635
535.62	5.368
535.96	5.733
536.30	6.764
536.64	5.714
536.98	5.853
537.32	6.313
537.66	5.612
538.01	6.068
538.35	6.987
538.69	5.522
539.03	5.721
539.37	5.400
539.71	5.864
540.05	5.908
540.39	5.723
540.73	6.646
541.07	5.772
541.42	6.032
541.76	6.350
542.10	6.658
542.44	6.297
542.78	5.664
543.12	6.196
543.46	5.576
543.80	5.326
544.14	5.635
544.48	6.083
544.82	6.116
545.16	5.464
545.50	6.269
545.84	5.492
546.18	6.502
546.52	5.770
546.86	6.125
547.20	6.525
547.54	6.586
547.88	6.569
548.22	5.586
548.56	6.187
548.90	6.287
549.24	6.064
549.58	6.250
549.92	7.204
550.26	6.356
550.60	6.387
550.94	5.767
551.28	6.621
551.62	7.172
551.96	6.216
552.30	5.339
552.64	5.761
552.98	5.928
553.32	6.146
553.66	5.863
554.00	6.049
554.34	6.525
554.68	5.914
555.02	6.449
555.36	6.516
555.69	6.021
556.03	6.369
556.37	6.373
556.71	6.845
557.05	5.374
557.39	6.467
557.73	6.739
558.07	6.506
558.41	6.374
558.75	7.045
559.08	6.004
559.42	6.442
559.76	6.415
560.10	6.125
560.44	5.906
560.78	6.905
561.12	5.976
561.45	6.070
561.79	6.804
562.13	5.812
562.47	5.451
562.81	6.051
563.15	6.206
563.48	5.342
563.82	7.049
564.16	6.468
564.50	5.606
564.84	6.201
565.17	5.882
565.51	6.096
565.85	5.861
566.19	5.952
566.52	5.295
566.86	6.597
567.20	6.573
567.54	5.568
567.88	5.477
568.21	5.342
568.55	5.593
568.89	5.657
569.23	5.134
569.56	5.351
569.90	5.426
570.24	5.349
570.57	5.289
570.91	4.493
571.25	4.745
571.59	4.935
571.92	4.656
572.26	4.367
572.60	4.582
572.93	4.629
573.27	4.595
573.61	4.683
573.95	4.258
574.28	4.678
574.62	4.495
574.96	4.204
575.29	4.641
575.63	4.311
575.97	4.503
576.30	4.328
576.64	4.451
576.98	4.226
577.31	4.927
577.65	4.852
577.98	4.445
578.32	4.149
578.66	4.277
578.99	4.699
579.33	4.759
579.67	4.639
580.00	4.242
580.34	4.604
580.67	4.362
581.01	4.674
581.35	4.353
581.68	4.286
582.02	4.201
582.35	4.283
582.69	4.492
583.02	4.066
583.36	4.472
583.70	4.496
584.03	4.748
584.37	4.770
584.70	4.454
585.04	4.521
585.37	4.283
585.71	4.787
586.04	4.499
586.38	4.381
586.72	4.556
587.05	4.838
587.39	4.475
587.72	4.416
588.06	4.470
588.39	4.734
588.73	4.822
589.06	4.231
589.40	4.851
589.73	4.818
590.07	5.010
590.40	5.714
590.73	5.325
591.07	5.275
591.40	5.150
591.74	4.911
592.07	4.825
592.41	4.956
592.74	4.760
593.08	4.655
593.41	4.279
593.75	4.568
594.08	4.958
594.41	5.083
594.75	4.966
595.08	4.973
595.42	5.398
595.75	5.035
596.09	5.249
596.42	4.771
596.75	5.088
597.09	5.407
597.42	5.102
597.75	4.584
598.09	5.129
598.42	4.447
598.76	5.012
599.09	5.186
599.42	5.156
599.76	5.020
600.09	4.678
600.42	4.869
600.76	4.283
601.09	4.867
601.42	5.104
601.76	4.654
602.09	5.519
602.42	4.880
602.76	5.237
603.09	5.204
603.42	5.541
603.76	4.736
604.09	4.524
604.42	4.482
604.76	5.057
605.09	4.898
605.42	5.282
605.75	4.777
606.09	4.744
606.42	5.073
606.75	4.742
607.09	4.856
607.42	4.942
607.75	4.618
608.08	5.037
608.42	5.663
608.75	4.964
609.08	5.455
609.41	4.909
609.75	5.586
610.08	5.216
610.41	5.182
610.74	5.108
611.07	4.775
611.41	4.819
611.74	5.258
612.07	4.383
612.40	4.971
612.73	5.092
613.07	5.220
613.40	4.962
613.73	5.192
614.06	4.900
614.39	5.657
614.72	4.922
615.06	5.094
615.39	5.347
615.72	4.840
616.05	5.575
616.38	5.175
616.71	5.155
617.05	5.437
617.38	4.719
617.71	6.074
618.04	5.440
618.37	5.781
618.70	5.485
619.03	5.739
619.36	5.779
619.69	5.871
620.03	6.654
620.36	5.267
620.69	6.960
621.02	6.726
621.35	5.444
621.68	6.416
622.01	6.568
622.34	5.317
622.67	6.110
623.00	6.739
623.33	6.748
623.66	5.788
623.99	5.205
624.32	5.556
624.65	6.254
624.99	5.815
625.32	6.480
625.65	4.414
625.98	6.067
626.31	5.490
626.64	5.619
626.97	4.667
627.30	6.444
627.63	6.279
627.96	5.712
628.29	6.188
628.62	5.817
628.95	6.206
629.28	6.047
629.61	6.591
629.94	5.964
630.26	6.846
630.59	7.535
630.92	6.637
631.25	7.072
631.58	6.750
631.91	6.660
632.24	6.122
632.57	7.073
632.90	7.143
633.23	7.660
633.56	6.322
633.89	6.967
634.22	7.858
634.55	6.774
634.88	7.119
635.20	8.632
635.53	7.433
635.86	8.501
636.19	7.856
636.52	6.703
636.85	6.365
637.18	7.042
637.51	6.816
637.83	7.437
638.16	7.503
638.49	6.707
638.82	8.920
639.15	6.110
639.48	9.123
639.81	7.082
640.13	7.607
640.46	6.574
640.79	6.892
641.12	7.218
641.45	7.633
641.77	8.322
642.10	8.300
642.43	7.397
642.76	6.960
643.09	5.908
643.41	8.135
643.74	7.626
644.07	6.932
644.40	7.249
644.73	9.459
645.05	9.955
645.38	7.810
645.71	9.712
646.04	9.466
646.36	7.512
646.69	6.880
647.02	8.960
647.35	6.614
647.67	9.887
648.00	8.469
648.33	8.722
648.66	8.333
648.98	7.536
649.31	7.557
649.64	7.192
649.96	6.970
650.29	7.714
650.62	8.542
650.94	9.488
651.27	8.772
651.60	5.477
651.92	8.909
652.25	8.976
652.58	7.801
652.90	7.784
653.23	8.567
653.56	8.457
653.88	8.370
654.21	7.185
654.54	9.956
654.86	8.112
655.19	6.332
655.52	5.366
