SpectraSuite Data File
++++++++++++++++++++++++++++++++++++
Date: Tue May 12 17:22:19 PDT 2015
User: schluterlab
Dark Spectrum Present: Yes
Reference Spectrum Present: Yes
Number of Sampled Component Spectra: 1
Spectrometers: USB2E3373
Integration Time (usec): 3000 (USB2E3373)
Spectra Averaged: 3 (USB2E3373)
Boxcar Smoothing: 0 (USB2E3373)
Correct for Electrical Dark: No (USB2E3373)
Strobe/Lamp Enabled: No (USB2E3373)
Correct for Detector Non-linearity: No (USB2E3373)
Correct for Stray Light: No (USB2E3373)
Number of Pixels in Processed Spectrum: 2048
>>>>>Begin Processed Spectral Data<<<<<
178.53	0.000
178.91	-275.000
179.29	-800.000
179.67	-4200.000
180.04	-206.667
180.42	925.000
180.80	1700.000
181.18	0.000
181.56	-275.000
181.94	0.000
182.31	1066.667
182.69	-2700.000
183.07	542.857
183.45	-3500.000
183.83	-1200.000
184.20	340.000
184.58	485.714
184.96	-246.154
185.34	-225.000
185.72	1900.000
186.09	-650.000
186.47	-3200.000
186.85	1000.000
187.23	640.000
187.61	1900.000
187.98	425.000
188.36	228.571
188.74	366.667
189.12	341.667
189.49	825.000
189.87	0.000
190.25	650.000
190.63	2500.000
191.00	-258.333
191.38	-3400.000
191.76	-600.000
192.14	537.500
192.51	-2900.000
192.89	1600.000
193.27	766.667
193.65	-766.667
194.02	-800.000
194.40	457.143
194.78	-207.143
195.15	293.333
195.53	-4600.000
195.91	-660.000
196.29	4000.000
196.66	281.250
197.04	975.000
197.42	-1600.000
197.79	600.000
198.17	400.000
198.55	0.000
198.92	542.857
199.30	1200.000
199.68	2150.000
200.05	833.333
200.43	-483.333
200.81	177.778
201.18	3600.000
201.56	316.667
201.94	-750.000
202.31	-325.000
202.69	-520.000
203.07	3400.000
203.44	-400.000
203.82	233.333
204.19	820.000
204.57	-1700.000
204.95	-725.000
205.32	-740.000
205.70	433.333
206.08	775.000
206.45	-766.667
206.83	377.778
207.20	200.000
207.58	325.000
207.96	680.000
208.33	0.000
208.71	514.286
209.08	820.000
209.46	-3100.000
209.84	-925.000
210.21	640.000
210.59	-700.000
210.96	350.000
211.34	-925.000
211.71	345.455
212.09	875.000
212.46	1600.000
212.84	-400.000
213.22	444.444
213.59	-2400.000
213.97	420.000
214.34	950.000
214.72	1300.000
215.09	800.000
215.47	-4000.000
215.84	-310.000
216.22	-437.500
216.59	0.000
216.97	0.000
217.34	1700.000
217.72	-1300.000
218.09	1166.667
218.47	587.500
218.84	825.000
219.22	866.667
219.59	1000.000
219.97	614.286
220.34	422.222
220.72	1450.000
221.09	3300.000
221.47	275.000
221.84	1266.667
222.22	360.000
222.59	283.333
222.97	207.143
223.34	175.000
223.72	-1500.000
224.09	1233.333
224.46	292.308
224.84	-975.000
225.21	455.556
225.59	273.333
225.96	1400.000
226.34	-580.000
226.71	-700.000
227.08	-680.000
227.46	0.000
227.83	-500.000
228.21	-1950.000
228.58	425.000
228.95	850.000
229.33	311.111
229.70	1125.000
230.08	338.462
230.45	5000.000
230.82	-825.000
231.20	-566.667
231.57	-1066.667
231.95	520.000
232.32	325.000
232.69	683.333
233.07	291.667
233.44	-1700.000
233.81	266.667
234.19	211.111
234.56	268.750
234.93	123.529
235.31	215.000
235.68	306.250
236.05	171.429
236.43	177.778
236.80	285.714
237.17	182.759
237.55	137.500
237.92	112.500
238.29	178.788
238.67	137.500
239.04	134.146
239.41	110.417
239.79	140.000
240.16	89.583
240.53	95.082
240.91	88.406
241.28	84.746
241.65	77.273
242.02	84.507
242.40	87.143
242.77	74.725
243.14	75.949
243.51	83.838
243.89	63.551
244.26	66.355
244.63	68.317
245.00	69.725
245.38	49.153
245.75	62.121
246.12	66.667
246.49	51.773
246.87	64.754
247.24	65.333
247.61	59.375
247.98	61.905
248.36	52.121
248.73	57.653
249.10	58.929
249.47	58.000
249.84	56.716
250.22	52.973
250.59	54.500
250.96	54.008
251.33	52.558
251.70	51.339
252.08	58.824
252.45	48.606
252.82	46.388
253.19	53.755
253.56	46.154
253.94	47.101
254.31	51.550
254.68	48.780
255.05	48.621
255.42	50.000
255.79	49.837
256.16	54.237
256.54	48.701
256.91	50.327
257.28	51.505
257.65	44.514
258.02	48.083
258.39	44.986
258.76	47.536
259.14	43.143
259.51	52.187
259.88	48.024
260.25	45.330
260.62	47.397
260.99	46.281
261.36	49.582
261.73	45.479
262.10	45.288
262.47	46.750
262.85	41.600
263.22	45.501
263.59	50.384
263.96	44.612
264.33	44.444
264.70	44.963
265.07	46.098
265.44	45.413
265.81	44.575
266.18	45.080
266.55	44.208
266.92	44.072
267.29	44.079
267.66	44.395
268.03	43.946
268.40	44.609
268.77	43.172
269.14	42.950
269.51	41.648
269.88	43.673
270.25	42.981
270.62	45.494
270.99	44.219
271.36	42.886
271.73	42.348
272.10	41.212
272.47	44.643
272.84	40.719
273.21	42.562
273.58	43.927
273.95	45.585
274.32	42.607
274.69	43.307
275.06	43.716
275.43	41.379
275.80	41.509
276.17	39.338
276.54	43.178
276.91	42.724
277.28	41.423
277.65	41.697
278.02	41.544
278.39	40.827
278.76	41.379
279.13	38.078
279.50	42.364
279.87	40.410
280.23	40.884
280.60	43.431
280.97	40.345
281.34	40.099
281.71	40.348
282.08	42.735
282.45	37.500
282.82	41.806
283.19	36.725
283.56	41.157
283.92	43.648
284.29	41.431
284.66	39.664
285.03	38.972
285.40	40.661
285.77	36.728
286.14	38.545
286.51	39.571
286.87	36.867
287.24	35.736
287.61	37.386
287.98	36.269
288.35	37.481
288.72	37.178
289.08	38.739
289.45	39.024
289.82	38.906
290.19	36.457
290.56	37.263
290.93	36.115
291.29	36.326
291.66	36.158
292.03	33.520
292.40	34.011
292.77	35.794
293.13	35.235
293.50	35.088
293.87	32.927
294.24	36.364
294.60	35.935
294.97	35.944
295.34	33.732
295.71	32.720
296.08	33.600
296.44	34.689
296.81	33.747
297.18	32.826
297.55	32.635
297.91	31.773
298.28	32.850
298.65	32.393
299.02	31.604
299.38	32.854
299.75	33.171
300.12	31.766
300.48	33.021
300.85	33.731
301.22	31.279
301.59	30.660
301.95	31.972
302.32	32.596
302.69	34.163
303.05	33.558
303.42	30.605
303.79	32.178
304.15	33.003
304.52	31.501
304.89	32.623
305.25	33.593
305.62	32.090
305.99	33.370
306.35	30.105
306.72	31.842
307.09	30.952
307.45	32.207
307.82	31.893
308.19	33.299
308.55	31.400
308.92	31.501
309.29	32.840
309.65	32.210
310.02	33.874
310.38	33.101
310.75	32.787
311.12	33.238
311.48	36.390
311.85	34.256
312.22	34.862
312.58	34.694
312.95	34.951
313.31	36.330
313.68	35.366
314.05	36.264
314.41	36.034
314.78	38.636
315.14	38.009
315.51	39.167
315.87	38.412
316.24	39.216
316.61	38.854
316.97	40.183
317.34	41.779
317.70	40.386
318.07	42.349
318.43	42.267
318.80	44.046
319.16	42.920
319.53	43.805
319.89	44.086
320.26	48.324
320.62	47.619
320.99	47.569
321.35	46.197
321.72	48.387
322.08	49.677
322.45	51.135
322.81	52.150
323.18	51.066
323.54	53.833
323.91	55.485
324.27	55.880
324.64	57.180
325.00	59.310
325.37	58.432
325.73	59.275
326.10	60.563
326.46	61.519
326.83	60.960
327.19	63.133
327.56	63.259
327.92	64.508
328.29	66.530
328.65	67.637
329.01	67.579
329.38	68.528
329.74	67.037
330.11	70.287
330.47	68.457
330.84	68.852
331.20	71.151
331.56	71.503
331.93	71.600
332.29	72.704
332.66	72.704
333.02	70.704
333.38	73.298
333.75	73.394
334.11	73.238
334.48	74.786
334.84	71.959
335.20	74.679
335.57	72.796
335.93	73.591
336.29	71.642
336.66	76.329
337.02	74.508
337.38	73.947
337.75	75.338
338.11	75.865
338.47	75.614
338.84	74.682
339.20	76.364
339.56	73.423
339.93	75.334
340.29	72.689
340.65	75.272
341.02	73.049
341.38	74.959
341.74	76.827
342.11	75.876
342.47	75.144
342.83	78.097
343.20	74.454
343.56	74.662
343.92	76.135
344.28	76.077
344.65	77.506
345.01	75.000
345.37	75.641
345.73	75.635
346.10	77.052
346.46	76.715
346.82	76.620
347.19	77.434
347.55	76.737
347.91	76.511
348.27	74.826
348.63	76.741
349.00	75.781
349.36	77.899
349.72	78.287
350.08	77.484
350.45	77.380
350.81	76.682
351.17	76.194
351.53	77.444
351.89	77.312
352.26	77.475
352.62	78.808
352.98	77.147
353.34	77.273
353.70	76.988
354.07	79.231
354.43	77.496
354.79	76.993
355.15	79.020
355.51	77.039
355.87	78.916
356.24	77.983
356.60	77.854
356.96	79.530
357.32	79.427
357.68	77.533
358.04	80.091
358.40	79.235
358.77	79.865
359.13	78.979
359.49	78.503
359.85	78.555
360.21	78.603
360.57	78.102
360.93	78.355
361.29	79.221
361.66	79.866
362.02	79.403
362.38	79.654
362.74	80.538
363.10	79.243
363.46	78.936
363.82	79.804
364.18	81.223
364.54	81.688
364.90	78.581
365.26	80.847
365.62	80.525
365.98	78.114
366.35	77.793
366.71	80.985
367.07	81.775
367.43	81.128
367.79	78.457
368.15	79.919
368.51	79.462
368.87	81.522
369.23	80.665
369.59	79.973
369.95	81.678
370.31	80.287
370.67	79.112
371.03	80.252
371.39	80.540
371.75	79.344
372.11	80.557
372.47	79.041
372.83	80.557
373.19	80.260
373.55	80.619
373.91	79.972
374.27	80.225
374.63	79.932
374.99	81.469
375.35	81.317
375.71	81.135
376.07	81.631
376.42	79.348
376.78	82.274
377.14	81.324
377.50	81.461
377.86	80.269
378.22	81.292
378.58	81.780
378.94	80.869
379.30	82.232
379.66	82.962
380.02	81.056
380.38	80.562
380.74	82.122
381.09	81.484
381.45	79.711
381.81	80.142
382.17	81.013
382.53	80.504
382.89	80.012
383.25	80.580
383.61	79.885
383.97	80.264
384.32	80.289
384.68	80.154
385.04	80.363
385.40	80.368
385.76	79.169
386.12	80.519
386.48	81.277
386.83	81.051
387.19	79.682
387.55	80.506
387.91	80.774
388.27	81.737
388.62	79.167
388.98	78.776
389.34	79.952
389.70	78.479
390.06	80.244
390.42	79.581
390.77	79.975
391.13	79.240
391.49	77.979
391.85	80.308
392.20	79.321
392.56	78.793
392.92	78.608
393.28	78.643
393.64	78.670
393.99	79.135
394.35	76.986
394.71	77.382
395.07	77.981
395.42	78.454
395.78	77.668
396.14	78.916
396.50	77.437
396.85	77.988
397.21	77.858
397.57	77.645
397.92	76.141
398.28	78.103
398.64	77.545
399.00	74.987
399.35	75.523
399.71	77.042
400.07	75.057
400.42	77.851
400.78	75.836
401.14	75.690
401.49	75.922
401.85	76.535
402.21	76.040
402.57	76.302
402.92	75.212
403.28	73.866
403.63	75.397
403.99	75.694
404.35	75.850
404.70	75.074
405.06	73.217
405.42	74.626
405.77	74.035
406.13	72.560
406.49	73.451
406.84	73.209
407.20	74.600
407.55	74.462
407.91	74.410
408.27	73.438
408.62	72.915
408.98	72.501
409.34	70.602
409.69	73.180
410.05	72.809
410.40	72.144
410.76	72.639
411.11	72.038
411.47	72.716
411.83	72.642
412.18	72.464
412.54	71.652
412.89	71.268
413.25	71.779
413.60	70.444
413.96	71.933
414.31	71.488
414.67	73.929
415.03	72.861
415.38	73.186
415.74	74.163
416.09	73.704
416.45	72.915
416.80	74.150
417.16	73.011
417.51	73.121
417.87	73.780
418.22	72.357
418.58	73.503
418.93	72.992
419.29	72.643
419.64	72.986
420.00	72.971
420.35	74.913
420.71	73.104
421.06	72.749
421.42	73.115
421.77	74.514
422.12	73.705
422.48	73.806
422.83	75.056
423.19	73.758
423.54	73.560
423.90	74.236
424.25	75.014
424.61	74.985
424.96	74.929
425.31	75.041
425.67	76.375
426.02	74.481
426.38	74.212
426.73	75.246
427.09	75.801
427.44	75.239
427.79	76.615
428.15	76.488
428.50	76.343
428.85	76.720
429.21	76.013
429.56	75.025
429.92	75.932
430.27	75.762
430.62	74.156
430.98	75.200
431.33	74.748
431.68	74.568
432.04	76.927
432.39	76.180
432.74	77.518
433.10	76.190
433.45	77.829
433.80	76.999
434.16	75.828
434.51	76.574
434.86	77.246
435.22	76.823
435.57	78.601
435.92	77.746
436.28	79.435
436.63	77.688
436.98	80.236
437.34	77.511
437.69	76.988
438.04	76.505
438.39	77.700
438.75	77.060
439.10	77.982
439.45	77.332
439.81	76.923
440.16	77.986
440.51	76.858
440.86	79.259
441.22	76.461
441.57	78.898
441.92	77.147
442.27	78.196
442.63	77.642
442.98	77.371
443.33	77.933
443.68	77.767
444.03	77.144
444.39	77.966
444.74	77.226
445.09	78.410
445.44	78.480
445.79	78.752
446.15	78.158
446.50	77.268
446.85	77.241
447.20	78.657
447.55	79.772
447.91	80.021
448.26	78.062
448.61	79.160
448.96	79.902
449.31	79.538
449.66	78.904
450.02	78.552
450.37	79.400
450.72	81.433
451.07	79.174
451.42	79.312
451.77	78.866
452.12	80.147
452.47	79.587
452.83	79.324
453.18	79.760
453.53	79.751
453.88	78.400
454.23	79.314
454.58	79.662
454.93	79.522
455.28	81.395
455.63	80.556
455.98	77.439
456.34	80.973
456.69	79.756
457.04	78.341
457.39	78.914
457.74	80.462
458.09	78.214
458.44	78.313
458.79	79.735
459.14	78.669
459.49	79.785
459.84	81.196
460.19	78.927
460.54	78.917
460.89	79.211
461.24	77.778
461.59	80.329
461.94	78.428
462.29	79.176
462.64	79.585
462.99	79.335
463.34	80.622
463.69	79.552
464.04	80.426
464.39	79.107
464.74	77.257
465.09	77.945
465.44	77.639
465.79	79.042
466.14	77.266
466.49	79.598
466.84	79.208
467.19	77.504
467.54	78.799
467.89	79.049
468.24	80.371
468.59	77.381
468.94	80.374
469.29	77.886
469.64	78.907
469.99	79.177
470.34	78.115
470.68	79.241
471.03	80.120
471.38	79.338
471.73	79.817
472.08	80.757
472.43	79.888
472.78	79.577
473.13	77.534
473.48	78.851
473.83	79.446
474.17	80.182
474.52	78.021
474.87	78.511
475.22	79.897
475.57	78.174
475.92	78.436
476.27	77.639
476.61	78.070
476.96	77.534
477.31	80.566
477.66	79.227
478.01	77.978
478.36	78.785
478.70	77.469
479.05	80.021
479.40	77.431
479.75	77.855
480.10	78.025
480.45	78.198
480.79	77.788
481.14	78.745
481.49	76.532
481.84	77.441
482.19	77.729
482.53	76.812
482.88	78.808
483.23	77.176
483.58	77.828
483.92	79.479
484.27	76.413
484.62	77.547
484.97	75.263
485.31	75.933
485.66	74.038
486.01	71.912
486.36	72.410
486.70	72.037
487.05	73.543
487.40	74.074
487.75	74.870
488.09	74.318
488.44	74.920
488.79	76.501
489.13	76.484
489.48	77.227
489.83	76.647
490.17	75.970
490.52	77.562
490.87	76.681
491.22	77.881
491.56	77.866
491.91	76.792
492.26	77.327
492.60	77.995
492.95	77.526
493.30	77.070
493.64	77.358
493.99	75.805
494.34	76.782
494.68	76.715
495.03	76.875
495.37	77.082
495.72	78.228
496.07	77.269
496.41	75.673
496.76	76.066
497.11	76.050
497.45	75.318
497.80	76.923
498.14	76.745
498.49	76.648
498.84	77.710
499.18	76.005
499.53	76.803
499.87	75.921
500.22	77.522
500.56	76.602
500.91	76.809
501.26	76.757
501.60	76.867
501.95	75.045
502.29	75.733
502.64	74.636
502.98	75.145
503.33	75.412
503.67	75.585
504.02	75.549
504.36	75.294
504.71	77.483
505.06	75.692
505.40	76.228
505.75	75.444
506.09	77.322
506.44	77.444
506.78	77.410
507.13	77.024
507.47	77.341
507.82	76.399
508.16	77.756
508.51	77.005
508.85	75.831
509.19	77.484
509.54	75.293
509.88	77.772
510.23	75.931
510.57	74.662
510.92	77.822
511.26	76.506
511.61	75.677
511.95	76.356
512.30	76.050
512.64	77.362
512.98	76.525
513.33	76.691
513.67	76.023
514.02	77.662
514.36	75.753
514.70	77.120
515.05	77.730
515.39	79.989
515.74	78.568
516.08	78.268
516.42	80.000
516.77	75.893
517.11	77.067
517.46	75.754
517.80	77.226
518.14	78.254
518.49	76.736
518.83	76.868
519.17	77.759
519.52	78.755
519.86	79.019
520.20	77.041
520.55	77.501
520.89	76.149
521.23	77.687
521.58	78.084
521.92	78.426
522.26	77.429
522.61	79.382
522.95	78.919
523.29	78.304
523.64	75.896
523.98	78.697
524.32	75.952
524.66	77.913
525.01	78.047
525.35	76.606
525.69	77.724
526.04	77.870
526.38	77.928
526.72	78.520
527.06	75.991
527.41	78.114
527.75	77.480
528.09	77.243
528.43	78.096
528.78	77.162
529.12	77.664
529.46	75.511
529.80	76.577
530.15	76.959
530.49	77.136
530.83	76.722
531.17	78.167
531.51	77.560
531.86	75.483
532.20	76.020
532.54	76.208
532.88	76.952
533.22	75.503
533.57	76.327
533.91	73.776
534.25	74.207
534.59	76.082
534.93	74.061
535.27	74.559
535.62	74.737
535.96	75.827
536.30	76.904
536.64	75.776
536.98	76.149
537.32	75.250
537.66	76.276
538.01	75.356
538.35	75.234
538.69	73.483
539.03	74.316
539.37	73.847
539.71	75.000
540.05	75.262
540.39	75.220
540.73	76.582
541.07	74.028
541.42	74.440
541.76	74.908
542.10	74.291
542.44	75.000
542.78	74.890
543.12	74.233
543.46	73.559
543.80	75.125
544.14	75.666
544.48	73.844
544.82	75.168
545.16	72.253
545.50	74.186
545.84	74.684
546.18	76.333
546.52	75.016
546.86	73.694
547.20	75.065
547.54	73.654
547.88	72.506
548.22	73.467
548.56	74.425
548.90	73.369
549.24	73.910
549.58	72.874
549.92	75.442
550.26	75.592
550.60	73.387
550.94	75.645
551.28	75.586
551.62	76.000
551.96	75.000
552.30	73.566
552.64	74.757
552.98	74.227
553.32	73.303
553.66	74.137
554.00	73.295
554.34	74.501
554.68	73.656
555.02	74.678
555.36	73.205
555.69	74.411
556.03	72.420
556.37	72.020
556.71	74.185
557.05	73.001
557.39	73.200
557.73	73.113
558.07	74.245
558.41	74.229
558.75	74.897
559.08	76.483
559.42	75.089
559.76	76.194
560.10	73.916
560.44	72.462
560.78	73.849
561.12	74.571
561.45	74.406
561.79	72.472
562.13	73.152
562.47	73.134
562.81	74.040
563.15	73.174
563.48	70.497
563.82	73.674
564.16	73.507
564.50	71.007
564.84	73.252
565.17	70.588
565.51	72.906
565.85	73.473
566.19	72.500
566.52	72.262
566.86	72.913
567.20	71.685
567.54	72.052
567.88	72.040
568.21	68.947
568.55	70.039
568.89	69.617
569.23	68.507
569.56	68.690
569.90	67.086
570.24	66.985
570.57	66.613
570.91	66.646
571.25	65.866
571.59	65.369
571.92	65.231
572.26	64.394
572.60	64.926
572.93	66.130
573.27	65.652
573.61	65.024
573.95	64.741
574.28	65.245
574.62	64.206
574.96	63.653
575.29	63.029
575.63	62.827
575.97	63.023
576.30	62.921
576.64	63.196
576.98	63.362
577.31	63.987
577.65	63.286
577.98	63.248
578.32	62.643
578.66	63.142
578.99	62.870
579.33	63.396
579.67	62.705
580.00	63.105
580.34	63.143
580.67	62.685
581.01	63.573
581.35	62.512
581.68	61.501
582.02	61.837
582.35	62.255
582.69	62.789
583.02	62.817
583.36	63.784
583.70	63.431
584.03	64.877
584.37	64.286
584.70	63.150
585.04	63.193
585.37	62.444
585.71	64.247
586.04	62.627
586.38	63.275
586.72	63.938
587.05	63.664
587.39	63.793
587.72	63.698
588.06	63.174
588.39	64.202
588.73	64.151
589.06	64.867
589.40	64.538
589.73	64.012
590.07	65.305
590.40	65.714
590.73	66.875
591.07	66.300
591.40	66.188
591.74	65.584
592.07	66.140
592.41	65.787
592.74	64.482
593.08	64.453
593.41	63.525
593.75	62.372
594.08	64.275
594.41	63.441
594.75	63.356
595.08	64.472
595.42	64.384
595.75	64.890
596.09	64.442
596.42	64.712
596.75	66.226
597.09	65.827
597.42	64.286
597.75	64.544
598.09	64.177
598.42	64.463
598.76	64.379
599.09	64.288
599.42	63.356
599.76	63.229
600.09	62.881
600.42	63.881
600.76	64.480
601.09	63.445
601.42	63.780
601.76	64.590
602.09	64.349
602.42	63.697
602.76	63.909
603.09	64.404
603.42	64.440
603.76	63.196
604.09	63.916
604.42	64.143
604.76	64.836
605.09	64.286
605.42	64.567
605.75	63.877
606.09	63.007
606.42	63.848
606.75	64.050
607.09	63.561
607.42	63.600
607.75	63.495
608.08	63.769
608.42	63.884
608.75	63.928
609.08	63.924
609.41	64.000
609.75	66.117
610.08	64.973
610.41	63.329
610.74	64.416
611.07	64.393
611.41	65.153
611.74	65.535
612.07	65.366
612.40	65.448
612.73	65.502
613.07	65.535
613.40	66.065
613.73	65.552
614.06	63.800
614.39	66.667
614.72	64.088
615.06	63.600
615.39	64.752
615.72	63.069
616.05	64.490
616.38	64.079
616.71	65.328
617.05	65.239
617.38	64.551
617.71	66.423
618.04	65.788
618.37	64.480
618.70	65.416
619.03	66.728
619.36	65.578
619.69	66.689
620.03	67.515
620.36	68.144
620.69	68.072
621.02	67.595
621.35	65.974
621.68	68.068
622.01	68.708
622.34	67.444
622.67	67.065
623.00	66.236
623.33	66.937
623.66	66.334
623.99	67.123
624.32	66.260
624.65	66.162
624.99	66.937
625.32	67.401
625.65	64.966
625.98	66.388
626.31	68.769
626.64	67.122
626.97	67.559
627.30	68.478
627.63	68.603
627.96	68.232
628.29	69.719
628.62	69.033
628.95	69.947
629.28	69.588
629.61	69.420
629.94	70.700
630.26	69.757
630.59	68.972
630.92	69.148
631.25	69.628
