SpectraSuite Data File
++++++++++++++++++++++++++++++++++++
Date: Tue May 12 16:32:05 PDT 2015
User: schluterlab
Dark Spectrum Present: Yes
Reference Spectrum Present: Yes
Number of Sampled Component Spectra: 1
Spectrometers: USB2E3373
Integration Time (usec): 3000 (USB2E3373)
Spectra Averaged: 3 (USB2E3373)
Boxcar Smoothing: 0 (USB2E3373)
Correct for Electrical Dark: No (USB2E3373)
Strobe/Lamp Enabled: No (USB2E3373)
Correct for Detector Non-linearity: No (USB2E3373)
Correct for Stray Light: No (USB2E3373)
Number of Pixels in Processed Spectrum: 2048
>>>>>Begin Processed Spectral Data<<<<<
178.53	0.000
178.91	-183.333
179.29	-675.000
179.67	-2700.000
180.04	-80.000
180.42	475.000
180.80	1450.000
181.18	0.000
181.56	-337.500
181.94	0.000
182.31	966.667
182.69	-2600.000
183.07	528.571
183.45	-3300.000
183.83	-1350.000
184.20	370.000
184.58	471.429
184.96	-207.692
185.34	-258.333
185.72	1600.000
186.09	-525.000
186.47	-2500.000
186.85	733.333
187.23	540.000
187.61	1450.000
187.98	400.000
188.36	235.714
188.74	275.000
189.12	391.667
189.49	925.000
189.87	0.000
190.25	375.000
190.63	2700.000
191.00	-200.000
191.38	-3500.000
191.76	-750.000
192.14	437.500
192.51	-2700.000
192.89	2000.000
193.27	700.000
193.65	-1200.000
194.02	-860.000
194.40	485.714
194.78	-221.429
195.15	240.000
195.53	-3500.000
195.91	-480.000
196.29	2800.000
196.66	275.000
197.04	775.000
197.42	-1900.000
197.79	675.000
198.17	333.333
198.55	0.000
198.92	485.714
199.30	666.667
199.68	1600.000
200.05	666.667
200.43	-466.667
200.81	183.333
201.18	3700.000
201.56	341.667
201.94	-925.000
202.31	-375.000
202.69	-540.000
203.07	3000.000
203.44	-433.333
203.82	333.333
204.19	520.000
204.57	-1650.000
204.95	-750.000
205.32	-840.000
205.70	550.000
206.08	650.000
206.45	-833.333
206.83	400.000
207.20	142.105
207.58	233.333
207.96	560.000
208.33	0.000
208.71	628.571
209.08	840.000
209.46	-3400.000
209.84	-750.000
210.21	980.000
210.59	-340.000
210.96	291.667
211.34	-825.000
211.71	363.636
212.09	800.000
212.46	1250.000
212.84	-450.000
213.22	433.333
213.59	-3100.000
213.97	310.000
214.34	750.000
214.72	1066.667
215.09	966.667
215.47	-2200.000
215.84	-310.000
216.22	-462.500
216.59	0.000
216.97	0.000
217.34	1500.000
217.72	-1850.000
218.09	1033.333
218.47	512.500
218.84	900.000
219.22	1033.333
219.59	966.667
219.97	614.286
220.34	400.000
220.72	1700.000
221.09	3700.000
221.47	200.000
221.84	1200.000
222.22	360.000
222.59	227.778
222.97	185.714
223.34	243.750
223.72	-1850.000
224.09	1066.667
224.46	223.077
224.84	-875.000
225.21	422.222
225.59	266.667
225.96	1033.333
226.34	-780.000
226.71	-725.000
227.08	-380.000
227.46	0.000
227.83	-616.667
228.21	-1750.000
228.58	366.667
228.95	725.000
229.33	322.222
229.70	850.000
230.08	346.154
230.45	3100.000
230.82	-775.000
231.20	-633.333
231.57	-1266.667
231.95	560.000
232.32	341.667
232.69	516.667
233.07	208.333
233.44	-1800.000
233.81	186.667
234.19	218.519
234.56	225.000
234.93	247.059
235.31	225.000
235.68	325.000
236.05	150.000
236.43	155.556
236.80	307.143
237.17	210.345
237.55	171.875
237.92	132.500
238.29	187.879
238.67	171.875
239.04	136.585
239.41	104.167
239.79	147.500
240.16	133.333
240.53	122.951
240.91	111.594
241.28	110.169
241.65	109.091
242.02	109.859
242.40	110.000
242.77	97.802
243.14	103.797
243.51	104.040
243.89	83.178
244.26	84.112
244.63	98.020
245.00	85.321
245.38	84.746
245.75	87.121
246.12	84.444
246.49	77.305
246.87	88.525
247.24	81.333
247.61	85.625
247.98	87.755
248.36	71.515
248.73	76.020
249.10	79.167
249.47	72.500
249.84	73.134
250.22	77.297
250.59	79.500
250.96	69.620
251.33	79.070
251.70	70.089
252.08	72.689
252.45	68.924
252.82	69.962
253.19	67.194
253.56	70.385
253.94	67.029
254.31	70.543
254.68	68.293
255.05	73.793
255.42	72.263
255.79	68.404
256.16	74.915
256.54	71.104
256.91	70.588
257.28	70.569
257.65	64.890
258.02	66.962
258.39	65.616
258.76	69.275
259.14	66.000
259.51	71.137
259.88	69.909
260.25	65.659
260.62	68.493
260.99	63.636
261.36	67.688
261.73	68.085
262.10	69.895
262.47	65.750
262.85	65.067
263.22	67.866
263.59	67.008
263.96	65.915
264.33	63.951
264.70	65.356
265.07	63.902
265.44	63.073
265.81	67.925
266.18	66.819
266.55	67.849
266.92	63.087
267.29	65.351
267.66	64.574
268.03	65.695
268.40	62.579
268.77	63.877
269.14	65.293
269.51	63.920
269.88	62.449
270.25	62.635
270.62	64.592
270.99	64.503
271.36	64.431
271.73	65.199
272.10	61.818
272.47	61.111
272.84	58.882
273.21	63.636
273.58	63.765
273.95	62.218
274.32	59.922
274.69	65.157
275.06	62.295
275.43	60.153
275.80	62.830
276.17	60.846
276.54	58.131
276.91	64.739
277.28	60.401
277.65	62.362
278.02	60.478
278.39	60.432
278.76	60.517
279.13	61.388
279.50	59.091
279.87	57.356
280.23	58.748
280.60	58.394
280.97	60.000
281.34	59.736
281.71	60.174
282.08	60.171
282.45	58.108
282.82	57.525
283.19	57.393
283.56	58.843
283.92	59.283
284.29	58.569
284.66	58.151
285.03	59.867
285.40	58.843
285.77	55.556
286.14	57.121
286.51	55.982
286.87	56.329
287.24	56.757
287.61	52.736
287.98	53.433
288.35	54.815
288.72	55.690
289.08	54.655
289.45	55.640
289.82	54.062
290.19	52.709
290.56	55.022
290.93	52.950
291.29	50.967
291.66	52.401
292.03	51.052
292.40	51.084
292.77	49.721
293.13	51.355
293.50	50.067
293.87	46.883
294.24	52.448
294.60	48.856
294.97	50.909
295.34	46.746
295.71	48.095
296.08	47.467
296.44	48.539
296.81	47.519
297.18	44.613
297.55	47.660
297.91	46.059
298.28	45.411
298.65	46.626
299.02	47.527
299.38	46.043
299.75	46.220
300.12	45.642
300.48	46.604
300.85	47.437
301.22	45.698
301.59	45.637
301.95	45.274
302.32	46.449
302.69	45.588
303.05	45.791
303.42	44.170
303.79	45.937
304.15	45.325
304.52	44.397
304.89	45.522
305.25	45.161
305.62	44.776
305.99	46.087
306.35	45.789
306.72	46.618
307.09	45.859
307.45	45.618
307.82	46.605
308.19	47.010
308.55	44.300
308.92	46.320
309.29	47.830
309.65	47.275
310.02	48.174
310.38	48.156
310.75	46.480
311.12	46.360
311.48	49.903
311.85	48.760
312.22	48.711
312.58	48.688
312.95	49.417
313.31	50.562
313.68	49.719
314.05	51.923
314.41	51.490
314.78	53.030
315.14	54.123
315.51	55.345
315.87	51.825
316.24	53.595
316.61	53.715
316.97	53.853
317.34	55.346
317.70	56.365
318.07	59.253
318.43	57.645
318.80	58.319
319.16	59.003
319.53	59.558
319.89	59.857
320.26	61.732
320.62	63.370
320.99	63.203
321.35	62.709
321.72	64.516
322.08	66.944
322.45	65.395
322.81	66.057
323.18	66.963
323.54	68.467
323.91	68.540
324.27	68.700
324.64	70.588
325.00	72.155
325.37	71.248
325.73	73.777
326.10	75.394
326.46	73.576
326.83	74.000
327.19	76.064
327.56	75.958
327.92	78.361
328.29	77.005
328.65	76.884
329.01	78.871
329.38	77.496
329.74	77.284
330.11	80.365
330.47	79.710
330.84	78.085
331.20	78.511
331.56	83.592
331.93	81.266
332.29	81.633
332.66	79.337
333.02	78.866
333.38	80.890
333.75	79.566
334.11	81.376
334.48	81.453
334.84	79.223
335.20	80.068
335.57	79.345
335.93	80.656
336.29	77.446
336.66	81.218
337.02	79.641
337.38	79.278
337.75	79.983
338.11	79.831
338.47	77.985
338.84	79.848
339.20	78.788
339.56	78.974
339.93	80.017
340.29	78.403
340.65	81.559
341.02	79.485
341.38	77.833
341.74	79.651
342.11	78.381
342.47	77.605
342.83	80.312
343.20	77.284
343.56	76.330
343.92	79.604
344.28	80.303
344.65	79.462
345.01	78.730
345.37	78.926
345.73	76.905
346.10	78.327
346.46	78.150
346.82	78.009
347.19	79.212
347.55	77.205
347.91	77.417
348.27	77.382
348.63	78.797
349.00	77.075
349.36	79.455
349.72	78.670
350.08	79.658
350.45	77.304
350.81	78.440
351.17	76.425
351.53	78.368
351.89	78.166
352.26	77.702
352.62	77.451
352.98	78.374
353.34	78.582
353.70	76.835
354.07	77.538
354.43	77.189
354.79	77.145
355.15	77.642
355.51	77.568
355.87	78.690
356.24	78.445
356.60	77.549
356.96	78.848
357.32	78.071
357.68	77.239
358.04	79.255
358.40	79.610
358.77	80.015
359.13	78.303
359.49	78.354
359.85	79.077
360.21	78.306
360.57	79.854
360.93	77.778
361.29	78.066
361.66	79.791
362.02	75.994
362.38	79.726
362.74	79.618
363.10	79.102
363.46	77.624
363.82	77.910
364.18	79.018
364.54	80.544
364.90	78.179
365.26	79.736
365.62	79.282
365.98	77.977
366.35	79.172
366.71	79.944
367.07	79.044
367.43	78.509
367.79	78.059
368.15	79.240
368.51	79.600
368.87	79.212
369.23	79.695
369.59	78.355
369.95	81.259
370.31	79.877
370.67	78.765
371.03	78.992
371.39	80.679
371.75	79.833
372.11	77.634
372.47	79.795
372.83	80.489
373.19	78.615
373.55	80.275
373.91	79.351
374.27	79.497
374.63	79.932
374.99	81.132
375.35	81.720
375.71	79.947
376.07	81.366
376.42	78.964
376.78	80.218
377.14	80.537
377.50	80.275
377.86	81.486
378.22	80.195
378.58	81.840
378.94	81.835
379.30	81.868
379.66	82.240
380.02	81.701
380.38	81.265
380.74	81.719
381.09	82.593
381.45	80.636
381.81	81.087
382.17	80.952
382.53	82.723
382.89	82.732
383.25	81.705
383.61	81.787
383.97	81.824
384.32	83.002
384.68	82.650
385.04	82.474
385.40	82.859
385.76	82.095
386.12	83.735
386.48	83.465
386.83	83.985
387.19	83.569
387.55	83.039
387.91	82.968
388.27	83.879
388.62	83.627
388.98	81.983
389.34	81.559
389.70	83.726
390.06	82.439
390.42	83.220
390.77	83.722
391.13	83.826
391.49	81.246
391.85	84.492
392.20	83.075
392.56	82.915
392.92	83.043
393.28	83.800
393.64	84.117
393.99	84.173
394.35	83.520
394.71	82.750
395.07	83.394
395.42	83.841
395.78	83.899
396.14	83.976
396.50	83.634
396.85	84.695
397.21	84.777
397.57	83.921
397.92	83.420
398.28	84.777
398.64	84.933
399.00	83.111
399.35	82.984
399.71	83.940
400.07	83.447
400.42	84.597
400.78	84.047
401.14	84.674
401.49	82.892
401.85	84.589
402.21	84.417
402.57	84.321
402.92	87.273
403.28	83.831
403.63	82.048
403.99	84.560
404.35	83.822
404.70	85.115
405.06	83.773
405.42	84.141
405.77	81.918
406.13	82.267
406.49	82.831
406.84	82.910
407.20	83.333
407.55	83.446
407.91	85.705
408.27	83.808
408.62	82.555
408.98	82.377
409.34	82.116
409.69	84.754
410.05	83.244
410.40	83.569
410.76	82.313
411.11	84.656
411.47	82.222
411.83	81.547
412.18	83.273
412.54	83.303
412.89	83.717
413.25	81.528
413.60	82.710
413.96	84.381
414.31	83.943
414.67	84.854
415.03	83.397
415.38	82.650
415.74	84.270
416.09	83.260
416.45	85.844
416.80	84.734
417.16	82.495
417.51	83.949
417.87	83.229
418.22	83.171
418.58	83.631
418.93	85.068
419.29	82.009
419.64	83.404
420.00	84.666
420.35	84.611
420.71	82.905
421.06	84.285
421.42	84.974
421.77	84.842
422.12	85.061
422.48	82.383
422.83	85.212
423.19	82.343
423.54	83.105
423.90	84.315
424.25	85.581
424.61	84.678
424.96	84.529
425.31	85.167
425.67	86.251
426.02	85.306
426.38	84.597
426.73	86.524
427.09	84.282
427.44	84.299
427.79	87.307
428.15	84.856
428.50	84.629
428.85	84.480
429.21	83.468
429.56	84.098
429.92	85.082
430.27	84.761
430.62	83.651
430.98	85.579
431.33	84.526
431.68	83.901
432.04	82.566
432.39	84.468
432.74	84.426
433.10	86.379
433.45	86.904
433.80	87.590
434.16	84.656
434.51	85.655
434.86	84.758
435.22	85.900
435.57	86.426
435.92	86.739
436.28	86.578
436.63	84.549
436.98	87.894
437.34	86.244
437.69	86.282
438.04	84.839
438.39	85.231
438.75	85.969
439.10	86.346
439.45	85.415
439.81	86.929
440.16	86.131
440.51	83.840
440.86	87.977
441.22	85.985
441.57	85.879
441.92	85.735
442.27	87.784
442.63	86.636
442.98	86.692
443.33	85.967
443.68	86.318
444.03	87.182
444.39	86.911
444.74	86.180
445.09	87.309
445.44	86.929
445.79	86.404
446.15	87.474
446.50	87.078
446.85	88.297
447.20	86.915
447.55	89.342
447.91	88.013
448.26	86.209
448.61	88.944
448.96	87.908
449.31	88.889
449.66	88.151
450.02	86.602
450.37	89.395
450.72	89.201
451.07	88.249
451.42	87.196
451.77	87.743
452.12	87.238
452.47	88.700
452.83	87.437
453.18	87.568
453.53	89.224
453.88	87.943
454.23	87.914
454.58	86.655
454.93	87.370
455.28	88.617
455.63	88.298
455.98	86.915
456.34	88.450
456.69	89.512
457.04	89.320
457.39	85.657
457.74	88.345
458.09	87.254
458.44	87.678
458.79	86.897
459.14	87.616
459.49	86.863
459.84	89.348
460.19	88.136
460.54	87.692
460.89	87.207
461.24	86.712
461.59	88.719
461.94	87.234
462.29	88.501
462.64	88.568
462.99	86.628
463.34	88.464
463.69	86.207
464.04	88.256
464.39	86.949
464.74	87.046
465.09	86.071
465.44	87.378
465.79	87.697
466.14	85.957
466.49	86.978
466.84	86.399
467.19	86.995
467.54	85.586
467.89	87.500
468.24	87.319
468.59	85.536
468.94	87.560
469.29	87.477
469.64	86.817
469.99	85.861
470.34	86.275
470.68	86.069
471.03	89.059
471.38	86.821
471.73	85.042
472.08	89.367
472.43	88.020
472.78	86.620
473.13	85.169
473.48	85.391
473.83	87.456
474.17	87.416
474.52	85.190
474.87	85.446
475.22	86.465
475.57	84.732
475.92	85.795
476.27	85.092
476.61	86.488
476.96	84.953
477.31	86.067
477.66	87.976
478.01	85.972
478.36	86.612
478.70	84.467
479.05	86.036
479.40	84.921
479.75	86.097
480.10	86.496
480.45	85.528
480.79	85.300
481.14	85.307
481.49	85.361
481.84	84.697
482.19	85.459
482.53	84.717
482.88	85.439
483.23	85.521
483.58	85.817
483.92	86.152
484.27	82.962
484.62	85.187
484.97	84.262
485.31	83.886
485.66	83.790
486.01	83.724
486.36	83.393
486.70	83.659
487.05	83.025
487.40	83.215
487.75	84.388
488.09	84.006
488.44	83.716
488.79	83.686
489.13	84.211
489.48	83.740
489.83	83.653
490.17	83.237
490.52	84.281
490.87	83.836
491.22	85.018
491.56	82.740
491.91	83.961
492.26	83.697
492.60	84.146
492.95	83.416
493.30	82.894
493.64	83.962
493.99	83.989
494.34	83.684
494.68	83.842
495.03	84.284
495.37	82.846
495.72	83.543
496.07	83.378
496.41	82.711
496.76	82.187
497.11	83.719
497.45	82.815
497.80	84.106
498.14	82.524
498.49	83.333
498.84	83.598
499.18	82.541
499.53	82.729
499.87	81.986
500.22	83.602
500.56	83.055
500.91	84.462
501.26	83.188
501.60	82.559
501.95	82.661
502.29	82.400
502.64	81.650
502.98	82.303
503.33	81.693
503.67	81.943
504.02	81.102
504.36	82.760
504.71	84.059
505.06	81.886
505.40	82.265
505.75	81.338
506.09	81.195
506.44	81.767
506.78	82.892
507.13	82.937
507.47	81.951
507.82	81.557
508.16	83.488
508.51	82.609
508.85	83.001
509.19	83.847
509.54	81.104
509.88	82.546
510.23	81.667
510.57	81.419
510.92	82.468
511.26	82.129
511.61	81.635
511.95	80.538
512.30	80.650
512.64	82.295
512.98	81.702
513.33	82.582
513.67	80.839
514.02	81.455
514.36	81.205
514.70	81.333
515.05	81.140
515.39	83.498
515.74	81.903
516.08	82.081
516.42	83.333
516.77	82.347
517.11	82.293
517.46	80.550
517.80	81.704
518.14	82.366
518.49	81.918
518.83	82.143
519.17	82.196
519.52	82.414
519.86	81.907
520.20	80.767
520.55	81.063
520.89	80.115
521.23	82.769
521.58	80.608
521.92	81.108
522.26	81.280
522.61	82.650
522.95	82.342
523.29	81.053
523.64	78.439
523.98	81.749
524.32	80.796
524.66	80.812
525.01	81.302
525.35	81.261
525.69	81.878
526.04	81.737
526.38	80.636
526.72	80.191
527.06	81.254
527.41	82.709
527.75	81.315
528.09	80.012
528.43	81.513
528.78	80.203
529.12	81.999
529.46	80.245
529.80	80.666
530.15	78.904
530.49	80.566
530.83	80.926
531.17	81.919
531.51	80.687
531.86	79.952
532.20	78.368
532.54	79.159
532.88	81.012
533.22	80.317
533.57	82.245
533.91	79.545
534.25	80.439
534.59	79.883
534.93	79.465
535.27	78.372
535.62	79.288
535.96	78.783
536.30	81.292
536.64	80.497
536.98	79.169
537.32	79.813
537.66	79.337
538.01	79.133
538.35	79.414
538.69	79.915
539.03	77.799
539.37	77.427
539.71	78.951
540.05	78.831
540.39	79.748
540.73	80.696
541.07	79.235
541.42	79.602
541.76	79.162
542.10	78.052
542.44	79.364
542.78	78.918
543.12	77.914
543.46	78.133
543.80	77.945
544.14	78.266
544.48	79.136
544.82	79.021
545.16	78.810
545.50	78.918
545.84	77.841
546.18	80.299
546.52	79.672
546.86	78.079
547.20	78.618
547.54	76.821
547.88	78.710
548.22	77.535
548.56	77.136
548.90	77.639
549.24	78.143
549.58	76.675
549.92	78.389
550.26	79.175
550.60	77.578
550.94	78.562
551.28	78.414
551.62	78.690
551.96	78.378
552.30	76.005
552.64	77.864
552.98	77.577
553.32	75.608
553.66	75.700
554.00	77.220
554.34	78.229
554.68	76.815
555.02	78.683
555.36	77.194
555.69	76.440
556.03	77.389
556.37	76.163
556.71	78.227
557.05	74.574
557.39	75.600
557.73	77.493
558.07	75.989
558.41	76.354
558.75	75.445
559.08	77.984
559.42	77.237
559.76	78.190
560.10	75.292
560.44	73.855
560.78	76.662
561.12	76.542
561.45	75.657
561.79	78.090
562.13	75.869
562.47	77.482
562.81	76.838
563.15	75.889
563.48	73.230
563.82	76.544
564.16	78.109
564.50	74.925
564.84	75.805
565.17	74.213
565.51	77.894
565.85	76.434
566.19	75.476
566.52	75.090
566.86	76.416
567.20	75.562
567.54	76.692
567.88	76.578
568.21	73.739
568.55	75.146
568.89	74.361
569.23	73.986
569.56	74.681
569.90	74.093
570.24	74.378
570.57	73.751
570.91	73.791
571.25	73.161
571.59	73.548
571.92	72.551
572.26	72.615
572.60	72.452
572.93	72.714
573.27	73.320
573.61	72.415
573.95	72.684
574.28	74.115
574.62	72.380
574.96	72.310
575.29	71.700
575.63	71.025
575.97	71.300
576.30	71.881
576.64	71.564
576.98	71.465
577.31	72.497
577.65	72.782
577.98	72.215
578.32	71.260
578.66	71.345
578.99	71.408
579.33	71.673
579.67	71.429
580.00	71.085
580.34	71.524
580.67	70.559
581.01	71.363
581.35	71.199
581.68	70.850
582.02	71.424
582.35	70.939
582.69	70.521
583.02	71.273
583.36	71.525
583.70	72.331
584.03	72.682
584.37	71.807
584.70	71.162
585.04	71.044
585.37	70.446
585.71	70.966
586.04	70.699
586.38	70.529
586.72	71.454
587.05	69.918
587.39	71.327
587.72	70.749
588.06	70.201
588.39	71.494
588.73	70.362
589.06	71.258
589.40	71.424
589.73	71.190
590.07	72.958
590.40	72.230
590.73	71.906
591.07	72.372
591.40	69.860
591.74	70.942
592.07	69.592
592.41	70.504
592.74	70.011
593.08	70.801
593.41	70.197
593.75	69.693
594.08	69.387
594.41	69.567
594.75	70.103
595.08	69.890
595.42	70.408
595.75	68.509
596.09	70.699
596.42	69.301
596.75	71.114
597.09	70.780
597.42	69.959
597.75	69.087
598.09	68.527
598.42	69.359
598.76	69.005
599.09	69.584
599.42	68.651
599.76	68.385
600.09	68.814
600.42	68.405
600.76	69.069
601.09	69.624
601.42	67.371
601.76	68.994
602.09	69.279
602.42	68.133
602.76	68.501
603.09	68.929
603.42	68.771
603.76	68.474
604.09	68.223
604.42	69.379
604.76	68.787
605.09	68.898
605.42	68.346
605.75	67.943
606.09	67.598
606.42	67.456
606.75	68.286
607.09	66.601
607.42	67.336
607.75	66.322
608.08	67.303
608.42	68.079
608.75	67.522
609.08	68.368
609.41	68.500
609.75	67.811
610.08	67.986
610.41	68.072
610.74	68.052
611.07	67.713
611.41	68.072
611.74	67.686
612.07	67.534
612.40	68.616
612.73	68.497
613.07	67.461
613.40	68.271
613.73	67.898
614.06	66.750
614.39	67.980
614.72	67.705
615.06	66.222
615.39	66.238
615.72	67.135
616.05	66.901
616.38	66.616
616.71	66.739
617.05	66.831
617.38	66.124
617.71	67.942
618.04	67.639
618.37	66.759
618.70	66.166
619.03	67.155
619.36	66.583
619.69	65.831
620.03	68.754
620.36	68.015
620.69	67.369
621.02	67.595
621.35	64.971
621.68	67.330
622.01	66.937
622.34	67.516
622.67	67.767
623.00	65.283
623.33	66.599
623.66	66.866
623.99	68.973
624.32	65.718
624.65	65.899
624.99	67.951
625.32	65.865
625.65	67.448
625.98	64.714
626.31	67.804
626.64	66.743
626.97	66.641
627.30	65.062
627.63	68.524
627.96	66.901
628.29	68.069
628.62	65.269
628.95	66.933
629.28	65.995
629.61	66.960
629.94	67.070
630.26	66.118
630.59	67.908
630.92	65.830
631.25	65.730
