SpectraSuite Data File
++++++++++++++++++++++++++++++++++++
Date: Tue May 12 16:05:26 PDT 2015
User: schluterlab
Dark Spectrum Present: Yes
Reference Spectrum Present: Yes
Number of Sampled Component Spectra: 1
Spectrometers: USB2E3373
Integration Time (usec): 3000 (USB2E3373)
Spectra Averaged: 3 (USB2E3373)
Boxcar Smoothing: 0 (USB2E3373)
Correct for Electrical Dark: No (USB2E3373)
Strobe/Lamp Enabled: No (USB2E3373)
Correct for Detector Non-linearity: No (USB2E3373)
Correct for Stray Light: No (USB2E3373)
Number of Pixels in Processed Spectrum: 2048
>>>>>Begin Processed Spectral Data<<<<<
178.53	0.000
178.91	-325.000
179.29	-550.000
179.67	-3900.000
180.04	-160.000
180.42	1050.000
180.80	1600.000
181.18	0.000
181.56	-425.000
181.94	0.000
182.31	1100.000
182.69	-3300.000
183.07	571.429
183.45	-4200.000
183.83	-1750.000
184.20	380.000
184.58	528.571
184.96	-253.846
185.34	-308.333
185.72	1700.000
186.09	-600.000
186.47	-3200.000
186.85	1133.333
187.23	660.000
187.61	2100.000
187.98	475.000
188.36	250.000
188.74	316.667
189.12	308.333
189.49	975.000
189.87	0.000
190.25	525.000
190.63	2200.000
191.00	-191.667
191.38	-4800.000
191.76	-975.000
192.14	462.500
192.51	-2600.000
192.89	1900.000
193.27	1200.000
193.65	-1066.667
194.02	-820.000
194.40	400.000
194.78	-185.714
195.15	246.667
195.53	-3000.000
195.91	-600.000
196.29	3400.000
196.66	275.000
197.04	700.000
197.42	-1900.000
197.79	625.000
198.17	333.333
198.55	0.000
198.92	657.143
199.30	1133.333
199.68	1800.000
200.05	733.333
200.43	-483.333
200.81	250.000
201.18	3200.000
201.56	283.333
201.94	-675.000
202.31	-387.500
202.69	-500.000
203.07	3200.000
203.44	-450.000
203.82	350.000
204.19	700.000
204.57	-1650.000
204.95	-975.000
205.32	-940.000
205.70	633.333
206.08	775.000
206.45	-833.333
206.83	433.333
207.20	200.000
207.58	250.000
207.96	600.000
208.33	0.000
208.71	600.000
209.08	580.000
209.46	-3200.000
209.84	-900.000
210.21	880.000
210.59	-560.000
210.96	275.000
211.34	-1050.000
211.71	381.818
212.09	975.000
212.46	1550.000
212.84	-450.000
213.22	544.444
213.59	-3800.000
213.97	340.000
214.34	975.000
214.72	1100.000
215.09	1400.000
215.47	-2700.000
215.84	-280.000
216.22	-387.500
216.59	0.000
216.97	0.000
217.34	1600.000
217.72	-1800.000
218.09	1333.333
218.47	487.500
218.84	700.000
219.22	1266.667
219.59	1066.667
219.97	542.857
220.34	422.222
220.72	1300.000
221.09	3100.000
221.47	258.333
221.84	1000.000
222.22	370.000
222.59	244.444
222.97	271.429
223.34	200.000
223.72	-1750.000
224.09	1366.667
224.46	315.385
224.84	-650.000
225.21	466.667
225.59	266.667
225.96	1133.333
226.34	-700.000
226.71	-675.000
227.08	-620.000
227.46	0.000
227.83	-566.667
228.21	-1800.000
228.58	375.000
228.95	1050.000
229.33	366.667
229.70	1100.000
230.08	415.385
230.45	3100.000
230.82	-1025.000
231.20	-833.333
231.57	-1033.333
231.95	520.000
232.32	325.000
232.69	550.000
233.07	233.333
233.44	-1700.000
233.81	226.667
234.19	148.148
234.56	193.750
234.93	270.588
235.31	205.000
235.68	237.500
236.05	153.571
236.43	125.926
236.80	185.714
237.17	127.586
237.55	109.375
237.92	105.000
238.29	100.000
238.67	90.625
239.04	97.561
239.41	72.917
239.79	80.000
240.16	54.167
240.53	57.377
240.91	53.623
241.28	55.932
241.65	54.545
242.02	52.113
242.40	47.143
242.77	50.549
243.14	31.646
243.51	37.374
243.89	39.252
244.26	37.383
244.63	33.663
245.00	29.358
245.38	18.644
245.75	20.455
246.12	38.519
246.49	24.113
246.87	13.934
247.24	28.667
247.61	28.125
247.98	24.490
248.36	20.606
248.73	23.469
249.10	13.095
249.47	20.000
249.84	20.896
250.22	21.622
250.59	18.500
250.96	20.253
251.33	17.674
251.70	16.071
252.08	15.546
252.45	13.944
252.82	13.688
253.19	14.625
253.56	16.923
253.94	15.217
254.31	14.729
254.68	11.498
255.05	14.138
255.42	11.314
255.79	12.704
256.16	14.915
256.54	17.857
256.91	8.824
257.28	12.040
257.65	11.599
258.02	12.389
258.39	13.754
258.76	16.232
259.14	10.000
259.51	12.245
259.88	13.982
260.25	9.890
260.62	14.521
260.99	7.989
261.36	10.028
261.73	10.638
262.10	9.424
262.47	7.750
262.85	9.333
263.22	10.283
263.59	9.463
263.96	11.028
264.33	9.383
264.70	11.057
265.07	12.927
265.44	10.092
265.81	11.085
266.18	12.586
266.55	7.329
266.92	9.172
267.29	10.088
267.66	9.641
268.03	4.933
268.40	10.782
268.77	10.573
269.14	7.809
269.51	8.463
269.88	11.224
270.25	8.423
270.62	7.511
270.99	10.345
271.36	8.537
271.73	6.080
272.10	7.677
272.47	7.540
272.84	7.984
273.21	4.959
273.58	9.109
273.95	7.392
274.32	9.728
274.69	9.252
275.06	7.832
275.43	8.046
275.80	8.302
276.17	7.721
276.54	10.093
276.91	8.209
277.28	7.482
277.65	8.672
278.02	9.743
278.39	8.094
278.76	7.241
279.13	7.829
279.50	7.091
279.87	6.145
280.23	6.630
280.60	6.204
280.97	5.345
281.34	8.416
281.71	8.000
282.08	7.350
282.45	6.926
282.82	7.023
283.19	7.472
283.56	6.446
283.92	6.352
284.29	7.321
284.66	6.891
285.03	7.794
285.40	5.289
285.77	4.784
286.14	7.895
286.51	7.975
286.87	4.589
287.24	6.907
287.61	7.447
287.98	6.418
288.35	6.222
288.72	6.222
289.08	6.456
289.45	7.927
289.82	6.719
290.19	7.467
290.56	7.860
290.93	5.324
291.29	7.182
291.66	6.356
292.03	6.452
292.40	7.859
292.77	5.571
293.13	6.419
293.50	6.208
293.87	5.149
294.24	6.154
294.60	6.057
294.97	7.273
295.34	5.843
295.71	6.176
296.08	5.733
296.44	5.845
296.81	5.211
297.18	4.056
297.55	6.527
297.91	5.296
298.28	5.556
298.65	5.399
299.02	5.911
299.38	6.475
299.75	6.463
300.12	5.161
300.48	6.440
300.85	5.364
301.22	5.349
301.59	5.542
301.95	5.834
302.32	5.239
302.69	6.335
303.05	6.510
303.42	4.933
303.79	5.959
304.15	5.061
304.52	4.228
304.89	5.650
305.25	5.895
305.62	5.437
305.99	5.000
306.35	4.632
306.72	5.307
307.09	5.176
307.45	4.963
307.82	4.733
308.19	5.155
308.55	4.100
308.92	5.986
309.29	5.621
309.65	5.451
310.02	4.767
310.38	5.284
310.75	5.497
311.12	4.310
311.48	5.888
311.85	5.248
312.22	6.590
312.58	4.859
312.95	5.631
313.31	6.180
313.68	4.784
314.05	6.319
314.41	5.214
314.78	4.167
315.14	5.877
315.51	5.203
315.87	5.839
316.24	6.629
316.61	6.177
316.97	4.771
317.34	5.571
317.70	5.795
318.07	6.584
318.43	6.854
318.80	6.305
319.16	6.731
319.53	5.487
319.89	5.018
320.26	6.890
320.62	4.945
320.99	5.624
321.35	6.494
321.72	7.211
322.08	6.002
322.45	6.630
322.81	6.221
323.18	6.394
323.54	7.056
323.91	6.528
324.27	6.366
324.64	5.709
325.00	6.552
325.37	6.661
325.73	5.734
326.10	6.462
326.46	6.276
326.83	5.600
327.19	6.426
327.56	5.990
327.92	6.230
328.29	7.529
328.65	7.877
329.01	5.475
329.38	7.360
329.74	5.892
330.11	6.777
330.47	7.673
330.84	5.436
331.20	6.937
331.56	8.117
331.93	7.015
332.29	5.527
332.66	7.058
333.02	6.873
333.38	6.981
333.75	7.256
334.11	6.376
334.48	6.923
334.84	6.926
335.20	6.929
335.57	6.633
335.93	6.056
336.29	6.633
336.66	6.947
337.02	5.646
337.38	5.847
337.75	6.926
338.11	7.426
338.47	6.097
338.84	6.605
339.20	5.195
339.56	6.560
339.93	6.438
340.29	6.050
340.65	7.293
341.02	7.241
341.38	6.486
341.74	6.312
342.11	5.342
342.47	5.250
342.83	5.742
343.20	6.225
343.56	4.925
343.92	5.780
344.28	6.380
344.65	5.949
345.01	6.746
345.37	5.369
345.73	6.111
346.10	5.896
346.46	6.300
346.82	6.327
347.19	6.878
347.55	5.933
347.91	5.514
348.27	5.345
348.63	5.380
349.00	6.474
349.36	5.447
349.72	6.728
350.08	6.677
350.45	6.855
350.81	6.040
351.17	5.547
351.53	6.159
351.89	5.361
352.26	4.762
352.62	6.184
352.98	5.752
353.34	6.626
353.70	5.657
354.07	5.231
354.43	6.221
354.79	5.619
355.15	5.972
355.51	5.589
355.87	6.476
356.24	5.851
356.60	6.164
356.96	4.928
357.32	6.029
357.68	6.535
358.04	6.079
358.40	6.222
358.77	5.860
359.13	5.556
359.49	4.596
359.85	4.617
360.21	5.349
360.57	5.766
360.93	5.700
361.29	5.628
361.66	6.637
362.02	4.545
362.38	5.556
362.74	5.662
363.10	5.680
363.46	5.318
363.82	6.592
364.18	5.263
364.54	4.936
364.90	5.556
365.26	5.621
365.62	5.041
365.98	4.680
366.35	5.448
366.71	5.066
367.07	4.983
367.43	5.440
367.79	5.452
368.15	4.410
368.51	5.169
368.87	5.367
369.23	5.267
369.59	5.799
369.95	5.734
370.31	4.860
370.67	5.760
371.03	5.672
371.39	5.194
371.75	4.187
372.11	5.914
372.47	6.096
372.83	5.710
373.19	5.483
373.55	5.430
373.91	5.732
374.27	5.357
374.63	4.746
374.99	5.795
375.35	4.973
375.71	5.013
376.07	5.106
376.42	4.731
376.78	5.845
377.14	5.636
377.50	4.869
377.86	5.061
378.22	5.667
378.58	5.085
378.94	5.432
379.30	5.397
379.66	4.636
380.02	5.689
380.38	4.567
380.74	5.767
381.09	5.432
381.45	4.855
381.81	4.787
382.17	5.006
382.53	5.219
382.89	5.204
383.25	4.796
383.61	4.784
383.97	4.799
384.32	5.244
384.68	6.001
385.04	5.217
385.40	5.397
385.76	4.506
386.12	4.947
386.48	4.985
386.83	5.196
387.19	4.299
387.55	5.065
387.91	5.831
388.27	4.997
388.62	5.340
388.98	4.315
389.34	4.164
389.70	4.481
390.06	5.549
390.42	5.059
390.77	5.037
391.13	4.949
391.49	5.445
391.85	5.046
392.20	5.602
392.56	5.615
392.92	4.492
393.28	4.877
393.64	4.759
393.99	5.039
394.35	4.532
394.71	4.162
395.07	4.258
395.42	5.269
395.78	6.416
396.14	5.602
396.50	5.174
396.85	5.000
397.21	4.573
397.57	5.380
397.92	4.737
398.28	4.468
398.64	5.294
399.00	5.024
399.35	4.938
399.71	5.629
400.07	4.852
400.42	4.657
400.78	4.927
401.14	4.932
401.49	4.839
401.85	5.330
402.21	4.159
402.57	4.847
402.92	5.152
403.28	4.714
403.63	5.003
403.99	5.127
404.35	5.393
404.70	5.257
405.06	5.166
405.42	4.608
405.77	5.292
406.13	5.043
406.49	4.719
406.84	4.851
407.20	4.795
407.55	4.923
407.91	5.297
408.27	5.155
408.62	4.435
408.98	5.086
409.34	4.676
409.69	4.916
410.05	4.711
410.40	4.535
410.76	4.350
411.11	4.206
411.47	5.000
411.83	4.569
412.18	4.710
412.54	4.925
412.89	4.307
413.25	5.074
413.60	4.907
413.96	4.847
414.31	4.545
414.67	5.462
415.03	4.598
415.38	5.615
415.74	4.548
416.09	5.559
416.45	4.977
416.80	5.260
417.16	5.474
417.51	5.032
417.87	4.819
418.22	4.617
418.58	4.331
418.93	4.521
419.29	4.621
419.64	4.906
420.00	5.370
420.35	4.472
420.71	4.609
421.06	3.943
421.42	4.951
421.77	4.498
422.12	4.741
422.48	4.725
422.83	4.688
423.19	4.158
423.54	4.498
423.90	5.040
424.25	4.018
424.61	5.049
424.96	4.517
425.31	4.871
425.67	4.377
426.02	4.879
426.38	4.084
426.73	4.569
427.09	4.804
427.44	4.052
427.79	4.117
428.15	4.596
428.50	4.914
428.85	4.938
429.21	4.700
429.56	5.085
429.92	4.575
430.27	4.161
430.62	4.112
430.98	4.092
431.33	4.133
431.68	3.654
432.04	3.880
432.39	4.336
432.74	4.684
433.10	4.208
433.45	4.136
433.80	4.633
434.16	4.362
434.51	4.954
434.86	4.736
435.22	4.268
435.57	4.268
435.92	5.293
436.28	4.666
436.63	4.646
436.98	4.448
437.34	5.194
437.69	3.415
438.04	4.462
438.39	5.079
438.75	4.677
439.10	4.263
439.45	4.353
439.81	4.974
440.16	4.513
440.51	4.110
440.86	5.128
441.22	4.870
441.57	5.249
441.92	4.541
442.27	4.021
442.63	4.573
442.98	4.095
443.33	4.660
443.68	4.326
444.03	4.430
444.39	4.426
444.74	5.021
445.09	4.318
445.44	4.357
445.79	4.435
446.15	4.000
446.50	4.589
446.85	4.183
447.20	4.080
447.55	3.861
447.91	5.221
448.26	4.526
448.61	5.030
448.96	4.357
449.31	4.730
449.66	5.371
450.02	4.322
450.37	5.053
450.72	4.738
451.07	5.294
451.42	5.098
451.77	4.696
452.12	5.048
452.47	5.164
452.83	4.845
453.18	4.925
453.53	4.914
453.88	4.457
454.23	5.462
454.58	4.837
454.93	4.721
455.28	4.835
455.63	4.078
455.98	4.625
456.34	5.350
456.69	4.695
457.04	4.654
457.39	4.171
457.74	5.124
458.09	4.660
458.44	5.038
458.79	4.032
459.14	4.419
459.49	4.926
459.84	4.620
460.19	4.972
460.54	5.071
460.89	5.117
461.24	4.410
461.59	4.819
461.94	5.319
462.29	5.320
462.64	5.214
462.99	4.543
463.34	5.638
463.69	6.171
464.04	4.375
464.39	4.350
464.74	4.631
465.09	4.991
465.44	4.570
465.79	4.573
466.14	4.452
466.49	4.775
466.84	4.627
467.19	5.331
467.54	4.865
467.89	4.812
468.24	4.169
468.59	4.762
468.94	4.831
469.29	5.254
469.64	5.402
469.99	5.334
470.34	5.376
470.68	4.414
471.03	4.736
471.38	4.503
471.73	5.879
472.08	4.501
472.43	4.966
472.78	4.802
473.13	4.380
473.48	4.829
473.83	4.535
474.17	5.106
474.52	5.332
474.87	4.377
475.22	4.969
475.57	4.722
475.92	4.446
476.27	3.863
476.61	4.558
476.96	4.493
477.31	4.781
477.66	5.207
478.01	4.951
478.36	4.943
478.70	3.921
479.05	4.498
479.40	4.415
479.75	5.065
480.10	4.501
480.45	3.922
480.79	4.378
481.14	3.947
481.49	4.300
481.84	4.661
482.19	4.716
482.53	4.436
482.88	4.615
483.23	4.195
483.58	4.084
483.92	5.119
484.27	4.538
484.62	4.117
484.97	4.168
485.31	3.732
485.66	3.453
486.01	3.516
486.36	3.076
486.70	3.091
487.05	3.492
487.40	3.443
487.75	3.475
488.09	3.892
488.44	3.792
488.79	3.610
489.13	4.106
489.48	3.915
489.83	4.170
490.17	4.211
490.52	4.393
490.87	4.612
491.22	4.344
491.56	4.172
491.91	4.167
492.26	4.276
492.60	4.966
492.95	3.715
493.30	5.050
493.64	4.582
493.99	4.964
494.34	4.348
494.68	3.851
495.03	4.535
495.37	4.773
495.72	4.382
496.07	4.672
496.41	4.474
496.76	4.306
497.11	4.927
497.45	4.866
497.80	4.356
498.14	4.623
498.49	4.271
498.84	4.579
499.18	4.479
499.53	4.639
499.87	4.537
500.22	4.883
500.56	3.993
500.91	5.009
501.26	4.502
501.60	4.554
501.95	3.629
502.29	4.311
502.64	4.146
502.98	4.491
503.33	4.187
503.67	3.885
504.02	4.165
504.36	4.615
504.71	4.825
505.06	4.364
505.40	3.931
505.75	4.397
506.09	4.806
506.44	4.605
506.78	4.253
507.13	3.926
507.47	4.658
507.82	5.255
508.16	4.900
508.51	4.348
508.85	4.986
509.19	4.454
509.54	4.785
509.88	4.973
510.23	4.167
510.57	4.633
510.92	4.895
511.26	4.518
511.61	4.727
511.95	4.629
512.30	4.950
512.64	4.413
512.98	4.100
513.33	4.559
513.67	4.661
514.02	5.091
514.36	4.673
514.70	4.587
515.05	4.262
515.39	4.605
515.74	5.085
516.08	4.902
516.42	5.246
516.77	4.373
517.11	4.533
517.46	4.849
517.80	4.478
518.14	5.634
518.49	4.465
518.83	3.681
519.17	4.936
519.52	5.079
519.86	4.850
520.20	4.877
520.55	5.257
520.89	4.713
521.23	4.556
521.58	4.647
521.92	5.131
522.26	4.562
522.61	5.169
522.95	4.925
523.29	4.678
523.64	4.624
523.98	4.812
524.32	4.671
524.66	4.290
525.01	4.556
525.35	4.655
525.69	4.877
526.04	5.354
526.38	5.180
526.72	4.714
527.06	4.613
527.41	5.744
527.75	4.991
528.09	4.816
528.43	5.369
528.78	5.367
529.12	4.756
529.46	4.968
529.80	4.673
530.15	5.186
530.49	4.272
530.83	5.241
531.17	4.490
531.51	4.782
531.86	4.650
532.20	4.450
532.54	4.520
532.88	5.184
533.22	5.119
533.57	4.698
533.91	4.254
534.25	5.020
534.59	5.146
534.93	4.892
535.27	4.496
535.62	4.609
535.96	4.433
536.30	4.875
536.64	3.975
536.98	4.909
537.32	6.375
537.66	4.528
538.01	5.387
538.35	6.238
538.69	4.794
539.03	4.789
539.37	4.490
539.71	5.370
540.05	4.369
540.39	5.031
540.73	5.190
541.07	4.203
541.42	4.353
541.76	5.055
542.10	4.624
542.44	4.800
542.78	4.783
543.12	4.601
543.46	4.950
543.80	4.762
544.14	5.635
544.48	4.440
544.82	5.076
545.16	5.039
545.50	4.733
545.84	5.114
546.18	5.397
546.52	5.049
546.86	5.545
547.20	4.522
547.54	5.193
547.88	5.170
548.22	4.493
548.56	5.068
548.90	5.635
549.24	4.611
549.58	4.768
549.92	4.977
550.26	5.003
550.60	5.256
550.94	4.885
551.28	5.793
551.62	5.034
551.96	5.338
552.30	4.680
552.64	5.049
552.98	3.415
553.32	4.930
553.66	4.300
554.00	5.277
554.34	5.326
554.68	5.242
555.02	5.024
555.36	5.120
555.69	4.450
556.03	4.713
556.37	4.525
556.71	5.541
557.05	4.194
557.39	5.267
557.73	5.458
558.07	5.030
558.41	5.483
558.75	5.746
559.08	5.647
559.42	5.583
559.76	5.488
560.10	5.162
560.44	4.711
560.78	5.371
561.12	4.768
561.45	4.819
561.79	4.245
562.13	4.422
562.47	4.672
562.81	5.075
563.15	5.042
563.48	4.658
563.82	5.178
564.16	4.602
564.50	4.159
564.84	4.742
565.17	4.872
565.51	4.680
565.85	3.948
566.19	4.940
566.52	4.813
566.86	4.553
567.20	5.393
567.54	4.476
567.88	4.278
568.21	4.543
568.55	4.572
568.89	4.699
569.23	4.487
569.56	4.153
569.90	3.845
570.24	3.714
570.57	3.699
570.91	3.463
571.25	3.351
571.59	3.666
571.92	3.687
572.26	2.938
572.60	3.305
572.93	3.479
573.27	3.705
573.61	3.032
573.95	3.262
574.28	3.393
574.62	3.237
574.96	2.871
575.29	2.943
575.63	3.251
575.97	2.970
576.30	3.316
576.64	3.284
576.98	3.018
577.31	3.471
577.65	3.436
577.98	3.098
578.32	2.985
578.66	3.169
578.99	3.147
579.33	3.451
579.67	3.369
580.00	3.210
580.34	3.152
580.67	3.244
581.01	3.314
581.35	3.379
581.68	2.839
582.02	3.284
582.35	2.945
582.69	3.169
583.02	3.092
583.36	3.016
583.70	3.528
584.03	3.256
584.37	3.306
584.70	3.459
585.04	3.402
585.37	2.818
585.71	3.213
586.04	3.210
586.38	3.040
586.72	3.166
587.05	3.654
587.39	3.363
587.72	3.245
588.06	3.278
588.39	3.250
588.73	3.405
589.06	3.443
589.40	3.944
589.73	3.540
590.07	3.638
590.40	4.146
590.73	4.150
591.07	4.023
591.40	3.513
591.74	3.653
592.07	3.328
592.41	4.117
592.74	3.698
593.08	3.320
593.41	3.321
593.75	3.133
594.08	3.696
594.41	3.389
594.75	3.459
595.08	3.429
595.42	3.752
595.75	3.718
596.09	3.580
596.42	3.460
596.75	4.006
597.09	3.879
597.42	3.469
597.75	3.408
598.09	3.734
598.42	3.754
598.76	3.932
599.09	3.751
599.42	3.668
599.76	3.494
600.09	3.729
600.42	3.867
600.76	3.433
601.09	3.141
601.42	3.625
601.76	3.473
602.09	3.458
602.42	3.771
602.76	4.099
603.09	3.808
603.42	3.817
603.76	3.507
604.09	3.511
604.42	3.164
604.76	3.911
605.09	3.755
605.42	4.023
605.75	4.106
606.09	3.864
606.42	4.021
606.75	3.964
607.09	3.711
607.42	3.817
607.75	3.782
608.08	3.818
608.42	4.027
608.75	3.552
609.08	4.136
609.41	4.136
609.75	4.304
610.08	4.047
610.41	4.216
610.74	3.853
611.07	4.457
611.41	4.078
611.74	3.633
612.07	4.143
612.40	3.947
612.73	4.144
613.07	4.359
613.40	4.261
613.73	3.894
614.06	4.250
614.39	4.899
614.72	4.922
615.06	3.660
615.39	3.762
615.72	3.824
616.05	4.370
616.38	4.414
616.71	3.961
617.05	4.613
617.38	3.876
617.71	4.612
618.04	4.599
618.37	4.892
618.70	4.446
619.03	4.274
619.36	4.899
619.69	5.277
620.03	4.958
620.36	4.239
620.69	5.172
621.02	5.299
621.35	4.298
621.68	4.720
622.01	5.756
622.34	4.006
622.67	5.407
623.00	4.561
623.33	4.993
623.66	4.990
623.99	4.932
624.32	5.285
624.65	4.345
624.99	4.801
625.32	4.943
625.65	4.000
625.98	4.254
626.31	5.341
626.64	4.328
626.97	4.667
627.30	4.581
627.63	4.788
627.96	4.460
628.29	5.611
628.62	5.047
628.95	6.028
629.28	5.697
629.61	4.833
629.94	5.099
630.26	5.719
630.59	6.915
630.92	5.740
631.25	7.072
631.58	6.365
631.91	5.519
632.24	4.762
632.57	5.992
632.90	6.729
633.23	6.401
633.56	7.060
633.89	6.324
634.22	5.813
634.55	5.914
634.88	6.243
635.20	6.951
635.53	5.923
635.86	6.040
636.19	6.061
636.52	5.081
636.85	4.315
637.18	7.476
637.51	5.475
637.83	6.178
638.16	7.503
638.49	7.305
638.82	7.746
639.15	5.288
639.48	7.346
639.81	6.838
640.13	6.135
640.46	5.563
640.79	6.242
641.12	5.381
641.45	6.856
641.77	7.266
642.10	8.032
642.43	6.828
642.76	7.102
643.09	7.205
643.41	7.574
643.74	6.475
644.07	6.932
644.40	6.805
644.73	7.508
645.05	8.470
645.38	8.116
645.71	6.525
646.04	8.092
646.36	8.451
646.69	7.360
647.02	8.640
647.35	8.189
647.67	5.997
648.00	8.143
648.33	8.872
648.66	8.182
648.98	6.522
649.31	7.152
649.64	6.086
649.96	7.112
650.29	6.571
650.62	7.216
650.94	9.639
651.27	8.931
651.60	8.294
651.92	9.217
652.25	8.819
652.58	8.085
652.90	7.036
653.23	6.204
653.56	6.973
653.88	7.930
654.21	6.891
654.54	7.321
654.86	8.555
655.19	7.256
655.52	5.366
