SpectraSuite Data File
++++++++++++++++++++++++++++++++++++
Date: Wed May 13 21:45:52 PDT 2015
User: schluterlab
Dark Spectrum Present: Yes
Reference Spectrum Present: Yes
Number of Sampled Component Spectra: 1
Spectrometers: USB2E3373
Integration Time (usec): 3000 (USB2E3373)
Spectra Averaged: 3 (USB2E3373)
Boxcar Smoothing: 0 (USB2E3373)
Correct for Electrical Dark: No (USB2E3373)
Strobe/Lamp Enabled: No (USB2E3373)
Correct for Detector Non-linearity: No (USB2E3373)
Correct for Stray Light: No (USB2E3373)
Number of Pixels in Processed Spectrum: 2048
>>>>>Begin Processed Spectral Data<<<<<
178.53	0.000
178.91	100.000
179.29	183.333
179.67	-950.000
180.04	-433.333
180.42	220.000
180.80	1500.000
181.18	333.333
181.56	-525.000
181.94	-200.000
182.31	-54.545
182.69	153.846
183.07	60.000
183.45	250.000
183.83	200.000
184.20	185.714
184.58	-166.667
184.96	333.333
185.34	171.429
185.72	0.000
186.09	300.000
186.47	-160.000
186.85	120.000
187.23	-200.000
187.61	200.000
187.98	1400.000
188.36	-112.500
188.74	0.000
189.12	0.000
189.49	0.000
189.87	41.667
190.25	300.000
190.63	1300.000
191.00	-240.000
191.38	140.000
191.76	225.000
192.14	150.000
192.51	-15.789
192.89	666.667
193.27	350.000
193.65	-440.000
194.02	127.273
194.40	190.000
194.78	-300.000
195.15	280.000
195.53	-240.000
195.91	-37.500
196.29	-66.667
196.66	0.000
197.04	-50.000
197.42	220.000
197.79	40.000
198.17	-175.000
198.55	-200.000
198.92	300.000
199.30	-266.667
199.68	-60.000
200.05	650.000
200.43	116.667
200.81	-600.000
201.18	-260.000
201.56	-400.000
201.94	600.000
202.31	-8.696
202.69	-114.286
203.07	-433.333
203.44	40.000
203.82	-166.667
204.19	-60.000
204.57	0.000
204.95	-150.000
205.32	0.000
205.70	-150.000
206.08	-250.000
206.45	-50.000
206.83	200.000
207.20	-33.333
207.58	20.000
207.96	-100.000
208.33	-200.000
208.71	-600.000
209.08	200.000
209.46	300.000
209.84	0.000
210.21	70.000
210.59	1500.000
210.96	120.000
211.34	100.000
211.71	-300.000
212.09	-183.333
212.46	-220.000
212.84	-133.333
213.22	-75.000
213.59	-700.000
213.97	-500.000
214.34	-900.000
214.72	-30.769
215.09	250.000
215.47	177.778
215.84	1000.000
216.22	-162.500
216.59	-550.000
216.97	633.333
217.34	144.444
217.72	0.000
218.09	366.667
218.47	400.000
218.84	-100.000
219.22	-250.000
219.59	-266.667
219.97	-75.000
220.34	-12.500
220.72	60.000
221.09	0.000
221.47	-133.333
221.84	-700.000
222.22	0.000
222.59	400.000
222.97	-266.667
223.34	-25.000
223.72	-1200.000
224.09	-250.000
224.46	36.364
224.84	0.000
225.21	-114.286
225.59	-350.000
225.96	-83.333
226.34	0.000
226.71	-128.571
227.08	450.000
227.46	0.000
227.83	-300.000
228.21	-25.000
228.58	-75.000
228.95	-11.765
229.33	31.250
229.70	-87.500
230.08	-23.077
230.45	-175.000
230.82	-33.333
231.20	271.429
231.57	-200.000
231.95	700.000
232.32	33.333
232.69	41.176
233.07	-1800.000
233.44	-17.391
233.81	-600.000
234.19	16.667
234.56	-100.000
234.93	-80.000
235.31	31.579
235.68	-153.846
236.05	-7.692
236.43	5.556
236.80	-21.212
237.17	-146.667
237.55	-94.118
237.92	-20.690
238.29	-55.556
238.67	-50.000
239.04	-29.032
239.41	-2.128
239.79	6.383
240.16	0.000
240.53	-1.786
240.91	25.000
241.28	5.357
241.65	-1.613
242.02	-2.632
242.40	1.449
242.77	-2.899
243.14	-8.974
243.51	3.191
243.89	-4.808
244.26	8.491
244.63	-9.615
245.00	2.083
245.38	5.042
245.75	7.377
246.12	-1.504
246.49	-2.439
246.87	-7.563
247.24	10.135
247.61	3.311
247.98	-3.205
248.36	2.959
248.73	-2.247
249.10	2.020
249.47	2.688
249.84	6.316
250.22	6.468
250.59	2.336
250.96	6.818
251.33	3.349
251.70	10.879
252.08	5.858
252.45	8.230
252.82	5.703
253.19	6.615
253.56	4.317
253.94	7.473
254.31	6.338
254.68	7.718
255.05	4.290
255.42	8.392
255.79	4.601
256.16	5.363
256.54	7.937
256.91	4.430
257.28	2.830
257.65	2.229
258.02	4.692
258.39	6.140
258.76	5.233
259.14	4.261
259.51	5.056
259.88	5.691
260.25	8.056
260.62	4.213
260.99	5.836
261.36	8.808
261.73	7.407
262.10	5.598
262.47	6.914
262.85	4.975
263.22	7.949
263.59	5.455
263.96	8.029
264.33	4.567
264.70	6.047
265.07	6.019
265.44	9.195
265.81	6.178
266.18	5.239
266.55	3.493
266.92	6.992
267.29	5.761
267.66	7.856
268.03	7.407
268.40	6.568
268.77	6.818
269.14	8.367
269.51	10.062
269.88	3.462
270.25	7.839
270.62	5.123
270.99	8.661
271.36	8.333
271.73	7.831
272.10	6.667
272.47	8.637
272.84	6.693
273.21	7.632
273.58	5.943
273.95	7.358
274.32	9.328
274.69	7.104
275.06	10.247
275.43	7.156
275.80	6.383
276.17	5.709
276.54	7.105
276.91	9.059
277.28	6.137
277.65	7.517
278.02	7.321
278.39	5.684
278.76	10.033
279.13	6.861
279.50	8.448
279.87	5.797
280.23	8.468
280.60	6.574
280.97	6.494
281.34	9.148
281.71	4.878
282.08	7.009
282.45	8.689
282.82	5.112
283.19	10.518
283.56	7.656
283.92	8.257
284.29	8.580
284.66	7.743
285.03	7.003
285.40	6.949
285.77	7.508
286.14	8.511
286.51	9.895
286.87	7.846
287.24	4.720
287.61	7.681
287.98	8.971
288.35	6.557
288.72	8.178
289.08	9.544
289.45	8.811
289.82	9.682
290.19	7.433
290.56	7.670
290.93	8.287
291.29	6.703
291.66	8.060
292.03	9.946
292.40	8.614
292.77	8.166
293.13	7.810
293.50	8.366
293.87	10.400
294.24	9.524
294.60	9.883
294.97	11.376
295.34	8.179
295.71	8.147
296.08	8.377
296.44	10.459
296.81	8.283
297.18	10.875
297.55	9.198
297.91	9.689
298.28	10.048
298.65	10.222
299.02	10.501
299.38	10.552
299.75	9.375
300.12	8.953
300.48	10.760
300.85	10.855
301.22	11.847
301.59	11.854
301.95	9.524
302.32	12.602
302.69	10.960
303.05	11.739
303.42	12.045
303.79	12.723
304.15	11.720
304.52	13.118
304.89	11.185
305.25	12.514
305.62	11.280
305.99	12.514
306.35	13.271
306.72	14.140
307.09	14.911
307.45	13.738
307.82	12.421
308.19	12.330
308.55	13.204
308.92	15.422
309.29	14.615
309.65	14.286
310.02	14.811
310.38	14.634
310.75	15.286
311.12	16.424
311.48	16.320
311.85	17.520
312.22	17.698
312.58	17.874
312.95	17.612
313.31	17.355
313.68	17.844
314.05	18.526
314.41	19.500
314.78	19.545
315.14	20.370
315.51	20.362
315.87	20.389
316.24	22.406
316.61	21.187
316.97	21.759
317.34	21.212
317.70	23.015
318.07	23.957
318.43	22.855
318.80	22.600
319.16	24.580
319.53	24.821
319.89	24.210
320.26	24.769
320.62	24.374
320.99	26.066
321.35	26.567
321.72	26.756
322.08	28.506
322.45	27.660
322.81	27.911
323.18	29.606
323.54	29.422
323.91	29.630
324.27	30.153
324.64	31.098
325.00	30.271
325.37	32.509
325.73	31.313
326.10	32.380
326.46	33.612
326.83	33.333
327.19	34.472
327.56	34.488
327.92	35.479
328.29	35.225
328.65	37.423
329.01	37.027
329.38	37.565
329.74	35.193
330.11	37.421
330.47	37.500
330.84	38.809
331.20	38.173
331.56	38.859
331.93	37.726
332.29	40.139
332.66	38.729
333.02	39.878
333.38	39.737
333.75	39.846
334.11	40.885
334.48	39.843
334.84	39.046
335.20	39.451
335.57	39.077
335.93	38.058
336.29	41.068
336.66	40.256
337.02	39.913
337.38	40.557
337.75	41.430
338.11	39.624
338.47	39.726
338.84	40.292
339.20	41.799
339.56	40.529
339.93	41.746
340.29	40.905
340.65	42.002
341.02	40.849
341.38	41.554
341.74	41.429
342.11	41.618
342.47	41.172
342.83	41.912
343.20	42.555
343.56	42.355
343.92	42.242
344.28	42.938
344.65	42.449
345.01	42.211
345.37	43.174
345.73	43.219
346.10	42.135
346.46	42.276
346.82	42.697
347.19	41.218
347.55	43.619
347.91	42.245
348.27	43.060
348.63	41.987
349.00	42.374
349.36	42.936
349.72	43.001
350.08	42.044
350.45	43.070
350.81	43.818
351.17	43.341
351.53	43.205
351.89	43.368
352.26	42.703
352.62	45.194
352.98	43.690
353.34	44.847
353.70	44.393
354.07	43.216
354.43	44.090
354.79	45.112
355.15	45.109
355.51	44.875
355.87	44.410
356.24	45.746
356.60	43.862
356.96	44.436
357.32	44.814
357.68	44.614
358.04	46.393
358.40	45.891
358.77	45.566
359.13	46.537
359.49	44.890
359.85	47.005
360.21	45.490
360.57	45.323
360.93	46.131
361.29	47.002
361.66	45.178
362.02	46.775
362.38	46.750
362.74	45.323
363.10	46.710
363.46	45.605
363.82	47.967
364.18	45.830
364.54	47.338
364.90	47.387
365.26	45.506
365.62	45.952
365.98	45.836
366.35	46.667
366.71	47.218
367.07	46.137
367.43	47.108
367.79	47.116
368.15	46.343
368.51	46.132
368.87	46.895
369.23	46.619
369.59	47.569
369.95	46.880
370.31	45.955
370.67	46.560
371.03	48.033
371.39	48.261
371.75	47.000
372.11	47.009
372.47	46.431
372.83	46.255
373.19	47.410
373.55	47.832
373.91	48.373
374.27	46.750
374.63	47.937
374.99	46.031
375.35	47.534
375.71	46.128
376.07	47.704
376.42	46.524
376.78	47.226
377.14	48.339
377.50	48.761
377.86	48.274
378.22	47.472
378.58	47.541
378.94	48.500
379.30	47.283
379.66	47.904
380.02	48.284
380.38	47.590
380.74	48.237
381.09	47.407
381.45	47.642
381.81	46.765
382.17	46.692
382.53	47.508
382.89	47.768
383.25	46.667
383.61	47.639
383.97	48.062
384.32	47.574
384.68	47.255
385.04	47.282
385.40	47.323
385.76	47.749
386.12	48.096
386.48	47.335
386.83	47.685
387.19	47.255
387.55	47.823
387.91	48.093
388.27	47.041
388.62	47.503
388.98	47.372
389.34	46.241
389.70	46.703
390.06	45.688
390.42	46.907
390.77	47.149
391.13	47.222
391.49	46.679
391.85	46.262
392.20	46.366
392.56	46.603
392.92	46.460
393.28	46.252
393.64	45.749
393.99	44.920
394.35	45.741
394.71	45.385
395.07	44.277
395.42	46.191
395.78	44.981
396.14	45.847
396.50	45.022
396.85	45.379
397.21	44.320
397.57	44.783
397.92	44.611
398.28	45.460
398.64	44.323
399.00	44.699
399.35	45.119
399.71	43.390
400.07	44.157
400.42	44.326
400.78	43.625
401.14	43.716
401.49	43.499
401.85	44.595
402.21	44.954
402.57	44.022
402.92	44.180
403.28	43.152
403.63	43.893
403.99	43.506
404.35	43.080
404.70	42.659
405.06	43.570
405.42	43.279
405.77	41.014
406.13	42.629
406.49	42.481
406.84	42.857
407.20	42.333
407.55	41.883
407.91	40.834
408.27	40.175
408.62	42.112
408.98	42.355
409.34	40.842
409.69	42.300
410.05	41.045
410.40	40.475
410.76	41.456
411.11	41.480
411.47	42.535
411.83	41.422
412.18	40.617
412.54	41.228
412.89	41.129
413.25	39.823
413.60	40.690
413.96	39.451
414.31	40.136
414.67	38.667
415.03	39.310
415.38	39.300
415.74	39.441
416.09	40.978
416.45	38.483
416.80	40.604
417.16	40.621
417.51	39.518
417.87	39.484
418.22	39.625
418.58	38.371
418.93	39.674
419.29	39.868
419.64	38.804
420.00	39.556
420.35	38.912
420.71	39.001
421.06	38.868
421.42	40.024
421.77	38.555
422.12	38.854
422.48	38.222
422.83	39.161
423.19	39.275
423.54	39.164
423.90	38.242
424.25	39.284
424.61	38.509
424.96	38.380
425.31	37.465
425.67	39.800
426.02	38.751
426.38	38.993
426.73	37.996
427.09	38.024
427.44	38.050
427.79	37.648
428.15	37.737
428.50	37.644
428.85	38.438
429.21	37.985
429.56	37.566
429.92	38.105
430.27	37.321
430.62	37.356
430.98	37.493
431.33	37.184
431.68	38.339
432.04	38.423
432.39	38.337
432.74	36.052
433.10	38.466
433.45	36.982
433.80	37.126
434.16	36.537
434.51	37.011
434.86	37.574
435.22	36.842
435.57	35.934
435.92	37.274
436.28	35.916
436.63	36.952
436.98	37.309
437.34	37.485
437.69	36.895
438.04	36.220
438.39	36.800
438.75	36.174
439.10	36.900
439.45	36.199
439.81	36.268
440.16	36.406
440.51	36.385
440.86	37.048
441.22	35.858
441.57	37.148
441.92	37.377
442.27	36.526
442.63	35.361
442.98	36.111
443.33	36.343
443.68	36.268
444.03	37.109
444.39	36.490
444.74	35.505
445.09	36.399
445.44	36.958
445.79	36.448
446.15	36.328
446.50	36.729
446.85	36.291
447.20	36.383
447.55	36.374
447.91	36.573
448.26	36.764
448.61	36.306
448.96	35.991
449.31	34.894
449.66	35.801
450.02	34.906
450.37	35.194
450.72	35.649
451.07	35.925
451.42	34.934
451.77	35.301
452.12	34.522
452.47	36.733
452.83	34.552
453.18	36.155
453.53	35.246
453.88	36.205
454.23	36.156
454.58	34.681
454.93	33.547
455.28	35.581
455.63	34.872
455.98	35.058
456.34	34.266
456.69	35.399
457.04	34.675
457.39	35.478
457.74	34.829
458.09	35.249
458.44	34.489
458.79	33.937
459.14	34.326
459.49	33.841
459.84	34.047
460.19	33.914
460.54	34.550
460.89	34.797
461.24	35.265
461.59	34.601
461.94	34.260
462.29	33.946
462.64	33.839
462.99	33.870
463.34	35.290
463.69	33.505
464.04	33.794
464.39	33.862
464.74	32.985
465.09	32.796
465.44	32.660
465.79	33.525
466.14	33.694
466.49	33.724
466.84	33.353
467.19	33.567
467.54	33.571
467.89	32.872
468.24	33.559
468.59	33.206
468.94	33.844
469.29	33.047
469.64	32.427
469.99	34.069
470.34	32.974
470.68	31.747
471.03	32.793
471.38	31.919
471.73	32.099
472.08	34.296
472.43	32.916
472.78	32.792
473.13	31.201
473.48	31.311
473.83	31.387
474.17	32.292
474.52	32.104
474.87	31.423
475.22	31.763
475.57	32.460
475.92	31.788
476.27	31.643
476.61	30.747
476.96	32.096
477.31	31.877
477.66	32.147
478.01	31.154
478.36	31.499
478.70	31.633
479.05	31.964
479.40	30.889
479.75	30.765
480.10	31.820
480.45	31.437
480.79	31.010
481.14	31.662
481.49	31.968
481.84	31.480
482.19	31.079
482.53	30.762
482.88	30.393
483.23	30.221
483.58	30.293
483.92	30.447
484.27	30.284
484.62	29.871
484.97	30.776
485.31	31.110
485.66	29.631
486.01	30.883
486.36	30.865
486.70	31.101
487.05	31.350
487.40	30.426
487.75	31.008
488.09	30.122
488.44	30.564
488.79	30.621
489.13	29.264
489.48	30.312
489.83	29.656
490.17	29.278
490.52	30.154
490.87	28.975
491.22	29.298
491.56	30.043
491.91	29.429
492.26	29.932
492.60	29.774
492.95	29.495
493.30	29.021
493.64	27.962
493.99	29.614
494.34	28.613
494.68	28.783
495.03	28.458
495.37	28.613
495.72	28.922
496.07	29.323
496.41	28.124
496.76	28.885
497.11	29.577
497.45	28.842
497.80	28.824
498.14	29.018
498.49	27.988
498.84	28.593
499.18	27.725
499.53	28.065
499.87	27.754
500.22	28.920
500.56	28.435
500.91	29.175
501.26	28.867
501.60	27.892
501.95	27.552
502.29	28.155
502.64	28.351
502.98	28.131
503.33	27.689
503.67	28.286
504.02	27.255
504.36	27.935
504.71	27.541
505.06	28.171
505.40	28.299
505.75	28.281
506.09	27.440
506.44	27.016
506.78	27.324
507.13	28.326
507.47	28.208
507.82	27.473
508.16	27.863
508.51	26.653
508.85	26.801
509.19	27.566
509.54	27.721
509.88	26.935
510.23	27.368
510.57	27.172
510.92	27.640
511.26	27.833
511.61	27.333
511.95	27.894
512.30	26.929
512.64	27.015
512.98	26.593
513.33	27.099
513.67	27.939
514.02	27.822
514.36	26.854
514.70	26.790
515.05	27.092
515.39	27.300
515.74	27.413
516.08	25.723
516.42	26.613
516.77	26.362
517.11	26.102
517.46	27.251
517.80	27.240
518.14	26.761
518.49	26.100
518.83	26.134
519.17	26.084
519.52	25.211
519.86	27.019
520.20	25.591
520.55	26.306
520.89	26.312
521.23	25.962
521.58	26.422
521.92	25.141
522.26	25.634
522.61	25.404
522.95	26.295
523.29	25.206
523.64	26.319
523.98	25.349
524.32	25.331
524.66	25.519
525.01	26.671
525.35	25.741
525.69	26.375
526.04	24.886
526.38	24.347
526.72	25.510
527.06	25.274
527.41	25.017
527.75	25.234
528.09	25.391
528.43	26.119
528.78	26.098
529.12	25.938
529.46	25.400
529.80	25.437
530.15	25.547
530.49	25.000
530.83	26.676
531.17	26.096
531.51	24.815
531.86	24.932
532.20	25.637
532.54	24.897
532.88	24.711
533.22	25.387
533.57	25.563
533.91	25.935
534.25	26.367
534.59	25.418
534.93	25.383
535.27	25.541
535.62	24.342
535.96	25.049
536.30	25.000
536.64	25.701
536.98	24.247
537.32	25.480
537.66	25.458
538.01	24.757
538.35	24.517
538.69	23.946
539.03	24.027
539.37	23.742
539.71	24.829
540.05	23.752
540.39	24.226
540.73	25.140
541.07	23.946
541.42	25.118
541.76	23.816
542.10	24.171
542.44	24.532
542.78	24.219
543.12	24.528
543.46	24.257
543.80	23.829
544.14	24.157
544.48	22.827
544.82	23.941
545.16	23.124
545.50	23.970
545.84	23.562
546.18	25.175
546.52	23.641
546.86	22.898
547.20	22.873
547.54	23.445
547.88	23.954
548.22	23.388
548.56	23.616
548.90	22.463
549.24	24.583
549.58	23.345
549.92	23.771
550.26	24.649
550.60	22.973
550.94	23.284
551.28	22.332
551.62	23.759
551.96	23.133
552.30	22.271
552.64	22.316
552.98	23.224
553.32	23.288
553.66	22.891
554.00	23.902
554.34	22.711
554.68	23.266
555.02	23.353
555.36	23.374
555.69	22.870
556.03	22.516
556.37	22.404
556.71	22.425
557.05	22.362
557.39	22.833
557.73	22.844
558.07	22.381
558.41	22.710
558.75	22.017
559.08	21.652
559.42	22.738
559.76	22.248
560.10	21.752
560.44	23.360
560.78	22.230
561.12	21.794
561.45	22.381
561.79	21.596
562.13	22.925
562.47	22.500
562.81	22.655
563.15	21.601
563.48	21.817
563.82	23.119
564.16	22.613
564.50	22.592
564.84	21.757
565.17	22.583
565.51	23.195
565.85	21.785
566.19	21.457
566.52	22.280
566.86	22.061
567.20	22.480
567.54	21.992
567.88	21.277
568.21	21.782
568.55	22.274
568.89	21.585
569.23	22.090
569.56	21.986
569.90	22.124
570.24	21.588
570.57	22.211
570.91	21.571
571.25	21.497
571.59	21.918
571.92	21.649
572.26	22.275
572.60	22.451
572.93	21.525
573.27	21.652
573.61	22.459
573.95	21.708
574.28	21.939
574.62	21.600
574.96	21.949
575.29	22.016
575.63	21.417
575.97	21.984
576.30	20.953
576.64	21.928
576.98	21.897
577.31	21.326
577.65	21.626
577.98	21.436
578.32	21.761
578.66	21.578
578.99	21.784
579.33	21.964
579.67	21.461
580.00	21.391
580.34	21.498
580.67	21.362
581.01	21.292
581.35	21.582
581.68	21.124
582.02	21.369
582.35	21.481
582.69	21.314
583.02	21.493
583.36	21.461
583.70	21.478
584.03	21.893
584.37	21.175
584.70	21.598
585.04	21.353
585.37	21.312
585.71	21.105
586.04	21.078
586.38	21.205
586.72	21.326
587.05	21.348
587.39	21.830
587.72	21.011
588.06	21.149
588.39	21.159
588.73	21.089
589.06	21.177
589.40	20.365
589.73	20.517
590.07	21.108
590.40	21.393
590.73	21.313
591.07	21.187
591.40	20.304
591.74	20.809
592.07	20.949
592.41	21.193
592.74	20.679
593.08	19.932
593.41	21.034
593.75	20.446
594.08	21.105
594.41	20.878
594.75	21.214
595.08	21.322
595.42	20.472
595.75	20.571
596.09	20.516
596.42	20.302
596.75	20.623
597.09	20.837
597.42	21.041
597.75	20.489
598.09	20.355
598.42	20.403
598.76	20.403
599.09	20.808
599.42	20.506
599.76	21.104
600.09	20.105
600.42	20.339
600.76	20.362
601.09	20.716
601.42	20.267
601.76	20.193
602.09	20.470
602.42	20.759
602.76	19.757
603.09	20.821
603.42	20.152
603.76	19.836
604.09	19.644
604.42	20.008
604.76	20.166
605.09	19.801
605.42	19.838
605.75	20.257
606.09	18.709
606.42	19.992
606.75	19.351
607.09	20.257
607.42	19.790
607.75	19.869
608.08	19.973
608.42	19.588
608.75	19.828
609.08	19.990
609.41	20.070
609.75	19.516
610.08	19.576
610.41	20.165
610.74	19.538
611.07	20.140
611.41	19.806
611.74	20.135
612.07	19.541
612.40	19.892
612.73	18.935
613.07	19.512
613.40	19.383
613.73	19.827
614.06	20.674
614.39	20.400
614.72	19.378
615.06	19.889
615.39	19.757
615.72	19.060
616.05	19.764
616.38	19.588
616.71	18.536
617.05	19.779
617.38	19.593
617.71	18.444
618.04	18.647
618.37	19.495
618.70	20.310
619.03	19.107
619.36	19.644
619.69	19.225
620.03	18.587
620.36	18.720
620.69	18.487
621.02	17.385
621.35	18.479
621.68	19.152
622.01	19.337
622.34	18.398
622.67	18.637
623.00	18.693
623.33	18.624
623.66	18.513
623.99	18.080
624.32	18.855
624.65	19.510
624.99	18.369
625.32	19.119
625.65	18.837
625.98	18.562
626.31	16.980
626.64	17.025
626.97	18.166
627.30	19.247
627.63	18.512
627.96	18.095
628.29	18.698
628.62	18.762
628.95	18.637
629.28	18.227
629.61	18.756
629.94	18.279
630.26	18.227
630.59	16.983
630.92	16.466
631.25	16.993
631.58	19.058
631.91	16.119
632.24	17.563
632.57	17.000
632.90	19.253
633.23	16.667
633.56	17.506
633.89	17.584
634.22	19.199
634.55	18.758
634.88	17.770
635.20	19.500
635.53	16.667
