SpectraSuite Data File
++++++++++++++++++++++++++++++++++++
Date: Tue May 12 17:23:56 PDT 2015
User: schluterlab
Dark Spectrum Present: Yes
Reference Spectrum Present: Yes
Number of Sampled Component Spectra: 1
Spectrometers: USB2E3373
Integration Time (usec): 3000 (USB2E3373)
Spectra Averaged: 3 (USB2E3373)
Boxcar Smoothing: 0 (USB2E3373)
Correct for Electrical Dark: No (USB2E3373)
Strobe/Lamp Enabled: No (USB2E3373)
Correct for Detector Non-linearity: No (USB2E3373)
Correct for Stray Light: No (USB2E3373)
Number of Pixels in Processed Spectrum: 2048
>>>>>Begin Processed Spectral Data<<<<<
178.53	0.000
178.91	-225.000
179.29	-675.000
179.67	-3700.000
180.04	-66.667
180.42	725.000
180.80	1500.000
181.18	0.000
181.56	-200.000
181.94	0.000
182.31	1166.667
182.69	-3500.000
183.07	642.857
183.45	-4200.000
183.83	-1300.000
184.20	310.000
184.58	471.429
184.96	-269.231
185.34	-208.333
185.72	1550.000
186.09	-725.000
186.47	-2700.000
186.85	1100.000
187.23	660.000
187.61	1650.000
187.98	537.500
188.36	300.000
188.74	350.000
189.12	341.667
189.49	900.000
189.87	0.000
190.25	450.000
190.63	3400.000
191.00	-183.333
191.38	-2600.000
191.76	-775.000
192.14	550.000
192.51	-2400.000
192.89	2100.000
193.27	1166.667
193.65	-1033.333
194.02	-760.000
194.40	485.714
194.78	-171.429
195.15	186.667
195.53	-3900.000
195.91	-520.000
196.29	3400.000
196.66	262.500
197.04	700.000
197.42	-1300.000
197.79	650.000
198.17	341.667
198.55	0.000
198.92	428.571
199.30	766.667
199.68	1900.000
200.05	533.333
200.43	-350.000
200.81	183.333
201.18	3300.000
201.56	300.000
201.94	-625.000
202.31	-250.000
202.69	-500.000
203.07	3000.000
203.44	-616.667
203.82	316.667
204.19	740.000
204.57	-1650.000
204.95	-800.000
205.32	-600.000
205.70	600.000
206.08	850.000
206.45	-766.667
206.83	355.556
207.20	173.684
207.58	283.333
207.96	640.000
208.33	0.000
208.71	585.714
209.08	800.000
209.46	-2600.000
209.84	-450.000
210.21	700.000
210.59	-480.000
210.96	325.000
211.34	-875.000
211.71	372.727
212.09	925.000
212.46	1300.000
212.84	-466.667
213.22	555.556
213.59	-3000.000
213.97	380.000
214.34	725.000
214.72	1300.000
215.09	1133.333
215.47	-2900.000
215.84	-420.000
216.22	-275.000
216.59	0.000
216.97	0.000
217.34	1550.000
217.72	-2150.000
218.09	1233.333
218.47	537.500
218.84	925.000
219.22	1233.333
219.59	966.667
219.97	457.143
220.34	355.556
220.72	1800.000
221.09	3200.000
221.47	258.333
221.84	966.667
222.22	340.000
222.59	238.889
222.97	214.286
223.34	243.750
223.72	-1250.000
224.09	1133.333
224.46	230.769
224.84	-725.000
225.21	344.444
225.59	273.333
225.96	1066.667
226.34	-760.000
226.71	-850.000
227.08	-800.000
227.46	0.000
227.83	-466.667
228.21	-1850.000
228.58	400.000
228.95	900.000
229.33	377.778
229.70	1025.000
230.08	353.846
230.45	3100.000
230.82	-850.000
231.20	-600.000
231.57	-1200.000
231.95	580.000
232.32	341.667
232.69	700.000
233.07	250.000
233.44	-1350.000
233.81	240.000
234.19	151.852
234.56	193.750
234.93	205.882
235.31	185.000
235.68	268.750
236.05	214.286
236.43	159.259
236.80	242.857
237.17	137.931
237.55	146.875
237.92	112.500
238.29	154.545
238.67	143.750
239.04	124.390
239.41	114.583
239.79	127.500
240.16	112.500
240.53	90.164
240.91	95.652
241.28	93.220
241.65	95.455
242.02	112.676
242.40	104.286
242.77	72.527
243.14	81.013
243.51	76.768
243.89	84.112
244.26	69.159
244.63	76.238
245.00	82.569
245.38	71.186
245.75	65.152
246.12	74.815
246.49	69.504
246.87	73.770
247.24	70.667
247.61	67.500
247.98	74.830
248.36	63.636
248.73	62.755
249.10	60.714
249.47	65.500
249.84	57.711
250.22	64.865
250.59	58.500
250.96	58.650
251.33	62.326
251.70	63.839
252.08	61.765
252.45	56.574
252.82	57.034
253.19	58.893
253.56	53.077
253.94	54.348
254.31	60.078
254.68	54.704
255.05	58.966
255.42	60.949
255.79	57.003
256.16	59.322
256.54	58.766
256.91	53.922
257.28	57.525
257.65	52.665
258.02	53.982
258.39	57.880
258.76	54.783
259.14	52.000
259.51	55.102
259.88	59.878
260.25	52.747
260.62	54.521
260.99	52.617
261.36	54.318
261.73	54.787
262.10	56.021
262.47	53.750
262.85	55.733
263.22	55.013
263.59	52.941
263.96	53.885
264.33	50.864
264.70	53.808
265.07	53.902
265.44	54.587
265.81	54.009
266.18	54.005
266.55	55.556
266.92	51.454
267.29	52.412
267.66	52.466
268.03	54.260
268.40	53.700
268.77	54.405
269.14	53.362
269.51	53.229
269.88	53.673
270.25	47.948
270.62	54.721
270.99	50.507
271.36	53.862
271.73	52.201
272.10	50.303
272.47	49.603
272.84	48.104
273.21	47.934
273.58	50.405
273.95	49.487
274.32	49.805
274.69	52.953
275.06	50.091
275.43	49.234
275.80	50.566
276.17	50.368
276.54	52.150
276.91	52.052
277.28	50.547
277.65	50.000
278.02	47.978
278.39	49.281
278.76	49.828
279.13	48.932
279.50	48.182
279.87	47.114
280.23	46.777
280.60	48.358
280.97	48.966
281.34	49.505
281.71	49.391
282.08	47.521
282.45	47.804
282.82	47.157
283.19	45.787
283.56	47.603
283.92	47.394
284.29	47.587
284.66	48.067
285.03	48.922
285.40	47.769
285.77	46.296
286.14	48.142
286.51	46.779
286.87	43.829
287.24	44.144
287.61	44.681
287.98	45.224
288.35	45.778
288.72	44.765
289.08	47.447
289.45	46.494
289.82	45.156
290.19	44.070
290.56	43.668
290.93	42.302
291.29	42.818
291.66	41.384
292.03	43.338
292.40	42.005
292.77	42.618
293.13	41.940
293.50	41.700
293.87	38.618
294.24	40.699
294.60	40.915
294.97	40.559
295.34	38.380
295.71	39.685
296.08	38.933
296.44	39.009
296.81	37.965
297.18	38.150
297.55	36.453
297.91	37.192
298.28	37.923
298.65	36.933
299.02	37.033
299.38	36.811
299.75	35.854
300.12	35.894
300.48	37.471
300.85	36.353
301.22	35.930
301.59	34.316
301.95	36.056
302.32	35.623
302.69	35.294
303.05	35.578
303.42	33.969
303.79	34.886
304.15	34.763
304.52	34.567
304.89	34.648
305.25	35.484
305.62	34.755
305.99	33.696
306.35	34.105
306.72	33.299
307.09	33.954
307.45	33.685
307.82	33.128
308.19	35.155
308.55	31.700
308.92	34.642
309.29	33.235
309.65	34.787
310.02	33.570
310.38	32.203
310.75	31.148
311.12	32.471
311.48	33.687
311.85	33.302
312.22	33.524
312.58	32.459
312.95	31.068
313.31	33.240
313.68	32.458
314.05	32.509
314.41	31.471
314.78	32.955
315.14	32.986
315.51	34.342
315.87	32.117
316.24	32.026
316.61	31.871
316.97	31.835
317.34	32.525
317.70	32.397
318.07	33.452
318.43	31.459
318.80	32.750
319.16	32.430
319.53	32.478
319.89	31.810
320.26	32.495
320.62	32.875
320.99	32.602
321.35	32.653
321.72	32.922
322.08	33.518
322.45	31.698
322.81	32.937
323.18	32.149
323.54	31.794
323.91	33.092
324.27	32.714
324.64	32.612
325.00	33.103
325.37	32.040
325.73	31.197
326.10	31.483
326.46	31.544
326.83	30.720
327.19	32.289
327.56	30.751
327.92	32.787
328.29	32.324
328.65	31.592
329.01	32.079
329.38	32.234
329.74	30.401
330.11	32.233
330.47	31.969
330.84	30.889
331.20	31.134
331.56	33.333
331.93	31.565
332.29	30.442
332.66	30.612
333.02	31.100
333.38	32.723
333.75	31.359
334.11	30.872
334.48	31.368
334.84	30.574
335.20	30.282
335.57	31.150
335.93	31.707
336.29	29.436
336.66	31.647
337.02	30.026
337.38	30.439
337.75	30.490
338.11	31.814
338.47	30.144
338.84	30.652
339.20	30.130
339.56	30.530
339.93	30.184
340.29	29.832
340.65	30.176
341.02	30.410
341.38	30.378
341.74	29.485
342.11	29.466
342.47	29.204
342.83	30.025
343.20	29.588
343.56	29.071
343.92	29.562
344.28	30.223
344.65	30.155
345.01	28.889
345.37	28.926
345.73	30.476
346.10	28.367
346.46	29.107
346.82	28.164
347.19	29.134
347.55	28.884
347.91	29.230
348.27	28.505
348.63	28.560
349.00	29.474
349.36	29.105
349.72	29.587
350.08	28.649
350.45	29.703
350.81	29.281
351.17	28.120
351.53	28.637
351.89	28.438
352.26	28.496
352.62	28.733
352.98	28.911
353.34	28.659
353.70	28.670
354.07	28.692
354.43	28.495
354.79	28.094
355.15	28.484
355.51	28.172
355.87	28.238
356.24	29.330
356.60	27.854
356.96	27.748
357.32	29.088
357.68	29.075
358.04	28.191
358.40	28.036
358.77	28.700
359.13	28.153
359.49	28.021
359.85	27.848
360.21	26.672
360.57	27.445
360.93	28.139
361.29	27.994
361.66	28.039
362.02	25.852
362.38	27.056
362.74	26.327
363.10	27.980
363.46	27.348
363.82	27.279
364.18	27.596
364.54	27.969
364.90	27.510
365.26	27.620
365.62	27.693
365.98	26.979
366.35	26.345
366.71	28.036
367.07	27.440
367.43	26.326
367.79	26.928
368.15	26.594
368.51	27.360
368.87	26.563
369.23	26.542
369.59	27.040
369.95	27.273
370.31	26.420
370.67	27.134
371.03	27.241
371.39	27.216
371.75	27.285
372.11	27.396
372.47	26.918
372.83	26.649
373.19	27.210
373.55	27.216
373.91	26.174
374.27	26.190
374.63	26.644
374.99	27.089
375.35	26.613
375.71	27.045
376.07	25.995
376.42	25.703
376.78	27.168
377.14	27.261
377.50	25.468
377.86	26.009
378.22	25.655
378.58	27.058
378.94	25.890
379.30	25.652
379.66	26.249
380.02	26.334
380.38	26.230
380.74	26.817
381.09	27.103
381.45	24.855
381.81	25.236
382.17	25.580
382.53	25.795
382.89	26.552
383.25	25.933
383.61	26.110
383.97	25.435
384.32	26.643
384.68	27.332
385.04	26.553
385.40	26.394
385.76	26.039
386.12	26.531
386.48	26.322
386.83	26.039
387.19	25.736
387.55	25.147
387.91	26.155
388.27	25.521
388.62	26.056
388.98	25.306
389.34	25.521
389.70	25.825
390.06	26.220
390.42	25.663
390.77	25.430
391.13	26.132
391.49	26.013
391.85	25.723
392.20	25.387
392.56	26.105
392.92	24.481
393.28	24.776
393.64	25.344
393.99	25.074
394.35	25.074
394.71	24.186
395.07	25.000
395.42	24.883
395.78	26.650
396.14	27.349
396.50	25.511
396.85	25.305
397.21	25.632
397.57	26.181
397.92	24.726
398.28	25.041
398.64	26.702
399.00	24.693
399.35	24.960
399.71	25.938
400.07	25.685
400.42	25.433
400.78	25.337
401.14	25.367
401.49	24.309
401.85	25.377
402.21	24.780
402.57	26.152
402.92	24.727
403.28	24.940
403.63	25.132
403.99	25.271
404.35	25.850
404.70	25.399
405.06	24.930
405.42	25.913
405.77	25.083
406.13	25.380
406.49	24.446
406.84	24.647
407.20	25.057
407.55	24.492
407.91	25.909
408.27	26.016
408.62	25.784
408.98	25.251
409.34	24.956
409.69	24.518
410.05	24.508
410.40	24.735
410.76	24.098
411.11	25.000
411.47	25.123
411.83	24.487
412.18	24.275
412.54	24.204
412.89	23.894
413.25	25.599
413.60	25.234
413.96	24.716
414.31	24.970
414.67	25.698
415.03	25.670
415.38	25.237
415.74	25.205
416.09	25.047
416.45	25.275
416.80	25.786
417.16	25.143
417.51	24.713
417.87	24.969
418.22	24.909
418.58	25.032
418.93	24.569
419.29	24.276
419.64	24.470
420.00	25.597
420.35	24.332
420.71	24.912
421.06	24.779
421.42	25.389
421.77	24.820
422.12	24.421
422.48	24.140
422.83	25.000
423.19	24.622
423.54	23.587
423.90	25.142
424.25	25.206
424.61	25.189
424.96	24.732
425.31	24.083
425.67	24.523
426.02	24.285
426.38	24.446
426.73	25.448
427.09	24.852
427.44	23.523
427.79	24.414
428.15	25.516
428.50	25.029
428.85	24.985
429.21	24.149
429.56	25.075
429.92	24.267
430.27	23.948
430.62	24.033
430.98	24.451
431.33	24.647
431.68	23.556
432.04	23.849
432.39	24.753
432.74	25.176
433.10	24.363
433.45	24.756
433.80	24.710
434.16	23.857
434.51	25.387
434.86	25.095
435.22	25.122
435.57	24.303
435.92	25.555
436.28	25.230
436.63	23.933
436.98	25.450
437.34	25.057
437.69	23.740
438.04	24.839
438.39	25.044
438.75	24.777
439.10	24.771
439.45	24.647
439.81	24.928
440.16	23.335
440.51	24.775
440.86	24.444
441.22	24.297
441.57	24.987
441.92	24.827
442.27	24.278
442.63	24.136
442.98	23.976
443.33	24.531
443.68	24.195
444.03	24.034
444.39	24.953
444.74	24.689
445.09	24.697
445.44	25.027
445.79	24.513
446.15	24.947
446.50	23.998
446.85	24.153
447.20	23.881
447.55	24.959
447.91	24.507
448.26	24.601
448.61	24.655
448.96	24.891
449.31	24.697
449.66	24.529
450.02	24.905
450.37	24.653
450.72	25.455
451.07	25.596
451.42	25.015
451.77	25.258
452.12	25.355
452.47	25.820
452.83	25.127
453.18	25.345
453.53	24.926
453.88	25.257
454.23	25.625
454.58	25.117
454.93	24.218
455.28	24.847
455.63	24.291
455.98	25.268
456.34	25.167
456.69	24.878
457.04	25.239
457.39	25.543
457.74	25.338
458.09	24.705
458.44	24.644
458.79	24.138
459.14	24.986
459.49	24.575
459.84	24.891
460.19	24.463
460.54	25.014
460.89	24.840
461.24	24.628
461.59	24.660
461.94	24.291
462.29	25.000
462.64	25.314
462.99	25.080
463.34	25.340
463.69	26.013
464.04	25.158
464.39	25.529
464.74	24.150
465.09	24.782
465.44	24.701
465.79	24.986
466.14	24.324
466.49	24.579
466.84	24.582
467.19	25.366
467.54	25.586
467.89	25.117
468.24	25.536
468.59	24.762
468.94	25.604
469.29	25.657
469.64	24.695
469.99	24.293
470.34	25.680
470.68	25.379
471.03	25.150
471.38	25.166
471.73	25.343
472.08	25.375
472.43	25.760
472.78	25.352
473.13	24.280
473.48	25.061
473.83	24.971
474.17	24.863
474.52	25.533
474.87	24.446
475.22	24.786
475.57	24.711
475.92	24.323
476.27	24.592
476.61	24.558
476.96	25.392
477.31	25.039
477.66	25.604
478.01	24.807
478.36	24.820
478.70	24.218
479.05	24.686
479.40	24.554
479.75	24.578
480.10	25.702
480.45	24.556
480.79	24.378
481.14	24.441
481.49	24.931
481.84	24.055
482.19	25.153
482.53	24.023
482.88	25.448
483.23	24.493
483.58	24.731
483.92	25.411
484.27	23.887
484.62	24.109
484.97	24.153
485.31	23.927
485.66	23.036
486.01	22.861
486.36	22.635
486.70	22.719
487.05	23.086
487.40	23.219
487.75	23.185
488.09	24.148
488.44	23.773
488.79	23.533
489.13	24.487
489.48	24.770
489.83	24.562
490.17	23.988
490.52	24.849
490.87	24.914
491.22	24.557
491.56	25.209
491.91	24.731
492.26	24.722
492.60	24.647
492.95	25.918
493.30	25.478
493.64	24.978
493.99	25.000
494.34	24.339
494.68	24.745
495.03	25.505
495.37	25.394
495.72	25.268
496.07	25.112
496.41	24.196
496.76	24.103
497.11	24.722
497.45	25.077
497.80	24.791
498.14	24.873
498.49	24.838
498.84	25.374
499.18	24.589
499.53	25.540
499.87	24.708
500.22	25.518
500.56	25.209
500.91	25.881
501.26	25.632
501.60	24.727
501.95	25.045
502.29	24.533
502.64	23.776
502.98	24.011
503.33	24.811
503.67	24.503
504.02	24.765
504.36	24.615
504.71	25.449
505.06	24.777
505.40	25.082
505.75	25.257
506.09	25.385
506.44	25.188
506.78	25.425
507.13	24.673
507.47	25.036
507.82	25.596
508.16	26.017
508.51	24.831
508.85	25.309
509.19	25.208
509.54	24.951
509.88	25.957
510.23	25.784
510.57	24.276
510.92	24.875
511.26	25.602
511.61	25.062
511.95	25.236
512.30	25.000
512.64	25.078
512.98	25.474
513.33	25.205
513.67	25.945
514.02	25.662
514.36	24.714
514.70	24.907
515.05	26.105
515.39	25.548
515.74	25.697
516.08	25.708
516.42	26.776
516.77	25.813
517.11	26.080
517.46	25.808
517.80	25.396
518.14	25.972
518.49	25.469
518.83	25.440
519.17	25.679
519.52	26.980
519.86	26.540
520.20	27.068
520.55	24.986
520.89	25.402
521.23	26.869
521.58	25.014
521.92	26.122
522.26	25.415
522.61	26.084
522.95	26.366
523.29	25.906
523.64	25.838
523.98	26.819
524.32	26.009
524.66	26.435
525.01	26.272
525.35	25.751
525.69	26.731
526.04	26.710
526.38	26.368
526.72	25.179
527.06	26.020
527.41	26.119
527.75	25.380
528.09	25.707
528.43	26.113
528.78	26.297
529.12	26.911
529.46	25.190
529.80	26.752
530.15	26.694
530.49	25.632
530.83	26.447
531.17	26.937
531.51	27.100
531.86	25.242
532.20	25.402
532.54	25.800
532.88	26.046
533.22	26.325
533.57	25.686
533.91	25.175
534.25	25.216
534.59	26.140
534.93	25.484
535.27	24.644
535.62	24.562
535.96	25.473
536.30	25.838
536.64	25.652
536.98	26.306
537.32	25.875
537.66	25.765
538.01	26.130
538.35	26.700
538.69	25.789
539.03	26.368
539.37	25.243
539.71	26.173
540.05	25.538
540.39	26.855
540.73	26.582
541.07	25.031
541.42	26.368
541.76	25.956
542.10	25.647
542.44	25.561
542.78	25.110
543.12	25.951
543.46	25.940
543.80	26.566
544.14	26.068
544.48	26.642
544.82	25.382
545.16	24.712
545.50	25.446
545.84	26.578
546.18	27.113
546.52	26.230
546.86	26.499
547.20	26.615
547.54	26.092
547.88	25.791
548.22	26.047
548.56	25.457
548.90	25.623
549.24	26.911
549.58	25.644
549.92	25.802
550.26	26.099
550.60	25.948
550.94	26.323
551.28	26.069
551.62	26.897
551.96	25.946
552.30	25.049
552.64	26.537
552.98	25.322
553.32	25.672
553.66	26.319
554.00	24.903
554.34	26.764
554.68	25.941
555.02	25.798
555.36	25.864
555.69	26.178
556.03	25.860
556.37	25.621
556.71	26.336
557.05	25.229
557.39	25.933
557.73	26.415
558.07	26.895
558.41	26.868
558.75	26.334
559.08	26.662
559.42	26.843
559.76	26.301
560.10	26.153
560.44	25.614
560.78	26.854
561.12	26.065
561.45	25.344
561.79	25.780
562.13	24.447
562.47	25.308
562.81	25.439
563.15	24.952
563.48	24.658
563.82	26.201
564.16	25.498
564.50	25.437
564.84	26.140
565.17	25.253
565.51	26.047
565.85	26.403
566.19	25.536
566.52	25.150
566.86	26.270
567.20	25.674
567.54	24.290
567.88	25.665
568.21	24.663
568.55	24.854
568.89	25.137
569.23	24.331
569.56	24.401
569.90	23.787
570.24	24.293
570.57	24.367
570.91	23.495
571.25	23.369
571.59	23.237
571.92	22.740
572.26	23.019
572.60	22.827
572.93	23.433
573.27	22.688
573.61	22.685
573.95	22.958
574.28	23.049
574.62	22.380
574.96	22.581
575.29	22.164
575.63	21.932
575.97	22.493
576.30	22.425
576.64	22.963
576.98	22.638
577.31	23.113
577.65	22.741
577.98	22.513
578.32	21.982
578.66	22.376
578.99	22.614
579.33	22.711
579.67	22.179
580.00	22.036
580.34	22.396
580.67	22.394
581.01	22.866
581.35	22.282
581.68	21.881
582.02	21.991
582.35	22.085
582.69	22.271
583.02	22.294
583.36	22.443
583.70	22.827
584.03	23.142
584.37	23.145
584.70	22.667
585.04	21.485
585.37	22.092
585.71	22.629
586.04	22.293
586.38	23.246
586.72	22.754
587.05	22.800
587.39	22.680
587.72	22.932
588.06	22.473
588.39	22.979
588.73	22.473
589.06	22.731
589.40	22.848
589.73	23.009
590.07	23.644
590.40	23.554
590.73	23.834
591.07	24.288
591.40	23.194
591.74	23.417
592.07	23.253
592.41	22.822
592.74	22.885
593.08	23.047
593.41	22.382
593.75	22.723
594.08	22.883
594.41	22.711
594.75	22.740
595.08	23.045
595.42	23.206
595.75	23.297
596.09	23.358
596.42	23.671
596.75	23.678
597.09	23.153
597.42	23.306
597.75	23.083
598.09	23.636
598.42	23.337
598.76	23.207
599.09	23.906
599.42	22.837
599.76	22.863
600.09	23.017
600.42	22.790
600.76	22.740
601.09	22.472
601.42	22.950
601.76	23.451
602.09	23.400
602.42	22.625
602.76	23.264
603.09	23.416
603.42	23.229
603.76	22.849
604.09	22.367
604.42	23.465
604.76	23.508
605.09	23.224
605.42	24.055
605.75	22.700
606.09	22.992
606.42	23.187
606.75	23.164
607.09	23.411
607.42	23.021
607.75	22.811
608.08	22.827
608.42	23.616
608.75	23.492
609.08	22.745
609.41	23.773
609.75	23.901
610.08	23.651
610.41	23.144
610.74	23.377
611.07	24.238
611.41	23.540
611.74	24.379
612.07	23.844
612.40	23.928
612.73	23.315
613.07	23.822
613.40	23.509
613.73	23.914
614.06	23.100
614.39	23.737
614.72	23.104
615.06	23.937
615.39	23.366
615.72	23.621
616.05	23.857
616.38	23.541
616.71	23.874
617.05	23.668
617.38	24.101
617.71	24.466
618.04	24.173
618.37	24.402
618.70	23.845
619.03	24.847
619.36	24.435
619.69	24.406
620.03	25.179
620.36	24.663
620.69	25.543
621.02	25.000
621.35	25.215
621.68	24.853
622.01	26.716
622.34	24.618
622.67	24.719
623.00	24.575
623.33	25.169
623.66	24.484
623.99	25.068
624.32	24.797
624.65	24.753
624.99	25.085
625.32	24.582
625.65	24.138
625.98	24.547
626.31	24.926
626.64	24.525
626.97	23.948
627.30	26.320
627.63	25.589
627.96	24.257
628.29	26.155
628.62	25.150
628.95	27.039
629.28	26.380
629.61	25.483
629.94	26.102
630.26	26.170
630.59	26.418
630.92	26.996
631.25	26.111
