SpectraSuite Data File
++++++++++++++++++++++++++++++++++++
Date: Tue May 12 16:03:18 PDT 2015
User: schluterlab
Dark Spectrum Present: Yes
Reference Spectrum Present: Yes
Number of Sampled Component Spectra: 1
Spectrometers: USB2E3373
Integration Time (usec): 3000 (USB2E3373)
Spectra Averaged: 3 (USB2E3373)
Boxcar Smoothing: 0 (USB2E3373)
Correct for Electrical Dark: No (USB2E3373)
Strobe/Lamp Enabled: No (USB2E3373)
Correct for Detector Non-linearity: No (USB2E3373)
Correct for Stray Light: No (USB2E3373)
Number of Pixels in Processed Spectrum: 2048
>>>>>Begin Processed Spectral Data<<<<<
178.53	0.000
178.91	-241.667
179.29	-600.000
179.67	-3800.000
180.04	-173.333
180.42	975.000
180.80	1600.000
181.18	0.000
181.56	-300.000
181.94	0.000
182.31	666.667
182.69	-3000.000
183.07	585.714
183.45	-4000.000
183.83	-1900.000
184.20	390.000
184.58	414.286
184.96	-284.615
185.34	-300.000
185.72	1500.000
186.09	-975.000
186.47	-3500.000
186.85	1300.000
187.23	640.000
187.61	2000.000
187.98	500.000
188.36	257.143
188.74	350.000
189.12	441.667
189.49	750.000
189.87	0.000
190.25	525.000
190.63	2300.000
191.00	-266.667
191.38	-3600.000
191.76	-725.000
192.14	637.500
192.51	-3600.000
192.89	1450.000
193.27	900.000
193.65	-1200.000
194.02	-780.000
194.40	571.429
194.78	-228.571
195.15	253.333
195.53	-3100.000
195.91	-600.000
196.29	3700.000
196.66	268.750
197.04	975.000
197.42	-1900.000
197.79	800.000
198.17	333.333
198.55	0.000
198.92	442.857
199.30	1200.000
199.68	1750.000
200.05	666.667
200.43	-583.333
200.81	211.111
201.18	3300.000
201.56	350.000
201.94	-575.000
202.31	-337.500
202.69	-660.000
203.07	2100.000
203.44	-633.333
203.82	375.000
204.19	820.000
204.57	-1500.000
204.95	-925.000
205.32	-740.000
205.70	666.667
206.08	1025.000
206.45	-866.667
206.83	400.000
207.20	200.000
207.58	225.000
207.96	760.000
208.33	0.000
208.71	571.429
209.08	760.000
209.46	-3100.000
209.84	-700.000
210.21	820.000
210.59	-660.000
210.96	291.667
211.34	-1075.000
211.71	409.091
212.09	900.000
212.46	1750.000
212.84	-583.333
213.22	411.111
213.59	-3300.000
213.97	390.000
214.34	825.000
214.72	1066.667
215.09	1066.667
215.47	-3000.000
215.84	-390.000
216.22	-462.500
216.59	0.000
216.97	0.000
217.34	1350.000
217.72	-1750.000
218.09	1533.333
218.47	462.500
218.84	875.000
219.22	1233.333
219.59	1100.000
219.97	528.571
220.34	477.778
220.72	1400.000
221.09	2800.000
221.47	350.000
221.84	1033.333
222.22	320.000
222.59	294.444
222.97	264.286
223.34	262.500
223.72	-1900.000
224.09	1400.000
224.46	300.000
224.84	-1125.000
225.21	488.889
225.59	320.000
225.96	1366.667
226.34	-700.000
226.71	-850.000
227.08	-680.000
227.46	0.000
227.83	-733.333
228.21	-2050.000
228.58	458.333
228.95	1025.000
229.33	477.778
229.70	1300.000
230.08	315.385
230.45	3500.000
230.82	-850.000
231.20	-1000.000
231.57	-1066.667
231.95	880.000
232.32	291.667
232.69	533.333
233.07	283.333
233.44	-1700.000
233.81	266.667
234.19	192.593
234.56	200.000
234.93	229.412
235.31	205.000
235.68	268.750
236.05	139.286
236.43	125.926
236.80	292.857
237.17	162.069
237.55	131.250
237.92	110.000
238.29	127.273
238.67	143.750
239.04	126.829
239.41	91.667
239.79	107.500
240.16	106.250
240.53	75.410
240.91	71.014
241.28	98.305
241.65	66.667
242.02	83.099
242.40	75.714
242.77	56.044
243.14	73.418
243.51	63.636
243.89	57.944
244.26	51.402
244.63	55.446
245.00	51.376
245.38	38.983
245.75	50.000
246.12	56.296
246.49	41.135
246.87	49.180
247.24	45.333
247.61	50.625
247.98	48.299
248.36	44.242
248.73	45.408
249.10	41.667
249.47	44.500
249.84	41.294
250.22	43.243
250.59	38.000
250.96	38.819
251.33	40.930
251.70	38.393
252.08	37.395
252.45	34.263
252.82	38.023
253.19	34.387
253.56	33.846
253.94	35.870
254.31	33.333
254.68	36.934
255.05	37.241
255.42	37.956
255.79	33.550
256.16	32.881
256.54	37.013
256.91	30.392
257.28	34.114
257.65	27.900
258.02	30.678
258.39	32.951
258.76	31.304
259.14	30.286
259.51	34.402
259.88	33.131
260.25	31.044
260.62	32.329
260.99	28.099
261.36	31.198
261.73	30.851
262.10	31.414
262.47	31.750
262.85	31.467
263.22	33.162
263.59	29.156
263.96	29.825
264.33	30.123
264.70	33.170
265.07	32.683
265.44	29.817
265.81	29.717
266.18	30.435
266.55	29.314
266.92	30.201
267.29	29.825
267.66	28.475
268.03	28.251
268.40	29.387
268.77	30.617
269.14	28.416
269.51	30.290
269.88	28.367
270.25	26.134
270.62	29.828
270.99	29.412
271.36	31.301
271.73	28.512
272.10	28.081
272.47	27.976
272.84	26.547
273.21	28.306
273.58	28.745
273.95	26.694
274.32	30.156
274.69	29.921
275.06	28.415
275.43	29.502
275.80	25.472
276.17	28.309
276.54	28.411
276.91	30.037
277.28	27.555
277.65	27.860
278.02	25.735
278.39	27.518
278.76	29.138
279.13	24.377
279.50	27.455
279.87	28.305
280.23	25.230
280.60	27.190
280.97	28.793
281.34	26.403
281.71	27.652
282.08	26.667
282.45	26.858
282.82	26.589
283.19	28.617
283.56	24.463
283.92	26.873
284.29	26.456
284.66	26.555
285.03	24.876
285.40	24.628
285.77	25.463
286.14	26.316
286.51	26.227
286.87	23.734
287.24	24.024
287.61	24.772
287.98	23.881
288.35	25.037
288.72	23.520
289.08	25.826
289.45	23.171
289.82	25.000
290.19	24.744
290.56	26.055
290.93	22.734
291.29	25.138
291.66	22.599
292.03	24.684
292.40	22.629
292.77	22.702
293.13	23.395
293.50	22.267
293.87	22.358
294.24	22.937
294.60	23.419
294.97	23.357
295.34	21.381
295.71	23.653
296.08	24.133
296.44	22.618
296.81	20.471
297.18	22.053
297.55	20.443
297.91	21.798
298.28	21.860
298.65	22.086
299.02	21.592
299.38	22.062
299.75	22.195
300.12	21.330
300.48	24.005
300.85	22.408
301.22	21.744
301.59	21.934
301.95	22.520
302.32	22.235
302.69	21.493
303.05	22.896
303.42	21.861
303.79	21.668
304.15	21.452
304.52	21.987
304.89	22.068
305.25	22.247
305.62	22.281
305.99	22.174
306.35	22.105
306.72	22.164
307.09	21.946
307.45	22.175
307.82	21.502
308.19	22.784
308.55	21.400
308.92	23.749
309.29	23.669
309.65	22.894
310.02	23.428
310.38	23.629
310.75	23.529
311.12	22.510
311.48	25.676
311.85	25.286
312.22	24.451
312.58	25.850
312.95	25.340
313.31	25.749
313.68	24.765
314.05	25.824
314.41	25.978
314.78	26.042
315.14	27.393
315.51	27.247
315.87	26.916
316.24	28.758
316.61	28.021
316.97	27.706
317.34	29.650
317.70	29.061
318.07	30.160
318.43	30.668
318.80	31.086
319.16	29.720
319.53	30.088
319.89	30.735
320.26	33.892
320.62	32.418
320.99	34.890
321.35	34.137
321.72	35.958
322.08	35.549
322.45	35.513
322.81	37.603
323.18	35.702
323.54	39.199
323.91	39.982
324.27	40.053
324.64	40.744
325.00	41.121
325.37	43.676
325.73	43.255
326.10	44.242
326.46	43.518
326.83	44.800
327.19	46.747
327.56	46.406
327.92	48.852
328.29	48.854
328.65	50.514
329.01	48.845
329.38	51.354
329.74	50.213
330.11	52.650
330.47	52.771
330.84	51.251
331.20	51.184
331.56	53.627
331.93	54.149
332.29	53.656
332.66	55.187
333.02	54.467
333.38	54.014
333.75	54.879
334.11	55.034
334.48	56.667
334.84	54.223
335.20	56.630
335.57	53.484
335.93	56.182
336.29	54.892
336.66	58.062
337.02	56.373
337.38	56.750
337.75	57.517
338.11	55.949
338.47	56.647
338.84	56.901
339.20	56.364
339.56	57.948
339.93	56.773
340.29	57.395
340.65	56.915
341.02	57.361
341.38	57.553
341.74	58.887
342.11	60.100
342.47	55.619
342.83	58.819
343.20	58.124
343.56	56.076
343.92	57.638
344.28	57.735
344.65	58.272
345.01	56.746
345.37	58.974
345.73	58.016
346.10	58.406
346.46	58.293
346.82	57.330
347.19	58.037
347.55	58.236
347.91	57.024
348.27	58.095
348.63	59.731
349.00	58.720
349.36	59.844
349.72	59.557
350.08	59.317
350.45	58.568
350.81	60.627
351.17	58.706
351.53	59.199
351.89	58.120
352.26	59.940
352.62	59.804
352.98	58.589
353.34	60.015
353.70	58.486
354.07	58.923
354.43	60.676
354.79	58.694
355.15	60.567
355.51	59.139
355.87	59.789
356.24	61.740
356.60	59.665
356.96	59.742
357.32	60.362
357.68	58.811
358.04	59.422
358.40	58.696
358.77	61.007
359.13	59.685
359.49	60.267
359.85	61.355
360.21	60.253
360.57	59.781
360.93	59.596
361.29	60.462
361.66	62.938
362.02	59.801
362.38	60.678
362.74	61.359
363.10	60.940
363.46	60.221
363.82	60.168
364.18	61.451
364.54	60.300
364.90	60.843
365.26	61.485
365.62	60.566
365.98	59.257
366.35	60.138
366.71	62.110
367.07	61.160
367.43	60.510
367.79	60.439
368.15	59.973
368.51	60.165
368.87	62.160
369.23	61.400
369.59	60.755
369.95	62.238
370.31	59.001
370.67	61.901
371.03	60.224
371.39	61.634
371.75	62.107
372.11	60.775
372.47	62.329
372.83	62.678
373.19	61.001
373.55	61.443
373.91	61.878
374.27	60.648
374.63	60.475
374.99	61.119
375.35	62.836
375.71	61.939
376.07	62.202
376.42	61.701
376.78	62.299
377.14	62.385
377.50	61.548
377.86	61.115
378.22	61.548
378.58	62.893
378.94	62.040
379.30	62.462
379.66	61.890
380.02	62.463
380.38	61.183
380.74	62.687
381.09	61.215
381.45	60.983
381.81	60.934
382.17	62.088
382.53	61.488
382.89	62.034
383.25	62.463
383.61	60.461
383.97	60.888
384.32	60.759
384.68	61.616
385.04	62.075
385.40	61.803
385.76	61.908
386.12	62.647
386.48	60.547
386.83	62.225
387.19	63.015
387.55	61.131
387.91	62.991
388.27	61.749
388.62	61.326
388.98	61.166
389.34	60.976
389.70	61.910
390.06	63.049
390.42	61.875
390.77	61.732
391.13	62.945
391.49	62.311
391.85	62.892
392.20	61.740
392.56	62.067
392.92	62.044
393.28	61.155
393.64	62.271
393.99	60.996
394.35	61.330
394.71	60.193
395.07	61.010
395.42	61.710
395.78	61.999
396.14	62.831
396.50	61.974
396.85	61.341
397.21	61.673
397.57	61.327
397.92	61.698
398.28	61.721
398.64	62.245
399.00	60.342
399.35	60.762
399.71	60.982
400.07	61.244
400.42	62.269
400.78	61.173
401.14	61.597
401.49	60.772
401.85	60.892
402.21	62.039
402.57	61.700
402.92	61.273
403.28	60.680
403.63	59.447
403.99	60.555
404.35	60.375
404.70	60.898
405.06	59.686
405.42	60.323
405.77	60.309
406.13	59.273
406.49	59.750
406.84	59.391
407.20	61.587
407.55	61.108
407.91	60.306
408.27	60.158
408.62	60.733
408.98	60.083
409.34	59.088
409.69	60.548
410.05	59.451
410.40	59.246
410.76	60.218
411.11	60.367
411.47	59.815
411.83	58.465
412.18	59.360
412.54	59.459
412.89	59.233
413.25	59.521
413.60	59.404
413.96	60.802
414.31	60.035
414.67	61.266
415.03	58.940
415.38	58.927
415.74	60.708
416.09	60.462
416.45	59.017
416.80	61.514
417.16	58.498
417.51	59.427
417.87	59.825
418.22	58.202
418.58	60.446
418.93	60.619
419.29	59.335
419.64	59.055
420.00	60.680
420.35	60.163
420.71	59.393
421.06	58.917
421.42	60.334
421.77	59.522
422.12	59.206
422.48	59.168
422.83	61.049
423.19	58.963
423.54	58.749
423.90	59.740
424.25	59.494
424.61	60.186
424.96	59.571
425.31	58.730
425.67	60.774
426.02	59.787
426.38	59.043
426.73	60.671
427.09	60.202
427.44	59.707
427.79	61.006
428.15	60.224
428.50	61.429
428.85	59.436
429.21	58.725
429.56	59.272
429.92	59.771
430.27	58.491
430.62	58.003
430.98	59.032
431.33	59.627
431.68	59.062
432.04	58.872
432.39	60.538
432.74	60.656
433.10	60.299
433.45	61.229
433.80	61.335
434.16	59.695
434.51	59.649
434.86	60.152
435.22	60.022
435.57	59.632
435.92	61.241
436.28	60.599
436.63	60.238
436.98	60.923
437.34	61.644
437.69	59.742
438.04	60.591
438.39	60.362
438.75	59.521
439.10	59.579
439.45	60.599
439.81	60.035
440.16	60.484
440.51	59.459
440.86	60.171
441.22	60.173
441.57	60.997
441.92	59.230
442.27	59.433
442.63	59.096
442.98	58.782
443.33	60.311
443.68	59.105
444.03	58.812
444.39	59.652
444.74	59.576
445.09	60.453
445.44	59.458
445.79	59.454
446.15	60.368
446.50	60.812
446.85	60.906
447.20	59.751
447.55	60.957
447.91	59.883
448.26	59.744
448.61	59.701
448.96	60.893
449.31	59.681
449.66	60.133
450.02	58.995
450.37	61.188
450.72	61.047
451.07	60.791
451.42	60.640
451.77	61.283
452.12	60.182
452.47	60.389
452.83	60.732
453.18	61.261
453.53	61.101
453.88	60.686
454.23	60.779
454.58	61.189
454.93	60.270
455.28	60.832
455.63	61.111
455.98	61.196
456.34	61.398
456.69	61.585
457.04	60.800
457.39	61.314
457.74	61.430
458.09	59.405
458.44	60.077
458.79	60.637
459.14	60.065
459.49	60.532
459.84	60.978
460.19	60.565
460.54	61.311
460.89	60.981
461.24	59.794
461.59	61.111
461.94	60.165
462.29	61.270
462.64	60.867
462.99	60.909
463.34	60.402
463.69	62.069
464.04	61.025
464.39	60.446
464.74	60.082
465.09	59.954
465.44	59.521
465.79	59.608
466.14	59.194
466.49	59.848
466.84	60.256
467.19	59.461
467.54	59.760
467.89	59.859
468.24	60.046
468.59	61.369
468.94	60.688
469.29	60.232
469.64	61.158
469.99	60.925
470.34	60.278
470.68	62.414
471.03	61.775
471.38	61.589
471.73	61.137
472.08	61.905
472.43	61.266
472.78	60.883
473.13	61.202
473.48	60.758
473.83	60.130
474.17	60.851
474.52	59.656
474.87	59.750
475.22	59.737
475.57	59.339
475.92	59.836
476.27	59.902
476.61	60.483
476.96	59.927
477.31	60.771
477.66	61.567
478.01	59.360
478.36	59.217
478.70	59.256
479.05	61.715
479.40	60.813
479.75	59.533
480.10	60.116
480.45	60.177
480.79	59.401
481.14	59.724
481.49	58.920
481.84	58.355
482.19	60.044
482.53	58.805
482.88	59.140
483.23	59.630
483.58	60.548
483.92	60.375
484.27	60.103
484.62	59.508
484.97	57.772
485.31	57.412
485.66	56.141
486.01	54.855
486.36	53.876
486.70	54.282
487.05	54.924
487.40	55.223
487.75	56.587
488.09	57.386
488.44	57.075
488.79	57.827
489.13	59.462
489.48	58.929
489.83	59.550
490.17	57.762
490.52	59.388
490.87	59.138
491.22	59.619
491.56	58.630
491.91	59.453
492.26	59.287
492.60	60.000
492.95	59.402
493.30	59.645
493.64	59.614
493.99	58.900
494.34	58.853
494.68	59.761
495.03	59.632
495.37	60.423
495.72	60.000
496.07	58.131
496.41	58.949
496.76	58.210
497.11	58.569
497.45	58.965
497.80	59.963
498.14	59.871
498.49	59.703
498.84	60.140
499.18	58.410
499.53	59.394
499.87	58.401
500.22	59.972
500.56	58.960
500.91	60.297
501.26	59.577
501.60	60.109
501.95	58.692
502.29	58.267
502.64	58.315
502.98	57.492
503.33	59.332
503.67	57.660
504.02	58.173
504.36	58.009
504.71	59.934
505.06	58.939
505.40	59.055
505.75	57.858
506.09	59.869
506.44	59.492
506.78	59.216
507.13	60.107
507.47	59.098
507.82	58.686
508.16	61.195
508.51	59.710
508.85	58.879
509.19	59.912
509.54	59.131
509.88	60.169
510.23	58.824
510.57	58.108
510.92	60.689
511.26	60.040
511.61	58.838
511.95	58.337
512.30	59.200
512.64	58.411
512.98	59.559
513.33	60.707
513.67	59.917
514.02	59.481
514.36	60.021
514.70	60.320
515.05	60.948
515.39	60.800
515.74	61.564
516.08	61.329
516.42	62.350
516.77	60.640
517.11	60.373
517.46	60.668
517.80	59.967
518.14	62.028
518.49	60.474
518.83	59.451
519.17	60.621
519.52	60.022
519.86	60.926
520.20	60.548
520.55	60.543
520.89	60.230
521.23	62.091
521.58	60.700
521.92	61.166
522.26	60.900
522.61	62.092
522.95	61.021
523.29	60.994
523.64	60.231
523.98	60.798
524.32	60.035
524.66	61.391
525.01	61.538
525.35	59.517
525.69	61.349
526.04	60.143
526.38	61.036
526.72	60.442
527.06	61.502
527.41	62.334
527.75	61.169
528.09	59.783
528.43	61.562
528.78	59.153
529.12	62.011
529.46	59.965
529.80	60.047
530.15	60.401
530.49	59.567
530.83	61.913
531.17	60.148
531.51	61.128
531.86	60.326
532.20	60.136
532.54	61.017
532.88	60.400
533.22	58.867
533.57	62.050
533.91	59.266
534.25	58.627
534.59	58.713
534.93	58.362
535.27	57.200
535.62	59.102
535.96	58.038
536.30	60.756
536.64	59.193
536.98	59.031
537.32	59.500
537.66	60.651
538.01	58.390
538.35	59.825
538.69	59.648
539.03	57.898
539.37	58.617
539.71	59.012
540.05	58.400
540.39	59.119
540.73	59.557
541.07	59.912
541.42	59.515
541.76	58.693
542.10	59.063
542.44	58.416
542.78	60.101
543.12	59.693
543.46	59.211
543.80	59.398
544.14	58.080
544.48	57.786
544.82	58.532
545.16	57.316
545.50	58.267
545.84	58.396
546.18	60.793
546.52	60.262
546.86	58.543
547.20	59.109
547.54	56.871
547.88	57.117
548.22	58.106
548.56	55.922
548.90	55.931
549.24	58.560
549.58	58.183
549.92	58.481
550.26	59.297
550.60	58.749
550.94	59.634
551.28	59.448
551.62	59.103
551.96	57.838
552.30	58.075
552.64	57.540
552.98	57.925
553.32	57.618
553.66	58.893
554.00	57.272
554.34	58.189
554.68	59.745
555.02	57.705
555.36	57.447
555.69	57.853
556.03	58.153
556.37	56.915
556.71	58.344
557.05	55.505
557.39	57.733
557.73	57.951
558.07	57.746
558.41	58.533
558.75	58.618
559.08	60.114
559.42	59.843
559.76	57.805
560.10	58.913
560.44	57.399
560.78	58.440
561.12	57.343
561.45	57.259
561.79	56.742
562.13	56.475
562.47	56.262
562.81	56.799
563.15	57.854
563.48	55.031
563.82	58.016
564.16	57.276
564.50	55.214
564.84	56.292
565.17	55.318
565.51	57.328
565.85	57.866
566.19	55.952
566.52	55.716
566.86	55.108
567.20	55.393
567.54	54.749
567.88	54.564
568.21	52.971
568.55	54.086
568.89	52.464
569.23	51.855
569.56	52.037
569.90	49.802
570.24	49.574
570.57	49.481
570.91	48.861
571.25	48.695
571.59	48.421
571.92	47.497
572.26	47.682
572.60	47.126
572.93	48.792
573.27	48.851
573.61	48.213
573.95	47.485
574.28	47.867
574.62	46.996
574.96	46.383
575.29	46.298
575.63	46.455
575.97	45.983
576.30	47.178
576.64	46.631
576.98	46.645
577.31	46.697
577.65	45.835
577.98	45.834
578.32	45.129
578.66	45.529
578.99	46.507
579.33	46.414
579.67	46.342
580.00	46.136
580.34	45.597
580.67	46.018
581.01	46.522
581.35	45.776
581.68	44.919
582.02	45.032
582.35	44.537
582.69	45.081
583.02	45.333
583.36	45.412
583.70	46.023
584.03	47.651
584.37	47.350
584.70	46.828
585.04	45.777
585.37	45.514
585.71	45.753
586.04	45.241
586.38	46.397
586.72	46.203
587.05	46.037
587.39	46.018
587.72	45.865
588.06	45.940
588.39	46.648
588.73	46.500
589.06	47.622
589.40	47.136
589.73	47.525
590.07	48.181
590.40	48.397
590.73	48.770
591.07	48.767
591.40	48.703
591.74	48.458
592.07	48.295
592.41	48.361
592.74	47.382
593.08	45.964
593.41	46.499
593.75	45.300
594.08	46.320
594.41	46.595
594.75	47.021
595.08	47.565
595.42	46.675
595.75	46.627
596.09	47.028
596.42	46.905
596.75	48.718
597.09	47.957
597.42	47.551
597.75	48.114
598.09	48.256
598.42	47.124
598.76	46.955
599.09	47.334
599.42	45.744
599.76	46.167
600.09	45.492
600.42	46.202
600.76	46.465
601.09	46.565
601.42	46.815
601.76	46.259
602.09	47.057
602.42	45.989
602.76	46.641
603.09	46.833
603.42	46.642
603.76	46.927
604.09	46.182
604.42	46.365
604.76	47.294
605.09	47.755
605.42	46.607
605.75	46.940
606.09	45.868
606.42	45.772
606.75	46.716
607.09	46.151
607.42	46.083
607.75	46.218
608.08	46.629
608.42	47.190
608.75	46.470
609.08	46.282
609.41	48.273
609.75	47.985
610.08	47.212
610.41	47.167
610.74	47.273
611.07	47.840
611.41	47.683
611.74	48.040
612.07	47.736
612.40	48.441
612.73	48.677
613.07	48.555
613.40	48.321
613.73	47.778
614.06	47.800
614.39	48.838
614.72	46.861
615.06	46.736
615.39	47.871
615.72	46.757
616.05	48.669
616.38	47.539
616.71	48.182
617.05	49.478
617.38	47.921
617.71	48.650
618.04	49.075
618.37	48.527
618.70	48.210
619.03	50.244
619.36	49.497
619.69	50.132
620.03	51.533
620.36	50.096
620.69	49.936
621.02	51.495
621.35	51.433
621.68	51.180
622.01	53.358
622.34	51.857
622.67	50.492
623.00	50.238
623.33	49.190
623.66	50.033
623.99	51.849
624.32	50.881
624.65	50.099
624.99	50.913
625.32	50.367
625.65	50.207
625.98	50.558
626.31	52.745
626.64	52.620
626.97	50.650
627.30	51.941
627.63	51.727
627.96	52.895
628.29	51.980
628.62	54.833
628.95	53.546
629.28	54.864
629.61	53.251
629.94	53.587
630.26	53.986
630.59	54.787
630.92	55.067
