SpectraSuite Data File
++++++++++++++++++++++++++++++++++++
Date: Tue May 12 16:36:00 PDT 2015
User: schluterlab
Dark Spectrum Present: Yes
Reference Spectrum Present: Yes
Number of Sampled Component Spectra: 1
Spectrometers: USB2E3373
Integration Time (usec): 3000 (USB2E3373)
Spectra Averaged: 3 (USB2E3373)
Boxcar Smoothing: 0 (USB2E3373)
Correct for Electrical Dark: No (USB2E3373)
Strobe/Lamp Enabled: No (USB2E3373)
Correct for Detector Non-linearity: No (USB2E3373)
Correct for Stray Light: No (USB2E3373)
Number of Pixels in Processed Spectrum: 2048
>>>>>Begin Processed Spectral Data<<<<<
178.53	0.000
178.91	-241.667
179.29	-600.000
179.67	-4000.000
180.04	-206.667
180.42	600.000
180.80	1450.000
181.18	0.000
181.56	-325.000
181.94	0.000
182.31	1266.667
182.69	-3100.000
183.07	514.286
183.45	-3600.000
183.83	-1500.000
184.20	280.000
184.58	557.143
184.96	-246.154
185.34	-166.667
185.72	1550.000
186.09	-650.000
186.47	-3100.000
186.85	1133.333
187.23	440.000
187.61	1350.000
187.98	537.500
188.36	285.714
188.74	325.000
189.12	333.333
189.49	900.000
189.87	0.000
190.25	450.000
190.63	2600.000
191.00	-250.000
191.38	-3300.000
191.76	-800.000
192.14	400.000
192.51	-2100.000
192.89	1350.000
193.27	900.000
193.65	-1166.667
194.02	-780.000
194.40	471.429
194.78	-228.571
195.15	220.000
195.53	-2200.000
195.91	-580.000
196.29	3400.000
196.66	281.250
197.04	650.000
197.42	-1300.000
197.79	575.000
198.17	291.667
198.55	0.000
198.92	457.143
199.30	1466.667
199.68	1750.000
200.05	533.333
200.43	-366.667
200.81	183.333
201.18	2400.000
201.56	275.000
201.94	-925.000
202.31	-337.500
202.69	-360.000
203.07	2800.000
203.44	-333.333
203.82	391.667
204.19	600.000
204.57	-1150.000
204.95	-900.000
205.32	-740.000
205.70	650.000
206.08	750.000
206.45	-1000.000
206.83	333.333
207.20	157.895
207.58	291.667
207.96	480.000
208.33	0.000
208.71	671.429
209.08	760.000
209.46	-2300.000
209.84	-825.000
210.21	800.000
210.59	-520.000
210.96	300.000
211.34	-1025.000
211.71	436.364
212.09	700.000
212.46	1750.000
212.84	-266.667
213.22	477.778
213.59	-2900.000
213.97	270.000
214.34	775.000
214.72	1066.667
215.09	1033.333
215.47	-3200.000
215.84	-240.000
216.22	-375.000
216.59	0.000
216.97	0.000
217.34	1650.000
217.72	-1050.000
218.09	1166.667
218.47	487.500
218.84	800.000
219.22	833.333
219.59	533.333
219.97	428.571
220.34	377.778
220.72	1600.000
221.09	4000.000
221.47	250.000
221.84	1266.667
222.22	390.000
222.59	272.222
222.97	150.000
223.34	225.000
223.72	-1350.000
224.09	1100.000
224.46	253.846
224.84	-975.000
225.21	411.111
225.59	266.667
225.96	1166.667
226.34	-540.000
226.71	-625.000
227.08	-600.000
227.46	0.000
227.83	-550.000
228.21	-1700.000
228.58	333.333
228.95	925.000
229.33	333.333
229.70	1025.000
230.08	338.462
230.45	2900.000
230.82	-750.000
231.20	-766.667
231.57	-1166.667
231.95	580.000
232.32	291.667
232.69	516.667
233.07	283.333
233.44	-1600.000
233.81	280.000
234.19	174.074
234.56	218.750
234.93	235.294
235.31	220.000
235.68	243.750
236.05	171.429
236.43	166.667
236.80	300.000
237.17	175.862
237.55	143.750
237.92	130.000
238.29	166.667
238.67	159.375
239.04	141.463
239.41	125.000
239.79	142.500
240.16	116.667
240.53	96.721
240.91	86.957
241.28	120.339
241.65	98.485
242.02	111.268
242.40	111.429
242.77	81.319
243.14	105.063
243.51	102.020
243.89	94.393
244.26	91.589
244.63	86.139
245.00	98.165
245.38	73.729
245.75	81.818
246.12	92.593
246.49	79.433
246.87	90.984
247.24	90.000
247.61	76.250
247.98	79.592
248.36	78.788
248.73	79.082
249.10	72.024
249.47	74.000
249.84	75.124
250.22	71.351
250.59	74.500
250.96	70.464
251.33	75.814
251.70	79.464
252.08	74.370
252.45	67.729
252.82	68.061
253.19	69.960
253.56	72.308
253.94	69.203
254.31	67.054
254.68	72.474
255.05	71.379
255.42	72.993
255.79	72.313
256.16	75.254
256.54	72.078
256.91	72.549
257.28	71.572
257.65	63.009
258.02	67.847
258.39	67.049
258.76	71.884
259.14	67.143
259.51	69.971
259.88	72.948
260.25	70.604
260.62	67.123
260.99	63.912
261.36	69.638
261.73	71.011
262.10	69.895
262.47	64.500
262.85	69.867
263.22	70.694
263.59	68.798
263.96	67.419
264.33	65.679
264.70	71.499
265.07	67.561
265.44	66.055
265.81	61.557
266.18	67.506
266.55	67.376
266.92	63.311
267.29	67.763
267.66	65.919
268.03	63.004
268.40	64.693
268.77	69.824
269.14	63.991
269.51	64.811
269.88	66.735
270.25	62.203
270.62	66.738
270.99	66.531
271.36	66.667
271.73	64.780
272.10	65.051
272.47	63.889
272.84	60.479
273.21	63.843
273.58	65.587
273.95	63.860
274.32	63.230
274.69	64.764
275.06	62.113
275.43	65.326
275.80	63.396
276.17	61.765
276.54	63.551
276.91	62.873
277.28	61.679
277.65	64.945
278.02	62.868
278.39	62.770
278.76	59.655
279.13	60.676
279.50	62.545
279.87	62.570
280.23	61.510
280.60	64.781
280.97	63.793
281.34	61.881
281.71	61.391
282.08	61.368
282.45	60.811
282.82	62.375
283.19	59.618
283.56	62.149
283.92	61.401
284.29	61.897
284.66	58.992
285.03	59.867
285.40	61.488
285.77	58.333
286.14	59.598
286.51	61.503
286.87	57.120
287.24	53.754
287.61	59.574
287.98	57.612
288.35	58.519
288.72	57.360
289.08	56.156
289.45	58.384
289.82	56.250
290.19	56.223
290.56	57.205
290.93	57.410
291.29	55.110
291.66	55.367
292.03	54.698
292.40	53.117
292.77	52.925
293.13	54.779
293.50	53.711
293.87	51.626
294.24	54.126
294.60	53.432
294.97	53.147
295.34	50.863
295.71	52.300
296.08	51.600
296.44	51.461
296.81	48.883
297.18	48.035
297.55	50.862
297.91	48.030
298.28	50.604
298.65	49.448
299.02	48.251
299.38	48.321
299.75	48.171
300.12	48.509
300.48	49.883
300.85	49.821
301.22	48.488
301.59	47.995
301.95	49.125
302.32	49.942
302.69	47.511
303.05	49.383
303.42	46.861
303.79	47.129
304.15	49.725
304.52	46.089
304.89	46.588
305.25	49.944
305.62	48.827
305.99	47.826
306.35	48.105
306.72	47.138
307.09	46.480
307.45	47.518
307.82	46.091
308.19	48.247
308.55	48.000
308.92	47.498
309.29	47.239
309.65	47.572
310.02	48.073
310.38	47.956
310.75	46.480
311.12	46.935
311.48	48.745
311.85	48.569
312.22	47.564
312.58	47.522
312.95	49.029
313.31	48.876
313.68	48.593
314.05	49.267
314.41	49.721
314.78	49.432
315.14	51.469
315.51	50.426
315.87	49.544
316.24	50.700
316.61	48.970
316.97	49.358
317.34	50.494
317.70	51.536
318.07	50.979
318.43	51.494
318.80	51.664
319.16	51.923
319.53	50.354
319.89	51.523
320.26	53.538
320.62	53.205
320.99	54.623
321.35	52.597
321.72	54.554
322.08	53.463
322.45	53.497
322.81	56.725
323.18	54.707
323.54	55.488
323.91	56.301
324.27	56.676
324.64	57.093
325.00	56.034
325.37	57.167
325.73	56.661
326.10	57.829
326.46	57.969
326.83	58.640
327.19	59.357
327.56	57.748
327.92	59.426
328.29	58.429
328.65	60.274
329.01	59.281
329.38	58.968
329.74	57.899
330.11	61.512
330.47	60.529
330.84	58.758
331.20	60.406
331.56	59.672
331.93	60.051
332.29	59.184
332.66	61.565
333.02	58.935
333.38	59.337
333.75	60.300
334.11	58.557
334.48	60.769
334.84	59.628
335.20	61.677
335.57	57.851
335.93	58.957
336.29	56.633
336.66	62.093
337.02	58.340
337.38	59.673
337.75	59.713
338.11	61.097
338.47	60.457
338.84	59.865
339.20	59.913
339.56	59.125
339.93	58.863
340.29	57.647
340.65	58.592
341.02	58.488
341.38	57.471
341.74	58.056
342.11	57.513
342.47	58.655
342.83	59.721
343.20	58.610
343.56	58.062
343.92	60.033
344.28	60.128
344.65	59.087
345.01	58.810
345.37	59.615
345.73	58.651
346.10	58.566
346.46	59.330
346.82	58.410
347.19	57.883
347.55	57.689
347.91	56.873
348.27	57.242
348.63	59.019
349.00	57.426
349.36	58.755
349.72	59.174
350.08	59.472
350.45	59.254
350.81	56.881
351.17	58.243
351.53	59.276
351.89	57.809
352.26	59.033
352.62	58.748
352.98	59.739
353.34	60.401
353.70	58.028
354.07	60.077
354.43	58.833
354.79	56.416
355.15	59.265
355.51	58.233
355.87	56.852
356.24	59.815
356.60	56.849
356.96	60.197
357.32	56.971
357.68	59.692
358.04	57.903
358.40	58.846
358.77	59.279
359.13	58.408
359.49	59.748
359.85	57.856
360.21	58.470
360.57	58.029
360.93	58.225
361.29	57.937
361.66	59.955
362.02	58.239
362.38	57.720
362.74	58.811
363.10	58.836
363.46	56.837
363.82	57.083
364.18	58.535
364.54	58.298
364.90	58.969
365.26	59.334
365.62	59.185
365.98	58.156
366.35	58.207
366.71	58.501
367.07	59.181
367.43	57.958
367.79	59.508
368.15	57.938
368.51	59.752
368.87	59.035
369.23	57.935
369.59	59.811
369.95	60.769
370.31	59.206
370.67	58.154
371.03	59.594
371.39	60.180
371.75	60.014
372.11	59.551
372.47	58.288
372.83	60.299
373.19	60.521
373.55	58.763
373.91	58.149
374.27	59.788
374.63	58.034
374.99	58.693
375.35	61.358
375.71	60.356
376.07	60.080
376.42	58.056
376.78	60.373
377.14	59.830
377.50	60.112
377.86	60.346
378.22	59.842
378.58	60.835
378.94	60.169
379.30	59.854
379.66	60.024
380.02	60.117
380.38	59.602
380.74	60.265
381.09	60.222
381.45	58.844
381.81	60.047
382.17	60.195
382.53	59.808
382.89	60.497
383.25	60.628
383.61	58.444
383.97	60.468
384.32	60.398
384.68	60.784
385.04	61.196
385.40	61.091
385.76	59.860
386.12	60.730
386.48	59.392
386.83	60.880
387.19	60.188
387.55	58.422
387.91	60.855
388.27	60.976
388.62	60.387
388.98	59.359
389.34	60.381
389.70	59.670
390.06	61.280
390.42	60.148
390.77	58.968
391.13	60.591
391.49	59.165
391.85	60.492
392.20	60.310
392.56	60.454
392.92	60.022
393.28	59.361
393.64	60.206
393.99	60.166
394.35	58.740
394.71	59.952
395.07	59.246
395.42	59.543
395.78	59.901
396.14	60.422
396.50	59.687
396.85	60.427
397.21	59.988
397.57	60.191
397.92	59.561
398.28	59.956
398.64	59.453
399.00	58.578
399.35	59.635
399.71	59.327
400.07	60.103
400.42	60.597
400.78	60.000
401.14	59.131
401.49	58.986
401.85	59.444
402.21	58.934
402.57	60.742
402.92	59.576
403.28	58.413
403.63	59.506
403.99	59.952
404.35	59.261
404.70	61.370
405.06	58.619
405.42	59.485
405.77	58.710
406.13	58.134
406.49	58.954
406.84	57.530
407.20	59.760
407.55	59.200
407.91	59.285
408.27	58.278
408.62	58.841
408.98	59.551
409.34	58.328
409.69	57.125
410.05	58.140
410.40	58.422
410.76	57.985
411.11	58.294
411.47	57.346
411.83	58.407
412.18	58.333
412.54	58.258
412.89	57.817
413.25	57.811
413.60	56.600
413.96	57.211
414.31	57.674
414.67	59.963
415.03	60.026
415.38	57.855
415.74	58.686
416.09	57.464
416.45	58.177
416.80	60.038
417.16	58.307
417.51	57.134
417.87	58.135
418.22	57.776
418.58	58.344
418.93	58.358
419.29	57.794
419.64	56.451
420.00	59.368
420.35	58.246
420.71	57.876
421.06	58.623
421.42	58.780
421.77	58.356
422.12	57.663
422.48	55.881
422.83	58.315
423.19	56.479
423.54	56.665
423.90	57.248
424.25	57.953
424.61	57.168
424.96	57.425
425.31	57.526
425.67	58.586
426.02	58.497
426.38	57.818
426.73	58.647
427.09	58.482
427.44	58.075
427.79	57.576
428.15	58.751
428.50	58.171
428.85	58.319
429.21	57.212
429.56	57.178
429.92	58.329
430.27	56.362
430.62	56.535
430.98	57.136
431.33	56.351
431.68	56.346
432.04	56.544
432.39	57.464
432.74	57.728
433.10	58.638
433.45	58.472
433.80	58.025
434.16	56.647
434.51	57.534
434.86	58.302
435.22	58.131
435.57	57.736
435.92	58.566
436.28	58.583
436.63	57.104
436.98	58.784
437.34	57.192
437.69	56.607
438.04	57.419
438.39	57.443
438.75	57.684
439.10	57.852
439.45	56.529
439.81	56.680
440.16	58.118
440.51	56.926
440.86	57.721
441.22	57.035
441.57	56.798
441.92	57.552
442.27	57.784
442.63	57.520
442.98	56.843
443.33	57.097
443.68	57.596
444.03	56.173
444.39	57.580
444.74	57.039
445.09	57.346
445.44	57.226
445.79	57.700
446.15	57.737
446.50	57.120
446.85	56.673
447.20	57.264
447.55	58.184
447.91	56.686
448.26	57.455
448.61	57.988
448.96	57.298
449.31	56.381
449.66	57.973
450.02	55.862
450.37	58.523
450.72	57.135
451.07	55.614
451.42	57.676
451.77	56.987
452.12	57.856
452.47	57.230
452.83	58.592
453.18	56.456
453.53	58.082
453.88	58.057
454.23	56.827
454.58	56.760
454.93	56.836
455.28	56.487
455.63	58.274
455.98	56.740
456.34	57.325
456.69	57.195
457.04	57.399
457.39	56.571
457.74	57.320
458.09	56.990
458.44	56.188
458.79	56.340
459.14	56.192
459.49	56.682
459.84	57.554
460.19	55.876
460.54	56.638
460.89	56.183
461.24	55.899
461.59	57.313
461.94	57.506
462.29	56.751
462.64	57.098
462.99	56.302
463.34	56.319
463.69	57.229
464.04	57.513
464.39	56.955
464.74	55.041
465.09	55.601
465.44	55.876
465.79	56.886
466.14	54.213
466.49	54.856
466.84	56.299
467.19	56.649
467.54	55.195
467.89	55.575
468.24	55.530
468.59	54.940
468.94	56.220
469.29	55.528
469.64	56.785
469.99	55.527
470.34	55.345
470.68	55.172
471.03	55.771
471.38	54.967
471.73	55.585
472.08	56.230
472.43	55.928
472.78	55.122
473.13	54.631
473.48	55.318
473.83	56.007
474.17	54.225
474.52	54.502
474.87	54.008
475.22	54.654
475.57	53.358
475.92	54.522
476.27	53.808
476.61	55.121
476.96	53.866
477.31	55.527
477.66	55.287
478.01	54.822
478.36	54.892
478.70	53.548
479.05	55.282
479.40	54.663
479.75	55.313
480.10	54.066
480.45	54.202
480.79	53.410
481.14	53.019
481.49	52.836
481.84	52.682
482.19	53.231
482.53	52.525
482.88	53.315
483.23	52.909
483.58	53.007
483.92	54.479
484.27	53.724
484.62	53.565
484.97	52.746
485.31	53.331
485.66	52.504
486.01	52.307
486.36	51.220
486.70	51.948
487.05	51.391
487.40	52.113
487.75	52.101
488.09	51.335
488.44	52.199
488.79	51.892
489.13	52.856
489.48	53.136
489.83	52.002
490.17	51.775
490.52	52.326
490.87	52.500
491.22	53.457
491.56	52.130
491.91	52.375
492.26	52.606
492.60	52.802
492.95	53.058
493.30	52.138
493.64	52.111
493.99	53.265
494.34	51.726
494.68	51.970
495.03	52.672
495.37	51.643
495.72	52.121
496.07	51.842
496.41	51.129
496.76	51.752
497.11	52.571
497.45	51.469
497.80	52.224
498.14	51.410
498.49	51.625
498.84	51.542
499.18	51.325
499.53	50.988
499.87	51.438
500.22	52.234
500.56	52.228
500.91	52.134
501.26	51.998
501.60	51.047
501.95	51.120
502.29	50.844
502.64	50.507
502.98	50.734
503.33	51.047
503.67	51.744
504.02	50.873
504.36	50.860
504.71	51.703
505.06	50.727
505.40	50.632
505.75	50.094
506.09	51.937
506.44	50.564
506.78	51.323
507.13	51.381
507.47	50.315
507.82	51.776
508.16	52.033
508.51	52.271
508.85	49.810
509.19	51.003
509.54	51.123
509.88	51.467
510.23	51.520
510.57	49.517
510.92	51.099
511.26	52.008
511.61	49.778
511.95	50.224
512.30	51.450
512.64	50.935
512.98	50.743
513.33	50.564
513.67	50.647
514.02	49.974
514.36	50.312
514.70	50.293
515.05	50.186
515.39	51.316
515.74	51.613
516.08	50.545
516.42	51.311
516.77	51.253
517.11	51.467
517.46	49.784
517.80	50.519
518.14	52.113
518.49	49.669
518.83	49.451
519.17	50.416
519.52	51.939
519.86	50.681
520.20	50.795
520.55	49.859
520.89	49.885
521.23	51.227
521.58	50.316
521.92	49.038
522.26	50.533
522.61	50.980
522.95	51.652
523.29	50.643
523.64	48.902
523.98	49.941
524.32	50.980
524.66	50.203
525.01	49.704
525.35	50.265
525.69	49.910
526.04	49.494
526.38	49.382
526.72	48.866
527.06	49.261
527.41	50.544
527.75	50.578
528.09	48.826
528.43	49.542
528.78	49.732
529.12	52.017
529.46	49.503
529.80	49.708
530.15	49.028
530.49	48.857
530.83	50.518
531.17	50.000
531.51	49.663
531.86	48.671
532.20	47.713
532.54	49.780
532.88	50.031
533.22	49.299
533.57	49.908
533.91	48.543
534.25	48.067
534.59	48.538
534.93	47.952
535.27	47.866
535.62	47.666
535.96	49.468
536.30	49.604
536.64	48.075
536.98	48.081
537.32	48.625
537.66	48.469
538.01	47.864
538.35	48.097
538.69	48.422
539.03	47.575
539.37	47.876
539.71	48.765
540.05	48.554
540.39	47.862
540.73	48.038
541.07	47.302
541.42	49.378
541.76	48.274
542.10	47.349
542.44	47.943
542.78	48.521
543.12	47.546
543.46	47.619
543.80	47.619
544.14	48.173
544.48	48.236
544.82	47.584
545.16	46.266
545.50	47.818
545.84	48.359
546.18	47.984
546.52	48.393
546.86	47.324
547.20	46.641
547.54	47.435
547.88	47.993
548.22	47.966
548.56	47.083
548.90	46.738
549.24	47.694
549.58	48.389
549.92	47.872
550.26	49.493
550.60	46.840
550.94	48.847
551.28	47.862
551.62	48.069
551.96	47.432
552.30	46.341
552.64	48.738
552.98	46.070
553.32	46.799
553.66	47.231
554.00	46.847
554.34	47.004
554.68	48.522
555.02	47.183
555.36	46.476
555.69	47.186
556.03	45.924
556.37	47.100
556.71	47.327
557.05	45.347
557.39	46.467
557.73	46.361
558.07	46.613
558.41	47.841
558.75	45.349
559.08	45.818
559.42	47.316
559.76	47.541
560.10	46.249
560.44	45.255
560.78	47.059
561.12	47.489
561.45	44.994
561.79	46.255
562.13	44.788
562.47	46.658
562.81	46.910
563.15	46.542
563.48	43.975
563.82	47.099
564.16	46.020
564.50	45.509
564.84	45.289
565.17	45.752
565.51	46.736
565.85	46.391
566.19	45.833
566.52	46.089
566.86	45.768
567.20	45.225
567.54	45.142
567.88	45.801
568.21	44.583
568.55	45.963
568.89	45.119
569.23	44.651
569.56	44.768
569.90	43.406
570.24	44.191
570.57	44.419
570.91	44.087
571.25	43.980
571.59	42.837
571.92	42.976
572.26	42.803
572.60	43.793
572.93	44.192
573.27	43.567
573.61	43.016
573.95	43.152
574.28	43.311
574.62	43.433
574.96	42.925
575.29	42.336
575.63	42.850
575.97	42.308
576.30	42.141
576.64	42.374
576.98	42.977
577.31	43.091
577.65	43.190
577.98	42.736
578.32	42.876
578.66	42.477
578.99	42.752
579.33	42.603
579.67	42.442
580.00	41.825
580.34	42.423
580.67	42.886
581.01	42.857
581.35	42.079
581.68	42.224
582.02	42.464
582.35	42.563
582.69	42.399
583.02	42.298
583.36	42.818
583.70	42.426
584.03	43.127
584.37	43.311
584.70	42.399
585.04	42.446
585.37	42.426
585.71	42.854
586.04	42.098
586.38	42.088
586.72	42.600
587.05	41.920
587.39	42.478
587.72	42.767
588.06	42.364
588.39	42.682
588.73	42.468
589.06	42.836
589.40	43.255
589.73	42.281
590.07	43.686
590.40	43.415
590.73	42.563
591.07	43.112
591.40	42.675
591.74	42.330
592.07	41.930
592.41	42.526
592.74	41.926
593.08	40.951
593.41	42.490
593.75	40.820
594.08	41.885
594.41	41.935
594.75	41.781
595.08	41.975
595.42	42.133
595.75	41.099
596.09	42.405
596.42	41.733
596.75	42.308
597.09	42.138
597.42	41.918
597.75	41.826
598.09	41.403
598.42	42.268
598.76	41.596
599.09	41.523
599.42	41.176
599.76	41.859
600.09	40.814
600.42	41.678
600.76	41.502
601.09	41.353
601.42	40.479
601.76	42.034
602.09	41.869
602.42	40.961
602.76	41.632
603.09	42.081
603.42	41.725
603.76	41.323
604.09	41.549
604.42	40.942
604.76	41.209
605.09	41.184
605.42	41.000
605.75	41.690
606.09	41.928
606.42	41.150
606.75	41.741
607.09	40.466
607.42	41.101
607.75	40.486
608.08	41.024
608.42	41.275
608.75	41.592
609.08	40.167
609.41	41.591
609.75	42.537
610.08	42.086
610.41	41.414
610.74	41.342
611.07	41.974
611.41	41.983
611.74	42.208
612.07	41.281
612.40	41.131
612.73	42.037
613.07	41.156
613.40	41.955
613.73	41.737
614.06	41.150
614.39	41.869
614.72	42.391
615.06	40.504
615.39	40.644
615.72	41.191
616.05	42.793
616.38	41.045
616.71	41.183
617.05	40.967
617.38	41.011
617.71	41.789
618.04	41.615
618.37	41.356
618.70	41.166
619.03	41.758
619.36	41.771
619.69	43.008
620.03	42.727
620.36	41.554
620.69	43.550
621.02	41.848
621.35	41.619
621.68	42.478
622.01	43.100
622.34	42.025
622.67	42.556
623.00	40.436
623.33	41.296
623.66	41.717
623.99	42.397
624.32	41.599
624.65	41.870
624.99	41.717
625.32	41.884
625.65	39.862
625.98	42.190
626.31	42.285
626.64	41.762
626.97	41.163
627.30	41.227
627.63	41.837
627.96	40.689
628.29	43.069
628.62	40.975
628.95	42.287
629.28	43.208
629.61	42.355
629.94	41.400
630.26	41.594
630.59	42.642
630.92	41.794
