SpectraSuite Data File
++++++++++++++++++++++++++++++++++++
Date: Tue May 12 17:03:24 PDT 2015
User: schluterlab
Dark Spectrum Present: Yes
Reference Spectrum Present: Yes
Number of Sampled Component Spectra: 1
Spectrometers: USB2E3373
Integration Time (usec): 3000 (USB2E3373)
Spectra Averaged: 3 (USB2E3373)
Boxcar Smoothing: 0 (USB2E3373)
Correct for Electrical Dark: No (USB2E3373)
Strobe/Lamp Enabled: No (USB2E3373)
Correct for Detector Non-linearity: No (USB2E3373)
Correct for Stray Light: No (USB2E3373)
Number of Pixels in Processed Spectrum: 2048
>>>>>Begin Processed Spectral Data<<<<<
178.53	0.000
178.91	-233.333
179.29	-725.000
179.67	-3400.000
180.04	-113.333
180.42	900.000
180.80	1650.000
181.18	0.000
181.56	-287.500
181.94	0.000
182.31	1066.667
182.69	-2700.000
183.07	500.000
183.45	-2700.000
183.83	-1350.000
184.20	400.000
184.58	357.143
184.96	-207.692
185.34	-258.333
185.72	1450.000
186.09	-850.000
186.47	-3100.000
186.85	1066.667
187.23	700.000
187.61	2000.000
187.98	412.500
188.36	307.143
188.74	308.333
189.12	291.667
189.49	900.000
189.87	0.000
190.25	587.500
190.63	2600.000
191.00	-225.000
191.38	-3400.000
191.76	-725.000
192.14	525.000
192.51	-2200.000
192.89	1450.000
193.27	1000.000
193.65	-1066.667
194.02	-760.000
194.40	528.571
194.78	-235.714
195.15	186.667
195.53	-4000.000
195.91	-440.000
196.29	4200.000
196.66	312.500
197.04	975.000
197.42	-1750.000
197.79	700.000
198.17	325.000
198.55	0.000
198.92	428.571
199.30	1166.667
199.68	1800.000
200.05	700.000
200.43	-316.667
200.81	222.222
201.18	2800.000
201.56	283.333
201.94	-950.000
202.31	-350.000
202.69	-580.000
203.07	2600.000
203.44	-683.333
203.82	375.000
204.19	660.000
204.57	-1150.000
204.95	-750.000
205.32	-700.000
205.70	483.333
206.08	650.000
206.45	-900.000
206.83	377.778
207.20	221.053
207.58	283.333
207.96	720.000
208.33	0.000
208.71	500.000
209.08	500.000
209.46	-2600.000
209.84	-925.000
210.21	860.000
210.59	-700.000
210.96	258.333
211.34	-1025.000
211.71	336.364
212.09	750.000
212.46	1550.000
212.84	-333.333
213.22	455.556
213.59	-2900.000
213.97	420.000
214.34	850.000
214.72	1100.000
215.09	800.000
215.47	-2400.000
215.84	-330.000
216.22	-237.500
216.59	0.000
216.97	0.000
217.34	1150.000
217.72	-1500.000
218.09	966.667
218.47	475.000
218.84	975.000
219.22	966.667
219.59	666.667
219.97	585.714
220.34	400.000
220.72	1400.000
221.09	3500.000
221.47	266.667
221.84	1133.333
222.22	310.000
222.59	233.333
222.97	142.857
223.34	275.000
223.72	-1850.000
224.09	966.667
224.46	330.769
224.84	-850.000
225.21	411.111
225.59	260.000
225.96	1333.333
226.34	-460.000
226.71	-825.000
227.08	-620.000
227.46	0.000
227.83	-450.000
228.21	-1950.000
228.58	375.000
228.95	875.000
229.33	422.222
229.70	1175.000
230.08	400.000
230.45	3700.000
230.82	-975.000
231.20	-800.000
231.57	-866.667
231.95	460.000
232.32	291.667
232.69	550.000
233.07	308.333
233.44	-1700.000
233.81	220.000
234.19	137.037
234.56	237.500
234.93	200.000
235.31	170.000
235.68	187.500
236.05	135.714
236.43	133.333
236.80	200.000
237.17	141.379
237.55	128.125
237.92	117.500
238.29	127.273
238.67	118.750
239.04	104.878
239.41	89.583
239.79	97.500
240.16	60.417
240.53	67.213
240.91	60.870
241.28	67.797
241.65	50.000
242.02	56.338
242.40	60.000
242.77	51.648
243.14	39.241
243.51	57.576
243.89	36.449
244.26	36.449
244.63	43.564
245.00	42.202
245.38	25.424
245.75	32.576
246.12	44.444
246.49	29.078
246.87	29.508
247.24	28.667
247.61	25.000
247.98	26.531
248.36	25.455
248.73	26.020
249.10	19.048
249.47	27.000
249.84	22.388
250.22	19.459
250.59	21.000
250.96	20.253
251.33	20.930
251.70	25.000
252.08	20.168
252.45	19.920
252.82	17.490
253.19	17.787
253.56	18.077
253.94	16.667
254.31	12.016
254.68	19.861
255.05	19.655
255.42	18.978
255.79	16.612
256.16	14.237
256.54	18.182
256.91	21.242
257.28	16.388
257.65	17.868
258.02	17.109
258.39	18.338
258.76	19.710
259.14	12.286
259.51	18.950
259.88	16.717
260.25	15.110
260.62	13.425
260.99	11.019
261.36	16.435
261.73	12.234
262.10	14.136
262.47	15.250
262.85	13.867
263.22	14.653
263.59	13.299
263.96	18.797
264.33	14.074
264.70	14.005
265.07	13.902
265.44	13.991
265.81	12.264
266.18	14.188
266.55	10.402
266.92	13.647
267.29	14.474
267.66	12.556
268.03	12.332
268.40	13.953
268.77	13.656
269.14	11.714
269.51	12.027
269.88	13.673
270.25	9.071
270.62	12.446
270.99	14.604
271.36	14.228
271.73	11.950
272.10	13.131
272.47	12.500
272.84	11.377
273.21	12.190
273.58	11.943
273.95	9.240
274.32	12.062
274.69	12.008
275.06	14.572
275.43	11.686
275.80	11.509
276.17	10.846
276.54	13.458
276.91	13.619
277.28	9.124
277.65	11.255
278.02	14.154
278.39	10.612
278.76	14.310
279.13	11.922
279.50	12.909
279.87	9.497
280.23	11.602
280.60	12.226
280.97	11.207
281.34	11.221
281.71	12.348
282.08	12.821
282.45	11.486
282.82	10.870
283.19	11.924
283.56	10.579
283.92	11.238
284.29	11.481
284.66	8.739
285.03	11.940
285.40	11.074
285.77	10.185
286.14	12.848
286.51	11.503
286.87	9.652
287.24	8.408
287.61	10.790
287.98	10.299
288.35	10.074
288.72	8.649
289.08	10.511
289.45	10.976
289.82	10.625
290.19	10.395
290.56	11.499
290.93	9.640
291.29	10.773
291.66	9.463
292.03	9.257
292.40	9.485
292.77	8.217
293.13	9.415
293.50	9.582
293.87	8.130
294.24	9.930
294.60	9.287
294.97	10.070
295.34	9.429
295.71	9.987
296.08	10.267
296.44	8.386
296.81	8.065
297.18	8.112
297.55	9.236
297.91	8.990
298.28	9.300
298.65	10.552
299.02	9.288
299.38	9.712
299.75	9.024
300.12	9.862
300.48	8.197
300.85	8.701
301.22	8.488
301.59	7.547
301.95	8.401
302.32	8.265
302.69	8.710
303.05	9.652
303.42	7.287
303.79	8.667
304.15	8.031
304.52	7.294
304.89	8.742
305.25	8.788
305.62	8.102
305.99	8.913
306.35	8.105
306.72	7.908
307.09	8.178
307.45	8.237
307.82	8.025
308.19	7.629
308.55	6.600
308.92	9.225
309.29	8.087
309.65	8.028
310.02	7.708
310.38	7.378
310.75	6.847
311.12	7.567
311.48	9.459
311.85	8.492
312.22	8.309
312.58	8.260
312.95	7.961
313.31	7.772
313.68	7.036
314.05	8.791
314.41	6.797
314.78	7.292
315.14	7.204
315.51	8.798
315.87	8.029
316.24	8.217
316.61	7.789
316.97	7.248
317.34	8.176
317.70	8.253
318.07	8.808
318.43	9.490
318.80	8.319
319.16	8.392
319.53	6.991
319.89	7.796
320.26	8.287
320.62	7.967
320.99	8.294
321.35	8.813
321.72	8.634
322.08	8.495
322.45	8.356
322.81	6.587
323.18	8.792
323.54	8.275
323.91	8.522
324.27	7.604
324.64	7.612
325.00	9.138
325.37	7.926
325.73	8.769
326.10	8.699
326.46	8.505
326.83	7.680
327.19	8.273
327.56	9.105
327.92	7.459
328.29	9.002
328.65	8.476
329.01	7.870
329.38	9.052
329.74	8.796
330.11	8.427
330.47	9.292
330.84	8.024
331.20	8.714
331.56	9.845
331.93	8.554
332.29	8.163
332.66	8.588
333.02	7.474
333.38	8.290
333.75	9.091
334.11	7.802
334.48	7.692
334.84	8.615
335.20	7.357
335.57	8.564
335.93	8.747
336.29	8.541
336.66	9.177
337.02	8.041
337.38	8.083
337.75	8.784
338.11	8.692
338.47	8.467
338.84	8.891
339.20	8.312
339.56	7.738
339.93	8.027
340.29	7.647
340.65	8.466
341.02	8.850
341.38	8.621
341.74	7.724
342.11	7.429
342.47	8.368
342.83	9.106
343.20	8.327
343.56	6.434
343.92	7.184
344.28	8.772
344.65	6.846
345.01	6.587
345.37	6.651
345.73	7.460
346.10	8.685
346.46	7.496
346.82	7.022
347.19	8.114
347.55	7.728
347.91	6.949
348.27	7.049
348.63	7.753
349.00	7.997
349.36	7.704
349.72	8.180
350.08	8.230
350.45	7.921
350.81	8.410
351.17	7.781
351.53	7.313
351.89	8.392
352.26	7.937
352.62	7.994
352.98	8.129
353.34	8.089
353.70	7.187
354.07	7.385
354.43	7.450
354.79	7.137
355.15	7.427
355.51	7.553
355.87	7.304
356.24	7.313
356.60	7.839
356.96	7.051
357.32	8.063
357.68	7.930
358.04	7.447
358.40	8.546
358.77	7.363
359.13	8.258
359.49	7.858
359.85	7.074
360.21	7.429
360.57	7.883
360.93	7.504
361.29	7.720
361.66	7.159
362.02	6.179
362.38	6.638
362.74	7.856
363.10	7.363
363.46	7.044
363.82	7.504
364.18	6.757
364.54	7.439
364.90	8.166
365.26	7.564
365.62	7.320
365.98	7.639
366.35	6.207
366.71	7.148
367.07	6.621
367.43	7.455
367.79	7.048
368.15	6.038
368.51	7.236
368.87	6.658
369.23	7.692
369.59	7.148
369.95	7.692
370.31	6.982
370.67	7.842
371.03	7.563
371.39	6.648
371.75	6.978
372.11	7.750
372.47	8.356
372.83	6.934
373.19	7.608
373.55	7.560
373.91	6.699
374.27	6.680
374.63	7.458
374.99	8.019
375.35	7.258
375.71	7.322
376.07	7.493
376.42	6.841
376.78	7.001
377.14	7.339
377.50	7.179
377.86	6.791
378.22	7.130
378.58	7.567
378.94	6.699
379.30	7.277
379.66	6.321
380.02	7.331
380.38	6.382
380.74	7.266
381.09	7.827
381.45	6.879
381.81	6.383
382.17	6.349
382.53	6.719
382.89	6.978
383.25	6.868
383.61	7.493
383.97	6.119
384.32	7.354
384.68	7.903
385.04	6.624
385.40	7.414
385.76	6.846
386.12	7.483
386.48	6.930
386.83	7.335
387.19	6.773
387.55	7.479
387.91	7.564
388.27	7.377
388.62	7.394
388.98	6.414
389.34	6.484
389.70	7.075
390.06	6.951
390.42	6.971
390.77	6.757
391.13	6.880
391.49	7.683
391.85	7.385
392.20	8.284
392.56	8.005
392.92	7.412
393.28	6.558
393.64	6.537
393.99	6.817
394.35	7.357
394.71	6.514
395.07	7.543
395.42	7.319
395.78	7.526
396.14	8.072
396.50	6.679
396.85	7.622
397.21	6.679
397.57	7.053
397.92	5.893
398.28	6.233
398.64	7.272
399.00	6.734
399.35	6.656
399.71	7.450
400.07	7.021
400.42	6.985
400.78	6.979
401.14	6.400
401.49	6.279
401.85	7.590
402.21	6.796
402.57	6.822
402.92	6.424
403.28	6.384
403.63	7.063
403.99	7.117
404.35	7.503
404.70	6.734
405.06	6.457
405.42	7.301
405.77	7.056
406.13	6.779
406.49	6.765
406.84	7.107
407.20	6.507
407.55	6.954
407.91	7.339
408.27	6.913
408.62	6.328
408.98	7.274
409.34	7.481
409.69	6.472
410.05	6.500
410.40	6.714
410.76	6.926
411.11	6.220
411.47	6.667
411.83	6.093
412.18	6.582
412.54	6.126
412.89	6.549
413.25	7.013
413.60	7.068
413.96	6.344
414.31	7.438
414.67	7.263
415.03	5.747
415.38	7.950
415.74	6.949
416.09	7.433
416.45	8.080
416.80	7.633
417.16	7.002
417.51	7.134
417.87	6.133
418.22	6.987
418.58	6.688
418.93	5.770
419.29	6.161
419.64	6.723
420.00	8.174
420.35	6.388
420.71	7.293
421.06	6.298
421.42	6.390
421.77	7.163
422.12	6.725
422.48	7.396
422.83	7.199
423.19	6.156
423.54	6.747
423.90	6.852
424.25	6.549
424.61	6.965
424.96	6.550
425.31	5.747
425.67	6.958
426.02	6.618
426.38	6.126
426.73	7.230
427.09	7.177
427.44	5.402
427.79	6.575
428.15	7.012
428.50	7.086
428.85	6.408
429.21	6.753
429.56	6.780
429.92	6.614
430.27	6.773
430.62	6.608
430.98	6.537
431.33	6.452
431.68	6.173
432.04	6.777
432.39	6.586
432.74	6.616
433.10	6.257
433.45	7.180
433.80	7.060
434.16	6.674
434.51	6.553
434.86	7.240
435.22	6.213
435.57	6.580
435.92	7.285
436.28	7.488
436.63	7.023
436.98	8.052
437.34	7.021
437.69	6.551
438.04	7.312
438.39	7.005
438.75	7.071
439.10	6.530
439.45	6.727
439.81	6.593
440.16	7.210
440.51	6.813
440.86	7.350
441.22	7.576
441.57	6.877
441.92	7.009
442.27	6.804
442.63	6.555
442.98	6.142
443.33	6.695
443.68	6.942
444.03	6.833
444.39	7.109
444.74	6.470
445.09	6.477
445.44	6.854
445.79	6.530
446.15	7.158
446.50	6.540
446.85	6.873
447.20	5.672
447.55	6.580
447.91	7.352
448.26	7.455
448.61	6.302
448.96	6.972
449.31	6.876
449.66	8.029
450.02	6.591
450.37	7.052
450.72	7.879
451.07	7.504
451.42	6.995
451.77	7.331
452.12	7.374
452.47	7.169
452.83	7.887
453.18	7.327
453.53	7.756
453.88	7.086
454.23	7.902
454.58	7.051
454.93	6.560
455.28	7.405
455.63	7.151
455.98	7.163
456.34	7.660
456.69	7.134
457.04	7.339
457.39	6.800
457.74	8.108
458.09	7.299
458.44	7.284
458.79	7.480
459.14	6.819
459.49	7.191
459.84	7.446
460.19	7.062
460.54	7.521
460.89	7.783
461.24	6.758
461.59	7.880
461.94	7.447
462.29	6.979
462.64	8.166
462.99	7.422
463.34	8.101
463.69	7.985
464.04	8.233
464.39	8.128
464.74	6.858
465.09	6.849
465.44	7.563
465.79	7.186
466.14	6.730
466.49	7.813
466.84	7.246
467.19	7.499
467.54	7.688
467.89	8.333
468.24	6.601
468.59	6.964
468.94	7.488
469.29	7.758
469.64	8.489
469.99	7.841
470.34	7.970
470.68	7.931
471.03	8.339
471.38	7.682
471.73	7.577
472.08	6.784
472.43	7.883
472.78	8.579
473.13	6.946
473.48	7.396
473.83	8.304
474.17	7.720
474.52	8.472
474.87	7.618
475.22	8.167
475.57	7.608
475.92	7.256
476.27	6.746
476.61	7.024
476.96	8.255
477.31	7.866
477.66	7.461
478.01	7.839
478.36	7.415
478.70	6.849
479.05	6.695
479.40	7.391
479.75	6.852
480.10	7.406
480.45	7.003
480.79	7.558
481.14	7.038
481.49	6.770
481.84	7.124
482.19	6.900
482.53	7.027
482.88	7.706
483.23	6.540
483.58	6.598
483.92	7.815
484.27	7.363
484.62	7.385
484.97	7.285
485.31	6.732
485.66	5.957
486.01	5.952
486.36	5.608
486.70	5.524
487.05	6.132
487.40	6.054
487.75	6.457
488.09	6.449
488.44	6.437
488.79	6.595
489.13	6.756
489.48	7.231
489.83	7.048
490.17	7.102
490.52	7.494
490.87	7.328
491.22	7.314
491.56	7.378
491.91	7.527
492.26	7.082
492.60	7.426
492.95	7.386
493.30	7.689
493.64	6.783
493.99	7.021
494.34	6.992
494.68	6.994
495.03	8.128
495.37	7.519
495.72	7.086
496.07	7.727
496.41	7.559
496.76	7.260
497.11	7.541
497.45	7.146
497.80	7.692
498.14	7.027
498.49	7.196
498.84	8.084
499.18	7.267
499.53	7.533
499.87	7.412
500.22	7.186
500.56	7.428
500.91	8.395
501.26	7.763
501.60	7.377
501.95	6.810
502.29	7.778
502.64	7.102
502.98	6.936
503.33	7.216
503.67	7.417
504.02	6.986
504.36	7.828
504.71	7.143
505.06	7.414
505.40	7.721
505.75	7.156
506.09	7.373
506.44	7.331
506.78	7.892
507.13	7.319
507.47	7.230
507.82	7.835
508.16	7.937
508.51	7.681
508.85	7.692
509.19	7.489
509.54	7.129
509.88	8.404
510.23	8.431
510.57	7.384
510.92	7.792
511.26	7.831
511.61	8.075
511.95	7.765
512.30	7.750
512.64	7.632
512.98	7.791
513.33	8.094
513.67	8.027
514.02	7.948
514.36	7.996
514.70	7.787
515.05	7.725
515.39	7.785
515.74	7.983
516.08	7.952
516.42	8.306
516.77	8.853
517.11	7.573
517.46	7.974
517.80	8.028
518.14	8.394
518.49	8.214
518.83	7.857
519.17	8.209
519.52	8.738
519.86	8.556
520.20	8.438
520.55	7.575
520.89	7.874
521.23	7.593
521.58	8.090
521.92	8.455
522.26	7.464
522.61	8.734
522.95	8.228
523.29	7.719
523.64	8.092
523.98	8.744
524.32	8.074
524.66	8.464
525.01	8.166
525.35	8.721
525.69	9.272
526.04	9.221
526.38	8.240
526.72	8.413
527.06	7.747
527.41	9.190
527.75	8.825
528.09	7.887
528.43	8.847
528.78	8.348
529.12	9.151
529.46	7.949
529.80	8.236
530.15	8.721
530.49	7.702
530.83	8.410
531.17	7.811
531.51	8.768
531.86	8.394
532.20	8.900
532.54	7.533
532.88	9.369
533.22	8.531
533.57	8.420
533.91	8.683
534.25	8.425
534.59	9.123
534.93	7.964
535.27	7.968
535.62	7.176
535.96	8.097
536.30	9.141
536.64	7.764
536.98	8.118
537.32	8.563
537.66	7.908
538.01	8.421
538.35	8.609
538.69	8.374
539.03	7.774
539.37	8.131
539.71	9.136
540.05	8.246
540.39	8.868
540.73	7.911
541.07	8.657
541.42	7.587
541.76	8.693
542.10	8.385
542.44	8.603
542.78	8.307
543.12	8.160
543.46	8.709
543.80	8.145
544.14	8.545
544.48	8.273
544.82	8.196
545.16	7.772
545.50	8.605
545.84	8.333
546.18	8.453
546.52	8.262
546.86	8.897
547.20	8.075
547.54	8.550
547.88	8.029
548.22	8.622
548.56	8.486
548.90	8.363
549.24	8.844
549.58	8.247
549.92	8.120
550.26	7.708
550.60	8.383
550.94	9.227
551.28	9.448
551.62	8.897
551.96	8.311
552.30	7.713
552.64	8.673
552.98	8.183
553.32	8.771
553.66	8.339
554.00	9.138
554.34	8.455
554.68	8.333
555.02	8.554
555.36	8.178
555.69	8.901
556.03	8.408
556.37	7.903
556.71	8.996
557.05	7.667
557.39	8.800
557.73	8.221
558.07	7.981
558.41	9.664
558.75	9.576
559.08	9.435
559.42	8.232
559.76	8.624
560.10	8.190
560.44	9.157
560.78	9.271
561.12	9.218
561.45	8.010
561.79	7.928
562.13	7.960
562.47	8.047
562.81	8.458
563.15	8.985
563.48	8.385
563.82	8.858
564.16	8.209
564.50	8.379
564.84	8.571
565.17	8.972
565.51	8.929
565.85	8.328
566.19	8.333
566.52	7.341
566.86	8.698
567.20	8.933
567.54	7.697
567.88	8.399
568.21	8.038
568.55	7.782
568.89	7.984
569.23	7.161
569.56	7.188
569.90	7.079
570.24	6.951
570.57	7.236
570.91	6.958
571.25	6.969
571.59	6.430
571.92	6.512
572.26	5.957
572.60	5.971
572.93	6.440
573.27	6.634
573.61	6.226
573.95	5.951
574.28	6.374
574.62	5.822
574.96	6.103
575.29	6.181
575.63	6.031
575.97	6.110
576.30	5.948
576.64	6.252
576.98	6.060
577.31	5.845
577.65	6.310
577.98	5.869
578.32	5.932
578.66	5.968
578.99	6.335
579.33	6.134
579.67	6.162
580.00	5.870
580.34	6.191
580.67	6.197
581.01	6.386
581.35	6.221
581.68	5.606
582.02	6.002
582.35	5.789
582.69	6.286
583.02	5.841
583.36	6.180
583.70	6.479
584.03	6.363
584.37	6.360
584.70	6.096
585.04	6.472
585.37	5.726
585.71	6.472
586.04	6.104
586.38	6.201
586.72	6.281
587.05	6.562
587.39	6.498
587.72	6.172
588.06	6.183
588.39	6.499
588.73	6.510
589.06	6.332
589.40	6.698
589.73	6.293
590.07	7.001
590.40	7.178
590.73	7.749
591.07	7.666
591.40	7.545
591.74	7.224
592.07	6.905
592.41	7.434
592.74	6.628
593.08	6.641
593.41	6.613
593.75	6.442
594.08	6.806
594.41	6.191
594.75	7.226
595.08	7.030
595.42	7.176
595.75	6.844
596.09	6.986
596.42	6.846
596.75	7.452
597.09	7.635
597.42	6.776
597.75	6.734
598.09	7.181
598.42	7.303
598.76	7.286
599.09	6.694
599.42	7.266
599.76	7.022
600.09	6.542
600.42	7.044
600.76	6.560
601.09	6.731
601.42	6.758
601.76	6.803
602.09	6.954
602.42	7.098
602.76	6.945
603.09	7.089
603.42	7.486
603.76	6.616
604.09	6.913
604.42	6.554
604.76	7.151
605.09	6.694
605.42	7.517
605.75	7.185
606.09	7.230
606.42	6.990
606.75	7.346
607.09	7.146
607.42	7.473
607.75	7.484
608.08	7.392
608.42	6.963
608.75	6.675
609.08	7.171
609.41	7.636
609.75	7.509
610.08	7.644
610.41	7.378
610.74	7.532
611.07	7.913
611.41	7.831
611.74	7.553
612.07	7.466
612.40	7.407
612.73	8.188
613.07	7.856
613.40	7.769
613.73	7.339
614.06	7.200
614.39	8.182
614.72	7.534
615.06	7.468
615.39	7.673
615.72	7.357
616.05	7.885
616.38	7.915
616.71	7.651
617.05	8.182
617.38	7.416
617.71	7.593
618.04	7.964
618.37	8.227
618.70	7.794
619.03	7.570
619.36	8.920
619.69	7.916
620.03	8.937
620.36	8.157
620.69	9.068
621.02	9.511
621.35	8.524
621.68	8.702
622.01	10.258
622.34	7.502
622.67	9.199
623.00	8.237
623.33	9.177
623.66	8.782
623.99	8.562
624.32	8.604
624.65	8.690
624.99	8.519
625.32	8.884
625.65	8.207
625.98	8.020
626.31	7.715
626.64	8.504
626.97	8.187
627.30	9.394
627.63	9.105
627.96	8.216
628.29	9.241
628.62	9.239
628.95	9.397
629.28	10.079
629.61	8.172
629.94	9.334
630.26	9.792
630.59	10.372
630.92	9.417
631.25	9.882
631.58	10.415
631.91	8.754
632.24	9.427
632.57	9.332
632.90	9.834
633.23	11.228
633.56	10.854
633.89	11.040
634.22	10.549
634.55	10.000
634.88	10.296
635.20	11.435
635.53	10.221
635.86	10.403
636.19	10.662
636.52	8.649
636.85	10.248
637.18	11.376
637.51	10.503
637.83	9.954
638.16	12.192
638.49	11.138
638.82	11.385
639.15	8.931
639.48	11.967
639.81	9.890
640.13	11.043
640.46	12.769
640.79	10.533
641.12	10.499
641.45	11.255
641.77	11.757
642.10	10.843
642.43	10.526
642.76	10.369
643.09	11.816
643.41	9.677
643.74	12.950
644.07	11.209
644.40	11.686
644.73	12.462
645.05	13.522
645.38	12.404
645.71	12.291
646.04	13.588
646.36	12.207
646.69	11.680
647.02	13.440
647.35	11.496
647.67	12.480
648.00	12.541
648.33	12.180
648.66	11.667
648.98	10.725
649.31	11.336
649.64	9.544
649.96	11.807
650.29	11.286
650.62	13.255
650.94	13.554
651.27	12.759
651.60	12.363
651.92	12.135
652.25	13.701
652.58	11.915
652.90	12.425
