SpectraSuite Data File
++++++++++++++++++++++++++++++++++++
Date: Wed May 13 21:52:16 PDT 2015
User: schluterlab
Dark Spectrum Present: Yes
Reference Spectrum Present: Yes
Number of Sampled Component Spectra: 1
Spectrometers: USB2E3373
Integration Time (usec): 3000 (USB2E3373)
Spectra Averaged: 3 (USB2E3373)
Boxcar Smoothing: 0 (USB2E3373)
Correct for Electrical Dark: No (USB2E3373)
Strobe/Lamp Enabled: No (USB2E3373)
Correct for Detector Non-linearity: No (USB2E3373)
Correct for Stray Light: No (USB2E3373)
Number of Pixels in Processed Spectrum: 2048
>>>>>Begin Processed Spectral Data<<<<<
178.53	0.000
178.91	1050.000
179.29	291.667
179.67	-950.000
180.04	-400.000
180.42	300.000
180.80	2000.000
181.18	333.333
181.56	-500.000
181.94	-100.000
182.31	-81.818
182.69	215.385
183.07	-240.000
183.45	333.333
183.83	211.111
184.20	200.000
184.58	-366.667
184.96	533.333
185.34	300.000
185.72	0.000
186.09	-700.000
186.47	-180.000
186.85	260.000
187.23	-600.000
187.61	500.000
187.98	1200.000
188.36	-87.500
188.74	0.000
189.12	-18.182
189.49	-60.000
189.87	108.333
190.25	360.000
190.63	1000.000
191.00	-200.000
191.38	300.000
191.76	525.000
192.14	183.333
192.51	-10.526
192.89	466.667
193.27	375.000
193.65	-440.000
194.02	200.000
194.40	280.000
194.78	-800.000
195.15	280.000
195.53	-80.000
195.91	-62.500
196.29	-300.000
196.66	0.000
197.04	200.000
197.42	-60.000
197.79	-130.000
198.17	-87.500
198.55	-300.000
198.92	75.000
199.30	-600.000
199.68	-140.000
200.05	750.000
200.43	216.667
200.81	-1200.000
201.18	-140.000
201.56	-100.000
201.94	550.000
202.31	8.696
202.69	-157.143
203.07	-500.000
203.44	-420.000
203.82	-266.667
204.19	-130.000
204.57	0.000
204.95	-66.667
205.32	0.000
205.70	-800.000
206.08	-200.000
206.45	-50.000
206.83	500.000
207.20	-200.000
207.58	-180.000
207.96	-1400.000
208.33	-285.714
208.71	-2800.000
209.08	287.500
209.46	375.000
209.84	0.000
210.21	220.000
210.59	1500.000
210.96	460.000
211.34	1700.000
211.71	-750.000
212.09	-83.333
212.46	-160.000
212.84	-100.000
213.22	-175.000
213.59	-600.000
213.97	-700.000
214.34	-850.000
214.72	-7.692
215.09	87.500
215.47	111.111
215.84	850.000
216.22	-87.500
216.59	-550.000
216.97	800.000
217.34	111.111
217.72	0.000
218.09	200.000
218.47	-900.000
218.84	-142.857
219.22	-150.000
219.59	-600.000
219.97	-425.000
220.34	-175.000
220.72	-140.000
221.09	0.000
221.47	-216.667
221.84	-100.000
222.22	0.000
222.59	900.000
222.97	-433.333
223.34	-58.333
223.72	-1100.000
224.09	-850.000
224.46	-100.000
224.84	-50.000
225.21	-42.857
225.59	-275.000
225.96	-116.667
226.34	-90.000
226.71	-228.571
227.08	700.000
227.46	-162.500
227.83	-1400.000
228.21	-31.250
228.58	-150.000
228.95	-47.059
229.33	-37.500
229.70	-112.500
230.08	0.000
230.45	-150.000
230.82	-75.000
231.20	185.714
231.57	-125.000
231.95	1400.000
232.32	8.333
232.69	-17.647
233.07	-1000.000
233.44	-4.348
233.81	-550.000
234.19	-12.500
234.56	-73.333
234.93	-53.333
235.31	5.263
235.68	-23.077
236.05	-23.077
236.43	-27.778
236.80	30.303
237.17	-66.667
237.55	-117.647
237.92	10.345
238.29	0.000
238.67	5.556
239.04	12.903
239.41	6.383
239.79	31.915
240.16	18.605
240.53	23.214
240.91	17.857
241.28	12.500
241.65	27.419
242.02	9.211
242.40	26.087
242.77	10.145
243.14	21.795
243.51	25.532
243.89	31.731
244.26	33.962
244.63	25.962
245.00	31.250
245.38	21.849
245.75	28.689
246.12	26.316
246.49	15.447
246.87	25.210
247.24	28.378
247.61	27.152
247.98	28.846
248.36	27.811
248.73	24.157
249.10	23.737
249.47	26.882
249.84	34.737
250.22	30.348
250.59	32.243
250.96	35.909
251.33	24.402
251.70	31.381
252.08	32.218
252.45	34.568
252.82	27.376
253.19	28.016
253.56	32.014
253.94	30.249
254.31	30.282
254.68	32.215
255.05	31.683
255.42	31.818
255.79	30.982
256.16	33.754
256.54	30.794
256.91	26.582
257.28	34.591
257.65	28.344
258.02	31.965
258.39	31.287
258.76	34.302
259.14	30.114
259.51	33.427
259.88	31.978
260.25	31.389
260.62	31.742
260.99	36.340
261.36	35.233
261.73	29.877
262.10	31.807
262.47	33.580
262.85	28.607
263.22	33.077
263.59	31.948
263.96	32.847
264.33	27.163
264.70	32.326
265.07	31.019
265.44	36.092
265.81	32.265
266.18	31.891
266.55	30.131
266.92	31.992
267.29	30.247
267.66	34.183
268.03	32.305
268.40	30.720
268.77	31.198
269.14	30.612
269.51	35.113
269.88	34.012
270.25	32.203
270.62	31.967
270.99	31.496
271.36	33.333
271.73	32.932
272.10	33.714
272.47	33.397
272.84	30.512
273.21	31.703
273.58	32.787
273.95	30.755
274.32	32.463
274.69	32.423
275.06	32.686
275.43	30.132
275.80	32.624
276.17	30.387
276.54	29.663
276.91	32.056
277.28	29.783
277.65	32.343
278.02	33.036
278.39	31.972
278.76	31.605
279.13	31.561
279.50	33.621
279.87	30.072
280.23	32.613
280.60	32.007
280.97	31.331
281.34	31.703
281.71	30.407
282.08	33.333
282.45	32.951
282.82	31.629
283.19	32.622
283.56	31.563
283.92	31.651
284.29	30.109
284.66	30.807
285.03	29.642
285.40	31.420
285.77	31.832
286.14	32.523
286.51	31.184
286.87	31.231
287.24	31.563
287.61	31.175
287.98	31.176
288.35	29.061
288.72	30.560
289.08	29.630
289.45	28.047
289.82	29.198
290.19	31.136
290.56	29.830
290.93	28.867
291.29	30.096
291.66	30.055
292.03	29.973
292.40	29.071
292.77	28.648
293.13	32.497
293.50	28.497
293.87	27.200
294.24	25.926
294.60	28.869
294.97	30.423
295.34	27.441
295.71	27.727
296.08	28.272
296.44	27.423
296.81	25.457
297.18	28.625
297.55	26.297
297.91	28.944
298.28	28.935
298.65	26.601
299.02	30.037
299.38	26.012
299.75	27.524
300.12	26.512
300.48	27.018
300.85	26.674
301.22	27.875
301.59	26.056
301.95	25.784
302.32	27.305
302.69	27.006
303.05	27.132
303.42	27.614
303.79	27.234
304.15	27.820
304.52	28.602
304.89	27.685
305.25	26.454
305.62	26.139
305.99	28.183
306.35	29.258
306.72	29.095
307.09	28.676
307.45	29.073
307.82	28.211
308.19	29.781
308.55	27.943
308.92	28.978
309.29	29.129
309.65	29.670
310.02	29.026
310.38	29.065
310.75	30.769
311.12	30.224
311.48	30.069
311.85	31.398
312.22	32.302
312.58	31.304
312.95	31.642
313.31	31.956
313.68	32.824
314.05	33.081
314.41	35.927
314.78	35.294
315.14	35.556
315.51	35.109
315.87	36.886
316.24	36.823
316.61	38.356
316.97	37.037
317.34	38.235
317.70	38.269
318.07	39.130
318.43	39.386
318.80	40.140
319.16	39.876
319.53	42.204
319.89	43.270
320.26	44.455
320.62	45.505
320.99	44.671
321.35	44.995
321.72	46.198
322.08	47.140
322.45	48.659
322.81	49.353
323.18	50.358
323.54	52.437
323.91	53.117
324.27	52.295
324.64	52.439
325.00	55.293
325.37	55.802
325.73	57.239
326.10	59.630
326.46	59.114
326.83	60.113
327.19	58.862
327.56	63.014
327.92	62.993
328.29	64.357
328.65	65.031
329.01	65.699
329.38	65.565
329.74	65.665
330.11	68.440
330.47	67.361
330.84	69.224
331.20	68.318
331.56	71.377
331.93	70.887
332.29	71.069
332.66	69.831
333.02	70.460
333.38	71.754
333.75	69.113
334.11	72.309
334.48	72.537
334.84	72.527
335.20	70.240
335.57	71.628
335.93	71.649
336.29	72.417
336.66	74.615
337.02	72.783
337.38	71.802
337.75	74.246
338.11	71.221
338.47	73.887
338.84	73.196
339.20	74.250
339.56	72.952
339.93	75.108
340.29	73.527
340.65	74.850
341.02	73.960
341.38	74.747
341.74	74.118
342.11	73.906
342.47	73.975
342.83	73.938
343.20	76.311
343.56	77.187
343.92	74.655
344.28	76.786
344.65	76.898
345.01	74.738
345.37	77.961
345.73	76.716
346.10	76.886
346.46	75.772
346.82	77.769
347.19	76.582
347.55	77.706
347.91	76.539
348.27	77.050
348.63	76.763
349.00	76.808
349.36	76.374
349.72	76.721
350.08	76.599
350.45	78.935
350.81	78.091
351.17	78.060
351.53	78.005
351.89	76.728
352.26	77.992
352.62	78.915
352.98	79.792
353.34	81.643
353.70	79.283
354.07	78.353
354.43	78.149
354.79	81.330
355.15	77.484
355.51	79.575
355.87	80.141
356.24	80.498
356.60	78.186
356.96	79.662
357.32	78.483
357.68	79.450
358.04	79.441
358.40	78.760
358.77	79.893
359.13	82.802
359.49	80.696
359.85	80.970
360.21	83.577
360.57	83.422
360.93	83.763
361.29	82.679
361.66	83.295
362.02	81.913
362.38	82.053
362.74	82.306
363.10	82.574
363.46	83.501
363.82	83.149
364.18	82.741
364.54	85.193
364.90	84.460
365.26	82.166
365.62	82.386
365.98	83.630
366.35	84.752
366.71	84.807
367.07	82.920
367.43	83.833
367.79	85.615
368.15	84.810
368.51	84.177
368.87	84.857
369.23	85.267
369.59	84.355
369.95	85.196
370.31	84.798
370.67	85.663
371.03	88.122
371.39	84.883
371.75	86.214
372.11	86.254
372.47	86.734
372.83	87.032
373.19	87.842
373.55	86.488
373.91	87.199
374.27	87.483
374.63	87.909
374.99	88.092
375.35	88.562
375.71	87.160
376.07	89.719
376.42	88.168
376.78	89.432
377.14	89.017
377.50	89.700
377.86	90.173
378.22	89.823
378.58	88.272
378.94	89.500
379.30	90.506
379.66	90.814
380.02	90.380
380.38	89.518
380.74	91.034
381.09	88.902
381.45	90.447
381.81	91.251
382.17	89.792
382.53	89.969
382.89	90.229
383.25	89.568
383.61	92.373
383.97	91.875
384.32	90.989
384.68	91.363
385.04	90.531
385.40	92.777
385.76	92.336
386.12	93.221
386.48	91.034
386.83	91.552
387.19	92.165
387.55	92.336
387.91	94.465
388.27	92.663
388.62	91.511
388.98	94.618
389.34	92.544
389.70	91.331
390.06	90.812
390.42	93.750
390.77	94.299
391.13	94.823
391.49	90.955
391.85	92.716
392.20	91.792
392.56	92.762
392.92	93.505
393.28	92.504
393.64	93.945
393.99	90.942
394.35	91.296
394.71	92.756
395.07	91.698
395.42	92.017
395.78	92.278
396.14	93.722
396.50	92.200
396.85	94.200
397.21	92.634
397.57	94.161
397.92	92.994
398.28	91.935
398.64	92.835
399.00	91.629
399.35	94.098
399.71	92.312
400.07	92.831
400.42	93.103
400.78	92.085
401.14	94.543
401.49	91.192
401.85	93.059
402.21	93.994
402.57	92.643
402.92	93.054
403.28	91.807
403.63	92.560
403.99	92.514
404.35	93.142
404.70	91.541
405.06	91.368
405.42	92.525
405.77	91.417
406.13	89.886
406.49	92.211
406.84	92.918
407.20	90.586
407.55	91.753
407.91	91.727
408.27	91.391
408.62	91.651
408.98	90.875
409.34	90.532
409.69	92.658
410.05	92.102
410.40	91.540
410.76	92.118
411.11	93.221
411.47	93.696
411.83	91.266
412.18	90.806
412.54	91.980
412.89	91.912
413.25	91.032
413.60	92.288
413.96	92.572
414.31	91.554
414.67	90.794
415.03	92.693
415.38	91.480
415.74	91.293
416.09	94.052
416.45	92.344
416.80	93.356
417.16	91.633
417.51	90.221
417.87	92.791
418.22	92.631
418.58	92.838
418.93	91.086
419.29	93.597
419.64	90.967
420.00	92.254
420.35	91.632
420.71	90.920
421.06	92.497
421.42	92.883
421.77	93.237
422.12	93.238
422.48	91.876
422.83	93.739
423.19	92.582
423.54	93.816
423.90	91.627
424.25	94.223
424.61	94.578
424.96	93.495
425.31	92.765
425.67	94.709
426.02	94.994
426.38	94.216
426.73	95.113
427.09	94.622
427.44	93.130
427.79	94.002
428.15	94.067
428.50	93.776
428.85	94.034
429.21	94.260
429.56	94.846
429.92	94.951
430.27	93.149
430.62	95.488
430.98	94.870
431.33	95.271
431.68	95.847
432.04	95.606
432.39	95.727
432.74	94.421
433.10	96.397
433.45	94.024
433.80	95.345
434.16	93.392
434.51	94.348
434.86	96.879
435.22	95.020
435.57	94.656
435.92	95.718
436.28	94.955
436.63	96.767
436.98	96.945
437.34	95.665
437.69	96.045
438.04	96.095
438.39	98.381
438.75	96.901
439.10	96.935
439.45	96.065
439.81	97.106
440.16	97.739
440.51	95.244
440.86	95.554
441.22	97.762
441.57	97.234
441.92	97.512
442.27	94.859
442.63	96.286
442.98	97.049
443.33	98.307
443.68	97.522
444.03	98.311
444.39	97.918
444.74	96.024
445.09	98.183
445.44	99.211
445.79	98.554
446.15	97.726
446.50	96.256
446.85	100.053
447.20	99.164
447.55	96.698
447.91	98.090
448.26	98.628
448.61	98.216
448.96	98.405
449.31	98.972
449.66	97.455
450.02	99.261
450.37	98.355
450.72	96.843
451.07	98.119
451.42	97.130
451.77	98.904
452.12	98.752
452.47	98.967
452.83	98.998
453.18	98.027
453.53	98.487
453.88	98.434
454.23	98.640
454.58	99.081
454.93	98.076
455.28	99.936
455.63	98.378
455.98	98.296
456.34	98.029
456.69	98.466
457.04	98.266
457.39	98.437
457.74	98.504
458.09	98.460
458.44	99.295
458.79	95.332
459.14	95.730
459.49	99.024
459.84	96.561
460.19	97.179
460.54	97.263
460.89	98.367
461.24	97.472
461.59	99.577
461.94	97.219
462.29	97.978
462.64	97.427
462.99	99.061
463.34	99.862
463.69	97.745
464.04	96.639
464.39	98.536
464.74	96.806
465.09	97.644
465.44	96.240
465.79	97.240
466.14	97.605
466.49	99.296
466.84	98.087
467.19	98.280
467.54	99.741
467.89	97.423
468.24	99.693
468.59	98.725
468.94	97.893
469.29	97.555
469.64	99.233
469.99	97.172
470.34	98.314
470.68	98.141
471.03	99.506
471.38	96.662
471.73	98.217
472.08	100.550
472.43	100.726
472.78	98.310
473.13	96.042
473.48	98.043
473.83	97.928
474.17	99.284
474.52	99.159
474.87	99.035
475.22	97.947
475.57	97.434
475.92	99.400
476.27	97.960
476.61	97.508
476.96	99.086
477.31	98.706
477.66	98.644
478.01	97.582
478.36	98.856
478.70	98.980
479.05	100.000
479.40	97.244
479.75	99.947
480.10	98.419
480.45	97.646
480.79	98.905
481.14	99.949
481.49	97.780
481.84	97.361
482.19	97.453
482.53	98.524
482.88	98.706
483.23	97.305
483.58	99.102
483.92	97.519
484.27	98.582
484.62	96.227
484.97	97.511
485.31	96.361
485.66	89.746
486.01	90.620
486.36	91.823
486.70	94.023
487.05	94.855
487.40	95.113
487.75	97.244
488.09	94.776
488.44	96.810
488.79	97.805
489.13	96.382
489.48	96.708
489.83	97.276
490.17	98.911
490.52	99.579
490.87	98.146
491.22	98.116
491.56	100.815
491.91	98.944
492.26	99.178
492.60	98.076
492.95	99.368
493.30	96.366
493.64	98.321
493.99	98.309
494.34	99.085
494.68	100.143
495.03	101.087
495.37	98.297
495.72	98.997
496.07	99.075
496.41	99.298
496.76	97.349
497.11	97.793
497.45	99.805
497.80	99.495
498.14	99.093
498.49	99.496
498.84	100.658
499.18	98.656
499.53	98.572
499.87	98.011
500.22	98.706
500.56	99.298
500.91	98.944
501.26	99.507
501.60	99.510
501.95	98.275
502.29	99.515
502.64	100.096
502.98	97.640
503.33	98.832
503.67	98.685
504.02	98.333
504.36	98.762
504.71	99.898
505.06	100.866
505.40	100.722
505.75	100.560
506.09	101.482
506.44	99.194
506.78	100.203
507.13	100.468
507.47	100.477
507.82	100.523
508.16	100.317
508.51	100.207
508.85	99.585
509.19	101.217
509.54	101.501
509.88	101.452
510.23	101.158
510.57	101.218
510.92	101.940
511.26	102.860
511.61	101.372
511.95	102.646
512.30	101.055
512.64	102.951
512.98	101.440
513.33	101.915
513.67	102.499
514.02	102.452
514.36	102.753
514.70	103.464
515.05	104.798
515.39	104.009
515.74	104.085
516.08	102.360
516.42	102.535
516.77	104.979
517.11	104.821
517.46	105.222
517.80	105.993
518.14	103.613
518.49	103.014
518.83	103.282
519.17	102.169
519.52	105.127
519.86	105.647
520.20	105.033
520.55	104.291
520.89	106.135
521.23	106.474
521.58	105.183
521.92	104.463
522.26	106.962
522.61	106.270
522.95	106.606
523.29	105.714
523.64	106.548
523.98	106.417
524.32	104.285
524.66	106.753
525.01	107.208
525.35	107.044
525.69	105.699
526.04	105.016
526.38	103.888
526.72	105.128
527.06	104.900
527.41	107.015
527.75	107.810
528.09	108.237
528.43	108.548
528.78	105.685
529.12	105.369
529.46	104.990
529.80	105.437
530.15	103.282
530.49	107.547
530.83	107.515
531.17	106.986
531.51	104.585
531.86	106.436
532.20	106.616
532.54	107.724
532.88	106.467
533.22	106.734
533.57	107.815
533.91	106.258
534.25	108.529
534.59	105.534
534.93	105.548
535.27	104.586
535.62	106.842
535.96	105.921
536.30	106.848
536.64	105.673
536.98	104.555
537.32	107.117
537.66	105.219
538.01	106.311
538.35	106.768
538.69	105.953
539.03	102.416
539.37	105.366
539.71	104.980
540.05	104.049
540.39	103.304
540.73	104.958
541.07	104.218
541.42	104.040
541.76	104.804
542.10	103.724
542.44	104.712
542.78	105.135
543.12	103.437
543.46	103.110
543.80	102.987
544.14	104.474
544.48	103.849
544.82	103.295
545.16	104.327
545.50	103.781
545.84	103.857
546.18	103.717
546.52	103.035
546.86	102.261
547.20	102.359
547.54	103.931
547.88	102.699
548.22	102.866
548.56	102.668
548.90	103.518
549.24	104.583
549.58	103.132
549.92	105.576
550.26	106.421
550.60	105.781
550.94	104.701
551.28	103.861
551.62	105.414
551.96	101.903
552.30	104.367
552.64	103.319
552.98	105.753
553.32	106.056
553.66	107.263
554.00	105.688
554.34	106.520
554.68	105.817
555.02	104.940
555.36	105.749
555.69	105.608
556.03	104.646
556.37	103.201
556.71	102.383
557.05	105.683
557.39	105.124
557.73	106.127
558.07	105.878
558.41	106.586
558.75	105.312
559.08	107.618
559.42	108.183
559.76	104.281
560.10	107.302
560.44	104.348
560.78	106.115
561.12	105.046
561.45	101.565
561.79	103.920
562.13	104.360
562.47	105.786
562.81	105.483
563.15	102.762
563.48	102.409
563.82	105.267
564.16	103.318
564.50	104.478
564.84	103.446
565.17	102.980
565.51	103.877
565.85	103.931
566.19	105.497
566.52	102.359
566.86	101.580
567.20	103.054
567.54	99.252
567.88	100.448
568.21	99.402
568.55	98.539
568.89	98.953
569.23	98.075
569.56	97.539
569.90	95.054
570.24	93.682
570.57	93.722
570.91	93.941
571.25	93.631
571.59	92.814
571.92	92.813
572.26	93.258
572.60	93.194
572.93	93.721
573.27	91.831
573.61	92.773
573.95	92.015
574.28	92.214
574.62	90.496
574.96	91.855
575.29	91.274
575.63	91.913
575.97	92.391
576.30	91.327
576.64	92.167
576.98	91.574
577.31	91.389
577.65	89.993
577.98	90.648
578.32	90.008
578.66	89.912
578.99	90.728
579.33	91.129
579.67	92.464
580.00	90.311
580.34	90.499
580.67	91.401
581.01	89.855
581.35	89.689
581.68	88.548
582.02	89.802
582.35	90.794
582.69	89.855
583.02	89.538
583.36	92.155
583.70	91.173
584.03	91.480
584.37	91.339
584.70	90.706
585.04	92.025
585.37	91.373
585.71	91.317
586.04	91.604
586.38	91.502
586.72	91.009
587.05	92.640
587.39	91.420
587.72	92.633
588.06	91.409
588.39	92.024
588.73	92.208
589.06	93.631
589.40	92.845
589.73	93.856
590.07	92.891
590.40	93.866
590.73	96.070
591.07	94.902
591.40	94.087
591.74	94.976
592.07	96.577
592.41	96.353
592.74	94.213
593.08	92.479
593.41	92.197
593.75	91.279
594.08	92.573
594.41	93.638
594.75	93.966
595.08	94.324
595.42	92.484
595.75	92.878
596.09	94.226
596.42	93.913
596.75	93.374
597.09	96.451
597.42	96.007
597.75	94.133
598.09	94.718
598.42	94.765
598.76	93.913
599.09	94.958
599.42	92.145
599.76	93.729
600.09	92.809
600.42	93.522
600.76	93.163
601.09	93.183
601.42	93.532
601.76	91.544
602.09	93.636
602.42	94.387
602.76	95.386
603.09	94.743
603.42	93.603
603.76	92.595
604.09	92.846
604.42	92.842
604.76	94.849
605.09	94.971
605.42	95.277
605.75	94.047
606.09	92.964
606.42	93.599
606.75	94.069
607.09	94.282
607.42	93.958
607.75	92.691
608.08	93.417
608.42	94.892
608.75	95.700
609.08	95.247
609.41	94.386
609.75	95.966
610.08	95.710
610.41	95.335
610.74	95.284
611.07	94.940
611.41	95.087
611.74	94.565
612.07	93.121
612.40	95.946
612.73	95.554
613.07	95.898
613.40	97.907
613.73	95.666
614.06	96.130
614.39	95.442
614.72	95.447
615.06	96.000
615.39	96.634
615.72	94.492
616.05	97.016
616.38	96.621
616.71	94.781
617.05	98.034
617.38	97.843
617.71	97.243
618.04	94.942
618.37	99.432
618.70	97.413
619.03	99.107
619.36	99.075
619.69	98.830
620.03	97.032
620.36	96.312
620.69	97.288
621.02	99.462
621.35	100.245
621.68	100.163
622.01	101.618
622.34	99.841
622.67	101.644
623.00	99.696
623.33	98.953
623.66	98.736
623.99	99.400
624.32	97.506
624.65	99.629
624.99	98.898
625.32	98.656
625.65	100.233
625.98	100.395
626.31	99.347
626.64	102.666
626.97	102.249
627.30	101.198
627.63	100.865
