SpectraSuite Data File
++++++++++++++++++++++++++++++++++++
Date: Tue May 12 16:25:58 PDT 2015
User: schluterlab
Dark Spectrum Present: Yes
Reference Spectrum Present: Yes
Number of Sampled Component Spectra: 1
Spectrometers: USB2E3373
Integration Time (usec): 3000 (USB2E3373)
Spectra Averaged: 3 (USB2E3373)
Boxcar Smoothing: 0 (USB2E3373)
Correct for Electrical Dark: No (USB2E3373)
Strobe/Lamp Enabled: No (USB2E3373)
Correct for Detector Non-linearity: No (USB2E3373)
Correct for Stray Light: No (USB2E3373)
Number of Pixels in Processed Spectrum: 2048
>>>>>Begin Processed Spectral Data<<<<<
178.53	0.000
178.91	-133.333
179.29	-375.000
179.67	-3100.000
180.04	-80.000
180.42	750.000
180.80	1600.000
181.18	0.000
181.56	-325.000
181.94	0.000
182.31	1100.000
182.69	-3500.000
183.07	671.429
183.45	-4600.000
183.83	-1500.000
184.20	390.000
184.58	528.571
184.96	-230.769
185.34	-216.667
185.72	1400.000
186.09	-750.000
186.47	-2600.000
186.85	900.000
187.23	520.000
187.61	1650.000
187.98	512.500
188.36	250.000
188.74	291.667
189.12	291.667
189.49	875.000
189.87	0.000
190.25	337.500
190.63	2600.000
191.00	-266.667
191.38	-4000.000
191.76	-750.000
192.14	525.000
192.51	-2800.000
192.89	1600.000
193.27	933.333
193.65	-1033.333
194.02	-740.000
194.40	457.143
194.78	-171.429
195.15	233.333
195.53	-3400.000
195.91	-640.000
196.29	3700.000
196.66	262.500
197.04	900.000
197.42	-1750.000
197.79	400.000
198.17	366.667
198.55	0.000
198.92	400.000
199.30	966.667
199.68	1800.000
200.05	716.667
200.43	-450.000
200.81	211.111
201.18	3100.000
201.56	325.000
201.94	-700.000
202.31	-312.500
202.69	-460.000
203.07	2400.000
203.44	-450.000
203.82	366.667
204.19	620.000
204.57	-1200.000
204.95	-825.000
205.32	-780.000
205.70	466.667
206.08	775.000
206.45	-833.333
206.83	322.222
207.20	205.263
207.58	225.000
207.96	580.000
208.33	0.000
208.71	500.000
209.08	660.000
209.46	-2800.000
209.84	-725.000
210.21	920.000
210.59	-580.000
210.96	316.667
211.34	-900.000
211.71	381.818
212.09	1025.000
212.46	1800.000
212.84	-450.000
213.22	400.000
213.59	-3500.000
213.97	360.000
214.34	875.000
214.72	1000.000
215.09	966.667
215.47	-3200.000
215.84	-300.000
216.22	-387.500
216.59	0.000
216.97	0.000
217.34	1600.000
217.72	-1550.000
218.09	1300.000
218.47	450.000
218.84	775.000
219.22	733.333
219.59	766.667
219.97	328.571
220.34	455.556
220.72	1300.000
221.09	3100.000
221.47	258.333
221.84	900.000
222.22	360.000
222.59	227.778
222.97	235.714
223.34	231.250
223.72	-1250.000
224.09	1733.333
224.46	323.077
224.84	-775.000
225.21	344.444
225.59	273.333
225.96	1233.333
226.34	-620.000
226.71	-825.000
227.08	-780.000
227.46	0.000
227.83	-400.000
228.21	-2200.000
228.58	333.333
228.95	975.000
229.33	422.222
229.70	900.000
230.08	246.154
230.45	3300.000
230.82	-750.000
231.20	-633.333
231.57	-933.333
231.95	460.000
232.32	200.000
232.69	500.000
233.07	233.333
233.44	-1200.000
233.81	286.667
234.19	151.852
234.56	131.250
234.93	152.941
235.31	170.000
235.68	212.500
236.05	153.571
236.43	162.963
236.80	257.143
237.17	131.034
237.55	115.625
237.92	95.000
238.29	90.909
238.67	131.250
239.04	65.854
239.41	45.833
239.79	57.500
240.16	66.667
240.53	57.377
240.91	55.072
241.28	67.797
241.65	51.515
242.02	66.197
242.40	48.571
242.77	40.659
243.14	26.582
243.51	52.525
243.89	31.776
244.26	31.776
244.63	31.683
245.00	33.945
245.38	24.576
245.75	39.394
246.12	33.333
246.49	26.241
246.87	28.689
247.24	30.000
247.61	31.250
247.98	28.571
248.36	18.788
248.73	23.469
249.10	18.452
249.47	25.000
249.84	22.886
250.22	24.865
250.59	22.500
250.96	21.097
251.33	18.605
251.70	19.196
252.08	21.008
252.45	19.920
252.82	15.589
253.19	18.182
253.56	13.077
253.94	19.203
254.31	16.279
254.68	12.892
255.05	17.931
255.42	15.328
255.79	15.309
256.16	14.576
256.54	16.883
256.91	16.340
257.28	14.716
257.65	13.793
258.02	14.749
258.39	15.473
258.76	15.362
259.14	11.143
259.51	17.201
259.88	13.982
260.25	9.615
260.62	13.425
260.99	10.468
261.36	13.092
261.73	11.702
262.10	17.539
262.47	11.000
262.85	12.000
263.22	14.396
263.59	12.788
263.96	14.536
264.33	12.099
264.70	11.302
265.07	12.195
265.44	11.468
265.81	13.679
266.18	11.442
266.55	10.165
266.92	10.738
267.29	10.746
267.66	10.762
268.03	10.987
268.40	9.514
268.77	9.912
269.14	9.328
269.51	10.468
269.88	11.429
270.25	9.719
270.62	9.871
270.99	12.170
271.36	11.585
271.73	9.434
272.10	10.707
272.47	9.921
272.84	8.982
273.21	10.950
273.58	11.538
273.95	9.856
274.32	13.035
274.69	12.598
275.06	13.115
275.43	11.686
275.80	9.811
276.17	11.213
276.54	11.776
276.91	12.873
277.28	11.496
277.65	10.886
278.02	9.743
278.39	9.353
278.76	10.517
279.13	9.609
279.50	9.636
279.87	7.821
280.23	9.024
280.60	8.942
280.97	8.793
281.34	9.241
281.71	9.391
282.08	11.453
282.45	9.966
282.82	10.870
283.19	11.129
283.56	9.752
283.92	10.261
284.29	9.318
284.66	10.924
285.03	10.116
285.40	8.760
285.77	8.642
286.14	10.526
286.51	9.049
286.87	8.070
287.24	8.408
287.61	8.967
287.98	10.746
288.35	8.148
288.72	8.498
289.08	9.459
289.45	9.299
289.82	10.469
290.19	8.931
290.56	9.316
290.93	9.353
291.29	8.978
291.66	7.910
292.03	8.555
292.40	9.214
292.77	9.471
293.13	10.556
293.50	8.097
293.87	7.182
294.24	9.510
294.60	8.883
294.97	9.650
295.34	9.827
295.71	10.250
296.08	10.533
296.44	9.784
296.81	8.685
297.18	9.125
297.55	10.714
297.91	8.005
298.28	9.783
298.65	8.957
299.02	9.891
299.38	9.233
299.75	9.756
300.12	11.468
300.48	10.890
300.85	10.846
301.22	11.628
301.59	9.552
301.95	10.502
302.32	9.895
302.69	10.407
303.05	10.550
303.42	10.987
303.79	10.726
304.15	10.231
304.52	11.416
304.89	13.113
305.25	11.568
305.62	12.793
305.99	11.957
306.35	11.789
306.72	13.632
307.09	11.801
307.45	12.672
307.82	11.420
308.19	12.887
308.55	12.500
308.92	13.739
309.29	14.201
309.65	15.461
310.02	14.909
310.38	13.958
310.75	15.043
311.12	14.943
311.48	17.375
311.85	16.221
312.22	17.479
312.58	15.841
312.95	17.961
313.31	18.539
313.68	17.824
314.05	19.322
314.41	18.808
314.78	19.413
315.14	19.621
315.51	19.678
315.87	20.529
316.24	20.822
316.61	21.755
316.97	21.376
317.34	22.552
317.70	23.090
318.07	23.932
318.43	24.341
318.80	24.781
319.16	24.825
319.53	24.690
319.89	25.448
320.26	28.585
320.62	28.755
320.99	28.789
321.35	29.035
321.72	32.068
322.08	31.856
322.45	32.425
322.81	32.388
323.18	33.925
323.54	34.495
323.91	36.446
324.27	36.782
324.64	36.678
325.00	40.172
325.37	38.954
325.73	38.786
326.10	41.425
326.46	42.857
326.83	42.640
327.19	43.775
327.56	43.770
327.92	46.148
328.29	46.072
328.65	48.202
329.01	48.674
329.38	47.039
329.74	48.079
330.11	48.914
330.47	50.639
330.84	48.663
331.20	49.492
331.56	51.209
331.93	51.668
332.29	50.765
332.66	51.786
333.02	51.375
333.38	52.269
333.75	52.877
334.11	53.104
334.48	54.359
334.84	51.351
335.20	53.550
335.57	51.553
335.93	53.322
336.29	51.658
336.66	54.631
337.02	52.524
337.38	53.568
337.75	53.632
338.11	55.274
338.47	53.260
338.84	53.091
339.20	54.286
339.56	54.668
339.93	53.344
340.29	53.613
340.65	54.484
341.02	54.224
341.38	55.419
341.74	55.316
342.11	54.007
342.47	53.404
342.83	55.373
343.20	54.002
343.56	53.693
343.92	56.400
344.28	53.668
344.65	55.012
345.01	56.032
345.37	54.327
345.73	53.968
346.10	55.697
346.46	55.742
346.82	54.475
347.19	56.028
347.55	56.284
347.91	55.514
348.27	54.919
348.63	54.905
349.00	55.217
349.36	56.420
349.72	55.275
350.08	56.211
350.45	56.816
350.81	55.199
351.17	55.855
351.53	55.504
351.89	56.876
352.26	56.160
352.62	57.768
352.98	56.442
353.34	57.319
353.70	56.881
354.07	56.385
354.43	57.296
354.79	56.416
355.15	58.652
355.51	57.931
355.87	57.154
356.24	57.814
356.60	57.839
356.96	58.302
357.32	57.423
357.68	58.150
358.04	58.283
358.40	57.646
358.77	58.377
359.13	58.559
359.49	57.746
359.85	57.781
360.21	57.801
360.57	57.883
360.93	59.452
361.29	59.235
361.66	60.030
362.02	57.670
362.38	58.009
362.74	59.306
363.10	58.766
363.46	57.251
363.82	60.449
364.18	59.673
364.54	60.658
364.90	59.572
365.26	60.375
365.62	59.599
365.98	60.427
366.35	59.586
366.71	59.820
367.07	59.795
367.43	59.033
367.79	60.106
368.15	59.769
368.51	61.613
368.87	59.783
369.23	59.321
369.59	59.676
369.95	60.280
370.31	59.959
370.67	60.236
371.03	60.504
371.39	62.465
371.75	60.991
372.11	60.027
372.47	61.164
372.83	62.135
373.19	61.206
373.55	61.581
373.91	60.843
374.27	60.582
374.63	60.407
374.99	61.388
375.35	61.761
375.71	61.346
376.07	61.273
376.42	60.486
376.78	61.593
377.14	61.206
377.50	62.609
377.86	61.883
378.22	62.279
378.58	61.864
378.94	63.005
379.30	61.977
379.66	62.914
380.02	61.994
380.38	62.002
380.74	62.514
381.09	61.916
381.45	60.867
381.81	62.057
382.17	62.454
382.53	61.548
382.89	62.389
383.25	61.516
383.61	61.499
383.97	61.308
384.32	63.231
384.68	62.448
385.04	62.778
385.40	61.744
385.76	61.030
386.12	61.472
386.48	63.951
386.83	62.897
387.19	61.779
387.55	62.426
387.91	63.453
388.27	62.344
388.62	60.446
388.98	60.816
389.34	61.392
389.70	61.733
390.06	62.439
390.42	61.937
390.77	61.732
391.13	64.152
391.49	62.553
391.85	62.892
392.20	62.872
392.56	62.485
392.92	62.886
393.28	62.332
393.64	61.239
393.99	62.359
394.35	61.624
394.71	61.218
395.07	60.827
395.42	61.183
395.78	63.726
396.14	62.892
396.50	61.613
396.85	62.256
397.21	62.274
397.57	61.506
397.92	60.601
398.28	62.659
398.64	61.955
399.00	60.449
399.35	59.850
399.71	60.486
400.07	60.046
400.42	61.851
400.78	61.818
401.14	62.126
401.49	61.694
401.85	60.776
402.21	61.570
402.57	61.400
402.92	61.333
403.28	60.919
403.63	60.094
403.99	61.098
404.35	61.430
404.70	61.607
405.06	59.910
405.42	60.263
405.77	60.915
406.13	59.273
406.49	60.432
406.84	60.406
407.20	60.845
407.55	60.492
407.91	60.689
408.27	60.036
408.62	60.497
408.98	60.852
409.34	59.147
409.69	60.112
410.05	60.346
410.40	58.834
410.76	59.302
411.11	59.301
411.47	59.444
411.83	57.996
412.18	59.300
412.54	58.919
412.89	59.115
413.25	59.464
413.60	59.171
413.96	59.066
414.31	59.150
414.67	60.025
415.03	59.898
415.38	60.126
415.74	60.013
416.09	59.775
416.45	60.440
416.80	61.257
417.16	59.516
417.51	59.809
417.87	59.512
418.22	59.174
418.58	60.510
418.93	58.061
419.29	58.780
419.64	57.904
420.00	60.203
420.35	59.756
420.71	58.985
421.06	58.034
421.42	58.434
421.77	58.468
422.12	59.813
422.48	57.781
422.83	58.761
423.19	58.153
423.54	58.475
423.90	59.400
424.25	58.393
424.61	59.431
424.96	58.724
425.31	60.153
425.67	59.371
426.02	58.160
426.38	59.043
426.73	59.746
427.09	60.261
427.44	59.201
427.79	58.548
428.15	59.753
428.50	59.486
428.85	60.024
429.21	58.293
429.56	58.574
429.92	60.269
430.27	57.668
430.62	58.052
430.98	59.631
431.33	59.123
431.68	57.333
432.04	58.769
432.39	60.044
432.74	60.070
433.10	60.742
433.45	60.310
433.80	61.059
434.16	59.012
434.51	60.165
434.86	59.445
435.22	59.860
435.57	60.285
435.92	60.159
436.28	60.484
436.63	59.049
436.98	60.867
437.34	59.817
437.69	58.567
438.04	60.323
438.39	59.194
438.75	59.076
439.10	59.903
439.45	59.977
439.81	60.035
440.16	60.374
440.51	59.122
440.86	61.197
441.22	59.361
441.57	59.633
441.92	59.872
442.27	59.381
442.63	59.197
442.98	59.267
443.33	60.793
443.68	60.664
444.03	59.425
444.39	59.416
444.74	60.714
445.09	60.506
445.44	59.936
445.79	60.575
446.15	61.053
446.50	60.443
446.85	60.159
447.20	59.652
447.55	60.685
447.91	61.055
448.26	60.011
448.61	61.636
448.96	61.601
449.31	61.001
449.66	61.739
450.02	60.292
450.37	60.078
450.72	61.763
451.07	60.849
451.42	60.877
451.77	62.543
452.12	60.238
452.47	61.543
452.83	61.521
453.18	61.261
453.53	62.108
453.88	62.629
454.23	61.302
454.58	62.646
454.93	61.067
455.28	61.077
455.63	61.998
455.98	60.914
456.34	63.343
456.69	61.159
457.04	61.635
457.39	62.800
457.74	62.669
458.09	60.079
458.44	60.898
458.79	60.743
459.14	61.102
459.49	61.099
459.84	61.957
460.19	61.751
460.54	61.937
460.89	61.834
461.24	60.825
461.59	61.621
461.94	60.993
462.29	61.728
462.64	63.442
462.99	62.124
463.34	62.216
463.69	61.766
464.04	61.831
464.39	60.675
464.74	60.610
465.09	61.056
465.44	61.153
465.79	60.207
466.14	59.883
466.49	61.042
466.84	61.037
467.19	60.691
467.54	60.120
467.89	60.681
468.24	62.305
468.59	61.905
468.94	61.353
469.29	61.576
469.64	61.286
469.99	62.404
470.34	61.986
470.68	62.690
471.03	63.376
471.38	62.649
471.73	61.594
472.08	62.948
472.43	63.439
472.78	63.188
473.13	62.015
473.48	61.369
473.83	61.955
474.17	63.708
474.52	61.789
474.87	61.512
475.22	62.136
475.57	61.385
475.92	62.289
476.27	61.861
476.61	61.394
476.96	61.651
477.31	61.799
477.66	62.426
478.01	61.269
478.36	61.740
478.70	60.347
479.05	62.709
479.40	60.962
479.75	63.009
480.10	61.617
480.45	61.438
480.79	61.382
481.14	61.103
481.49	60.933
481.84	60.730
482.19	62.271
482.53	61.572
482.88	60.618
483.23	61.209
483.58	61.849
483.92	63.071
484.27	61.130
484.62	61.545
484.97	60.538
485.31	59.609
485.66	58.303
486.01	56.845
486.36	56.082
486.70	56.239
487.05	57.259
487.40	57.265
487.75	59.129
488.09	58.750
488.44	58.827
488.79	60.326
489.13	60.433
489.48	61.326
489.83	60.676
490.17	61.230
490.52	61.456
490.87	61.638
491.22	62.145
491.56	62.495
491.91	61.962
492.26	61.292
492.60	62.597
492.95	61.305
493.30	61.328
493.64	62.309
493.99	61.538
494.34	61.900
494.68	62.196
495.03	61.652
495.37	62.719
495.72	62.937
496.07	62.489
496.41	61.425
496.76	61.545
497.11	61.997
497.45	60.456
497.80	63.438
498.14	61.258
498.49	62.396
498.84	62.430
499.18	60.786
499.53	62.150
499.87	60.916
500.22	61.907
500.56	61.606
500.91	63.080
501.26	61.461
501.60	62.523
501.95	61.783
502.29	61.511
502.64	60.609
502.98	61.272
503.33	61.826
503.67	61.501
504.02	61.129
504.36	61.765
504.71	63.765
505.06	61.567
505.40	62.237
505.75	61.693
506.09	62.156
506.44	61.983
506.78	62.854
507.13	62.579
507.47	61.766
507.82	61.898
508.16	62.567
508.51	63.285
508.85	60.874
509.19	62.800
509.54	62.256
509.88	62.357
510.23	62.108
510.57	60.666
510.92	62.737
511.26	63.655
511.61	62.038
511.95	61.623
512.30	62.200
512.64	63.188
512.98	62.942
513.33	62.602
513.67	62.351
514.02	63.065
514.36	63.811
514.70	63.200
515.05	63.879
515.39	63.596
515.74	64.461
516.08	62.963
516.42	63.333
516.77	63.893
517.11	62.347
517.46	62.931
517.80	63.135
518.14	64.620
518.49	62.624
518.83	62.253
519.17	63.505
519.52	64.773
519.86	63.161
520.20	64.438
520.55	64.104
520.89	63.276
521.23	65.362
521.58	64.314
521.92	64.490
522.26	64.514
522.61	65.597
522.95	64.865
523.29	63.743
523.64	62.659
523.98	65.141
524.32	63.437
524.66	64.058
525.01	64.201
525.35	64.761
525.69	64.479
526.04	64.366
526.38	64.273
526.72	63.544
527.06	62.685
527.41	63.724
527.75	65.064
528.09	63.095
528.43	64.979
528.78	63.327
529.12	65.081
529.46	62.537
529.80	62.033
530.15	63.052
530.49	63.478
530.83	62.828
531.17	62.854
531.51	62.661
531.86	60.990
532.20	63.659
532.54	63.277
532.88	64.022
533.22	63.742
533.57	63.514
533.91	61.888
534.25	61.685
534.59	62.398
534.93	60.694
535.27	59.989
535.62	62.077
535.96	61.229
536.30	62.096
536.64	62.547
536.98	62.807
537.32	62.125
537.66	63.265
538.01	62.415
538.35	62.508
538.69	61.833
539.03	61.629
539.37	60.680
539.71	62.407
540.05	61.046
540.39	62.390
540.73	62.215
541.07	61.104
541.42	61.567
541.76	60.173
542.10	60.604
542.44	62.781
542.78	60.352
543.12	62.086
543.46	60.652
543.80	62.281
544.14	61.115
544.48	61.618
544.82	60.550
545.16	60.474
545.50	61.955
545.84	60.354
546.18	63.979
546.52	62.361
546.86	61.380
547.20	61.757
547.54	60.671
547.88	60.036
548.22	60.413
548.56	58.810
548.90	59.549
549.24	61.402
549.58	60.374
549.92	60.642
550.26	62.272
550.60	61.078
550.94	61.940
551.28	61.379
551.62	63.655
551.96	62.162
552.30	61.371
552.64	61.165
552.98	60.374
553.32	59.155
553.66	61.173
554.00	60.360
554.34	61.119
554.68	61.626
555.02	61.779
555.36	59.707
555.69	60.471
556.03	60.255
556.37	60.102
556.71	59.844
557.05	59.633
557.39	59.267
557.73	61.253
558.07	60.094
558.41	61.549
558.75	59.918
559.08	63.402
559.42	61.274
559.76	61.939
560.10	60.564
560.44	59.920
560.78	59.527
561.12	59.313
561.45	58.698
561.79	59.114
562.13	58.876
562.47	60.480
562.81	59.857
563.15	59.276
563.48	57.205
563.82	59.763
564.16	58.831
564.50	57.926
564.84	57.447
565.17	58.348
565.51	59.852
565.85	59.408
566.19	58.452
566.52	58.243
566.86	58.552
567.20	57.640
567.54	57.915
567.88	56.860
568.21	56.016
568.55	55.788
568.89	54.836
569.23	55.177
569.56	54.233
569.90	51.527
570.24	52.811
570.57	52.855
570.91	51.513
571.25	51.690
571.59	51.156
571.92	49.596
572.26	50.647
572.60	50.514
572.93	51.409
573.27	50.890
573.61	50.406
573.95	50.473
574.28	50.776
574.62	49.488
574.96	49.096
575.29	48.698
575.63	48.952
575.97	48.710
576.30	48.924
576.64	48.966
576.98	49.199
577.31	49.451
577.65	48.834
577.98	48.278
578.32	47.832
578.66	48.173
578.99	48.437
579.33	49.008
579.67	48.419
580.00	48.177
580.34	48.570
580.67	48.680
581.01	48.431
581.35	48.360
581.68	47.071
582.02	46.882
582.35	47.616
582.69	47.536
583.02	47.814
583.36	48.576
583.70	49.297
584.03	49.217
584.37	49.445
584.70	48.320
585.04	48.489
585.37	48.106
585.71	48.584
586.04	48.112
586.38	48.073
586.72	48.777
587.05	48.791
587.39	48.774
587.72	48.719
588.06	48.175
588.39	48.183
588.73	48.652
589.06	48.351
589.40	49.734
589.73	49.459
590.07	51.098
590.40	50.697
590.73	51.083
591.07	51.044
591.40	50.499
591.74	51.177
592.07	50.000
592.41	50.240
592.74	49.872
593.08	48.535
593.41	48.773
593.75	47.818
594.08	47.952
594.41	48.387
594.75	48.459
595.08	49.280
595.42	48.881
595.75	48.272
596.09	49.392
596.42	48.798
596.75	50.401
597.09	49.278
597.42	49.510
597.75	49.290
598.09	49.036
598.42	48.388
598.76	48.381
599.09	49.540
599.42	47.958
599.76	47.422
600.09	47.220
600.42	47.963
600.76	47.825
601.09	47.635
601.42	47.413
601.76	47.977
602.09	48.124
602.42	47.837
602.76	47.514
603.09	49.057
603.42	47.596
603.76	47.397
604.09	47.231
604.42	47.834
604.76	48.676
605.09	47.469
605.42	48.639
605.75	48.283
606.09	47.666
606.42	47.012
606.75	48.659
607.09	46.901
607.42	47.650
607.75	47.850
608.08	47.197
608.42	48.070
608.75	47.283
609.08	48.482
609.41	49.000
609.75	48.764
610.08	47.887
610.41	48.177
610.74	47.143
611.07	48.249
611.41	48.285
611.74	49.522
612.07	48.266
612.40	48.489
612.73	48.577
613.07	49.062
613.40	48.822
613.73	49.675
614.06	47.250
614.39	48.030
614.72	48.920
615.06	46.934
615.39	47.178
615.72	47.483
616.05	47.263
616.38	47.945
616.71	47.911
617.05	48.105
617.38	48.933
617.71	48.819
618.04	49.075
618.37	48.138
618.70	48.441
619.03	49.817
619.36	49.812
619.69	49.406
620.03	49.837
620.36	50.867
620.69	51.469
621.02	51.562
621.35	49.570
621.68	50.811
622.01	51.661
622.34	51.129
622.67	49.438
623.00	47.924
623.33	50.202
623.66	49.834
623.99	49.178
624.32	49.932
624.65	50.560
624.99	50.169
625.32	48.764
625.65	48.000
625.98	48.326
626.31	50.593
626.64	50.342
626.97	50.115
627.30	50.932
627.63	50.863
627.96	50.782
628.29	51.320
628.62	50.470
628.95	52.216
629.28	53.199
629.61	51.494
629.94	50.821
630.26	52.080
630.59	51.862
630.92	50.224
631.25	51.859
631.58	53.230
631.91	52.141
632.24	51.701
632.57	52.161
