SpectraSuite Data File
++++++++++++++++++++++++++++++++++++
Date: Tue May 12 16:59:23 PDT 2015
User: schluterlab
Dark Spectrum Present: Yes
Reference Spectrum Present: Yes
Number of Sampled Component Spectra: 1
Spectrometers: USB2E3373
Integration Time (usec): 3000 (USB2E3373)
Spectra Averaged: 3 (USB2E3373)
Boxcar Smoothing: 0 (USB2E3373)
Correct for Electrical Dark: No (USB2E3373)
Strobe/Lamp Enabled: No (USB2E3373)
Correct for Detector Non-linearity: No (USB2E3373)
Correct for Stray Light: No (USB2E3373)
Number of Pixels in Processed Spectrum: 2048
>>>>>Begin Processed Spectral Data<<<<<
178.53	0.000
178.91	-275.000
179.29	-775.000
179.67	-4400.000
180.04	-80.000
180.42	775.000
180.80	1300.000
181.18	0.000
181.56	-250.000
181.94	0.000
182.31	1133.333
182.69	-2700.000
183.07	671.429
183.45	-3300.000
183.83	-1250.000
184.20	470.000
184.58	557.143
184.96	-192.308
185.34	-266.667
185.72	1850.000
186.09	-1125.000
186.47	-3300.000
186.85	1100.000
187.23	640.000
187.61	1750.000
187.98	450.000
188.36	242.857
188.74	291.667
189.12	475.000
189.49	825.000
189.87	0.000
190.25	487.500
190.63	1700.000
191.00	-225.000
191.38	-2700.000
191.76	-550.000
192.14	600.000
192.51	-3300.000
192.89	1300.000
193.27	1066.667
193.65	-1000.000
194.02	-740.000
194.40	571.429
194.78	-207.143
195.15	266.667
195.53	-3300.000
195.91	-380.000
196.29	3400.000
196.66	281.250
197.04	750.000
197.42	-1600.000
197.79	550.000
198.17	333.333
198.55	0.000
198.92	485.714
199.30	1300.000
199.68	2050.000
200.05	633.333
200.43	-500.000
200.81	233.333
201.18	3100.000
201.56	291.667
201.94	-725.000
202.31	-262.500
202.69	-420.000
203.07	2600.000
203.44	-650.000
203.82	300.000
204.19	620.000
204.57	-1700.000
204.95	-625.000
205.32	-740.000
205.70	566.667
206.08	925.000
206.45	-866.667
206.83	288.889
207.20	210.526
207.58	283.333
207.96	720.000
208.33	0.000
208.71	614.286
209.08	580.000
209.46	-2700.000
209.84	-900.000
210.21	800.000
210.59	-680.000
210.96	358.333
211.34	-825.000
211.71	481.818
212.09	1025.000
212.46	1800.000
212.84	-650.000
213.22	477.778
213.59	-3100.000
213.97	300.000
214.34	850.000
214.72	1200.000
215.09	1033.333
215.47	-2600.000
215.84	-410.000
216.22	-462.500
216.59	0.000
216.97	0.000
217.34	1350.000
217.72	-1200.000
218.09	1233.333
218.47	525.000
218.84	850.000
219.22	1200.000
219.59	800.000
219.97	585.714
220.34	466.667
220.72	1600.000
221.09	3600.000
221.47	333.333
221.84	900.000
222.22	350.000
222.59	222.222
222.97	292.857
223.34	243.750
223.72	-1850.000
224.09	1433.333
224.46	230.769
224.84	-700.000
225.21	388.889
225.59	266.667
225.96	1266.667
226.34	-640.000
226.71	-675.000
227.08	-640.000
227.46	0.000
227.83	-433.333
228.21	-1600.000
228.58	341.667
228.95	950.000
229.33	444.444
229.70	1025.000
230.08	423.077
230.45	3200.000
230.82	-775.000
231.20	-1200.000
231.57	-1100.000
231.95	660.000
232.32	391.667
232.69	533.333
233.07	300.000
233.44	-1500.000
233.81	260.000
234.19	170.370
234.56	206.250
234.93	258.824
235.31	200.000
235.68	331.250
236.05	185.714
236.43	162.963
236.80	300.000
237.17	137.931
237.55	134.375
237.92	112.500
238.29	157.576
238.67	162.500
239.04	131.707
239.41	68.750
239.79	107.500
240.16	100.000
240.53	85.246
240.91	88.406
241.28	108.475
241.65	100.000
242.02	80.282
242.40	88.571
242.77	72.527
243.14	63.291
243.51	74.747
243.89	62.617
244.26	55.140
244.63	75.248
245.00	71.560
245.38	64.407
245.75	57.576
246.12	75.556
246.49	63.121
246.87	57.377
247.24	62.000
247.61	55.625
247.98	65.306
248.36	53.939
248.73	52.041
249.10	51.786
249.47	53.000
249.84	53.234
250.22	60.000
250.59	48.500
250.96	49.789
251.33	48.837
251.70	51.339
252.08	46.639
252.45	48.606
252.82	48.669
253.19	43.478
253.56	41.923
253.94	43.841
254.31	48.450
254.68	45.645
255.05	51.724
255.42	48.905
255.79	46.254
256.16	51.525
256.54	48.377
256.91	45.752
257.28	44.816
257.65	43.260
258.02	41.888
258.39	46.991
258.76	44.638
259.14	40.286
259.51	46.939
259.88	43.769
260.25	40.659
260.62	44.932
260.99	40.496
261.36	42.340
261.73	41.755
262.10	45.288
262.47	40.750
262.85	42.400
263.22	43.702
263.59	39.898
263.96	45.363
264.33	39.012
264.70	44.226
265.07	42.683
265.44	44.037
265.81	42.925
266.18	40.046
266.55	42.553
266.92	41.163
267.29	42.105
267.66	42.825
268.03	40.807
268.40	40.803
268.77	41.630
269.14	40.781
269.51	42.316
269.88	42.041
270.25	37.365
270.62	41.631
270.99	40.974
271.36	40.447
271.73	41.090
272.10	41.414
272.47	41.667
272.84	39.521
273.21	38.636
273.58	40.688
273.95	40.246
274.32	38.911
274.69	40.157
275.06	40.801
275.43	39.272
275.80	37.925
276.17	39.338
276.54	38.879
276.91	39.552
277.28	36.314
277.65	38.561
278.02	40.257
278.39	38.489
278.76	38.793
279.13	38.790
279.50	38.545
279.87	37.803
280.23	38.858
280.60	36.496
280.97	39.483
281.34	37.789
281.71	39.826
282.08	38.632
282.45	36.149
282.82	36.622
283.19	36.248
283.56	34.050
283.92	37.948
284.29	36.106
284.66	37.311
285.03	38.474
285.40	37.521
285.77	37.191
286.14	36.378
286.51	34.663
286.87	34.177
287.24	34.685
287.61	36.778
287.98	35.672
288.35	34.519
288.72	34.901
289.08	36.937
289.45	35.366
289.82	35.000
290.19	33.382
290.56	35.808
290.93	33.813
291.29	32.735
291.66	33.757
292.03	32.819
292.40	33.875
292.77	33.008
293.13	34.379
293.50	32.524
293.87	31.165
294.24	33.147
294.60	32.571
294.97	33.566
295.34	33.599
295.71	32.589
296.08	32.667
296.44	31.893
296.81	32.382
297.18	31.179
297.55	31.650
297.91	29.433
298.28	30.797
298.65	30.061
299.02	30.277
299.38	32.014
299.75	30.244
300.12	28.784
300.48	31.733
300.85	30.989
301.22	29.302
301.59	30.071
301.95	29.638
302.32	30.617
302.69	29.186
303.05	32.660
303.42	29.148
303.79	31.961
304.15	31.463
304.52	27.907
304.89	30.704
305.25	31.146
305.62	30.171
305.99	31.304
306.35	31.789
306.72	30.073
307.09	31.159
307.45	29.145
307.82	31.070
308.19	31.546
308.55	29.800
308.92	33.170
309.29	32.742
309.65	30.823
310.02	32.049
310.38	30.508
310.75	29.894
311.12	31.418
311.48	33.108
311.85	33.111
312.22	32.283
312.58	32.556
312.95	33.883
313.31	32.678
313.68	32.645
314.05	34.249
314.41	34.916
314.78	34.470
315.14	36.114
315.51	35.762
315.87	33.668
316.24	36.041
316.61	36.885
316.97	34.954
317.34	36.388
317.70	36.962
318.07	38.256
318.43	37.786
318.80	38.091
319.16	38.899
319.53	38.850
319.89	38.441
320.26	39.385
320.62	41.209
320.99	41.277
321.35	40.353
321.72	43.454
322.08	41.828
322.45	43.597
322.81	43.824
323.18	44.849
323.54	44.861
323.91	47.507
324.27	47.038
324.64	47.837
325.00	48.966
325.37	52.024
325.73	48.904
326.10	50.953
326.46	50.784
326.83	49.760
327.19	52.610
327.56	54.073
327.92	54.426
328.29	53.846
328.65	57.021
329.01	56.202
329.38	57.614
329.74	56.020
330.11	58.210
330.47	57.033
330.84	58.412
331.20	58.629
331.56	58.636
331.93	60.992
332.29	58.759
332.66	60.204
333.02	60.567
333.38	61.257
333.75	60.467
334.11	60.990
334.48	61.966
334.84	60.135
335.20	61.420
335.57	59.950
335.93	62.069
336.29	61.277
336.66	62.350
337.02	61.249
337.38	61.307
337.75	62.078
338.11	61.519
338.47	60.965
338.84	61.219
339.20	62.338
339.56	62.574
339.93	62.625
340.29	61.261
340.65	62.364
341.02	62.108
341.38	61.658
341.74	63.372
342.11	63.439
342.47	62.100
342.83	63.659
343.20	62.409
343.56	60.445
343.92	62.015
344.28	63.078
344.65	64.385
345.01	61.429
345.37	62.821
345.73	63.175
346.10	61.912
346.46	62.998
346.82	61.265
347.19	62.365
347.55	61.905
347.91	62.764
348.27	62.587
348.63	63.449
349.00	62.452
349.36	63.191
349.72	64.679
350.08	64.208
350.45	62.757
350.81	63.226
351.17	62.943
351.53	63.048
351.89	63.092
352.26	61.905
352.62	62.971
352.98	63.497
353.34	65.639
353.70	62.462
354.07	62.615
354.43	64.055
354.79	62.794
355.15	62.864
355.51	64.124
355.87	63.705
356.24	64.126
356.60	63.090
356.96	64.291
357.32	62.849
357.68	63.142
358.04	63.222
358.40	63.643
358.77	63.711
359.13	63.138
359.49	64.715
359.85	64.780
360.21	64.339
360.57	65.547
360.93	65.079
361.29	65.873
361.66	64.579
362.02	63.565
362.38	65.512
362.74	66.596
363.10	65.217
363.46	63.674
363.82	64.236
364.18	64.651
364.54	66.023
364.90	65.127
365.26	65.510
365.62	63.743
365.98	64.143
366.35	64.414
366.71	66.065
367.07	65.256
367.43	65.413
367.79	63.830
368.15	63.501
368.51	65.817
368.87	66.101
369.23	65.835
369.59	64.059
369.95	66.643
370.31	64.066
370.67	65.718
371.03	65.196
371.39	65.720
371.75	66.504
372.11	66.757
372.47	66.781
372.83	66.893
373.19	66.347
373.55	65.223
373.91	65.193
374.27	64.550
374.63	66.508
374.99	66.981
375.35	67.070
375.71	65.897
376.07	66.711
376.42	65.409
376.78	67.309
377.14	67.366
377.50	66.167
377.86	66.624
378.22	66.301
378.58	67.797
378.94	68.377
379.30	66.707
379.66	66.586
380.02	66.452
380.38	67.272
380.74	67.474
381.09	67.757
381.45	65.434
381.81	67.730
382.17	67.094
382.53	68.626
382.89	65.937
383.25	67.318
383.61	66.744
383.97	66.167
384.32	68.957
384.68	68.449
385.04	67.937
385.40	67.378
385.76	67.057
386.12	68.151
386.48	68.693
386.83	69.071
387.19	67.668
387.55	67.314
387.91	67.610
388.27	69.423
388.62	66.843
388.98	66.356
389.34	66.746
389.70	67.394
390.06	69.512
390.42	68.106
390.77	66.278
391.13	68.558
391.49	66.364
391.85	70.831
392.20	69.249
392.56	68.817
392.92	66.423
393.28	67.769
393.64	66.399
393.99	67.635
394.35	67.628
394.71	67.370
395.07	67.518
395.42	68.677
395.78	68.846
396.14	69.578
396.50	67.990
396.85	68.049
397.21	67.148
397.57	67.962
397.92	68.053
398.28	68.505
398.64	67.888
399.00	67.397
399.35	66.237
399.71	68.322
400.07	68.436
400.42	68.478
400.78	67.625
401.14	67.880
401.49	67.051
401.85	67.903
402.21	67.897
402.57	68.282
402.92	69.152
403.28	67.124
403.63	67.393
403.99	69.059
404.35	69.226
404.70	69.462
405.06	66.592
405.42	68.642
405.77	67.751
406.13	66.161
406.49	67.368
406.84	66.328
407.20	67.580
407.55	68.246
407.91	68.666
408.27	68.890
408.62	67.889
408.98	67.830
409.34	65.576
409.69	67.704
410.05	67.740
410.40	67.138
410.76	67.373
411.11	67.713
411.47	66.975
411.83	67.018
412.18	67.512
412.54	68.769
412.89	66.136
413.25	67.731
413.60	68.049
413.96	68.462
414.31	67.355
414.67	68.218
415.03	68.582
415.38	68.707
415.74	68.035
416.09	68.332
416.45	68.520
416.80	69.981
417.16	67.728
417.51	67.006
417.87	68.085
418.22	68.226
418.58	69.236
418.93	67.936
419.29	69.131
419.64	67.414
420.00	69.749
420.35	70.093
420.71	68.261
421.06	68.452
421.42	68.969
421.77	69.184
422.12	68.578
422.48	67.540
422.83	68.304
423.19	69.600
423.54	68.513
423.90	69.932
424.25	70.116
424.61	69.472
424.96	69.509
425.31	68.966
425.67	69.697
426.02	70.050
426.38	69.428
426.73	71.255
427.09	69.751
427.44	70.400
427.79	71.755
428.15	71.067
428.50	70.457
428.85	70.018
429.21	69.314
429.56	69.242
429.92	69.269
430.27	68.844
430.62	67.988
430.98	68.713
431.33	68.649
431.68	68.148
432.04	68.857
432.39	71.131
432.74	70.316
433.10	72.038
433.45	71.511
433.80	71.704
434.16	70.730
434.51	70.691
434.86	72.020
435.22	72.123
435.57	71.014
435.92	72.453
436.28	72.005
436.63	71.421
436.98	73.086
437.34	71.233
437.69	70.101
438.04	71.720
438.39	71.745
438.75	71.047
439.10	71.775
439.45	70.548
439.81	72.701
440.16	72.922
440.51	71.734
440.86	72.365
441.22	71.429
441.57	71.654
441.92	70.879
442.27	72.113
442.63	71.443
442.98	71.552
443.33	72.094
443.68	71.982
444.03	72.055
444.39	72.693
444.74	71.843
445.09	70.932
445.44	71.626
445.79	72.466
446.15	71.789
446.50	72.627
446.85	71.016
447.20	72.836
447.55	73.464
447.91	72.563
448.26	72.045
448.61	73.853
448.96	73.856
449.31	72.607
449.66	72.315
450.02	73.528
450.37	73.626
450.72	73.664
451.07	72.775
451.42	72.673
451.77	73.482
452.12	73.057
452.47	74.241
452.83	74.197
453.18	73.514
453.53	74.245
453.88	75.257
454.23	73.562
454.58	72.494
454.93	73.636
455.28	73.990
455.63	75.236
455.98	74.112
456.34	75.319
456.69	75.183
457.04	74.881
457.39	74.971
457.74	74.268
458.09	73.217
458.44	73.658
458.79	73.369
459.14	74.523
459.49	74.066
459.84	74.185
460.19	73.333
460.54	73.618
460.89	74.680
461.24	72.566
461.59	74.717
461.94	73.050
462.29	75.000
462.64	74.874
462.99	74.216
463.34	73.364
463.69	75.197
464.04	75.360
464.39	74.242
464.74	73.623
465.09	72.896
465.44	74.320
465.79	74.251
466.14	73.026
466.49	74.010
466.84	74.582
467.19	74.634
467.54	73.994
467.89	74.824
468.24	75.333
468.59	74.167
468.94	75.060
469.29	75.199
469.64	76.270
469.99	75.193
470.34	74.953
470.68	76.069
471.03	75.317
471.38	76.225
471.73	75.441
472.08	77.691
472.43	77.405
472.78	76.120
473.13	74.656
473.48	75.978
473.83	74.676
474.17	75.198
474.52	75.178
474.87	74.815
475.22	76.242
475.57	74.502
475.92	74.348
476.27	73.395
476.61	75.496
476.96	73.981
477.31	77.069
477.66	75.523
478.01	74.368
478.36	75.077
478.70	74.491
479.05	75.418
479.40	74.752
479.75	75.819
480.10	76.089
480.45	74.837
480.79	74.562
481.14	74.988
481.49	73.696
481.84	73.219
482.19	74.498
482.53	73.737
482.88	74.776
483.23	75.192
483.58	75.404
483.92	74.771
484.27	74.700
484.62	74.533
484.97	72.848
485.31	71.713
485.66	69.241
486.01	68.006
486.36	66.661
486.70	66.645
487.05	68.670
487.40	69.041
487.75	70.462
488.09	70.852
488.44	71.319
488.79	72.232
489.13	74.244
489.48	74.790
489.83	73.478
490.17	74.401
490.52	74.591
490.87	74.397
491.22	75.709
491.56	75.670
491.91	75.403
492.26	75.857
492.60	76.446
492.95	75.623
493.30	75.205
493.64	76.056
493.99	74.553
494.34	75.527
494.68	76.096
495.03	75.483
495.37	75.552
495.72	76.597
496.07	76.415
496.41	75.282
496.76	73.955
497.11	74.593
497.45	73.477
497.80	76.367
498.14	75.497
498.49	75.395
498.84	75.935
499.18	74.909
499.53	75.838
499.87	75.157
500.22	76.969
500.56	76.091
500.91	77.365
501.26	75.425
501.60	76.412
501.95	75.672
502.29	75.422
502.64	74.768
502.98	74.789
503.33	76.258
503.67	74.614
504.02	74.787
504.36	76.199
504.71	76.821
505.06	76.584
505.40	75.339
505.75	75.631
506.09	75.268
506.44	76.222
506.78	76.465
507.13	77.702
507.47	77.244
507.82	77.713
508.16	76.629
508.51	77.101
508.85	76.591
509.19	77.093
509.54	76.172
509.88	77.623
510.23	75.833
510.57	77.075
510.92	77.822
511.26	78.564
511.61	75.923
511.95	76.655
512.30	77.600
512.64	77.726
512.98	78.114
513.33	77.254
513.67	77.369
514.02	76.779
514.36	79.232
514.70	79.093
515.05	79.062
515.39	80.208
515.74	78.841
516.08	79.357
516.42	81.585
516.77	79.040
517.11	79.733
517.46	78.933
517.80	80.229
518.14	80.958
518.49	78.556
518.83	79.011
519.17	79.645
519.52	80.011
519.86	79.292
520.20	79.507
520.55	80.554
520.89	80.575
521.23	81.600
521.58	79.461
521.92	80.292
522.26	81.043
522.61	82.531
522.95	82.643
523.29	81.696
523.64	81.734
523.98	82.629
524.32	79.123
524.66	79.304
525.01	81.598
525.35	79.788
525.69	81.397
526.04	82.153
526.38	80.165
526.72	80.310
527.06	80.840
527.41	81.258
527.75	81.132
528.09	80.975
528.43	81.513
528.78	81.395
529.12	81.638
529.46	79.778
529.80	80.841
530.15	78.550
530.49	79.964
530.83	81.170
531.17	80.873
531.51	81.116
531.86	78.986
532.20	79.419
532.54	81.356
532.88	80.700
533.22	81.170
533.57	81.330
533.91	79.021
534.25	78.073
534.59	79.883
534.93	78.498
535.27	77.348
535.62	79.055
535.96	79.019
536.30	80.804
536.64	79.752
536.98	79.421
537.32	79.125
537.66	80.421
538.01	78.762
538.35	78.915
538.69	79.369
539.03	80.224
539.37	78.095
539.71	78.889
540.05	78.892
540.39	80.440
540.73	79.430
541.07	79.925
541.42	79.229
541.76	79.840
542.10	79.346
542.44	79.925
542.78	79.295
543.12	77.853
543.46	78.321
543.80	79.511
544.14	79.319
544.48	78.954
544.82	78.349
545.16	77.110
545.50	78.734
545.84	78.598
546.18	81.730
546.52	80.197
546.86	79.691
547.20	79.134
547.54	78.341
547.88	79.258
548.22	79.417
548.56	76.429
548.90	76.275
549.24	78.838
549.58	78.608
549.92	80.157
550.26	81.474
550.60	79.840
550.94	81.818
551.28	80.690
551.62	81.586
551.96	79.865
552.30	78.115
552.64	80.000
552.98	79.575
553.32	78.233
553.66	78.111
554.00	79.730
554.34	80.826
554.68	79.301
555.02	79.905
555.36	79.056
555.69	78.534
556.03	78.662
556.37	78.521
556.71	80.183
557.05	78.506
557.39	79.200
557.73	80.930
558.07	79.812
558.41	81.014
558.75	80.575
559.08	81.916
559.42	82.319
559.76	82.110
560.10	81.142
560.44	79.628
560.78	78.197
561.12	79.784
561.45	79.725
561.79	77.091
562.13	80.164
562.47	80.532
562.81	79.440
563.15	78.992
563.48	75.776
563.82	80.536
564.16	79.229
564.50	76.371
564.84	78.237
565.17	77.718
565.51	78.140
565.85	79.457
566.19	78.988
566.52	77.437
566.86	78.926
567.20	76.292
567.54	75.873
567.88	76.787
568.21	74.089
568.55	75.389
568.89	72.582
569.23	71.441
569.56	72.564
569.90	68.739
570.24	69.063
570.57	67.651
570.91	68.487
571.25	66.993
571.59	65.144
571.92	65.339
572.26	65.472
572.60	65.648
572.93	66.935
573.27	66.399
573.61	66.026
573.95	65.413
574.28	65.778
574.62	64.881
574.96	64.060
575.29	63.754
575.63	64.005
575.97	63.705
576.30	64.034
576.64	64.413
576.98	64.291
577.31	64.882
577.65	63.953
577.98	62.940
578.32	61.911
578.66	62.986
578.99	62.933
579.33	63.419
579.67	64.366
580.00	63.357
580.34	63.277
580.67	62.998
581.01	64.099
581.35	62.910
581.68	62.188
582.02	61.921
582.35	61.469
582.69	62.023
583.02	62.817
583.36	63.531
583.70	64.630
584.03	65.772
584.37	65.674
584.70	64.170
585.04	64.073
585.37	63.864
585.71	63.933
586.04	63.916
586.38	64.161
586.72	64.685
587.05	64.488
587.39	65.563
587.72	64.699
588.06	64.639
588.39	64.432
588.73	64.832
589.06	66.355
589.40	67.230
589.73	66.241
590.07	67.811
590.40	67.979
590.73	69.152
591.07	68.918
591.40	70.220
591.74	69.886
592.07	69.800
592.41	68.545
592.74	67.997
593.08	65.658
593.41	65.230
593.75	64.568
594.08	65.753
594.41	66.373
594.75	67.055
595.08	67.250
595.42	66.458
595.75	65.877
596.09	67.327
596.42	68.063
596.75	69.912
597.09	69.831
597.42	68.163
597.75	68.276
598.09	68.855
598.42	68.217
598.76	66.808
599.09	68.408
599.42	65.398
599.76	66.147
600.09	65.017
600.42	66.126
600.76	66.893
601.09	67.276
601.42	66.843
601.76	66.595
602.09	67.660
602.42	67.172
602.76	67.287
603.09	68.062
603.42	67.303
603.76	67.860
604.09	67.137
604.42	68.173
604.76	68.669
605.09	67.796
605.42	67.493
605.75	67.075
606.09	67.292
606.42	66.253
606.75	67.470
607.09	67.509
607.42	68.421
607.75	67.556
608.08	66.247
608.42	67.827
608.75	69.020
609.08	68.984
609.41	70.091
609.75	69.872
610.08	69.514
610.41	68.467
610.74	70.000
611.07	69.668
611.41	70.714
611.74	70.985
612.07	69.461
612.40	70.663
612.73	71.443
613.07	72.377
613.40	72.732
613.73	71.143
614.06	70.000
614.39	70.606
614.72	71.572
615.06	70.524
615.39	69.802
615.72	70.426
616.05	71.673
616.38	70.827
616.71	71.514
617.05	72.543
617.38	72.303
617.71	74.241
618.04	71.901
618.37	72.985
618.70	72.402
619.03	75.031
619.36	75.503
619.69	75.396
620.03	77.691
620.36	74.695
620.69	75.607
621.02	76.630
621.35	76.504
621.68	78.687
622.01	78.819
622.34	77.786
622.67	77.528
623.00	76.378
623.33	76.316
623.66	75.981
623.99	76.712
624.32	75.745
624.65	74.589
624.99	76.606
625.32	76.620
625.65	75.724
625.98	76.569
626.31	79.451
626.64	78.664
626.97	79.036
627.30	80.512
627.63	81.005
627.96	80.360
628.29	82.838
628.62	80.325
628.95	81.738
629.28	85.539
629.61	84.183
629.94	82.887
630.26	80.936
630.59	83.511
630.92	82.332
