SpectraSuite Data File
++++++++++++++++++++++++++++++++++++
Date: Tue May 12 15:20:03 PDT 2015
User: schluterlab
Dark Spectrum Present: Yes
Reference Spectrum Present: Yes
Number of Sampled Component Spectra: 1
Spectrometers: USB2E3373
Integration Time (usec): 3000 (USB2E3373)
Spectra Averaged: 3 (USB2E3373)
Boxcar Smoothing: 0 (USB2E3373)
Correct for Electrical Dark: No (USB2E3373)
Strobe/Lamp Enabled: No (USB2E3373)
Correct for Detector Non-linearity: No (USB2E3373)
Correct for Stray Light: No (USB2E3373)
Number of Pixels in Processed Spectrum: 2048
>>>>>Begin Processed Spectral Data<<<<<
178.53	0.000
178.91	-191.667
179.29	-625.000
179.67	-3000.000
180.04	-66.667
180.42	775.000
180.80	1150.000
181.18	0.000
181.56	-225.000
181.94	0.000
182.31	1366.667
182.69	-2900.000
183.07	500.000
183.45	-3000.000
183.83	-1600.000
184.20	380.000
184.58	414.286
184.96	-246.154
185.34	-141.667
185.72	1250.000
186.09	-650.000
186.47	-3100.000
186.85	900.000
187.23	580.000
187.61	2200.000
187.98	487.500
188.36	221.429
188.74	341.667
189.12	266.667
189.49	750.000
189.87	0.000
190.25	412.500
190.63	2700.000
191.00	-258.333
191.38	-3000.000
191.76	-650.000
192.14	562.500
192.51	-3000.000
192.89	1650.000
193.27	933.333
193.65	-600.000
194.02	-500.000
194.40	528.571
194.78	-150.000
195.15	240.000
195.53	-2000.000
195.91	-580.000
196.29	3400.000
196.66	231.250
197.04	700.000
197.42	-1550.000
197.79	700.000
198.17	300.000
198.55	0.000
198.92	514.286
199.30	900.000
199.68	1900.000
200.05	616.667
200.43	-400.000
200.81	200.000
201.18	2500.000
201.56	266.667
201.94	-575.000
202.31	-312.500
202.69	-480.000
203.07	3300.000
203.44	-516.667
203.82	275.000
204.19	500.000
204.57	-850.000
204.95	-675.000
205.32	-720.000
205.70	516.667
206.08	550.000
206.45	-733.333
206.83	355.556
207.20	178.947
207.58	233.333
207.96	660.000
208.33	0.000
208.71	428.571
209.08	660.000
209.46	-2300.000
209.84	-725.000
210.21	840.000
210.59	-620.000
210.96	250.000
211.34	-700.000
211.71	300.000
212.09	950.000
212.46	1500.000
212.84	-433.333
213.22	355.556
213.59	-3400.000
213.97	410.000
214.34	975.000
214.72	1066.667
215.09	1000.000
215.47	-2800.000
215.84	-330.000
216.22	-287.500
216.59	0.000
216.97	0.000
217.34	1250.000
217.72	-1750.000
218.09	966.667
218.47	487.500
218.84	900.000
219.22	1033.333
219.59	1066.667
219.97	528.571
220.34	377.778
220.72	1450.000
221.09	3000.000
221.47	250.000
221.84	1100.000
222.22	250.000
222.59	150.000
222.97	192.857
223.34	181.250
223.72	-1500.000
224.09	900.000
224.46	269.231
224.84	-800.000
225.21	433.333
225.59	166.667
225.96	1233.333
226.34	-560.000
226.71	-750.000
227.08	-340.000
227.46	0.000
227.83	-600.000
228.21	-1850.000
228.58	425.000
228.95	1150.000
229.33	422.222
229.70	1000.000
230.08	384.615
230.45	3000.000
230.82	-975.000
231.20	-400.000
231.57	-966.667
231.95	560.000
232.32	216.667
232.69	450.000
233.07	208.333
233.44	-1300.000
233.81	240.000
234.19	92.593
234.56	231.250
234.93	211.765
235.31	205.000
235.68	225.000
236.05	153.571
236.43	155.556
236.80	207.143
237.17	168.966
237.55	103.125
237.92	95.000
238.29	130.303
238.67	93.750
239.04	82.927
239.41	56.250
239.79	70.000
240.16	102.083
240.53	54.098
240.91	47.826
241.28	74.576
241.65	56.061
242.02	78.873
242.40	51.429
242.77	47.253
243.14	43.038
243.51	51.515
243.89	47.664
244.26	35.514
244.63	35.644
245.00	51.376
245.38	33.051
245.75	32.576
246.12	37.037
246.49	31.206
246.87	31.967
247.24	34.667
247.61	40.000
247.98	35.374
248.36	27.879
248.73	39.796
249.10	32.143
249.47	24.500
249.84	29.851
250.22	30.270
250.59	24.000
250.96	27.848
251.33	28.372
251.70	25.893
252.08	29.832
252.45	23.904
252.82	26.236
253.19	25.692
253.56	21.538
253.94	22.464
254.31	25.194
254.68	25.436
255.05	25.517
255.42	26.277
255.79	24.104
256.16	22.034
256.54	26.299
256.91	23.856
257.28	22.742
257.65	21.944
258.02	18.289
258.39	20.917
258.76	24.348
259.14	19.714
259.51	23.032
259.88	21.581
260.25	18.407
260.62	20.548
260.99	16.253
261.36	20.891
261.73	23.670
262.10	21.466
262.47	20.000
262.85	17.600
263.22	21.851
263.59	18.159
263.96	21.554
264.33	19.506
264.70	18.673
265.07	22.195
265.44	19.954
265.81	19.811
266.18	19.680
266.55	18.203
266.92	16.779
267.29	19.518
267.66	17.713
268.03	17.489
268.40	21.987
268.77	20.485
269.14	16.703
269.51	16.704
269.88	19.592
270.25	15.767
270.62	20.386
270.99	20.081
271.36	19.919
271.73	16.771
272.10	17.374
272.47	18.452
272.84	18.164
273.21	17.769
273.58	17.611
273.95	16.016
274.32	18.677
274.69	18.110
275.06	18.579
275.43	18.966
275.80	14.528
276.17	18.199
276.54	17.757
276.91	19.776
277.28	15.693
277.65	15.498
278.02	17.279
278.39	16.367
278.76	18.276
279.13	17.438
279.50	19.636
279.87	17.318
280.23	17.864
280.60	16.241
280.97	17.414
281.34	17.987
281.71	16.174
282.08	17.949
282.45	15.372
282.82	17.224
283.19	15.739
283.56	15.868
283.92	17.264
284.29	16.805
284.66	15.462
285.03	16.915
285.40	15.702
285.77	17.130
286.14	17.647
286.51	16.564
286.87	15.981
287.24	14.865
287.61	15.046
287.98	15.970
288.35	14.222
288.72	14.871
289.08	16.216
289.45	15.854
289.82	15.625
290.19	13.909
290.56	16.303
290.93	15.683
291.29	13.260
291.66	14.689
292.03	15.568
292.40	15.583
292.77	14.903
293.13	15.121
293.50	14.980
293.87	13.821
294.24	14.406
294.60	16.285
294.97	15.245
295.34	16.202
295.71	15.769
296.08	15.067
296.44	15.121
296.81	13.524
297.18	13.688
297.55	16.010
297.91	14.409
298.28	14.493
298.65	14.724
299.02	15.320
299.38	14.748
299.75	15.244
300.12	15.367
300.48	15.222
300.85	16.925
301.22	15.698
301.59	13.797
301.95	15.053
302.32	15.367
302.69	15.498
303.05	16.162
303.42	15.022
303.79	13.868
304.15	14.741
304.52	16.068
304.89	17.271
305.25	16.129
305.62	16.418
305.99	16.304
306.35	14.105
306.72	15.713
307.09	14.803
307.45	14.150
307.82	15.947
308.19	16.082
308.55	15.800
308.92	17.272
309.29	15.878
309.65	15.758
310.02	16.227
310.38	14.955
310.75	15.043
311.12	15.421
311.48	17.085
311.85	15.267
312.22	15.855
312.58	15.258
312.95	16.408
313.31	16.760
313.68	16.323
314.05	16.300
314.41	15.456
314.78	16.761
315.14	16.588
315.51	18.070
315.87	17.062
316.24	16.993
316.61	15.667
316.97	16.147
317.34	16.801
317.70	16.067
318.07	16.815
318.43	18.453
318.80	18.301
319.16	17.920
319.53	17.699
319.89	16.935
320.26	18.529
320.62	19.139
320.99	16.492
321.35	17.532
321.72	19.734
322.08	19.483
322.45	18.529
322.81	17.841
323.18	18.028
323.54	18.641
323.91	20.127
324.27	19.098
324.64	18.166
325.00	19.569
325.37	18.634
325.73	19.815
326.10	18.641
326.46	19.983
326.83	18.720
327.19	20.241
327.56	19.649
327.92	21.557
328.29	20.786
328.65	21.661
329.01	20.701
329.38	21.404
329.74	19.556
330.11	20.330
330.47	21.483
330.84	20.708
331.20	20.389
331.56	22.021
331.93	21.300
332.29	20.238
332.66	21.259
333.02	21.564
333.38	20.681
333.75	21.601
334.11	21.057
334.48	20.513
334.84	20.101
335.20	21.215
335.57	21.998
335.93	21.531
336.29	20.730
336.66	21.612
337.02	20.873
337.38	21.152
337.75	20.355
338.11	20.759
338.47	21.423
338.84	21.169
339.20	20.260
339.56	21.026
339.93	21.237
340.29	19.664
340.65	20.956
341.02	22.446
341.38	20.443
341.74	20.515
342.11	20.200
342.47	20.263
342.83	21.329
343.20	21.584
343.56	20.016
343.92	20.479
344.28	20.893
344.65	20.864
345.01	21.032
345.37	20.513
345.73	20.079
346.10	20.000
346.46	21.850
346.82	19.367
347.19	20.866
347.55	20.297
347.91	20.393
348.27	19.132
348.63	21.519
349.00	21.173
349.36	20.856
349.72	20.948
350.08	21.429
350.45	21.249
350.81	20.948
351.17	20.108
351.53	19.938
351.89	19.969
352.26	20.333
352.62	20.513
352.98	21.012
353.34	20.493
353.70	19.801
354.07	20.692
354.43	21.352
354.79	19.742
355.15	21.057
355.51	21.224
355.87	20.030
356.24	20.862
356.60	20.167
356.96	21.759
357.32	21.100
357.68	20.705
358.04	20.821
358.40	21.664
358.77	20.361
359.13	20.796
359.49	19.644
359.85	20.625
360.21	19.539
360.57	20.730
360.93	20.635
361.29	21.429
361.66	21.178
362.02	20.099
362.38	20.779
362.74	20.948
363.10	21.459
363.46	20.856
363.82	21.669
364.18	21.337
364.54	21.102
364.90	20.950
365.26	21.305
365.62	21.478
365.98	20.303
366.35	20.276
366.71	20.194
367.07	20.819
367.43	20.887
367.79	20.412
368.15	20.014
368.51	20.400
368.87	20.924
369.23	21.622
369.59	20.971
369.95	22.098
370.31	20.465
370.67	20.402
371.03	21.989
371.39	20.983
371.75	21.075
372.11	21.618
372.47	21.233
372.83	20.530
373.19	21.933
373.55	21.100
373.91	21.202
374.27	19.775
374.63	21.695
374.99	21.361
375.35	20.968
375.71	20.844
376.07	21.817
376.42	20.205
376.78	21.130
377.14	21.887
377.50	20.911
377.86	21.397
378.22	21.207
378.58	21.731
378.94	21.485
379.30	20.982
379.66	20.951
380.02	21.935
380.38	20.141
380.74	22.318
381.09	21.612
381.45	20.867
381.81	21.395
382.17	20.818
382.53	21.716
382.89	21.112
383.25	22.499
383.61	20.115
383.97	20.936
384.32	21.278
384.68	22.222
385.04	21.688
385.40	21.293
385.76	21.299
386.12	21.088
386.48	22.675
386.83	21.699
387.19	21.849
387.55	21.260
387.91	21.305
388.27	21.118
388.62	21.244
388.98	21.808
389.34	21.356
389.70	21.757
390.06	21.159
390.42	21.345
390.77	21.867
391.13	21.485
391.49	21.476
391.85	22.031
392.20	21.216
392.56	21.505
392.92	22.066
393.28	20.964
393.64	21.273
393.99	21.399
394.35	21.071
394.71	20.989
395.07	22.141
395.42	20.843
395.78	22.702
396.14	22.530
396.50	21.661
396.85	21.341
397.21	21.961
397.57	22.295
397.92	20.508
398.28	20.905
398.64	21.233
399.00	21.432
399.35	20.021
399.71	21.523
400.07	20.719
400.42	20.836
400.78	21.642
401.14	21.961
401.49	20.507
401.85	21.958
402.21	20.621
402.57	21.544
402.92	21.697
403.28	20.167
403.63	21.483
403.99	21.291
404.35	20.868
404.70	21.737
405.06	20.887
405.42	21.005
405.77	21.885
406.13	21.258
406.49	20.125
406.84	20.925
407.20	21.918
407.55	20.800
407.91	22.144
408.27	21.528
408.62	20.757
408.98	20.461
409.34	20.923
409.69	20.971
410.05	21.884
410.40	20.907
410.76	20.778
411.11	20.853
411.47	21.111
411.83	21.441
412.18	21.256
412.54	21.682
412.89	20.885
413.25	22.178
413.60	20.970
413.96	21.484
414.31	20.838
414.67	22.284
415.03	21.711
415.38	22.019
415.74	21.857
416.09	21.549
416.45	22.495
416.80	22.130
417.16	21.451
417.51	22.420
417.87	21.652
418.22	21.264
418.58	22.102
418.93	20.880
419.29	21.442
419.64	21.866
420.00	22.613
420.35	21.312
420.71	21.937
421.06	21.012
421.42	21.589
421.77	22.432
422.12	21.224
422.48	20.904
422.83	23.214
423.19	22.408
423.54	21.284
423.90	23.273
424.25	22.179
424.61	22.171
424.96	22.643
425.31	22.496
425.67	22.222
426.02	22.546
426.38	21.937
426.73	22.846
427.09	22.539
427.44	21.328
427.79	22.870
428.15	23.217
428.50	23.771
428.85	23.280
429.21	22.690
429.56	22.582
429.92	23.173
430.27	23.125
430.62	22.859
430.98	22.754
431.33	21.976
431.68	21.580
432.04	22.607
432.39	22.777
432.74	24.005
433.10	23.699
433.45	23.894
433.80	24.600
434.16	23.857
434.51	23.581
434.86	23.680
435.22	23.339
435.57	23.948
435.92	23.506
436.28	24.366
436.63	23.663
436.98	24.268
437.34	24.543
437.69	23.516
438.04	23.710
438.39	24.460
438.75	23.664
439.10	23.853
439.45	23.855
439.81	23.713
440.16	24.051
440.51	24.381
440.86	24.615
441.22	24.405
441.57	24.672
441.92	24.087
442.27	23.814
442.63	24.035
442.98	24.030
443.33	23.781
443.68	25.151
444.03	23.704
444.39	24.765
444.74	23.965
445.09	24.592
445.44	23.964
445.79	24.903
446.15	23.895
446.50	24.051
446.85	24.104
447.20	24.129
447.55	24.470
447.91	25.093
448.26	24.707
448.61	24.876
448.96	24.673
449.31	24.532
449.66	25.028
450.02	24.419
450.37	25.264
450.72	24.904
451.07	25.364
451.42	25.311
451.77	25.716
452.12	25.071
452.47	25.516
452.83	25.577
453.18	26.547
453.53	26.347
453.88	25.543
454.23	25.857
454.58	25.058
454.93	25.812
455.28	25.520
455.63	25.650
455.98	25.155
456.34	25.957
456.69	25.000
457.04	25.537
457.39	25.371
457.74	26.802
458.09	25.997
458.44	25.520
458.79	25.464
459.14	25.259
459.49	26.331
459.84	26.033
460.19	26.271
460.54	25.356
460.89	25.640
461.24	26.117
461.59	26.361
461.94	25.355
462.29	25.343
462.64	26.005
462.99	25.528
463.34	25.599
463.69	25.832
464.04	26.655
464.39	25.644
464.74	24.971
465.09	25.247
465.44	25.952
465.79	24.769
466.14	24.536
466.49	26.316
466.84	24.972
467.19	26.948
467.54	25.946
467.89	26.174
468.24	24.957
468.59	25.000
468.94	25.725
469.29	26.268
469.64	26.174
469.99	25.707
470.34	26.565
470.68	25.517
471.03	26.484
471.38	25.894
471.73	25.539
472.08	26.745
472.43	27.685
472.78	26.376
473.13	26.408
473.48	26.039
473.83	26.148
474.17	25.957
474.52	25.178
474.87	24.957
475.22	25.985
475.57	24.974
475.92	25.652
476.27	24.810
476.61	25.523
476.96	25.810
477.31	25.450
477.66	25.550
478.01	26.199
478.36	25.232
478.70	25.509
479.05	25.628
479.40	25.099
479.75	25.571
480.10	26.089
480.45	25.350
480.79	26.313
481.14	25.155
481.49	25.023
481.84	25.726
482.19	25.153
482.53	25.428
482.88	24.776
483.23	25.846
483.58	25.180
483.92	26.051
484.27	26.027
484.62	25.255
484.97	24.815
485.31	24.206
485.66	23.985
486.01	23.251
486.36	22.635
486.70	22.357
487.05	22.619
487.40	23.504
487.75	24.015
488.09	23.864
488.44	24.474
488.79	24.471
489.13	25.121
489.48	25.370
489.83	24.854
490.17	24.690
490.52	24.978
490.87	25.474
491.22	25.266
491.56	25.604
491.91	25.448
492.26	24.989
492.60	24.966
492.95	25.600
493.30	25.296
493.64	24.888
493.99	25.224
494.34	24.966
494.68	25.985
495.03	25.415
495.37	25.439
495.72	25.455
496.07	25.022
496.41	25.760
496.76	25.116
497.11	25.450
497.45	25.427
497.80	24.791
498.14	25.428
498.49	24.884
498.84	25.654
499.18	25.000
499.53	25.310
499.87	25.247
500.22	25.610
500.56	25.302
500.91	26.020
501.26	26.183
501.60	25.638
501.95	24.866
502.29	25.689
502.64	25.584
502.98	24.944
503.33	25.301
503.67	25.430
504.02	24.899
504.36	25.520
504.71	25.922
505.06	25.293
505.40	24.942
505.75	25.398
506.09	26.132
506.44	25.658
506.78	25.709
507.13	26.030
507.47	25.764
507.82	25.888
508.16	26.262
508.51	25.749
508.85	25.071
509.19	26.040
509.54	25.439
509.88	26.455
510.23	25.392
510.57	25.241
510.92	25.924
511.26	25.803
511.61	25.505
511.95	25.585
512.30	25.600
512.64	26.791
512.98	26.192
513.33	26.639
513.67	25.738
514.02	26.130
514.36	26.272
514.70	26.880
515.05	26.425
515.39	25.877
515.74	27.665
516.08	26.362
516.42	27.541
516.77	26.987
517.11	26.133
517.46	26.940
517.80	26.707
518.14	27.662
518.49	26.736
518.83	26.429
519.17	27.177
519.52	26.761
519.86	26.376
520.20	26.575
520.55	26.908
520.89	27.299
521.23	27.336
521.58	27.252
521.92	27.230
522.26	27.666
522.61	27.926
522.95	28.108
523.29	28.012
523.64	26.474
523.98	27.289
524.32	27.220
524.66	26.957
525.01	26.746
525.35	26.576
525.69	27.273
526.04	27.722
526.38	27.722
526.72	27.267
527.06	27.617
527.41	27.932
527.75	28.119
528.09	26.550
528.43	26.724
528.78	27.072
529.12	27.333
529.46	26.534
529.80	27.103
530.15	26.989
530.49	26.715
530.83	27.057
531.17	27.429
531.51	27.039
531.86	27.355
532.20	27.256
532.54	26.868
532.88	27.545
533.22	26.935
533.57	26.785
533.91	26.340
534.25	26.255
534.59	26.023
534.93	26.678
535.27	25.327
535.62	25.729
535.96	26.596
536.30	27.544
536.64	26.025
536.98	26.683
537.32	27.188
537.66	25.638
538.01	26.502
538.35	27.636
538.69	26.578
539.03	26.679
539.37	27.367
539.71	27.222
540.05	26.769
540.39	26.289
540.73	26.899
541.07	25.345
541.42	25.995
541.76	26.017
542.10	26.017
542.44	27.307
542.78	26.306
543.12	25.951
543.46	25.376
543.80	26.692
544.14	26.068
544.48	26.095
544.82	26.911
545.16	26.108
545.50	26.490
545.84	26.894
546.18	27.373
546.52	27.344
546.86	26.435
547.20	27.778
547.54	26.472
547.88	25.791
548.22	26.533
548.56	26.046
548.90	26.157
549.24	26.974
549.58	25.966
549.92	27.177
550.26	26.234
550.60	26.880
550.94	27.341
551.28	28.276
551.62	28.138
551.96	26.757
552.30	25.247
552.64	27.120
552.98	25.773
553.32	26.120
553.66	26.515
554.00	26.190
554.34	26.964
554.68	28.226
555.02	26.612
555.36	26.662
555.69	27.225
556.03	26.306
556.37	25.685
556.71	27.445
557.05	25.950
557.39	26.533
557.73	26.819
558.07	26.224
558.41	28.101
558.75	27.975
559.08	27.949
559.42	26.557
559.76	26.657
560.10	26.428
560.44	26.676
560.78	27.238
561.12	25.938
561.45	25.532
561.79	25.968
562.13	26.027
562.47	27.125
562.81	26.545
563.15	26.309
563.48	25.404
563.82	26.825
564.16	26.679
564.50	25.618
564.84	25.532
565.17	25.074
565.51	26.786
565.85	26.712
566.19	25.595
566.52	25.752
566.86	26.328
567.20	26.236
567.54	25.437
567.88	25.717
568.21	24.713
568.55	23.881
568.89	23.996
569.23	24.418
569.56	23.562
569.90	23.428
570.24	23.612
570.57	23.491
570.91	22.496
571.25	22.094
571.59	22.504
571.92	21.636
572.26	21.240
572.60	21.383
572.93	22.628
573.27	22.286
573.61	21.738
573.95	22.161
574.28	21.474
574.62	21.681
574.96	20.796
575.29	21.078
575.63	20.730
575.97	21.081
576.30	20.805
576.64	21.503
576.98	21.198
577.31	21.747
577.65	20.991
577.98	20.916
578.32	20.387
578.66	20.315
578.99	21.061
579.33	21.335
579.67	20.863
580.00	20.844
580.34	20.988
580.67	20.425
581.01	21.440
581.35	20.930
581.68	20.615
582.02	20.040
582.35	20.060
582.69	20.547
583.02	20.767
583.36	20.797
583.70	21.305
584.03	21.849
584.37	22.060
584.70	21.473
585.04	21.175
585.37	20.717
585.71	21.213
586.04	20.936
586.38	21.187
586.72	21.493
587.05	21.693
587.39	21.214
587.72	21.103
588.06	21.132
588.39	21.904
588.73	21.220
589.06	21.768
589.40	22.567
589.73	21.960
590.07	22.787
590.40	22.753
590.73	24.018
591.07	23.150
591.40	23.473
591.74	22.403
592.07	23.502
592.41	23.221
592.74	22.849
593.08	21.973
593.41	21.335
593.75	21.874
594.08	21.682
594.41	21.766
594.75	22.055
595.08	22.942
595.42	22.844
595.75	22.310
596.09	22.871
596.42	22.469
596.75	22.877
597.09	23.690
597.42	22.776
597.75	22.150
598.09	23.430
598.42	23.623
598.76	22.513
599.09	22.692
599.42	22.076
599.76	22.049
600.09	21.593
600.42	22.030
600.76	22.706
601.09	22.610
601.42	22.386
601.76	22.198
602.09	22.664
602.42	21.848
602.76	22.391
603.09	23.077
603.42	22.532
603.76	22.162
604.09	22.077
604.42	22.750
604.76	22.481
605.09	23.429
605.42	23.121
605.75	22.740
606.09	22.800
606.42	22.360
606.75	22.153
607.09	22.542
607.42	22.137
607.75	23.010
608.08	22.258
608.42	23.238
608.75	22.251
609.08	22.877
609.41	23.318
609.75	23.581
610.08	23.471
610.41	23.144
610.74	22.814
611.07	23.784
611.41	23.865
611.74	23.375
612.07	23.410
612.40	24.610
612.73	23.665
613.07	23.822
613.40	23.409
613.73	24.164
614.06	22.950
614.39	24.394
614.72	23.606
615.06	23.937
615.39	23.812
615.72	23.524
616.05	23.958
616.38	24.252
616.71	23.928
617.05	23.668
617.38	23.933
617.71	24.578
618.04	24.117
618.37	24.402
618.70	24.365
619.03	24.542
619.36	25.314
619.69	25.330
620.03	25.506
620.36	25.177
620.69	25.926
621.02	26.155
621.35	25.860
621.68	26.622
622.01	26.199
622.34	25.710
622.67	25.843
623.00	25.323
623.33	24.966
623.66	25.749
623.99	26.164
624.32	25.271
624.65	25.148
624.99	26.031
625.32	24.516
625.65	24.828
625.98	25.802
626.31	26.187
626.64	26.348
626.97	25.861
627.30	26.475
627.63	27.786
627.96	26.135
628.29	26.073
628.62	26.005
628.95	27.571
629.28	28.046
629.61	27.856
629.94	27.744
630.26	26.863
630.59	27.660
630.92	26.816
631.25	28.558
