SpectraSuite Data File
++++++++++++++++++++++++++++++++++++
Date: Tue May 12 15:22:24 PDT 2015
User: schluterlab
Dark Spectrum Present: Yes
Reference Spectrum Present: Yes
Number of Sampled Component Spectra: 1
Spectrometers: USB2E3373
Integration Time (usec): 3000 (USB2E3373)
Spectra Averaged: 3 (USB2E3373)
Boxcar Smoothing: 0 (USB2E3373)
Correct for Electrical Dark: No (USB2E3373)
Strobe/Lamp Enabled: No (USB2E3373)
Correct for Detector Non-linearity: No (USB2E3373)
Correct for Stray Light: No (USB2E3373)
Number of Pixels in Processed Spectrum: 2048
>>>>>Begin Processed Spectral Data<<<<<
178.53	0.000
178.91	-183.333
179.29	-550.000
179.67	-4100.000
180.04	-193.333
180.42	500.000
180.80	1700.000
181.18	0.000
181.56	-300.000
181.94	0.000
182.31	1100.000
182.69	-3300.000
183.07	571.429
183.45	-3500.000
183.83	-1700.000
184.20	430.000
184.58	400.000
184.96	-223.077
185.34	-200.000
185.72	1950.000
186.09	-700.000
186.47	-2700.000
186.85	1066.667
187.23	660.000
187.61	1400.000
187.98	337.500
188.36	285.714
188.74	316.667
189.12	358.333
189.49	825.000
189.87	0.000
190.25	500.000
190.63	3400.000
191.00	-233.333
191.38	-3200.000
191.76	-650.000
192.14	562.500
192.51	-3000.000
192.89	1600.000
193.27	1133.333
193.65	-1000.000
194.02	-700.000
194.40	557.143
194.78	-242.857
195.15	220.000
195.53	-3200.000
195.91	-440.000
196.29	3500.000
196.66	256.250
197.04	800.000
197.42	-1150.000
197.79	500.000
198.17	391.667
198.55	0.000
198.92	457.143
199.30	966.667
199.68	1750.000
200.05	466.667
200.43	-450.000
200.81	238.889
201.18	3200.000
201.56	333.333
201.94	-750.000
202.31	-262.500
202.69	-460.000
203.07	2400.000
203.44	-316.667
203.82	333.333
204.19	720.000
204.57	-1300.000
204.95	-825.000
205.32	-660.000
205.70	500.000
206.08	800.000
206.45	-600.000
206.83	333.333
207.20	184.211
207.58	258.333
207.96	780.000
208.33	0.000
208.71	457.143
209.08	500.000
209.46	-2800.000
209.84	-775.000
210.21	760.000
210.59	-660.000
210.96	383.333
211.34	-850.000
211.71	418.182
212.09	1075.000
212.46	1750.000
212.84	-433.333
213.22	377.778
213.59	-3100.000
213.97	280.000
214.34	1025.000
214.72	1133.333
215.09	1133.333
215.47	-2400.000
215.84	-380.000
216.22	-400.000
216.59	0.000
216.97	0.000
217.34	1300.000
217.72	-1300.000
218.09	1066.667
218.47	475.000
218.84	950.000
219.22	1333.333
219.59	933.333
219.97	357.143
220.34	433.333
220.72	1800.000
221.09	2800.000
221.47	208.333
221.84	1033.333
222.22	410.000
222.59	183.333
222.97	242.857
223.34	175.000
223.72	-1400.000
224.09	900.000
224.46	300.000
224.84	-750.000
225.21	355.556
225.59	253.333
225.96	1400.000
226.34	-740.000
226.71	-625.000
227.08	-280.000
227.46	0.000
227.83	-583.333
228.21	-1400.000
228.58	358.333
228.95	1050.000
229.33	433.333
229.70	775.000
230.08	361.538
230.45	3100.000
230.82	-750.000
231.20	-400.000
231.57	-1066.667
231.95	540.000
232.32	300.000
232.69	516.667
233.07	225.000
233.44	-1400.000
233.81	220.000
234.19	162.963
234.56	231.250
234.93	158.824
235.31	190.000
235.68	300.000
236.05	157.143
236.43	151.852
236.80	271.429
237.17	127.586
237.55	146.875
237.92	117.500
238.29	142.424
238.67	125.000
239.04	90.244
239.41	95.833
239.79	105.000
240.16	110.417
240.53	88.525
240.91	94.203
241.28	88.136
241.65	106.061
242.02	90.141
242.40	77.143
242.77	74.725
243.14	72.152
243.51	84.848
243.89	64.486
244.26	65.421
244.63	76.238
245.00	76.147
245.38	62.712
245.75	62.879
246.12	68.148
246.49	58.156
246.87	52.459
247.24	61.333
247.61	61.250
247.98	66.667
248.36	50.909
248.73	56.122
249.10	52.976
249.47	51.000
249.84	56.219
250.22	52.973
250.59	58.000
250.96	51.477
251.33	54.419
251.70	54.464
252.08	54.202
252.45	46.614
252.82	49.430
253.19	46.640
253.56	51.923
253.94	50.362
254.31	53.876
254.68	53.659
255.05	48.621
255.42	51.825
255.79	48.534
256.16	50.169
256.54	49.026
256.91	48.693
257.28	50.167
257.65	46.708
258.02	46.903
258.39	47.564
258.76	48.116
259.14	45.714
259.51	46.939
259.88	52.584
260.25	43.956
260.62	44.932
260.99	45.730
261.36	47.632
261.73	46.809
262.10	45.288
262.47	46.500
262.85	45.867
263.22	46.530
263.59	46.803
263.96	46.617
264.33	44.938
264.70	46.437
265.07	49.024
265.44	48.394
265.81	47.642
266.18	45.080
266.55	46.809
266.92	46.309
267.29	48.465
267.66	46.861
268.03	45.291
268.40	44.186
268.77	47.137
269.14	44.685
269.51	44.989
269.88	43.265
270.25	43.629
270.62	45.279
270.99	43.813
271.36	44.919
271.73	43.816
272.10	45.859
272.47	43.056
272.84	41.517
273.21	45.041
273.58	42.308
273.95	45.175
274.32	43.580
274.69	44.291
275.06	43.898
275.43	43.295
275.80	43.585
276.17	43.199
276.54	44.112
276.91	45.896
277.28	43.066
277.65	43.358
278.02	40.809
278.39	42.086
278.76	44.138
279.13	41.815
279.50	42.909
279.87	41.527
280.23	42.726
280.60	43.248
280.97	45.000
281.34	41.089
281.71	41.739
282.08	44.444
282.45	42.061
282.82	41.137
283.19	42.607
283.56	41.322
283.92	43.485
284.29	43.428
284.66	41.176
285.03	43.781
285.40	42.645
285.77	39.043
286.14	41.176
286.51	40.798
286.87	37.184
287.24	37.838
287.61	41.185
287.98	38.806
288.35	39.111
288.72	39.454
289.08	37.387
289.45	39.482
289.82	40.000
290.19	40.117
290.56	41.776
290.93	38.273
291.29	36.878
291.66	37.288
292.03	39.271
292.40	36.721
292.77	36.351
293.13	36.805
293.50	35.762
293.87	35.095
294.24	37.483
294.60	37.012
294.97	38.741
295.34	33.732
295.71	34.823
296.08	36.933
296.44	34.307
296.81	33.995
297.18	32.700
297.55	34.360
297.91	32.512
298.28	34.300
298.65	33.374
299.02	33.172
299.38	32.374
299.75	33.293
300.12	31.537
300.48	33.489
300.85	34.684
301.22	31.860
301.59	31.368
301.95	31.972
302.32	31.315
302.69	32.240
303.05	34.007
303.42	30.493
303.79	31.744
304.15	31.793
304.52	30.867
304.89	31.343
305.25	31.257
305.62	31.450
305.99	30.326
306.35	31.263
306.72	31.113
307.09	30.849
307.45	30.412
307.82	30.967
308.19	30.412
308.55	29.000
308.92	29.342
309.29	30.769
309.65	30.723
310.02	30.426
310.38	29.511
310.75	30.280
311.12	29.119
311.48	30.985
311.85	30.153
312.22	30.850
312.58	28.766
312.95	30.000
313.31	29.682
313.68	28.799
314.05	29.029
314.41	30.447
314.78	29.451
315.14	29.763
315.51	29.328
315.87	27.646
316.24	29.225
316.61	28.111
316.97	27.890
317.34	27.942
317.70	28.183
318.07	29.982
318.43	29.525
318.80	28.284
319.16	27.972
319.53	28.230
319.89	27.151
320.26	30.261
320.62	29.762
320.99	28.027
321.35	27.273
321.72	29.412
322.08	30.009
322.45	28.429
322.81	27.996
323.18	28.419
323.54	29.268
323.91	29.012
324.27	28.912
324.64	28.114
325.00	29.310
325.37	27.319
325.73	27.066
326.10	27.258
326.46	27.581
326.83	27.280
327.19	27.952
327.56	27.796
327.92	29.426
328.29	28.560
328.65	29.452
329.01	27.545
329.38	28.003
329.74	27.669
330.11	27.628
330.47	28.474
330.84	25.884
331.20	26.227
331.56	28.066
331.93	26.689
332.29	25.680
332.66	27.721
333.02	25.430
333.38	27.225
333.75	27.523
334.11	26.678
334.48	27.692
334.84	26.943
335.20	26.604
335.57	26.448
335.93	27.334
336.29	26.700
336.66	27.101
337.02	26.861
337.38	26.569
337.75	26.520
338.11	27.679
338.47	26.672
338.84	26.503
339.20	25.195
339.56	25.399
339.93	27.425
340.29	25.042
340.65	26.320
341.02	27.031
341.38	25.780
341.74	26.744
342.11	26.210
342.47	26.825
342.83	27.892
343.20	25.465
343.56	25.973
343.92	26.177
344.28	26.316
344.65	26.161
345.01	25.317
345.37	24.920
345.73	25.556
346.10	25.418
346.46	26.954
346.82	24.614
347.19	25.966
347.55	26.230
347.91	25.151
348.27	24.322
348.63	26.345
349.00	25.133
349.36	25.370
349.72	25.382
350.08	24.922
350.45	26.352
350.81	24.924
351.17	24.884
351.53	25.250
351.89	25.796
352.26	24.792
352.62	23.680
352.98	25.537
353.34	25.886
353.70	24.159
354.07	24.846
354.43	24.731
354.79	24.829
355.15	25.268
355.51	25.000
355.87	24.774
356.24	24.865
356.60	23.973
356.96	24.109
357.32	25.320
357.68	23.715
358.04	24.924
358.40	25.337
358.77	24.418
359.13	24.174
359.49	24.314
359.85	24.795
360.21	23.997
360.57	24.526
360.93	23.737
361.29	24.531
361.66	24.459
362.02	23.437
362.38	23.016
362.74	24.558
363.10	24.264
363.46	23.619
363.82	24.895
364.18	23.969
364.54	24.464
364.90	23.896
365.26	24.497
365.62	23.135
365.98	23.675
366.35	23.172
366.71	23.942
367.07	24.027
367.43	23.774
367.79	24.136
368.15	22.863
368.51	24.052
368.87	22.622
369.23	22.800
369.59	23.938
369.95	24.126
370.31	22.587
370.67	23.664
371.03	23.599
371.39	24.238
371.75	22.819
372.11	22.978
372.47	24.110
372.83	22.774
373.19	23.441
373.55	22.887
373.91	22.859
374.27	23.347
374.63	23.797
374.99	24.191
375.35	23.118
375.71	23.351
376.07	22.347
376.42	22.315
376.78	23.250
377.14	22.936
377.50	22.909
377.86	22.870
378.22	23.278
378.58	23.426
378.94	22.812
379.30	22.620
379.66	23.179
380.02	22.991
380.38	23.185
380.74	23.875
381.09	23.423
381.45	22.775
381.81	22.340
382.17	23.077
382.53	22.376
382.89	22.295
383.25	22.676
383.61	22.133
383.97	22.376
384.32	22.966
384.68	23.411
385.04	22.685
385.40	22.183
385.76	21.709
386.12	22.882
386.48	22.918
386.83	22.738
387.19	23.027
387.55	22.674
387.91	23.441
388.27	23.319
388.62	22.829
388.98	22.857
389.34	21.237
389.70	21.639
390.06	22.378
390.42	22.455
390.77	22.174
391.13	22.450
391.49	22.263
391.85	22.523
392.20	23.123
392.56	22.999
392.92	21.898
393.28	22.253
393.64	21.445
393.99	21.873
394.35	22.131
394.71	21.954
395.07	22.628
395.42	22.775
395.78	22.949
396.14	22.410
396.50	22.684
396.85	22.073
397.21	22.984
397.57	22.415
397.92	21.433
398.28	22.394
398.64	22.862
399.00	22.234
399.35	21.578
399.71	21.302
400.07	21.689
400.42	22.090
400.78	21.935
401.14	21.903
401.49	21.083
401.85	22.248
402.21	21.383
402.57	22.023
402.92	22.000
403.28	20.585
403.63	21.071
403.99	22.678
404.35	21.981
404.70	22.682
405.06	20.887
405.42	21.484
405.77	21.665
406.13	21.584
406.49	20.694
406.84	21.545
407.20	21.747
407.55	21.846
407.91	22.017
408.27	22.498
408.62	21.940
408.98	22.058
409.34	20.514
409.69	21.406
410.05	21.527
410.40	20.966
410.76	21.580
411.11	21.623
411.47	21.481
411.83	21.675
412.18	21.618
412.54	21.201
412.89	20.472
413.25	21.494
413.60	22.138
413.96	21.484
414.31	21.429
414.67	22.471
415.03	21.648
415.38	21.577
415.74	21.857
416.09	21.736
416.45	21.978
416.80	22.899
417.16	20.306
417.51	21.338
417.87	21.589
418.22	21.993
418.58	20.701
418.93	20.464
419.29	21.010
419.64	21.805
420.00	20.943
420.35	20.964
420.71	21.412
421.06	20.659
421.42	20.610
421.77	21.210
422.12	20.838
422.48	20.544
422.83	21.763
423.19	20.302
423.54	21.119
423.90	20.951
424.25	21.519
424.61	20.662
424.96	20.610
425.31	20.033
425.67	20.595
426.02	21.144
426.38	20.362
426.73	21.573
427.09	20.878
427.44	20.146
427.79	20.412
428.15	21.391
428.50	21.314
428.85	21.458
429.21	21.286
429.56	21.087
429.92	20.587
430.27	20.803
430.62	20.754
430.98	20.210
431.33	20.111
431.68	19.852
432.04	20.228
432.39	20.911
432.74	20.785
433.10	20.155
433.45	20.793
433.80	21.401
434.16	20.284
434.51	20.795
434.86	21.829
435.22	19.935
435.57	20.332
435.92	21.286
436.28	20.737
436.63	20.908
436.98	20.833
437.34	21.119
437.69	19.877
438.04	20.430
438.39	20.899
438.75	20.824
439.10	20.237
439.45	19.276
439.81	21.400
440.16	20.308
440.51	19.426
440.86	20.798
441.22	20.455
441.57	20.945
441.92	20.237
442.27	20.206
442.63	19.817
442.98	20.474
443.33	20.675
443.68	20.171
444.03	20.500
444.39	20.810
444.74	20.342
445.09	19.537
445.44	20.670
445.79	20.078
446.15	20.421
446.50	19.831
446.85	20.618
447.20	20.100
447.55	20.283
447.91	20.938
448.26	19.808
448.61	20.674
448.96	20.534
449.31	19.912
449.66	20.598
450.02	19.611
450.37	20.600
450.72	20.220
451.07	21.117
451.42	20.984
451.77	21.306
452.12	20.250
452.47	20.049
452.83	20.056
453.18	20.000
453.53	20.663
453.88	20.343
454.23	20.105
454.58	19.930
454.93	20.049
455.28	20.196
455.63	19.799
455.98	19.797
456.34	21.155
456.69	19.573
457.04	19.511
457.39	19.486
457.74	20.439
458.09	19.876
458.44	19.660
458.79	19.682
459.14	19.149
459.49	19.989
459.84	20.109
460.19	19.774
460.54	20.228
460.89	20.043
461.24	21.249
461.59	19.615
461.94	19.976
462.29	19.966
462.64	19.849
462.99	20.090
463.34	20.480
463.69	20.387
464.04	20.438
464.39	20.321
464.74	19.285
465.09	19.907
465.44	19.260
465.79	20.359
466.14	19.608
466.49	19.967
466.84	19.955
467.19	19.684
467.54	19.760
467.89	20.305
468.24	20.151
468.59	19.345
468.94	19.626
469.29	19.426
469.64	20.579
469.99	19.344
470.34	19.418
470.68	20.000
471.03	19.880
471.38	19.404
471.73	19.073
472.08	19.896
472.43	19.367
472.78	19.910
473.13	19.274
473.48	19.193
473.83	18.433
474.17	18.906
474.52	19.135
474.87	19.045
475.22	19.703
475.57	19.307
475.92	18.958
476.27	18.009
476.61	19.196
476.96	18.809
477.31	18.972
477.66	19.270
478.01	20.010
478.36	19.928
478.70	19.107
479.05	18.358
479.40	18.700
479.75	19.364
480.10	18.877
480.45	18.674
480.79	18.756
481.14	18.545
481.49	18.893
481.84	18.865
482.19	19.432
482.53	18.665
482.88	18.548
483.23	17.862
483.58	18.716
483.92	19.424
484.27	19.435
484.62	19.355
484.97	18.972
485.31	18.626
485.66	20.005
486.01	20.182
486.36	19.745
486.70	19.152
487.05	19.168
487.40	18.732
487.75	18.568
488.09	18.438
488.44	18.706
488.79	18.952
489.13	18.738
489.48	18.618
489.83	17.932
490.17	18.786
490.52	18.734
490.87	17.716
491.22	18.484
491.56	18.533
491.91	17.608
492.26	17.105
492.60	18.588
492.95	17.671
493.30	18.016
493.64	18.239
493.99	18.739
494.34	17.929
494.68	17.618
495.03	18.410
495.37	18.550
495.72	18.601
496.07	17.610
496.41	18.245
496.76	18.700
497.11	19.066
497.45	17.755
497.80	18.536
498.14	18.262
498.49	17.920
498.84	18.738
499.18	17.870
499.53	18.328
499.87	17.880
500.22	17.780
500.56	17.874
500.91	18.692
501.26	17.777
501.60	17.851
501.95	17.921
502.29	17.956
502.64	17.380
502.98	18.008
503.33	17.506
503.67	18.411
504.02	17.152
504.36	17.692
504.71	17.786
505.06	17.973
505.40	18.250
505.75	17.587
506.09	18.245
506.44	17.998
506.78	18.242
507.13	17.693
507.47	17.176
507.82	17.810
508.16	18.275
508.51	17.681
508.85	17.569
509.19	18.013
509.54	17.529
509.88	18.100
510.23	17.451
510.57	17.423
510.92	17.433
511.26	17.821
511.61	16.790
511.95	17.322
512.30	17.600
512.64	17.082
512.98	17.017
513.33	17.520
513.67	18.384
514.02	17.403
514.36	16.511
514.70	16.640
515.05	17.048
515.39	17.982
515.74	17.715
516.08	17.048
516.42	17.213
516.77	17.120
517.11	16.853
517.46	17.080
517.80	16.275
518.14	17.972
518.49	16.373
518.83	16.538
519.17	16.972
519.52	16.876
519.86	16.730
520.20	16.055
520.55	16.393
520.89	16.322
521.23	15.946
521.58	16.351
521.92	17.201
522.26	16.410
522.61	16.459
522.95	16.937
523.29	17.076
523.64	16.185
523.98	16.784
524.32	16.205
524.66	16.464
525.01	16.805
525.35	16.323
525.69	16.737
526.04	17.430
526.38	16.775
526.72	16.706
527.06	16.913
527.41	16.929
527.75	17.164
528.09	15.834
528.43	16.962
528.78	16.398
529.12	16.436
529.46	16.482
529.80	17.231
530.15	17.089
530.49	15.704
530.83	16.453
531.17	16.113
531.51	16.616
531.86	16.063
532.20	16.069
532.54	16.384
532.88	16.677
533.22	17.428
533.57	17.572
533.91	16.434
534.25	16.503
534.59	17.485
534.93	17.179
535.27	16.335
535.62	16.919
535.96	17.080
536.30	17.794
536.64	15.466
536.98	16.677
537.32	16.938
537.66	16.773
538.01	17.276
538.35	17.031
538.69	16.566
539.03	15.796
539.37	16.201
539.71	17.222
540.05	16.246
540.39	17.799
540.73	16.899
541.07	16.750
541.42	16.915
541.76	17.263
542.10	16.400
542.44	17.332
542.78	16.803
543.12	15.951
543.46	16.103
543.80	17.293
544.14	17.214
544.48	16.788
544.82	17.187
545.16	15.847
545.50	16.718
545.84	16.730
546.18	17.230
546.52	17.639
546.86	16.892
547.20	16.473
547.54	16.909
547.88	16.423
548.22	16.818
548.56	16.794
548.90	16.963
549.24	17.056
549.58	16.881
549.92	16.896
550.26	16.565
550.60	17.432
550.94	17.096
551.28	16.690
551.62	17.172
551.96	16.824
552.30	16.480
552.64	17.411
552.98	16.624
553.32	15.877
553.66	15.765
554.00	16.409
554.34	17.577
554.68	17.003
555.02	16.565
555.36	16.290
555.69	16.950
556.03	16.752
556.37	17.017
556.71	17.731
557.05	15.662
557.39	17.467
557.73	16.307
558.07	16.968
558.41	16.313
558.75	16.553
559.08	17.441
559.42	16.750
559.76	16.679
560.10	16.518
560.44	16.788
560.78	17.711
561.12	16.338
561.45	16.458
561.79	16.355
562.13	15.982
562.47	16.677
562.81	17.046
563.15	16.871
563.48	16.398
563.82	18.278
564.16	17.475
564.50	16.757
564.84	17.021
565.17	17.291
565.51	17.796
565.85	16.841
566.19	17.083
566.52	15.945
566.86	18.039
567.20	17.809
567.54	17.631
567.88	17.997
568.21	17.923
568.55	18.385
568.89	17.792
569.23	17.472
569.56	18.530
569.90	18.254
570.24	18.671
570.57	18.916
570.91	18.565
571.25	19.069
571.59	18.754
571.92	17.707
572.26	18.248
572.60	18.384
572.93	18.689
573.27	18.754
573.61	18.841
573.95	19.298
574.28	19.389
574.62	18.677
574.96	18.648
575.29	17.999
575.63	17.974
575.97	18.160
576.30	18.426
576.64	19.022
576.98	18.899
577.31	18.925
577.65	19.534
577.98	19.107
578.32	18.941
578.66	19.071
578.99	19.048
579.33	18.493
579.67	18.601
580.00	18.757
580.34	18.887
580.67	18.501
581.01	18.916
581.35	19.280
581.68	18.734
582.02	19.240
582.35	19.157
582.69	18.980
583.02	18.572
583.36	19.026
583.70	18.469
584.03	18.693
584.37	18.677
584.70	19.059
585.04	19.034
585.37	19.252
585.71	19.371
586.04	18.992
586.38	19.153
586.72	18.764
587.05	18.657
587.39	18.989
587.72	19.102
588.06	18.699
588.39	19.140
588.73	19.041
589.06	18.850
589.40	18.779
589.73	18.519
590.07	18.394
590.40	19.199
590.73	19.097
591.07	19.279
591.40	18.403
591.74	18.101
592.07	17.970
592.41	18.185
592.74	18.638
593.08	18.783
593.41	18.552
593.75	18.741
594.08	18.725
594.41	18.182
594.75	18.425
595.08	18.313
595.42	19.421
595.75	18.657
596.09	18.874
596.42	18.463
596.75	18.830
597.09	18.324
597.42	18.776
597.75	18.093
598.09	18.629
598.42	18.605
598.76	18.543
599.09	18.867
599.42	18.858
599.76	18.928
600.09	19.017
600.42	18.992
600.76	18.457
601.09	18.364
601.42	18.585
601.76	18.403
602.09	19.021
602.42	18.558
602.76	18.634
603.09	18.401
603.42	18.716
603.76	18.474
604.09	18.531
604.42	18.343
604.76	18.175
605.09	18.245
605.42	18.570
605.75	18.318
606.09	18.363
606.42	18.828
606.75	18.578
607.09	18.674
607.42	18.120
607.75	18.631
608.08	18.115
608.42	18.331
608.75	17.843
609.08	17.686
609.41	18.318
609.75	18.681
610.08	19.020
610.41	18.928
610.74	18.961
611.07	18.781
611.41	18.860
611.74	17.686
612.07	17.919
612.40	18.177
612.73	18.323
613.07	18.550
613.40	18.296
613.73	18.173
614.06	17.850
614.39	18.586
614.72	17.981
615.06	17.458
615.39	18.366
615.72	17.909
616.05	19.036
616.38	18.113
616.71	17.526
617.05	17.683
617.38	17.921
617.71	17.942
618.04	18.116
618.37	18.677
618.70	17.552
619.03	17.643
619.36	18.028
619.69	17.480
620.03	18.200
620.36	18.304
620.69	19.029
621.02	18.003
621.35	17.192
621.68	16.740
622.01	18.155
622.34	16.679
622.67	17.346
623.00	18.108
623.33	17.881
623.66	17.565
623.99	17.603
624.32	17.547
624.65	18.236
624.99	17.782
625.32	18.437
625.65	16.552
625.98	17.225
626.31	19.139
626.64	17.464
626.97	16.144
627.30	17.314
627.63	17.347
627.96	17.136
628.29	17.904
628.62	16.339
628.95	18.440
629.28	17.266
629.61	18.014
629.94	17.891
630.26	16.638
630.59	17.908
630.92	16.771
631.25	17.407
