SpectraSuite Data File
++++++++++++++++++++++++++++++++++++
Date: Tue May 12 16:59:36 PDT 2015
User: schluterlab
Dark Spectrum Present: Yes
Reference Spectrum Present: Yes
Number of Sampled Component Spectra: 1
Spectrometers: USB2E3373
Integration Time (usec): 3000 (USB2E3373)
Spectra Averaged: 3 (USB2E3373)
Boxcar Smoothing: 0 (USB2E3373)
Correct for Electrical Dark: No (USB2E3373)
Strobe/Lamp Enabled: No (USB2E3373)
Correct for Detector Non-linearity: No (USB2E3373)
Correct for Stray Light: No (USB2E3373)
Number of Pixels in Processed Spectrum: 2048
>>>>>Begin Processed Spectral Data<<<<<
178.53	0.000
178.91	-216.667
179.29	-825.000
179.67	-3900.000
180.04	-126.667
180.42	575.000
180.80	1500.000
181.18	0.000
181.56	-200.000
181.94	0.000
182.31	1133.333
182.69	-3300.000
183.07	628.571
183.45	-2900.000
183.83	-1450.000
184.20	390.000
184.58	542.857
184.96	-215.385
185.34	-183.333
185.72	1550.000
186.09	-750.000
186.47	-3100.000
186.85	1266.667
187.23	700.000
187.61	1500.000
187.98	450.000
188.36	300.000
188.74	275.000
189.12	358.333
189.49	1025.000
189.87	0.000
190.25	500.000
190.63	2400.000
191.00	-233.333
191.38	-4100.000
191.76	-700.000
192.14	587.500
192.51	-1800.000
192.89	1300.000
193.27	933.333
193.65	-1066.667
194.02	-620.000
194.40	614.286
194.78	-185.714
195.15	286.667
195.53	-2800.000
195.91	-480.000
196.29	4100.000
196.66	206.250
197.04	625.000
197.42	-1250.000
197.79	650.000
198.17	291.667
198.55	0.000
198.92	485.714
199.30	1233.333
199.68	2250.000
200.05	650.000
200.43	-483.333
200.81	216.667
201.18	4100.000
201.56	325.000
201.94	-750.000
202.31	-287.500
202.69	-560.000
203.07	2800.000
203.44	-416.667
203.82	266.667
204.19	760.000
204.57	-1350.000
204.95	-950.000
205.32	-500.000
205.70	433.333
206.08	825.000
206.45	-700.000
206.83	411.111
207.20	184.211
207.58	225.000
207.96	600.000
208.33	0.000
208.71	514.286
209.08	480.000
209.46	-3800.000
209.84	-700.000
210.21	880.000
210.59	-500.000
210.96	291.667
211.34	-850.000
211.71	390.909
212.09	1250.000
212.46	1000.000
212.84	-533.333
213.22	433.333
213.59	-3300.000
213.97	430.000
214.34	950.000
214.72	1366.667
215.09	800.000
215.47	-3200.000
215.84	-330.000
216.22	-400.000
216.59	0.000
216.97	0.000
217.34	1400.000
217.72	-2150.000
218.09	1200.000
218.47	475.000
218.84	1100.000
219.22	1133.333
219.59	1066.667
219.97	542.857
220.34	444.444
220.72	1950.000
221.09	4100.000
221.47	275.000
221.84	1033.333
222.22	380.000
222.59	255.556
222.97	278.571
223.34	268.750
223.72	-1450.000
224.09	1333.333
224.46	315.385
224.84	-900.000
225.21	455.556
225.59	280.000
225.96	1500.000
226.34	-640.000
226.71	-775.000
227.08	-600.000
227.46	0.000
227.83	-450.000
228.21	-1900.000
228.58	450.000
228.95	1050.000
229.33	277.778
229.70	850.000
230.08	307.692
230.45	3000.000
230.82	-875.000
231.20	-1200.000
231.57	-1033.333
231.95	800.000
232.32	291.667
232.69	583.333
233.07	383.333
233.44	-2000.000
233.81	293.333
234.19	166.667
234.56	262.500
234.93	235.294
235.31	200.000
235.68	256.250
236.05	157.143
236.43	129.630
236.80	221.429
237.17	172.414
237.55	150.000
237.92	132.500
238.29	103.030
238.67	150.000
239.04	92.683
239.41	75.000
239.79	102.500
240.16	116.667
240.53	80.328
240.91	75.362
241.28	103.390
241.65	78.788
242.02	80.282
242.40	74.286
242.77	81.319
243.14	56.962
243.51	78.788
243.89	57.009
244.26	60.748
244.63	64.356
245.00	58.716
245.38	53.390
245.75	50.758
246.12	58.519
246.49	53.191
246.87	49.180
247.24	50.667
247.61	54.375
247.98	51.701
248.36	49.091
248.73	54.592
249.10	50.595
249.47	48.500
249.84	41.791
250.22	54.054
250.59	43.500
250.96	42.616
251.33	46.512
251.70	45.536
252.08	43.277
252.45	41.434
252.82	38.023
253.19	43.478
253.56	41.154
253.94	44.203
254.31	42.636
254.68	41.115
255.05	40.690
255.42	45.255
255.79	42.345
256.16	43.729
256.54	42.857
256.91	42.484
257.28	41.806
257.65	38.871
258.02	36.578
258.39	42.120
258.76	42.319
259.14	37.429
259.51	43.149
259.88	40.729
260.25	38.736
260.62	36.164
260.99	36.088
261.36	38.719
261.73	37.500
262.10	40.052
262.47	37.500
262.85	38.400
263.22	38.560
263.59	35.038
263.96	37.093
264.33	37.037
264.70	39.803
265.07	38.537
265.44	37.615
265.81	38.208
266.18	38.902
266.55	37.825
266.92	36.242
267.29	36.184
267.66	36.323
268.03	40.135
268.40	38.055
268.77	37.445
269.14	36.226
269.51	34.967
269.88	37.755
270.25	36.933
270.62	34.335
270.99	37.525
271.36	36.179
271.73	34.172
272.10	37.172
272.47	34.722
272.84	34.331
273.21	35.537
273.58	34.211
273.95	34.497
274.32	35.214
274.69	37.205
275.06	35.701
275.43	35.057
275.80	37.736
276.17	36.213
276.54	37.383
276.91	35.634
277.28	35.219
277.65	34.133
278.02	36.213
278.39	33.453
278.76	36.897
279.13	37.900
279.50	36.545
279.87	33.892
280.23	34.070
280.60	34.854
280.97	36.207
281.34	35.149
281.71	34.435
282.08	34.872
282.45	35.304
282.82	35.284
283.19	34.976
283.56	35.702
283.92	33.550
284.29	31.780
284.66	35.126
285.03	33.831
285.40	35.041
285.77	33.179
286.14	34.365
286.51	33.282
286.87	33.228
287.24	31.832
287.61	33.587
287.98	32.090
288.35	32.148
288.72	33.080
289.08	31.832
289.45	32.165
289.82	31.563
290.19	30.893
290.56	32.169
290.93	31.655
291.29	31.354
291.66	30.791
292.03	32.679
292.40	30.352
292.77	28.691
293.13	29.957
293.50	30.229
293.87	29.133
294.24	32.448
294.60	28.937
294.97	30.629
295.34	30.544
295.71	29.829
296.08	29.733
296.44	27.700
296.81	27.916
297.18	26.616
297.55	30.049
297.91	28.079
298.28	28.382
298.65	30.307
299.02	28.589
299.38	29.976
299.75	28.293
300.12	28.440
300.48	29.157
300.85	28.605
301.22	27.791
301.59	28.774
301.95	28.121
302.32	28.405
302.69	28.394
303.05	29.630
303.42	27.130
303.79	28.494
304.15	27.063
304.52	27.484
304.89	28.358
305.25	29.477
305.62	29.531
305.99	28.913
306.35	29.053
306.72	28.408
307.09	28.675
307.45	29.039
307.82	28.601
308.19	29.278
308.55	29.400
308.92	31.501
309.29	30.868
309.65	29.633
310.02	31.440
310.38	30.808
310.75	30.858
311.12	30.172
311.48	32.819
311.85	31.393
312.22	33.715
312.58	34.111
312.95	33.301
313.31	33.708
313.68	33.490
314.05	34.158
314.41	34.451
314.78	36.742
315.14	37.820
315.51	37.086
315.87	37.318
316.24	37.255
316.61	38.138
316.97	37.890
317.34	38.814
317.70	40.474
318.07	40.836
318.43	41.916
318.80	42.820
319.16	43.269
319.53	42.389
319.89	45.520
320.26	47.020
320.62	44.780
320.99	47.188
321.35	48.794
321.72	50.000
322.08	50.508
322.45	49.864
322.81	52.059
323.18	52.398
323.54	54.878
323.91	57.752
324.27	56.676
324.64	57.439
325.00	60.172
325.37	60.118
325.73	60.455
326.10	63.795
326.46	63.997
326.83	63.760
327.19	66.426
327.56	68.051
327.92	70.820
328.29	70.213
328.65	70.462
329.01	72.883
329.38	72.335
329.74	73.100
330.11	73.328
330.47	76.130
330.84	73.857
331.20	73.858
331.56	77.461
331.93	78.529
332.29	76.786
332.66	79.252
333.02	77.148
333.38	80.279
333.75	77.898
334.11	78.440
334.48	79.402
334.84	78.632
335.20	79.384
335.57	79.009
335.93	79.058
336.29	78.607
336.66	81.732
337.02	81.095
337.38	79.880
337.75	81.757
338.11	81.266
338.47	81.795
338.84	78.239
339.20	81.212
339.56	78.806
339.93	80.602
340.29	77.983
340.65	81.308
341.02	79.405
341.38	81.281
341.74	80.482
342.11	83.139
342.47	81.378
342.83	82.937
343.20	81.811
343.56	79.984
343.92	82.246
344.28	82.376
344.65	82.722
345.01	80.635
345.37	81.330
345.73	80.952
346.10	82.311
346.46	83.014
346.82	80.633
347.19	82.148
347.55	81.577
347.91	80.060
348.27	81.565
348.63	81.092
349.00	81.340
349.36	82.490
349.72	81.575
350.08	85.171
350.45	81.874
350.81	81.193
351.17	81.279
351.53	82.679
351.89	82.595
352.26	81.859
352.62	80.543
352.98	82.592
353.34	82.357
353.70	83.257
354.07	83.538
354.43	83.641
354.79	81.777
355.15	82.695
355.51	82.251
355.87	83.133
356.24	84.988
356.60	82.648
356.96	82.563
357.32	82.291
357.68	83.627
358.04	84.195
358.40	84.183
358.77	83.997
359.13	84.084
359.49	81.838
359.85	84.363
360.21	83.952
360.57	84.234
360.93	84.488
361.29	84.848
361.66	84.862
362.02	82.173
362.38	84.055
362.74	84.713
363.10	84.502
363.46	81.906
363.82	84.572
364.18	84.211
364.54	85.336
364.90	84.003
365.26	85.427
365.62	85.083
365.98	84.377
366.35	84.966
366.71	83.692
367.07	83.959
367.43	85.024
367.79	83.777
368.15	84.871
368.51	84.011
368.87	84.647
369.23	86.071
369.59	84.963
369.95	86.503
370.31	84.531
370.67	83.553
371.03	84.244
371.39	85.734
371.75	85.206
372.11	83.889
372.47	83.493
372.83	85.656
373.19	87.457
373.55	85.498
373.91	83.633
374.27	85.384
374.63	84.000
374.99	84.704
375.35	87.030
375.71	84.631
376.07	87.334
376.42	82.992
376.78	87.026
377.14	87.549
377.50	85.581
377.86	85.522
378.22	85.740
378.58	86.259
378.94	85.999
379.30	86.537
379.66	87.598
380.02	86.804
380.38	86.885
380.74	87.082
381.09	84.988
381.45	85.723
381.81	85.343
382.17	84.982
382.53	85.603
382.89	86.280
383.25	86.264
383.61	86.052
383.97	84.643
384.32	87.824
384.68	87.285
385.04	85.170
385.40	86.773
385.76	86.191
386.12	86.951
386.48	87.599
386.83	88.325
387.19	86.985
387.55	87.044
387.91	87.009
388.27	87.091
388.62	87.383
388.98	84.840
389.34	84.711
389.70	84.965
390.06	86.463
390.42	86.305
390.77	87.531
391.13	86.301
391.49	84.936
391.85	86.892
392.20	86.234
392.56	86.081
392.92	85.008
393.28	86.715
393.64	85.665
393.99	86.900
394.35	84.520
394.71	84.620
395.07	86.131
395.42	86.007
395.78	87.415
396.14	86.446
396.50	86.041
396.85	86.280
397.21	87.726
397.57	86.312
397.92	86.193
398.28	86.100
398.64	84.700
399.00	84.768
399.35	85.507
399.71	83.554
400.07	84.475
400.42	86.388
400.78	85.806
401.14	86.377
401.49	85.714
401.85	85.805
402.21	84.886
402.57	85.458
402.92	86.182
403.28	85.322
403.63	83.461
403.99	85.887
404.35	86.811
404.70	86.356
405.06	85.121
405.42	84.979
405.77	85.116
406.13	82.809
406.49	83.854
406.84	84.490
407.20	84.132
407.55	84.431
407.91	85.003
408.27	86.052
408.62	85.038
408.98	84.388
409.34	84.278
409.69	84.381
410.05	86.345
410.40	84.923
410.76	83.686
411.11	83.827
411.47	84.074
411.83	83.187
412.18	84.601
412.54	84.024
412.89	83.363
413.25	85.291
413.60	84.171
413.96	84.261
414.31	85.065
414.67	84.358
415.03	84.930
415.38	83.659
415.74	84.334
416.09	84.572
416.45	87.330
416.80	86.466
417.16	83.896
417.51	83.312
417.87	82.979
418.22	84.326
418.58	85.478
418.93	83.046
419.29	82.810
419.64	84.070
420.00	85.800
420.35	84.146
420.71	84.306
421.06	85.050
421.42	84.801
421.77	85.619
422.12	85.888
422.48	83.256
422.83	85.100
423.19	84.719
423.54	85.080
423.90	85.108
424.25	85.746
424.61	84.562
424.96	85.319
425.31	85.605
425.67	86.869
426.02	84.969
426.38	85.473
426.73	86.408
427.09	86.595
427.44	85.256
427.79	88.451
428.15	89.216
428.50	87.257
428.85	85.832
429.21	85.251
429.56	84.447
429.92	85.082
430.27	85.099
430.62	83.700
430.98	84.880
431.33	86.290
431.68	84.790
432.04	85.515
432.39	85.510
432.74	86.066
433.10	87.542
433.45	86.904
433.80	88.969
434.16	86.022
434.51	87.152
434.86	87.480
435.22	86.494
435.57	87.018
435.92	88.389
436.28	87.615
436.63	87.790
436.98	88.232
437.34	86.016
437.69	87.626
438.04	86.667
438.39	88.500
438.75	88.196
439.10	86.346
439.45	85.246
439.81	88.722
440.16	87.947
440.51	86.937
440.86	88.148
441.22	85.714
441.57	87.087
441.92	87.414
442.27	88.299
442.63	87.551
442.98	86.476
443.33	87.788
443.68	87.324
444.03	87.747
444.39	87.806
444.74	88.872
445.09	88.046
445.44	88.363
445.79	88.109
446.15	88.684
446.50	87.764
446.85	88.347
447.20	88.806
447.55	89.940
447.91	88.332
448.26	87.540
448.61	89.773
448.96	90.033
449.31	89.769
449.66	88.704
450.02	87.358
450.37	89.895
450.72	89.752
451.07	88.773
451.42	87.908
451.77	90.092
452.12	88.542
452.47	89.793
452.83	90.141
453.18	90.691
453.53	89.698
453.88	89.029
454.23	89.250
454.58	90.093
454.93	90.006
455.28	89.535
455.63	90.366
455.98	89.453
456.34	90.881
456.69	90.610
457.04	89.857
457.39	90.629
457.74	90.315
458.09	88.433
458.44	87.295
458.79	89.284
459.14	89.580
459.49	89.807
459.84	91.630
460.19	89.661
460.54	90.028
460.89	91.258
461.24	88.431
461.59	89.909
461.94	89.421
462.29	89.760
462.64	92.525
462.99	89.891
463.34	90.214
463.69	91.168
464.04	92.343
464.39	88.952
464.74	90.445
465.09	89.959
465.44	88.901
465.79	88.949
466.14	88.023
466.49	89.094
466.84	88.740
467.19	89.748
467.54	89.489
467.89	90.141
468.24	91.083
468.59	89.583
468.94	90.278
469.29	88.943
469.64	89.132
469.99	91.067
470.34	91.018
470.68	88.483
471.03	91.795
471.38	90.530
471.73	90.725
472.08	93.477
472.43	91.061
472.78	91.165
473.13	89.549
473.48	89.487
473.83	89.635
474.17	90.456
474.52	89.514
474.87	89.085
475.22	91.491
475.57	90.346
475.92	88.503
476.27	89.119
476.61	90.670
476.96	88.506
477.31	91.054
477.66	92.110
478.01	89.428
478.36	90.474
478.70	88.983
479.05	90.586
479.40	89.881
479.75	90.169
480.10	90.465
480.45	90.523
480.79	89.032
481.14	88.921
481.49	88.243
481.84	88.654
482.19	89.869
482.53	88.054
482.88	88.530
483.23	89.445
483.58	89.946
483.92	90.951
484.27	89.812
484.62	90.620
484.97	88.313
485.31	88.455
485.66	86.321
486.01	84.003
486.36	83.610
486.70	82.920
487.05	85.056
487.40	84.924
487.75	86.074
488.09	86.619
488.44	86.679
488.79	86.602
489.13	88.839
489.48	89.293
489.83	89.074
490.17	87.944
490.52	91.516
490.87	89.483
491.22	89.982
491.56	89.284
491.91	88.262
492.26	90.557
492.60	91.162
492.95	90.258
493.30	89.900
493.64	90.341
493.99	90.161
494.34	89.915
494.68	89.420
495.03	89.762
495.37	89.239
495.72	91.981
496.07	89.308
496.41	88.923
496.76	88.561
497.11	88.689
497.45	88.865
497.80	90.130
498.14	89.598
498.49	89.090
498.84	91.168
499.18	88.208
499.53	89.022
499.87	89.084
500.22	89.774
500.56	90.019
500.91	90.167
501.26	88.884
501.60	90.710
501.95	90.547
502.29	89.333
502.64	88.884
502.98	88.751
503.33	89.443
503.67	88.035
504.02	88.715
504.36	88.778
504.71	90.681
505.06	89.348
505.40	89.424
505.75	89.383
506.09	89.547
506.44	90.132
506.78	90.737
507.13	91.905
507.47	90.247
507.82	89.830
508.16	91.475
508.51	89.855
508.85	89.079
509.19	90.749
509.54	89.893
509.88	90.552
510.23	89.804
510.57	88.272
510.92	91.259
511.26	90.713
511.61	89.069
511.95	89.199
512.30	90.200
512.64	89.720
512.98	89.493
513.33	90.164
513.67	90.730
514.02	90.805
514.36	90.239
514.70	92.107
515.05	89.664
515.39	93.421
515.74	92.236
516.08	92.157
516.42	93.934
516.77	90.453
517.11	90.827
517.46	91.864
517.80	90.661
518.14	92.563
518.49	90.298
518.83	91.154
519.17	91.459
519.52	91.043
519.86	91.063
520.20	92.000
520.55	91.577
520.89	92.069
521.23	92.757
521.58	91.853
521.92	90.962
522.26	91.884
522.61	93.642
522.95	93.453
523.29	92.982
523.64	91.098
523.98	92.723
524.32	90.369
524.66	91.072
525.01	93.609
525.35	91.220
525.69	92.896
526.04	92.385
526.38	92.290
526.72	90.513
527.06	91.189
527.41	93.047
527.75	93.305
528.09	90.909
528.43	91.885
528.78	92.248
529.12	91.692
529.46	92.051
529.80	91.706
530.15	89.629
530.49	90.373
530.83	91.834
531.17	92.312
531.51	92.459
531.86	89.674
532.20	91.286
532.54	92.028
532.88	93.067
533.22	90.981
533.57	91.824
533.91	89.394
534.25	89.671
534.59	90.234
534.93	88.282
535.27	88.674
535.62	90.315
535.96	90.189
536.30	91.651
536.64	90.932
536.98	91.064
537.32	90.938
537.66	91.263
538.01	90.155
538.35	90.268
538.69	88.471
539.03	90.050
539.37	89.138
539.71	90.185
540.05	89.231
540.39	89.748
540.73	90.443
541.07	90.025
541.42	89.428
541.76	89.273
542.10	89.396
542.44	90.461
542.78	90.434
543.12	87.669
543.46	88.596
543.80	90.100
544.14	88.978
544.48	87.895
544.82	89.297
545.16	88.525
545.50	89.490
545.84	89.710
546.18	92.198
546.52	89.902
546.86	90.522
547.20	89.793
547.54	88.220
547.88	87.348
548.22	88.950
548.56	86.034
548.90	87.367
549.24	88.945
549.58	89.562
549.92	90.373
550.26	89.047
550.60	89.222
550.94	89.417
551.28	90.483
551.62	91.586
551.96	90.270
552.30	89.585
552.64	89.126
552.98	88.402
553.32	87.772
553.66	88.860
554.00	89.254
554.34	90.479
554.68	88.844
555.02	88.934
555.36	88.298
555.69	88.678
556.03	88.471
556.37	86.424
556.71	90.156
557.05	86.566
557.39	88.467
557.73	88.005
558.07	88.732
558.41	89.034
558.75	89.603
559.08	90.922
559.42	91.410
559.76	90.948
560.10	89.745
560.44	87.658
560.78	87.596
561.12	88.557
561.45	88.173
561.79	87.516
562.13	88.756
562.47	88.903
562.81	87.378
563.15	88.106
563.48	85.963
563.82	87.835
564.16	89.801
564.50	84.448
564.84	86.748
565.17	84.492
565.51	88.670
565.85	88.217
566.19	86.905
566.52	85.981
566.86	87.215
567.20	86.011
567.54	85.808
567.88	86.072
568.21	83.575
568.55	83.755
568.89	83.349
569.23	82.312
569.56	83.107
569.90	80.812
570.24	80.579
570.57	81.603
570.91	79.719
571.25	79.211
571.59	78.652
571.92	77.045
572.26	78.652
572.60	77.812
572.93	79.960
573.27	78.231
573.61	78.424
573.95	78.312
574.28	78.914
574.62	76.176
574.96	75.949
575.29	76.047
575.63	75.783
575.97	75.584
576.30	76.512
576.64	76.089
576.98	76.109
577.31	76.887
577.65	76.177
577.98	76.063
578.32	74.977
578.66	75.175
578.99	76.128
579.33	76.816
579.67	76.298
580.00	75.120
580.34	75.749
580.67	75.638
581.01	75.949
581.35	75.730
581.68	74.467
582.02	74.558
582.35	74.251
582.69	75.292
583.02	74.938
583.36	75.933
583.70	76.528
584.03	77.504
584.37	76.779
584.70	75.939
585.04	76.089
585.37	75.045
585.71	76.449
586.04	75.107
586.38	75.676
586.72	77.246
587.05	76.763
587.39	75.777
587.72	76.946
588.06	76.260
588.39	76.484
588.73	77.063
589.06	77.882
589.40	77.903
589.73	77.876
590.07	78.964
590.40	79.233
590.73	78.884
591.07	79.165
591.40	78.244
591.74	79.586
592.07	78.785
592.41	78.777
592.74	77.627
593.08	77.018
593.41	76.721
593.75	75.286
594.08	76.902
594.41	76.768
594.75	77.568
595.08	77.263
595.42	76.959
595.75	77.295
596.09	78.067
596.42	76.766
596.75	80.208
597.09	79.612
597.42	77.510
597.75	77.282
598.09	77.760
598.42	76.826
598.76	76.638
599.09	77.124
599.42	76.055
599.76	75.814
600.09	75.085
600.42	75.380
600.76	75.459
601.09	76.389
601.42	75.079
601.76	76.262
602.09	76.269
602.42	75.120
602.76	75.256
603.09	77.187
603.42	77.468
603.76	75.597
604.09	76.221
604.42	75.631
604.76	77.242
605.09	77.184
605.42	75.863
605.75	76.984
606.09	77.353
606.42	75.836
606.75	76.681
607.09	75.918
607.42	75.412
607.75	76.154
608.08	76.807
608.42	76.258
608.75	77.321
609.08	76.859
609.41	77.636
609.75	77.427
610.08	77.248
610.41	77.690
610.74	75.195
611.07	78.172
611.41	77.943
611.74	77.008
612.07	78.131
612.40	77.047
612.73	78.682
613.07	78.915
613.40	77.494
613.73	78.882
614.06	77.800
614.39	77.828
614.72	77.298
615.06	75.519
615.39	76.386
615.72	75.750
616.05	78.051
616.38	76.104
616.71	77.754
617.05	77.650
617.38	77.697
617.71	78.965
618.04	79.248
618.37	77.710
618.70	78.118
619.03	77.961
619.36	80.151
619.69	79.354
620.03	80.300
620.36	79.512
620.69	80.779
621.02	79.688
621.35	79.799
621.68	80.457
622.01	81.328
622.34	81.282
622.67	80.056
623.00	77.876
623.33	78.677
623.66	79.441
623.99	80.205
624.32	80.556
624.65	79.460
624.99	81.001
625.32	79.960
625.65	79.517
625.98	78.522
626.31	82.938
626.64	80.334
626.97	79.954
627.30	80.357
627.63	79.827
627.96	82.081
628.29	83.498
628.62	80.582
628.95	82.624
629.28	84.750
629.61	82.689
629.94	81.936
630.26	81.716
630.59	83.156
630.92	81.883
