SpectraSuite Data File
++++++++++++++++++++++++++++++++++++
Date: Wed May 13 21:46:50 PDT 2015
User: schluterlab
Dark Spectrum Present: Yes
Reference Spectrum Present: Yes
Number of Sampled Component Spectra: 1
Spectrometers: USB2E3373
Integration Time (usec): 3000 (USB2E3373)
Spectra Averaged: 3 (USB2E3373)
Boxcar Smoothing: 0 (USB2E3373)
Correct for Electrical Dark: No (USB2E3373)
Strobe/Lamp Enabled: No (USB2E3373)
Correct for Detector Non-linearity: No (USB2E3373)
Correct for Stray Light: No (USB2E3373)
Number of Pixels in Processed Spectrum: 2048
>>>>>Begin Processed Spectral Data<<<<<
178.53	0.000
178.91	400.000
179.29	116.667
179.67	-450.000
180.04	-733.333
180.42	300.000
180.80	800.000
181.18	250.000
181.56	-200.000
181.94	-100.000
182.31	-45.455
182.69	107.692
183.07	-80.000
183.45	200.000
183.83	111.111
184.20	42.857
184.58	-400.000
184.96	300.000
185.34	200.000
185.72	0.000
186.09	-1000.000
186.47	20.000
186.85	380.000
187.23	-450.000
187.61	450.000
187.98	1500.000
188.36	-50.000
188.74	0.000
189.12	-9.091
189.49	20.000
189.87	116.667
190.25	200.000
190.63	1100.000
191.00	-140.000
191.38	380.000
191.76	375.000
192.14	116.667
192.51	-42.105
192.89	233.333
193.27	200.000
193.65	-120.000
194.02	181.818
194.40	160.000
194.78	-1800.000
195.15	200.000
195.53	-260.000
195.91	-62.500
196.29	-166.667
196.66	0.000
197.04	50.000
197.42	40.000
197.79	-50.000
198.17	-62.500
198.55	166.667
198.92	175.000
199.30	-100.000
199.68	-70.000
200.05	500.000
200.43	150.000
200.81	-2200.000
201.18	-200.000
201.56	-150.000
201.94	450.000
202.31	30.435
202.69	-114.286
203.07	-400.000
203.44	-260.000
203.82	-366.667
204.19	-80.000
204.57	0.000
204.95	16.667
205.32	0.000
205.70	50.000
206.08	-100.000
206.45	-150.000
206.83	300.000
207.20	-333.333
207.58	-60.000
207.96	-1000.000
208.33	-200.000
208.71	-2700.000
209.08	237.500
209.46	400.000
209.84	0.000
210.21	210.000
210.59	2400.000
210.96	200.000
211.34	700.000
211.71	-850.000
212.09	-216.667
212.46	-230.000
212.84	-100.000
213.22	150.000
213.59	-700.000
213.97	-800.000
214.34	-550.000
214.72	-53.846
215.09	187.500
215.47	88.889
215.84	900.000
216.22	-37.500
216.59	50.000
216.97	233.333
217.34	44.444
217.72	0.000
218.09	33.333
218.47	500.000
218.84	-114.286
219.22	-187.500
219.59	-300.000
219.97	0.000
220.34	-50.000
220.72	-240.000
221.09	0.000
221.47	-300.000
221.84	-200.000
222.22	0.000
222.59	1300.000
222.97	-266.667
223.34	-25.000
223.72	-100.000
224.09	-600.000
224.46	-90.909
224.84	-62.500
225.21	-114.286
225.59	-300.000
225.96	-100.000
226.34	-80.000
226.71	-28.571
227.08	750.000
227.46	-25.000
227.83	-1300.000
228.21	-37.500
228.58	-325.000
228.95	-58.824
229.33	-37.500
229.70	-150.000
230.08	-15.385
230.45	-100.000
230.82	-75.000
231.20	228.571
231.57	-375.000
231.95	500.000
232.32	-8.333
232.69	-5.882
233.07	-1100.000
233.44	-4.348
233.81	-1000.000
234.19	-33.333
234.56	-40.000
234.93	26.667
235.31	-15.789
235.68	-76.923
236.05	15.385
236.43	-22.222
236.80	-9.091
237.17	80.000
237.55	-29.412
237.92	-10.345
238.29	-59.259
238.67	-25.000
239.04	-3.226
239.41	-8.511
239.79	27.660
240.16	16.279
240.53	21.429
240.91	10.714
241.28	-5.357
241.65	22.581
242.02	13.158
242.40	14.493
242.77	1.449
243.14	14.103
243.51	27.660
243.89	21.154
244.26	26.415
244.63	15.385
245.00	25.000
245.38	22.689
245.75	22.131
246.12	22.556
246.49	10.569
246.87	14.286
247.24	26.351
247.61	23.841
247.98	17.949
248.36	16.568
248.73	12.921
249.10	23.737
249.47	22.043
249.84	22.105
250.22	19.900
250.59	19.626
250.96	25.000
251.33	18.660
251.70	27.615
252.08	23.013
252.45	25.926
252.82	24.715
253.19	26.070
253.56	25.899
253.94	24.911
254.31	21.479
254.68	28.523
255.05	25.743
255.42	26.923
255.79	25.153
256.16	25.868
256.54	22.222
256.91	21.835
257.28	27.673
257.65	23.248
258.02	22.287
258.39	23.392
258.76	23.256
259.14	22.443
259.51	24.438
259.88	21.951
260.25	23.056
260.62	21.629
260.99	25.995
261.36	25.389
261.73	22.469
262.10	24.173
262.47	23.210
262.85	23.134
263.22	26.154
263.59	25.455
263.96	22.384
264.33	25.240
264.70	24.419
265.07	22.917
265.44	25.057
265.81	22.197
266.18	24.601
266.55	22.052
266.92	22.881
267.29	23.868
267.66	25.690
268.03	25.720
268.40	21.822
268.77	24.587
269.14	22.041
269.51	25.257
269.88	23.829
270.25	26.059
270.62	23.156
270.99	23.622
271.36	24.603
271.73	23.695
272.10	24.762
272.47	23.608
272.84	23.425
273.21	25.049
273.58	24.795
273.95	23.774
274.32	26.119
274.69	23.862
275.06	27.562
275.43	24.859
275.80	24.113
276.17	25.414
276.54	21.492
276.91	23.868
277.28	22.563
277.65	22.028
278.02	25.714
278.39	21.314
278.76	23.746
279.13	24.014
279.50	24.655
279.87	23.188
280.23	24.505
280.60	21.453
280.97	22.403
281.34	25.237
281.71	24.228
282.08	24.615
282.45	22.951
282.82	23.802
283.19	24.848
283.56	22.969
283.92	24.006
284.29	23.869
284.66	25.041
285.03	24.430
285.40	23.112
285.77	23.123
286.14	21.581
286.51	24.138
286.87	22.769
287.24	22.861
287.61	24.096
287.98	21.324
288.35	22.951
288.72	22.525
289.08	23.362
289.45	22.614
289.82	22.995
290.19	21.599
290.56	21.307
290.93	22.928
291.29	20.383
291.66	21.311
292.03	21.117
292.40	21.400
292.77	21.553
293.13	20.921
293.50	20.915
293.87	21.600
294.24	21.693
294.60	21.326
294.97	22.884
295.34	19.789
295.71	19.448
296.08	18.586
296.44	18.240
296.81	19.610
297.18	20.000
297.55	21.108
297.91	20.248
298.28	21.308
298.65	20.074
299.02	22.100
299.38	19.877
299.75	19.351
300.12	17.209
300.48	19.532
300.85	19.861
301.22	18.467
301.59	20.188
301.95	17.654
302.32	19.603
302.69	16.836
303.05	18.272
303.42	19.432
303.79	19.243
304.15	17.634
304.52	19.570
304.89	18.826
305.25	16.905
305.62	19.197
305.99	18.934
306.35	19.645
306.72	18.922
307.09	18.770
307.45	17.891
307.82	18.632
308.19	17.032
308.55	17.912
308.92	19.352
309.29	18.118
309.65	17.782
310.02	17.893
310.38	18.496
310.75	19.034
311.12	17.784
311.48	19.090
311.85	18.799
312.22	19.342
312.58	17.778
312.95	18.806
313.31	18.182
313.68	18.416
314.05	17.958
314.41	18.540
314.78	19.545
315.14	18.148
315.51	19.125
315.87	18.072
316.24	18.365
316.61	17.808
316.97	18.426
317.34	17.825
317.70	19.804
318.07	18.900
318.43	19.241
318.80	17.627
319.16	18.214
319.53	18.190
319.89	18.248
320.26	19.593
320.62	18.165
320.99	18.411
321.35	18.335
321.72	18.287
322.08	17.804
322.45	19.056
322.81	19.131
323.18	17.800
323.54	19.314
323.91	19.061
324.27	18.722
324.64	18.902
325.00	18.985
325.37	18.686
325.73	18.182
326.10	18.503
326.46	18.980
326.83	19.094
327.19	19.431
327.56	20.226
327.92	18.262
328.29	18.614
328.65	19.106
329.01	18.470
329.38	20.348
329.74	19.313
330.11	18.756
330.47	18.229
330.84	19.314
331.20	19.727
331.56	19.022
331.93	18.691
332.29	19.548
332.66	17.966
333.02	19.201
333.38	19.561
333.75	18.345
334.11	19.010
334.48	19.529
334.84	18.640
335.20	19.297
335.57	19.060
335.93	17.010
336.29	18.126
336.66	17.009
337.02	18.783
337.38	19.756
337.75	19.121
338.11	17.677
338.47	16.096
338.84	18.127
339.20	18.695
339.56	17.918
339.93	17.459
340.29	17.933
340.65	17.194
341.02	17.471
341.38	18.074
341.74	17.563
342.11	17.506
342.47	16.653
342.83	17.484
343.20	17.936
343.56	18.316
343.92	17.384
344.28	17.614
344.65	18.286
345.01	17.353
345.37	18.503
345.73	18.056
346.10	17.576
346.46	17.724
346.82	17.496
347.19	16.930
347.55	18.901
347.91	16.680
348.27	17.035
348.63	16.667
349.00	17.846
349.36	17.818
349.72	17.943
350.08	16.771
350.45	16.288
350.81	17.997
351.17	18.322
351.53	17.203
351.89	16.839
352.26	15.830
352.62	16.589
352.98	16.534
353.34	17.713
353.70	17.368
354.07	17.176
354.43	16.719
354.79	16.907
355.15	16.925
355.51	17.844
355.87	17.123
356.24	16.212
356.60	17.045
356.96	16.961
357.32	18.421
357.68	17.647
358.04	16.835
358.40	17.984
358.77	17.661
359.13	17.121
359.49	17.714
359.85	16.983
360.21	17.039
360.57	16.806
360.93	16.464
361.29	17.098
361.66	17.388
362.02	17.272
362.38	16.544
362.74	15.954
363.10	16.414
363.46	16.354
363.82	17.591
364.18	16.244
364.54	17.287
364.90	15.889
365.26	16.773
365.62	17.401
365.98	16.797
366.35	17.163
366.71	17.332
367.07	16.938
367.43	16.794
367.79	17.721
368.15	17.229
368.51	16.245
368.87	17.446
369.23	15.872
369.59	15.433
369.95	16.401
370.31	17.434
370.67	16.655
371.03	17.075
371.39	17.601
371.75	16.214
372.11	16.453
372.47	17.015
372.83	16.782
373.19	15.899
373.55	16.908
373.91	16.761
374.27	16.183
374.63	16.999
374.99	16.504
375.35	16.507
375.71	15.761
376.07	16.861
376.42	17.246
376.78	17.371
377.14	16.814
377.50	16.688
377.86	17.331
378.22	17.004
378.58	16.835
378.94	16.938
379.30	16.740
379.66	16.646
380.02	16.912
380.38	16.205
380.74	17.394
381.09	17.069
381.45	16.385
381.81	17.622
382.17	16.257
382.53	16.800
382.89	18.034
383.25	16.111
383.61	17.252
383.97	17.188
384.32	16.824
384.68	16.533
385.04	16.066
385.40	17.497
385.76	16.788
386.12	17.172
386.48	16.865
386.83	16.583
387.19	16.286
387.55	17.719
387.91	17.097
388.27	16.831
388.62	17.416
388.98	17.021
389.34	17.168
389.70	16.361
390.06	16.438
390.42	17.848
390.77	17.104
391.13	16.540
391.49	16.572
391.85	16.294
392.20	16.103
392.56	16.635
392.92	16.618
393.28	17.432
393.64	16.086
393.99	16.340
394.35	17.099
394.71	16.218
395.07	16.981
395.42	17.185
395.78	16.088
396.14	17.565
396.50	16.677
396.85	17.463
397.21	16.667
397.57	16.584
397.92	16.766
398.28	17.766
398.64	17.061
399.00	16.853
399.35	17.140
399.71	17.472
400.07	16.687
400.42	16.364
400.78	16.495
401.14	16.616
401.49	16.537
401.85	16.708
402.21	16.904
402.57	17.413
402.92	17.584
403.28	16.573
403.63	17.173
403.99	16.315
404.35	16.895
404.70	16.918
405.06	17.557
405.42	16.143
405.77	16.647
406.13	16.343
406.49	16.836
406.84	16.606
407.20	16.104
407.55	16.558
407.91	16.082
408.27	15.970
408.62	16.390
408.98	15.475
409.34	16.770
409.69	17.739
410.05	16.480
410.40	16.494
410.76	16.546
411.11	17.537
411.47	17.386
411.83	16.594
412.18	16.877
412.54	16.667
412.89	15.987
413.25	15.634
413.60	16.740
413.96	16.167
414.31	16.893
414.67	17.206
415.03	16.306
415.38	16.248
415.74	16.309
416.09	16.523
416.45	16.405
416.80	16.242
417.16	17.409
417.51	16.142
417.87	16.865
418.22	15.837
418.58	17.083
418.93	16.761
419.29	16.238
419.64	16.031
420.00	16.762
420.35	16.975
420.71	16.880
421.06	16.236
421.42	15.450
421.77	16.012
422.12	16.046
422.48	16.031
422.83	16.834
423.19	15.756
423.54	16.726
423.90	16.865
424.25	17.215
424.61	16.697
424.96	16.440
425.31	15.648
425.67	17.049
426.02	17.138
426.38	17.226
426.73	16.005
427.09	16.260
427.44	16.618
427.79	16.093
428.15	16.147
428.50	16.435
428.85	16.851
429.21	16.207
429.56	17.216
429.92	17.439
430.27	17.382
430.62	16.159
430.98	16.764
431.33	16.120
431.68	16.880
432.04	17.183
432.39	16.686
432.74	16.493
433.10	17.432
433.45	16.509
433.80	17.644
434.16	17.204
434.51	17.826
434.86	17.197
435.22	16.525
435.57	17.322
435.92	17.250
436.28	16.456
436.63	16.801
436.98	16.627
437.34	17.766
437.69	18.123
438.04	15.846
438.39	16.750
438.75	16.448
439.10	17.120
439.45	17.797
439.81	17.549
440.16	17.971
440.51	16.825
440.86	17.072
441.22	17.728
441.57	17.516
441.92	17.004
442.27	16.883
442.63	16.308
442.98	16.493
443.33	17.664
443.68	17.343
444.03	17.089
444.39	17.452
444.74	16.565
445.09	17.015
445.44	18.310
445.79	17.088
446.15	17.748
446.50	17.401
446.85	17.584
447.20	17.407
447.55	18.075
447.91	17.191
448.26	17.667
448.61	17.606
448.96	17.654
449.31	16.790
449.66	17.698
450.02	17.965
450.37	17.039
450.72	17.279
451.07	16.991
451.42	16.407
451.77	17.407
452.12	17.469
452.47	18.141
452.83	17.335
453.18	18.205
453.53	17.528
453.88	17.651
454.23	17.985
454.58	18.505
454.93	18.089
455.28	17.726
455.63	17.467
455.98	17.712
456.34	17.800
456.69	18.594
457.04	18.204
457.39	18.100
457.74	17.774
458.09	18.720
458.44	17.391
458.79	17.353
459.14	17.247
459.49	18.110
459.84	16.911
460.19	17.647
460.54	17.518
460.89	17.793
461.24	17.818
461.59	17.874
461.94	18.647
462.29	17.463
462.64	17.810
462.99	17.237
463.34	18.508
463.69	18.557
464.04	17.587
464.39	16.962
464.74	18.059
465.09	17.359
465.44	18.799
465.79	18.689
466.14	18.073
466.49	17.185
466.84	18.530
467.19	17.707
467.54	17.758
467.89	18.039
468.24	18.500
468.59	17.017
468.94	17.369
469.29	17.845
469.64	17.573
469.99	18.276
470.34	17.869
470.68	16.952
471.03	18.759
471.38	18.846
471.73	18.587
472.08	18.557
472.43	18.865
472.78	17.782
473.13	17.942
473.48	18.200
473.83	18.581
474.17	17.643
474.52	18.382
474.87	17.551
475.22	17.512
475.57	17.122
475.92	19.302
476.27	18.298
476.61	18.347
476.96	18.389
477.31	18.015
477.66	19.096
478.01	18.187
478.36	18.256
478.70	18.206
479.05	18.646
479.40	19.241
479.75	18.119
480.10	18.256
480.45	18.097
480.79	18.218
481.14	18.896
481.49	18.796
481.84	17.813
482.19	18.110
482.53	18.476
482.88	18.408
483.23	17.902
483.58	18.431
483.92	18.142
484.27	17.749
484.62	17.976
484.97	18.208
485.31	17.660
485.66	18.246
486.01	18.139
486.36	17.884
486.70	17.580
487.05	18.052
487.40	17.735
487.75	17.715
488.09	17.391
488.44	17.631
488.79	18.055
489.13	18.131
489.48	18.427
489.83	17.731
490.17	18.202
490.52	19.495
490.87	17.617
491.22	18.417
491.56	18.687
491.91	18.387
492.26	18.182
492.60	17.220
492.95	18.513
493.30	18.798
493.64	17.506
493.99	18.502
494.34	17.534
494.68	18.425
495.03	18.132
495.37	17.664
495.72	18.596
496.07	18.412
496.41	18.437
496.76	18.373
497.11	18.498
497.45	18.434
497.80	18.627
498.14	18.388
498.49	17.700
498.84	18.674
499.18	18.666
499.53	18.218
499.87	18.583
500.22	19.164
500.56	19.057
500.91	18.763
501.26	18.621
501.60	18.284
501.95	17.920
502.29	19.223
502.64	18.611
502.98	18.353
503.33	19.075
503.67	17.673
504.02	18.725
504.36	17.732
504.71	18.191
505.06	18.951
505.40	18.866
505.75	18.566
506.09	18.600
506.44	18.599
506.78	18.537
507.13	19.439
507.47	18.823
507.82	19.309
508.16	18.734
508.51	17.975
508.85	18.455
509.19	18.413
509.54	19.303
509.88	18.710
510.23	18.632
510.57	19.492
510.92	19.127
511.26	18.757
511.61	19.155
511.95	18.412
512.30	18.268
512.64	19.807
512.98	19.280
513.33	18.817
513.67	18.626
514.02	18.472
514.36	18.876
514.70	18.014
515.05	17.554
515.39	18.691
515.74	18.887
516.08	17.935
516.42	18.836
516.77	18.336
517.11	18.225
517.46	19.688
517.80	19.492
518.14	18.616
518.49	18.746
518.83	18.675
519.17	18.313
519.52	19.300
519.86	18.640
520.20	18.253
520.55	18.719
520.89	19.228
521.23	19.359
521.58	19.659
521.92	18.730
522.26	18.543
522.61	18.940
522.95	18.588
523.29	18.349
523.64	18.754
523.98	18.297
524.32	18.147
524.66	19.286
525.01	19.332
525.35	19.092
525.69	18.290
526.04	18.632
526.38	19.375
526.72	19.132
527.06	18.762
527.41	17.803
527.75	18.892
528.09	18.652
528.43	18.657
528.78	18.863
529.12	19.534
529.46	18.170
529.80	19.029
530.15	18.275
530.49	17.857
530.83	19.025
531.17	19.315
531.51	18.274
531.86	17.615
532.20	18.125
532.54	18.621
532.88	18.380
533.22	18.519
533.57	18.477
533.91	19.871
534.25	20.378
534.59	18.726
534.93	19.069
535.27	18.471
535.62	18.289
535.96	19.128
536.30	18.285
536.64	18.524
536.98	18.080
537.32	17.580
537.66	19.182
538.01	17.753
538.35	17.610
538.69	18.261
539.03	18.456
539.37	18.042
539.71	18.213
540.05	18.421
540.39	17.481
540.73	18.506
541.07	19.524
541.42	17.845
541.76	18.945
542.10	16.452
542.44	18.295
542.78	17.488
543.12	18.396
543.46	18.245
543.80	18.058
544.14	18.307
544.48	18.115
544.82	18.426
545.16	17.647
545.50	19.109
545.84	18.163
546.18	17.672
546.52	18.278
546.86	17.173
547.20	17.870
547.54	17.370
547.88	18.893
548.22	18.241
548.56	17.812
548.90	17.253
549.24	19.236
549.58	18.790
549.92	18.929
550.26	19.557
550.60	17.643
550.94	18.284
551.28	17.638
551.62	19.173
551.96	18.594
552.30	17.394
552.64	18.079
552.98	18.466
553.32	17.664
553.66	17.902
554.00	17.711
554.34	17.875
554.68	17.897
555.02	17.216
555.36	17.700
555.69	17.480
556.03	17.655
556.37	17.283
556.71	18.010
557.05	18.450
557.39	18.538
557.73	18.154
558.07	18.613
558.41	18.622
558.75	18.245
559.08	17.001
559.42	17.939
559.76	17.890
560.10	18.601
560.44	18.128
560.78	16.906
561.12	18.220
561.45	16.939
561.79	17.675
562.13	18.003
562.47	16.714
562.81	18.398
563.15	17.705
563.48	17.963
563.82	17.305
564.16	17.942
564.50	17.843
564.84	17.162
565.17	18.543
565.51	17.647
565.85	17.855
566.19	18.477
566.52	17.628
566.86	17.257
567.20	18.021
567.54	17.904
567.88	17.133
568.21	17.490
568.55	17.997
568.89	17.149
569.23	17.553
569.56	17.146
569.90	17.485
570.24	17.365
570.57	17.503
570.91	17.643
571.25	16.592
571.59	16.957
571.92	16.838
572.26	16.840
572.60	16.970
572.93	16.838
573.27	16.824
573.61	17.247
573.95	16.869
574.28	17.040
574.62	16.490
574.96	16.806
575.29	16.976
575.63	16.596
575.97	17.147
576.30	16.850
576.64	17.108
576.98	16.625
577.31	17.032
577.65	16.678
577.98	16.905
578.32	16.796
578.66	16.620
578.99	16.808
579.33	16.217
579.67	16.446
580.00	16.472
580.34	16.457
580.67	16.854
581.01	16.908
581.35	17.074
581.68	16.884
582.02	16.937
582.35	16.961
582.69	17.024
583.02	16.705
583.36	16.160
583.70	16.474
584.03	16.366
584.37	16.366
584.70	16.778
585.04	16.902
585.37	16.719
585.71	16.811
586.04	16.917
586.38	16.390
586.72	16.634
587.05	17.231
587.39	17.703
587.72	16.596
588.06	16.689
588.39	17.100
588.73	16.727
589.06	16.877
589.40	16.753
589.73	16.421
590.07	16.806
590.40	16.509
590.73	17.180
591.07	17.426
591.40	17.217
591.74	17.786
592.07	17.435
592.41	16.517
592.74	17.554
593.08	17.094
593.41	16.956
593.75	16.247
594.08	16.960
594.41	17.148
594.75	17.204
595.08	17.102
595.42	16.142
595.75	17.679
596.09	17.013
596.42	17.034
596.75	17.376
597.09	17.834
597.42	17.676
597.75	17.200
598.09	17.077
598.42	17.987
598.76	16.709
599.09	17.007
599.42	17.409
599.76	17.048
600.09	17.470
600.42	17.288
600.76	17.147
601.09	17.288
601.42	17.640
601.76	16.525
602.09	17.471
602.42	17.788
602.76	16.737
603.09	17.290
603.42	16.873
603.76	16.563
604.09	17.075
604.42	16.743
604.76	17.634
605.09	17.535
605.42	17.634
605.75	17.388
606.09	16.887
606.42	17.456
606.75	17.359
607.09	16.800
607.42	17.644
607.75	16.543
608.08	17.313
608.42	16.823
608.75	16.961
609.08	16.561
609.41	17.288
609.75	16.641
610.08	17.258
610.41	17.396
610.74	16.169
611.07	17.485
611.41	17.758
611.74	16.874
612.07	17.457
612.40	17.243
612.73	17.508
613.07	16.851
613.40	17.070
613.73	17.822
614.06	17.026
614.39	16.620
614.72	18.268
615.06	17.444
615.39	16.943
615.72	17.063
616.05	16.610
616.38	17.869
616.71	16.737
617.05	17.383
617.38	17.437
617.71	16.789
618.04	17.185
618.37	17.287
618.70	17.400
619.03	16.632
619.36	17.722
619.69	16.959
620.03	17.102
620.36	16.980
620.69	16.417
621.02	16.769
621.35	16.353
621.68	15.974
622.01	17.476
622.34	16.416
622.67	16.210
623.00	18.313
623.33	17.502
623.66	17.249
623.99	17.629
624.32	17.902
624.65	16.320
624.99	17.120
625.32	18.297
625.65	17.209
625.98	17.773
626.31	18.122
626.64	16.165
626.97	17.301
627.30	17.622
627.63	17.128
627.96	16.364
628.29	19.349
628.62	17.988
628.95	17.535
629.28	17.635
629.61	18.947
629.94	16.731
630.26	17.340
630.59	16.384
630.92	17.269
631.25	16.684
631.58	17.452
631.91	16.967
632.24	16.465
632.57	16.333
