SpectraSuite Data File
++++++++++++++++++++++++++++++++++++
Date: Tue May 12 17:23:54 PDT 2015
User: schluterlab
Dark Spectrum Present: Yes
Reference Spectrum Present: Yes
Number of Sampled Component Spectra: 1
Spectrometers: USB2E3373
Integration Time (usec): 3000 (USB2E3373)
Spectra Averaged: 3 (USB2E3373)
Boxcar Smoothing: 0 (USB2E3373)
Correct for Electrical Dark: No (USB2E3373)
Strobe/Lamp Enabled: No (USB2E3373)
Correct for Detector Non-linearity: No (USB2E3373)
Correct for Stray Light: No (USB2E3373)
Number of Pixels in Processed Spectrum: 2048
>>>>>Begin Processed Spectral Data<<<<<
178.53	0.000
178.91	-225.000
179.29	-775.000
179.67	-2600.000
180.04	-86.667
180.42	650.000
180.80	1900.000
181.18	0.000
181.56	-312.500
181.94	0.000
182.31	1300.000
182.69	-3500.000
183.07	600.000
183.45	-3800.000
183.83	-1300.000
184.20	330.000
184.58	400.000
184.96	-223.077
185.34	-191.667
185.72	1650.000
186.09	-800.000
186.47	-2500.000
186.85	933.333
187.23	460.000
187.61	1550.000
187.98	450.000
188.36	242.857
188.74	366.667
189.12	366.667
189.49	725.000
189.87	0.000
190.25	437.500
190.63	2900.000
191.00	-266.667
191.38	-3500.000
191.76	-750.000
192.14	450.000
192.51	-2800.000
192.89	1400.000
193.27	966.667
193.65	-1100.000
194.02	-900.000
194.40	542.857
194.78	-150.000
195.15	206.667
195.53	-3300.000
195.91	-620.000
196.29	3100.000
196.66	300.000
197.04	675.000
197.42	-1350.000
197.79	600.000
198.17	375.000
198.55	0.000
198.92	471.429
199.30	833.333
199.68	1750.000
200.05	783.333
200.43	-283.333
200.81	211.111
201.18	3200.000
201.56	241.667
201.94	-625.000
202.31	-200.000
202.69	-600.000
203.07	3000.000
203.44	-383.333
203.82	291.667
204.19	580.000
204.57	-1550.000
204.95	-900.000
205.32	-700.000
205.70	516.667
206.08	775.000
206.45	-833.333
206.83	422.222
207.20	168.421
207.58	266.667
207.96	640.000
208.33	0.000
208.71	528.571
209.08	480.000
209.46	-2500.000
209.84	-675.000
210.21	1080.000
210.59	-640.000
210.96	300.000
211.34	-800.000
211.71	436.364
212.09	675.000
212.46	1550.000
212.84	-383.333
213.22	388.889
213.59	-3500.000
213.97	260.000
214.34	875.000
214.72	1000.000
215.09	966.667
215.47	-3500.000
215.84	-270.000
216.22	-325.000
216.59	0.000
216.97	0.000
217.34	2000.000
217.72	-1400.000
218.09	1033.333
218.47	412.500
218.84	875.000
219.22	1133.333
219.59	1100.000
219.97	485.714
220.34	322.222
220.72	1300.000
221.09	3000.000
221.47	341.667
221.84	1366.667
222.22	320.000
222.59	238.889
222.97	200.000
223.34	200.000
223.72	-1500.000
224.09	1100.000
224.46	369.231
224.84	-850.000
225.21	455.556
225.59	233.333
225.96	1066.667
226.34	-620.000
226.71	-700.000
227.08	-460.000
227.46	0.000
227.83	-466.667
228.21	-1300.000
228.58	341.667
228.95	675.000
229.33	322.222
229.70	950.000
230.08	323.077
230.45	2800.000
230.82	-650.000
231.20	-400.000
231.57	-933.333
231.95	700.000
232.32	291.667
232.69	416.667
233.07	250.000
233.44	-900.000
233.81	220.000
234.19	133.333
234.56	212.500
234.93	176.471
235.31	160.000
235.68	250.000
236.05	132.143
236.43	129.630
236.80	242.857
237.17	127.586
237.55	93.750
237.92	102.500
238.29	112.121
238.67	100.000
239.04	82.927
239.41	72.917
239.79	85.000
240.16	70.833
240.53	55.738
240.91	57.971
241.28	62.712
241.65	57.576
242.02	66.197
242.40	61.429
242.77	43.956
243.14	53.165
243.51	45.455
243.89	35.514
244.26	32.710
244.63	34.653
245.00	34.862
245.38	29.661
245.75	40.152
246.12	40.000
246.49	31.206
246.87	23.770
247.24	34.667
247.61	30.000
247.98	25.850
248.36	25.455
248.73	33.163
249.10	23.214
249.47	24.500
249.84	26.368
250.22	23.243
250.59	26.500
250.96	24.895
251.33	26.977
251.70	25.893
252.08	21.429
252.45	23.904
252.82	19.772
253.19	22.134
253.56	20.000
253.94	20.290
254.31	18.217
254.68	21.254
255.05	21.724
255.42	24.088
255.79	22.150
256.16	23.051
256.54	23.701
256.91	21.242
257.28	16.722
257.65	15.674
258.02	17.994
258.39	22.636
258.76	22.319
259.14	12.857
259.51	16.910
259.88	17.325
260.25	17.582
260.62	18.082
260.99	17.906
261.36	20.891
261.73	15.426
262.10	17.016
262.47	20.000
262.85	17.600
263.22	17.738
263.59	17.391
263.96	17.293
264.33	14.568
264.70	19.410
265.07	17.317
265.44	20.183
265.81	15.566
266.18	16.476
266.55	16.312
266.92	14.989
267.29	16.228
267.66	17.265
268.03	15.919
268.40	16.702
268.77	16.300
269.14	13.666
269.51	14.254
269.88	17.347
270.25	14.255
270.62	14.592
270.99	16.024
271.36	17.886
271.73	15.723
272.10	13.737
272.47	16.468
272.84	14.770
273.21	16.116
273.58	14.170
273.95	12.320
274.32	15.759
274.69	16.535
275.06	15.847
275.43	17.050
275.80	11.698
276.17	16.728
276.54	15.701
276.91	16.045
277.28	14.416
277.65	15.314
278.02	13.603
278.39	13.849
278.76	14.828
279.13	13.523
279.50	17.273
279.87	13.222
280.23	14.917
280.60	15.693
280.97	15.862
281.34	13.531
281.71	13.739
282.08	15.043
282.45	13.007
282.82	13.712
283.19	14.149
283.56	14.050
283.92	14.984
284.29	14.143
284.66	13.782
285.03	13.101
285.40	13.884
285.77	13.580
286.14	14.551
286.51	14.724
286.87	10.443
287.24	11.862
287.61	14.286
287.98	13.433
288.35	11.556
288.72	13.050
289.08	14.264
289.45	13.872
289.82	11.563
290.19	11.859
290.56	14.847
290.93	11.511
291.29	14.365
291.66	11.017
292.03	11.501
292.40	12.331
292.77	11.142
293.13	13.267
293.50	9.987
293.87	10.705
294.24	10.629
294.60	11.440
294.97	12.308
295.34	11.023
295.71	11.432
296.08	12.133
296.44	11.563
296.81	10.918
297.18	11.407
297.55	11.823
297.91	10.099
298.28	11.715
298.65	10.552
299.02	11.339
299.38	11.871
299.75	10.854
300.12	12.385
300.48	11.358
300.85	10.608
301.22	10.349
301.59	8.962
301.95	10.502
302.32	10.361
302.69	11.538
303.05	11.448
303.42	10.538
303.79	10.184
304.15	8.801
304.52	10.571
304.89	10.981
305.25	9.900
305.62	10.981
305.99	9.239
306.35	9.789
306.72	11.342
307.09	9.834
307.45	9.187
307.82	10.082
308.19	8.351
308.55	10.100
308.92	10.893
309.29	11.440
309.65	10.109
310.02	10.649
310.38	8.175
310.75	8.968
311.12	9.483
311.48	10.328
311.85	10.496
312.22	10.220
312.58	10.107
312.95	10.971
313.31	8.521
313.68	9.662
314.05	12.454
314.41	9.311
314.78	8.996
315.14	10.521
315.51	10.785
315.87	8.850
316.24	9.617
316.61	9.848
316.97	10.459
317.34	10.063
317.70	10.360
318.07	10.676
318.43	10.633
318.80	9.194
319.16	10.402
319.53	10.088
319.89	9.498
320.26	10.615
320.62	10.256
320.99	10.296
321.35	10.297
321.72	11.101
322.08	10.342
322.45	10.808
322.81	10.339
323.18	10.480
323.54	12.108
323.91	11.151
324.27	11.317
324.64	9.948
325.00	10.345
325.37	11.383
325.73	11.298
326.10	10.439
326.46	11.808
326.83	9.680
327.19	10.843
327.56	10.064
327.92	10.820
328.29	10.966
328.65	12.329
329.01	11.292
329.38	10.998
329.74	10.418
330.11	11.642
330.47	11.338
330.84	10.267
331.20	10.575
331.56	12.349
331.93	11.463
332.29	10.544
332.66	11.139
333.02	10.309
333.38	10.122
333.75	10.425
334.11	10.067
334.48	11.709
334.84	10.726
335.20	10.009
335.57	9.656
335.93	10.513
336.29	10.365
336.66	12.007
337.02	10.180
337.38	11.006
337.75	10.980
338.11	10.970
338.47	10.161
338.84	10.923
339.20	10.130
339.56	11.186
339.93	10.870
340.29	10.336
340.65	11.148
341.02	10.861
341.38	10.345
341.74	10.382
342.11	10.518
342.47	9.926
342.83	10.993
343.20	10.994
343.56	9.611
343.92	10.405
344.28	11.085
344.65	10.758
345.01	9.921
345.37	9.535
345.73	9.683
346.10	9.801
346.46	10.845
346.82	9.722
347.19	10.124
347.55	10.304
347.91	9.441
348.27	10.070
348.63	9.177
349.00	10.282
349.36	9.805
349.72	10.398
350.08	10.792
350.45	10.282
350.81	10.550
351.17	8.783
351.53	10.085
351.89	9.790
352.26	9.826
352.62	9.427
352.98	9.433
353.34	10.092
353.70	8.945
354.07	9.692
354.43	10.522
354.79	8.884
355.15	8.959
355.51	9.517
355.87	11.145
356.24	9.931
356.60	9.132
356.96	8.946
357.32	9.947
357.68	10.059
358.04	9.954
358.40	9.370
358.77	10.068
359.13	9.535
359.49	10.304
359.85	9.531
360.21	8.544
360.57	9.854
360.93	9.091
361.29	9.668
361.66	9.918
362.02	9.091
362.38	9.452
362.74	9.271
363.10	9.748
363.46	9.116
363.82	9.677
364.18	10.028
364.54	8.941
364.90	10.576
365.26	10.132
365.62	9.530
365.98	9.842
366.35	9.034
366.71	9.993
367.07	9.352
367.43	9.134
367.79	9.774
368.15	8.684
368.51	9.166
368.87	7.677
369.23	8.316
369.59	9.643
369.95	9.510
370.31	8.830
370.67	9.577
371.03	9.874
371.39	9.418
371.75	8.932
372.11	9.585
372.47	10.616
372.83	9.041
373.19	8.636
373.55	10.447
373.91	9.047
374.27	9.127
374.63	10.169
374.99	9.367
375.35	9.274
375.71	9.960
376.07	9.019
376.42	9.143
376.78	9.120
377.14	8.781
377.50	8.115
377.86	8.840
378.22	8.288
378.58	9.201
378.94	8.751
379.30	8.611
379.66	9.332
380.02	9.384
380.38	8.431
380.74	10.381
381.09	9.755
381.45	8.671
381.81	8.570
382.17	9.096
382.53	8.038
382.89	8.752
383.25	9.295
383.61	8.473
383.97	8.758
384.32	9.162
384.68	10.458
385.04	9.613
385.40	9.193
385.76	8.660
386.12	9.462
386.48	9.058
386.83	9.291
387.19	9.541
387.55	9.069
387.91	9.642
388.27	8.983
388.62	9.624
388.98	8.921
389.34	8.685
389.70	8.667
390.06	8.720
390.42	9.562
390.77	9.214
391.13	9.173
391.49	9.558
391.85	9.415
392.20	9.297
392.56	9.020
392.92	8.366
393.28	9.081
393.64	8.945
393.99	9.306
394.35	9.123
394.71	8.263
395.07	8.942
395.42	8.607
395.78	9.377
396.14	9.759
396.50	9.326
396.85	8.963
397.21	8.604
397.57	9.145
397.92	8.203
398.28	9.211
398.64	9.773
399.00	8.658
399.35	8.588
399.71	8.940
400.07	8.676
400.42	8.418
400.78	8.974
401.14	9.336
401.49	8.698
401.85	9.560
402.21	8.846
402.57	9.934
402.92	9.212
403.28	8.532
403.63	8.652
403.99	9.228
404.35	9.613
404.70	9.333
405.06	9.040
405.42	9.216
405.77	8.820
406.13	8.785
406.49	8.812
406.84	8.911
407.20	9.304
407.55	8.615
407.91	9.381
408.27	9.036
408.62	9.284
408.98	8.752
409.34	8.299
409.69	9.023
410.05	8.408
410.40	8.716
410.76	8.357
411.11	8.945
411.47	8.951
411.83	8.553
412.18	8.394
412.54	8.829
412.89	8.083
413.25	9.806
413.60	9.521
413.96	8.797
414.31	8.560
414.67	8.939
415.03	9.642
415.38	8.833
415.74	8.844
416.09	9.619
416.45	9.438
416.80	9.301
417.16	8.912
417.51	9.490
417.87	9.136
418.22	9.235
418.58	8.408
418.93	9.221
419.29	8.133
419.64	8.661
420.00	9.308
420.35	8.653
420.71	8.343
421.06	7.828
421.42	9.269
421.77	8.828
422.12	8.931
422.48	8.834
422.83	9.096
423.19	8.909
423.54	8.886
423.90	8.947
424.25	8.696
424.61	9.402
424.96	8.526
425.31	8.976
425.67	9.091
426.02	8.413
426.38	9.043
426.73	8.444
427.09	9.075
427.44	8.610
427.79	8.290
428.15	9.428
428.50	9.486
428.85	9.112
429.21	9.022
429.56	9.272
429.92	8.553
430.27	8.563
430.62	8.370
430.98	8.932
431.33	8.266
431.68	8.148
432.04	8.639
432.39	9.769
432.74	9.836
433.10	8.472
433.45	8.788
433.80	8.880
434.16	8.986
434.51	9.133
434.86	9.472
435.22	8.428
435.57	9.069
435.92	9.505
436.28	9.447
436.63	9.238
436.98	9.291
437.34	9.247
437.69	8.959
438.04	9.194
438.39	9.749
438.75	10.078
439.10	9.120
439.45	8.988
439.81	9.023
440.16	8.806
440.51	9.516
440.86	9.288
441.22	8.929
441.57	9.396
441.92	8.934
442.27	8.763
442.63	8.892
442.98	9.375
443.33	9.266
443.68	9.155
444.03	9.142
444.39	8.851
444.74	8.540
445.09	8.636
445.44	9.405
445.79	8.918
446.15	8.579
446.50	9.072
446.85	8.416
447.20	9.353
447.55	8.700
447.91	9.963
448.26	10.064
448.61	8.955
448.96	9.641
449.31	9.571
449.66	9.524
450.02	8.590
450.37	9.273
450.72	9.201
451.07	9.657
451.42	9.247
451.77	9.393
452.12	9.870
452.47	9.660
452.83	10.141
453.18	9.730
453.53	9.888
453.88	9.714
454.23	10.459
454.58	9.266
454.93	9.749
455.28	9.731
455.63	9.870
455.98	9.645
456.34	10.334
456.69	9.451
457.04	10.203
457.39	8.743
457.74	11.486
458.09	9.040
458.44	9.200
458.79	9.496
459.14	9.111
459.49	10.079
459.84	9.728
460.19	10.678
460.54	9.915
460.89	9.648
461.24	10.309
461.59	9.751
461.94	10.106
462.29	9.954
462.64	10.804
462.99	10.877
463.34	10.758
463.69	11.192
464.04	10.823
464.39	10.532
464.74	9.906
465.09	9.808
465.44	10.718
465.79	9.799
466.14	10.069
466.49	10.255
466.84	9.978
467.19	9.900
467.54	9.429
467.89	10.505
468.24	10.075
468.59	10.476
468.94	10.568
469.29	11.179
469.64	10.804
469.99	10.861
470.34	10.120
470.68	10.621
471.03	10.807
471.38	10.728
471.73	10.516
472.08	10.959
472.43	10.615
472.78	10.819
473.13	10.576
473.48	10.208
473.83	9.894
474.17	10.274
474.52	10.427
474.87	10.119
475.22	9.709
475.57	10.231
475.92	9.964
476.27	9.630
476.61	9.008
476.96	10.815
477.31	10.129
477.66	10.252
478.01	9.902
478.36	10.608
478.70	9.429
479.05	9.990
479.40	9.673
479.75	9.980
480.10	10.455
480.45	9.570
480.79	10.369
481.14	9.510
481.49	9.515
481.84	9.631
482.19	9.956
482.53	10.540
482.88	9.946
483.23	9.427
483.58	10.637
483.92	10.238
484.27	9.503
484.62	10.526
484.97	9.934
485.31	9.173
485.66	8.777
486.01	8.724
486.36	8.451
486.70	8.253
487.05	8.629
487.40	8.784
487.75	8.843
488.09	9.119
488.44	9.337
488.79	9.406
489.13	9.705
489.48	9.908
489.83	9.174
490.17	10.033
490.52	10.078
490.87	10.603
491.22	10.062
491.56	9.969
491.91	10.349
492.26	10.468
492.60	10.615
492.95	9.787
493.30	10.146
493.64	10.332
493.99	10.018
494.34	10.444
494.68	10.049
495.03	10.507
495.37	10.221
495.72	10.536
496.07	10.108
496.41	10.035
496.76	10.004
497.11	10.540
497.45	10.039
497.80	10.426
498.14	10.633
498.49	10.446
498.84	10.280
499.18	10.375
499.53	10.381
499.87	10.288
500.22	10.272
500.56	10.492
500.91	11.364
501.26	10.243
501.60	10.610
501.95	9.677
502.29	11.200
502.64	10.234
502.98	9.471
503.33	10.601
503.67	10.640
504.02	10.300
504.36	11.448
504.71	10.927
505.06	10.934
505.40	10.482
505.75	10.196
506.09	10.359
506.44	10.808
506.78	11.059
507.13	10.373
507.47	10.383
507.82	11.241
508.16	10.632
508.51	10.580
508.85	10.684
509.19	10.377
509.54	10.986
509.88	11.387
510.23	11.471
510.57	10.376
510.92	10.839
511.26	11.245
511.61	10.635
511.95	11.050
512.30	10.900
512.64	11.007
512.98	11.379
513.33	11.322
513.67	11.497
514.02	11.221
514.36	10.955
514.70	11.573
515.05	11.135
515.39	11.732
515.74	11.536
516.08	10.403
516.42	11.639
516.77	11.253
517.11	11.467
517.46	11.153
517.80	11.305
518.14	11.493
518.49	11.191
518.83	11.264
519.17	11.370
519.52	10.868
519.86	11.608
520.20	11.890
520.55	11.362
520.89	11.437
521.23	11.040
521.58	11.532
521.92	11.603
522.26	11.197
522.61	11.824
522.95	11.592
523.29	11.404
523.64	11.734
523.98	12.441
524.32	11.765
524.66	12.116
525.01	11.302
525.35	11.137
525.69	12.101
526.04	12.493
526.38	11.477
526.72	12.411
527.06	11.473
527.41	11.548
527.75	11.747
528.09	11.439
528.43	12.935
528.78	11.747
529.12	11.680
529.46	11.923
529.80	12.208
530.15	12.434
530.49	11.191
530.83	13.102
531.17	11.439
531.51	12.201
531.86	11.836
532.20	11.990
532.54	11.299
532.88	12.804
533.22	11.639
533.57	11.714
533.91	11.422
534.25	10.502
534.59	12.456
534.93	11.661
535.27	10.700
535.62	11.202
535.96	11.407
536.30	12.858
536.64	12.422
536.98	11.265
537.32	11.938
537.66	10.842
538.01	12.508
538.35	11.915
538.69	11.347
539.03	11.878
539.37	11.408
539.71	11.481
540.05	11.877
540.39	11.887
540.73	11.962
541.07	10.602
541.42	11.007
541.76	11.591
542.10	11.714
542.44	12.344
542.78	11.894
543.12	11.840
543.46	11.028
543.80	11.090
544.14	11.641
544.48	11.740
544.82	10.459
545.16	11.172
545.50	11.616
545.84	11.932
546.18	11.638
546.52	12.459
546.86	12.508
547.20	11.047
547.54	12.350
547.88	12.409
548.22	12.083
548.56	11.786
548.90	11.507
549.24	11.371
549.58	11.405
549.92	11.788
550.26	12.170
550.60	11.776
550.94	12.483
551.28	13.172
551.62	12.138
551.96	11.892
552.30	11.668
552.64	12.816
552.98	10.438
553.32	11.332
553.66	11.857
554.00	11.776
554.34	12.450
554.68	12.836
555.02	12.559
555.36	12.168
555.69	12.435
556.03	11.019
556.37	12.110
556.71	12.777
557.05	11.140
557.39	12.067
557.73	12.399
558.07	12.609
558.41	11.857
558.75	13.133
559.08	12.652
559.42	13.314
559.76	12.901
560.10	12.044
560.44	12.077
560.78	12.340
561.12	11.252
561.45	11.890
561.79	11.111
562.13	11.876
562.47	11.616
562.81	11.646
563.15	11.894
563.48	10.870
563.82	12.726
564.16	12.313
564.50	11.754
564.84	12.280
565.17	11.349
565.51	12.069
565.85	12.091
566.19	11.845
566.52	10.349
566.86	12.026
567.20	12.697
567.54	11.245
567.88	11.946
568.21	10.984
568.55	11.041
568.89	10.766
569.23	10.483
569.56	9.784
569.90	9.774
570.24	10.119
570.57	9.994
570.91	9.922
571.25	9.549
571.59	9.137
571.92	9.150
572.26	9.030
572.60	8.831
572.93	9.373
573.27	9.104
573.61	9.096
573.95	8.740
574.28	8.822
574.62	8.966
574.96	8.703
575.29	8.422
575.63	8.881
575.97	8.301
576.30	8.479
576.64	8.635
576.98	8.730
577.31	9.205
577.65	8.871
577.98	8.216
578.32	8.598
578.66	8.709
578.99	8.727
579.33	8.660
579.67	8.931
580.00	8.507
580.34	8.672
580.67	8.680
581.01	9.151
581.35	8.289
581.68	8.210
582.02	8.369
582.35	8.265
582.69	8.515
583.02	8.265
583.36	8.606
583.70	8.739
584.03	9.147
584.37	9.036
584.70	8.435
585.04	8.756
585.37	8.611
585.71	9.124
586.04	8.501
586.38	8.882
586.72	8.623
587.05	8.749
587.39	8.799
587.72	8.612
588.06	8.766
588.39	8.879
588.73	8.662
589.06	9.104
589.40	9.014
589.73	9.177
590.07	9.849
590.40	9.826
590.73	10.283
591.07	10.095
591.40	9.261
591.74	9.781
592.07	9.817
592.41	9.193
592.74	9.008
593.08	8.691
593.41	8.947
593.75	9.253
594.08	9.516
594.41	9.286
594.75	9.760
595.08	9.122
595.42	9.250
595.75	9.246
596.09	9.559
596.42	9.505
596.75	9.816
597.09	10.070
597.42	9.061
597.75	9.574
598.09	9.479
598.42	9.221
598.76	9.830
599.09	9.562
599.42	9.170
599.76	9.837
600.09	9.322
600.42	9.669
600.76	9.007
601.09	9.320
601.42	9.468
601.76	9.094
602.09	9.676
602.42	9.649
602.76	9.450
603.09	9.653
603.42	9.578
603.76	9.038
604.09	9.881
604.42	9.341
604.76	9.798
605.09	9.633
605.42	9.793
605.75	9.475
606.09	9.487
606.42	9.019
606.75	9.677
607.09	9.317
607.42	9.080
607.75	9.196
608.08	9.667
608.42	9.522
608.75	9.628
609.08	10.119
609.41	9.864
609.75	10.165
610.08	10.207
610.41	9.091
610.74	9.394
611.07	9.868
611.41	10.009
611.74	10.086
612.07	9.730
612.40	10.526
612.73	9.935
613.07	9.985
613.40	10.125
613.73	10.085
614.06	9.750
614.39	9.495
614.72	10.196
615.06	10.040
615.39	10.347
615.72	9.874
616.05	9.342
616.38	10.096
616.71	9.712
617.05	10.104
617.38	10.169
617.71	10.630
618.04	10.600
618.37	10.728
618.70	10.566
619.03	10.440
619.36	10.364
619.69	11.280
620.03	11.089
620.36	11.175
620.69	11.622
621.02	10.258
621.35	11.390
621.68	11.283
622.01	12.325
622.34	10.051
622.67	11.798
623.00	11.436
623.33	11.471
623.66	11.377
623.99	11.575
624.32	10.637
624.65	11.850
624.99	10.548
625.32	10.287
625.65	10.966
625.98	11.018
626.31	10.905
626.64	11.390
626.97	10.788
627.30	11.568
627.63	12.559
627.96	10.250
628.29	11.634
628.62	11.463
628.95	12.411
629.28	12.621
629.61	12.039
629.94	12.532
630.26	12.392
630.59	13.830
630.92	12.197
631.25	12.874
631.58	13.404
631.91	11.798
632.24	11.856
632.57	12.181
632.90	12.733
633.23	13.641
633.56	13.593
633.89	13.934
634.22	12.379
634.55	13.656
634.88	14.129
635.20	14.350
635.53	14.518
635.86	14.541
636.19	14.478
636.52	12.649
636.85	12.837
637.18	12.676
637.51	13.184
637.83	13.501
638.16	14.420
638.49	13.533
638.82	13.732
639.15	14.454
639.48	15.403
639.81	14.408
640.13	13.252
640.46	15.171
640.79	15.475
641.12	13.648
641.45	15.006
641.77	15.456
642.10	16.466
