SpectraSuite Data File
++++++++++++++++++++++++++++++++++++
Date: Tue May 12 16:31:37 PDT 2015
User: schluterlab
Dark Spectrum Present: Yes
Reference Spectrum Present: Yes
Number of Sampled Component Spectra: 1
Spectrometers: USB2E3373
Integration Time (usec): 3000 (USB2E3373)
Spectra Averaged: 3 (USB2E3373)
Boxcar Smoothing: 0 (USB2E3373)
Correct for Electrical Dark: No (USB2E3373)
Strobe/Lamp Enabled: No (USB2E3373)
Correct for Detector Non-linearity: No (USB2E3373)
Correct for Stray Light: No (USB2E3373)
Number of Pixels in Processed Spectrum: 2048
>>>>>Begin Processed Spectral Data<<<<<
178.53	0.000
178.91	-200.000
179.29	-550.000
179.67	-3600.000
180.04	-73.333
180.42	800.000
180.80	1650.000
181.18	0.000
181.56	-437.500
181.94	0.000
182.31	1300.000
182.69	-2300.000
183.07	571.429
183.45	-3600.000
183.83	-1050.000
184.20	410.000
184.58	528.571
184.96	-215.385
185.34	-150.000
185.72	1550.000
186.09	-800.000
186.47	-2100.000
186.85	833.333
187.23	660.000
187.61	1700.000
187.98	487.500
188.36	271.429
188.74	291.667
189.12	350.000
189.49	750.000
189.87	0.000
190.25	550.000
190.63	2500.000
191.00	-266.667
191.38	-3200.000
191.76	-650.000
192.14	500.000
192.51	-3000.000
192.89	1350.000
193.27	833.333
193.65	-1266.667
194.02	-760.000
194.40	542.857
194.78	-264.286
195.15	233.333
195.53	-3200.000
195.91	-280.000
196.29	4100.000
196.66	237.500
197.04	525.000
197.42	-1050.000
197.79	850.000
198.17	400.000
198.55	0.000
198.92	442.857
199.30	1266.667
199.68	2050.000
200.05	483.333
200.43	-583.333
200.81	244.444
201.18	2900.000
201.56	275.000
201.94	-650.000
202.31	-287.500
202.69	-380.000
203.07	2700.000
203.44	-466.667
203.82	333.333
204.19	700.000
204.57	-1300.000
204.95	-525.000
205.32	-800.000
205.70	433.333
206.08	875.000
206.45	-1100.000
206.83	333.333
207.20	184.211
207.58	216.667
207.96	560.000
208.33	0.000
208.71	442.857
209.08	700.000
209.46	-4000.000
209.84	-675.000
210.21	780.000
210.59	-480.000
210.96	308.333
211.34	-1075.000
211.71	454.545
212.09	850.000
212.46	1700.000
212.84	-500.000
213.22	400.000
213.59	-2200.000
213.97	260.000
214.34	925.000
214.72	800.000
215.09	1100.000
215.47	-2900.000
215.84	-300.000
216.22	-437.500
216.59	0.000
216.97	0.000
217.34	1400.000
217.72	-1850.000
218.09	1300.000
218.47	400.000
218.84	700.000
219.22	1100.000
219.59	700.000
219.97	414.286
220.34	433.333
220.72	1800.000
221.09	3100.000
221.47	233.333
221.84	966.667
222.22	320.000
222.59	266.667
222.97	200.000
223.34	281.250
223.72	-1200.000
224.09	1166.667
224.46	361.538
224.84	-925.000
225.21	333.333
225.59	213.333
225.96	1000.000
226.34	-780.000
226.71	-750.000
227.08	-540.000
227.46	0.000
227.83	-583.333
228.21	-1800.000
228.58	350.000
228.95	850.000
229.33	277.778
229.70	1000.000
230.08	353.846
230.45	3400.000
230.82	-925.000
231.20	-533.333
231.57	-933.333
231.95	520.000
232.32	383.333
232.69	616.667
233.07	241.667
233.44	-1550.000
233.81	213.333
234.19	170.370
234.56	262.500
234.93	188.235
235.31	135.000
235.68	225.000
236.05	135.714
236.43	166.667
236.80	171.429
237.17	151.724
237.55	115.625
237.92	95.000
238.29	118.182
238.67	121.875
239.04	102.439
239.41	85.417
239.79	65.000
240.16	85.417
240.53	70.492
240.91	73.913
241.28	66.102
241.65	63.636
242.02	61.972
242.40	71.429
242.77	52.747
243.14	45.570
243.51	59.596
243.89	46.729
244.26	43.925
244.63	44.554
245.00	52.294
245.38	35.593
245.75	42.424
246.12	48.889
246.49	42.553
246.87	34.426
247.24	40.667
247.61	39.375
247.98	36.735
248.36	35.152
248.73	37.755
249.10	29.762
249.47	34.000
249.84	40.299
250.22	38.378
250.59	30.000
250.96	34.177
251.33	29.302
251.70	30.804
252.08	32.353
252.45	32.669
252.82	29.278
253.19	30.040
253.56	28.846
253.94	28.986
254.31	31.395
254.68	31.707
255.05	27.241
255.42	32.847
255.79	30.293
256.16	30.508
256.54	28.571
256.91	28.758
257.28	30.435
257.65	28.527
258.02	27.729
258.39	30.086
258.76	30.725
259.14	26.286
259.51	29.738
259.88	30.091
260.25	24.176
260.62	27.945
260.99	25.895
261.36	27.855
261.73	27.660
262.10	30.105
262.47	27.000
262.85	26.667
263.22	25.964
263.59	26.087
263.96	29.825
264.33	27.407
264.70	28.010
265.07	28.293
265.44	26.606
265.81	29.717
266.18	27.918
266.55	24.823
266.92	24.832
267.29	26.535
267.66	25.112
268.03	24.215
268.40	26.850
268.77	28.194
269.14	26.247
269.51	26.726
269.88	23.265
270.25	25.054
270.62	25.751
270.99	26.775
271.36	26.626
271.73	26.834
272.10	25.455
272.47	24.405
272.84	23.952
273.21	25.207
273.58	27.126
273.95	24.435
274.32	25.681
274.69	28.150
275.06	26.230
275.43	26.628
275.80	25.660
276.17	24.265
276.54	25.607
276.91	28.545
277.28	24.453
277.65	24.723
278.02	26.654
278.39	26.799
278.76	26.897
279.13	25.089
279.50	24.000
279.87	26.071
280.23	23.941
280.60	25.912
280.97	23.793
281.34	25.248
281.71	25.565
282.08	25.641
282.45	24.831
282.82	24.916
283.19	25.596
283.56	24.132
283.92	25.407
284.29	26.456
284.66	24.202
285.03	25.373
285.40	24.298
285.77	22.685
286.14	25.387
286.51	24.693
286.87	21.677
287.24	22.973
287.61	24.316
287.98	23.134
288.35	24.741
288.72	22.458
289.08	23.423
289.45	23.628
289.82	23.438
290.19	22.548
290.56	24.454
290.93	21.439
291.29	22.652
291.66	23.164
292.03	22.581
292.40	21.951
292.77	22.145
293.13	21.541
293.50	21.053
293.87	20.596
294.24	21.958
294.60	21.938
294.97	20.979
295.34	22.444
295.71	21.551
296.08	20.133
296.44	18.933
296.81	21.588
297.18	19.392
297.55	21.182
297.91	18.596
298.28	20.652
298.65	19.387
299.02	19.662
299.38	19.544
299.75	18.659
300.12	18.807
300.48	20.492
300.85	18.951
301.22	20.116
301.59	18.750
301.95	19.253
302.32	19.092
302.69	19.231
303.05	21.549
303.42	18.161
303.79	18.310
304.15	19.032
304.52	18.605
304.89	19.083
305.25	19.466
305.62	18.657
305.99	17.935
306.35	17.474
306.72	20.083
307.09	17.702
307.45	17.846
307.82	17.901
308.19	18.557
308.55	18.200
308.92	18.646
309.29	19.231
309.65	18.038
310.02	19.675
310.38	18.445
310.75	18.804
311.12	17.433
311.48	19.402
311.85	17.748
312.22	18.529
312.58	17.298
312.95	19.126
313.31	17.697
313.68	18.199
314.05	18.407
314.41	18.436
314.78	19.413
315.14	19.716
315.51	19.395
315.87	17.974
316.24	20.728
316.61	20.143
316.97	18.991
317.34	22.552
317.70	21.159
318.07	20.552
318.43	22.056
318.80	22.242
319.16	22.028
319.53	21.504
319.89	22.222
320.26	23.464
320.62	24.267
320.99	24.404
321.35	24.768
321.72	27.040
322.08	26.131
322.45	26.249
322.81	27.173
323.18	27.353
323.54	29.791
323.91	29.918
324.27	28.912
324.64	28.979
325.00	29.741
325.37	32.209
325.73	31.113
326.10	31.400
326.46	33.856
326.83	34.000
327.19	35.502
327.56	35.783
327.92	36.885
328.29	37.561
328.65	39.640
329.01	39.435
329.38	39.340
329.74	38.599
330.11	41.095
330.47	40.750
330.84	41.156
331.20	41.371
331.56	43.696
331.93	42.686
332.29	43.452
332.66	43.537
333.02	43.986
333.38	44.939
333.75	46.289
334.11	44.211
334.48	45.812
334.84	45.355
335.20	45.509
335.57	45.340
335.93	46.173
336.29	44.942
336.66	46.655
337.02	46.364
337.38	45.744
337.75	47.466
338.11	47.257
338.47	46.401
338.84	46.655
339.20	46.147
339.56	47.098
339.93	48.579
340.29	46.555
340.65	48.198
341.02	49.638
341.38	47.619
341.74	48.256
342.11	48.831
342.47	47.088
342.83	49.631
343.20	48.343
343.56	46.704
343.92	49.959
344.28	48.644
344.65	50.937
345.01	49.048
345.37	46.154
345.73	49.444
346.10	49.482
346.46	49.043
346.82	48.611
347.19	49.691
347.55	48.868
347.91	47.659
348.27	45.933
348.63	49.842
349.00	50.190
349.36	49.261
349.72	48.089
350.08	52.096
350.45	50.267
350.81	50.000
351.17	50.154
351.53	50.654
351.89	50.194
352.26	48.904
352.62	50.302
352.98	49.617
353.34	51.772
353.70	50.000
354.07	49.692
354.43	50.691
354.79	49.051
355.15	51.302
355.51	50.755
355.87	50.979
356.24	51.347
356.60	49.772
356.96	50.948
357.32	49.887
357.68	50.441
358.04	52.736
358.40	51.199
358.77	52.817
359.13	51.727
359.49	51.816
359.85	52.569
360.21	51.932
360.57	50.730
360.93	51.227
361.29	52.597
361.66	52.722
362.02	50.426
362.38	51.804
362.74	52.300
363.10	53.086
363.46	52.003
363.82	51.613
364.18	52.560
364.54	52.432
364.90	53.012
365.26	53.782
365.62	52.762
365.98	51.961
366.35	52.828
366.71	53.435
367.07	53.447
367.43	51.981
367.79	53.457
368.15	52.985
368.51	54.721
368.87	53.872
369.23	53.777
369.59	53.405
369.95	53.357
370.31	53.662
370.67	53.366
371.03	53.361
371.39	54.224
371.75	54.361
372.11	55.065
372.47	54.521
372.83	54.521
373.19	54.901
373.55	54.433
373.91	54.558
374.27	54.828
374.63	54.034
374.99	55.391
375.35	56.989
375.71	56.332
376.07	55.637
376.42	55.115
376.78	56.262
377.14	56.553
377.50	54.994
377.86	54.324
378.22	56.917
378.58	56.114
378.94	56.608
379.30	56.701
379.66	58.158
380.02	56.774
380.38	56.967
380.74	57.382
381.09	58.236
381.45	55.318
381.81	57.329
382.17	55.983
382.53	55.069
382.89	56.949
383.25	57.312
383.61	56.542
383.97	57.828
384.32	57.746
384.68	58.705
385.04	57.444
385.40	56.821
385.76	57.636
386.12	57.823
386.48	58.176
386.83	57.518
387.19	58.068
387.55	57.538
387.91	58.025
388.27	58.239
388.62	57.746
388.98	57.901
389.34	56.930
389.70	57.134
390.06	59.024
390.42	58.112
390.77	58.968
391.13	58.962
391.49	57.834
391.85	58.277
392.20	57.867
392.56	58.722
392.92	58.450
393.28	58.240
393.64	56.823
393.99	58.625
394.35	56.857
394.71	57.780
395.07	57.664
395.42	58.080
395.78	59.284
396.14	59.398
396.50	58.063
396.85	58.476
397.21	58.424
397.57	58.697
397.92	58.001
398.28	58.467
398.64	59.046
399.00	57.242
399.35	58.186
399.71	58.113
400.07	57.820
400.42	59.045
400.78	59.062
401.14	58.955
401.49	58.986
401.85	58.343
402.21	58.699
402.57	59.007
402.92	58.182
403.28	57.757
403.63	58.270
403.99	58.685
404.35	59.789
404.70	59.598
405.06	58.282
405.42	59.007
405.77	57.718
406.13	57.755
406.49	58.329
406.84	56.909
407.20	59.874
407.55	59.631
407.91	59.094
408.27	58.278
408.62	59.846
408.98	58.427
409.34	58.679
409.69	57.934
410.05	57.484
410.40	57.303
410.76	56.268
411.11	56.991
411.47	57.099
411.83	57.821
412.18	58.696
412.54	58.619
412.89	57.640
413.25	58.210
413.60	58.703
413.96	57.989
414.31	57.969
414.67	59.094
415.03	59.579
415.38	58.864
415.74	58.812
416.09	59.275
416.45	59.535
416.80	61.257
417.16	58.752
417.51	59.809
417.87	59.762
418.22	59.356
418.58	60.573
418.93	58.537
419.29	60.197
419.64	59.964
420.00	59.845
420.35	61.382
420.71	59.043
421.06	59.152
421.42	59.182
421.77	61.188
422.12	60.529
422.48	59.527
422.83	60.324
423.19	60.637
423.54	60.066
423.90	60.193
424.25	60.319
424.61	61.521
424.96	61.829
425.31	61.193
425.67	62.233
426.02	61.582
426.38	61.669
426.73	63.100
427.09	62.633
427.44	61.339
427.79	63.122
428.15	63.583
428.50	62.000
428.85	62.316
429.21	60.724
429.56	61.515
429.92	61.959
430.27	61.055
430.62	61.772
430.98	61.477
431.33	62.349
431.68	59.951
432.04	61.873
432.39	62.953
432.74	62.763
433.10	62.791
433.45	64.503
433.80	64.534
434.16	62.953
434.51	64.190
434.86	63.854
435.22	64.884
435.57	64.315
435.92	64.826
436.28	66.014
436.63	63.911
436.98	66.329
437.34	64.840
437.69	64.278
438.04	64.677
438.39	64.156
438.75	64.588
439.10	64.382
439.45	64.726
439.81	65.645
440.16	64.667
440.51	65.935
440.86	66.553
441.22	64.448
441.57	65.459
441.92	65.350
442.27	65.206
442.63	65.142
442.98	63.685
443.33	66.256
443.68	65.996
444.03	65.504
444.39	65.819
444.74	66.874
445.09	66.561
445.44	64.400
445.79	66.910
446.15	66.737
446.50	66.825
446.85	66.783
447.20	66.119
447.55	67.210
447.91	66.383
448.26	65.974
448.61	67.551
448.96	67.266
449.31	66.612
449.66	66.999
450.02	65.856
450.37	67.296
450.72	67.658
451.07	66.492
451.42	67.635
451.77	68.385
452.12	67.215
452.47	68.530
452.83	68.676
453.18	67.508
453.53	68.028
453.88	68.457
454.23	68.274
454.58	66.434
454.93	68.240
455.28	67.503
455.63	69.622
455.98	67.456
456.34	69.970
456.69	69.268
457.04	67.661
457.39	68.857
457.74	68.074
458.09	67.378
458.44	67.251
458.79	68.064
459.14	67.594
459.49	68.403
459.84	69.402
460.19	66.497
460.54	67.236
460.89	68.230
461.24	67.239
461.59	68.481
461.94	69.385
462.29	69.622
462.64	69.975
462.99	70.122
463.34	68.503
463.69	69.570
464.04	69.948
464.39	68.804
464.74	67.995
465.09	67.615
465.44	68.063
465.79	68.155
466.14	67.886
466.49	68.801
466.84	68.506
467.19	69.772
467.54	67.147
467.89	68.369
468.24	69.485
468.59	68.869
468.94	69.988
469.29	68.479
469.64	68.360
469.99	68.895
470.34	69.323
470.68	68.897
471.03	69.980
471.38	69.536
471.73	69.693
472.08	69.798
472.43	70.826
472.78	70.679
473.13	68.648
473.48	68.521
473.83	69.965
474.17	69.605
474.52	68.246
474.87	68.164
475.22	69.446
475.57	68.468
475.92	67.297
476.27	67.682
476.61	68.418
476.96	68.234
477.31	69.049
477.66	71.068
478.01	70.552
478.36	70.237
478.70	67.742
479.05	70.241
479.40	68.403
479.75	69.613
480.10	69.264
480.45	68.768
480.79	68.341
481.14	70.709
481.49	68.390
481.84	67.326
482.19	68.559
482.53	67.896
482.88	68.996
483.23	69.283
483.58	69.300
483.92	69.196
484.27	67.423
484.62	69.143
484.97	67.511
485.31	66.760
485.66	66.342
486.01	65.402
486.36	64.844
486.70	64.524
487.05	65.645
487.40	65.978
487.75	65.456
488.09	65.852
488.44	66.316
488.79	67.234
489.13	67.786
489.48	68.478
489.83	67.014
490.17	66.680
490.52	68.820
490.87	69.052
491.22	70.567
491.56	68.994
491.91	69.310
492.26	68.062
492.60	69.385
492.95	69.642
493.30	68.517
493.64	69.093
493.99	67.621
494.34	68.176
494.68	68.924
495.03	68.523
495.37	68.843
495.72	69.557
496.07	68.284
496.41	68.593
496.76	67.877
497.11	68.509
497.45	68.917
497.80	69.277
498.14	68.007
498.49	68.663
498.84	69.766
499.18	68.921
499.53	69.224
499.87	68.598
500.22	69.784
500.56	70.195
500.91	69.202
501.26	69.729
501.60	69.809
501.95	69.310
502.29	68.889
502.64	68.328
502.98	68.030
503.33	69.399
503.67	68.212
504.02	67.936
504.36	68.281
504.71	70.530
505.06	68.419
505.40	69.443
505.75	68.896
506.09	70.415
506.44	69.455
506.78	70.794
507.13	69.656
507.47	70.209
507.82	69.732
508.16	69.623
508.51	69.662
508.85	69.231
509.19	70.925
509.54	69.629
509.88	69.915
510.23	69.706
510.57	68.774
510.92	69.680
511.26	70.281
511.61	68.981
511.95	68.840
512.30	69.700
512.64	70.509
512.98	70.630
513.33	70.082
513.67	70.119
514.02	71.325
514.36	70.093
514.70	70.720
515.05	70.591
515.39	71.546
515.74	71.241
516.08	71.405
516.42	73.661
516.77	70.720
517.11	71.893
517.46	71.121
517.80	70.180
518.14	71.437
518.49	69.735
518.83	70.495
519.17	71.825
519.52	71.436
519.86	70.954
520.20	71.452
520.55	72.075
520.89	71.322
521.23	72.722
521.58	71.084
521.92	70.321
522.26	70.557
522.61	72.846
522.95	72.012
523.29	72.105
523.64	70.636
523.98	72.359
524.32	72.088
524.66	71.594
525.01	72.012
525.35	71.126
525.69	73.089
526.04	72.814
526.38	71.984
526.72	71.360
527.06	72.501
527.41	73.337
527.75	73.341
528.09	72.125
528.43	71.751
528.78	71.974
529.12	73.149
529.46	71.946
529.80	71.612
530.15	70.183
530.49	71.360
530.83	71.785
531.17	72.755
531.51	72.655
531.86	70.229
532.20	72.250
532.54	73.635
532.88	73.641
533.22	71.968
533.57	72.239
533.91	71.445
534.25	71.321
534.59	72.164
534.93	70.137
535.27	69.607
535.62	72.520
535.96	71.631
536.30	74.162
536.64	71.242
536.98	70.862
537.32	72.500
537.66	72.385
538.01	71.517
538.35	71.928
538.69	72.876
539.03	72.699
539.37	70.510
539.71	73.765
540.05	71.138
540.39	72.579
540.73	72.532
541.07	71.769
541.42	72.201
541.76	72.318
542.10	72.441
542.44	73.130
542.78	72.121
543.12	70.368
543.46	71.429
543.80	72.431
544.14	72.941
544.48	71.898
544.82	72.477
545.16	71.706
545.50	72.526
545.84	72.727
546.18	72.952
546.52	73.574
546.86	73.050
547.20	72.674
547.54	72.388
547.88	71.594
548.22	73.345
548.56	71.479
548.90	70.047
549.24	71.573
549.58	73.260
549.92	72.561
550.26	73.225
550.60	72.854
550.94	73.813
551.28	73.724
551.62	75.172
551.96	72.500
552.30	73.171
552.64	74.498
552.98	72.423
553.32	72.663
553.66	72.964
554.00	72.201
554.34	74.634
554.68	74.194
555.02	73.116
555.36	73.072
555.69	73.626
556.03	72.484
556.37	73.104
556.71	73.012
557.05	74.115
557.39	73.400
557.73	75.000
558.07	72.368
558.41	76.217
558.75	73.393
559.08	75.768
559.42	75.304
559.76	75.624
560.10	73.297
560.44	74.121
560.78	74.808
561.12	74.253
561.45	72.904
561.79	73.034
562.13	72.773
562.47	73.199
562.81	72.154
563.15	73.239
563.48	70.932
563.82	74.735
564.16	72.201
564.50	72.333
564.84	73.982
565.17	72.371
565.51	75.862
565.85	75.200
566.19	73.393
566.52	74.188
566.86	73.789
567.20	72.303
567.54	72.653
567.88	72.979
568.21	71.792
568.55	73.103
568.89	70.620
569.23	70.535
569.56	69.848
569.90	69.134
570.24	68.859
570.57	68.462
570.91	68.986
571.25	68.594
571.59	67.456
571.92	67.519
572.26	67.385
572.60	67.287
572.93	68.430
573.27	68.323
573.61	67.001
573.95	67.405
574.28	67.571
574.62	67.466
574.96	66.614
575.29	66.199
575.63	66.101
575.97	65.652
576.30	65.933
576.64	66.699
576.98	65.893
577.31	67.951
577.65	66.681
577.98	66.461
578.32	65.985
578.66	66.135
578.99	66.436
579.33	66.080
579.67	66.282
580.00	66.430
580.34	65.735
580.67	65.772
581.01	66.535
581.35	66.349
581.68	66.383
582.02	66.022
582.35	66.271
582.69	67.090
583.02	67.417
583.36	66.906
583.70	67.466
584.03	68.630
584.37	67.996
584.70	67.654
585.04	67.523
585.37	66.637
585.71	68.404
586.04	67.918
586.38	68.183
586.72	67.979
587.05	67.988
587.39	67.990
587.72	68.114
588.06	68.239
588.39	68.756
588.73	69.300
589.06	69.594
589.40	69.984
589.73	68.994
590.07	69.870
590.40	70.976
590.73	72.347
591.07	70.398
591.40	71.337
591.74	71.104
592.07	70.923
592.41	71.183
592.74	70.231
593.08	70.085
593.41	69.390
593.75	69.019
594.08	69.757
594.41	69.860
594.75	70.171
595.08	70.610
595.42	70.244
595.75	69.760
596.09	70.733
596.42	70.466
596.75	73.037
597.09	71.523
597.42	70.612
597.75	70.669
598.09	71.522
598.42	71.359
598.76	70.200
599.09	70.688
599.42	70.138
599.76	69.810
600.09	69.695
600.42	69.648
600.76	70.564
601.09	71.212
601.42	70.820
601.76	70.641
602.09	70.861
602.42	70.166
602.76	70.816
603.09	71.493
603.42	71.156
603.76	70.571
604.09	71.010
604.42	71.337
604.76	71.513
605.09	71.429
605.42	71.353
605.75	72.009
606.09	71.576
606.42	70.725
606.75	71.590
607.09	71.338
607.42	70.872
607.75	70.860
608.08	71.852
608.42	73.029
608.75	72.529
609.08	73.075
609.41	73.773
609.75	74.176
610.08	72.662
610.41	72.112
610.74	72.900
611.07	73.579
611.41	72.614
611.74	73.566
612.07	74.470
612.40	73.977
612.73	74.089
613.07	74.151
613.40	74.436
613.73	73.739
614.06	72.550
614.39	75.404
614.72	73.933
615.06	72.849
615.39	73.168
615.72	73.233
616.05	73.531
616.38	72.501
616.71	74.878
617.05	75.783
617.38	73.820
617.71	76.378
618.04	74.818
618.37	74.819
618.70	74.538
619.03	75.824
619.36	75.126
619.69	77.309
620.03	77.430
620.36	78.356
620.69	78.161
621.02	78.940
621.35	77.364
621.68	77.065
622.01	79.041
622.34	77.859
622.67	78.933
623.00	76.174
623.33	77.935
623.66	78.909
623.99	77.329
624.32	78.794
624.65	75.839
624.99	79.310
625.32	77.422
625.65	78.690
625.98	78.033
626.31	79.525
626.64	80.410
626.97	77.123
627.30	79.348
627.63	80.298
627.96	79.030
628.29	81.931
628.62	79.470
628.95	81.383
629.28	82.559
629.61	81.019
629.94	82.109
630.26	81.109
630.59	83.333
630.92	81.704
631.25	83.318
