SpectraSuite Data File
++++++++++++++++++++++++++++++++++++
Date: Tue May 12 16:40:15 PDT 2015
User: schluterlab
Dark Spectrum Present: Yes
Reference Spectrum Present: Yes
Number of Sampled Component Spectra: 1
Spectrometers: USB2E3373
Integration Time (usec): 3000 (USB2E3373)
Spectra Averaged: 3 (USB2E3373)
Boxcar Smoothing: 0 (USB2E3373)
Correct for Electrical Dark: No (USB2E3373)
Strobe/Lamp Enabled: No (USB2E3373)
Correct for Detector Non-linearity: No (USB2E3373)
Correct for Stray Light: No (USB2E3373)
Number of Pixels in Processed Spectrum: 2048
>>>>>Begin Processed Spectral Data<<<<<
178.53	0.000
178.91	-225.000
179.29	-775.000
179.67	-3900.000
180.04	-126.667
180.42	550.000
180.80	1400.000
181.18	0.000
181.56	-275.000
181.94	0.000
182.31	866.667
182.69	-2600.000
183.07	485.714
183.45	-3400.000
183.83	-1500.000
184.20	360.000
184.58	385.714
184.96	-269.231
185.34	-216.667
185.72	1350.000
186.09	-725.000
186.47	-2600.000
186.85	1100.000
187.23	700.000
187.61	1600.000
187.98	475.000
188.36	128.571
188.74	291.667
189.12	425.000
189.49	650.000
189.87	0.000
190.25	437.500
190.63	2400.000
191.00	-191.667
191.38	-3600.000
191.76	-800.000
192.14	562.500
192.51	-3200.000
192.89	1700.000
193.27	833.333
193.65	-933.333
194.02	-660.000
194.40	642.857
194.78	-107.143
195.15	200.000
195.53	-2100.000
195.91	-480.000
196.29	3000.000
196.66	262.500
197.04	775.000
197.42	-1550.000
197.79	800.000
198.17	266.667
198.55	0.000
198.92	400.000
199.30	900.000
199.68	1650.000
200.05	683.333
200.43	-700.000
200.81	216.667
201.18	2300.000
201.56	250.000
201.94	-700.000
202.31	-275.000
202.69	-460.000
203.07	1200.000
203.44	-483.333
203.82	391.667
204.19	760.000
204.57	-1100.000
204.95	-525.000
205.32	-500.000
205.70	633.333
206.08	600.000
206.45	-666.667
206.83	366.667
207.20	131.579
207.58	291.667
207.96	400.000
208.33	0.000
208.71	528.571
209.08	600.000
209.46	-2800.000
209.84	-575.000
210.21	780.000
210.59	-580.000
210.96	266.667
211.34	-875.000
211.71	290.909
212.09	850.000
212.46	1600.000
212.84	-550.000
213.22	466.667
213.59	-3500.000
213.97	270.000
214.34	950.000
214.72	966.667
215.09	1266.667
215.47	-3300.000
215.84	-360.000
216.22	-450.000
216.59	0.000
216.97	0.000
217.34	1300.000
217.72	-1300.000
218.09	900.000
218.47	350.000
218.84	700.000
219.22	866.667
219.59	1100.000
219.97	471.429
220.34	388.889
220.72	1300.000
221.09	3100.000
221.47	225.000
221.84	800.000
222.22	380.000
222.59	216.667
222.97	185.714
223.34	231.250
223.72	-1800.000
224.09	1200.000
224.46	215.385
224.84	-650.000
225.21	255.556
225.59	286.667
225.96	1300.000
226.34	-640.000
226.71	-700.000
227.08	-380.000
227.46	0.000
227.83	-516.667
228.21	-1550.000
228.58	375.000
228.95	1050.000
229.33	344.444
229.70	925.000
230.08	269.231
230.45	2900.000
230.82	-1100.000
231.20	-800.000
231.57	-833.333
231.95	620.000
232.32	308.333
232.69	483.333
233.07	216.667
233.44	-950.000
233.81	200.000
234.19	144.444
234.56	200.000
234.93	129.412
235.31	185.000
235.68	193.750
236.05	160.714
236.43	148.148
236.80	250.000
237.17	144.828
237.55	118.750
237.92	127.500
238.29	124.242
238.67	112.500
239.04	78.049
239.41	89.583
239.79	87.500
240.16	70.833
240.53	54.098
240.91	47.826
241.28	55.932
241.65	51.515
242.02	67.606
242.40	65.714
242.77	50.549
243.14	60.759
243.51	53.535
243.89	39.252
244.26	42.991
244.63	39.604
245.00	41.284
245.38	34.746
245.75	37.879
246.12	37.778
246.49	37.589
246.87	32.787
247.24	35.333
247.61	35.625
247.98	30.612
248.36	27.879
248.73	34.694
249.10	29.167
249.47	33.500
249.84	30.348
250.22	26.486
250.59	30.500
250.96	29.536
251.33	25.581
251.70	26.339
252.08	26.471
252.45	28.287
252.82	26.616
253.19	25.296
253.56	23.846
253.94	30.435
254.31	24.031
254.68	22.997
255.05	26.207
255.42	26.642
255.79	25.733
256.16	28.475
256.54	28.571
256.91	24.837
257.28	23.746
257.65	19.436
258.02	27.139
258.39	24.642
258.76	26.957
259.14	18.571
259.51	23.907
259.88	23.404
260.25	19.505
260.62	23.562
260.99	22.314
261.36	23.120
261.73	23.138
262.10	24.084
262.47	20.000
262.85	24.267
263.22	25.193
263.59	22.506
263.96	21.805
264.33	18.765
264.70	25.307
265.07	23.415
265.44	21.101
265.81	23.349
266.18	21.510
266.55	21.277
266.92	20.358
267.29	22.368
267.66	21.076
268.03	18.834
268.40	19.873
268.77	21.145
269.14	19.089
269.51	20.713
269.88	22.653
270.25	16.415
270.62	24.034
270.99	23.529
271.36	20.732
271.73	21.384
272.10	19.596
272.47	18.651
272.84	19.760
273.21	20.041
273.58	23.077
273.95	21.355
274.32	22.374
274.69	20.669
275.06	21.858
275.43	19.923
275.80	19.057
276.17	19.485
276.54	22.056
276.91	21.269
277.28	20.620
277.65	19.188
278.02	20.221
278.39	19.964
278.76	20.000
279.13	19.573
279.50	19.091
279.87	19.181
280.23	17.680
280.60	20.255
280.97	19.138
281.34	19.637
281.71	19.826
282.08	19.658
282.45	19.257
282.82	19.900
283.19	19.714
283.56	16.860
283.92	18.078
284.29	18.802
284.66	19.328
285.03	20.564
285.40	19.835
285.77	18.519
286.14	20.124
286.51	19.325
286.87	16.930
287.24	16.216
287.61	17.477
287.98	19.552
288.35	17.481
288.72	19.575
289.08	17.868
289.45	16.159
289.82	17.344
290.19	18.302
290.56	19.068
290.93	17.986
291.29	17.818
291.66	18.927
292.03	20.056
292.40	19.106
292.77	17.967
293.13	16.262
293.50	17.679
293.87	17.886
294.24	18.042
294.60	17.362
294.97	19.021
295.34	17.397
295.71	16.163
296.08	17.867
296.44	17.662
296.81	16.377
297.18	16.603
297.55	17.118
297.91	16.133
298.28	15.580
298.65	17.178
299.02	15.440
299.38	16.547
299.75	15.488
300.12	17.317
300.48	17.564
300.85	15.495
301.22	16.628
301.59	16.392
301.95	17.620
302.32	17.928
302.69	16.290
303.05	17.845
303.42	16.256
303.79	17.876
304.15	17.052
304.52	17.653
304.89	17.164
305.25	18.020
305.62	17.910
305.99	17.826
306.35	18.421
306.72	18.835
307.09	16.667
307.45	18.902
307.82	18.004
308.19	19.072
308.55	18.100
308.92	19.333
309.29	19.329
309.65	18.930
310.02	18.864
310.38	19.043
310.75	19.383
311.12	18.678
311.48	21.236
311.85	20.324
312.22	20.917
312.58	18.950
312.95	20.874
313.31	22.004
313.68	20.450
314.05	21.612
314.41	21.974
314.78	22.727
315.14	22.275
315.51	21.854
315.87	22.719
316.24	22.876
316.61	23.366
316.97	23.211
317.34	24.349
317.70	24.144
318.07	26.068
318.43	24.692
318.80	25.482
319.16	25.612
319.53	26.372
319.89	26.792
320.26	28.212
320.62	28.388
320.99	27.741
321.35	27.829
321.72	28.843
322.08	29.732
322.45	30.699
322.81	29.369
323.18	29.840
323.54	31.446
323.91	32.729
324.27	31.211
324.64	31.574
325.00	32.672
325.37	32.884
325.73	32.715
326.10	34.217
326.46	34.434
326.83	34.160
327.19	35.341
327.56	36.102
327.92	35.574
328.29	37.152
328.65	36.986
329.01	36.698
329.38	36.887
329.74	37.233
330.11	37.185
330.47	38.193
330.84	37.360
331.20	37.479
331.56	40.155
331.93	37.639
332.29	37.585
332.66	39.031
333.02	39.003
333.38	40.314
333.75	38.866
334.11	39.597
334.48	40.085
334.84	39.020
335.20	39.863
335.57	39.127
335.93	38.604
336.29	38.806
336.66	38.765
337.02	38.152
337.38	40.585
337.75	39.780
338.11	39.578
338.47	39.797
338.84	39.204
339.20	40.346
339.56	38.688
339.93	38.462
340.29	37.731
340.65	40.319
341.02	39.421
341.38	38.506
341.74	38.704
342.11	39.649
342.47	38.310
342.83	39.787
343.20	39.208
343.56	38.443
343.92	39.059
344.28	38.756
344.65	40.342
345.01	39.048
345.37	38.542
345.73	39.444
346.10	38.964
346.46	40.191
346.82	38.040
347.19	39.181
347.55	38.564
347.91	39.653
348.27	38.342
348.63	40.348
349.00	38.690
349.36	39.767
349.72	39.755
350.08	40.761
350.45	40.289
350.81	40.291
351.17	39.831
351.53	40.647
351.89	39.005
352.26	40.212
352.62	38.914
352.98	39.340
353.34	40.447
353.70	38.761
354.07	40.000
354.43	39.324
354.79	39.256
355.15	40.046
355.51	39.653
355.87	39.383
356.24	39.415
356.60	39.269
356.96	39.651
357.32	39.035
357.68	40.675
358.04	39.742
358.40	40.330
358.77	41.172
359.13	40.616
359.49	39.881
359.85	40.655
360.21	39.970
360.57	38.321
360.93	40.260
361.29	42.208
361.66	40.865
362.02	38.352
362.38	39.827
362.74	40.198
363.10	39.972
363.46	40.262
363.82	40.042
364.18	40.541
364.54	39.700
364.90	41.365
365.26	41.707
365.62	40.193
365.98	39.367
366.35	41.172
366.71	41.777
367.07	40.205
367.43	41.572
367.79	40.492
368.15	39.417
368.51	41.144
368.87	39.334
369.23	40.887
369.59	40.121
369.95	40.350
370.31	40.520
370.67	40.944
371.03	41.387
371.39	41.343
371.75	41.731
372.11	41.808
372.47	41.986
372.83	41.672
373.19	41.330
373.55	40.893
373.91	40.124
374.27	41.005
374.63	42.169
374.99	41.644
375.35	41.196
375.71	41.623
376.07	40.981
376.42	41.304
376.78	42.582
377.14	41.219
377.50	41.136
377.86	41.768
378.22	41.621
378.58	42.494
378.94	42.486
379.30	42.086
379.66	41.421
380.02	43.460
380.38	42.096
380.74	42.676
381.09	41.939
381.45	40.809
381.81	41.076
382.17	41.636
382.53	41.152
382.89	41.987
383.25	41.385
383.61	41.037
383.97	40.672
384.32	41.591
384.68	42.365
385.04	41.559
385.40	41.400
385.76	40.843
386.12	41.929
386.48	41.155
386.83	42.237
387.19	42.049
387.55	41.696
387.91	41.859
388.27	42.237
388.62	41.667
388.98	40.933
389.34	41.761
389.70	41.097
390.06	42.256
390.42	41.024
390.77	41.093
391.13	42.426
391.49	41.924
391.85	42.954
392.20	41.538
392.56	42.772
392.92	40.427
393.28	41.256
393.64	41.342
393.99	41.197
394.35	40.436
394.71	41.074
395.07	40.754
395.42	41.276
395.78	43.307
396.14	41.325
396.50	40.975
396.85	41.646
397.21	41.637
397.57	41.363
397.92	40.266
398.28	40.210
398.64	40.721
399.00	40.460
399.35	40.258
399.71	40.508
400.07	40.639
400.42	41.433
400.78	41.173
401.14	41.104
401.49	40.956
401.85	41.541
402.21	40.539
402.57	41.891
402.92	41.333
403.28	39.916
403.63	41.436
403.99	40.169
404.35	41.735
404.70	41.229
405.06	39.528
405.42	41.053
405.77	39.802
406.13	40.944
406.49	40.591
406.84	39.594
407.20	40.811
407.55	40.615
407.91	40.204
408.27	41.237
408.62	40.509
408.98	40.213
409.34	40.094
409.69	40.821
410.05	40.727
410.40	39.046
410.76	39.668
411.11	39.396
411.47	40.617
411.83	38.664
412.18	40.640
412.54	39.159
412.89	39.705
413.25	39.567
413.60	39.720
413.96	39.078
414.31	39.787
414.67	40.534
415.03	40.741
415.38	39.937
415.74	39.356
416.09	39.288
416.45	41.241
416.80	41.501
417.16	40.293
417.51	40.573
417.87	40.426
418.22	40.340
418.58	41.146
418.93	39.857
419.29	40.111
419.64	40.218
420.00	41.408
420.35	40.302
420.71	38.973
421.06	39.729
421.42	39.666
421.77	40.700
422.12	39.195
422.48	39.753
422.83	39.900
423.19	40.659
423.54	39.989
423.90	40.600
424.25	41.167
424.61	39.814
424.96	40.034
425.31	41.270
425.67	40.797
426.02	41.054
426.38	40.665
426.73	42.221
427.09	41.340
427.44	40.743
427.79	41.281
428.15	41.544
428.50	42.057
428.85	41.740
429.21	41.437
429.56	40.429
429.92	41.124
430.27	40.590
430.62	39.648
430.98	40.170
431.33	41.331
431.68	39.802
432.04	40.662
432.39	41.328
432.74	41.920
433.10	41.362
433.45	42.447
433.80	41.533
434.16	41.198
434.51	41.589
434.86	42.842
435.22	41.869
435.57	42.620
435.92	42.629
436.28	42.224
436.63	41.815
436.98	42.905
437.34	41.610
437.69	41.881
438.04	41.667
438.39	41.623
438.75	40.813
439.10	41.554
439.45	41.153
439.81	43.493
440.16	41.717
440.51	42.793
440.86	43.020
441.22	41.775
441.57	41.995
441.92	41.708
442.27	41.289
442.63	41.413
442.98	42.187
443.33	42.421
443.68	41.952
444.03	42.601
444.39	42.373
444.74	42.236
445.09	42.496
445.44	41.764
445.79	42.349
446.15	42.211
446.50	43.038
446.85	41.783
447.20	41.990
447.55	43.067
447.91	42.195
448.26	42.758
448.61	42.897
448.96	42.375
449.31	42.134
449.66	42.968
450.02	42.572
450.37	43.587
450.72	44.353
451.07	42.816
451.42	43.035
451.77	43.643
452.12	43.959
452.47	44.289
452.83	42.986
453.18	43.604
453.53	42.570
453.88	42.743
454.23	44.044
454.58	42.483
454.93	42.060
455.28	43.513
455.63	43.913
455.98	42.076
456.34	43.222
456.69	43.171
457.04	43.496
457.39	43.200
457.74	43.863
458.09	42.336
458.44	42.662
458.79	41.698
459.14	42.280
459.49	42.299
459.84	42.663
460.19	42.090
460.54	43.077
460.89	43.284
461.24	42.726
461.59	43.481
461.94	42.849
462.29	42.906
462.64	44.284
462.99	43.954
463.34	43.227
463.69	43.799
464.04	42.948
464.39	43.389
464.74	41.911
465.09	41.033
465.44	42.982
465.79	42.842
466.14	40.594
466.49	43.136
466.84	42.252
467.19	42.296
467.54	41.862
467.89	43.016
468.24	42.849
468.59	42.976
468.94	42.512
469.29	42.334
469.64	41.543
469.99	43.573
470.34	42.315
470.68	42.483
471.03	43.029
471.38	43.311
471.73	43.893
472.08	45.010
472.43	42.458
472.78	42.958
473.13	42.804
473.48	42.787
473.83	42.697
474.17	42.857
474.52	42.417
474.87	43.036
475.22	42.147
475.57	41.291
475.92	41.185
476.27	40.914
476.61	42.198
476.96	41.014
477.31	42.879
477.66	42.244
478.01	41.929
478.36	40.886
478.70	40.149
479.05	42.782
479.40	41.369
479.75	42.006
480.10	41.578
480.45	40.616
480.79	41.336
481.14	41.655
481.49	41.720
481.84	40.150
482.19	41.179
482.53	40.931
482.88	41.891
483.23	40.415
483.58	40.709
483.92	41.728
484.27	39.854
484.62	40.110
484.97	39.657
485.31	39.240
485.66	37.823
486.01	36.868
486.36	36.166
486.70	35.788
487.05	36.670
487.40	37.441
487.75	37.500
488.09	37.869
488.44	38.878
488.79	39.327
489.13	40.052
489.48	39.832
489.83	39.825
490.17	39.678
490.52	39.922
490.87	40.560
491.22	40.603
491.56	40.580
491.91	40.278
492.26	40.668
492.60	40.683
492.95	39.873
493.30	40.309
493.64	41.375
493.99	40.027
494.34	39.758
494.68	40.992
495.03	39.605
495.37	40.387
495.72	39.907
496.07	39.488
496.41	38.705
496.76	39.510
497.11	39.203
497.45	39.456
497.80	40.408
498.14	39.760
498.49	40.158
498.84	40.607
499.18	39.762
499.53	39.963
499.87	40.072
500.22	40.350
500.56	39.090
500.91	40.306
501.26	40.469
501.60	39.481
501.95	40.143
502.29	38.622
502.64	38.509
502.98	38.328
503.33	38.842
503.67	39.338
504.02	38.827
504.36	38.914
504.71	39.924
505.06	39.090
505.40	39.729
505.75	38.587
506.09	39.337
506.44	39.004
506.78	40.028
507.13	38.778
507.47	40.417
507.82	39.805
508.16	39.882
508.51	38.792
508.85	39.031
509.19	39.403
509.54	38.477
509.88	40.229
510.23	39.314
510.57	38.224
510.92	39.411
511.26	38.554
511.61	39.291
511.95	38.925
512.30	38.550
512.64	39.200
512.98	39.672
513.33	39.191
513.67	38.322
514.02	38.649
514.36	39.823
514.70	38.880
515.05	38.732
515.39	40.570
515.74	40.022
516.08	39.216
516.42	40.601
516.77	38.827
517.11	38.987
517.46	39.494
517.80	38.777
518.14	40.901
518.49	39.802
518.83	38.297
519.17	39.434
519.52	39.104
519.86	38.474
520.20	38.630
520.55	39.514
520.89	39.943
521.23	40.304
521.58	39.243
521.92	39.475
522.26	39.396
522.61	39.691
522.95	39.640
523.29	38.421
523.64	38.439
523.98	39.671
524.32	38.985
524.66	38.841
525.01	39.231
525.35	39.187
525.69	39.494
526.04	39.322
526.38	39.200
526.72	37.112
527.06	37.847
527.41	39.057
527.75	38.223
528.09	39.013
528.43	39.536
528.78	39.654
529.12	39.073
529.46	37.931
529.80	38.201
530.15	37.773
530.49	37.966
530.83	38.757
531.17	39.114
531.51	38.136
531.86	37.077
532.20	37.639
532.54	37.351
532.88	38.788
533.22	38.147
533.57	37.584
533.91	37.179
534.25	37.103
534.59	36.901
534.93	36.291
535.27	35.401
535.62	36.523
535.96	35.579
536.30	36.746
536.64	37.019
536.98	36.941
537.32	37.750
537.66	36.352
538.01	37.771
538.35	36.494
538.69	35.801
539.03	36.692
539.37	36.347
539.71	36.420
540.05	36.123
540.39	37.233
540.73	36.139
541.07	36.324
541.42	35.821
541.76	36.436
542.10	35.080
542.44	35.910
542.78	36.123
543.12	35.767
543.46	36.028
543.80	35.401
544.14	35.913
544.48	35.888
544.82	35.596
545.16	34.366
545.50	35.710
545.84	36.490
546.18	36.931
546.52	36.328
546.86	36.622
547.20	35.207
547.54	35.972
547.88	35.097
548.22	34.791
548.56	34.237
548.90	33.986
549.24	35.755
549.58	35.180
549.92	35.429
550.26	36.308
550.60	35.529
550.94	36.228
551.28	36.759
551.62	37.310
551.96	35.405
552.30	34.608
552.64	34.951
552.98	34.214
553.32	34.379
553.66	35.179
554.00	34.106
554.34	36.152
554.68	35.282
555.02	35.031
555.36	34.309
555.69	34.162
556.03	34.459
556.37	33.843
556.71	35.202
557.05	34.273
557.39	34.267
557.73	35.108
558.07	35.681
558.41	35.230
558.75	35.363
559.08	35.454
559.42	36.292
559.76	35.923
560.10	35.306
560.44	35.368
560.78	33.887
561.12	35.156
561.45	33.980
561.79	34.020
562.13	33.354
562.47	33.809
562.81	34.678
563.15	33.549
563.48	32.609
563.82	34.747
564.16	33.706
564.50	33.092
564.84	33.374
565.17	32.264
565.51	34.175
565.85	32.819
566.19	33.571
566.52	32.431
566.86	33.684
567.20	33.090
567.54	31.987
567.88	31.925
568.21	31.453
568.55	31.469
568.89	30.155
569.23	30.371
569.56	29.593
569.90	28.674
570.24	28.586
570.57	28.520
570.91	27.988
571.25	27.491
571.59	26.734
571.92	26.372
572.26	25.984
572.60	26.298
572.93	27.228
573.27	27.053
573.61	26.205
573.95	26.021
574.28	26.587
574.62	26.316
574.96	25.610
575.29	25.379
575.63	25.347
575.97	25.706
576.30	25.766
576.64	25.955
576.98	25.215
577.31	26.249
577.65	25.385
577.98	25.130
578.32	24.498
578.66	24.611
578.99	25.299
579.33	25.282
579.67	25.294
580.00	24.994
580.34	24.922
580.67	25.280
581.01	25.455
581.35	25.065
581.68	24.304
582.02	24.308
582.35	23.808
582.69	24.343
583.02	24.528
583.36	24.552
583.70	25.455
584.03	25.478
584.37	25.644
584.70	25.305
585.04	25.077
585.37	24.234
585.71	24.719
586.04	25.006
586.38	24.419
586.72	25.148
587.05	24.627
587.39	24.855
587.72	24.909
588.06	25.279
588.39	25.665
588.73	25.470
589.06	25.562
589.40	25.634
589.73	26.123
590.07	26.630
590.40	26.969
590.73	27.102
591.07	26.831
591.40	27.106
591.74	27.922
592.07	26.789
592.41	26.898
592.74	26.401
593.08	25.391
593.41	25.224
593.75	25.183
594.08	25.870
594.41	25.383
594.75	26.199
595.08	25.412
595.42	26.267
595.75	25.732
596.09	26.625
596.42	26.402
596.75	27.043
597.09	26.950
597.42	27.061
597.75	26.288
598.09	25.975
598.42	26.724
598.76	25.906
599.09	25.965
599.42	25.225
599.76	25.678
600.09	24.915
600.42	26.070
600.76	25.833
601.09	25.337
601.42	25.519
601.76	25.600
602.09	26.269
602.42	25.213
602.76	25.541
603.09	25.490
603.42	25.505
603.76	25.488
604.09	25.516
604.42	25.424
604.76	25.879
605.09	26.367
605.42	26.087
605.75	25.148
606.09	26.014
606.42	25.366
606.75	25.729
607.09	24.477
607.42	25.793
607.75	25.199
608.08	25.548
608.42	26.300
608.75	25.289
609.08	25.737
609.41	26.955
609.75	26.832
610.08	26.214
610.41	26.263
610.74	26.234
611.07	26.421
611.41	26.182
611.74	26.530
612.07	26.252
612.40	27.242
612.73	26.710
613.07	26.305
613.40	27.469
613.73	26.061
614.06	26.850
614.39	26.616
614.72	26.871
615.06	26.113
615.39	26.832
615.72	26.670
616.05	26.168
616.38	26.433
616.71	27.130
617.05	27.128
617.38	27.640
617.71	28.346
618.04	27.706
618.37	27.960
618.70	27.483
619.03	27.167
619.36	28.580
619.69	28.034
620.03	29.028
620.36	28.709
620.69	29.310
621.02	28.397
621.35	29.226
621.68	29.572
622.01	29.742
622.34	28.478
622.67	29.494
623.00	28.999
623.33	28.812
623.66	28.543
623.99	28.630
624.32	29.539
624.65	29.032
624.99	28.871
625.32	29.125
625.65	27.793
625.98	28.312
626.31	30.045
626.64	29.765
626.97	30.069
627.30	29.193
627.63	31.240
627.96	28.795
628.29	30.776
628.62	29.512
628.95	31.649
629.28	32.252
629.61	31.722
629.94	31.634
630.26	31.023
630.59	32.801
630.92	30.583
631.25	32.004
