SpectraSuite Data File
++++++++++++++++++++++++++++++++++++
Date: Tue May 12 16:06:08 PDT 2015
User: schluterlab
Dark Spectrum Present: Yes
Reference Spectrum Present: Yes
Number of Sampled Component Spectra: 1
Spectrometers: USB2E3373
Integration Time (usec): 3000 (USB2E3373)
Spectra Averaged: 3 (USB2E3373)
Boxcar Smoothing: 0 (USB2E3373)
Correct for Electrical Dark: No (USB2E3373)
Strobe/Lamp Enabled: No (USB2E3373)
Correct for Detector Non-linearity: No (USB2E3373)
Correct for Stray Light: No (USB2E3373)
Number of Pixels in Processed Spectrum: 2048
>>>>>Begin Processed Spectral Data<<<<<
178.53	0.000
178.91	-233.333
179.29	-650.000
179.67	-4000.000
180.04	-160.000
180.42	650.000
180.80	1650.000
181.18	0.000
181.56	-250.000
181.94	0.000
182.31	1000.000
182.69	-2700.000
183.07	585.714
183.45	-4400.000
183.83	-1650.000
184.20	440.000
184.58	528.571
184.96	-253.846
185.34	-250.000
185.72	1900.000
186.09	-750.000
186.47	-3300.000
186.85	1100.000
187.23	700.000
187.61	2300.000
187.98	600.000
188.36	250.000
188.74	366.667
189.12	366.667
189.49	1075.000
189.87	0.000
190.25	537.500
190.63	3300.000
191.00	-275.000
191.38	-4200.000
191.76	-900.000
192.14	612.500
192.51	-2600.000
192.89	2200.000
193.27	1466.667
193.65	-1200.000
194.02	-740.000
194.40	571.429
194.78	-257.143
195.15	273.333
195.53	-3200.000
195.91	-660.000
196.29	4400.000
196.66	275.000
197.04	1000.000
197.42	-1550.000
197.79	700.000
198.17	316.667
198.55	0.000
198.92	428.571
199.30	1333.333
199.68	2350.000
200.05	650.000
200.43	-583.333
200.81	216.667
201.18	3200.000
201.56	300.000
201.94	-800.000
202.31	-400.000
202.69	-680.000
203.07	4000.000
203.44	-650.000
203.82	383.333
204.19	920.000
204.57	-1850.000
204.95	-975.000
205.32	-640.000
205.70	733.333
206.08	1050.000
206.45	-1100.000
206.83	455.556
207.20	210.526
207.58	358.333
207.96	840.000
208.33	0.000
208.71	657.143
209.08	760.000
209.46	-3200.000
209.84	-675.000
210.21	960.000
210.59	-500.000
210.96	433.333
211.34	-1150.000
211.71	400.000
212.09	925.000
212.46	1750.000
212.84	-350.000
213.22	411.111
213.59	-3700.000
213.97	360.000
214.34	975.000
214.72	1100.000
215.09	1100.000
215.47	-3400.000
215.84	-420.000
216.22	-487.500
216.59	0.000
216.97	0.000
217.34	1500.000
217.72	-1750.000
218.09	1533.333
218.47	512.500
218.84	1000.000
219.22	1066.667
219.59	800.000
219.97	585.714
220.34	488.889
220.72	1800.000
221.09	3800.000
221.47	308.333
221.84	1066.667
222.22	320.000
222.59	283.333
222.97	264.286
223.34	256.250
223.72	-1950.000
224.09	966.667
224.46	276.923
224.84	-900.000
225.21	544.444
225.59	253.333
225.96	1100.000
226.34	-820.000
226.71	-1025.000
227.08	-540.000
227.46	0.000
227.83	-650.000
228.21	-2000.000
228.58	358.333
228.95	1075.000
229.33	366.667
229.70	1050.000
230.08	346.154
230.45	3900.000
230.82	-1075.000
231.20	-766.667
231.57	-1233.333
231.95	640.000
232.32	350.000
232.69	766.667
233.07	216.667
233.44	-1700.000
233.81	306.667
234.19	192.593
234.56	306.250
234.93	229.412
235.31	225.000
235.68	325.000
236.05	160.714
236.43	177.778
236.80	250.000
237.17	168.966
237.55	153.125
237.92	117.500
238.29	145.455
238.67	156.250
239.04	109.756
239.41	116.667
239.79	152.500
240.16	127.083
240.53	81.967
240.91	88.406
241.28	111.864
241.65	83.333
242.02	98.592
242.40	95.714
242.77	82.418
243.14	67.089
243.51	83.838
243.89	78.505
244.26	74.766
244.63	82.178
245.00	73.394
245.38	62.712
245.75	71.212
246.12	69.630
246.49	63.830
246.87	57.377
247.24	58.000
247.61	65.000
247.98	63.265
248.36	56.970
248.73	56.122
249.10	57.143
249.47	52.500
249.84	61.194
250.22	62.162
250.59	53.500
250.96	54.008
251.33	59.070
251.70	53.571
252.08	52.101
252.45	51.394
252.82	49.430
253.19	53.755
253.56	51.154
253.94	49.275
254.31	51.938
254.68	50.174
255.05	55.862
255.42	52.555
255.79	49.837
256.16	54.915
256.54	51.623
256.91	50.980
257.28	47.492
257.65	48.276
258.02	48.673
258.39	49.857
258.76	47.826
259.14	46.000
259.51	50.437
259.88	52.584
260.25	45.055
260.62	47.123
260.99	43.251
261.36	47.911
261.73	47.340
262.10	46.859
262.47	48.000
262.85	47.467
263.22	49.100
263.59	45.013
263.96	47.619
264.33	44.691
264.70	44.226
265.07	48.049
265.44	44.037
265.81	46.226
266.18	44.622
266.55	48.463
266.92	45.861
267.29	44.956
267.66	46.637
268.03	45.516
268.40	44.186
268.77	48.018
269.14	43.384
269.51	47.216
269.88	43.061
270.25	43.844
270.62	43.348
270.99	45.233
271.36	45.528
271.73	44.235
272.10	41.616
272.47	46.032
272.84	42.914
273.21	42.769
273.58	42.105
273.95	44.353
274.32	43.385
274.69	45.276
275.06	41.348
275.43	44.061
275.80	44.151
276.17	42.096
276.54	41.869
276.91	43.657
277.28	42.883
277.65	42.251
278.02	43.750
278.39	42.806
278.76	42.586
279.13	45.018
279.50	42.000
279.87	42.644
280.23	40.700
280.60	41.788
280.97	42.414
281.34	42.904
281.71	41.391
282.08	41.709
282.45	40.034
282.82	42.308
283.19	41.812
283.56	40.496
283.92	43.160
284.29	40.932
284.66	41.008
285.03	41.791
285.40	42.645
285.77	37.500
286.14	40.248
286.51	42.178
286.87	38.766
287.24	39.940
287.61	40.426
287.98	41.493
288.35	41.037
288.72	40.364
289.08	40.541
289.45	40.244
289.82	39.688
290.19	40.703
290.56	43.959
290.93	38.993
291.29	41.575
291.66	40.537
292.03	41.234
292.40	39.702
292.77	41.365
293.13	40.942
293.50	41.161
293.87	39.024
294.24	41.259
294.60	41.723
294.97	42.238
295.34	42.364
295.71	39.947
296.08	42.933
296.44	41.804
296.81	41.191
297.18	40.051
297.55	40.394
297.91	39.286
298.28	41.063
298.65	42.086
299.02	41.858
299.38	42.926
299.75	40.244
300.12	41.399
300.48	42.389
300.85	42.431
301.22	41.512
301.59	43.042
301.95	42.590
302.32	41.676
302.69	43.326
303.05	43.996
303.42	41.592
303.79	43.445
304.15	42.244
304.52	41.860
304.89	41.578
305.25	44.494
305.62	43.390
305.99	42.935
306.35	44.000
306.72	43.496
307.09	42.340
307.45	43.506
307.82	41.975
308.19	44.742
308.55	42.700
308.92	42.787
309.29	44.675
309.65	43.905
310.02	45.030
310.38	45.464
310.75	44.937
311.12	44.157
311.48	45.174
311.85	44.084
312.22	45.463
312.58	44.412
312.95	46.117
313.31	46.536
313.68	45.591
314.05	47.253
314.41	48.603
314.78	48.011
315.14	48.720
315.51	48.250
315.87	47.263
316.24	49.020
316.61	47.896
316.97	47.798
317.34	48.787
317.70	47.498
318.07	48.843
318.43	49.033
318.80	49.562
319.16	49.476
319.53	50.531
319.89	51.254
320.26	52.048
320.62	51.557
320.99	52.240
321.35	50.742
321.72	53.605
322.08	53.555
322.45	54.042
322.81	52.882
323.18	54.440
323.54	54.704
323.91	55.848
324.27	54.642
324.64	55.882
325.00	57.328
325.37	56.577
325.73	57.167
326.10	58.989
326.46	57.803
326.83	58.240
327.19	59.277
327.56	58.786
327.92	60.000
328.29	60.065
328.65	61.301
329.01	60.393
329.38	60.152
329.74	61.144
330.11	61.251
330.47	61.807
330.84	58.930
331.20	60.406
331.56	62.003
331.93	61.334
332.29	61.139
332.66	62.075
333.02	60.825
333.38	62.565
333.75	61.718
334.11	61.661
334.48	62.137
334.84	59.291
335.20	61.506
335.57	59.530
335.93	60.976
336.29	58.955
336.66	61.664
337.02	60.821
337.38	60.705
337.75	61.402
338.11	60.844
338.47	61.558
338.84	59.441
339.20	60.779
339.56	60.807
339.93	59.783
340.29	59.244
340.65	60.771
341.02	60.016
341.38	59.442
341.74	60.631
342.11	58.848
342.47	59.885
342.83	61.444
343.20	60.226
343.56	58.936
343.92	61.189
344.28	58.692
344.65	61.043
345.01	59.524
345.37	58.333
345.73	60.159
346.10	57.610
346.46	60.207
346.82	59.259
347.19	59.042
347.55	59.094
347.91	58.761
348.27	58.404
348.63	59.652
349.00	59.939
349.36	59.377
349.72	58.563
350.08	60.171
350.45	58.492
350.81	59.251
351.17	58.398
351.53	58.122
351.89	58.974
352.26	58.352
352.62	57.843
352.98	59.893
353.34	59.091
353.70	57.722
354.07	58.692
354.43	57.066
354.79	57.707
355.15	58.576
355.51	58.912
355.87	60.241
356.24	59.507
356.60	57.839
356.96	59.136
357.32	58.402
357.68	57.636
358.04	60.030
358.40	58.471
358.77	59.279
359.13	58.934
359.49	58.340
359.85	59.717
360.21	58.915
360.57	58.540
360.93	59.740
361.29	59.163
361.66	59.135
362.02	57.884
362.38	59.019
362.74	58.528
363.10	59.607
363.46	56.837
363.82	59.327
364.18	57.966
364.54	59.371
364.90	58.367
365.26	59.473
365.62	59.323
365.98	57.880
366.35	58.483
366.71	58.917
367.07	58.567
367.43	58.764
367.79	59.309
368.15	58.752
368.51	59.132
368.87	58.696
369.23	58.559
369.59	57.653
369.95	60.559
370.31	57.563
370.67	59.334
371.03	59.174
371.39	59.695
371.75	59.316
372.11	59.483
372.47	60.342
372.83	58.736
373.19	59.973
373.55	59.519
373.91	59.323
374.27	58.598
374.63	58.915
374.99	59.501
375.35	60.215
375.71	60.026
376.07	59.814
376.42	58.504
376.78	60.629
377.14	59.961
377.50	58.801
377.86	60.282
378.22	58.988
378.58	60.533
378.94	59.988
379.30	60.522
379.66	60.325
380.02	59.531
380.38	59.836
380.74	60.554
381.09	59.871
381.45	59.306
381.81	59.338
382.17	59.402
382.53	61.428
382.89	60.438
383.25	59.680
383.61	59.539
383.97	60.768
384.32	60.880
384.68	61.200
385.04	60.023
385.40	58.956
385.76	60.679
386.12	61.410
386.48	61.702
386.83	61.002
387.19	60.188
387.55	60.836
387.91	60.566
388.27	60.916
388.62	60.505
388.98	60.466
389.34	59.369
389.70	61.380
390.06	60.854
390.42	59.901
390.77	61.486
391.13	60.048
391.49	60.859
391.85	62.154
392.20	61.263
392.56	61.171
392.92	62.044
393.28	61.043
393.64	60.206
393.99	61.292
394.35	61.154
394.71	60.072
395.07	60.584
395.42	60.012
395.78	62.184
396.14	60.663
396.50	61.011
396.85	60.915
397.21	61.552
397.57	60.909
397.92	59.908
398.28	60.673
398.64	61.838
399.00	59.754
399.35	59.742
399.71	60.265
400.07	60.160
400.42	60.537
400.78	60.880
401.14	60.188
401.49	61.175
401.85	60.487
402.21	60.281
402.57	61.281
402.92	60.970
403.28	59.189
403.63	59.564
403.99	61.279
404.35	60.492
404.70	61.488
405.06	60.584
405.42	60.682
405.77	60.970
406.13	59.056
406.49	58.613
406.84	59.616
407.20	59.532
407.55	60.492
407.91	61.391
408.27	59.430
408.62	60.083
408.98	59.018
409.34	59.556
409.69	60.734
410.05	58.974
410.40	60.188
410.76	60.332
411.11	59.182
411.47	60.247
411.83	59.110
412.18	59.541
412.54	59.760
412.89	59.764
413.25	60.661
413.60	59.171
413.96	60.203
414.31	60.508
414.67	61.949
415.03	59.834
415.38	60.631
415.74	61.023
416.09	60.837
416.45	61.280
416.80	61.129
417.16	59.325
417.51	60.255
417.87	60.576
418.22	60.328
418.58	61.274
418.93	61.452
419.29	60.382
419.64	60.690
420.00	60.203
420.35	60.859
420.71	60.385
421.06	60.447
421.42	60.852
421.77	61.133
422.12	60.695
422.48	59.219
422.83	62.667
423.19	60.205
423.54	60.230
423.90	62.174
424.25	61.365
424.61	60.534
424.96	61.321
425.31	61.412
425.67	63.075
426.02	61.526
426.38	60.793
426.73	62.117
427.09	62.633
427.44	61.227
427.79	63.236
428.15	62.522
428.50	63.429
428.85	63.139
429.21	62.453
429.56	61.815
429.92	61.959
430.27	60.958
430.62	59.520
430.98	61.727
431.33	61.946
431.68	59.951
432.04	62.390
432.39	63.557
432.74	64.813
433.10	63.400
433.45	64.273
433.80	64.699
434.16	62.743
434.51	63.983
434.86	63.745
435.22	62.669
435.57	63.723
435.92	65.282
436.28	64.919
436.63	63.533
436.98	65.484
437.34	63.299
437.69	62.990
438.04	65.108
438.39	63.806
438.75	63.808
439.10	64.868
439.45	62.917
439.81	64.777
440.16	64.337
440.51	64.189
440.86	66.496
441.22	63.799
441.57	65.144
441.92	63.425
442.27	64.433
442.63	64.075
442.98	64.116
443.33	64.328
443.68	64.135
444.03	64.232
444.39	65.301
444.74	64.286
445.09	66.245
445.44	64.187
445.79	66.033
446.15	65.105
446.50	65.084
446.85	65.388
447.20	63.930
447.55	66.504
447.91	65.424
448.26	65.442
448.61	66.556
448.96	66.776
449.31	65.677
449.66	65.725
450.02	64.668
450.37	66.297
450.72	66.116
451.07	65.445
451.42	65.382
451.77	67.297
452.12	66.194
452.47	66.950
452.83	66.085
453.18	66.967
453.53	66.726
453.88	66.971
454.23	66.531
454.58	65.967
454.93	66.217
455.28	66.769
455.63	67.553
455.98	66.667
456.34	68.085
456.69	67.195
457.04	66.587
457.39	66.057
457.74	67.005
458.09	65.525
458.44	66.375
458.79	66.101
459.14	66.230
459.49	67.327
459.84	66.522
460.19	65.593
460.54	66.781
460.89	66.738
461.24	65.006
461.59	67.347
461.94	65.662
462.29	67.391
462.64	67.211
462.99	65.963
463.34	66.883
463.69	66.667
464.04	67.185
464.39	66.342
464.74	67.116
465.09	67.034
465.44	65.778
465.79	65.705
466.14	65.183
466.49	66.251
466.84	65.998
467.19	66.491
467.54	65.706
467.89	67.782
468.24	67.748
468.59	67.857
468.94	67.633
469.29	67.318
469.64	67.974
469.99	66.131
470.34	67.679
470.68	68.414
471.03	70.247
471.38	67.483
471.73	67.342
472.08	68.558
472.43	67.660
472.78	67.414
473.13	66.208
473.48	67.421
473.83	66.902
474.17	68.207
474.52	67.180
474.87	66.174
475.22	67.733
475.57	66.317
475.92	65.917
476.27	65.724
476.61	66.971
476.96	66.405
477.31	67.404
477.66	69.243
478.01	67.096
478.36	68.435
478.70	67.295
479.05	66.893
479.40	66.865
479.75	65.988
480.10	67.764
480.45	65.686
480.79	66.959
481.14	67.760
481.49	66.194
481.84	66.711
482.19	67.205
482.53	65.481
482.88	66.308
483.23	66.125
483.58	67.460
483.92	68.464
484.27	66.481
484.62	68.379
484.97	66.225
485.31	65.330
485.66	65.024
486.01	63.225
486.36	62.389
486.70	61.598
487.05	62.294
487.40	63.058
487.75	63.874
488.09	63.295
488.44	64.532
488.79	64.700
489.13	66.368
489.48	66.680
489.83	66.264
490.17	65.731
490.52	67.829
490.87	64.957
491.22	67.863
491.56	67.194
491.91	66.980
492.26	66.102
492.60	68.200
492.95	67.195
493.30	67.061
493.64	68.733
493.99	66.816
494.34	66.203
494.68	67.021
495.03	67.670
495.37	66.862
495.72	68.392
496.07	67.161
496.41	66.203
496.76	66.146
497.11	67.052
497.45	66.681
497.80	66.358
498.14	67.221
498.49	67.317
498.84	66.729
499.18	66.956
499.53	67.203
499.87	66.442
500.22	66.928
500.56	67.734
500.91	67.440
501.26	67.019
501.60	66.302
501.95	66.353
502.29	66.133
502.64	66.784
502.98	66.385
503.33	66.904
503.67	65.563
504.02	65.428
504.36	66.425
504.71	67.928
505.06	67.949
505.40	67.525
505.75	66.604
506.09	66.309
506.44	66.729
506.78	67.344
507.13	66.311
507.47	66.279
507.82	67.835
508.16	66.340
508.51	68.019
508.85	67.949
509.19	68.771
509.54	67.627
509.88	67.777
510.23	66.961
510.57	65.637
510.92	69.730
511.26	69.026
511.61	66.913
511.95	67.596
512.30	67.000
512.64	68.432
512.98	68.580
513.33	68.391
513.67	67.892
514.02	67.740
514.36	68.120
514.70	68.053
515.05	68.887
515.39	70.230
515.74	70.093
516.08	69.009
516.42	69.563
516.77	69.120
517.11	68.800
517.46	68.265
517.80	67.723
518.14	69.915
518.49	68.467
518.83	67.692
519.17	68.441
519.52	70.180
519.86	69.809
520.20	69.863
520.55	68.626
520.89	69.655
521.23	69.626
521.58	69.306
521.92	69.563
522.26	70.024
522.61	71.717
522.95	71.291
523.29	68.772
523.64	68.902
523.98	70.305
524.32	69.319
524.66	69.507
525.01	69.822
525.35	69.122
525.69	70.680
526.04	69.482
526.38	70.630
526.72	68.556
527.06	67.771
527.41	70.133
527.75	69.811
528.09	68.031
528.43	69.738
528.78	70.781
529.12	71.343
529.46	69.550
529.80	68.633
530.15	67.943
530.49	68.712
530.83	69.531
531.17	69.619
531.51	68.853
531.86	68.539
532.20	68.171
532.54	69.994
532.88	69.831
533.22	68.617
533.57	69.616
533.91	68.590
534.25	68.148
534.59	69.064
534.93	66.837
535.27	67.388
535.62	66.744
535.96	67.199
536.30	69.653
536.64	69.068
536.98	69.226
537.32	68.688
537.66	68.048
538.01	68.854
538.35	67.873
538.69	68.689
539.03	67.226
539.37	67.597
539.71	67.778
540.05	68.185
540.39	68.365
540.73	68.734
541.07	68.695
541.42	67.910
541.76	67.941
542.10	68.496
542.44	66.833
542.78	68.597
543.12	66.994
543.46	66.792
543.80	69.424
544.14	67.492
544.48	67.214
544.82	68.135
545.16	67.456
545.50	67.732
545.84	68.245
546.18	68.661
546.52	68.131
546.86	67.054
547.20	66.925
547.54	67.574
547.88	67.275
548.22	67.274
548.56	65.056
548.90	65.955
549.24	68.604
549.58	66.237
549.92	68.893
550.26	68.966
550.60	67.465
550.94	69.064
551.28	67.931
551.62	68.828
551.96	67.568
552.30	66.777
552.64	68.803
552.98	66.817
553.32	67.350
553.66	65.472
554.00	66.474
554.34	68.975
554.68	69.153
555.02	67.346
555.36	65.758
555.69	66.492
556.03	66.115
556.37	66.985
556.71	67.797
557.05	65.531
557.39	67.467
557.73	67.790
558.07	67.069
558.41	68.334
558.75	65.937
559.08	69.049
559.42	69.435
559.76	68.282
560.10	66.690
560.44	66.357
560.78	66.816
561.12	66.497
561.45	66.834
561.79	65.668
562.13	64.750
562.47	67.489
562.81	66.428
563.15	66.710
563.48	64.348
563.82	66.875
564.16	65.609
564.50	65.160
564.84	65.714
565.17	63.458
565.51	66.626
565.85	66.811
566.19	64.881
566.52	64.862
566.86	64.740
567.20	65.449
567.54	63.701
567.88	64.319
568.21	62.856
568.55	61.527
568.89	63.367
569.23	61.432
569.56	61.701
569.90	59.720
570.24	59.693
570.57	59.539
570.91	59.158
571.25	58.867
571.59	58.037
571.92	57.158
572.26	56.146
572.60	57.567
572.93	58.626
573.27	58.558
573.61	58.311
573.95	57.271
574.28	57.974
574.62	56.917
574.96	56.103
575.29	55.626
575.63	56.678
575.97	55.404
576.30	56.492
576.64	57.091
576.98	56.234
577.31	57.088
577.65	56.393
577.98	56.148
578.32	55.115
578.66	56.143
578.99	56.451
579.33	55.728
579.67	55.943
580.00	56.478
580.34	55.007
580.67	55.861
581.01	56.682
581.35	55.893
581.68	55.009
582.02	55.468
582.35	55.044
582.69	54.832
583.02	55.602
583.36	56.106
583.70	56.237
584.03	57.494
584.37	56.663
584.70	56.755
585.04	56.127
585.37	55.861
585.71	56.427
586.04	54.759
586.38	55.734
586.72	55.624
587.05	55.687
587.39	56.131
587.72	56.599
588.06	56.370
588.39	56.218
588.73	55.925
589.06	56.989
589.40	58.216
589.73	56.441
590.07	58.133
590.40	57.944
590.73	58.098
591.07	59.393
591.40	57.924
591.74	58.320
592.07	57.529
592.41	58.313
592.74	57.268
593.08	56.738
593.41	56.822
593.75	56.281
594.08	55.929
594.41	56.077
594.75	56.027
595.08	56.344
595.42	56.287
595.75	55.874
596.09	56.274
596.42	57.210
596.75	57.572
597.09	57.532
597.42	58.531
597.75	57.404
598.09	56.750
598.42	57.160
598.76	56.631
599.09	56.896
599.42	55.467
599.76	55.393
600.09	55.085
600.42	56.595
600.76	54.861
601.09	56.679
601.42	55.790
601.76	56.570
602.09	55.445
602.42	56.007
602.76	56.774
603.09	57.919
603.42	55.853
603.76	56.435
604.09	56.678
604.42	55.706
604.76	57.290
605.09	56.286
605.42	56.278
605.75	56.810
606.09	55.930
606.42	56.144
606.75	55.616
607.09	55.507
607.42	55.605
607.75	56.369
608.08	56.093
608.42	56.502
608.75	56.483
609.08	56.797
609.41	57.545
609.75	56.914
610.08	57.239
610.41	55.687
610.74	56.147
611.07	57.981
611.41	57.414
611.74	56.979
612.07	56.744
612.40	57.212
612.73	57.813
613.07	56.766
613.40	58.246
613.73	58.063
614.06	55.850
614.39	56.818
614.72	56.404
615.06	55.589
615.39	56.535
615.72	56.196
616.05	57.007
616.38	55.809
616.71	56.864
617.05	56.398
617.38	56.629
617.71	58.324
618.04	56.758
618.37	56.809
618.70	56.697
619.03	57.448
619.36	59.045
619.69	59.894
620.03	59.165
620.36	59.216
620.69	58.685
621.02	60.598
621.35	58.166
621.68	58.997
622.01	59.852
622.34	59.578
622.67	59.059
623.00	58.067
623.33	57.625
623.66	59.082
623.99	58.699
624.32	59.350
624.65	57.801
624.99	59.905
625.32	58.317
625.65	57.931
625.98	56.485
626.31	59.496
626.64	60.213
626.97	59.679
627.30	59.394
627.63	60.204
627.96	59.624
628.29	60.561
628.62	59.196
628.95	61.436
629.28	62.489
629.61	61.863
629.94	58.513
630.26	61.352
630.59	62.145
630.92	60.987
