SpectraSuite Data File
++++++++++++++++++++++++++++++++++++
Date: Wed May 13 21:44:30 PDT 2015
User: schluterlab
Dark Spectrum Present: Yes
Reference Spectrum Present: Yes
Number of Sampled Component Spectra: 1
Spectrometers: USB2E3373
Integration Time (usec): 3000 (USB2E3373)
Spectra Averaged: 3 (USB2E3373)
Boxcar Smoothing: 0 (USB2E3373)
Correct for Electrical Dark: No (USB2E3373)
Strobe/Lamp Enabled: No (USB2E3373)
Correct for Detector Non-linearity: No (USB2E3373)
Correct for Stray Light: No (USB2E3373)
Number of Pixels in Processed Spectrum: 2048
>>>>>Begin Processed Spectral Data<<<<<
178.53	0.000
178.91	350.000
179.29	75.000
179.67	-600.000
180.04	-433.333
180.42	200.000
180.80	1700.000
181.18	283.333
181.56	-350.000
181.94	-150.000
182.31	-72.727
182.69	123.077
183.07	-120.000
183.45	366.667
183.83	100.000
184.20	71.429
184.58	-66.667
184.96	366.667
185.34	71.429
185.72	0.000
186.09	-1000.000
186.47	-280.000
186.85	60.000
187.23	-50.000
187.61	200.000
187.98	1700.000
188.36	-25.000
188.74	0.000
189.12	-45.455
189.49	80.000
189.87	133.333
190.25	240.000
190.63	900.000
191.00	-120.000
191.38	120.000
191.76	350.000
192.14	108.333
192.51	-26.316
192.89	566.667
193.27	-25.000
193.65	-160.000
194.02	90.909
194.40	150.000
194.78	-500.000
195.15	220.000
195.53	-220.000
195.91	75.000
196.29	-500.000
196.66	0.000
197.04	650.000
197.42	20.000
197.79	60.000
198.17	-112.500
198.55	-266.667
198.92	250.000
199.30	-466.667
199.68	30.000
200.05	600.000
200.43	150.000
200.81	-1200.000
201.18	-60.000
201.56	-83.333
201.94	600.000
202.31	0.000
202.69	-142.857
203.07	-400.000
203.44	-60.000
203.82	-533.333
204.19	10.000
204.57	0.000
204.95	16.667
205.32	0.000
205.70	-600.000
206.08	-175.000
206.45	-116.667
206.83	400.000
207.20	-366.667
207.58	-100.000
207.96	-800.000
208.33	-128.571
208.71	-1100.000
209.08	87.500
209.46	350.000
209.84	0.000
210.21	80.000
210.59	1000.000
210.96	320.000
211.34	700.000
211.71	-950.000
212.09	-233.333
212.46	-140.000
212.84	-300.000
213.22	-50.000
213.59	-900.000
213.97	-100.000
214.34	-1200.000
214.72	-61.538
215.09	275.000
215.47	177.778
215.84	400.000
216.22	-100.000
216.59	0.000
216.97	600.000
217.34	100.000
217.72	0.000
218.09	66.667
218.47	0.000
218.84	-114.286
219.22	-162.500
219.59	-400.000
219.97	-375.000
220.34	25.000
220.72	-80.000
221.09	0.000
221.47	-133.333
221.84	400.000
222.22	0.000
222.59	1100.000
222.97	-200.000
223.34	-83.333
223.72	-1100.000
224.09	-400.000
224.46	0.000
224.84	-125.000
225.21	14.286
225.59	-225.000
225.96	33.333
226.34	-20.000
226.71	-171.429
227.08	450.000
227.46	-75.000
227.83	0.000
228.21	-37.500
228.58	-575.000
228.95	-41.176
229.33	-6.250
229.70	12.500
230.08	0.000
230.45	-137.500
230.82	-141.667
231.20	257.143
231.57	-225.000
231.95	400.000
232.32	-16.667
232.69	52.941
233.07	-700.000
233.44	-47.826
233.81	-650.000
234.19	16.667
234.56	-73.333
234.93	80.000
235.31	21.053
235.68	-84.615
236.05	15.385
236.43	-22.222
236.80	-9.091
237.17	-66.667
237.55	-58.824
237.92	-17.241
238.29	-11.111
238.67	13.889
239.04	-12.903
239.41	0.000
239.79	44.681
240.16	18.605
240.53	25.000
240.91	23.214
241.28	16.071
241.65	16.129
242.02	9.211
242.40	5.797
242.77	7.246
243.14	34.615
243.51	15.957
243.89	24.038
244.26	33.962
244.63	19.231
245.00	18.750
245.38	27.731
245.75	22.951
246.12	22.556
246.49	14.634
246.87	15.966
247.24	28.378
247.61	19.205
247.98	21.154
248.36	22.485
248.73	20.787
249.10	21.212
249.47	24.194
249.84	27.895
250.22	23.383
250.59	23.364
250.96	33.636
251.33	21.531
251.70	24.268
252.08	26.360
252.45	28.395
252.82	23.954
253.19	27.237
253.56	20.863
253.94	28.114
254.31	25.000
254.68	26.846
255.05	26.403
255.42	29.371
255.79	29.141
256.16	28.707
256.54	25.079
256.91	23.418
257.28	26.730
257.65	23.248
258.02	23.167
258.39	26.316
258.76	24.128
259.14	28.125
259.51	25.843
259.88	28.184
260.25	22.778
260.62	24.719
260.99	28.647
261.36	22.798
261.73	25.185
262.10	24.682
262.47	25.926
262.85	24.378
263.22	28.718
263.59	25.455
263.96	25.304
264.33	25.000
264.70	25.349
265.07	26.157
265.44	27.816
265.81	25.858
266.18	26.424
266.55	24.891
266.92	24.788
267.29	25.309
267.66	26.115
268.03	28.807
268.40	24.788
268.77	27.066
269.14	26.939
269.51	30.390
269.88	23.625
270.25	26.271
270.62	25.205
270.99	26.378
271.36	25.397
271.73	28.715
272.10	26.476
272.47	25.336
272.84	28.150
273.21	25.245
273.58	26.434
273.95	26.415
274.32	26.493
274.69	25.865
275.06	25.088
275.43	26.554
275.80	25.709
276.17	24.862
276.54	23.979
276.91	24.564
277.28	24.007
277.65	26.573
278.02	27.143
278.39	25.044
278.76	25.920
279.13	24.014
279.50	25.517
279.87	25.000
280.23	25.225
280.60	24.394
280.97	24.838
281.34	27.603
281.71	23.577
282.08	25.299
282.45	26.230
282.82	28.115
283.19	27.744
283.56	26.406
283.92	25.841
284.29	24.337
284.66	23.229
285.03	22.801
285.40	21.903
285.77	24.324
286.14	26.140
286.51	26.087
286.87	24.154
287.24	25.369
287.61	26.355
287.98	25.735
288.35	23.845
288.72	24.390
289.08	25.641
289.45	22.761
289.82	23.147
290.19	22.861
290.56	22.869
290.93	23.066
291.29	24.213
291.66	22.814
292.03	24.251
292.40	22.342
292.77	23.025
293.13	22.176
293.50	23.137
293.87	24.533
294.24	23.148
294.60	22.887
294.97	24.339
295.34	20.976
295.71	19.317
296.08	21.990
296.44	22.577
296.81	21.437
297.18	22.125
297.55	20.991
297.91	21.242
298.28	21.186
298.65	21.675
299.02	23.443
299.38	21.350
299.75	21.394
300.12	18.837
300.48	20.117
300.85	20.092
301.22	20.093
301.59	20.305
301.95	20.093
302.32	21.120
302.69	18.531
303.05	20.819
303.42	20.682
303.79	20.925
304.15	19.277
304.52	21.075
304.89	20.930
305.25	19.978
305.62	21.367
305.99	20.892
306.35	21.630
306.72	22.584
307.09	19.812
307.45	21.086
307.82	21.368
308.19	21.421
308.55	20.164
308.92	20.432
309.29	20.420
309.65	20.180
310.02	21.670
310.38	21.646
310.75	21.499
311.12	21.477
311.48	21.563
311.85	22.638
312.22	21.954
312.58	20.676
312.95	23.881
313.31	23.875
313.68	22.233
314.05	23.440
314.41	24.496
314.78	23.814
315.14	24.352
315.51	24.643
315.87	25.301
316.24	25.712
316.61	25.845
316.97	25.926
317.34	25.936
317.70	26.048
318.07	27.063
318.43	27.281
318.80	25.916
319.16	26.879
319.53	27.599
319.89	27.913
320.26	28.466
320.62	29.842
320.99	28.585
321.35	28.718
321.72	31.184
322.08	29.797
322.45	29.510
322.81	29.575
323.18	30.501
323.54	31.949
323.91	31.707
324.27	32.133
324.64	31.882
325.00	33.246
325.37	33.276
325.73	33.754
326.10	34.062
326.46	33.528
326.83	33.981
327.19	33.577
327.56	34.891
327.92	34.111
328.29	35.810
328.65	36.547
329.01	34.653
329.38	37.478
329.74	35.622
330.11	34.626
330.47	36.111
330.84	36.552
331.20	35.696
331.56	36.685
331.93	36.779
332.29	37.011
332.66	35.254
333.02	36.577
333.38	36.579
333.75	36.348
334.11	36.719
334.48	36.530
334.84	35.777
335.20	35.935
335.57	36.031
335.93	35.137
336.29	35.377
336.66	35.897
337.02	34.609
337.38	34.117
337.75	35.487
338.11	35.013
338.47	33.562
338.84	35.653
339.20	35.538
339.56	35.666
339.93	36.387
340.29	36.208
340.65	36.270
341.02	34.609
341.38	35.726
341.74	33.950
342.11	34.517
342.47	35.314
342.83	36.111
343.20	36.294
343.56	35.405
343.92	35.012
344.28	35.633
344.65	34.939
345.01	34.140
345.37	35.855
345.73	35.376
346.10	34.510
346.46	34.797
346.82	35.393
347.19	34.494
347.55	36.268
347.91	34.840
348.27	36.041
348.63	35.176
349.00	35.377
349.36	35.008
349.72	35.422
350.08	33.931
350.45	35.239
350.81	35.681
351.17	35.104
351.53	34.878
351.89	34.631
352.26	32.664
352.62	34.961
352.98	36.022
353.34	34.541
353.70	34.034
354.07	34.980
354.43	34.526
354.79	34.295
355.15	34.084
355.51	34.548
355.87	35.027
356.24	35.393
356.60	33.464
356.96	35.150
357.32	34.443
357.68	34.148
358.04	34.833
358.40	33.411
358.77	33.716
359.13	35.564
359.49	34.671
359.85	34.647
360.21	33.847
360.57	33.384
360.93	34.901
361.29	35.159
361.66	35.004
362.02	33.951
362.38	35.746
362.74	34.518
363.10	34.635
363.46	34.366
363.82	34.590
364.18	33.793
364.54	34.865
364.90	34.146
365.26	34.041
365.62	35.156
365.98	35.302
366.35	35.035
366.71	34.593
367.07	34.302
367.43	34.843
367.79	34.468
368.15	33.755
368.51	34.248
368.87	35.380
369.23	34.733
369.59	35.236
369.95	34.035
370.31	35.007
370.67	34.757
371.03	34.595
371.39	35.557
371.75	33.929
372.11	34.330
372.47	34.607
372.83	35.090
373.19	34.604
373.55	34.971
373.91	35.502
374.27	33.472
374.63	34.780
374.99	34.262
375.35	34.589
375.71	34.579
376.07	34.476
376.42	34.826
376.78	34.478
377.14	35.525
377.50	35.007
377.86	35.325
378.22	34.766
378.58	34.678
378.94	34.563
379.30	34.728
379.66	34.587
380.02	34.926
380.38	34.518
380.74	34.728
381.09	34.560
381.45	35.369
381.81	34.689
382.17	33.900
382.53	34.954
382.89	35.344
383.25	34.877
383.61	34.746
383.97	33.875
384.32	35.098
384.68	34.423
385.04	33.659
385.40	34.496
385.76	35.706
386.12	34.926
386.48	34.796
386.83	34.293
387.19	34.793
387.55	34.151
387.91	35.732
388.27	35.327
388.62	34.519
388.98	35.732
389.34	35.338
389.70	34.005
390.06	34.125
390.42	35.309
390.77	33.440
391.13	35.164
391.49	34.598
391.85	34.185
392.20	33.709
392.56	34.857
392.92	35.225
393.28	34.340
393.64	33.884
393.99	33.782
394.35	33.827
394.71	34.487
395.07	33.459
395.42	34.186
395.78	34.106
396.14	34.115
396.50	33.735
396.85	34.990
397.21	34.707
397.57	34.037
397.92	34.371
398.28	34.969
398.64	33.090
399.00	34.710
399.35	33.712
399.71	33.896
400.07	34.518
400.42	34.483
400.78	34.199
401.14	33.660
401.49	33.793
401.85	34.275
402.21	34.427
402.57	34.090
402.92	34.919
403.28	34.146
403.63	34.532
403.99	34.293
404.35	32.918
404.70	32.447
405.06	33.588
405.42	33.354
405.77	33.007
406.13	34.000
406.49	33.853
406.84	33.578
407.20	33.215
407.55	33.766
407.91	33.620
408.27	32.377
408.62	34.070
408.98	33.107
409.34	33.601
409.69	33.658
410.05	33.520
410.40	33.110
410.76	32.792
411.11	33.147
411.47	33.908
411.83	33.437
412.18	33.375
412.54	32.581
412.89	33.480
413.25	32.920
413.60	31.850
413.96	32.335
414.31	32.861
414.67	32.190
415.03	33.694
415.38	32.365
415.74	33.008
416.09	33.840
416.45	33.356
416.80	33.624
417.16	33.401
417.51	33.490
417.87	33.267
418.22	33.420
418.58	33.377
418.93	32.957
419.29	34.125
419.64	33.270
420.00	33.651
420.35	33.234
420.71	33.090
421.06	34.071
421.42	33.577
421.77	33.584
422.12	33.582
422.48	33.315
422.83	34.554
423.19	34.100
423.54	34.335
423.90	33.551
424.25	33.911
424.61	33.765
424.96	33.708
425.31	33.427
425.67	34.568
426.02	34.099
426.38	33.520
426.73	33.720
427.09	33.959
427.44	34.058
427.79	35.511
428.15	33.761
428.50	33.595
428.85	34.809
429.21	33.990
429.56	34.485
429.92	35.346
430.27	34.918
430.62	35.100
430.98	35.219
431.33	33.745
431.68	35.250
432.04	34.254
432.39	34.296
432.74	34.641
433.10	35.328
433.45	34.497
433.80	35.862
434.16	34.954
434.51	34.293
434.86	35.041
435.22	35.654
435.57	35.012
435.92	34.861
436.28	34.294
436.63	35.219
436.98	35.958
437.34	36.142
437.69	34.829
438.04	33.899
438.39	35.928
438.75	36.412
439.10	36.784
439.45	35.835
439.81	36.515
440.16	36.290
440.51	35.315
440.86	35.803
441.22	36.259
441.57	35.846
441.92	37.221
442.27	36.093
442.63	36.437
442.98	35.301
443.33	36.343
443.68	35.793
444.03	35.966
444.39	35.895
444.74	37.162
445.09	36.839
445.44	37.746
445.79	35.519
446.15	36.550
446.50	37.059
446.85	37.039
447.20	36.592
447.55	36.989
447.91	36.067
448.26	36.707
448.61	37.457
448.96	37.130
449.31	36.893
449.66	37.073
450.02	37.749
450.37	37.427
450.72	36.510
451.07	36.238
451.42	36.744
451.77	38.284
452.12	37.077
452.47	37.508
452.83	36.262
453.18	37.365
453.53	36.759
453.88	36.988
454.23	37.515
454.58	37.500
454.93	37.524
455.28	37.636
455.63	36.681
455.98	37.979
456.34	36.682
456.69	37.316
457.04	37.028
457.39	38.064
457.74	37.882
458.09	37.382
458.44	37.720
458.79	36.738
459.14	35.899
459.49	38.354
459.84	36.809
460.19	35.714
460.54	38.017
460.89	37.838
461.24	37.053
461.59	37.742
461.94	37.484
462.29	36.826
462.64	36.939
462.99	36.217
463.34	37.707
463.69	37.049
464.04	36.134
464.39	37.950
464.74	37.224
465.09	36.206
465.44	37.430
465.79	37.608
466.14	37.970
466.49	38.065
466.84	37.418
467.19	36.879
467.54	37.071
467.89	37.398
468.24	36.816
468.59	37.157
468.94	37.548
469.29	36.814
469.64	36.611
469.99	37.379
470.34	36.750
470.68	36.952
471.03	35.472
471.38	36.718
471.73	36.763
472.08	37.045
472.43	37.731
472.78	37.931
473.13	36.478
473.48	37.247
473.83	36.660
474.17	37.695
474.52	36.958
474.87	37.214
475.22	36.655
475.57	36.642
475.92	37.077
476.27	36.422
476.61	36.070
476.96	36.893
477.31	36.570
477.66	36.949
478.01	36.484
478.36	36.294
478.70	36.520
479.05	36.848
479.40	36.817
479.75	36.504
480.10	36.053
480.45	35.851
480.79	36.287
481.14	37.285
481.49	36.951
481.84	36.616
482.19	35.711
482.53	36.048
482.88	36.002
483.23	35.611
483.58	36.153
483.92	36.576
484.27	36.185
484.62	36.041
484.97	36.043
485.31	36.211
485.66	35.763
486.01	36.485
486.36	35.933
486.70	36.082
487.05	36.266
487.40	35.444
487.75	35.544
488.09	35.690
488.44	34.876
488.79	35.390
489.13	34.990
489.48	35.528
489.83	35.060
490.17	35.270
490.52	36.699
490.87	34.539
491.22	35.516
491.56	35.410
491.91	35.574
492.26	35.445
492.60	34.873
492.95	35.471
493.30	35.804
493.64	34.388
493.99	35.072
494.34	35.453
494.68	34.654
495.03	34.338
495.37	35.231
495.72	35.088
496.07	36.142
496.41	34.020
496.76	35.009
497.11	34.836
497.45	34.922
497.80	35.941
498.14	35.164
498.49	35.098
498.84	35.273
499.18	33.848
499.53	35.007
499.87	34.061
500.22	34.793
500.56	35.005
500.91	34.809
501.26	34.926
501.60	34.167
501.95	34.260
502.29	34.563
502.64	34.378
502.98	35.164
503.33	34.307
503.67	34.275
504.02	34.657
504.36	34.175
504.71	34.604
505.06	34.437
505.40	34.175
505.75	34.130
506.09	34.185
506.44	34.274
506.78	33.621
507.13	33.836
507.47	34.040
507.82	33.804
508.16	33.140
508.51	32.903
508.85	33.644
509.19	33.545
509.54	34.263
509.88	33.441
510.23	33.316
510.57	34.322
510.92	33.136
511.26	34.378
511.61	33.644
511.95	32.635
512.30	33.148
512.64	34.222
512.98	32.853
513.33	33.014
513.67	31.914
514.02	33.523
514.36	32.528
514.70	32.968
515.05	33.704
515.39	32.311
515.74	33.274
516.08	33.510
516.42	32.200
516.77	32.513
517.11	32.981
517.46	33.313
517.80	33.535
518.14	32.701
518.49	32.972
518.83	32.757
519.17	32.831
519.52	33.595
519.86	33.212
520.20	32.019
520.55	31.468
520.89	31.689
521.23	33.462
521.58	32.680
521.92	31.364
522.26	31.750
522.61	32.708
522.95	32.578
523.29	31.429
523.64	31.850
523.98	32.020
524.32	31.758
524.66	31.753
525.01	32.045
525.35	31.205
525.69	32.869
526.04	31.140
526.38	31.039
526.72	31.821
527.06	30.110
527.41	30.179
527.75	31.242
528.09	32.607
528.43	31.682
528.78	30.749
529.12	31.436
529.46	31.286
529.80	30.809
530.15	29.215
530.49	31.402
530.83	30.941
531.17	31.986
531.51	30.411
531.86	31.030
532.20	30.186
532.54	29.862
532.88	30.088
533.22	30.976
533.57	30.265
533.91	31.226
534.25	31.250
534.59	30.051
534.93	30.867
535.27	30.127
535.62	29.474
535.96	29.863
536.30	31.117
536.64	30.075
536.98	29.502
537.32	29.324
537.66	30.959
538.01	30.305
538.35	29.144
538.69	29.833
539.03	29.597
539.37	29.510
539.71	31.378
540.05	28.745
540.39	29.525
540.73	29.120
541.07	29.796
541.42	29.764
541.76	29.432
542.10	29.045
542.44	30.007
542.78	30.187
543.12	28.908
543.46	29.026
543.80	28.853
544.14	30.351
544.48	28.003
544.82	29.455
545.16	29.006
545.50	30.520
545.84	28.191
546.18	28.822
546.52	28.793
546.86	27.491
547.20	28.377
547.54	28.878
547.88	28.745
548.22	28.795
548.56	27.552
548.90	29.296
549.24	29.236
549.58	27.900
549.92	28.687
550.26	29.963
550.60	28.378
550.94	27.761
551.28	27.782
551.62	27.820
551.96	28.551
552.30	27.220
552.64	28.107
552.98	28.196
553.32	28.046
553.66	27.880
554.00	27.934
554.34	26.740
554.68	27.890
555.02	28.892
555.36	28.064
555.69	28.041
556.03	28.449
556.37	27.952
556.71	27.821
557.05	28.561
557.39	26.903
557.73	29.425
558.07	27.355
558.41	26.268
558.75	28.099
559.08	27.346
559.42	28.009
559.76	27.599
560.10	28.132
560.44	27.856
560.78	26.906
561.12	26.840
561.45	28.231
561.79	28.061
562.13	28.340
562.47	27.571
562.81	27.273
563.15	27.408
563.48	27.185
563.82	26.402
564.16	26.269
564.50	28.155
564.84	26.149
565.17	27.219
565.51	27.139
565.85	26.849
566.19	26.821
566.52	26.278
566.86	26.106
567.20	26.390
567.54	26.885
567.88	26.204
568.21	25.475
568.55	25.769
568.89	25.773
569.23	26.489
569.56	26.742
569.90	26.150
570.24	26.173
570.57	26.441
570.91	26.232
571.25	25.955
571.59	26.037
571.92	26.371
572.26	25.572
572.60	25.593
572.93	25.742
573.27	25.934
573.61	26.173
573.95	25.568
574.28	26.063
574.62	25.648
574.96	25.787
575.29	26.078
575.63	25.342
575.97	26.033
576.30	25.661
576.64	25.701
576.98	25.505
577.31	25.832
577.65	25.403
577.98	25.698
578.32	25.153
578.66	25.329
578.99	25.657
579.33	25.162
579.67	24.618
580.00	25.043
580.34	25.230
580.67	25.306
581.01	25.210
581.35	25.485
581.68	25.440
582.02	25.441
582.35	25.395
582.69	25.488
583.02	25.121
583.36	25.135
583.70	24.301
584.03	24.562
584.37	24.617
584.70	24.953
585.04	25.135
585.37	25.006
585.71	25.301
586.04	25.213
586.38	24.572
586.72	24.867
587.05	25.296
587.39	25.387
587.72	24.840
588.06	25.007
588.39	24.685
588.73	25.181
589.06	24.863
589.40	24.802
589.73	24.111
590.07	24.244
590.40	25.104
590.73	25.162
591.07	24.572
591.40	23.957
591.74	24.767
592.07	24.281
592.41	24.968
592.74	24.730
593.08	24.410
593.41	24.888
593.75	25.065
594.08	24.698
594.41	24.899
594.75	24.550
595.08	24.085
595.42	24.374
595.75	24.295
596.09	23.634
596.42	24.101
596.75	24.221
597.09	24.886
597.42	24.271
597.75	24.267
598.09	24.362
598.42	24.027
598.76	24.265
599.09	24.210
599.42	24.622
599.76	23.845
600.09	23.569
600.42	23.804
600.76	24.132
601.09	23.766
601.42	24.069
601.76	23.707
602.09	24.889
602.42	24.267
602.76	23.532
603.09	24.271
603.42	24.230
603.76	23.655
604.09	23.913
604.42	23.273
604.76	24.138
605.09	23.788
605.42	24.157
605.75	23.897
606.09	23.675
606.42	23.982
606.75	23.333
607.09	23.892
607.42	23.730
607.75	23.414
608.08	24.211
608.42	23.571
608.75	23.459
609.08	23.420
609.41	23.497
609.75	23.348
610.08	23.570
610.41	23.567
610.74	24.254
611.07	23.196
611.41	24.309
611.74	23.758
612.07	22.981
612.40	23.027
612.73	23.985
613.07	23.559
613.40	23.458
613.73	23.944
614.06	22.941
614.39	22.846
614.72	24.320
615.06	22.778
615.39	23.068
615.72	22.840
616.05	23.142
616.38	24.341
616.71	21.776
617.05	23.219
617.38	22.736
617.71	21.875
618.04	22.791
618.37	22.902
618.70	23.027
619.03	22.405
619.36	22.918
619.69	23.026
620.03	22.686
620.36	22.269
620.69	21.271
621.02	22.308
621.35	21.832
621.68	22.086
622.01	22.977
622.34	22.918
622.67	23.258
623.00	23.708
623.33	23.411
623.66	21.413
623.99	22.881
624.32	22.377
624.65	23.665
624.99	21.896
625.32	23.600
625.65	21.783
625.98	23.144
626.31	23.347
626.64	23.044
626.97	21.886
627.30	22.241
627.63	22.751
627.96	21.472
628.29	21.488
628.62	22.727
628.95	20.741
629.28	22.365
629.61	22.105
629.94	22.244
630.26	21.773
630.59	21.479
630.92	21.386
631.25	21.627
631.58	22.591
631.91	21.421
632.24	20.527
632.57	20.889
632.90	22.754
