SpectraSuite Data File
++++++++++++++++++++++++++++++++++++
Date: Wed May 13 21:50:39 PDT 2015
User: schluterlab
Dark Spectrum Present: Yes
Reference Spectrum Present: Yes
Number of Sampled Component Spectra: 1
Spectrometers: USB2E3373
Integration Time (usec): 3000 (USB2E3373)
Spectra Averaged: 3 (USB2E3373)
Boxcar Smoothing: 0 (USB2E3373)
Correct for Electrical Dark: No (USB2E3373)
Strobe/Lamp Enabled: No (USB2E3373)
Correct for Detector Non-linearity: No (USB2E3373)
Correct for Stray Light: No (USB2E3373)
Number of Pixels in Processed Spectrum: 2048
>>>>>Begin Processed Spectral Data<<<<<
178.53	0.000
178.91	850.000
179.29	225.000
179.67	-450.000
180.04	-266.667
180.42	300.000
180.80	1000.000
181.18	166.667
181.56	-500.000
181.94	-350.000
182.31	-72.727
182.69	153.846
183.07	-180.000
183.45	216.667
183.83	177.778
184.20	42.857
184.58	0.000
184.96	500.000
185.34	242.857
185.72	0.000
186.09	-800.000
186.47	-220.000
186.85	200.000
187.23	-400.000
187.61	500.000
187.98	1500.000
188.36	-125.000
188.74	0.000
189.12	-18.182
189.49	50.000
189.87	83.333
190.25	240.000
190.63	900.000
191.00	-200.000
191.38	380.000
191.76	250.000
192.14	233.333
192.51	-10.526
192.89	866.667
193.27	325.000
193.65	-260.000
194.02	145.455
194.40	220.000
194.78	-800.000
195.15	260.000
195.53	-100.000
195.91	-75.000
196.29	-300.000
196.66	0.000
197.04	350.000
197.42	-120.000
197.79	110.000
198.17	-25.000
198.55	133.333
198.92	225.000
199.30	-433.333
199.68	-20.000
200.05	850.000
200.43	200.000
200.81	-1000.000
201.18	-380.000
201.56	-166.667
201.94	600.000
202.31	-4.348
202.69	-100.000
203.07	-766.667
203.44	-280.000
203.82	-333.333
204.19	-70.000
204.57	0.000
204.95	-116.667
205.32	0.000
205.70	-700.000
206.08	-275.000
206.45	-300.000
206.83	650.000
207.20	-433.333
207.58	-10.000
207.96	-800.000
208.33	-242.857
208.71	-1800.000
209.08	237.500
209.46	400.000
209.84	0.000
210.21	150.000
210.59	2500.000
210.96	240.000
211.34	1400.000
211.71	-900.000
212.09	-166.667
212.46	-200.000
212.84	66.667
213.22	-175.000
213.59	-1700.000
213.97	-900.000
214.34	-750.000
214.72	-61.538
215.09	225.000
215.47	166.667
215.84	800.000
216.22	-287.500
216.59	-500.000
216.97	533.333
217.34	177.778
217.72	0.000
218.09	500.000
218.47	-300.000
218.84	-128.571
219.22	-187.500
219.59	-133.333
219.97	-25.000
220.34	-87.500
220.72	-100.000
221.09	0.000
221.47	-133.333
221.84	-1100.000
222.22	0.000
222.59	1000.000
222.97	-533.333
223.34	-83.333
223.72	-1300.000
224.09	-600.000
224.46	-54.545
224.84	-125.000
225.21	-142.857
225.59	-325.000
225.96	-166.667
226.34	-100.000
226.71	-100.000
227.08	950.000
227.46	-112.500
227.83	-1700.000
228.21	-6.250
228.58	-300.000
228.95	-64.706
229.33	0.000
229.70	-75.000
230.08	-7.692
230.45	-125.000
230.82	-66.667
231.20	242.857
231.57	-350.000
231.95	1000.000
232.32	66.667
232.69	-76.471
233.07	-1000.000
233.44	-21.739
233.81	-950.000
234.19	-4.167
234.56	-106.667
234.93	-60.000
235.31	-52.632
235.68	-138.462
236.05	-23.077
236.43	-72.222
236.80	-39.394
237.17	-73.333
237.55	-82.353
237.92	-41.379
238.29	-59.259
238.67	-5.556
239.04	-51.613
239.41	-21.277
239.79	-2.128
240.16	-23.256
240.53	-19.643
240.91	-5.357
241.28	-14.286
241.65	3.226
242.02	-10.526
242.40	-10.145
242.77	-17.391
243.14	-5.128
243.51	-12.766
243.89	1.923
244.26	10.377
244.63	-5.769
245.00	-2.083
245.38	-8.403
245.75	-4.918
246.12	5.263
246.49	-7.317
246.87	-12.605
247.24	6.081
247.61	-1.987
247.98	-3.205
248.36	-2.959
248.73	-5.618
249.10	-1.515
249.47	-4.839
249.84	5.263
250.22	3.483
250.59	3.271
250.96	3.182
251.33	-7.656
251.70	5.021
252.08	3.347
252.45	1.646
252.82	4.943
253.19	1.946
253.56	4.676
253.94	7.829
254.31	5.282
254.68	4.698
255.05	3.300
255.42	1.399
255.79	4.294
256.16	4.416
256.54	3.492
256.91	1.582
257.28	5.660
257.65	3.822
258.02	0.000
258.39	3.509
258.76	2.326
259.14	5.114
259.51	0.843
259.88	3.523
260.25	1.944
260.62	2.247
260.99	5.305
261.36	3.627
261.73	-0.988
262.10	3.053
262.47	3.457
262.85	2.736
263.22	4.103
263.59	1.558
263.96	4.866
264.33	3.606
264.70	3.023
265.07	3.009
265.44	5.517
265.81	4.119
266.18	3.872
266.55	2.402
266.92	3.602
267.29	4.115
267.66	4.246
268.03	4.115
268.40	0.424
268.77	3.099
269.14	5.714
269.51	6.366
269.88	1.222
270.25	4.449
270.62	3.484
270.99	3.543
271.36	4.762
271.73	5.221
272.10	4.762
272.47	4.607
272.84	6.299
273.21	2.935
273.58	3.279
273.95	4.906
274.32	3.172
274.69	4.372
275.06	6.360
275.43	4.331
275.80	3.191
276.17	4.236
276.54	3.908
276.91	4.181
277.28	3.430
277.65	3.497
278.02	5.714
278.39	4.263
278.76	5.017
279.13	4.460
279.50	3.621
279.87	1.630
280.23	5.405
280.60	2.076
280.97	3.571
281.34	6.467
281.71	3.740
282.08	4.444
282.45	4.098
282.82	4.313
283.19	5.030
283.56	4.063
283.92	3.976
284.29	3.120
284.66	3.789
285.03	4.560
285.40	3.021
285.77	5.255
286.14	3.951
286.51	6.897
286.87	6.462
287.24	6.195
287.61	4.970
287.98	5.588
288.35	3.577
288.72	5.022
289.08	5.413
289.45	3.818
289.82	5.598
290.19	4.628
290.56	4.545
290.93	3.867
291.29	4.514
291.66	5.328
292.03	7.357
292.40	5.922
292.77	7.095
293.13	4.045
293.50	6.405
293.87	6.533
294.24	5.556
294.60	6.762
294.97	7.407
295.34	4.222
295.71	4.862
296.08	4.188
296.44	4.592
296.81	5.847
297.18	7.250
297.55	6.250
297.91	7.578
298.28	6.659
298.65	5.911
299.02	7.204
299.38	8.098
299.75	6.731
300.12	6.047
300.48	5.146
300.85	5.889
301.22	6.156
301.59	6.690
301.95	4.530
302.32	6.651
302.69	5.085
303.05	5.980
303.42	7.500
303.79	6.730
304.15	6.353
304.52	7.849
304.89	5.426
305.25	5.488
305.62	8.134
305.99	9.684
306.35	8.986
306.72	7.019
307.09	7.821
307.45	8.307
307.82	9.053
308.19	6.792
308.55	7.779
308.92	8.841
309.29	8.108
309.65	8.392
310.02	9.046
310.38	9.045
310.75	8.383
311.12	10.107
311.48	9.990
311.85	9.449
312.22	9.671
312.58	9.469
312.95	10.348
313.31	10.468
313.68	10.401
314.05	11.720
314.41	11.239
314.78	11.290
315.14	12.222
315.51	10.466
315.87	12.975
316.24	12.856
316.61	13.242
316.97	13.148
317.34	13.012
317.70	13.738
318.07	14.729
318.43	14.544
318.80	13.264
319.16	13.528
319.53	15.054
319.89	14.182
320.26	15.342
320.62	14.829
320.99	14.147
321.35	16.183
321.72	16.266
322.08	15.959
322.45	16.836
322.81	16.081
323.18	17.084
323.54	17.690
323.91	18.248
324.27	17.102
324.64	17.334
325.00	17.585
325.37	18.601
325.73	18.855
326.10	19.260
326.46	18.896
326.83	19.741
327.19	19.756
327.56	20.709
327.92	19.871
328.29	21.536
328.65	20.508
329.01	18.821
329.38	21.565
329.74	20.773
330.11	21.551
330.47	19.618
330.84	20.758
331.20	21.093
331.56	19.746
331.93	20.844
332.29	22.242
332.66	20.000
333.02	20.330
333.38	21.491
333.75	19.710
334.11	22.222
334.48	19.965
334.84	20.848
335.20	22.384
335.57	20.801
335.93	20.790
336.29	19.089
336.66	20.769
337.02	21.391
337.38	20.888
337.75	19.724
338.11	20.581
338.47	20.548
338.84	19.931
339.20	20.811
339.56	20.734
339.93	20.398
340.29	19.983
340.65	20.873
341.02	20.715
341.38	19.595
341.74	19.160
342.11	21.305
342.47	19.916
342.83	19.608
343.20	21.489
343.56	20.033
343.92	20.390
344.28	21.510
344.65	19.755
345.01	18.886
345.37	20.970
345.73	20.507
346.10	20.305
346.46	19.675
346.82	19.823
347.19	20.807
347.55	21.648
347.91	19.797
348.27	20.032
348.63	19.631
349.00	19.182
349.36	20.251
349.72	20.418
350.08	20.437
350.45	19.577
350.81	19.797
351.17	19.630
351.53	20.503
351.89	17.871
352.26	18.224
352.62	19.690
352.98	19.089
353.34	19.324
353.70	19.159
354.07	18.902
354.43	19.518
354.79	21.154
355.15	19.177
355.51	18.603
355.87	19.703
356.24	20.626
356.60	19.390
356.96	19.800
357.32	20.046
357.68	19.786
358.04	19.472
358.40	18.992
358.77	20.413
359.13	20.623
359.49	18.925
359.85	19.484
360.21	20.278
360.57	18.099
360.93	19.879
361.29	20.133
361.66	19.666
362.02	19.718
362.38	19.793
362.74	19.289
363.10	19.957
363.46	19.741
363.82	19.438
364.18	19.144
364.54	19.840
364.90	18.676
365.26	19.533
365.62	18.608
365.98	19.929
366.35	19.787
366.71	19.401
367.07	19.277
367.43	19.164
367.79	18.833
368.15	20.042
368.51	18.917
368.87	20.237
369.23	18.648
369.59	19.168
369.95	19.013
370.31	19.456
370.67	18.320
371.03	19.302
371.39	20.014
371.75	20.071
372.11	19.373
372.47	19.539
372.83	20.042
373.19	18.201
373.55	19.220
373.91	18.458
374.27	18.603
374.63	19.203
374.99	18.524
375.35	18.562
375.71	17.867
376.07	18.711
376.42	18.316
376.78	19.287
377.14	19.322
377.50	20.013
377.86	18.459
378.22	18.647
378.58	17.970
378.94	19.500
379.30	19.113
379.66	19.174
380.02	18.199
380.38	18.735
380.74	19.247
381.09	18.215
381.45	18.077
381.81	18.792
382.17	17.958
382.53	18.954
382.89	18.516
383.25	17.531
383.61	18.523
383.97	18.938
384.32	18.526
384.68	18.754
385.04	18.571
385.40	18.306
385.76	18.735
386.12	18.076
386.48	18.370
386.83	18.273
387.19	17.829
387.55	18.945
387.91	18.450
388.27	17.633
388.62	18.477
388.98	18.523
389.34	18.233
389.70	17.766
390.06	18.187
390.42	18.428
390.77	17.553
391.13	18.308
391.49	17.204
391.85	17.444
392.20	18.421
392.56	18.159
392.92	17.964
393.28	17.548
393.64	17.554
393.99	16.952
394.35	17.222
394.71	18.013
395.07	16.289
395.42	16.819
395.78	17.439
396.14	16.867
396.50	17.185
396.85	17.973
397.21	16.667
397.57	16.957
397.92	16.228
398.28	16.808
398.64	17.061
399.00	16.406
399.35	17.253
399.71	15.842
400.07	16.446
400.42	16.740
400.78	16.677
401.14	16.432
401.49	16.237
401.85	16.032
402.21	15.789
402.57	17.229
402.92	17.522
403.28	16.385
403.63	16.553
403.99	16.635
404.35	16.833
404.70	15.468
405.06	16.618
405.42	15.389
405.77	15.495
406.13	15.886
406.49	15.698
406.84	15.690
407.20	15.808
407.55	14.805
407.91	15.553
408.27	15.097
408.62	15.470
408.98	16.215
409.34	15.780
409.69	17.284
410.05	15.734
410.40	15.703
410.76	15.162
411.11	16.107
411.47	15.992
411.83	15.471
412.18	15.932
412.54	16.228
412.89	14.984
413.25	14.808
413.60	15.235
413.96	15.169
414.31	15.906
414.67	15.302
415.03	15.088
415.38	15.522
415.74	14.815
416.09	14.342
416.45	15.584
416.80	14.899
417.16	14.507
417.51	14.936
417.87	14.815
418.22	15.126
418.58	14.915
418.93	15.254
419.29	15.182
419.64	14.758
420.00	14.794
420.35	15.362
420.71	14.808
421.06	15.314
421.42	15.876
421.77	14.913
422.12	16.046
422.48	14.940
422.83	14.649
423.19	15.641
423.54	15.194
423.90	14.727
424.25	16.696
424.61	15.835
424.96	14.725
425.31	14.750
425.67	15.109
426.02	16.313
426.38	15.672
426.73	14.600
427.09	15.697
427.44	15.619
427.79	15.024
428.15	16.208
428.50	15.529
428.85	16.113
429.21	15.476
429.56	15.356
429.92	16.189
430.27	16.360
430.62	15.792
430.98	15.812
431.33	15.207
431.68	15.921
432.04	15.042
432.39	15.589
432.74	15.757
433.10	16.037
433.45	16.864
433.80	16.264
434.16	16.384
434.51	16.522
434.86	15.842
435.22	16.355
435.57	16.646
435.92	16.767
436.28	15.976
436.63	16.282
436.98	16.627
437.34	15.873
437.69	16.293
438.04	15.733
438.39	17.123
438.75	16.269
439.10	17.062
439.45	16.525
439.81	16.441
440.16	17.391
440.51	16.885
440.86	16.123
441.22	16.925
441.57	17.462
441.92	16.744
442.27	16.342
442.63	16.362
442.98	17.361
443.33	17.099
443.68	16.763
444.03	16.841
444.39	17.402
444.74	17.062
445.09	16.355
445.44	18.197
445.79	17.088
446.15	17.582
446.50	17.015
446.85	16.943
447.20	17.146
447.55	17.515
447.91	16.854
448.26	17.095
448.61	17.089
448.96	17.995
449.31	17.990
449.66	17.756
450.02	17.965
450.37	17.920
450.72	17.279
451.07	17.806
451.42	16.906
451.77	17.651
452.12	17.706
452.47	18.141
452.83	17.866
453.18	18.460
453.53	17.907
453.88	18.554
454.23	18.418
454.58	18.627
454.93	17.768
455.28	17.662
455.63	17.405
455.98	17.833
456.34	18.373
456.69	19.361
457.04	17.647
457.39	17.078
457.74	17.415
458.09	17.595
458.44	17.979
458.79	16.859
459.14	18.371
459.49	17.439
459.84	17.813
460.19	17.827
460.54	18.309
460.89	18.356
461.24	16.893
461.59	18.780
461.94	17.952
462.29	17.770
462.64	17.150
462.99	17.907
463.34	18.992
463.69	18.492
464.04	18.007
464.39	17.145
464.74	17.936
465.09	17.731
465.44	18.462
465.79	18.171
466.14	17.731
466.49	18.240
466.84	17.573
467.19	18.089
467.54	18.341
467.89	18.228
468.24	17.886
468.59	18.547
468.94	18.072
469.29	17.911
469.64	18.201
469.99	18.000
470.34	17.869
470.68	17.546
471.03	18.406
471.38	17.733
471.73	18.519
472.08	18.282
472.43	18.865
472.78	18.594
473.13	18.008
473.48	17.743
473.83	17.702
474.17	17.708
474.52	18.058
474.87	17.913
475.22	17.754
475.57	18.238
475.92	18.157
476.27	17.774
476.61	18.347
476.96	18.504
477.31	18.015
477.66	17.571
478.01	17.637
478.36	18.474
478.70	18.153
479.05	18.036
479.40	18.201
479.75	18.597
480.10	17.491
480.45	17.705
480.79	18.118
481.14	17.984
481.49	17.662
481.84	17.908
482.19	18.342
482.53	17.905
482.88	17.929
483.23	17.180
483.58	18.715
483.92	17.947
484.27	17.383
484.62	17.443
484.97	17.379
485.31	17.767
485.66	17.115
486.01	17.143
486.36	16.881
486.70	17.137
487.05	17.501
487.40	17.525
487.75	16.968
488.09	17.360
488.44	17.490
488.79	17.562
489.13	17.376
489.48	17.529
489.83	17.820
490.17	18.202
490.52	18.841
490.87	17.432
491.22	18.135
491.56	18.208
491.91	17.619
492.26	17.892
492.60	17.508
492.95	18.416
493.30	17.733
493.64	17.170
493.99	18.357
494.34	17.630
494.68	18.043
495.03	17.292
495.37	17.908
495.72	17.794
496.07	17.487
496.41	16.940
496.76	18.053
497.11	17.465
497.45	18.482
497.80	18.021
498.14	17.783
498.49	17.247
498.84	17.611
499.18	18.019
499.53	17.430
499.87	17.273
500.22	17.471
500.56	18.054
500.91	17.706
501.26	18.079
501.60	16.716
501.95	17.393
502.29	17.039
502.64	17.792
502.98	17.630
503.33	17.859
503.67	17.527
504.02	17.598
504.36	17.831
504.71	17.886
505.06	18.543
505.40	17.629
505.75	17.599
506.09	17.067
506.44	17.288
506.78	17.420
507.13	17.256
507.47	17.338
507.82	17.268
508.16	17.573
508.51	17.510
508.85	16.848
509.19	17.249
509.54	18.606
509.88	17.527
510.23	17.263
510.57	18.591
510.92	17.672
511.26	18.097
511.61	18.002
511.95	17.255
512.30	17.490
512.64	18.729
512.98	17.507
513.33	17.014
513.67	17.320
514.02	17.617
514.36	17.697
514.70	17.898
515.05	17.613
515.39	17.512
515.74	18.117
516.08	16.873
516.42	17.569
516.77	17.575
517.11	17.049
517.46	18.667
517.80	18.826
518.14	17.697
518.49	18.083
518.83	17.780
519.17	17.108
519.52	17.612
519.86	18.336
520.20	16.980
520.55	17.413
520.89	17.647
521.23	17.949
521.58	17.320
521.92	17.725
522.26	17.632
522.61	17.841
522.95	17.098
523.29	17.841
523.64	17.800
523.98	17.789
524.32	17.517
524.66	16.688
525.01	17.890
525.35	18.038
525.69	17.760
526.04	17.459
526.38	18.483
526.72	17.423
527.06	17.602
527.41	16.678
527.75	17.757
528.09	17.835
528.43	17.096
528.78	17.313
529.12	16.753
529.46	16.763
529.80	17.735
530.15	16.602
530.49	17.183
530.83	16.791
531.17	16.644
531.51	16.723
531.86	16.328
532.20	16.885
532.54	16.759
532.88	17.631
533.22	16.835
533.57	17.020
533.91	17.677
534.25	17.188
534.59	17.696
534.93	16.008
535.27	16.752
535.62	16.447
535.96	16.721
536.30	16.822
536.64	16.610
536.98	15.978
537.32	15.730
537.66	17.630
538.01	15.950
538.35	15.884
538.69	15.987
539.03	16.443
539.37	15.694
539.71	16.439
540.05	16.194
540.39	17.275
540.73	15.782
541.07	17.007
541.42	15.556
541.76	16.103
542.10	15.708
542.44	15.593
542.78	16.031
543.12	16.173
543.46	16.033
543.80	15.954
544.14	16.586
544.48	14.997
544.82	16.274
545.16	15.619
545.50	16.003
545.84	16.129
546.18	15.638
546.52	16.937
546.86	14.912
547.20	15.940
547.54	16.226
547.88	16.059
548.22	14.984
548.56	15.410
548.90	15.426
549.24	15.972
549.58	15.587
549.92	16.434
550.26	17.417
550.60	15.691
550.94	14.403
551.28	17.260
551.62	16.917
551.96	15.593
552.30	15.066
552.64	15.395
552.98	17.685
553.32	15.789
553.66	15.187
554.00	16.055
554.34	15.165
554.68	15.735
555.02	15.793
555.36	15.431
555.69	15.222
556.03	15.082
556.37	15.505
556.71	15.557
557.05	15.572
557.39	15.750
557.73	15.658
558.07	15.448
558.41	15.519
558.75	16.243
559.08	15.557
559.42	16.837
559.76	16.284
560.10	16.065
560.44	16.286
560.78	15.180
561.12	15.067
561.45	15.646
561.79	15.406
562.13	16.245
562.47	16.214
562.81	15.152
563.15	15.793
563.48	14.866
563.82	15.527
564.16	15.504
564.50	15.672
564.84	14.865
565.17	16.093
565.51	14.973
565.85	14.724
566.19	15.166
566.52	15.007
566.86	14.918
567.20	15.577
567.54	15.026
567.88	14.726
568.21	14.666
568.55	14.450
568.89	13.360
569.23	14.070
569.56	13.976
569.90	13.995
570.24	13.105
570.57	13.681
570.91	13.582
571.25	13.153
571.59	12.959
571.92	13.552
572.26	13.246
572.60	13.089
572.93	13.183
573.27	13.483
573.61	13.591
573.95	13.326
574.28	13.045
574.62	12.738
574.96	13.140
575.29	12.688
575.63	13.040
575.97	12.582
576.30	12.775
576.64	13.178
576.98	12.588
577.31	12.975
577.65	12.746
577.98	12.311
578.32	12.832
578.66	12.632
578.99	12.981
579.33	12.669
579.67	12.755
580.00	12.447
580.34	12.579
580.67	13.057
581.01	12.896
581.35	12.461
581.68	12.493
582.02	12.631
582.35	13.120
582.69	12.657
583.02	12.972
583.36	12.792
583.70	12.907
584.03	13.184
584.37	12.760
584.70	12.623
585.04	13.378
585.37	12.612
585.71	12.687
586.04	12.581
586.38	12.839
586.72	12.672
587.05	13.565
587.39	13.006
587.72	13.112
588.06	12.613
588.39	13.098
588.73	12.816
589.06	12.997
589.40	13.244
589.73	12.433
590.07	13.489
590.40	13.063
590.73	13.371
591.07	13.665
591.40	13.652
591.74	13.295
592.07	13.875
592.41	13.556
592.74	13.272
593.08	12.752
593.41	13.391
593.75	12.597
594.08	12.953
594.41	13.090
594.75	13.343
595.08	12.696
595.42	13.350
595.75	13.232
596.09	12.818
596.42	13.440
596.75	13.471
597.09	13.922
597.42	13.145
597.75	13.200
598.09	13.661
598.42	13.870
598.76	13.644
599.09	13.125
599.42	13.331
599.76	13.443
600.09	13.366
600.42	12.919
600.76	13.119
601.09	12.919
601.42	12.975
601.76	12.703
602.09	13.822
602.42	13.289
602.76	12.961
603.09	13.593
603.42	13.315
603.76	13.016
604.09	12.490
604.42	12.641
604.76	13.138
605.09	13.321
605.42	13.630
605.75	12.420
606.09	12.914
606.42	12.594
606.75	12.597
607.09	12.810
607.42	13.660
607.75	12.166
608.08	13.210
608.42	13.121
608.75	13.856
609.08	13.425
609.41	13.612
609.75	13.414
610.08	12.426
610.41	13.314
610.74	13.715
611.07	12.675
611.41	13.357
611.74	12.992
612.07	12.976
612.40	14.216
612.73	12.898
613.07	13.304
613.40	12.610
613.73	13.055
614.06	13.212
614.39	13.785
614.72	13.437
615.06	12.889
615.39	12.859
615.72	12.311
616.05	12.725
616.38	13.230
616.71	12.837
617.05	13.329
617.38	12.877
617.71	12.990
618.04	13.711
618.37	13.754
618.70	13.777
619.03	13.402
619.36	13.452
619.69	13.085
620.03	12.792
620.36	13.570
620.69	12.705
621.02	13.000
621.35	13.737
621.68	13.529
622.01	13.997
622.34	13.402
622.67	13.939
623.00	14.286
623.33	13.014
623.66	12.565
623.99	13.428
624.32	13.280
624.65	13.576
624.99	13.593
625.32	13.667
625.65	13.256
625.98	13.349
626.31	14.857
626.64	14.789
626.97	13.668
627.30	14.713
627.63	14.100
627.96	12.727
628.29	14.140
628.62	13.443
628.95	13.527
629.28	14.384
629.61	14.928
629.94	14.120
630.26	14.581
630.59	13.786
630.92	14.357
631.25	14.315
631.58	14.026
631.91	14.104
632.24	13.941
632.57	13.889
632.90	15.986
633.23	14.269
633.56	15.108
633.89	14.115
634.22	16.608
634.55	15.347
634.88	15.074
635.20	15.250
635.53	14.858
