SpectraSuite Data File
++++++++++++++++++++++++++++++++++++
Date: Tue May 12 15:35:21 PDT 2015
User: schluterlab
Dark Spectrum Present: Yes
Reference Spectrum Present: Yes
Number of Sampled Component Spectra: 1
Spectrometers: USB2E3373
Integration Time (usec): 3000 (USB2E3373)
Spectra Averaged: 3 (USB2E3373)
Boxcar Smoothing: 0 (USB2E3373)
Correct for Electrical Dark: No (USB2E3373)
Strobe/Lamp Enabled: No (USB2E3373)
Correct for Detector Non-linearity: No (USB2E3373)
Correct for Stray Light: No (USB2E3373)
Number of Pixels in Processed Spectrum: 2048
>>>>>Begin Processed Spectral Data<<<<<
178.53	0.000
178.91	-325.000
179.29	-575.000
179.67	-3300.000
180.04	-113.333
180.42	725.000
180.80	1550.000
181.18	0.000
181.56	-287.500
181.94	0.000
182.31	766.667
182.69	-3100.000
183.07	657.143
183.45	-3700.000
183.83	-1650.000
184.20	350.000
184.58	485.714
184.96	-207.692
185.34	-166.667
185.72	1900.000
186.09	-900.000
186.47	-3100.000
186.85	833.333
187.23	720.000
187.61	1500.000
187.98	537.500
188.36	228.571
188.74	375.000
189.12	241.667
189.49	875.000
189.87	0.000
190.25	450.000
190.63	3000.000
191.00	-225.000
191.38	-4000.000
191.76	-725.000
192.14	587.500
192.51	-2300.000
192.89	1650.000
193.27	1000.000
193.65	-1033.333
194.02	-540.000
194.40	671.429
194.78	-235.714
195.15	286.667
195.53	-3700.000
195.91	-600.000
196.29	3400.000
196.66	293.750
197.04	825.000
197.42	-1750.000
197.79	600.000
198.17	375.000
198.55	0.000
198.92	500.000
199.30	1133.333
199.68	2000.000
200.05	616.667
200.43	-533.333
200.81	222.222
201.18	3400.000
201.56	325.000
201.94	-775.000
202.31	-275.000
202.69	-660.000
203.07	3100.000
203.44	-533.333
203.82	300.000
204.19	820.000
204.57	-1800.000
204.95	-1000.000
205.32	-920.000
205.70	450.000
206.08	825.000
206.45	-1100.000
206.83	377.778
207.20	226.316
207.58	300.000
207.96	740.000
208.33	0.000
208.71	600.000
209.08	780.000
209.46	-4000.000
209.84	-725.000
210.21	900.000
210.59	-460.000
210.96	241.667
211.34	-825.000
211.71	327.273
212.09	1075.000
212.46	1900.000
212.84	-666.667
213.22	488.889
213.59	-3600.000
213.97	290.000
214.34	1275.000
214.72	1166.667
215.09	866.667
215.47	-4000.000
215.84	-400.000
216.22	-412.500
216.59	0.000
216.97	0.000
217.34	1350.000
217.72	-1700.000
218.09	1233.333
218.47	512.500
218.84	625.000
219.22	1033.333
219.59	1166.667
219.97	542.857
220.34	355.556
220.72	1700.000
221.09	2900.000
221.47	316.667
221.84	966.667
222.22	380.000
222.59	255.556
222.97	328.571
223.34	212.500
223.72	-1600.000
224.09	900.000
224.46	276.923
224.84	-850.000
225.21	400.000
225.59	293.333
225.96	1300.000
226.34	-680.000
226.71	-775.000
227.08	-460.000
227.46	0.000
227.83	-550.000
228.21	-2150.000
228.58	400.000
228.95	1000.000
229.33	388.889
229.70	1150.000
230.08	400.000
230.45	4400.000
230.82	-800.000
231.20	-966.667
231.57	-1533.333
231.95	560.000
232.32	308.333
232.69	583.333
233.07	275.000
233.44	-1750.000
233.81	306.667
234.19	155.556
234.56	256.250
234.93	205.882
235.31	240.000
235.68	312.500
236.05	175.000
236.43	174.074
236.80	278.571
237.17	165.517
237.55	162.500
237.92	130.000
238.29	169.697
238.67	140.625
239.04	156.098
239.41	127.083
239.79	105.000
240.16	102.083
240.53	104.918
240.91	88.406
241.28	103.390
241.65	90.909
242.02	95.775
242.40	100.000
242.77	81.319
243.14	81.013
243.51	87.879
243.89	71.963
244.26	80.374
244.63	84.158
245.00	77.064
245.38	77.119
245.75	75.758
246.12	74.815
246.49	77.305
246.87	74.590
247.24	75.333
247.61	78.125
247.98	73.469
248.36	69.091
248.73	72.449
249.10	69.048
249.47	65.000
249.84	67.164
250.22	73.514
250.59	60.500
250.96	62.025
251.33	66.977
251.70	62.500
252.08	62.185
252.45	62.151
252.82	56.274
253.19	57.708
253.56	58.846
253.94	60.145
254.31	61.628
254.68	59.930
255.05	61.379
255.42	64.964
255.79	58.958
256.16	62.712
256.54	60.065
256.91	58.824
257.28	58.528
257.65	61.129
258.02	57.227
258.39	58.166
258.76	56.232
259.14	56.857
259.51	57.143
259.88	59.574
260.25	52.747
260.62	56.986
260.99	53.444
261.36	53.482
261.73	56.117
262.10	59.424
262.47	53.250
262.85	54.400
263.22	54.242
263.59	54.220
263.96	56.892
264.33	54.815
264.70	59.459
265.07	55.366
265.44	56.881
265.81	59.434
266.18	56.979
266.55	56.501
266.92	53.468
267.29	57.018
267.66	55.830
268.03	52.691
268.40	50.951
268.77	53.304
269.14	51.844
269.51	52.339
269.88	53.469
270.25	50.540
270.62	54.721
270.99	51.927
271.36	53.455
271.73	53.459
272.10	51.313
272.47	53.373
272.84	51.297
273.21	53.926
273.58	53.441
273.95	51.745
274.32	50.389
274.69	52.362
275.06	55.738
275.43	51.724
275.80	53.208
276.17	51.471
276.54	52.336
276.91	55.224
277.28	50.912
277.65	51.107
278.02	52.757
278.39	51.439
278.76	51.207
279.13	53.025
279.50	52.909
279.87	51.397
280.23	51.381
280.60	54.197
280.97	50.000
281.34	48.845
281.71	50.609
282.08	51.624
282.45	49.324
282.82	50.669
283.19	50.079
283.56	48.760
283.92	52.606
284.29	50.582
284.66	46.387
285.03	49.088
285.40	47.769
285.77	46.451
286.14	49.071
286.51	46.933
286.87	47.785
287.24	46.547
287.61	46.049
287.98	46.418
288.35	47.407
288.72	46.889
289.08	45.646
289.45	48.018
289.82	46.250
290.19	46.413
290.56	47.016
290.93	43.309
291.29	44.613
291.66	43.220
292.03	45.722
292.40	43.089
292.77	42.758
293.13	43.795
293.50	41.700
293.87	41.734
294.24	43.916
294.60	42.934
294.97	44.336
295.34	42.231
295.71	42.181
296.08	42.533
296.44	40.788
296.81	39.330
297.18	41.572
297.55	40.764
297.91	40.517
298.28	40.700
298.65	40.613
299.02	39.083
299.38	41.127
299.75	40.488
300.12	39.450
300.48	41.452
300.85	42.074
301.22	41.395
301.59	38.561
301.95	39.090
302.32	39.814
302.69	40.837
303.05	40.741
303.42	38.901
303.79	38.678
304.15	38.834
304.52	40.063
304.89	39.659
305.25	39.933
305.62	40.085
305.99	40.217
306.35	40.421
306.72	39.854
307.09	39.855
307.45	39.916
307.82	40.123
308.19	40.000
308.55	39.400
308.92	39.843
309.29	40.434
309.65	40.436
310.02	40.669
310.38	40.080
310.75	41.273
311.12	39.272
311.48	42.278
311.85	41.508
312.22	42.789
312.58	41.691
312.95	41.262
313.31	42.228
313.68	44.184
314.05	44.048
314.41	44.413
314.78	44.413
315.14	45.403
315.51	45.885
315.87	45.803
316.24	47.152
316.61	45.748
316.97	45.505
317.34	49.236
317.70	48.200
318.07	47.687
318.43	50.703
318.80	49.562
319.16	49.913
319.53	51.416
319.89	52.330
320.26	53.818
320.62	52.656
320.99	53.575
321.35	53.154
321.72	56.072
322.08	56.233
322.45	56.131
322.81	57.091
323.18	57.726
323.54	57.491
323.91	61.197
324.27	59.593
324.64	61.159
325.00	61.724
325.37	62.057
325.73	62.479
326.10	64.789
326.46	64.657
326.83	64.960
327.19	66.024
327.56	67.173
327.92	68.443
328.29	67.758
328.65	68.836
329.01	68.777
329.38	68.359
329.74	68.745
330.11	69.592
330.47	70.929
330.84	69.284
331.20	70.389
331.56	70.553
331.93	71.942
332.29	70.578
332.66	73.469
333.02	69.845
333.38	73.037
333.75	71.059
334.11	71.309
334.48	73.932
334.84	71.115
335.20	74.251
335.57	71.704
335.93	73.675
336.29	70.813
336.66	74.871
337.02	72.797
337.38	71.539
337.75	74.324
338.11	73.502
338.47	74.428
338.84	73.666
339.20	74.286
339.56	72.666
339.93	72.910
340.29	72.773
340.65	73.680
341.02	73.854
341.38	74.056
341.74	73.339
342.11	74.791
342.47	72.765
342.83	74.569
343.20	72.918
343.56	72.915
343.92	75.723
344.28	73.206
344.65	75.713
345.01	74.206
345.37	75.641
345.73	73.095
346.10	73.944
346.46	74.322
346.82	73.997
347.19	72.411
347.55	74.941
347.91	72.734
348.27	73.586
348.63	74.051
349.00	74.029
349.36	74.475
349.72	75.917
350.08	75.854
350.45	73.496
350.81	75.917
351.17	74.884
351.53	74.442
351.89	74.903
352.26	74.452
352.62	74.661
352.98	75.000
353.34	74.268
353.70	74.618
354.07	75.154
354.43	76.959
354.79	75.171
355.15	76.646
355.51	75.151
355.87	74.247
356.24	75.058
356.60	74.201
356.96	76.422
357.32	75.057
357.68	74.670
358.04	76.444
358.40	73.988
358.77	76.033
359.13	75.225
359.49	76.427
359.85	76.992
360.21	75.706
360.57	74.380
360.93	75.036
361.29	75.685
361.66	75.466
362.02	73.082
362.38	76.118
362.74	77.353
363.10	77.209
363.46	74.793
363.82	75.316
364.18	76.316
364.54	76.395
364.90	75.368
365.26	77.169
365.62	76.934
365.98	76.050
366.35	75.448
366.71	77.030
367.07	76.109
367.43	75.823
367.79	75.000
368.15	75.034
368.51	77.188
368.87	77.921
369.23	76.854
369.59	75.320
369.95	75.944
370.31	76.454
370.67	76.336
371.03	77.241
371.39	75.346
371.75	76.134
372.11	76.003
372.47	77.123
372.83	77.430
373.19	76.765
373.55	76.770
373.91	75.207
374.27	74.471
374.63	78.237
374.99	77.830
375.35	77.755
375.71	76.781
376.07	75.995
376.42	75.256
376.78	76.750
377.14	76.999
377.50	74.782
377.86	77.386
378.22	76.661
378.58	76.877
378.94	76.403
379.30	77.198
379.66	77.363
380.02	77.126
380.38	76.405
380.74	76.182
381.09	74.182
381.45	75.145
381.81	76.182
382.17	76.129
382.53	76.365
382.89	76.464
383.25	75.192
383.61	74.755
383.97	75.585
384.32	75.105
384.68	76.114
385.04	77.022
385.40	75.030
385.76	73.552
386.12	76.747
386.48	76.413
386.83	75.856
387.19	75.501
387.55	74.853
387.91	75.866
388.27	76.859
388.62	74.941
388.98	74.869
389.34	74.182
389.70	73.408
390.06	75.854
390.42	74.769
390.77	73.526
391.13	76.584
391.49	73.382
391.85	75.138
392.20	73.480
392.56	74.910
392.92	72.937
393.28	74.215
393.64	73.337
393.99	73.918
394.35	73.337
394.71	72.618
395.07	74.027
395.42	73.536
395.78	74.830
396.14	75.904
396.50	74.248
396.85	72.744
397.21	73.706
397.57	72.504
397.92	72.617
398.28	72.697
398.64	73.357
399.00	71.299
399.35	71.659
399.71	71.082
400.07	72.774
400.42	72.657
400.78	71.672
401.14	72.754
401.49	71.947
401.85	70.857
402.21	72.408
402.57	72.831
402.92	70.970
403.28	70.644
403.63	70.630
403.99	71.713
404.35	71.336
404.70	71.471
405.06	70.691
405.42	71.275
405.77	70.121
406.13	69.740
406.49	70.324
406.84	69.261
407.20	69.920
407.55	70.215
407.91	70.964
408.27	69.557
408.62	70.077
408.98	69.663
409.34	68.790
409.69	68.948
410.05	68.038
410.40	68.963
410.76	69.262
411.11	67.713
411.47	67.099
411.83	67.311
412.18	67.995
412.54	68.949
412.89	67.493
413.25	67.845
413.60	68.808
413.96	68.402
414.31	68.123
414.67	69.398
415.03	66.858
415.38	68.202
415.74	68.667
416.09	66.771
416.45	68.132
416.80	68.505
417.16	66.582
417.51	67.580
417.87	65.457
418.22	66.889
418.58	67.771
418.93	67.103
419.29	64.941
419.64	65.839
420.00	66.050
420.35	67.480
420.71	66.219
421.06	66.686
421.42	66.149
421.77	66.019
422.12	67.255
422.48	65.280
422.83	65.458
423.19	65.713
423.54	64.564
423.90	65.459
424.25	67.694
424.61	65.235
424.96	65.274
425.31	64.641
425.67	67.116
426.02	65.732
426.38	65.344
426.73	65.703
427.09	65.184
427.44	65.053
427.79	66.381
428.15	65.233
428.50	64.743
428.85	65.373
429.21	64.938
429.56	64.556
429.92	64.296
430.27	63.619
430.62	63.632
430.98	63.224
431.33	64.315
431.68	62.716
432.04	63.839
432.39	64.215
432.74	64.403
433.10	64.673
433.45	64.675
433.80	64.534
434.16	63.741
434.51	64.396
434.86	63.201
435.22	63.317
435.57	63.841
435.92	64.200
436.28	64.401
436.63	62.615
436.98	64.809
437.34	64.155
437.69	62.094
438.04	62.258
438.39	63.923
438.75	63.419
439.10	62.709
439.45	61.673
439.81	62.406
440.16	62.190
440.51	62.050
440.86	63.590
441.22	63.095
441.57	62.887
441.92	62.340
442.27	60.876
442.63	62.602
442.98	61.692
443.33	61.864
443.68	62.324
444.03	61.499
444.39	61.347
444.74	61.698
445.09	60.558
445.44	61.955
445.79	62.232
446.15	61.158
446.50	61.867
446.85	60.707
447.20	60.796
447.55	60.903
447.91	61.854
448.26	60.277
448.61	62.189
448.96	62.800
449.31	62.046
449.66	61.019
450.02	60.130
450.37	60.800
450.72	61.157
451.07	60.791
451.42	62.181
451.77	60.939
452.12	60.408
452.47	60.328
452.83	60.282
453.18	60.601
453.53	60.332
453.88	60.686
454.23	60.953
454.58	61.014
454.93	59.779
455.28	60.588
455.63	61.170
455.98	59.334
456.34	60.608
456.69	59.329
457.04	60.084
457.39	59.657
457.74	59.122
458.09	59.405
458.44	57.667
458.79	58.196
459.14	59.684
459.49	58.834
459.84	59.185
460.19	57.853
460.54	58.291
460.89	58.102
461.24	58.133
461.59	58.390
461.94	58.156
462.29	58.810
462.64	59.673
462.99	58.989
463.34	58.522
463.69	58.379
464.04	59.240
464.39	57.871
464.74	56.096
465.09	56.820
465.44	56.910
465.79	57.812
466.14	55.644
466.49	57.569
466.84	57.469
467.19	57.059
467.54	56.517
467.89	57.277
468.24	57.151
468.59	58.036
468.94	56.703
469.29	56.995
469.64	56.077
469.99	56.941
470.34	55.787
470.68	56.759
471.03	57.105
471.38	55.298
471.73	56.368
472.08	58.774
472.43	56.176
472.78	56.978
473.13	55.194
473.48	57.274
473.83	55.300
474.17	55.866
474.52	55.924
474.87	54.633
475.22	54.712
475.57	54.617
475.92	54.982
476.27	54.570
476.61	54.370
476.96	54.232
477.31	55.064
477.66	55.019
478.01	54.152
478.36	53.811
478.70	52.506
479.05	53.400
479.40	54.167
479.75	53.823
480.10	53.921
480.45	53.361
480.79	53.226
481.14	53.828
481.49	52.745
481.84	52.111
482.19	52.882
482.53	53.228
482.88	52.599
483.23	52.684
483.58	53.232
483.92	54.159
484.27	51.455
484.62	52.037
484.97	50.954
485.31	52.459
485.66	52.214
486.01	51.860
486.36	50.598
486.70	49.351
487.05	49.503
487.40	49.953
487.75	50.545
488.09	49.545
488.44	50.191
488.79	50.677
489.13	51.773
489.48	51.658
489.83	50.667
490.17	50.454
490.52	50.818
490.87	49.871
491.22	51.906
491.56	51.164
491.91	50.448
492.26	50.334
492.60	51.071
492.95	50.340
493.30	50.546
493.64	50.135
493.99	49.329
494.34	49.260
494.68	50.155
495.03	49.888
495.37	50.788
495.72	50.023
496.07	50.449
496.41	49.262
496.76	49.937
497.11	49.400
497.45	48.619
497.80	50.324
498.14	49.931
498.49	49.861
498.84	50.280
499.18	48.949
499.53	49.242
499.87	47.889
500.22	49.286
500.56	49.814
500.91	49.212
501.26	49.518
501.60	49.636
501.95	48.746
502.29	49.378
502.64	47.772
502.98	47.532
503.33	48.241
503.67	47.903
504.02	47.559
504.36	48.507
504.71	48.723
505.06	47.724
505.40	48.760
505.75	47.287
506.09	47.643
506.44	47.650
506.78	48.960
507.13	48.085
507.47	47.162
507.82	48.564
508.16	48.947
508.51	47.874
508.85	46.629
509.19	48.409
509.54	47.510
509.88	47.787
510.23	47.206
510.57	47.490
510.92	47.952
511.26	48.092
511.61	46.381
511.95	47.038
512.30	46.600
512.64	46.366
512.98	47.053
513.33	46.926
513.67	47.644
514.02	46.078
514.36	47.456
514.70	48.160
515.05	46.404
515.39	47.588
515.74	47.731
516.08	46.841
516.42	48.361
516.77	46.827
517.11	46.293
517.46	46.498
517.80	46.532
518.14	47.549
518.49	46.251
518.83	45.385
519.17	45.923
519.52	47.952
519.86	47.193
520.20	46.137
520.55	46.863
520.89	45.057
521.23	46.846
521.58	45.496
521.92	45.948
522.26	46.209
522.61	47.178
522.95	47.447
523.29	46.082
523.64	46.532
523.98	45.599
524.32	46.540
524.66	45.623
525.01	45.503
525.35	45.315
525.69	45.214
526.04	45.271
526.38	45.085
526.72	45.585
527.06	44.944
527.41	47.279
527.75	46.744
528.09	44.672
528.43	45.577
528.78	44.723
529.12	47.080
529.46	44.360
529.80	44.217
530.15	45.197
530.49	44.705
530.83	45.826
531.17	45.695
531.51	45.616
531.86	44.263
532.20	44.190
532.54	44.068
532.88	45.034
533.22	44.912
533.57	46.065
533.91	44.056
534.25	43.566
534.59	46.140
534.93	44.255
535.27	42.402
535.62	44.457
535.96	45.035
536.30	44.668
536.64	45.217
536.98	44.242
537.32	44.375
537.66	43.814
538.01	43.777
538.35	43.793
538.69	43.325
539.03	42.600
539.37	44.175
539.71	44.074
540.05	42.831
540.39	44.403
540.73	44.684
541.07	43.852
541.42	43.346
541.76	43.650
542.10	42.293
542.44	43.516
542.78	44.745
543.12	43.681
543.46	42.982
543.80	43.358
544.14	44.149
544.48	44.343
544.82	43.976
545.16	41.591
545.50	42.963
545.84	42.866
546.18	44.148
546.52	44.197
546.86	41.715
547.20	43.346
547.54	41.862
547.88	42.153
548.22	43.048
548.56	42.781
548.90	43.120
549.24	41.946
549.58	41.753
549.92	44.073
550.26	43.340
550.60	42.848
550.94	43.284
551.28	42.483
551.62	44.483
551.96	42.973
552.30	41.266
552.64	43.042
552.98	42.784
553.32	42.894
553.66	41.433
554.00	41.956
554.34	43.076
554.68	42.339
555.02	42.091
555.36	41.423
555.69	41.819
556.03	41.210
556.37	42.001
556.71	43.220
557.05	40.564
557.39	42.067
557.73	43.329
558.07	41.382
558.41	42.495
558.75	41.040
559.08	43.174
559.42	43.092
559.76	42.979
560.10	41.776
560.44	41.539
560.78	42.008
561.12	41.831
561.45	40.738
561.79	42.322
562.13	41.251
562.47	40.947
562.81	41.509
563.15	42.534
563.48	41.056
563.82	42.358
564.16	42.164
564.50	40.567
564.84	41.094
565.17	39.988
565.51	42.426
565.85	42.381
566.19	41.012
566.52	41.035
566.86	41.973
567.20	41.629
567.54	41.594
567.88	41.210
568.21	40.090
568.55	41.051
568.89	41.332
569.23	40.552
569.56	40.855
569.90	39.633
570.24	40.477
570.57	40.331
570.91	40.000
571.25	40.214
571.59	39.679
571.92	38.724
572.26	38.841
572.60	39.072
572.93	39.994
573.27	39.518
573.61	39.740
573.95	39.467
574.28	39.845
574.62	39.264
574.96	39.082
575.29	38.759
575.63	39.081
575.97	38.389
576.30	38.345
576.64	39.261
576.98	39.285
577.31	39.731
577.65	39.921
577.98	39.292
578.32	39.009
578.66	38.472
578.99	39.123
579.33	39.242
579.67	38.426
580.00	39.211
580.34	38.824
580.67	38.456
581.01	39.192
581.35	39.376
581.68	39.132
582.02	38.946
582.35	38.380
582.69	38.900
583.02	38.748
583.36	38.705
583.70	38.529
584.03	39.970
584.37	39.399
584.70	39.363
585.04	39.044
585.37	38.323
585.71	39.438
586.04	38.888
586.38	38.520
586.72	38.507
587.05	38.960
587.39	38.887
587.72	39.473
588.06	38.838
588.39	39.202
588.73	38.600
589.06	39.539
589.40	39.155
589.73	39.331
590.07	39.808
590.40	39.477
590.73	39.993
591.07	39.962
591.40	39.960
591.74	39.529
592.07	39.268
592.41	39.728
592.74	39.363
593.08	38.835
593.41	38.689
593.75	38.331
594.08	38.682
594.41	37.471
594.75	39.007
595.08	39.198
595.42	38.841
595.75	38.170
596.09	38.686
596.42	38.420
596.75	39.864
597.09	39.538
597.42	38.694
597.75	38.864
598.09	38.695
598.42	38.841
598.76	38.358
599.09	38.286
599.42	37.785
599.76	38.467
600.09	38.237
600.42	38.052
600.76	38.749
601.09	38.246
601.42	38.050
601.76	38.417
602.09	38.631
602.42	38.410
602.76	37.951
603.09	38.688
603.42	39.009
603.76	38.142
604.09	38.256
604.42	38.230
604.76	38.562
605.09	38.367
605.42	38.236
605.75	38.058
606.09	38.256
606.42	38.444
606.75	38.749
607.09	38.216
607.42	38.730
607.75	38.336
608.08	37.693
608.42	39.136
608.75	38.554
609.08	37.967
609.41	38.682
609.75	39.057
610.08	38.040
610.41	38.999
610.74	37.749
611.07	39.063
611.41	39.064
611.74	38.002
612.07	37.958
612.40	37.963
612.73	39.341
613.07	38.723
613.40	39.499
613.73	38.592
614.06	37.950
614.39	38.485
614.72	38.724
615.06	38.229
615.39	38.069
615.72	38.093
616.05	38.774
616.38	38.458
616.71	37.656
617.05	38.880
617.38	37.584
617.71	39.033
618.04	38.082
618.37	39.633
618.70	38.510
619.03	37.607
619.36	38.882
619.69	38.456
620.03	39.856
620.36	38.343
620.69	39.336
621.02	38.315
621.35	36.891
621.68	40.044
622.01	40.959
622.34	39.039
622.67	38.694
623.00	37.917
623.33	38.866
623.66	38.456
623.99	38.973
624.32	38.686
624.65	38.973
624.99	38.945
625.32	39.412
625.65	37.034
625.98	37.448
626.31	39.021
626.64	38.800
626.97	38.868
627.30	39.363
627.63	39.560
627.96	37.324
628.29	38.944
628.62	38.580
628.95	39.628
629.28	39.702
629.61	39.192
629.94	37.770
630.26	39.168
630.59	39.716
630.92	38.206
