SpectraSuite Data File
++++++++++++++++++++++++++++++++++++
Date: Tue May 12 16:38:06 PDT 2015
User: schluterlab
Dark Spectrum Present: Yes
Reference Spectrum Present: Yes
Number of Sampled Component Spectra: 1
Spectrometers: USB2E3373
Integration Time (usec): 3000 (USB2E3373)
Spectra Averaged: 3 (USB2E3373)
Boxcar Smoothing: 0 (USB2E3373)
Correct for Electrical Dark: No (USB2E3373)
Strobe/Lamp Enabled: No (USB2E3373)
Correct for Detector Non-linearity: No (USB2E3373)
Correct for Stray Light: No (USB2E3373)
Number of Pixels in Processed Spectrum: 2048
>>>>>Begin Processed Spectral Data<<<<<
178.53	0.000
178.91	-216.667
179.29	-575.000
179.67	-3200.000
180.04	-133.333
180.42	675.000
180.80	1550.000
181.18	0.000
181.56	-325.000
181.94	0.000
182.31	1033.333
182.69	-2200.000
183.07	614.286
183.45	-3500.000
183.83	-1150.000
184.20	290.000
184.58	628.571
184.96	-200.000
185.34	-175.000
185.72	1650.000
186.09	-850.000
186.47	-3200.000
186.85	933.333
187.23	620.000
187.61	2100.000
187.98	362.500
188.36	250.000
188.74	283.333
189.12	291.667
189.49	975.000
189.87	0.000
190.25	412.500
190.63	2200.000
191.00	-216.667
191.38	-3000.000
191.76	-500.000
192.14	500.000
192.51	-2000.000
192.89	2000.000
193.27	1033.333
193.65	-1000.000
194.02	-660.000
194.40	457.143
194.78	-185.714
195.15	206.667
195.53	-2900.000
195.91	-460.000
196.29	3800.000
196.66	256.250
197.04	875.000
197.42	-1600.000
197.79	725.000
198.17	308.333
198.55	0.000
198.92	471.429
199.30	933.333
199.68	1850.000
200.05	533.333
200.43	-250.000
200.81	183.333
201.18	2700.000
201.56	308.333
201.94	-775.000
202.31	-337.500
202.69	-460.000
203.07	2600.000
203.44	-333.333
203.82	333.333
204.19	780.000
204.57	-1750.000
204.95	-600.000
205.32	-500.000
205.70	516.667
206.08	800.000
206.45	-1033.333
206.83	366.667
207.20	173.684
207.58	250.000
207.96	680.000
208.33	0.000
208.71	614.286
209.08	800.000
209.46	-2100.000
209.84	-600.000
210.21	740.000
210.59	-500.000
210.96	266.667
211.34	-725.000
211.71	336.364
212.09	925.000
212.46	1350.000
212.84	-500.000
213.22	444.444
213.59	-3100.000
213.97	290.000
214.34	650.000
214.72	1300.000
215.09	900.000
215.47	-2800.000
215.84	-290.000
216.22	-375.000
216.59	0.000
216.97	0.000
217.34	1550.000
217.72	-1100.000
218.09	1066.667
218.47	487.500
218.84	725.000
219.22	833.333
219.59	800.000
219.97	485.714
220.34	433.333
220.72	950.000
221.09	3400.000
221.47	300.000
221.84	900.000
222.22	270.000
222.59	238.889
222.97	207.143
223.34	256.250
223.72	-950.000
224.09	1166.667
224.46	192.308
224.84	-800.000
225.21	322.222
225.59	200.000
225.96	1433.333
226.34	-540.000
226.71	-400.000
227.08	-480.000
227.46	0.000
227.83	-433.333
228.21	-1300.000
228.58	316.667
228.95	925.000
229.33	322.222
229.70	950.000
230.08	353.846
230.45	3400.000
230.82	-700.000
231.20	-733.333
231.57	-1333.333
231.95	520.000
232.32	241.667
232.69	500.000
233.07	225.000
233.44	-1700.000
233.81	206.667
234.19	177.778
234.56	206.250
234.93	211.765
235.31	185.000
235.68	212.500
236.05	135.714
236.43	140.741
236.80	150.000
237.17	137.931
237.55	84.375
237.92	105.000
238.29	87.879
238.67	96.875
239.04	63.415
239.41	47.917
239.79	80.000
240.16	68.750
240.53	55.738
240.91	60.870
241.28	72.881
241.65	43.939
242.02	56.338
242.40	52.857
242.77	31.868
243.14	24.051
243.51	45.455
243.89	42.991
244.26	35.514
244.63	44.554
245.00	32.110
245.38	18.644
245.75	23.485
246.12	35.556
246.49	17.730
246.87	13.115
247.24	28.000
247.61	28.125
247.98	21.769
248.36	23.030
248.73	27.551
249.10	23.214
249.47	16.500
249.84	19.403
250.22	18.378
250.59	20.500
250.96	19.831
251.33	22.326
251.70	21.429
252.08	17.647
252.45	16.733
252.82	17.490
253.19	15.810
253.56	10.769
253.94	19.203
254.31	16.279
254.68	18.467
255.05	20.690
255.42	14.599
255.79	14.007
256.16	15.932
256.54	13.312
256.91	13.072
257.28	13.378
257.65	10.031
258.02	13.274
258.39	16.046
258.76	13.623
259.14	10.571
259.51	12.828
259.88	14.894
260.25	9.341
260.62	13.425
260.99	12.121
261.36	14.206
261.73	12.766
262.10	14.136
262.47	12.750
262.85	11.733
263.22	12.596
263.59	11.765
263.96	13.784
264.33	12.346
264.70	13.514
265.07	12.927
265.44	13.303
265.81	13.208
266.18	12.815
266.55	11.348
266.92	10.067
267.29	12.281
267.66	9.417
268.03	8.744
268.40	10.994
268.77	11.454
269.14	9.328
269.51	10.468
269.88	12.449
270.25	9.503
270.62	9.871
270.99	12.373
271.36	11.789
271.73	7.966
272.10	10.505
272.47	10.714
272.84	7.984
273.21	9.504
273.58	11.741
273.95	6.571
274.32	10.506
274.69	12.402
275.06	11.475
275.43	9.387
275.80	9.623
276.17	11.949
276.54	11.776
276.91	10.634
277.28	9.854
277.65	9.963
278.02	10.478
278.39	8.813
278.76	9.138
279.13	10.854
279.50	10.545
279.87	7.076
280.23	8.471
280.60	9.307
280.97	9.138
281.34	10.561
281.71	9.217
282.08	10.598
282.45	8.446
282.82	7.358
283.19	10.334
283.56	8.099
283.92	7.329
284.29	8.985
284.66	8.235
285.03	9.619
285.40	8.264
285.77	7.407
286.14	9.907
286.51	10.429
286.87	6.487
287.24	7.658
287.61	8.359
287.98	8.507
288.35	8.889
288.72	8.498
289.08	7.658
289.45	8.079
289.82	7.813
290.19	7.613
290.56	10.335
290.93	8.777
291.29	8.840
291.66	7.768
292.03	10.659
292.40	8.266
292.77	7.799
293.13	9.415
293.50	7.962
293.87	6.911
294.24	7.413
294.60	11.171
294.97	8.392
295.34	8.234
295.71	8.804
296.08	9.333
296.44	8.640
296.81	8.809
297.18	8.238
297.55	8.621
297.91	6.773
298.28	7.609
298.65	8.466
299.02	6.514
299.38	7.914
299.75	8.293
300.12	8.601
300.48	9.368
300.85	9.178
301.22	8.605
301.59	7.429
301.95	7.468
302.32	8.382
302.69	8.824
303.05	9.877
303.42	8.408
303.79	8.992
304.15	9.351
304.52	8.034
304.89	8.529
305.25	9.455
305.62	10.021
305.99	10.109
306.35	9.158
306.72	8.845
307.09	9.317
307.45	8.765
307.82	8.745
308.19	9.278
308.55	9.000
308.92	10.304
309.29	10.158
309.65	11.199
310.02	9.533
310.38	9.472
310.75	10.222
311.12	9.579
311.48	11.197
311.85	11.450
312.22	12.703
312.58	10.107
312.95	12.039
313.31	11.891
313.68	11.069
314.05	14.103
314.41	12.291
314.78	12.405
315.14	13.081
315.51	14.191
315.87	14.142
316.24	13.725
316.61	15.130
316.97	14.037
317.34	14.196
317.70	15.452
318.07	15.302
318.43	15.641
318.80	16.112
319.16	16.608
319.53	16.991
319.89	16.756
320.26	19.367
320.62	18.132
320.99	19.733
321.35	19.017
321.72	21.632
322.08	19.483
322.45	20.345
322.81	20.586
323.18	21.492
323.54	21.167
323.91	23.300
324.27	22.989
324.64	23.097
325.00	23.448
325.37	24.030
325.73	24.199
326.10	25.932
326.46	27.002
326.83	25.360
327.19	26.345
327.56	25.958
327.92	26.967
328.29	28.478
328.65	28.767
329.01	29.855
329.38	29.526
329.74	27.754
330.11	28.758
330.47	28.986
330.84	29.249
331.20	28.849
331.56	31.261
331.93	30.453
332.29	29.082
332.66	30.697
333.02	30.498
333.38	31.152
333.75	30.942
334.11	30.034
334.48	30.684
334.84	31.250
335.20	30.967
335.57	30.898
335.93	31.539
336.29	30.265
336.66	31.904
337.02	31.138
337.38	31.126
337.75	31.419
338.11	32.574
338.47	30.906
338.84	32.345
339.20	30.303
339.56	30.950
339.93	31.438
340.29	31.008
340.65	31.852
341.02	32.019
341.38	31.445
341.74	32.226
342.11	31.553
342.47	32.896
342.83	31.993
343.20	32.094
343.56	30.659
343.92	32.453
344.28	31.898
344.65	32.029
345.01	31.270
345.37	31.571
345.73	30.873
346.10	32.112
346.46	31.978
346.82	30.633
347.19	31.376
347.55	30.601
347.91	32.024
348.27	30.674
348.63	31.725
349.00	32.826
349.36	32.529
349.72	32.645
350.08	33.463
350.45	33.816
350.81	32.798
351.17	32.974
351.53	31.871
351.89	31.469
352.26	32.426
352.62	33.032
352.98	32.975
353.34	33.282
353.70	31.881
354.07	32.923
354.43	32.796
354.79	32.118
355.15	33.461
355.51	32.779
355.87	33.057
356.24	33.718
356.60	31.583
356.96	31.463
357.32	33.157
357.68	33.333
358.04	33.587
358.40	32.984
358.77	34.410
359.13	33.634
359.49	33.803
359.85	33.582
360.21	32.689
360.57	32.774
360.93	32.323
361.29	33.983
361.66	34.526
362.02	32.741
362.38	33.478
362.74	33.192
363.10	33.310
363.46	32.044
363.82	33.170
364.18	32.361
364.54	35.193
364.90	33.467
365.26	34.212
365.62	33.771
365.98	34.274
366.35	33.310
366.71	33.796
367.07	33.379
367.43	33.714
367.79	33.976
368.15	33.175
368.51	33.839
368.87	33.356
369.23	33.749
369.59	32.839
369.95	34.685
370.31	34.223
370.67	33.657
371.03	34.384
371.39	35.111
371.75	33.426
372.11	34.942
372.47	34.315
372.83	35.146
373.19	35.230
373.55	34.433
373.91	33.702
374.27	34.590
374.63	34.847
374.99	34.501
375.35	35.417
375.71	35.158
376.07	34.085
376.42	33.824
376.78	35.389
377.14	35.911
377.50	34.395
377.86	35.810
378.22	34.674
378.58	35.593
378.94	34.581
379.30	35.112
379.66	34.497
380.02	35.425
380.38	34.953
380.74	35.755
381.09	35.222
381.45	35.376
381.81	34.634
382.17	35.287
382.53	35.213
382.89	34.595
383.25	34.873
383.61	34.755
383.97	33.953
384.32	35.021
384.68	36.364
385.04	35.580
385.40	35.765
385.76	34.816
386.12	36.364
386.48	36.109
386.83	35.636
387.19	36.101
387.55	36.042
387.91	35.566
388.27	35.812
388.62	35.857
388.98	35.627
389.34	34.563
389.70	34.375
390.06	35.488
390.42	35.163
390.77	34.582
391.13	36.029
391.49	35.330
391.85	35.877
392.20	35.221
392.56	35.962
392.92	34.363
393.28	35.762
393.64	34.920
393.99	35.092
394.35	34.962
394.71	35.042
395.07	36.010
395.42	34.602
395.78	35.534
396.14	36.205
396.50	35.439
396.85	35.122
397.21	35.078
397.57	35.804
397.92	34.662
398.28	34.970
398.64	34.497
399.00	34.420
399.35	34.675
399.71	35.375
400.07	34.646
400.42	35.224
400.78	35.367
401.14	35.232
401.49	33.986
401.85	34.878
402.21	34.095
402.57	34.530
402.92	34.242
403.28	34.964
403.63	34.844
403.99	34.318
404.35	35.287
404.70	34.672
405.06	33.801
405.42	34.710
405.77	34.564
406.13	33.839
406.49	34.622
406.84	33.897
407.20	34.532
407.55	33.846
407.91	35.227
408.27	35.355
408.62	34.772
408.98	34.240
409.34	32.729
409.69	34.287
410.05	34.347
410.40	34.158
410.76	33.944
411.11	34.064
411.47	33.580
411.83	33.392
412.18	33.454
412.54	34.835
412.89	33.687
413.25	33.979
413.60	34.171
413.96	33.573
414.31	34.357
414.67	34.699
415.03	33.908
415.38	34.322
415.74	35.629
416.09	35.041
416.45	35.036
416.80	35.920
417.16	34.564
417.51	34.395
417.87	33.354
418.22	35.237
418.58	35.032
418.93	34.801
419.29	34.381
419.64	35.312
420.00	35.203
420.35	34.321
420.71	34.772
421.06	34.609
421.42	34.197
421.77	35.203
422.12	35.447
422.48	34.515
422.83	35.212
423.19	34.665
423.54	35.875
423.90	36.240
424.25	35.773
424.61	34.533
424.96	35.912
425.31	36.180
425.67	36.364
426.02	36.455
426.38	36.756
426.73	36.669
427.09	37.070
427.44	35.678
427.79	36.478
428.15	36.771
428.50	37.429
428.85	36.743
429.21	36.899
429.56	37.188
429.92	37.245
430.27	35.704
430.62	36.074
430.98	36.427
431.33	36.391
431.68	36.395
432.04	36.679
432.39	37.486
432.74	38.466
433.10	37.265
433.45	38.254
433.80	38.996
434.16	37.572
434.51	37.926
434.86	39.085
435.22	38.358
435.57	38.352
435.92	38.589
436.28	39.516
436.63	38.196
436.98	39.189
437.34	38.128
437.69	38.858
438.04	38.656
438.39	39.405
438.75	38.140
439.10	38.316
439.45	38.383
439.81	39.560
440.16	38.415
440.51	38.964
440.86	40.513
441.22	38.745
441.57	40.052
441.92	39.585
442.27	39.227
442.63	39.533
442.98	39.601
443.33	39.904
443.68	39.336
444.03	40.198
444.39	39.831
444.74	40.217
445.09	39.547
445.44	40.701
445.79	39.815
446.15	40.368
446.50	40.190
446.85	40.488
447.20	39.950
447.55	41.218
447.91	41.396
448.26	39.989
448.61	40.907
448.96	41.340
449.31	41.089
449.66	41.528
450.02	40.951
450.37	41.977
450.72	41.763
451.07	41.885
451.42	41.672
451.77	41.466
452.12	41.407
452.47	41.069
452.83	40.958
453.18	41.682
453.53	42.510
453.88	42.171
454.23	41.429
454.58	41.667
454.93	41.079
455.28	42.166
455.63	42.258
455.98	41.681
456.34	42.736
456.69	42.195
457.04	41.945
457.39	41.086
457.74	41.892
458.09	41.999
458.44	42.497
458.79	42.334
459.14	42.008
459.49	41.733
459.84	42.065
460.19	42.203
460.54	42.792
460.89	41.844
461.24	42.153
461.59	43.651
461.94	42.317
462.29	42.220
462.64	43.844
462.99	42.610
463.34	42.579
463.69	42.831
464.04	42.429
464.39	41.442
464.74	41.794
465.09	40.917
465.44	42.057
465.79	42.842
466.14	41.123
466.49	43.407
466.84	42.196
467.19	42.296
467.54	41.802
467.89	42.782
468.24	42.559
468.59	43.571
468.94	42.512
469.29	42.272
469.64	42.251
469.99	43.702
470.34	44.213
470.68	42.483
471.03	43.162
471.38	42.185
471.73	43.501
472.08	43.249
472.43	42.893
472.78	43.150
473.13	42.053
473.48	43.888
473.83	42.285
474.17	43.222
474.52	41.943
474.87	42.183
475.22	42.490
475.57	42.025
475.92	43.281
476.27	41.458
476.61	42.681
476.96	41.797
477.31	42.982
477.66	43.317
478.01	42.445
478.36	43.254
478.70	42.035
479.05	41.946
479.40	42.163
479.75	43.148
480.10	42.933
480.45	42.390
480.79	41.935
481.14	41.750
481.49	41.720
481.84	42.480
482.19	42.402
482.53	42.029
482.88	42.249
483.23	42.355
483.58	43.357
483.92	42.505
484.27	42.295
484.62	42.275
484.97	41.878
485.31	40.984
485.66	41.566
486.01	41.109
486.36	40.764
486.70	39.767
487.05	40.183
487.40	41.358
487.75	41.286
488.09	41.023
488.44	41.236
488.79	41.895
489.13	41.732
489.48	41.910
489.83	41.201
490.17	41.453
490.52	42.894
490.87	42.457
491.22	42.465
491.56	42.951
491.91	41.532
492.26	41.470
492.60	43.144
492.95	43.362
493.30	42.448
493.64	41.959
493.99	42.039
494.34	41.954
494.68	42.807
495.03	42.479
495.37	42.503
495.72	42.937
496.07	42.902
496.41	41.703
496.76	41.959
497.11	42.716
497.45	42.043
497.80	42.493
498.14	41.470
498.49	41.411
498.84	42.804
499.18	41.545
499.53	42.490
499.87	42.543
500.22	42.699
500.56	42.711
500.91	42.718
501.26	43.087
501.60	41.940
501.95	41.532
502.29	42.044
502.64	42.082
502.98	40.996
503.33	42.762
503.67	41.722
504.02	42.141
504.36	41.629
504.71	42.904
505.06	42.281
505.40	42.396
505.75	41.347
506.09	41.997
506.44	42.058
506.78	42.864
507.13	42.802
507.47	42.358
507.82	41.752
508.16	43.263
508.51	42.512
508.85	42.213
509.19	42.682
509.54	41.113
509.88	42.964
510.23	42.255
510.57	42.278
510.92	42.557
511.26	42.721
511.61	41.556
511.95	42.359
512.30	42.250
512.64	41.796
512.98	41.978
513.33	42.367
513.67	41.636
514.02	42.442
514.36	41.952
514.70	42.133
515.05	42.195
515.39	42.982
515.74	42.373
516.08	43.246
516.42	43.716
516.77	41.653
517.11	42.293
517.46	42.349
517.80	41.835
518.14	42.986
518.49	42.668
518.83	41.923
519.17	44.038
519.52	43.692
519.86	42.452
520.20	42.356
520.55	42.623
520.89	41.954
521.23	43.107
521.58	41.767
521.92	42.682
522.26	43.128
522.61	43.316
522.95	43.003
523.29	42.807
523.64	42.081
523.98	42.664
524.32	41.753
524.66	43.014
525.01	41.657
525.35	41.780
525.69	43.107
526.04	43.189
526.38	41.672
526.72	42.721
527.06	42.105
527.41	43.470
527.75	42.970
528.09	42.143
528.43	42.587
528.78	41.860
529.12	44.010
529.46	42.139
529.80	41.881
530.15	41.249
530.49	41.637
530.83	41.987
531.17	42.189
531.51	42.551
531.86	42.271
532.20	41.842
532.54	41.933
532.88	42.973
533.22	42.901
533.57	41.977
533.91	40.559
534.25	41.546
534.59	42.047
534.93	41.411
535.27	41.320
535.62	41.599
535.96	41.371
536.30	42.474
536.64	41.304
536.98	41.095
537.32	41.625
537.66	41.518
538.01	41.734
538.35	41.547
538.69	40.413
539.03	39.988
539.37	40.959
539.71	41.852
540.05	41.846
540.39	41.447
540.73	41.519
541.07	40.339
541.42	41.294
541.76	42.109
542.10	40.506
542.44	40.773
542.78	42.857
543.12	40.920
543.46	41.353
543.80	40.351
544.14	42.353
544.48	41.363
544.82	41.651
545.16	40.376
545.50	41.672
545.84	41.793
546.18	42.653
546.52	41.377
546.86	41.844
547.20	41.150
547.54	41.292
547.88	39.781
548.22	40.984
548.56	39.776
548.90	40.332
549.24	41.251
549.58	41.302
549.92	41.126
550.26	42.596
550.60	41.251
550.94	41.180
551.28	42.276
551.62	42.414
551.96	40.338
552.30	40.079
552.64	42.071
552.98	41.302
553.32	40.717
553.66	41.629
554.00	41.634
554.34	42.011
554.68	41.868
555.02	42.430
555.36	40.824
555.69	41.361
556.03	39.618
556.37	41.555
556.71	41.917
557.05	40.433
557.39	40.200
557.73	42.520
558.07	41.851
558.41	41.604
558.75	42.339
559.08	42.459
559.42	41.160
559.76	42.552
560.10	40.812
560.44	40.212
560.78	41.816
561.12	41.449
561.45	40.426
561.79	42.010
562.13	39.924
562.47	41.402
562.81	41.574
563.15	41.500
563.48	39.379
563.82	41.173
564.16	41.853
564.50	39.843
564.84	40.851
565.17	41.414
565.51	42.365
565.85	41.209
566.19	41.310
566.52	40.794
566.86	40.514
567.20	41.067
567.54	40.393
567.88	41.315
568.21	39.141
568.55	40.272
568.89	39.644
569.23	39.991
569.56	39.617
569.90	38.987
570.24	38.705
570.57	38.644
570.91	38.970
571.25	38.612
571.59	38.071
571.92	38.348
572.26	38.005
572.60	38.101
572.93	38.413
573.27	38.512
573.61	37.981
573.95	38.347
574.28	38.633
574.62	38.123
574.96	37.590
575.29	36.880
575.63	37.621
575.97	36.928
576.30	37.661
576.64	38.044
576.98	37.404
577.31	37.872
577.65	38.005
577.98	37.406
578.32	37.282
578.66	37.500
578.99	37.424
579.33	37.641
579.67	36.834
580.00	37.331
580.34	37.617
580.67	37.248
581.01	37.744
581.35	37.348
581.68	37.288
582.02	37.529
582.35	37.544
582.69	37.315
583.02	37.832
583.36	37.840
583.70	37.837
584.03	39.597
584.37	38.516
584.70	38.393
585.04	38.211
585.37	37.782
585.71	37.933
586.04	37.983
586.38	37.491
586.72	38.147
587.05	38.420
587.39	38.407
587.72	38.546
588.06	37.994
588.39	38.332
588.73	38.110
589.06	38.051
589.40	38.466
589.73	38.643
590.07	40.117
590.40	39.408
590.73	39.589
591.07	39.317
591.40	38.683
591.74	39.245
592.07	38.935
592.41	39.089
592.74	39.070
593.08	38.184
593.41	38.181
593.75	37.892
594.08	38.405
594.41	38.677
594.75	38.459
595.08	39.506
595.42	39.598
595.75	37.973
596.09	38.582
596.42	38.347
596.75	39.904
597.09	39.785
597.42	38.898
597.75	38.377
598.09	39.270
598.42	39.127
598.76	38.435
599.09	38.691
599.42	37.785
599.76	37.788
600.09	38.271
600.42	38.570
600.76	39.089
601.09	38.592
601.42	38.191
601.76	38.740
602.09	38.411
602.42	38.152
602.76	38.596
603.09	39.253
603.42	39.119
603.76	38.648
604.09	38.581
604.42	39.134
604.76	38.957
605.09	39.061
605.42	38.968
605.75	38.808
606.09	38.523
606.42	37.730
606.75	38.476
607.09	38.334
607.42	39.132
607.75	38.057
608.08	38.668
608.42	39.052
608.75	37.655
609.08	39.023
609.41	39.182
609.75	39.377
610.08	39.568
610.41	38.428
610.74	38.268
611.07	38.472
611.41	39.620
611.74	38.862
612.07	39.210
612.40	38.791
612.73	39.241
613.07	39.483
613.40	40.301
613.73	38.942
614.06	38.900
614.39	40.000
614.72	38.875
615.06	37.092
615.39	38.465
615.72	37.415
616.05	38.674
616.38	38.965
616.71	39.067
617.05	38.605
617.38	38.483
617.71	39.876
618.04	39.372
618.37	39.578
618.70	38.626
619.03	38.889
619.36	39.698
619.69	38.918
620.03	40.770
620.36	38.793
620.69	40.613
621.02	39.538
621.35	38.968
621.68	39.971
622.01	40.590
622.34	40.131
622.67	40.379
623.00	38.257
623.33	38.934
623.66	40.186
623.99	39.178
624.32	39.363
624.65	40.026
624.99	40.568
625.32	39.613
625.65	38.207
625.98	38.842
626.31	39.688
626.64	38.724
626.97	38.332
627.30	40.062
627.63	40.502
627.96	39.045
628.29	41.172
628.62	39.692
628.95	40.603
629.28	41.543
629.61	39.104
629.94	40.536
630.26	39.861
630.59	40.426
630.92	39.731
631.25	40.163
631.58	41.948
631.91	40.057
632.24	40.914
632.57	38.605
632.90	41.097
633.23	41.868
