SpectraSuite Data File
++++++++++++++++++++++++++++++++++++
Date: Thu May 14 16:14:46 PDT 2015
User: schluterlab
Dark Spectrum Present: Yes
Reference Spectrum Present: Yes
Number of Sampled Component Spectra: 1
Spectrometers: USB2E3373
Integration Time (usec): 3000 (USB2E3373)
Spectra Averaged: 3 (USB2E3373)
Boxcar Smoothing: 0 (USB2E3373)
Correct for Electrical Dark: No (USB2E3373)
Strobe/Lamp Enabled: No (USB2E3373)
Correct for Detector Non-linearity: No (USB2E3373)
Correct for Stray Light: No (USB2E3373)
Number of Pixels in Processed Spectrum: 2048
>>>>>Begin Processed Spectral Data<<<<<
178.53	0.000
178.91	71.429
179.29	-2100.000
179.67	-400.000
180.04	121.429
180.42	20.000
180.80	300.000
181.18	-600.000
181.56	100.000
181.94	75.000
182.31	-75.000
182.69	300.000
183.07	-400.000
183.45	200.000
183.83	-83.333
184.20	-133.333
184.58	700.000
184.96	75.000
185.34	33.333
185.72	-100.000
186.09	88.889
186.47	650.000
186.85	100.000
187.23	-44.444
187.61	-700.000
187.98	100.000
188.36	25.000
188.74	25.000
189.12	366.667
189.49	62.500
189.87	-37.500
190.25	22.222
190.63	-140.000
191.00	-44.444
191.38	0.000
191.76	-275.000
192.14	-150.000
192.51	350.000
192.89	100.000
193.27	0.000
193.65	-157.143
194.02	-1400.000
194.40	-14.286
194.78	114.286
195.15	0.000
195.53	27.273
195.91	0.000
196.29	0.000
196.66	7.692
197.04	-300.000
197.42	-157.143
197.79	-150.000
198.17	-12.500
198.55	-28.571
198.92	-100.000
199.30	-187.500
199.68	-90.909
200.05	-14.286
200.43	-150.000
200.81	142.857
201.18	0.000
201.56	100.000
201.94	0.000
202.31	233.333
202.69	-100.000
203.07	700.000
203.44	-11.111
203.82	-50.000
204.19	-91.667
204.57	-16.667
204.95	37.500
205.32	400.000
205.70	100.000
206.08	-66.667
206.45	150.000
206.83	80.000
207.20	0.000
207.58	-160.000
207.96	-66.667
208.33	0.000
208.71	75.000
209.08	50.000
209.46	0.000
209.84	200.000
210.21	100.000
210.59	300.000
210.96	433.333
211.34	200.000
211.71	75.000
212.09	-100.000
212.46	0.000
212.84	700.000
213.22	-100.000
213.59	25.000
213.97	70.000
214.34	-33.333
214.72	116.667
215.09	-100.000
215.47	0.000
215.84	114.286
216.22	300.000
216.59	120.000
216.97	-140.000
217.34	-50.000
217.72	0.000
218.09	-100.000
218.47	-300.000
218.84	0.000
219.22	140.000
219.59	-23.529
219.97	50.000
220.34	100.000
220.72	-33.333
221.09	53.846
221.47	66.667
221.84	10.000
222.22	28.571
222.59	0.000
222.97	-25.000
223.34	-120.000
223.72	-400.000
224.09	75.000
224.46	-175.000
224.84	-100.000
225.21	-57.143
225.59	-300.000
225.96	75.000
226.34	19.231
226.71	166.667
227.08	-650.000
227.46	-40.000
227.83	-100.000
228.21	-52.632
228.58	137.500
228.95	150.000
229.33	66.667
229.70	-70.000
230.08	89.474
230.45	120.000
230.82	0.000
231.20	-7.143
231.57	66.667
231.95	-36.364
232.32	36.364
232.69	30.000
233.07	-25.000
233.44	17.647
233.81	90.000
234.19	55.556
234.56	40.909
234.93	55.172
235.31	21.053
235.68	88.889
236.05	15.000
236.43	50.000
236.80	120.000
237.17	74.074
237.55	57.576
237.92	80.000
238.29	29.032
238.67	29.545
239.04	50.000
239.41	40.476
239.79	45.652
240.16	37.037
240.53	45.652
240.91	41.176
241.28	57.377
241.65	56.716
242.02	56.757
242.40	43.077
242.77	53.333
243.14	41.463
243.51	50.000
243.89	50.000
244.26	49.505
244.63	52.941
245.00	52.336
245.38	42.105
245.75	43.363
246.12	58.730
246.49	51.163
246.87	54.286
247.24	50.993
247.61	50.658
247.98	48.993
248.36	50.617
248.73	46.626
249.10	50.820
249.47	53.731
249.84	54.450
250.22	48.705
250.59	50.556
250.96	52.727
251.33	48.469
251.70	50.855
252.08	50.000
252.45	51.639
252.82	50.826
253.19	54.687
253.56	50.570
253.94	51.923
254.31	53.409
254.68	54.196
255.05	49.511
255.42	49.320
255.79	49.838
256.16	50.000
256.54	51.987
256.91	54.754
257.28	52.787
257.65	51.911
258.02	48.673
258.39	50.997
258.76	53.211
259.14	54.885
259.51	53.602
259.88	52.408
260.25	51.111
260.62	53.425
260.99	56.011
261.36	50.670
261.73	52.255
262.10	56.044
262.47	54.692
262.85	55.051
263.22	52.987
263.59	50.000
263.96	52.941
264.33	53.964
264.70	54.074
265.07	52.029
265.44	53.968
265.81	53.704
266.18	53.061
266.55	49.777
266.92	52.392
267.29	53.829
267.66	55.654
268.03	56.332
268.40	49.896
268.77	51.481
269.14	51.762
269.51	51.316
269.88	52.869
270.25	50.101
270.62	55.696
270.99	51.515
271.36	51.881
271.73	49.312
272.10	54.910
272.47	50.902
272.84	50.602
273.21	49.499
273.58	49.194
273.95	50.000
274.32	49.240
274.69	50.290
275.06	52.198
275.43	48.799
275.80	49.735
276.17	49.815
276.54	50.000
276.91	49.553
277.28	50.452
277.65	51.526
278.02	49.449
278.39	47.826
278.76	49.561
279.13	48.759
279.50	51.031
279.87	48.837
280.23	47.711
280.60	51.017
280.97	50.658
281.34	49.745
281.71	49.746
282.08	46.013
282.45	47.627
282.82	47.096
283.19	49.919
283.56	50.328
283.92	49.850
284.29	49.447
284.66	48.276
285.03	46.635
285.40	47.759
285.77	48.916
286.14	47.634
286.51	47.945
286.87	46.761
287.24	48.494
287.61	46.936
287.98	47.281
288.35	45.858
288.72	45.118
289.08	46.266
289.45	44.527
289.82	46.235
290.19	44.253
290.56	44.366
290.93	45.364
291.29	43.388
291.66	43.939
292.03	43.691
292.40	43.129
292.77	42.453
293.13	40.460
293.50	43.758
293.87	43.087
294.24	44.000
294.60	39.823
294.97	40.671
295.34	41.485
295.71	40.227
296.08	40.310
296.44	40.931
296.81	40.073
297.18	41.345
297.55	37.972
297.91	38.790
298.28	39.810
298.65	37.574
299.02	39.551
299.38	39.016
299.75	36.682
300.12	38.426
300.48	37.442
300.85	38.695
301.22	39.262
301.59	38.242
301.95	38.418
302.32	38.222
302.69	37.897
303.05	36.779
303.42	37.140
303.79	36.875
304.15	36.383
304.52	36.364
304.89	38.115
305.25	37.164
305.62	37.513
305.99	36.495
306.35	37.702
306.72	38.263
307.09	38.071
307.45	38.509
307.82	38.749
308.19	35.419
308.55	37.223
308.92	37.390
309.29	37.261
309.65	37.037
310.02	37.624
310.38	38.091
310.75	38.641
311.12	39.118
311.48	39.394
311.85	38.177
312.22	38.235
312.58	38.779
312.95	39.197
313.31	38.302
313.68	40.110
314.05	38.934
314.41	41.075
314.78	40.327
315.14	39.746
315.51	42.198
315.87	39.784
316.24	41.461
316.61	41.030
316.97	40.181
317.34	40.653
317.70	41.747
318.07	42.240
318.43	42.517
318.80	42.642
319.16	41.888
319.53	40.703
319.89	43.032
320.26	43.861
320.62	42.819
320.99	42.475
321.35	43.161
321.72	44.651
322.08	44.454
322.45	45.257
322.81	47.653
323.18	45.664
323.54	45.776
323.91	47.598
324.27	46.558
324.64	47.859
325.00	45.937
325.37	44.881
325.73	47.273
326.10	46.959
326.46	46.824
326.83	48.038
327.19	46.850
327.56	49.091
327.92	46.971
328.29	47.581
328.65	48.492
329.01	48.985
329.38	49.115
329.74	49.401
330.11	48.716
330.47	47.683
330.84	47.373
331.20	49.833
331.56	49.480
331.93	48.954
332.29	49.746
332.66	49.336
333.02	48.911
333.38	49.161
333.75	50.758
334.11	50.959
334.48	48.432
334.84	50.042
335.20	49.370
335.57	49.578
335.93	50.413
336.29	47.171
336.66	48.360
337.02	48.997
337.38	49.405
337.75	48.182
338.11	50.378
338.47	49.462
338.84	48.054
339.20	48.694
339.56	48.270
339.93	47.783
340.29	48.309
340.65	49.067
341.02	48.204
341.38	48.666
341.74	48.103
342.11	49.879
342.47	46.942
342.83	49.436
343.20	49.877
343.56	50.120
343.92	49.159
344.28	48.359
344.65	49.922
345.01	47.426
345.37	48.445
345.73	48.324
346.10	49.532
346.46	49.525
346.82	48.315
347.19	49.121
347.55	49.924
347.91	50.149
348.27	48.862
348.63	48.896
349.00	48.919
349.36	47.955
349.72	48.065
350.08	49.108
350.45	49.734
350.81	48.416
351.17	50.376
351.53	49.052
351.89	50.190
352.26	50.746
352.62	48.955
352.98	49.847
353.34	48.618
353.70	51.233
354.07	51.043
354.43	50.721
354.79	49.663
355.15	49.742
355.51	50.950
355.87	50.262
356.24	49.962
356.60	50.037
356.96	50.259
357.32	50.186
357.68	49.561
358.04	49.701
358.40	50.000
358.77	50.219
359.13	50.960
359.49	49.145
359.85	50.326
360.21	49.139
360.57	50.826
360.93	51.128
361.29	50.456
361.66	50.760
362.02	51.566
362.38	51.230
362.74	51.397
363.10	51.238
363.46	52.147
363.82	50.923
364.18	51.724
364.54	51.660
364.90	51.906
365.26	51.517
365.62	52.067
365.98	52.757
366.35	51.812
366.71	52.517
367.07	52.706
367.43	51.609
367.79	53.616
368.15	53.177
368.51	52.503
368.87	51.470
369.23	51.667
369.59	53.142
369.95	53.076
370.31	53.950
370.67	52.682
371.03	52.909
371.39	53.324
371.75	53.783
372.11	52.371
372.47	52.471
372.83	53.796
373.19	53.502
373.55	52.304
373.91	53.102
374.27	53.234
374.63	54.195
374.99	53.780
375.35	55.325
375.71	54.645
376.07	52.615
376.42	53.086
376.78	55.003
377.14	53.961
377.50	55.155
377.86	55.480
378.22	53.952
378.58	55.470
378.94	53.932
379.30	54.013
379.66	54.380
380.02	55.453
380.38	55.530
380.74	55.211
381.09	56.388
381.45	55.568
381.81	56.323
382.17	55.463
382.53	56.023
382.89	53.894
383.25	56.506
383.61	55.671
383.97	55.889
384.32	56.758
384.68	55.684
385.04	56.217
385.40	55.333
385.76	57.093
386.12	55.955
386.48	57.471
386.83	55.244
387.19	56.489
387.55	55.575
387.91	56.963
388.27	56.755
388.62	56.415
388.98	55.668
389.34	57.160
389.70	57.118
390.06	56.898
390.42	55.964
390.77	55.990
391.13	56.103
391.49	57.307
391.85	56.485
392.20	56.346
392.56	56.881
392.92	56.543
393.28	57.269
393.64	57.598
393.99	57.002
394.35	57.886
394.71	57.365
395.07	57.784
395.42	57.167
395.78	58.562
396.14	57.576
396.50	55.819
396.85	57.543
397.21	57.515
397.57	57.008
397.92	58.419
398.28	57.523
398.64	56.808
399.00	56.754
399.35	57.173
399.71	57.609
400.07	58.170
400.42	57.509
400.78	58.160
401.14	57.314
401.49	58.215
401.85	57.849
402.21	58.169
402.57	56.866
402.92	57.151
403.28	55.738
403.63	57.876
403.99	56.532
404.35	55.884
404.70	57.564
405.06	56.359
405.42	57.494
405.77	57.361
406.13	56.672
406.49	58.052
406.84	56.676
407.20	56.512
407.55	57.662
407.91	56.757
408.27	57.362
408.62	58.290
408.98	57.864
409.34	57.009
409.69	58.467
410.05	56.975
410.40	57.947
410.76	56.534
411.11	58.095
411.47	57.248
411.83	58.965
412.18	58.072
412.54	57.499
412.89	57.567
413.25	57.844
413.60	56.232
413.96	56.702
414.31	56.147
414.67	57.662
415.03	57.292
415.38	59.079
415.74	57.483
416.09	58.236
416.45	56.606
416.80	57.711
417.16	57.854
417.51	56.663
417.87	56.223
418.22	58.503
418.58	57.497
418.93	57.043
419.29	58.076
419.64	56.603
420.00	57.804
420.35	58.001
420.71	56.749
421.06	56.009
421.42	58.142
421.77	55.735
422.12	55.973
422.48	56.938
422.83	57.010
423.19	57.401
423.54	56.692
423.90	57.537
424.25	58.240
424.61	57.922
424.96	57.221
425.31	56.741
425.67	55.609
426.02	57.167
426.38	56.831
426.73	55.859
427.09	58.131
427.44	56.253
427.79	57.380
428.15	55.936
428.50	57.472
428.85	56.716
429.21	57.340
429.56	56.022
429.92	55.971
430.27	57.735
430.62	56.522
430.98	57.108
431.33	56.354
431.68	55.364
432.04	56.120
432.39	56.936
432.74	55.822
433.10	56.247
433.45	55.518
433.80	56.867
434.16	55.888
434.51	56.989
434.86	57.220
435.22	58.023
435.57	56.309
435.92	56.093
436.28	56.086
436.63	56.636
436.98	55.233
437.34	55.693
437.69	56.632
438.04	55.685
438.39	55.887
438.75	56.004
439.10	55.708
439.45	55.674
439.81	56.158
440.16	55.603
440.51	55.853
440.86	55.864
441.22	55.895
441.57	56.027
441.92	55.141
442.27	55.909
442.63	55.589
442.98	56.243
443.33	54.971
443.68	55.798
444.03	56.021
444.39	55.016
444.74	55.947
445.09	54.587
445.44	55.216
445.79	54.550
446.15	54.985
446.50	56.279
446.85	54.669
447.20	55.126
447.55	54.184
447.91	54.660
448.26	55.285
448.61	55.207
448.96	55.955
449.31	53.181
449.66	55.719
450.02	53.797
450.37	54.289
450.72	54.521
451.07	53.702
451.42	55.055
451.77	54.141
452.12	55.305
452.47	54.367
452.83	55.011
453.18	54.407
453.53	53.130
453.88	52.568
454.23	53.842
454.58	55.659
454.93	54.672
455.28	53.221
455.63	53.326
455.98	52.067
456.34	52.297
456.69	53.616
457.04	54.255
457.39	53.825
457.74	54.866
458.09	52.718
458.44	53.179
458.79	52.656
459.14	53.854
459.49	53.198
459.84	53.358
460.19	52.304
460.54	53.606
460.89	54.209
461.24	52.414
461.59	52.684
461.94	52.367
462.29	53.024
462.64	51.599
462.99	52.668
463.34	52.758
463.69	51.876
464.04	52.362
464.39	51.570
464.74	51.938
465.09	52.307
465.44	51.502
465.79	51.983
466.14	51.537
466.49	50.684
466.84	52.066
467.19	50.405
467.54	50.705
467.89	50.172
468.24	50.471
468.59	49.971
468.94	50.583
469.29	50.330
469.64	49.777
469.99	51.052
470.34	50.433
470.68	50.991
471.03	51.343
471.38	50.491
471.73	49.870
472.08	50.381
472.43	49.488
472.78	51.071
473.13	50.063
473.48	50.332
473.83	49.855
474.17	48.300
474.52	49.729
474.87	50.554
475.22	49.296
475.57	49.221
475.92	49.876
476.27	49.521
476.61	47.975
476.96	47.654
477.31	49.059
477.66	49.685
478.01	48.144
478.36	48.106
478.70	48.670
479.05	49.693
479.40	49.062
479.75	48.991
480.10	48.508
480.45	47.630
480.79	48.753
481.14	48.300
481.49	48.069
481.84	47.868
482.19	48.344
482.53	48.010
482.88	48.250
483.23	48.110
483.58	47.467
483.92	47.207
484.27	47.544
484.62	46.906
484.97	47.706
485.31	47.202
485.66	46.341
486.01	46.131
486.36	47.604
486.70	49.181
487.05	50.099
487.40	49.129
487.75	49.237
488.09	49.197
488.44	47.164
488.79	46.577
489.13	46.560
489.48	45.825
489.83	44.628
490.17	45.119
490.52	45.320
490.87	45.431
491.22	44.974
491.56	45.307
491.91	44.745
492.26	44.872
492.60	44.687
492.95	44.932
493.30	44.778
493.64	44.766
493.99	44.430
494.34	44.164
494.68	44.240
495.03	44.229
495.37	44.163
495.72	44.036
496.07	43.996
496.41	43.415
496.76	44.120
497.11	43.949
497.45	44.022
497.80	43.048
498.14	42.948
498.49	43.612
498.84	43.510
499.18	43.050
499.53	43.094
499.87	42.989
500.22	42.386
500.56	43.365
500.91	42.975
501.26	42.727
501.60	43.129
501.95	42.683
502.29	42.431
502.64	42.501
502.98	41.717
503.33	42.073
503.67	42.739
504.02	41.725
504.36	42.315
504.71	42.490
505.06	43.111
505.40	41.910
505.75	42.213
506.09	41.298
506.44	43.083
506.78	42.936
507.13	41.955
507.47	41.497
507.82	40.909
508.16	40.679
508.51	41.256
508.85	41.285
509.19	41.923
509.54	41.835
509.88	40.894
510.23	41.962
510.57	41.469
510.92	41.703
511.26	39.971
511.61	39.884
511.95	40.312
512.30	40.719
512.64	39.530
512.98	40.170
513.33	40.071
513.67	40.286
514.02	39.959
514.36	40.665
514.70	40.156
515.05	39.260
515.39	39.370
515.74	39.130
516.08	39.356
516.42	39.717
516.77	39.537
517.11	38.422
517.46	39.608
517.80	39.818
518.14	39.064
518.49	39.588
518.83	38.584
519.17	38.611
519.52	38.994
519.86	40.127
520.20	38.871
520.55	38.554
520.89	38.626
521.23	38.749
521.58	38.757
521.92	39.207
522.26	37.973
522.61	39.352
522.95	38.466
523.29	39.023
523.64	37.724
523.98	37.422
524.32	39.312
524.66	37.507
525.01	37.259
525.35	37.277
525.69	37.877
526.04	36.567
526.38	37.701
526.72	37.832
527.06	38.475
527.41	37.784
527.75	37.945
528.09	38.017
528.43	36.945
528.78	36.994
529.12	35.780
529.46	37.324
529.80	37.986
530.15	36.928
530.49	38.019
530.83	37.485
531.17	36.141
531.51	37.365
531.86	37.861
532.20	38.049
532.54	37.283
532.88	37.030
533.22	37.596
533.57	36.526
533.91	36.083
534.25	37.931
534.59	37.816
534.93	36.503
535.27	37.746
535.62	38.431
535.96	37.653
536.30	37.015
536.64	37.297
536.98	37.823
537.32	37.284
537.66	37.804
538.01	35.529
538.35	36.663
538.69	36.839
539.03	37.094
539.37	35.689
539.71	37.117
540.05	37.530
540.39	36.125
540.73	35.155
541.07	36.358
541.42	35.794
541.76	36.062
542.10	36.429
542.44	35.688
542.78	35.766
543.12	37.187
543.46	36.569
543.80	36.211
544.14	35.308
544.48	36.229
544.82	36.266
545.16	36.017
545.50	35.830
545.84	35.824
546.18	36.852
546.52	36.433
546.86	35.094
547.20	36.896
547.54	36.454
547.88	36.769
548.22	35.848
548.56	35.401
548.90	35.940
549.24	36.049
549.58	35.710
549.92	35.268
550.26	35.534
550.60	35.546
550.94	34.994
551.28	34.191
551.62	35.580
551.96	34.951
552.30	36.138
552.64	35.096
552.98	34.435
553.32	35.563
553.66	34.727
554.00	34.678
554.34	34.813
554.68	33.376
555.02	34.363
555.36	34.254
555.69	33.632
556.03	35.246
556.37	35.169
556.71	34.432
557.05	34.505
557.39	34.970
557.73	34.412
558.07	34.040
558.41	33.555
558.75	34.348
559.08	34.656
559.42	33.265
559.76	33.921
560.10	33.691
560.44	34.103
560.78	34.375
561.12	33.251
561.45	34.732
561.79	34.493
562.13	34.442
562.47	33.847
562.81	34.620
563.15	35.038
563.48	33.313
563.82	34.401
564.16	33.616
564.50	34.148
564.84	34.336
565.17	34.118
565.51	33.717
565.85	33.789
566.19	33.583
566.52	33.587
566.86	34.012
567.20	32.735
567.54	34.466
567.88	34.200
568.21	34.190
568.55	35.300
568.89	35.179
569.23	35.361
569.56	35.404
569.90	35.531
570.24	35.514
570.57	36.209
570.91	34.936
571.25	35.175
571.59	35.374
571.92	35.581
572.26	36.210
572.60	36.200
572.93	35.653
573.27	36.274
573.61	35.760
573.95	35.640
574.28	35.623
574.62	35.834
574.96	35.135
575.29	35.558
575.63	35.713
575.97	36.263
576.30	34.789
576.64	35.624
576.98	35.945
577.31	36.290
577.65	35.782
577.98	35.730
578.32	35.687
578.66	35.846
578.99	36.187
579.33	36.083
579.67	35.381
580.00	35.693
580.34	35.602
580.67	35.371
581.01	35.244
581.35	35.106
581.68	35.475
582.02	35.733
582.35	35.893
582.69	36.076
583.02	36.423
583.36	36.270
583.70	36.060
584.03	35.877
584.37	35.621
584.70	35.037
585.04	34.736
585.37	34.887
585.71	34.153
586.04	35.095
586.38	35.190
586.72	34.420
587.05	34.536
587.39	34.655
587.72	34.952
588.06	34.768
588.39	34.827
588.73	34.974
589.06	34.763
589.40	35.095
589.73	34.287
590.07	34.649
590.40	34.246
590.73	34.111
591.07	34.103
591.40	33.709
591.74	34.141
592.07	33.942
592.41	32.808
592.74	32.659
593.08	33.981
593.41	33.917
593.75	33.247
594.08	33.626
594.41	33.750
594.75	33.909
595.08	33.647
595.42	33.896
595.75	33.645
596.09	33.921
596.42	33.286
596.75	34.080
597.09	33.778
597.42	33.135
597.75	32.771
598.09	33.056
598.42	32.610
598.76	32.289
599.09	32.752
599.42	31.948
599.76	32.684
600.09	32.933
600.42	33.100
600.76	32.695
601.09	33.422
601.42	32.818
601.76	33.655
602.09	32.952
602.42	32.316
602.76	32.583
603.09	33.003
603.42	33.309
603.76	32.452
604.09	33.392
604.42	32.404
604.76	32.154
605.09	32.589
605.42	32.735
605.75	32.038
606.09	32.027
606.42	31.485
606.75	32.384
607.09	31.413
607.42	32.331
607.75	31.848
608.08	32.005
608.42	31.761
608.75	32.297
609.08	31.749
609.41	31.584
609.75	31.027
610.08	31.750
610.41	32.031
610.74	31.597
611.07	32.549
611.41	31.749
611.74	31.547
612.07	31.931
612.40	30.941
612.73	31.883
613.07	31.540
613.40	31.184
613.73	31.006
614.06	30.716
614.39	31.584
614.72	29.985
615.06	31.280
615.39	31.029
615.72	30.853
616.05	31.423
616.38	30.424
616.71	31.034
617.05	29.712
617.38	30.177
617.71	30.562
618.04	30.869
618.37	32.295
618.70	30.600
619.03	29.869
619.36	29.901
619.69	30.365
620.03	29.567
620.36	30.061
620.69	29.735
621.02	31.234
621.35	29.826
621.68	29.284
622.01	29.181
622.34	28.522
622.67	28.316
623.00	29.082
623.33	30.126
623.66	29.831
623.99	28.440
624.32	30.019
624.65	29.472
624.99	30.169
625.32	29.850
625.65	29.265
625.98	28.475
626.31	29.412
626.64	29.890
626.97	29.407
627.30	28.094
627.63	28.357
627.96	29.204
628.29	27.860
628.62	28.799
628.95	28.922
629.28	27.358
629.61	27.189
629.94	27.866
630.26	27.542
630.59	26.511
630.92	27.965
631.25	27.191
631.58	27.307
631.91	27.741
632.24	28.530
632.57	28.368
632.90	27.683
633.23	26.837
633.56	26.939
633.89	26.136
