SpectraSuite Data File
++++++++++++++++++++++++++++++++++++
Date: Thu May 14 16:14:32 PDT 2015
User: schluterlab
Dark Spectrum Present: Yes
Reference Spectrum Present: Yes
Number of Sampled Component Spectra: 1
Spectrometers: USB2E3373
Integration Time (usec): 3000 (USB2E3373)
Spectra Averaged: 3 (USB2E3373)
Boxcar Smoothing: 0 (USB2E3373)
Correct for Electrical Dark: No (USB2E3373)
Strobe/Lamp Enabled: No (USB2E3373)
Correct for Detector Non-linearity: No (USB2E3373)
Correct for Stray Light: No (USB2E3373)
Number of Pixels in Processed Spectrum: 2048
>>>>>Begin Processed Spectral Data<<<<<
178.53	0.000
178.91	-14.286
179.29	-1100.000
179.67	-400.000
180.04	142.857
180.42	40.000
180.80	-40.000
181.18	-1100.000
181.56	100.000
181.94	-0.000
182.31	75.000
182.69	-0.000
183.07	200.000
183.45	200.000
183.83	83.333
184.20	-100.000
184.58	-100.000
184.96	-50.000
185.34	22.222
185.72	100.000
186.09	133.333
186.47	400.000
186.85	300.000
187.23	-44.444
187.61	-1700.000
187.98	140.000
188.36	25.000
188.74	-125.000
189.12	0.000
189.49	37.500
189.87	-50.000
190.25	44.444
190.63	-20.000
191.00	-177.778
191.38	0.000
191.76	-150.000
192.14	-100.000
192.51	150.000
192.89	33.333
193.27	0.000
193.65	-42.857
194.02	-1100.000
194.40	28.571
194.78	28.571
195.15	0.000
195.53	-9.091
195.91	0.000
196.29	75.000
196.66	15.385
197.04	-700.000
197.42	-100.000
197.79	-450.000
198.17	-112.500
198.55	-42.857
198.92	-177.778
199.30	-87.500
199.68	27.273
200.05	21.429
200.43	-200.000
200.81	185.714
201.18	0.000
201.56	77.778
201.94	0.000
202.31	300.000
202.69	-44.444
203.07	400.000
203.44	-88.889
203.82	-125.000
204.19	58.333
204.57	-100.000
204.95	-125.000
205.32	-600.000
205.70	-0.000
206.08	-116.667
206.45	-133.333
206.83	300.000
207.20	-83.333
207.58	-200.000
207.96	-150.000
208.33	50.000
208.71	108.333
209.08	83.333
209.46	0.000
209.84	133.333
210.21	250.000
210.59	100.000
210.96	133.333
211.34	75.000
211.71	-100.000
212.09	-500.000
212.46	0.000
212.84	1000.000
213.22	-220.000
213.59	25.000
213.97	100.000
214.34	-300.000
214.72	66.667
215.09	-75.000
215.47	0.000
215.84	100.000
216.22	350.000
216.59	0.000
216.97	-100.000
217.34	50.000
217.72	-12.500
218.09	25.000
218.47	-275.000
218.84	0.000
219.22	120.000
219.59	-82.353
219.97	-20.000
220.34	550.000
220.72	-122.222
221.09	69.231
221.47	33.333
221.84	-10.000
222.22	-100.000
222.59	0.000
222.97	0.000
223.34	-40.000
223.72	-100.000
224.09	-175.000
224.46	-200.000
224.84	200.000
225.21	0.000
225.59	-300.000
225.96	-75.000
226.34	7.692
226.71	183.333
227.08	-450.000
227.46	-13.333
227.83	-400.000
228.21	47.368
228.58	75.000
228.95	300.000
229.33	0.000
229.70	-90.000
230.08	42.105
230.45	80.000
230.82	-33.333
231.20	42.857
231.57	-58.333
231.95	9.091
232.32	27.273
232.69	-35.000
233.07	-100.000
233.44	23.529
233.81	-110.000
234.19	16.667
234.56	0.000
234.93	37.931
235.31	47.368
235.68	0.000
236.05	-45.000
236.43	69.231
236.80	44.000
237.17	-7.407
237.55	12.121
237.92	-60.000
238.29	-12.903
238.67	13.636
239.04	16.667
239.41	-9.524
239.79	0.000
240.16	16.667
240.53	10.870
240.91	11.765
241.28	14.754
241.65	20.896
242.02	20.270
242.40	15.385
242.77	21.333
243.14	8.537
243.51	-7.895
243.89	2.564
244.26	16.832
244.63	10.784
245.00	8.411
245.38	11.404
245.75	0.885
246.12	8.730
246.49	10.078
246.87	10.714
247.24	11.258
247.61	5.921
247.98	6.711
248.36	15.432
248.73	9.816
249.10	8.197
249.47	14.428
249.84	9.948
250.22	8.808
250.59	8.333
250.96	13.182
251.33	3.061
251.70	10.684
252.08	11.667
252.45	9.426
252.82	9.504
253.19	10.547
253.56	9.506
253.94	7.692
254.31	9.470
254.68	14.685
255.05	13.681
255.42	8.503
255.79	7.120
256.16	9.934
256.54	7.285
256.91	9.508
257.28	8.197
257.65	8.917
258.02	7.965
258.39	6.838
258.76	13.456
259.14	12.356
259.51	7.493
259.88	6.799
260.25	12.500
260.62	11.507
260.99	13.934
261.36	9.651
261.73	7.692
262.10	10.440
262.47	10.456
262.85	12.121
263.22	6.234
263.59	6.316
263.96	9.719
264.33	11.765
264.70	11.605
265.07	12.649
265.44	11.791
265.81	9.722
266.18	10.204
266.55	10.268
266.92	9.795
267.29	13.348
267.66	10.865
268.03	12.009
268.40	9.395
268.77	9.112
269.14	8.150
269.51	9.649
269.88	11.475
270.25	12.072
270.62	9.072
270.99	11.111
271.36	13.069
271.73	9.627
272.10	11.824
272.47	10.220
272.84	10.442
273.21	9.820
273.58	12.298
273.95	11.923
274.32	7.034
274.69	10.251
275.06	11.538
275.43	9.797
275.80	11.993
276.17	8.704
276.54	10.261
276.91	9.481
277.28	11.212
277.65	10.054
278.02	11.029
278.39	8.877
278.76	9.315
279.13	9.574
279.50	12.199
279.87	10.733
280.23	6.162
280.60	9.661
280.97	11.842
281.34	8.319
281.71	12.860
282.08	8.970
282.45	10.802
282.82	8.948
283.19	10.339
283.56	9.836
283.92	10.210
284.29	11.216
284.66	10.345
285.03	8.494
285.40	11.128
285.77	9.133
286.14	9.008
286.51	9.589
286.87	9.005
287.24	10.241
287.61	11.061
287.98	8.761
288.35	10.503
288.72	9.320
289.08	9.663
289.45	7.840
289.82	9.036
290.19	9.339
290.56	9.859
290.93	10.271
291.29	9.917
291.66	8.678
292.03	7.056
292.40	10.884
292.77	8.491
293.13	8.119
293.50	8.804
293.87	8.054
294.24	11.333
294.60	9.355
294.97	7.651
295.34	9.603
295.71	7.945
296.08	7.494
296.44	8.333
296.81	8.526
297.18	7.721
297.55	8.137
297.91	9.371
298.28	7.583
298.65	7.729
299.02	8.146
299.38	8.810
299.75	8.762
300.12	6.481
300.48	8.295
300.85	9.449
301.22	8.166
301.59	7.078
301.95	8.927
302.32	9.667
302.69	9.310
303.05	8.814
303.42	7.871
303.79	8.750
304.15	10.095
304.52	8.140
304.89	9.319
305.25	7.867
305.62	9.195
305.99	8.969
306.35	7.964
306.72	9.204
307.09	8.629
307.45	8.696
307.82	8.174
308.19	8.981
308.55	9.932
308.92	9.932
309.29	10.057
309.65	9.747
310.02	9.703
310.38	10.039
310.75	8.738
311.12	10.355
311.48	8.798
311.85	9.877
312.22	8.729
312.58	11.080
312.95	9.178
313.31	11.201
313.68	10.073
314.05	10.840
314.41	12.022
314.78	10.536
315.14	11.343
315.51	11.634
315.87	10.351
316.24	11.872
316.61	12.966
316.97	11.403
317.34	11.993
317.70	12.838
318.07	13.316
318.43	14.456
318.80	14.967
319.16	13.906
319.53	12.082
319.89	12.708
320.26	14.591
320.62	13.741
320.99	15.512
321.35	14.418
321.72	16.000
322.08	15.059
322.45	15.718
322.81	15.162
323.18	15.841
323.54	16.810
323.91	18.060
324.27	16.523
324.64	18.136
325.00	16.750
325.37	17.936
325.73	19.091
326.10	18.167
326.46	19.625
326.83	19.936
327.19	19.843
327.56	19.526
327.92	18.489
328.29	19.435
328.65	19.933
329.01	19.289
329.38	20.977
329.74	22.003
330.11	21.147
330.47	21.314
330.84	20.586
331.20	22.500
331.56	23.050
331.93	22.176
332.29	21.017
332.66	21.262
333.02	22.194
333.38	21.644
333.75	22.643
334.11	23.019
334.48	22.442
334.84	23.280
335.20	22.502
335.57	22.344
335.93	22.975
336.29	22.130
336.66	23.129
337.02	23.244
337.38	22.619
337.75	22.231
338.11	22.708
338.47	24.069
338.84	23.689
339.20	22.662
339.56	23.229
339.93	23.071
340.29	23.188
340.65	23.033
341.02	23.543
341.38	23.767
341.74	23.083
342.11	23.009
342.47	22.478
342.83	23.510
343.20	22.976
343.56	23.897
343.92	22.818
344.28	23.516
344.65	23.101
345.01	23.713
345.37	23.250
345.73	23.227
346.10	23.323
346.46	24.604
346.82	23.071
347.19	23.759
347.55	24.127
347.91	23.848
348.27	24.052
348.63	23.077
349.00	23.639
349.36	23.271
349.72	23.512
350.08	23.848
350.45	23.422
350.81	22.323
351.17	23.383
351.53	24.488
351.89	24.753
352.26	24.030
352.62	23.507
352.98	23.053
353.34	23.450
353.70	23.960
354.07	23.398
354.43	23.842
354.79	23.934
355.15	23.400
355.51	25.000
355.87	23.485
356.24	24.259
356.60	24.464
356.96	23.647
357.32	23.569
357.68	23.206
358.04	23.802
358.40	23.731
358.77	24.488
359.13	24.003
359.49	23.346
359.85	23.858
360.21	24.821
360.57	24.767
360.93	24.118
361.29	24.491
361.66	23.534
362.02	25.052
362.38	23.823
362.74	25.279
363.10	26.066
363.46	25.000
363.82	25.071
364.18	24.912
364.54	25.726
364.90	25.886
365.26	24.000
365.62	26.067
365.98	24.983
366.35	25.101
366.71	25.306
367.07	25.101
367.43	26.198
367.79	26.012
368.15	26.020
368.51	26.590
368.87	25.082
369.23	26.000
369.59	25.888
369.95	25.423
370.31	26.334
370.67	26.685
371.03	25.416
371.39	25.722
371.75	26.204
372.11	25.203
372.47	27.150
372.83	26.047
373.19	26.551
373.55	26.558
373.91	26.176
374.27	26.003
374.63	27.740
374.99	27.122
375.35	27.078
375.71	27.161
376.07	26.469
376.42	27.519
376.78	27.284
377.14	27.261
377.50	27.008
377.86	28.448
378.22	28.204
378.58	28.537
378.94	27.465
379.30	27.885
379.66	27.748
380.02	27.871
380.38	28.859
380.74	28.620
381.09	28.339
381.45	28.125
381.81	30.035
382.17	29.988
382.53	29.708
382.89	28.499
383.25	29.601
383.61	28.530
383.97	28.445
384.32	29.904
384.68	28.828
385.04	30.249
385.40	31.114
385.76	30.539
386.12	29.623
386.48	29.588
386.83	30.691
387.19	29.838
387.55	30.282
387.91	30.422
388.27	30.831
388.62	30.641
388.98	29.836
389.34	31.467
389.70	32.655
390.06	30.610
390.42	30.663
390.77	32.089
391.13	31.338
391.49	31.401
391.85	32.424
392.20	31.732
392.56	32.841
392.92	32.225
393.28	31.896
393.64	32.235
393.99	31.842
394.35	33.178
394.71	32.695
395.07	32.335
395.42	32.210
395.78	34.065
396.14	32.858
396.50	32.363
396.85	32.976
397.21	32.663
397.57	34.335
397.92	34.536
398.28	33.134
398.64	33.867
399.00	32.670
399.35	33.351
399.71	34.022
400.07	33.970
400.42	33.644
400.78	33.854
401.14	33.068
401.49	34.792
401.85	34.070
402.21	35.458
402.57	35.974
402.92	34.988
403.28	33.958
403.63	34.785
403.99	35.273
404.35	34.395
404.70	36.204
405.06	34.620
405.42	35.831
405.77	36.478
406.13	35.981
406.49	35.755
406.84	36.122
407.20	36.445
407.55	35.554
407.91	35.827
408.27	36.572
408.62	36.475
408.98	36.274
409.34	37.009
409.69	37.392
410.05	36.870
410.40	37.935
410.76	37.521
411.11	37.814
411.47	37.961
411.83	37.625
412.18	38.434
412.54	37.759
412.89	38.591
413.25	38.431
413.60	38.713
413.96	39.336
414.31	37.847
414.67	37.865
415.03	39.015
415.38	40.038
415.74	37.996
416.09	38.680
416.45	37.884
416.80	38.250
417.16	39.080
417.51	39.352
417.87	39.362
418.22	39.162
418.58	39.281
418.93	39.639
419.29	40.197
419.64	39.796
420.00	39.941
420.35	40.371
420.71	40.781
421.06	40.541
421.42	40.654
421.77	39.849
422.12	39.482
422.48	40.451
422.83	40.088
423.19	40.955
423.54	42.367
423.90	40.917
424.25	41.440
424.61	40.815
424.96	40.967
425.31	42.091
425.67	41.868
426.02	40.730
426.38	41.734
426.73	40.960
427.09	42.964
427.44	41.835
427.79	41.680
428.15	41.952
428.50	41.966
428.85	41.447
429.21	42.553
429.56	41.856
429.92	41.572
430.27	41.446
430.62	41.866
430.98	42.843
431.33	42.571
431.68	43.151
432.04	42.509
432.39	42.957
432.74	41.895
433.10	43.970
433.45	42.419
433.80	42.811
434.16	43.285
434.51	43.628
434.86	43.865
435.22	44.315
435.57	45.519
435.92	44.073
436.28	44.596
436.63	45.057
436.98	43.317
437.34	42.897
437.69	43.588
438.04	44.104
438.39	44.744
438.75	44.604
439.10	45.137
439.45	45.109
439.81	45.141
440.16	44.611
440.51	43.924
440.86	44.469
441.22	44.480
441.57	45.597
441.92	44.471
442.27	46.162
442.63	43.964
442.98	45.197
443.33	45.976
443.68	46.333
444.03	45.720
444.39	45.215
444.74	45.431
445.09	45.160
445.44	45.680
445.79	46.121
446.15	45.581
446.50	45.478
446.85	46.109
447.20	45.261
447.55	45.973
447.91	45.131
448.26	46.459
448.61	45.962
448.96	46.835
449.31	45.970
449.66	46.078
450.02	45.833
450.37	46.191
450.72	47.363
451.07	46.526
451.42	45.927
451.77	46.971
452.12	46.614
452.47	46.762
452.83	48.592
453.18	46.585
453.53	46.870
453.88	47.211
454.23	47.119
454.58	47.359
454.93	47.027
455.28	47.502
455.63	47.129
455.98	47.821
456.34	46.820
456.69	48.148
457.04	48.463
457.39	47.561
457.74	47.707
458.09	47.172
458.44	47.198
458.79	46.725
459.14	47.562
459.49	48.331
459.84	48.216
460.19	46.863
460.54	49.461
460.89	47.909
461.24	48.621
461.59	48.478
461.94	48.317
462.29	48.600
462.64	48.039
462.99	48.399
463.34	47.891
463.69	47.597
464.04	48.972
464.39	48.038
464.74	48.119
465.09	47.693
465.44	48.552
465.79	47.435
466.14	47.785
466.49	47.474
466.84	50.028
467.19	49.769
467.54	46.416
467.89	49.138
468.24	48.255
468.59	49.739
468.94	48.543
469.29	48.710
469.64	48.379
469.99	50.860
470.34	48.762
470.68	49.624
471.03	51.539
471.38	50.687
471.73	49.415
472.08	50.127
472.43	49.849
472.78	50.945
473.13	49.684
473.48	49.668
473.83	51.364
474.17	49.707
474.52	50.030
474.87	49.557
475.22	50.986
475.57	49.429
475.92	48.980
476.27	50.692
476.61	50.623
476.96	49.270
477.31	49.554
477.66	50.944
478.01	50.941
478.36	49.701
478.70	49.901
479.05	51.022
479.40	50.444
479.75	51.681
480.10	50.924
480.45	50.182
480.79	50.567
481.14	50.460
481.49	50.841
481.84	50.870
482.19	50.581
482.53	51.202
482.88	52.016
483.23	50.200
483.58	51.266
483.92	50.266
484.27	50.720
484.62	49.670
484.97	50.700
485.31	49.630
485.66	47.934
486.01	46.242
486.36	47.589
486.70	48.587
487.05	49.643
487.40	49.756
487.75	49.695
488.09	49.789
488.44	49.538
488.79	50.793
489.13	50.941
489.48	49.942
489.83	50.624
490.17	50.263
490.52	50.985
490.87	51.650
491.22	51.690
491.56	51.408
491.91	51.461
492.26	52.358
492.60	51.990
492.95	51.382
493.30	52.443
493.64	51.905
493.99	51.886
494.34	51.829
494.68	51.135
495.03	52.247
495.37	52.020
495.72	52.925
496.07	51.490
496.41	51.437
496.76	52.210
497.11	52.569
497.45	52.568
497.80	52.110
498.14	52.063
498.49	52.574
498.84	53.839
499.18	52.632
499.53	53.184
499.87	52.000
500.22	51.603
500.56	52.767
500.91	52.174
501.26	52.864
501.60	52.497
501.95	52.366
502.29	53.269
502.64	53.126
502.98	51.596
503.33	52.657
503.67	52.377
504.02	52.364
504.36	53.485
504.71	53.881
505.06	52.478
505.40	52.788
505.75	52.596
506.09	53.867
506.44	54.132
506.78	53.578
507.13	53.250
507.47	53.861
507.82	53.835
508.16	53.920
508.51	53.399
508.85	54.086
509.19	54.571
509.54	55.235
509.88	55.172
510.23	53.764
510.57	54.712
510.92	54.523
511.26	54.257
511.61	53.790
511.95	53.978
512.30	54.604
512.64	55.072
512.98	55.428
513.33	55.444
513.67	55.635
514.02	55.749
514.36	56.010
514.70	55.625
515.05	56.726
515.39	56.378
515.74	57.158
516.08	55.573
516.42	56.515
516.77	57.203
517.11	54.771
517.46	56.628
517.80	57.723
518.14	58.161
518.49	56.887
518.83	55.561
519.17	56.112
519.52	56.604
519.86	56.441
520.20	56.337
520.55	57.284
520.89	57.714
521.23	57.733
521.58	58.249
521.92	58.640
522.26	56.930
522.61	58.044
522.95	56.632
523.29	58.391
523.64	57.511
523.98	58.357
524.32	59.656
524.66	59.021
525.01	57.644
525.35	58.013
525.69	59.339
526.04	57.233
526.38	58.046
526.72	57.843
527.06	59.062
527.41	58.134
527.75	59.442
528.09	59.150
528.43	59.325
528.78	57.341
529.12	58.085
529.46	57.504
529.80	60.641
530.15	58.493
530.49	58.600
530.83	58.146
531.17	59.259
531.51	58.484
531.86	59.435
532.20	59.390
532.54	58.169
532.88	59.030
533.22	56.453
533.57	57.877
533.91	57.688
534.25	57.773
534.59	59.138
534.93	57.442
535.27	58.986
535.62	60.091
535.96	58.571
536.30	58.343
536.64	58.438
536.98	58.979
537.32	58.642
537.66	59.264
538.01	56.858
538.35	58.404
538.69	57.692
539.03	58.860
539.37	57.833
539.71	58.318
540.05	58.393
540.39	58.496
540.73	57.256
541.07	59.289
541.42	57.236
541.76	56.762
542.10	57.358
542.44	58.222
542.78	58.637
543.12	57.569
543.46	58.120
543.80	57.734
544.14	57.271
544.48	57.270
544.82	57.570
545.16	57.484
545.50	58.898
545.84	58.053
546.18	58.889
546.52	57.834
546.86	58.553
547.20	57.952
547.54	55.805
547.88	57.806
548.22	57.193
548.56	57.226
548.90	56.716
549.24	57.325
549.58	58.297
549.92	57.143
550.26	59.094
550.60	56.796
550.94	57.762
551.28	56.304
551.62	58.895
551.96	58.252
552.30	55.895
552.64	57.125
552.98	56.769
553.32	58.135
553.66	57.363
554.00	57.251
554.34	57.079
554.68	57.134
555.02	57.424
555.36	59.632
555.69	56.246
556.03	56.431
556.37	58.198
556.71	58.339
557.05	57.380
557.39	57.399
557.73	56.407
558.07	57.947
558.41	57.940
558.75	57.066
559.08	58.942
559.42	58.436
559.76	57.327
560.10	57.870
560.44	56.464
560.78	56.750
561.12	56.773
561.45	57.178
561.79	56.654
562.13	56.624
562.47	55.734
562.81	56.962
563.15	56.566
563.48	56.992
563.82	55.320
564.16	54.815
564.50	55.959
564.84	55.398
565.17	55.882
565.51	55.639
565.85	55.404
566.19	54.205
566.52	55.705
566.86	55.178
567.20	54.595
567.54	54.700
567.88	54.230
568.21	53.508
568.55	53.621
568.89	53.382
569.23	52.176
569.56	52.599
569.90	51.604
570.24	50.388
570.57	50.289
570.91	49.878
571.25	49.841
571.59	49.235
571.92	49.627
572.26	48.782
572.60	49.004
572.93	48.511
573.27	48.974
573.61	48.147
573.95	47.949
574.28	48.096
574.62	47.772
574.96	47.419
575.29	47.081
575.63	47.540
575.97	48.120
576.30	46.904
576.64	47.316
576.98	47.175
577.31	47.525
577.65	47.689
577.98	46.931
578.32	45.689
578.66	45.684
578.99	46.959
579.33	47.288
579.67	46.940
580.00	46.909
580.34	46.117
580.67	46.050
581.01	46.365
581.35	45.704
581.68	46.069
582.02	45.293
582.35	46.070
582.69	46.100
583.02	45.861
583.36	46.231
583.70	46.330
584.03	46.316
584.37	46.556
584.70	46.308
585.04	45.757
585.37	45.493
585.71	45.502
586.04	45.553
586.38	45.799
586.72	46.077
587.05	46.457
587.39	46.821
587.72	46.722
588.06	46.688
588.39	46.278
588.73	46.270
589.06	46.275
589.40	46.312
589.73	47.397
590.07	47.513
590.40	46.755
590.73	46.448
591.07	48.287
591.40	47.939
591.74	48.013
592.07	47.787
592.41	46.530
592.74	46.681
593.08	46.242
593.41	46.398
593.75	46.236
594.08	46.592
594.41	46.538
594.75	46.131
595.08	45.559
595.42	46.039
595.75	45.399
596.09	46.018
596.42	46.578
596.75	47.009
597.09	47.838
597.42	46.365
597.75	46.296
598.09	46.548
598.42	46.763
598.76	46.236
599.09	45.710
599.42	44.888
599.76	44.767
600.09	44.912
600.42	45.345
600.76	45.310
601.09	44.839
601.42	44.696
601.76	45.310
602.09	44.853
602.42	44.820
602.76	45.535
603.09	45.595
603.42	45.051
603.76	45.384
604.09	46.061
604.42	44.514
604.76	45.738
605.09	45.911
605.42	45.654
605.75	45.692
606.09	44.793
606.42	44.801
606.75	44.490
607.09	44.739
607.42	44.432
607.75	45.369
608.08	44.120
608.42	44.619
608.75	45.605
609.08	44.737
609.41	46.052
609.75	44.955
610.08	45.383
610.41	44.647
610.74	44.244
611.07	44.583
611.41	45.785
611.74	46.143
612.07	46.143
612.40	45.627
612.73	45.770
613.07	45.819
613.40	45.188
613.73	45.643
614.06	45.829
614.39	44.606
614.72	45.852
615.06	44.899
615.39	44.901
615.72	44.787
616.05	45.119
616.38	46.115
616.71	46.290
617.05	44.143
617.38	44.730
617.71	45.356
618.04	45.224
618.37	46.066
618.70	45.984
619.03	46.057
619.36	46.547
619.69	46.765
620.03	47.207
620.36	45.828
620.69	45.466
621.02	47.966
621.35	49.202
621.68	48.228
622.01	47.758
622.34	46.722
622.67	46.254
623.00	45.884
623.33	47.180
623.66	47.211
623.99	44.766
624.32	45.679
624.65	46.010
624.99	46.294
625.32	46.897
625.65	46.460
625.98	46.441
626.31	46.208
626.64	47.985
626.97	46.737
627.30	45.862
627.63	47.187
627.96	46.396
628.29	48.872
628.62	47.691
628.95	48.116
629.28	48.428
629.61	48.485
629.94	47.197
630.26	47.034
630.59	46.718
630.92	47.273
631.25	49.016
631.58	49.341
631.91	49.485
632.24	49.568
632.57	48.197
632.90	49.348
633.23	48.878
633.56	50.000
633.89	48.967
634.22	48.649
634.55	48.643
634.88	50.108
635.20	49.085
635.53	51.525
635.86	50.379
636.19	49.947
636.52	48.945
