SpectraSuite Data File
++++++++++++++++++++++++++++++++++++
Date: Thu May 14 16:18:45 PDT 2015
User: schluterlab
Dark Spectrum Present: Yes
Reference Spectrum Present: Yes
Number of Sampled Component Spectra: 1
Spectrometers: USB2E3373
Integration Time (usec): 3000 (USB2E3373)
Spectra Averaged: 3 (USB2E3373)
Boxcar Smoothing: 0 (USB2E3373)
Correct for Electrical Dark: No (USB2E3373)
Strobe/Lamp Enabled: No (USB2E3373)
Correct for Detector Non-linearity: No (USB2E3373)
Correct for Stray Light: No (USB2E3373)
Number of Pixels in Processed Spectrum: 2048
>>>>>Begin Processed Spectral Data<<<<<
178.53	0.000
178.91	142.857
179.29	-1700.000
179.67	-1100.000
180.04	114.286
180.42	70.000
180.80	-20.000
181.18	-200.000
181.56	600.000
181.94	125.000
182.31	175.000
182.69	266.667
183.07	-100.000
183.45	125.000
183.83	66.667
184.20	-200.000
184.58	400.000
184.96	-150.000
185.34	22.222
185.72	120.000
186.09	122.222
186.47	650.000
186.85	360.000
187.23	-100.000
187.61	-100.000
187.98	-60.000
188.36	250.000
188.74	-350.000
189.12	66.667
189.49	25.000
189.87	-12.500
190.25	22.222
190.63	-180.000
191.00	-111.111
191.38	0.000
191.76	-225.000
192.14	-166.667
192.51	600.000
192.89	-66.667
193.27	0.000
193.65	0.000
194.02	-800.000
194.40	-14.286
194.78	85.714
195.15	0.000
195.53	-81.818
195.91	0.000
196.29	-125.000
196.66	46.154
197.04	-300.000
197.42	-71.429
197.79	-300.000
198.17	50.000
198.55	-71.429
198.92	0.000
199.30	-75.000
199.68	-54.545
200.05	-7.143
200.43	-350.000
200.81	157.143
201.18	0.000
201.56	266.667
201.94	0.000
202.31	300.000
202.69	-44.444
203.07	-0.000
203.44	55.556
203.82	-100.000
204.19	8.333
204.57	-33.333
204.95	-37.500
205.32	-900.000
205.70	250.000
206.08	33.333
206.45	-116.667
206.83	260.000
207.20	-150.000
207.58	-280.000
207.96	-166.667
208.33	-16.667
208.71	100.000
209.08	66.667
209.46	0.000
209.84	166.667
210.21	300.000
210.59	600.000
210.96	266.667
211.34	-25.000
211.71	75.000
212.09	-800.000
212.46	0.000
212.84	500.000
213.22	-440.000
213.59	-150.000
213.97	-30.000
214.34	-233.333
214.72	150.000
215.09	-125.000
215.47	0.000
215.84	42.857
216.22	750.000
216.59	-80.000
216.97	0.000
217.34	-150.000
217.72	-25.000
218.09	-75.000
218.47	-250.000
218.84	0.000
219.22	100.000
219.59	23.529
219.97	35.000
220.34	150.000
220.72	-66.667
221.09	61.538
221.47	-66.667
221.84	-30.000
222.22	-57.143
222.59	0.000
222.97	-25.000
223.34	-40.000
223.72	-1000.000
224.09	-25.000
224.46	-300.000
224.84	-40.000
225.21	-85.714
225.59	-100.000
225.96	-425.000
226.34	11.538
226.71	33.333
227.08	0.000
227.46	0.000
227.83	-175.000
228.21	5.263
228.58	137.500
228.95	500.000
229.33	66.667
229.70	20.000
230.08	47.368
230.45	110.000
230.82	-166.667
231.20	0.000
231.57	8.333
231.95	-9.091
232.32	-72.727
232.69	25.000
233.07	50.000
233.44	-64.706
233.81	-10.000
234.19	-16.667
234.56	22.727
234.93	55.172
235.31	5.263
235.68	-11.111
236.05	-55.000
236.43	65.385
236.80	48.000
237.17	-44.444
237.55	-12.121
237.92	-110.000
238.29	-6.452
238.67	4.545
239.04	11.111
239.41	-4.762
239.79	4.348
240.16	5.556
240.53	2.174
240.91	-23.529
241.28	1.639
241.65	17.910
242.02	2.703
242.40	-7.692
242.77	-4.000
243.14	-4.878
243.51	-10.526
243.89	-2.564
244.26	9.901
244.63	-0.980
245.00	3.738
245.38	-10.526
245.75	-14.159
246.12	-1.587
246.49	-6.977
246.87	2.143
247.24	0.000
247.61	4.605
247.98	-8.725
248.36	-1.235
248.73	-3.681
249.10	1.093
249.47	4.975
249.84	8.377
250.22	-1.036
250.59	2.222
250.96	8.182
251.33	-0.510
251.70	4.274
252.08	2.917
252.45	3.279
252.82	2.479
253.19	-1.172
253.56	2.662
253.94	-1.538
254.31	-1.136
254.68	5.944
255.05	1.629
255.42	0.340
255.79	1.942
256.16	3.311
256.54	2.318
256.91	1.311
257.28	3.279
257.65	-1.592
258.02	-1.475
258.39	0.285
258.76	6.116
259.14	1.149
259.51	1.153
259.88	1.133
260.25	2.500
260.62	4.110
260.99	4.918
261.36	5.362
261.73	1.592
262.10	0.275
262.47	-1.340
262.85	6.566
263.22	2.597
263.59	0.263
263.96	2.046
264.33	1.279
264.70	1.235
265.07	3.103
265.44	6.349
265.81	4.167
266.18	2.721
266.55	4.464
266.92	0.228
267.29	5.908
267.66	0.887
268.03	3.275
268.40	4.384
268.77	1.367
269.14	2.423
269.51	1.535
269.88	4.508
270.25	3.823
270.62	1.688
270.99	4.040
271.36	4.356
271.73	2.554
272.10	2.405
272.47	2.605
272.84	3.414
273.21	3.808
273.58	3.226
273.95	2.115
274.32	1.521
274.69	0.000
275.06	3.663
275.43	1.479
275.80	4.586
276.17	3.148
276.54	2.612
276.91	3.220
277.28	3.255
277.65	3.052
278.02	4.228
278.39	2.355
278.76	2.285
279.13	2.482
279.50	4.124
279.87	4.114
280.23	1.408
280.60	2.034
280.97	3.289
281.34	1.019
281.71	4.230
282.08	3.987
282.45	2.455
282.82	2.983
283.19	0.485
283.56	2.131
283.92	4.655
284.29	6.477
284.66	3.612
285.03	1.763
285.40	2.628
285.77	2.322
286.14	2.748
286.51	3.196
286.87	2.054
287.24	3.313
287.61	2.541
287.98	0.604
288.35	3.994
288.72	3.550
289.08	3.221
289.45	1.183
289.82	1.958
290.19	3.879
290.56	3.239
290.93	2.710
291.29	2.617
291.66	2.617
292.03	2.578
292.40	4.082
292.77	2.561
293.13	2.842
293.50	1.577
293.87	2.819
294.24	4.533
294.60	4.804
294.97	2.819
295.34	3.713
295.71	4.035
296.08	2.067
296.44	2.696
296.81	3.410
297.18	2.864
297.55	2.594
297.91	2.135
298.28	2.014
298.65	3.924
299.02	3.660
299.38	2.403
299.75	2.687
300.12	1.736
300.48	3.226
300.85	2.700
301.22	3.579
301.59	2.511
301.95	3.503
302.32	3.889
302.69	3.614
303.05	4.353
303.42	3.215
303.79	3.750
304.15	3.049
304.52	2.748
304.89	2.618
305.25	3.727
305.62	2.821
305.99	3.814
306.35	3.629
306.72	4.860
307.09	2.944
307.45	3.830
307.82	4.440
308.19	4.238
308.55	4.822
308.92	4.771
309.29	5.172
309.65	3.606
310.02	4.158
310.38	4.429
310.75	5.049
311.12	6.807
311.48	5.474
311.85	5.603
312.22	5.693
312.58	5.822
312.95	6.597
313.31	7.046
313.68	8.150
314.05	8.491
314.41	8.470
314.78	7.629
315.14	8.439
315.51	7.941
315.87	9.451
316.24	9.589
316.61	11.368
316.97	10.317
317.34	11.023
317.70	10.742
318.07	12.169
318.43	11.905
318.80	13.043
319.16	12.961
319.53	12.082
319.89	12.971
320.26	14.057
320.62	14.362
320.99	15.605
321.35	16.266
321.72	17.209
322.08	17.764
322.45	18.699
322.81	19.043
323.18	18.673
323.54	19.828
323.91	21.441
324.27	22.461
324.64	23.342
325.00	22.305
325.37	24.898
325.73	25.289
326.10	26.521
326.46	27.850
326.83	27.942
327.19	27.559
327.56	28.775
327.92	29.032
328.29	29.435
328.65	29.816
329.01	31.641
329.38	30.918
329.74	31.678
330.11	33.048
330.47	32.603
330.84	33.075
331.20	34.667
331.56	34.749
331.93	34.142
332.29	34.661
332.66	33.970
333.02	34.590
333.38	34.732
333.75	35.101
334.11	37.114
334.48	34.983
334.84	35.854
335.20	35.600
335.57	35.750
335.93	36.364
336.29	36.439
336.66	37.258
337.02	36.037
337.38	37.500
337.75	36.612
338.11	36.838
338.47	36.476
338.84	37.817
339.20	36.563
339.56	36.573
339.93	36.535
340.29	36.634
340.65	37.226
341.02	37.191
341.38	37.591
341.74	37.853
342.11	37.892
342.47	37.411
342.83	38.486
343.20	37.449
343.56	38.893
343.92	38.431
344.28	38.984
344.65	38.605
345.01	38.768
345.37	37.170
345.73	37.724
346.10	37.832
346.46	37.184
346.82	39.326
347.19	37.968
347.55	39.074
347.91	39.450
348.27	38.240
348.63	38.157
349.00	38.702
349.36	38.587
349.72	37.946
350.08	39.004
350.45	38.403
350.81	39.970
351.17	39.549
351.53	40.106
351.89	40.015
352.26	39.478
352.62	39.552
352.98	40.763
353.34	39.731
353.70	41.834
354.07	40.313
354.43	40.699
354.79	39.491
355.15	39.367
355.51	40.278
355.87	41.660
356.24	40.152
356.60	39.911
356.96	40.178
357.32	40.669
357.68	39.971
358.04	40.494
358.40	41.716
358.77	40.497
359.13	40.177
359.49	41.636
359.85	40.682
360.21	41.105
360.57	41.709
360.93	40.903
361.29	42.737
361.66	42.361
362.02	42.658
362.38	42.375
362.74	41.969
363.10	42.641
363.46	42.659
363.82	43.040
364.18	43.490
364.54	42.393
364.90	43.813
365.26	43.448
365.62	44.267
365.98	44.656
366.35	43.221
366.71	43.673
367.07	43.708
367.43	42.613
367.79	45.123
368.15	45.284
368.51	43.978
368.87	44.285
369.23	44.133
369.59	45.014
369.95	45.368
370.31	45.510
370.67	44.429
371.03	45.014
371.39	44.124
371.75	45.461
372.11	45.935
372.47	46.310
372.83	46.335
373.19	44.830
373.55	46.612
373.91	45.126
374.27	45.343
374.63	46.076
374.99	45.756
375.35	46.623
375.71	46.581
376.07	46.611
376.42	46.159
376.78	45.308
377.14	46.725
377.50	47.818
377.86	46.182
378.22	46.946
378.58	46.908
378.94	45.951
379.30	47.276
379.66	47.208
380.02	46.913
380.38	47.350
380.74	47.437
381.09	48.548
381.45	46.761
381.81	48.653
382.17	48.337
382.53	47.193
382.89	46.332
383.25	48.535
383.61	48.148
383.97	47.409
384.32	49.761
384.68	46.752
385.04	47.947
385.40	49.146
385.76	48.886
386.12	48.833
386.48	47.941
386.83	49.940
387.19	47.972
387.55	47.594
387.91	48.459
388.27	50.173
388.62	48.225
388.98	47.885
389.34	49.381
389.70	49.274
390.06	48.194
390.42	48.193
390.77	49.127
391.13	49.472
391.49	48.490
391.85	48.727
392.20	48.577
392.56	48.730
392.92	47.874
393.28	48.148
393.64	47.765
393.99	49.680
394.35	49.357
394.71	49.820
395.07	47.964
395.42	48.658
395.78	49.360
396.14	48.901
396.50	47.743
396.85	48.241
397.21	48.639
397.57	48.763
397.92	48.339
398.28	46.551
398.64	48.856
399.00	46.859
399.35	48.901
399.71	48.043
400.07	47.951
400.42	48.661
400.78	48.322
401.14	47.069
401.49	47.811
401.85	48.140
402.21	48.204
402.57	48.592
402.92	47.577
403.28	47.892
403.63	48.687
403.99	46.021
404.35	47.072
404.70	47.082
405.06	46.793
405.42	47.014
405.77	47.437
406.13	47.488
406.49	47.410
406.84	46.759
407.20	46.562
407.55	46.033
407.91	47.580
408.27	45.642
408.62	47.120
408.98	47.475
409.34	46.217
409.69	47.466
410.05	47.831
410.40	46.752
410.76	46.158
411.11	46.698
411.47	46.622
411.83	46.737
412.18	47.651
412.54	45.050
412.89	45.809
413.25	46.219
413.60	45.893
413.96	46.620
414.31	45.609
414.67	46.094
415.03	46.523
415.38	47.667
415.74	45.693
416.09	46.453
416.45	45.523
416.80	44.920
417.16	47.190
417.51	46.700
417.87	47.456
418.22	45.928
418.58	46.406
418.93	46.857
419.29	47.164
419.64	46.639
420.00	46.231
420.35	46.771
420.71	45.951
421.06	46.003
421.42	47.248
421.77	45.611
422.12	46.195
422.48	46.544
422.83	46.112
423.19	47.056
423.54	48.064
423.90	46.880
424.25	48.587
424.61	47.359
424.96	47.556
425.31	47.983
425.67	46.377
426.02	47.482
426.38	47.646
426.73	46.317
427.09	48.501
427.44	47.788
427.79	46.766
428.15	47.317
428.50	47.865
428.85	48.220
429.21	48.085
429.56	48.124
429.92	47.617
430.27	47.566
430.62	48.950
430.98	48.106
431.33	47.067
431.68	47.462
432.04	48.197
432.39	47.938
432.74	48.801
433.10	49.378
433.45	47.715
433.80	47.586
434.16	48.709
434.51	48.921
434.86	49.783
435.22	49.947
435.57	50.059
435.92	48.358
436.28	49.147
436.63	48.990
436.98	48.631
437.34	48.929
437.69	49.202
438.04	48.757
438.39	49.454
438.75	47.869
439.10	48.837
439.45	48.798
439.81	49.153
440.16	48.418
440.51	48.941
440.86	47.749
441.22	49.732
441.57	50.734
441.92	48.400
442.27	49.596
442.63	48.038
442.98	47.866
443.33	49.132
443.68	49.504
444.03	49.812
444.39	49.561
444.74	49.668
445.09	49.012
445.44	50.053
445.79	50.144
446.15	48.921
446.50	48.889
446.85	49.757
447.20	49.855
447.55	50.994
447.91	49.162
448.26	49.313
448.61	49.256
448.96	49.946
449.31	49.576
449.66	49.074
450.02	49.051
450.37	48.748
450.72	49.623
451.07	49.317
451.42	48.873
451.77	49.361
452.12	49.718
452.47	50.267
452.83	50.563
453.18	48.219
453.53	50.201
453.88	50.083
454.23	49.209
454.58	50.029
454.93	49.029
455.28	49.007
455.63	49.460
455.98	48.883
456.34	50.530
456.69	49.324
457.04	48.877
457.39	49.002
457.74	49.832
458.09	48.984
458.44	49.246
458.79	48.582
459.14	47.404
459.49	49.632
459.84	49.475
460.19	48.084
460.54	48.495
460.89	49.127
461.24	48.851
461.59	48.866
461.94	47.690
462.29	48.376
462.64	48.944
462.99	48.776
463.34	48.864
463.69	48.593
464.04	48.694
464.39	47.197
464.74	48.347
465.09	48.501
465.44	48.820
465.79	48.281
466.14	47.316
466.49	48.053
466.84	48.044
467.19	47.514
467.54	46.475
467.89	46.897
468.24	47.590
468.59	47.250
468.94	46.795
469.29	46.551
469.64	47.171
469.99	47.992
470.34	47.153
470.68	48.667
471.03	48.919
471.38	47.286
471.73	46.944
472.08	47.589
472.43	47.140
472.78	47.796
473.13	46.903
473.48	48.218
473.83	47.475
474.17	46.600
474.52	47.986
474.87	46.622
475.22	47.155
475.57	46.314
475.92	46.989
476.27	46.379
476.61	46.002
476.96	46.820
477.31	46.634
477.66	47.587
478.01	46.365
478.36	45.862
478.70	47.389
479.05	46.933
479.40	46.989
479.75	46.061
480.10	46.376
480.45	45.943
480.79	46.395
481.14	45.772
481.49	45.252
481.84	45.170
482.19	45.419
482.53	46.305
482.88	46.389
483.23	46.287
483.58	45.109
483.92	44.415
484.27	44.962
484.62	44.472
484.97	45.918
485.31	44.280
485.66	43.181
486.01	42.992
486.36	43.916
486.70	44.942
487.05	44.770
487.40	44.114
487.75	44.173
488.09	43.646
488.44	43.896
488.79	43.642
489.13	43.736
489.48	43.456
489.83	43.702
490.17	43.742
490.52	43.144
490.87	44.205
491.22	44.497
491.56	44.369
491.91	44.396
492.26	43.877
492.60	43.507
492.95	43.659
493.30	43.523
493.64	43.495
493.99	44.211
494.34	43.162
494.68	43.169
495.03	43.921
495.37	43.098
495.72	43.311
496.07	43.120
496.41	43.329
496.76	42.994
497.11	43.185
497.45	43.289
497.80	42.825
498.14	43.311
498.49	42.923
498.84	42.962
499.18	42.330
499.53	41.973
499.87	42.901
500.22	41.897
500.56	42.420
500.91	42.883
501.26	43.682
501.60	41.361
501.95	41.858
502.29	42.738
502.64	42.851
502.98	41.458
503.33	41.857
503.67	41.867
504.02	41.725
504.36	41.957
504.71	41.617
505.06	41.428
505.40	41.408
505.75	41.530
506.09	42.127
506.44	41.922
506.78	41.972
507.13	41.402
507.47	42.160
507.82	41.856
508.16	41.348
508.51	40.553
508.85	41.096
509.19	40.455
509.54	42.075
509.88	41.185
510.23	40.845
510.57	41.953
510.92	40.832
511.26	40.356
511.61	39.353
511.95	40.264
512.30	39.882
512.64	38.781
512.98	40.570
513.33	40.373
513.67	40.439
514.02	40.112
514.36	40.870
514.70	40.833
515.05	40.876
515.39	40.210
515.74	39.926
516.08	40.042
516.42	40.293
516.77	39.485
517.11	39.299
517.46	39.343
517.80	40.299
518.14	40.370
518.49	39.371
518.83	38.584
519.17	38.988
519.52	39.203
519.86	38.543
520.20	39.297
520.55	39.321
520.89	39.133
521.23	38.358
521.58	39.209
521.92	39.037
522.26	38.488
522.61	39.468
522.95	38.581
523.29	38.678
523.64	37.724
523.98	38.049
524.32	40.057
524.66	39.385
525.01	38.165
525.35	37.163
525.69	38.341
526.04	38.576
526.38	37.644
526.72	37.659
527.06	38.651
527.41	37.551
527.75	38.064
528.09	37.662
528.43	36.649
528.78	36.069
529.12	38.131
529.46	36.818
529.80	36.613
530.15	37.275
530.49	37.248
530.83	37.485
531.17	36.918
531.51	36.703
531.86	36.959
532.20	36.524
532.54	36.026
532.88	35.455
533.22	37.655
533.57	35.661
533.91	36.756
534.25	35.670
534.59	35.920
534.93	36.050
535.27	36.056
535.62	36.555
535.96	36.549
536.30	35.488
536.64	36.096
536.98	35.055
537.32	35.247
537.66	34.997
538.01	34.381
538.35	34.836
538.69	35.938
539.03	34.825
539.37	34.629
539.71	34.535
540.05	34.772
540.39	34.841
540.73	33.758
541.07	34.396
541.42	33.904
541.76	33.333
542.10	34.741
542.44	34.470
542.78	34.002
543.12	34.327
543.46	33.822
543.80	33.753
544.14	32.615
544.48	33.274
544.82	34.829
545.16	33.453
545.50	33.853
545.84	34.048
546.18	34.259
546.52	33.885
546.86	34.403
547.20	34.033
547.54	32.085
547.88	32.851
548.22	32.982
548.56	32.300
548.90	31.940
549.24	33.070
549.58	32.744
549.92	31.696
550.26	34.369
550.60	32.291
550.94	32.665
551.28	32.013
551.62	32.480
551.96	31.521
552.30	32.569
552.64	32.856
552.98	32.439
553.32	32.733
553.66	31.576
554.00	32.282
554.34	32.368
554.68	32.537
555.02	31.735
555.36	32.544
555.69	30.814
556.03	31.084
556.37	30.788
556.71	32.657
557.05	31.565
557.39	30.657
557.73	31.770
558.07	30.795
558.41	31.296
558.75	30.561
559.08	32.498
559.42	31.001
559.76	30.529
560.10	29.538
560.44	31.135
560.78	31.188
561.12	29.988
561.45	30.779
561.79	30.708
562.13	30.253
562.47	29.408
562.81	30.380
563.15	30.492
563.48	30.143
563.82	29.807
564.16	29.558
564.50	29.261
564.84	28.142
565.17	30.176
565.51	27.963
565.85	28.979
566.19	28.744
566.52	29.257
566.86	30.108
567.20	28.222
567.54	28.837
567.88	28.593
568.21	28.458
568.55	29.736
568.89	29.051
569.23	28.602
569.56	29.074
569.90	28.439
570.24	27.386
570.57	27.518
570.91	26.975
571.25	27.191
571.59	28.277
571.92	27.079
572.26	26.681
572.60	26.399
572.93	26.412
573.27	27.058
573.61	26.548
573.95	26.463
574.28	26.256
574.62	26.057
574.96	25.629
575.29	25.402
575.63	25.826
575.97	26.228
576.30	25.339
576.64	25.245
576.98	25.535
577.31	25.734
577.65	25.898
577.98	25.678
578.32	25.097
578.66	25.481
578.99	25.394
579.33	25.522
579.67	25.113
580.00	25.332
580.34	25.589
580.67	24.846
581.01	24.427
581.35	25.112
581.68	24.720
582.02	24.707
582.35	25.304
582.69	25.214
583.02	24.930
583.36	25.365
583.70	24.563
584.03	25.198
584.37	24.759
584.70	24.523
585.04	24.413
585.37	24.194
585.71	24.272
586.04	24.306
586.38	24.954
586.72	24.868
587.05	24.456
587.39	24.931
587.72	24.856
588.06	24.589
588.39	24.172
588.73	23.942
589.06	24.915
589.40	24.585
589.73	24.068
590.07	24.635
590.40	24.442
590.73	24.214
591.07	24.497
591.40	23.872
591.74	23.847
592.07	24.482
592.41	24.606
592.74	23.926
593.08	24.076
593.41	24.468
593.75	24.052
594.08	24.265
594.41	23.814
594.75	23.879
595.08	23.217
595.42	24.513
595.75	23.507
596.09	23.314
596.42	24.364
596.75	24.006
597.09	24.000
597.42	23.401
597.75	22.854
598.09	23.770
598.42	23.522
598.76	22.965
599.09	23.354
599.42	22.394
599.76	22.483
600.09	23.223
600.42	22.723
600.76	22.853
601.09	22.768
601.42	22.829
601.76	22.552
602.09	22.802
602.42	22.283
602.76	22.472
603.09	23.128
603.42	22.616
603.76	22.375
604.09	22.889
604.42	22.385
604.76	22.032
605.09	23.095
605.42	22.368
605.75	22.462
606.09	22.546
606.42	22.109
606.75	21.477
607.09	21.352
607.42	21.811
607.75	21.962
608.08	21.389
608.42	21.886
608.75	22.098
609.08	21.647
609.41	22.453
609.75	21.071
610.08	22.383
610.41	21.963
610.74	21.555
611.07	22.025
611.41	22.377
611.74	23.187
612.07	22.160
612.40	22.148
612.73	21.760
613.07	21.320
613.40	22.040
613.73	21.521
614.06	22.718
614.39	21.429
614.72	20.670
615.06	20.452
615.39	21.460
615.72	21.232
616.05	20.544
616.38	21.948
616.71	21.055
617.05	20.288
617.38	21.562
617.71	21.166
618.04	21.749
618.37	21.803
618.70	21.606
619.03	21.266
619.36	20.962
619.69	20.948
620.03	20.967
620.36	21.104
620.69	21.345
621.02	21.654
621.35	21.190
621.68	20.897
622.01	20.996
622.34	20.572
622.67	20.412
623.00	20.715
623.33	20.106
623.66	22.049
623.99	20.145
624.32	20.988
624.65	20.785
624.99	21.066
625.32	21.228
625.65	21.106
625.98	20.271
626.31	21.262
626.64	19.927
626.97	20.855
627.30	20.349
627.63	21.380
627.96	21.772
628.29	20.311
628.62	19.312
628.95	21.472
629.28	19.626
629.61	21.044
629.94	19.833
630.26	20.169
630.59	21.762
630.92	21.126
631.25	22.898
631.58	19.774
631.91	20.431
632.24	21.230
632.57	20.683
632.90	20.863
633.23	21.224
633.56	22.041
633.89	19.628
634.22	21.830
634.55	21.190
634.88	21.861
635.20	21.313
635.53	20.452
635.86	20.910
636.19	20.361
636.52	20.675
636.85	18.693
637.18	20.166
637.51	21.398
637.83	20.155
