SpectraSuite Data File
++++++++++++++++++++++++++++++++++++
Date: Thu May 14 16:07:25 PDT 2015
User: schluterlab
Dark Spectrum Present: Yes
Reference Spectrum Present: Yes
Number of Sampled Component Spectra: 1
Spectrometers: USB2E3373
Integration Time (usec): 3000 (USB2E3373)
Spectra Averaged: 3 (USB2E3373)
Boxcar Smoothing: 0 (USB2E3373)
Correct for Electrical Dark: No (USB2E3373)
Strobe/Lamp Enabled: No (USB2E3373)
Correct for Detector Non-linearity: No (USB2E3373)
Correct for Stray Light: No (USB2E3373)
Number of Pixels in Processed Spectrum: 2048
>>>>>Begin Processed Spectral Data<<<<<
178.53	0.000
178.91	285.714
179.29	-1800.000
179.67	-1700.000
180.04	200.000
180.42	160.000
180.80	260.000
181.18	-1400.000
181.56	-1400.000
181.94	350.000
182.31	-300.000
182.69	466.667
183.07	-600.000
183.45	400.000
183.83	-200.000
184.20	-266.667
184.58	1400.000
184.96	-525.000
185.34	-166.667
185.72	-140.000
186.09	244.444
186.47	1200.000
186.85	300.000
187.23	-155.556
187.61	-1700.000
187.98	300.000
188.36	375.000
188.74	-275.000
189.12	-233.333
189.49	-18.750
189.87	-237.500
190.25	-88.889
190.63	-300.000
191.00	-144.444
191.38	0.000
191.76	-525.000
192.14	50.000
192.51	950.000
192.89	-50.000
193.27	0.000
193.65	-171.429
194.02	-2100.000
194.40	-185.714
194.78	171.429
195.15	0.000
195.53	-145.455
195.91	0.000
196.29	-225.000
196.66	-161.538
197.04	-2900.000
197.42	-185.714
197.79	-650.000
198.17	-62.500
198.55	-271.429
198.92	-166.667
199.30	-175.000
199.68	-18.182
200.05	21.429
200.43	-650.000
200.81	157.143
201.18	0.000
201.56	211.111
201.94	0.000
202.31	900.000
202.69	-133.333
203.07	900.000
203.44	-88.889
203.82	-350.000
204.19	-100.000
204.57	-316.667
204.95	-212.500
205.32	-1200.000
205.70	400.000
206.08	-300.000
206.45	-183.333
206.83	440.000
207.20	-166.667
207.58	-540.000
207.96	-266.667
208.33	-100.000
208.71	125.000
209.08	-116.667
209.46	0.000
209.84	283.333
210.21	900.000
210.59	150.000
210.96	666.667
211.34	-175.000
211.71	-162.500
212.09	-1100.000
212.46	0.000
212.84	1050.000
213.22	-600.000
213.59	-200.000
213.97	-80.000
214.34	-566.667
214.72	400.000
215.09	-275.000
215.47	0.000
215.84	285.714
216.22	1050.000
216.59	-320.000
216.97	-340.000
217.34	-350.000
217.72	-137.500
218.09	-525.000
218.47	-675.000
218.84	0.000
219.22	240.000
219.59	-47.059
219.97	-60.000
220.34	1100.000
220.72	-122.222
221.09	-38.462
221.47	-466.667
221.84	-130.000
222.22	-314.286
222.59	0.000
222.97	-87.500
223.34	-380.000
223.72	-1200.000
224.09	-375.000
224.46	-275.000
224.84	-160.000
225.21	-142.857
225.59	-450.000
225.96	-300.000
226.34	-15.385
226.71	283.333
227.08	-950.000
227.46	-100.000
227.83	-450.000
228.21	-52.632
228.58	250.000
228.95	850.000
229.33	0.000
229.70	-40.000
230.08	68.421
230.45	170.000
230.82	-300.000
231.20	-14.286
231.57	-50.000
231.95	-45.455
232.32	-90.909
232.69	-15.000
233.07	-100.000
233.44	-41.176
233.81	-150.000
234.19	16.667
234.56	-13.636
234.93	-13.793
235.31	-36.842
235.68	-27.778
236.05	-55.000
236.43	7.692
236.80	60.000
237.17	-14.815
237.55	-12.121
237.92	10.000
238.29	-25.806
238.67	22.727
239.04	16.667
239.41	33.333
239.79	32.609
240.16	16.667
240.53	13.043
240.91	0.000
241.28	18.033
241.65	40.299
242.02	32.432
242.40	33.846
242.77	22.667
243.14	31.707
243.51	28.947
243.89	32.051
244.26	37.624
244.63	42.157
245.00	28.037
245.38	38.596
245.75	24.779
246.12	38.889
246.49	39.535
246.87	40.714
247.24	42.384
247.61	40.132
247.98	38.926
248.36	45.062
248.73	44.172
249.10	41.530
249.47	45.274
249.84	50.262
250.22	47.150
250.59	45.556
250.96	45.909
251.33	45.408
251.70	44.017
252.08	45.833
252.45	43.852
252.82	43.388
253.19	45.703
253.56	45.627
253.94	44.615
254.31	50.000
254.68	51.748
255.05	51.140
255.42	44.558
255.79	43.366
256.16	45.695
256.54	43.709
256.91	48.852
257.28	45.246
257.65	46.178
258.02	45.723
258.39	46.439
258.76	46.789
259.14	50.862
259.51	46.974
259.88	47.875
260.25	45.556
260.62	48.767
260.99	46.995
261.36	49.598
261.73	51.989
262.10	51.374
262.47	49.866
262.85	48.485
263.22	46.494
263.59	46.053
263.96	49.872
264.33	47.059
264.70	48.148
265.07	50.597
265.44	45.805
265.81	49.769
266.18	48.980
266.55	49.107
266.92	48.975
267.29	49.891
267.66	50.554
268.03	49.782
268.40	44.468
268.77	47.153
269.14	48.018
269.51	48.465
269.88	50.615
270.25	46.278
270.62	49.156
270.99	50.505
271.36	49.109
271.73	47.544
272.10	50.301
272.47	50.501
272.84	47.390
273.21	48.297
273.58	46.169
273.95	45.385
274.32	44.677
274.69	45.261
275.06	45.971
275.43	47.874
275.80	46.208
276.17	46.667
276.54	48.694
276.91	47.585
277.28	47.378
277.65	46.320
278.02	46.507
278.39	45.109
278.76	45.518
279.13	47.163
279.50	46.392
279.87	45.975
280.23	42.958
280.60	46.949
280.97	46.546
281.34	47.538
281.71	48.393
282.08	43.688
282.45	44.190
282.82	44.113
283.19	43.619
283.56	42.787
283.92	45.045
284.29	44.234
284.66	45.649
285.03	40.705
285.40	45.904
285.77	45.201
286.14	45.649
286.51	44.292
286.87	42.654
287.24	44.127
287.61	44.096
287.98	42.598
288.35	45.266
288.72	42.456
289.08	42.606
289.45	41.864
289.82	40.964
290.19	41.092
290.56	42.676
290.93	41.940
291.29	41.873
291.66	39.532
292.03	38.399
292.40	39.456
292.77	39.353
293.13	39.242
293.50	38.765
293.87	38.658
294.24	37.867
294.60	37.421
294.97	36.913
295.34	37.516
295.71	36.570
296.08	36.693
296.44	35.784
296.81	34.470
297.18	35.367
297.55	36.203
297.91	37.248
298.28	34.360
298.65	34.364
299.02	34.593
299.38	34.325
299.75	34.463
300.12	33.449
300.48	35.138
300.85	33.633
301.22	35.794
301.59	34.132
301.95	34.350
302.32	33.778
302.69	32.640
303.05	33.406
303.42	33.259
303.79	33.229
304.15	33.754
304.52	32.770
304.89	34.031
305.25	33.023
305.62	31.452
305.99	33.196
306.35	32.560
306.72	32.058
307.09	31.777
307.45	32.816
307.82	32.089
308.19	32.694
308.55	31.919
308.92	31.743
309.29	31.992
309.65	31.676
310.02	31.980
310.38	31.398
310.75	31.359
311.12	32.982
311.48	31.769
311.85	31.529
312.22	31.689
312.58	30.704
312.95	30.784
313.31	31.527
313.68	30.769
314.05	30.352
314.41	31.512
314.78	30.881
315.14	30.944
315.51	31.302
315.87	32.223
316.24	30.776
316.61	31.528
316.97	30.317
317.34	31.481
317.70	32.751
318.07	30.864
318.43	30.527
318.80	32.441
319.16	31.502
319.53	30.334
319.89	30.500
320.26	31.139
320.62	29.699
320.99	30.286
321.35	29.852
321.72	31.907
322.08	29.757
322.45	30.804
322.81	31.047
323.18	30.000
323.54	30.431
323.91	31.584
324.27	30.379
324.64	31.990
325.00	28.690
325.37	31.122
325.73	30.909
326.10	30.495
326.46	30.700
326.83	30.825
327.19	30.945
327.56	31.621
327.92	30.291
328.29	29.032
328.65	29.146
329.01	30.541
329.38	31.929
329.74	31.336
330.11	31.421
330.47	29.739
330.84	29.716
331.20	30.083
331.56	29.029
331.93	31.213
332.29	29.407
332.66	30.482
333.02	30.486
333.38	29.446
333.75	30.892
334.11	30.192
334.48	29.703
334.84	30.501
335.20	30.479
335.57	29.174
335.93	28.595
336.29	28.369
336.66	30.362
337.02	29.097
337.38	29.507
337.75	29.174
338.11	30.025
338.47	28.371
338.84	28.934
339.20	28.138
339.56	27.924
339.93	28.489
340.29	28.583
340.65	27.332
341.02	28.970
341.38	29.426
341.74	28.410
342.11	28.399
342.47	27.641
342.83	29.066
343.20	28.373
343.56	28.869
343.92	27.702
344.28	29.141
344.65	28.295
345.01	28.393
345.37	28.694
345.73	27.436
346.10	29.329
346.46	28.481
346.82	28.764
347.19	27.349
347.55	28.983
347.91	28.678
348.27	26.707
348.63	27.723
349.00	27.293
349.36	27.955
349.72	27.604
350.08	28.009
350.45	27.529
350.81	28.281
351.17	28.346
351.53	28.355
351.89	28.778
352.26	26.866
352.62	27.537
352.98	28.092
353.34	27.334
353.70	28.120
354.07	27.422
354.43	27.031
354.79	27.150
355.15	26.343
355.51	27.778
355.87	27.898
356.24	27.300
356.60	26.534
356.96	26.686
357.32	25.130
357.68	26.720
358.04	26.871
358.40	26.791
358.77	27.266
359.13	27.622
359.49	26.394
359.85	26.904
360.21	27.116
360.57	26.059
360.93	26.798
361.29	27.579
361.66	26.213
362.02	26.374
362.38	26.142
362.74	25.838
363.10	26.823
363.46	25.970
363.82	25.568
364.18	26.742
364.54	26.003
364.90	26.154
365.26	26.276
365.62	27.067
365.98	25.868
366.35	24.698
366.71	26.531
367.07	27.131
367.43	26.198
367.79	27.339
368.15	26.555
368.51	25.304
368.87	26.127
369.23	25.667
369.59	25.546
369.95	25.828
370.31	26.199
370.67	25.860
371.03	26.870
371.39	25.386
371.75	25.791
372.11	26.016
372.47	26.540
372.83	25.916
373.19	25.484
373.55	24.932
373.91	24.472
374.27	25.550
374.63	25.034
374.99	24.536
375.35	25.584
375.71	26.258
376.07	25.242
376.42	26.574
376.78	26.103
377.14	25.203
377.50	26.186
377.86	25.862
378.22	25.509
378.58	25.030
378.94	25.293
379.30	25.893
379.66	25.750
380.02	25.505
380.38	26.555
380.74	25.465
381.09	25.203
381.45	25.227
381.81	26.347
382.17	25.238
382.53	24.912
382.89	25.000
383.25	25.381
383.61	25.347
383.97	25.265
384.32	25.299
384.68	24.304
385.04	25.622
385.40	25.044
385.76	25.674
386.12	24.716
386.48	25.412
386.83	25.387
387.19	24.971
387.55	24.178
387.91	24.144
388.27	24.827
388.62	24.971
388.98	24.760
389.34	24.985
389.70	25.683
390.06	24.512
390.42	24.578
390.77	25.346
391.13	25.469
391.49	25.242
391.85	24.909
392.20	24.318
392.56	24.276
392.92	24.646
393.28	23.825
393.64	23.743
393.99	24.346
394.35	25.643
394.71	25.629
395.07	24.192
395.42	24.329
395.78	25.411
396.14	25.371
396.50	24.822
396.85	24.091
397.21	24.024
397.57	24.735
397.92	24.857
398.28	24.172
398.64	24.085
399.00	23.717
399.35	23.979
399.71	24.348
400.07	24.930
400.42	23.981
400.78	25.058
401.14	24.303
401.49	24.673
401.85	24.651
402.21	24.971
402.57	24.413
402.92	24.764
403.28	24.180
403.63	24.284
403.99	24.050
404.35	23.479
404.70	24.136
405.06	24.457
405.42	23.829
405.77	24.373
406.13	23.717
406.49	24.155
406.84	24.543
407.20	24.259
407.55	23.501
407.91	24.387
408.27	24.323
408.62	24.956
408.98	24.144
409.34	24.164
409.69	24.227
410.05	24.912
410.40	24.884
410.76	24.846
411.11	24.313
411.47	25.000
411.83	24.045
412.18	25.723
412.54	24.659
412.89	23.923
413.25	23.758
413.60	24.469
413.96	24.242
414.31	24.136
414.67	24.448
415.03	23.631
415.38	24.968
415.74	24.740
416.09	23.998
416.45	23.669
416.80	23.684
417.16	23.819
417.51	24.284
417.87	23.237
418.22	23.593
418.58	24.226
418.93	24.738
419.29	23.736
419.64	23.950
420.00	24.095
420.35	24.593
420.71	23.722
421.06	24.037
421.42	23.796
421.77	24.179
422.12	23.414
422.48	23.758
422.83	25.630
423.19	24.191
423.54	25.553
423.90	24.241
424.25	24.907
424.61	24.340
424.96	23.998
425.31	23.992
425.67	23.242
426.02	23.686
426.38	24.569
426.73	23.940
427.09	25.087
427.44	23.703
427.79	23.217
428.15	23.174
428.50	23.596
428.85	23.307
429.21	24.309
429.56	23.248
429.92	23.292
430.27	23.759
430.62	23.791
430.98	23.561
431.33	22.727
431.68	23.324
432.04	24.073
432.39	24.478
432.74	23.345
433.10	23.905
433.45	23.356
433.80	24.249
434.16	24.122
434.51	23.587
434.86	24.539
435.22	23.220
435.57	23.644
435.92	24.318
436.28	23.549
436.63	23.921
436.98	24.047
437.34	24.014
437.69	23.280
438.04	23.744
438.39	23.894
438.75	22.745
439.10	24.049
439.45	23.812
439.81	23.446
440.16	22.466
440.51	23.969
440.86	24.236
441.22	23.044
441.57	24.161
441.92	23.569
442.27	24.040
442.63	23.944
442.98	24.120
443.33	24.198
443.68	24.876
444.03	24.788
444.39	24.041
444.74	23.686
445.09	23.720
445.44	24.289
445.79	24.234
446.15	24.203
446.50	24.083
446.85	24.368
447.20	23.936
447.55	24.215
447.91	23.403
448.26	22.939
448.61	23.007
448.96	23.605
449.31	23.807
449.66	23.039
450.02	24.420
450.37	23.921
450.72	23.789
451.07	24.089
451.42	22.704
451.77	23.457
452.12	24.436
452.47	23.529
452.83	24.212
453.18	23.643
453.53	23.665
453.88	23.633
454.23	23.898
454.58	23.970
454.93	23.604
455.28	24.564
455.63	23.536
455.98	23.966
456.34	23.616
456.69	23.574
457.04	23.700
457.39	23.171
457.74	24.888
458.09	22.954
458.44	24.461
458.79	23.569
459.14	23.755
459.49	23.430
459.84	23.452
460.19	22.710
460.54	24.418
460.89	23.557
461.24	24.368
461.59	23.409
461.94	23.503
462.29	23.012
462.64	23.476
462.99	23.101
463.34	23.751
463.69	22.860
464.04	24.402
464.39	23.262
464.74	23.945
465.09	23.991
465.44	23.712
465.79	23.638
466.14	23.710
466.49	24.000
466.84	23.967
467.19	23.179
467.54	23.149
467.89	22.529
468.24	24.044
468.59	21.888
468.94	22.552
469.29	23.395
469.64	23.268
469.99	23.582
470.34	22.587
470.68	23.445
471.03	22.855
471.38	23.283
471.73	22.432
472.08	23.160
472.43	22.878
472.78	23.678
473.13	23.515
473.48	22.538
473.83	23.273
474.17	23.154
474.52	22.971
474.87	23.810
475.22	23.944
475.57	23.105
475.92	22.997
476.27	23.429
476.61	21.755
476.96	22.628
477.31	23.366
477.66	23.033
478.01	23.437
478.36	22.682
478.70	22.020
479.05	24.029
479.40	22.705
479.75	24.063
480.10	23.354
480.45	23.610
480.79	23.220
481.14	22.840
481.49	23.035
481.84	23.586
482.19	23.527
482.53	23.043
482.88	23.172
483.23	23.388
483.58	22.926
483.92	23.227
484.27	22.862
484.62	23.226
484.97	23.484
485.31	23.266
485.66	22.765
486.01	22.161
486.36	23.190
486.70	24.550
487.05	25.753
487.40	25.331
487.75	24.936
488.09	24.317
488.44	24.168
488.79	24.654
489.13	23.642
489.48	22.641
489.83	23.099
490.17	22.924
490.52	22.085
490.87	22.758
491.22	22.704
491.56	22.739
491.91	23.375
492.26	22.544
492.60	22.737
492.95	22.554
493.30	22.994
493.64	22.295
493.99	23.289
494.34	21.603
494.68	22.099
495.03	23.304
495.37	22.548
495.72	22.313
496.07	22.086
496.41	22.608
496.76	22.811
497.11	23.312
497.45	22.572
497.80	23.101
498.14	22.449
498.49	22.564
498.84	22.486
499.18	23.167
499.53	23.722
499.87	22.637
500.22	22.440
500.56	22.942
500.91	22.838
501.26	23.455
501.60	22.095
501.95	22.492
502.29	22.817
502.64	22.781
502.98	22.692
503.33	23.197
503.67	22.067
504.02	22.504
504.36	23.369
504.71	22.554
505.06	22.328
505.40	23.035
505.75	22.177
506.09	22.928
506.44	22.795
506.78	22.982
507.13	23.052
507.47	22.643
507.82	22.538
508.16	22.419
508.51	21.753
508.85	22.721
509.19	22.359
509.54	22.671
509.88	22.147
510.23	22.292
510.57	22.523
510.92	22.593
511.26	22.126
511.61	22.356
511.95	22.792
512.30	22.600
512.64	21.489
512.98	21.911
513.33	22.228
513.67	21.367
514.02	22.024
514.36	22.813
514.70	22.135
515.05	22.002
515.39	22.205
515.74	23.224
516.08	21.764
516.42	22.501
516.77	22.555
517.11	21.661
517.46	22.322
517.80	22.341
518.14	23.613
518.49	22.343
518.83	21.873
519.17	21.540
519.52	21.960
519.86	21.806
520.20	21.991
520.55	22.015
520.89	22.466
521.23	21.608
521.58	22.147
521.92	22.153
522.26	21.363
522.61	21.238
522.95	22.203
523.29	21.379
523.64	21.693
523.98	22.076
524.32	22.350
524.66	21.855
525.01	21.574
525.35	21.022
525.69	21.636
526.04	20.494
526.38	21.494
526.72	21.165
527.06	21.642
527.41	22.099
527.75	21.912
528.09	21.665
528.43	21.314
528.78	21.214
529.12	21.502
529.46	21.979
529.80	21.968
530.15	21.449
530.49	21.590
530.83	21.311
531.17	21.744
531.51	21.300
531.86	22.175
532.20	21.098
532.54	20.886
532.88	22.121
533.22	22.157
533.57	21.696
533.91	21.773
534.25	21.933
534.59	22.069
534.93	22.241
535.27	22.310
535.62	22.626
535.96	22.196
536.30	22.327
536.64	21.922
536.98	23.247
537.32	22.160
537.66	22.084
538.01	20.725
538.35	21.803
538.69	22.115
539.03	21.582
539.37	21.378
539.71	21.982
540.05	22.602
540.39	21.333
540.73	21.251
541.07	21.337
541.42	21.087
541.76	21.649
542.10	21.894
542.44	21.011
542.78	22.506
543.12	21.931
543.46	22.039
543.80	20.923
544.14	21.604
544.48	22.754
544.82	21.843
545.16	22.302
545.50	21.809
545.84	21.923
546.18	22.778
546.52	21.656
546.86	21.950
547.20	21.374
547.54	21.785
547.88	21.640
548.22	21.228
548.56	22.118
548.90	21.134
549.24	22.492
549.58	21.325
549.92	21.429
550.26	22.460
550.60	21.889
550.94	22.251
551.28	22.178
551.62	22.035
551.96	21.424
552.30	21.797
552.64	21.282
552.98	21.959
553.32	22.315
553.66	21.801
554.00	21.816
554.34	20.785
554.68	21.627
555.02	22.536
555.36	22.025
555.69	21.717
556.03	21.690
556.37	22.528
556.71	21.560
557.05	22.364
557.39	21.433
557.73	21.334
558.07	21.722
558.41	21.528
558.75	21.501
559.08	22.269
559.42	21.468
559.76	21.777
560.10	21.299
560.44	21.966
560.78	21.625
561.12	22.660
561.45	22.263
561.79	22.589
562.13	21.935
562.47	21.208
562.81	21.899
563.15	21.465
563.48	21.815
563.82	22.310
564.16	21.018
564.50	21.692
564.84	21.593
565.17	21.588
565.51	22.152
565.85	22.328
566.19	21.371
566.52	22.469
566.86	22.354
567.20	21.479
567.54	21.827
567.88	21.865
568.21	23.024
568.55	22.398
568.89	22.969
569.23	22.898
569.56	22.743
569.90	22.808
570.24	23.845
570.57	23.252
570.91	23.056
571.25	23.113
571.59	23.546
571.92	23.428
572.26	23.716
572.60	23.806
572.93	23.518
573.27	23.630
573.61	23.769
573.95	23.719
574.28	23.429
574.62	24.011
574.96	22.960
575.29	23.133
575.63	23.701
575.97	24.144
576.30	23.711
576.64	23.765
576.98	23.144
577.31	23.850
577.65	23.937
577.98	23.663
578.32	23.221
578.66	23.634
578.99	24.043
579.33	23.966
579.67	23.640
580.00	23.758
580.34	23.582
580.67	23.389
581.01	23.648
581.35	23.125
581.68	23.372
582.02	23.746
582.35	24.301
582.69	23.897
583.02	24.407
583.36	24.173
583.70	24.540
584.03	23.710
584.37	24.093
584.70	23.521
585.04	23.553
585.37	23.243
585.71	23.819
586.04	23.602
586.38	24.164
586.72	23.540
587.05	23.228
587.39	23.311
587.72	24.115
588.06	23.719
588.39	24.247
588.73	23.757
589.06	23.674
589.40	24.093
589.73	23.940
590.07	23.641
590.40	23.732
590.73	23.613
591.07	23.343
591.40	22.784
591.74	22.615
592.07	22.940
592.41	22.871
592.74	22.506
593.08	23.344
593.41	23.535
593.75	23.764
594.08	24.144
594.41	24.295
594.75	23.613
595.08	23.822
595.42	23.604
595.75	23.442
596.09	23.348
596.42	23.361
596.75	23.582
597.09	23.960
597.42	23.043
597.75	22.854
598.09	22.143
598.42	23.321
598.76	23.080
599.09	23.033
599.42	22.528
599.76	23.176
600.09	23.524
600.42	24.091
600.76	22.985
601.09	22.668
601.42	23.035
601.76	23.793
602.09	23.410
602.42	22.755
602.76	23.506
603.09	23.311
603.42	23.302
603.76	22.445
604.09	24.131
604.42	23.560
604.76	22.679
605.09	23.215
605.42	23.086
605.75	22.808
606.09	23.180
606.42	22.437
606.75	22.714
607.09	22.657
607.42	22.582
607.75	23.173
608.08	23.125
608.42	23.458
608.75	22.886
609.08	22.666
609.41	22.938
609.75	22.500
610.08	22.867
610.41	22.770
610.74	22.773
611.07	22.957
611.41	23.184
611.74	22.725
612.07	22.581
612.40	23.051
612.73	21.956
613.07	22.787
613.40	22.425
613.73	22.003
614.06	22.816
614.39	22.255
614.72	23.096
615.06	22.810
615.39	22.040
615.72	22.275
616.05	22.487
616.38	23.158
616.71	22.780
617.05	22.151
617.38	22.846
617.71	22.840
618.04	22.342
618.37	22.623
618.70	23.020
619.03	22.222
619.36	21.702
619.69	22.165
620.03	22.411
620.36	21.227
620.69	22.640
621.02	21.916
621.35	22.859
621.68	21.837
622.01	21.281
622.34	20.990
622.67	21.375
623.00	19.838
623.33	21.898
623.66	22.179
623.99	21.988
624.32	21.832
624.65	22.008
624.99	20.871
625.32	22.208
625.65	21.915
625.98	22.237
626.31	22.962
626.64	22.491
626.97	21.005
627.30	20.349
627.63	20.330
627.96	22.748
628.29	21.401
628.62	20.655
628.95	20.947
629.28	21.325
629.61	20.707
629.94	19.498
630.26	20.593
630.59	20.380
630.92	19.394
631.25	21.199
631.58	20.904
