SpectraSuite Data File
++++++++++++++++++++++++++++++++++++
Date: Thu May 14 16:18:54 PDT 2015
User: schluterlab
Dark Spectrum Present: Yes
Reference Spectrum Present: Yes
Number of Sampled Component Spectra: 1
Spectrometers: USB2E3373
Integration Time (usec): 3000 (USB2E3373)
Spectra Averaged: 3 (USB2E3373)
Boxcar Smoothing: 0 (USB2E3373)
Correct for Electrical Dark: No (USB2E3373)
Strobe/Lamp Enabled: No (USB2E3373)
Correct for Detector Non-linearity: No (USB2E3373)
Correct for Stray Light: No (USB2E3373)
Number of Pixels in Processed Spectrum: 2048
>>>>>Begin Processed Spectral Data<<<<<
178.53	0.000
178.91	42.857
179.29	-900.000
179.67	-400.000
180.04	135.714
180.42	100.000
180.80	120.000
181.18	-800.000
181.56	600.000
181.94	150.000
182.31	-50.000
182.69	266.667
183.07	-250.000
183.45	325.000
183.83	-66.667
184.20	-33.333
184.58	100.000
184.96	-75.000
185.34	-77.778
185.72	80.000
186.09	144.444
186.47	800.000
186.85	-20.000
187.23	-111.111
187.61	-1000.000
187.98	80.000
188.36	225.000
188.74	-75.000
189.12	233.333
189.49	25.000
189.87	-87.500
190.25	-66.667
190.63	-140.000
191.00	-111.111
191.38	0.000
191.76	-300.000
192.14	-83.333
192.51	200.000
192.89	16.667
193.27	0.000
193.65	-114.286
194.02	-1900.000
194.40	28.571
194.78	71.429
195.15	0.000
195.53	-54.545
195.91	0.000
196.29	50.000
196.66	15.385
197.04	-1300.000
197.42	-185.714
197.79	-200.000
198.17	25.000
198.55	-157.143
198.92	33.333
199.30	-87.500
199.68	-9.091
200.05	-21.429
200.43	-550.000
200.81	57.143
201.18	0.000
201.56	122.222
201.94	0.000
202.31	366.667
202.69	11.111
203.07	-200.000
203.44	-55.556
203.82	-175.000
204.19	-91.667
204.57	-16.667
204.95	-50.000
205.32	-200.000
205.70	75.000
206.08	-33.333
206.45	33.333
206.83	400.000
207.20	-66.667
207.58	-220.000
207.96	-116.667
208.33	-66.667
208.71	116.667
209.08	66.667
209.46	0.000
209.84	150.000
210.21	-100.000
210.59	150.000
210.96	166.667
211.34	-100.000
211.71	-62.500
212.09	-500.000
212.46	0.000
212.84	550.000
213.22	-140.000
213.59	-75.000
213.97	-20.000
214.34	-233.333
214.72	116.667
215.09	-175.000
215.47	0.000
215.84	14.286
216.22	450.000
216.59	200.000
216.97	20.000
217.34	100.000
217.72	-12.500
218.09	-175.000
218.47	-300.000
218.84	0.000
219.22	80.000
219.59	-5.882
219.97	5.000
220.34	300.000
220.72	0.000
221.09	15.385
221.47	-66.667
221.84	40.000
222.22	-128.571
222.59	0.000
222.97	12.500
223.34	-140.000
223.72	-600.000
224.09	50.000
224.46	-225.000
224.84	120.000
225.21	-128.571
225.59	-25.000
225.96	-75.000
226.34	15.385
226.71	100.000
227.08	-350.000
227.46	-13.333
227.83	-75.000
228.21	26.316
228.58	25.000
228.95	200.000
229.33	25.000
229.70	20.000
230.08	78.947
230.45	100.000
230.82	200.000
231.20	35.714
231.57	25.000
231.95	-36.364
232.32	27.273
232.69	20.000
233.07	-125.000
233.44	5.882
233.81	-60.000
234.19	16.667
234.56	18.182
234.93	24.138
235.31	-5.263
235.68	16.667
236.05	15.000
236.43	53.846
236.80	60.000
237.17	25.926
237.55	30.303
237.92	-90.000
238.29	12.903
238.67	-4.545
239.04	13.889
239.41	23.810
239.79	19.565
240.16	5.556
240.53	8.696
240.91	9.804
241.28	11.475
241.65	29.851
242.02	27.027
242.40	1.538
242.77	13.333
243.14	10.976
243.51	0.000
243.89	15.385
244.26	31.683
244.63	21.569
245.00	14.953
245.38	23.684
245.75	15.929
246.12	19.048
246.49	25.581
246.87	27.143
247.24	23.841
247.61	24.342
247.98	18.121
248.36	14.815
248.73	22.086
249.10	17.486
249.47	31.343
249.84	32.461
250.22	20.207
250.59	22.222
250.96	30.455
251.33	18.878
251.70	25.641
252.08	19.583
252.45	19.262
252.82	19.008
253.19	19.141
253.56	23.194
253.94	25.769
254.31	21.970
254.68	26.224
255.05	24.756
255.42	25.850
255.79	20.065
256.16	22.517
256.54	19.205
256.91	23.279
257.28	21.311
257.65	18.471
258.02	21.534
258.39	20.798
258.76	25.688
259.14	29.023
259.51	23.919
259.88	22.663
260.25	21.667
260.62	25.205
260.99	23.497
261.36	20.375
261.73	20.690
262.10	21.978
262.47	23.861
262.85	23.485
263.22	22.338
263.59	21.579
263.96	22.762
264.33	20.205
264.70	26.420
265.07	27.685
265.44	24.717
265.81	23.148
266.18	21.542
266.55	21.875
266.92	22.551
267.29	25.164
267.66	24.834
268.03	24.672
268.40	22.965
268.77	22.551
269.14	20.705
269.51	22.588
269.88	21.926
270.25	21.529
270.62	24.051
270.99	24.848
271.36	24.752
271.73	24.361
272.10	25.852
272.47	23.848
272.84	21.888
273.21	24.248
273.58	21.371
273.95	21.154
274.32	22.624
274.69	21.470
275.06	22.894
275.43	19.778
275.80	23.457
276.17	22.037
276.54	23.507
276.91	22.898
277.28	22.966
277.65	22.262
278.02	23.897
278.39	24.457
278.76	23.023
279.13	23.759
279.50	24.399
279.87	22.004
280.23	20.423
280.60	23.220
280.97	23.520
281.34	22.750
281.71	22.843
282.08	20.598
282.45	21.440
282.82	22.763
283.19	21.971
283.56	20.328
283.92	23.423
284.29	24.013
284.66	22.660
285.03	19.872
285.40	22.720
285.77	22.601
286.14	22.901
286.51	21.005
286.87	20.221
287.24	22.289
287.61	22.720
287.98	19.184
288.35	23.373
288.72	22.929
289.08	21.230
289.45	20.710
289.82	20.181
290.19	22.845
290.56	21.972
290.93	21.826
291.29	20.110
291.66	20.386
292.03	16.554
292.40	21.769
292.77	19.272
293.13	21.110
293.50	18.660
293.87	18.389
294.24	20.533
294.60	20.354
294.97	19.329
295.34	19.078
295.71	20.050
296.08	18.734
296.44	19.118
296.81	19.976
297.18	19.801
297.55	19.222
297.91	18.743
298.28	18.365
298.65	18.668
299.02	16.647
299.38	18.993
299.75	19.042
300.12	17.593
300.48	18.548
300.85	18.110
301.22	18.121
301.59	17.694
301.95	17.966
302.32	18.889
302.69	16.648
303.05	19.369
303.42	17.517
303.79	17.396
304.15	17.981
304.52	17.019
304.89	17.906
305.25	17.805
305.62	18.182
305.99	17.629
306.35	17.944
306.72	18.821
307.09	16.548
307.45	18.012
307.82	18.668
308.19	18.668
308.55	17.068
308.92	19.182
309.29	18.487
309.65	16.764
310.02	18.119
310.38	18.209
310.75	19.515
311.12	19.463
311.48	17.889
311.85	19.373
312.22	18.596
312.58	19.437
312.95	17.973
313.31	19.603
313.68	19.048
314.05	19.693
314.41	20.310
314.78	19.982
315.14	20.599
315.51	20.406
315.87	20.432
316.24	21.461
316.61	22.114
316.97	21.267
317.34	20.194
317.70	23.057
318.07	22.487
318.43	21.173
318.80	22.241
319.16	22.318
319.53	20.308
319.89	21.998
320.26	23.132
320.62	22.695
320.99	22.807
321.35	23.105
321.72	22.977
322.08	23.535
322.45	23.848
322.81	24.819
323.18	24.956
323.54	25.517
323.91	25.801
324.27	25.129
324.64	25.777
325.00	26.202
325.37	25.389
325.73	27.438
326.10	25.710
326.46	26.384
326.83	26.982
327.19	26.378
327.56	27.589
327.92	26.121
328.29	27.177
328.65	27.387
329.01	28.088
329.38	27.885
329.74	28.253
330.11	27.397
330.47	28.391
330.84	25.926
331.20	28.250
331.56	27.296
331.93	28.787
332.29	28.814
332.66	28.073
333.02	27.219
333.38	26.510
333.75	27.946
334.11	28.190
334.48	28.300
334.84	29.482
335.20	28.296
335.57	27.403
335.93	28.017
336.29	26.789
336.66	27.586
337.02	28.177
337.38	29.082
337.75	27.851
338.11	28.343
338.47	28.867
338.84	28.511
339.20	27.296
339.56	27.100
339.93	28.079
340.29	27.617
340.65	27.818
341.02	28.492
341.38	27.971
341.74	27.441
342.11	27.755
342.47	27.006
342.83	28.502
343.20	29.027
343.56	28.067
343.92	28.263
344.28	27.969
344.65	27.287
345.01	28.003
345.37	28.227
345.73	27.280
346.10	28.783
346.46	28.402
346.82	28.315
347.19	29.106
347.55	27.997
347.91	27.489
348.27	29.059
348.63	29.322
349.00	28.710
349.36	28.104
349.72	28.348
350.08	28.306
350.45	29.125
350.81	28.054
351.17	28.571
351.53	29.189
351.89	29.309
352.26	28.806
352.62	29.104
352.98	27.176
353.34	27.558
353.70	29.738
354.07	28.689
354.43	29.461
354.79	28.646
355.15	27.888
355.51	28.655
355.87	29.394
356.24	28.593
356.60	28.307
356.96	28.984
357.32	28.996
357.68	29.209
358.04	28.443
358.40	29.179
358.77	28.947
359.13	29.616
359.49	28.104
359.85	29.152
360.21	29.627
360.57	28.643
360.93	28.914
361.29	30.105
361.66	30.123
362.02	29.715
362.38	30.148
362.74	30.098
363.10	29.436
363.46	30.194
363.82	29.972
364.18	28.994
364.54	30.152
364.90	30.435
365.26	30.000
365.62	29.933
365.98	30.429
366.35	30.201
366.71	31.293
367.07	28.755
367.43	29.744
367.79	31.121
368.15	30.702
368.51	30.582
368.87	30.438
369.23	30.400
369.59	31.284
369.95	30.088
370.31	31.263
370.67	30.330
371.03	31.233
371.39	29.953
371.75	31.637
372.11	31.707
372.47	31.686
372.83	31.545
373.19	31.354
373.55	31.775
373.91	30.948
374.27	31.759
374.63	31.935
374.99	31.101
375.35	31.818
375.71	31.419
376.07	31.052
376.42	32.116
376.78	32.753
377.14	31.628
377.50	32.891
377.86	32.081
378.22	32.575
378.58	32.342
378.94	31.808
379.30	31.752
379.66	33.745
380.02	32.949
380.38	33.813
380.74	33.127
381.09	33.043
381.45	32.670
381.81	33.958
382.17	33.670
382.53	32.924
382.89	33.465
383.25	33.822
383.61	32.755
383.97	32.862
384.32	33.612
384.68	32.889
385.04	33.835
385.40	34.060
385.76	33.529
386.12	34.351
386.48	33.412
386.83	34.565
387.19	33.430
387.55	33.685
387.91	33.333
388.27	34.642
388.62	33.677
388.98	33.841
389.34	34.001
389.70	34.399
390.06	34.399
390.42	34.518
390.77	34.618
391.13	33.862
391.49	34.541
391.85	34.727
392.20	34.282
392.56	34.613
392.92	34.951
393.28	34.494
393.64	35.307
393.99	35.677
394.35	35.572
394.71	34.551
395.07	34.371
395.42	34.951
395.78	35.649
396.14	35.769
396.50	35.689
396.85	35.480
397.21	34.556
397.57	34.865
397.92	34.250
398.28	34.166
398.64	34.611
399.00	34.764
399.35	34.503
399.71	35.543
400.07	34.587
400.42	35.972
400.78	35.822
401.14	35.060
401.49	36.043
401.85	35.988
402.21	34.936
402.57	35.681
402.92	35.461
403.28	35.304
403.63	35.859
403.99	35.154
404.35	34.565
404.70	35.807
405.06	35.598
405.42	35.187
405.77	36.369
406.13	35.981
406.49	35.755
406.84	35.845
407.20	35.271
407.55	35.675
407.91	35.764
408.27	34.629
408.62	35.893
408.98	34.707
409.34	35.073
409.69	35.970
410.05	35.229
410.40	36.543
410.76	35.558
411.11	35.476
411.47	35.872
411.83	35.626
412.18	36.506
412.54	35.388
412.89	35.215
413.25	35.722
413.60	35.037
413.96	35.140
414.31	34.788
414.67	35.063
415.03	36.369
415.38	36.318
415.74	35.675
416.09	36.582
416.45	35.128
416.80	35.557
417.16	37.101
417.51	35.803
417.87	34.457
418.22	35.449
418.58	36.865
418.93	35.565
419.29	35.820
419.64	34.934
420.00	35.252
420.35	35.654
420.71	35.210
421.06	36.400
421.42	36.296
421.77	36.241
422.12	35.148
422.48	35.484
422.83	36.199
423.19	35.809
423.54	36.947
423.90	35.616
424.25	37.173
424.61	35.706
424.96	35.585
425.31	36.890
425.67	35.749
426.02	36.857
426.38	36.510
426.73	35.993
427.09	37.370
427.44	36.210
427.79	36.650
428.15	35.559
428.50	36.180
428.85	35.075
429.21	36.436
429.56	36.278
429.92	35.971
430.27	36.867
430.62	36.688
430.98	35.858
431.33	36.559
431.68	35.872
432.04	36.110
432.39	37.440
432.74	36.016
433.10	35.857
433.45	35.730
433.80	35.837
434.16	36.777
434.51	36.742
434.86	37.025
435.22	36.876
435.57	37.382
435.92	36.839
436.28	36.803
436.63	37.357
436.98	36.769
437.34	36.753
437.69	37.424
438.04	36.436
438.39	37.220
438.75	36.691
439.10	36.786
439.45	35.830
439.81	37.175
440.16	35.871
440.51	36.232
440.86	36.965
441.22	37.513
441.57	37.317
441.92	37.197
442.27	36.566
442.63	37.059
442.98	37.300
443.33	36.297
443.68	36.720
444.03	37.300
444.39	37.818
444.74	36.192
445.09	36.847
445.44	36.459
445.79	37.069
446.15	37.205
446.50	37.519
446.85	37.257
447.20	36.944
447.55	37.343
447.91	36.806
448.26	37.051
448.61	37.035
448.96	37.983
449.31	37.116
449.66	37.364
450.02	36.762
450.37	37.560
450.72	35.791
451.07	36.617
451.42	35.817
451.77	36.465
452.12	37.528
452.47	37.136
452.83	37.162
453.18	36.602
453.53	36.244
453.88	36.720
454.23	36.271
454.58	35.926
454.93	36.226
455.28	36.665
455.63	36.782
455.98	36.480
456.34	36.455
456.69	36.978
457.04	37.884
457.39	37.029
457.74	37.025
458.09	35.969
458.44	36.584
458.79	35.998
459.14	36.602
459.49	36.786
459.84	37.146
460.19	35.314
460.54	36.797
460.89	37.110
461.24	36.149
461.59	37.465
461.94	34.855
462.29	36.002
462.64	34.943
462.99	36.033
463.34	36.989
463.69	34.994
464.04	36.798
464.39	35.706
464.74	35.519
465.09	36.159
465.44	36.803
465.79	35.537
466.14	35.279
466.49	35.263
466.84	35.096
467.19	35.434
467.54	35.194
467.89	35.862
468.24	36.122
468.59	34.569
468.94	35.256
469.29	34.853
469.64	34.456
469.99	35.309
470.34	36.139
470.68	36.295
471.03	36.018
471.38	34.794
471.73	35.046
472.08	33.947
472.43	35.099
472.78	35.516
473.13	35.335
473.48	35.831
473.83	35.229
474.17	33.998
474.52	36.200
474.87	34.994
475.22	35.775
475.57	34.579
475.92	34.943
476.27	34.132
476.61	34.943
476.96	34.672
477.31	34.208
477.66	36.359
478.01	35.231
478.36	34.546
478.70	34.729
479.05	36.247
479.40	34.452
479.75	34.870
480.10	35.433
480.45	34.594
480.79	35.329
481.14	34.467
481.49	33.667
481.84	35.117
482.19	34.065
482.53	34.412
482.88	34.603
483.23	34.015
483.58	34.716
483.92	33.644
484.27	33.489
484.62	33.911
484.97	33.670
485.31	33.509
485.66	32.433
486.01	32.170
486.36	33.170
486.70	34.281
487.05	34.845
487.40	34.502
487.75	33.944
488.09	34.150
488.44	33.169
488.79	33.997
489.13	34.106
489.48	32.621
489.83	32.716
490.17	32.159
490.52	32.184
490.87	32.953
491.22	33.666
491.56	32.039
491.91	33.362
492.26	32.410
492.60	32.925
492.95	33.392
493.30	32.855
493.64	31.756
493.99	32.325
494.34	32.317
494.68	31.520
495.03	32.159
495.37	32.135
495.72	32.063
496.07	32.559
496.41	31.574
496.76	31.902
497.11	32.442
497.45	31.808
497.80	31.497
498.14	31.247
498.49	32.031
498.84	32.678
499.18	31.939
499.53	31.345
499.87	31.824
500.22	30.410
500.56	31.219
500.91	32.082
501.26	32.227
501.60	31.330
501.95	31.524
502.29	31.505
502.64	32.182
502.98	31.018
503.33	30.583
503.67	31.182
504.02	31.261
504.36	31.591
504.71	31.052
505.06	31.060
505.40	30.210
505.75	30.464
506.09	30.571
506.44	31.291
506.78	31.651
507.13	31.766
507.47	31.075
507.82	31.250
508.16	30.641
508.51	30.192
508.85	30.043
509.19	30.981
509.54	30.980
509.88	30.160
510.23	31.423
510.57	31.126
510.92	30.382
511.26	30.159
511.61	29.841
511.95	30.259
512.30	30.034
512.64	29.485
512.98	29.965
513.33	31.149
513.67	30.852
514.02	30.301
514.36	29.668
514.70	30.990
515.05	29.875
515.39	30.656
515.74	29.745
516.08	29.583
516.42	31.136
516.77	30.336
517.11	29.654
517.46	29.905
517.80	30.091
518.14	31.121
518.49	30.965
518.83	29.058
519.17	28.756
519.52	29.298
519.86	30.412
520.20	30.032
520.55	29.025
520.89	29.505
521.23	28.699
521.58	29.661
521.92	29.575
522.26	29.439
522.61	29.572
522.95	29.354
523.29	30.172
523.64	29.540
523.98	30.063
524.32	29.971
524.66	28.685
525.01	29.219
525.35	29.294
525.69	29.002
526.04	28.932
526.38	28.851
526.72	29.815
527.06	28.915
527.41	28.805
527.75	29.394
528.09	28.926
528.43	29.248
528.78	28.960
529.12	28.498
529.46	28.949
529.80	28.661
530.15	29.391
530.49	28.648
530.83	29.162
531.17	27.897
531.51	28.099
531.86	28.906
532.20	28.841
532.54	28.845
532.88	28.788
533.22	27.696
533.57	28.217
533.91	28.900
534.25	29.056
534.59	28.966
534.93	27.674
535.27	28.225
535.62	28.255
535.96	27.368
536.30	27.438
536.64	28.889
536.98	28.782
537.32	28.580
537.66	27.137
538.01	26.828
538.35	27.101
538.69	27.704
539.03	28.817
539.37	27.739
539.71	27.508
540.05	27.458
540.39	27.384
540.73	27.322
541.07	26.977
541.42	26.639
541.76	26.928
542.10	26.840
542.44	27.284
542.78	27.007
543.12	27.116
543.46	26.496
543.80	27.218
544.14	26.631
544.48	26.773
544.82	26.391
545.16	27.132
545.50	26.183
545.84	26.822
546.18	26.852
546.52	26.306
546.86	27.044
547.20	25.763
547.54	26.529
547.88	25.738
548.22	26.023
548.56	26.507
548.90	26.567
549.24	26.565
549.58	26.435
549.92	26.084
550.26	26.278
550.60	26.548
550.94	25.873
551.28	25.941
551.62	26.482
551.96	25.566
552.30	25.494
552.64	25.576
552.98	26.014
553.32	25.852
553.66	25.852
554.00	26.166
554.34	25.547
554.68	24.919
555.02	25.558
555.36	25.641
555.69	24.343
556.03	25.788
556.37	25.720
556.71	25.174
557.05	25.942
557.39	24.818
557.73	26.288
558.07	24.834
558.41	25.515
558.75	25.625
559.08	25.539
559.42	24.005
559.76	25.034
560.10	24.782
560.44	25.198
560.78	26.000
561.12	24.692
561.45	25.122
561.79	25.275
562.13	24.892
562.47	23.736
562.81	24.937
563.15	24.558
563.48	25.171
563.82	24.788
564.16	24.046
564.50	24.315
564.84	25.487
565.17	25.176
565.51	23.533
565.85	24.584
566.19	24.770
566.52	24.400
566.86	25.297
567.20	23.654
567.54	24.429
567.88	24.924
568.21	24.753
568.55	24.460
568.89	24.330
569.23	24.461
569.56	24.971
569.90	24.804
570.24	24.486
570.57	24.407
570.91	23.821
571.25	24.385
571.59	24.631
571.92	24.120
572.26	24.140
572.60	24.079
572.93	24.269
573.27	24.052
573.61	23.902
573.95	23.574
574.28	23.663
574.62	23.533
574.96	23.114
575.29	23.684
575.63	23.701
575.97	23.880
576.30	23.365
576.64	24.004
576.98	23.986
577.31	23.960
577.65	24.123
577.98	23.400
578.32	23.423
578.66	23.784
578.99	23.244
579.33	23.321
579.67	23.277
580.00	23.241
580.34	23.386
580.67	23.235
581.01	23.540
581.35	23.320
581.68	23.283
582.02	23.176
582.35	23.890
582.69	24.102
583.02	23.883
583.36	23.722
583.70	23.381
584.03	23.374
584.37	23.476
584.70	23.130
585.04	23.134
585.37	22.890
585.71	23.344
586.04	22.875
586.38	23.120
586.72	22.938
587.05	22.947
587.39	22.962
587.72	23.182
588.06	23.162
588.39	23.525
588.73	23.042
589.06	22.771
589.40	23.110
589.73	23.265
590.07	23.143
590.40	23.090
590.73	22.976
591.07	23.269
591.40	22.162
591.74	22.258
592.07	23.021
592.41	22.674
592.74	22.506
593.08	23.025
593.41	22.951
593.75	22.586
594.08	22.751
594.41	22.532
594.75	22.650
595.08	22.207
595.42	22.565
595.75	22.506
596.09	22.060
596.42	22.608
596.75	22.655
597.09	23.232
597.42	22.725
597.75	22.187
598.09	22.460
598.42	23.120
598.76	22.316
599.09	21.716
599.42	22.159
599.76	21.954
600.09	22.456
600.42	22.356
600.76	21.929
601.09	22.270
601.42	21.490
601.76	21.655
602.09	21.909
602.42	21.483
602.76	21.993
603.09	22.210
603.42	21.857
603.76	21.952
604.09	22.640
604.42	22.606
604.76	21.728
605.09	21.739
605.42	22.209
605.75	21.577
606.09	21.874
606.42	21.343
606.75	21.627
607.09	21.083
607.42	21.387
607.75	21.532
608.08	21.942
608.42	20.959
608.75	21.808
609.08	21.477
609.41	21.129
609.75	21.652
610.08	21.900
610.41	21.113
610.74	21.765
611.07	21.403
611.41	21.435
611.74	21.894
612.07	21.599
612.40	20.722
612.73	21.565
613.07	21.467
613.40	21.704
613.73	21.666
614.06	21.639
614.39	21.186
614.72	20.864
615.06	20.837
615.39	21.121
615.72	21.896
616.05	20.641
616.38	21.292
616.71	21.421
617.05	20.980
617.38	21.134
617.71	21.166
618.04	21.263
618.37	21.585
618.70	21.267
619.03	21.983
619.36	20.777
619.69	21.204
620.03	21.343
620.36	20.736
620.69	20.543
621.02	21.063
621.35	21.843
621.68	21.909
622.01	20.000
622.34	20.432
622.67	21.237
623.00	19.366
623.33	20.902
623.66	21.206
623.99	20.671
624.32	21.378
624.65	20.142
624.99	20.871
625.32	20.901
625.65	21.578
625.98	20.000
626.31	20.198
626.64	20.513
626.97	20.480
627.30	19.666
627.63	20.705
627.96	20.796
628.29	20.389
628.62	19.647
628.95	19.369
629.28	20.646
629.61	20.707
629.94	20.084
630.26	20.000
630.59	20.553
630.92	19.481
631.25	20.662
631.58	20.527
631.91	19.306
632.24	19.693
632.57	19.829
632.90	20.361
633.23	19.490
633.56	20.204
633.89	19.215
