SpectraSuite Data File
++++++++++++++++++++++++++++++++++++
Date: Thu May 14 16:13:22 PDT 2015
User: schluterlab
Dark Spectrum Present: Yes
Reference Spectrum Present: Yes
Number of Sampled Component Spectra: 1
Spectrometers: USB2E3373
Integration Time (usec): 3000 (USB2E3373)
Spectra Averaged: 3 (USB2E3373)
Boxcar Smoothing: 0 (USB2E3373)
Correct for Electrical Dark: No (USB2E3373)
Strobe/Lamp Enabled: No (USB2E3373)
Correct for Detector Non-linearity: No (USB2E3373)
Correct for Stray Light: No (USB2E3373)
Number of Pixels in Processed Spectrum: 2048
>>>>>Begin Processed Spectral Data<<<<<
178.53	0.000
178.91	28.571
179.29	-900.000
179.67	-800.000
180.04	128.571
180.42	10.000
180.80	260.000
181.18	-600.000
181.56	200.000
181.94	-0.000
182.31	-125.000
182.69	333.333
183.07	200.000
183.45	175.000
183.83	-33.333
184.20	-266.667
184.58	300.000
184.96	-425.000
185.34	-100.000
185.72	20.000
186.09	166.667
186.47	900.000
186.85	140.000
187.23	-77.778
187.61	-400.000
187.98	80.000
188.36	275.000
188.74	25.000
189.12	400.000
189.49	-18.750
189.87	-137.500
190.25	100.000
190.63	20.000
191.00	-133.333
191.38	0.000
191.76	0.000
192.14	-133.333
192.51	650.000
192.89	-166.667
193.27	0.000
193.65	-28.571
194.02	-800.000
194.40	42.857
194.78	-0.000
195.15	0.000
195.53	18.182
195.91	0.000
196.29	150.000
196.66	30.769
197.04	-1500.000
197.42	-14.286
197.79	-100.000
198.17	-12.500
198.55	-57.143
198.92	44.444
199.30	-75.000
199.68	-45.455
200.05	57.143
200.43	-200.000
200.81	257.143
201.18	0.000
201.56	166.667
201.94	0.000
202.31	300.000
202.69	-66.667
203.07	800.000
203.44	-122.222
203.82	-225.000
204.19	-66.667
204.57	-150.000
204.95	-25.000
205.32	-100.000
205.70	50.000
206.08	-83.333
206.45	-50.000
206.83	200.000
207.20	233.333
207.58	-160.000
207.96	-83.333
208.33	-16.667
208.71	58.333
209.08	83.333
209.46	0.000
209.84	333.333
210.21	700.000
210.59	350.000
210.96	366.667
211.34	75.000
211.71	62.500
212.09	-800.000
212.46	0.000
212.84	900.000
213.22	-300.000
213.59	-400.000
213.97	90.000
214.34	-300.000
214.72	150.000
215.09	-125.000
215.47	0.000
215.84	42.857
216.22	450.000
216.59	-120.000
216.97	-160.000
217.34	-250.000
217.72	-100.000
218.09	-125.000
218.47	-225.000
218.84	0.000
219.22	140.000
219.59	70.588
219.97	-10.000
220.34	-0.000
220.72	-11.111
221.09	23.077
221.47	-400.000
221.84	-50.000
222.22	-128.571
222.59	0.000
222.97	50.000
223.34	-180.000
223.72	-500.000
224.09	50.000
224.46	-150.000
224.84	-40.000
225.21	-100.000
225.59	-400.000
225.96	-175.000
226.34	30.769
226.71	66.667
227.08	-250.000
227.46	-26.667
227.83	25.000
228.21	0.000
228.58	25.000
228.95	-150.000
229.33	41.667
229.70	20.000
230.08	94.737
230.45	100.000
230.82	-300.000
231.20	28.571
231.57	8.333
231.95	-27.273
232.32	36.364
232.69	-5.000
233.07	-125.000
233.44	-11.765
233.81	-40.000
234.19	22.222
234.56	-40.909
234.93	31.034
235.31	42.105
235.68	16.667
236.05	-30.000
236.43	76.923
236.80	52.000
237.17	25.926
237.55	33.333
237.92	10.000
238.29	9.677
238.67	2.273
239.04	19.444
239.41	23.810
239.79	23.913
240.16	11.111
240.53	8.696
240.91	9.804
241.28	21.311
241.65	26.866
242.02	13.514
242.40	27.692
242.77	30.667
243.14	18.293
243.51	0.000
243.89	19.231
244.26	33.663
244.63	25.490
245.00	26.168
245.38	27.193
245.75	8.850
246.12	23.810
246.49	25.581
246.87	29.286
247.24	27.815
247.61	30.263
247.98	27.517
248.36	22.222
248.73	20.859
249.10	25.137
249.47	24.378
249.84	27.749
250.22	19.171
250.59	26.667
250.96	26.818
251.33	21.429
251.70	24.786
252.08	22.083
252.45	26.639
252.82	23.967
253.19	18.359
253.56	22.053
253.94	21.538
254.31	25.758
254.68	24.476
255.05	24.104
255.42	22.449
255.79	21.036
256.16	22.185
256.54	23.841
256.91	23.279
257.28	27.541
257.65	22.930
258.02	21.534
258.39	22.222
258.76	26.911
259.14	27.299
259.51	23.919
259.88	22.946
260.25	26.944
260.62	23.014
260.99	25.410
261.36	26.273
261.73	23.077
262.10	23.352
262.47	26.810
262.85	25.505
263.22	22.078
263.59	21.842
263.96	24.552
264.33	21.228
264.70	26.173
265.07	27.685
265.44	25.624
265.81	25.926
266.18	24.717
266.55	22.321
266.92	25.513
267.29	26.039
267.66	27.273
268.03	23.799
268.40	24.426
268.77	25.740
269.14	24.009
269.51	25.439
269.88	24.795
270.25	22.938
270.62	26.371
270.99	26.263
271.36	24.950
271.73	22.790
272.10	25.451
272.47	25.651
272.84	24.900
273.21	23.246
273.58	25.000
273.95	24.231
274.32	23.194
274.69	25.725
275.06	23.443
275.43	23.475
275.80	25.397
276.17	23.889
276.54	24.067
276.91	24.150
277.28	23.327
277.65	23.339
278.02	24.632
278.39	24.819
278.76	23.726
279.13	25.532
279.50	24.570
279.87	25.403
280.23	21.831
280.60	23.220
280.97	22.862
281.34	23.090
281.71	24.873
282.08	22.093
282.45	22.422
282.82	21.036
283.19	22.132
283.56	22.623
283.92	23.273
284.29	22.907
284.66	22.660
285.03	20.513
285.40	24.420
285.77	23.065
286.14	23.969
286.51	23.440
286.87	23.065
287.24	22.139
287.61	24.066
287.98	21.450
288.35	22.485
288.72	21.302
289.08	21.376
289.45	21.154
289.82	20.783
290.19	19.828
290.56	21.268
290.93	21.398
291.29	21.212
291.66	21.488
292.03	19.946
292.40	21.769
292.77	20.889
293.13	20.298
293.50	20.499
293.87	18.926
294.24	20.533
294.60	18.331
294.97	18.792
295.34	20.615
295.71	18.916
296.08	16.796
296.44	18.873
296.81	19.854
297.18	18.555
297.55	18.160
297.91	19.217
298.28	17.654
298.65	18.549
299.02	19.599
299.38	18.192
299.75	17.874
300.12	18.519
300.48	19.816
300.85	18.560
301.22	18.904
301.59	16.324
301.95	17.853
302.32	18.000
302.69	17.963
303.05	16.649
303.42	16.962
303.79	17.083
304.15	18.507
304.52	17.653
304.89	17.277
305.25	17.702
305.62	17.764
305.99	18.247
306.35	17.742
306.72	19.028
307.09	17.868
307.45	18.841
307.82	18.870
308.19	17.356
308.55	18.033
308.92	17.722
309.29	18.582
309.65	17.057
310.02	17.525
310.38	18.012
310.75	18.835
311.12	19.463
311.48	18.768
311.85	19.468
312.22	17.647
312.58	18.028
312.95	17.878
313.31	18.609
313.68	20.238
314.05	19.151
314.41	20.492
314.78	19.891
315.14	19.964
315.51	20.222
315.87	19.712
316.24	21.187
316.61	20.071
316.97	19.276
317.34	19.489
317.70	19.825
318.07	20.370
318.43	19.898
318.80	21.321
319.16	20.944
319.53	19.880
319.89	19.807
320.26	21.263
320.62	21.011
320.99	20.129
321.35	19.871
321.72	22.140
322.08	21.190
322.45	22.945
322.81	23.556
323.18	23.009
323.54	23.362
323.91	22.865
324.27	22.719
324.64	23.342
325.00	23.134
325.37	23.505
325.73	23.306
326.10	23.277
326.46	23.779
326.83	24.019
327.19	24.409
327.56	24.506
327.92	24.626
328.29	23.952
328.65	23.618
329.01	24.365
329.38	24.010
329.74	24.829
330.11	26.027
330.47	24.094
330.84	24.117
331.20	25.417
331.56	24.783
331.93	26.276
332.29	27.373
332.66	25.083
333.02	24.623
333.38	26.930
333.75	25.337
334.11	25.605
334.48	26.403
334.84	25.913
335.20	24.517
335.57	25.885
335.93	25.868
336.29	25.374
336.66	25.399
337.02	25.502
337.38	25.085
337.75	25.207
338.11	25.568
338.47	24.979
338.84	25.635
339.20	25.190
339.56	24.959
339.93	25.287
340.29	25.121
340.65	25.385
341.02	25.459
341.38	25.546
341.74	26.150
342.11	25.503
342.47	24.782
342.83	25.845
343.20	25.756
343.56	25.421
343.92	25.620
344.28	25.859
344.65	26.667
345.01	26.209
345.37	26.205
345.73	25.409
346.10	25.975
346.46	25.000
346.82	25.993
347.19	26.127
347.55	26.024
347.91	26.746
348.27	25.190
348.63	25.743
349.00	25.652
349.36	25.799
349.72	25.149
350.08	27.266
350.45	26.160
350.81	26.471
351.17	25.263
351.53	26.990
351.89	26.955
352.26	26.119
352.62	27.015
352.98	26.107
353.34	26.064
353.70	26.271
354.07	26.230
354.43	25.740
354.79	27.225
355.15	26.637
355.51	26.827
355.87	25.954
356.24	26.996
356.60	26.090
356.96	26.835
357.32	26.617
357.68	26.647
358.04	27.021
358.40	27.015
358.77	26.389
359.13	26.662
359.49	26.468
359.85	27.049
360.21	27.188
360.57	26.992
360.93	27.645
361.29	27.439
361.66	27.227
362.02	27.975
362.38	27.688
362.74	28.282
363.10	27.854
363.46	27.562
363.82	28.125
364.18	27.445
364.54	28.631
364.90	27.960
365.26	27.724
365.62	28.533
365.98	28.863
366.35	28.389
366.71	29.320
367.07	28.281
367.43	28.890
367.79	28.334
368.15	30.502
368.51	29.567
368.87	28.870
369.23	28.933
369.59	29.986
369.95	29.074
370.31	29.710
370.67	29.298
371.03	29.086
371.39	29.013
371.75	30.949
372.11	30.420
372.47	30.603
372.83	30.170
373.19	30.554
373.55	29.946
373.91	29.789
374.27	30.466
374.63	31.529
374.99	31.034
375.35	31.753
375.71	31.226
376.07	32.085
376.42	31.297
376.78	31.945
377.14	30.942
377.50	32.132
377.86	32.574
378.22	31.976
378.58	32.521
378.94	33.099
379.30	32.923
379.66	31.687
380.02	33.237
380.38	33.583
380.74	33.408
381.09	33.391
381.45	32.898
381.81	35.012
382.17	33.610
382.53	33.275
382.89	33.521
383.25	34.818
383.61	34.433
383.97	34.923
384.32	35.167
384.68	35.093
385.04	35.685
385.40	36.594
385.76	35.815
386.12	35.966
386.48	36.176
386.83	36.055
387.19	35.342
387.55	36.502
387.91	35.959
388.27	36.952
388.62	36.369
388.98	35.928
389.34	37.183
389.70	37.711
390.06	36.708
390.42	36.807
390.77	37.086
391.13	37.265
391.49	38.708
391.85	37.879
392.20	38.375
392.56	38.216
392.92	37.568
393.28	38.419
393.64	38.156
393.99	39.105
394.35	38.727
394.71	39.820
395.07	39.461
395.42	39.634
395.78	40.646
396.14	39.275
396.50	39.964
396.85	39.296
397.21	40.000
397.57	41.048
397.92	41.237
398.28	40.359
398.64	39.931
399.00	39.319
399.35	41.309
399.71	41.087
400.07	40.764
400.42	41.153
400.78	42.072
401.14	42.686
401.49	42.069
401.85	42.558
402.21	42.700
402.57	42.958
402.92	43.617
403.28	42.330
403.63	42.721
403.99	42.637
404.35	42.354
404.70	44.136
405.06	42.663
405.42	43.970
405.77	44.111
406.13	43.976
406.49	44.426
406.84	44.266
407.20	44.885
407.55	43.247
407.91	44.437
408.27	44.759
408.62	45.084
408.98	44.748
409.34	44.282
409.69	46.292
410.05	45.369
410.40	45.650
410.76	45.597
411.11	46.289
411.47	46.806
411.83	46.855
412.18	45.482
412.54	46.177
412.89	46.566
413.25	46.332
413.60	46.180
413.96	47.669
414.31	46.176
414.67	47.227
415.03	48.000
415.38	47.793
415.74	45.816
416.09	49.167
416.45	47.151
416.80	47.001
417.16	48.914
417.51	48.630
417.87	49.663
418.22	50.240
418.58	46.840
418.93	49.360
419.29	48.890
419.64	48.980
420.00	48.724
420.35	49.579
420.71	49.397
421.06	48.476
421.42	50.115
421.77	49.058
422.12	49.577
422.48	49.053
422.83	50.712
423.19	50.027
423.54	51.106
423.90	50.801
424.25	51.040
424.61	49.656
424.96	50.192
425.31	51.752
425.67	50.027
426.02	51.467
426.38	51.665
426.73	50.670
427.09	51.730
427.44	50.355
427.79	51.797
428.15	50.913
428.50	50.674
428.85	50.861
429.21	50.372
429.56	50.938
429.92	52.039
430.27	51.422
430.62	51.441
430.98	50.812
431.33	51.222
431.68	50.431
432.04	52.412
432.39	52.223
432.74	51.769
433.10	52.677
433.45	51.951
433.80	52.307
434.16	53.306
434.51	53.289
434.86	52.877
435.22	53.773
435.57	54.304
435.92	53.534
436.28	53.584
436.63	53.905
436.98	52.335
437.34	53.551
437.69	53.165
438.04	53.199
438.39	53.188
438.75	53.127
439.10	54.387
439.45	53.494
439.81	53.390
440.16	53.351
440.51	54.292
440.86	53.141
441.22	53.108
441.57	54.350
441.92	51.649
442.27	54.394
442.63	53.701
442.98	53.042
443.33	54.024
443.68	55.154
444.03	55.315
444.39	53.583
444.74	53.956
445.09	54.181
445.44	54.320
445.79	54.119
446.15	54.676
446.50	54.212
446.85	53.599
447.20	53.675
447.55	54.236
447.91	54.293
448.26	54.493
448.61	54.038
448.96	55.848
449.31	55.355
449.66	53.540
450.02	53.692
450.37	53.596
450.72	53.821
451.07	54.613
451.42	55.690
451.77	53.530
452.12	54.966
452.47	53.832
452.83	54.786
453.18	53.590
453.53	54.681
453.88	53.672
454.23	53.559
454.58	54.962
454.93	54.430
455.28	55.087
455.63	54.349
455.98	54.246
456.34	53.651
456.69	53.733
457.04	54.551
457.39	54.157
457.74	54.810
458.09	53.322
458.44	53.879
458.79	53.584
459.14	52.386
459.49	55.122
459.84	53.725
460.19	53.415
460.54	53.890
460.89	53.785
461.24	53.218
461.59	53.735
461.94	52.367
462.29	54.199
462.64	54.315
462.99	54.739
463.34	54.899
463.69	53.458
464.04	53.696
464.39	52.971
464.74	53.535
465.09	54.441
465.44	53.004
465.79	52.882
466.14	51.641
466.49	52.526
466.84	53.388
467.19	54.162
467.54	51.998
467.89	53.046
468.24	54.072
468.59	53.503
468.94	51.632
469.29	53.089
469.64	52.702
469.99	53.219
470.34	52.723
470.68	54.887
471.03	53.307
471.38	53.107
471.73	54.291
472.08	54.188
472.43	54.485
472.78	54.660
473.13	54.298
473.48	53.535
473.83	53.860
474.17	52.755
474.52	53.518
474.87	53.433
475.22	54.648
475.57	52.596
475.92	53.410
476.27	52.929
476.61	52.908
476.96	52.763
477.31	53.317
477.66	53.882
478.01	51.906
478.36	52.343
478.70	52.906
479.05	53.272
479.40	53.455
479.75	52.546
480.10	53.008
480.45	52.689
480.79	53.288
481.14	52.987
481.49	51.976
481.84	52.393
482.19	52.559
482.53	53.345
482.88	53.389
483.23	52.112
483.58	51.834
483.92	52.128
484.27	52.286
484.62	51.279
484.97	51.750
485.31	51.390
485.66	49.149
486.01	47.867
486.36	48.890
486.70	50.369
487.05	51.981
487.40	52.124
487.75	52.392
488.09	53.142
488.44	52.250
488.79	52.681
489.13	52.933
489.48	52.155
489.83	51.911
490.17	51.195
490.52	50.082
490.87	51.650
491.22	52.513
491.56	51.365
491.91	51.723
492.26	51.839
492.60	51.596
492.95	52.128
493.30	51.995
493.64	51.774
493.99	51.228
494.34	50.828
494.68	51.349
495.03	50.485
495.37	52.863
495.72	51.791
496.07	51.578
496.41	51.223
496.76	50.959
497.11	51.847
497.45	51.834
497.80	51.488
498.14	50.703
498.49	51.976
498.84	52.285
499.18	50.427
499.53	50.583
499.87	50.989
500.22	49.688
500.56	51.057
500.91	51.213
501.26	51.318
501.60	50.729
501.95	50.369
502.29	51.031
502.64	51.596
502.98	51.251
503.33	50.583
503.67	50.153
504.02	50.701
504.36	51.162
504.71	51.493
505.06	50.705
505.40	51.188
505.75	51.093
506.09	50.875
506.44	51.486
506.78	51.009
507.13	51.867
507.47	52.061
507.82	50.852
508.16	50.669
508.51	49.742
508.85	50.496
509.19	50.971
509.54	51.729
509.88	51.870
510.23	51.578
510.57	51.861
510.92	51.234
511.26	50.505
511.61	49.686
511.95	50.854
512.30	51.797
512.64	50.875
512.98	50.175
513.33	52.470
513.67	50.790
514.02	51.865
514.36	51.867
514.70	52.604
515.05	52.190
515.39	51.549
515.74	52.386
516.08	51.558
516.42	52.800
516.77	52.261
517.11	51.676
517.46	51.007
517.80	53.501
518.14	52.448
518.49	51.844
518.83	50.985
519.17	52.396
519.52	51.153
519.86	50.950
520.20	52.769
520.55	51.588
520.89	53.153
521.23	50.586
521.58	51.808
521.92	51.275
522.26	51.947
522.61	53.704
522.95	51.961
523.29	53.563
523.64	51.401
523.98	53.622
524.32	52.894
524.66	52.248
525.01	51.472
525.35	52.039
525.69	51.972
526.04	51.665
526.38	51.552
526.72	51.672
527.06	51.789
527.41	51.662
527.75	53.325
528.09	52.656
528.43	51.806
528.78	52.428
529.12	51.548
529.46	52.277
529.80	51.545
530.15	51.826
530.49	51.957
530.83	52.243
531.17	51.493
531.51	51.925
531.86	52.103
532.20	51.585
532.54	51.047
532.88	51.273
533.22	51.444
533.57	51.587
533.91	51.796
534.25	51.272
534.59	52.069
534.93	51.047
535.27	50.986
535.62	50.938
535.96	50.784
536.30	52.644
536.64	51.952
536.98	52.030
537.32	52.037
537.66	51.778
538.01	51.239
538.35	50.365
538.69	51.863
539.03	51.012
539.37	51.472
539.71	51.351
540.05	50.719
540.39	50.917
540.73	50.577
541.07	51.196
541.42	50.975
541.76	50.949
542.10	50.302
542.44	49.817
542.78	50.852
543.12	49.642
543.46	50.427
543.80	49.580
544.14	50.808
544.48	49.764
544.82	51.706
545.16	51.342
545.50	51.108
545.84	51.010
546.18	51.914
546.52	51.338
546.86	50.566
547.20	51.209
547.54	50.187
547.88	49.427
548.22	49.181
548.56	49.444
548.90	50.687
549.24	50.699
549.58	50.095
549.92	50.000
550.26	51.456
550.60	48.883
550.94	51.229
551.28	50.693
551.62	51.213
551.96	49.644
552.30	49.777
552.64	49.844
552.98	49.719
553.32	50.482
553.66	48.875
554.00	49.433
554.34	50.064
554.68	48.677
555.02	50.197
555.36	49.836
555.69	49.584
556.03	49.559
556.37	48.999
556.71	49.461
557.05	49.649
557.39	49.635
557.73	50.198
558.07	49.205
558.41	49.900
558.75	48.952
559.08	50.383
559.42	48.903
559.76	49.186
560.10	48.426
560.44	50.198
560.78	48.937
561.12	49.200
561.45	48.662
561.79	48.046
562.13	49.045
562.47	47.287
562.81	49.430
563.15	48.548
563.48	49.161
563.82	48.791
564.16	47.850
564.50	46.901
564.84	46.136
565.17	47.294
565.51	46.778
565.85	48.337
566.19	45.507
566.52	46.577
566.86	46.520
567.20	45.840
567.54	46.309
567.88	47.044
568.21	46.542
568.55	47.194
568.89	45.937
569.23	46.050
569.56	44.353
569.90	44.440
570.24	44.384
570.57	43.521
570.91	44.029
571.25	43.766
571.59	43.807
571.92	43.657
572.26	43.171
572.60	43.680
572.93	44.002
573.27	43.552
573.61	43.224
573.95	43.142
574.28	42.560
574.62	42.724
574.96	42.126
575.29	41.793
575.63	42.666
575.97	42.371
576.30	43.055
576.64	43.188
576.98	42.141
577.31	42.400
577.65	42.674
577.98	41.547
578.32	41.533
578.66	41.745
578.99	41.552
579.33	42.708
579.67	42.316
580.00	41.897
580.34	42.103
580.67	42.145
581.01	42.125
581.35	40.951
581.68	40.905
582.02	41.026
582.35	41.434
582.69	41.635
583.02	41.581
583.36	42.226
583.70	42.990
584.03	42.765
584.37	42.533
584.70	41.736
585.04	41.223
585.37	41.184
585.71	40.841
586.04	40.709
586.38	41.086
586.72	41.213
587.05	41.366
587.39	41.461
587.72	41.675
588.06	41.296
588.39	41.150
588.73	41.270
589.06	41.196
589.40	42.317
589.73	42.224
590.07	41.976
590.40	42.394
590.73	41.676
591.07	42.740
591.40	42.107
591.74	41.534
592.07	41.860
592.41	39.866
592.74	40.824
593.08	41.338
593.41	40.799
593.75	39.943
594.08	40.836
594.41	41.026
594.75	40.153
595.08	40.410
595.42	41.006
595.75	40.394
596.09	41.139
596.42	40.451
596.75	41.721
597.09	41.657
597.42	41.359
597.75	40.180
598.09	40.913
598.42	41.094
598.76	40.237
599.09	39.445
599.42	39.256
599.76	39.122
600.09	39.506
600.42	39.106
600.76	39.432
601.09	38.865
601.42	39.444
601.76	39.966
602.09	40.493
602.42	39.113
602.76	39.077
603.09	39.244
603.42	39.523
603.76	39.746
604.09	39.177
604.42	39.743
604.76	38.775
605.09	40.008
605.42	39.593
605.75	39.231
606.09	39.268
606.42	38.490
606.75	38.606
607.09	38.940
607.42	38.651
607.75	39.429
608.08	39.227
608.42	38.654
608.75	38.889
609.08	38.667
609.41	39.038
609.75	38.839
610.08	38.786
610.41	38.403
610.74	39.244
611.07	39.476
611.41	40.493
611.74	39.954
612.07	39.411
612.40	39.544
612.73	39.560
613.07	38.240
613.40	39.702
613.73	38.950
614.06	38.616
614.39	38.921
614.72	38.962
615.06	38.835
615.39	38.424
615.72	38.199
616.05	38.368
616.38	38.799
616.71	38.976
617.05	38.179
617.38	38.737
617.71	39.741
618.04	38.532
618.37	39.235
618.70	39.253
619.03	38.889
619.36	38.718
619.69	39.142
620.03	39.109
620.36	39.571
620.69	38.988
621.02	39.829
621.35	41.437
621.68	39.190
622.01	39.929
622.34	38.842
622.67	38.419
623.00	37.045
623.33	39.549
623.66	37.354
623.99	37.920
624.32	39.051
624.65	37.194
624.99	38.622
625.32	39.125
625.65	38.436
625.98	38.169
626.31	39.334
626.64	39.707
626.97	38.260
627.30	37.965
627.63	38.185
627.96	39.640
628.29	39.611
628.62	39.798
628.95	39.614
629.28	38.233
629.61	38.468
629.94	37.573
630.26	37.797
630.59	38.169
630.92	38.095
631.25	40.250
631.58	41.525
631.91	38.707
632.24	38.425
632.57	38.899
632.90	39.719
633.23	39.388
633.56	39.082
633.89	38.636
