SpectraSuite Data File
++++++++++++++++++++++++++++++++++++
Date: Thu May 14 16:10:08 PDT 2015
User: schluterlab
Dark Spectrum Present: Yes
Reference Spectrum Present: Yes
Number of Sampled Component Spectra: 1
Spectrometers: USB2E3373
Integration Time (usec): 3000 (USB2E3373)
Spectra Averaged: 3 (USB2E3373)
Boxcar Smoothing: 0 (USB2E3373)
Correct for Electrical Dark: No (USB2E3373)
Strobe/Lamp Enabled: No (USB2E3373)
Correct for Detector Non-linearity: No (USB2E3373)
Correct for Stray Light: No (USB2E3373)
Number of Pixels in Processed Spectrum: 2048
>>>>>Begin Processed Spectral Data<<<<<
178.53	0.000
178.91	157.143
179.29	-1800.000
179.67	-800.000
180.04	214.286
180.42	170.000
180.80	260.000
181.18	-1300.000
181.56	-600.000
181.94	25.000
182.31	0.000
182.69	233.333
183.07	-450.000
183.45	250.000
183.83	-133.333
184.20	-133.333
184.58	1000.000
184.96	-100.000
185.34	-100.000
185.72	-180.000
186.09	255.556
186.47	600.000
186.85	420.000
187.23	-322.222
187.61	-1500.000
187.98	240.000
188.36	375.000
188.74	-350.000
189.12	-200.000
189.49	-18.750
189.87	-112.500
190.25	44.444
190.63	-60.000
191.00	-122.222
191.38	0.000
191.76	-400.000
192.14	-216.667
192.51	750.000
192.89	33.333
193.27	0.000
193.65	-142.857
194.02	-1800.000
194.40	-157.143
194.78	142.857
195.15	0.000
195.53	63.636
195.91	0.000
196.29	-200.000
196.66	-53.846
197.04	-1800.000
197.42	-100.000
197.79	-450.000
198.17	-175.000
198.55	-200.000
198.92	-155.556
199.30	-112.500
199.68	-9.091
200.05	7.143
200.43	-700.000
200.81	271.429
201.18	0.000
201.56	222.222
201.94	0.000
202.31	333.333
202.69	-177.778
203.07	700.000
203.44	-88.889
203.82	-350.000
204.19	41.667
204.57	-316.667
204.95	-37.500
205.32	-1300.000
205.70	325.000
206.08	-150.000
206.45	-16.667
206.83	400.000
207.20	-66.667
207.58	-400.000
207.96	-266.667
208.33	-100.000
208.71	183.333
209.08	-166.667
209.46	0.000
209.84	316.667
210.21	150.000
210.59	600.000
210.96	766.667
211.34	-175.000
211.71	-212.500
212.09	-900.000
212.46	0.000
212.84	850.000
213.22	-280.000
213.59	-400.000
213.97	0.000
214.34	-333.333
214.72	266.667
215.09	-550.000
215.47	0.000
215.84	114.286
216.22	1050.000
216.59	-20.000
216.97	-260.000
217.34	-150.000
217.72	-50.000
218.09	-250.000
218.47	-175.000
218.84	0.000
219.22	200.000
219.59	-35.294
219.97	-45.000
220.34	500.000
220.72	-222.222
221.09	-53.846
221.47	-333.333
221.84	-170.000
222.22	-271.429
222.59	0.000
222.97	-162.500
223.34	-460.000
223.72	-1500.000
224.09	-350.000
224.46	-325.000
224.84	-60.000
225.21	-271.429
225.59	-400.000
225.96	-325.000
226.34	-23.077
226.71	283.333
227.08	-550.000
227.46	-6.667
227.83	-325.000
228.21	-31.579
228.58	262.500
228.95	700.000
229.33	-33.333
229.70	-40.000
230.08	5.263
230.45	20.000
230.82	-333.333
231.20	-42.857
231.57	-16.667
231.95	-36.364
232.32	-63.636
232.69	-20.000
233.07	-400.000
233.44	-41.176
233.81	-130.000
234.19	22.222
234.56	-27.273
234.93	10.345
235.31	-47.368
235.68	22.222
236.05	-55.000
236.43	57.692
236.80	40.000
237.17	0.000
237.55	24.242
237.92	-80.000
238.29	16.129
238.67	20.455
239.04	38.889
239.41	21.429
239.79	39.130
240.16	40.741
240.53	23.913
240.91	23.529
241.28	32.787
241.65	46.269
242.02	52.703
242.40	32.308
242.77	32.000
243.14	21.951
243.51	34.211
243.89	39.744
244.26	47.525
244.63	50.000
245.00	43.925
245.38	42.982
245.75	38.053
246.12	42.063
246.49	34.109
246.87	46.429
247.24	40.397
247.61	45.395
247.98	40.268
248.36	37.654
248.73	48.466
249.10	39.891
249.47	48.259
249.84	49.215
250.22	46.114
250.59	48.333
250.96	48.182
251.33	43.367
251.70	47.009
252.08	46.667
252.45	47.541
252.82	46.281
253.19	42.969
253.56	47.148
253.94	45.385
254.31	45.455
254.68	50.350
255.05	46.906
255.42	44.558
255.79	45.307
256.16	48.013
256.54	47.020
256.91	49.836
257.28	48.197
257.65	40.127
258.02	48.378
258.39	47.009
258.76	49.847
259.14	51.149
259.51	45.533
259.88	48.442
260.25	48.056
260.62	44.658
260.99	50.820
261.36	47.453
261.73	47.480
262.10	52.473
262.47	52.815
262.85	50.758
263.22	47.273
263.59	46.316
263.96	47.059
264.33	47.059
264.70	47.901
265.07	49.403
265.44	50.340
265.81	47.454
266.18	50.340
266.55	49.330
266.92	50.114
267.29	49.234
267.66	50.776
268.03	51.965
268.40	46.973
268.77	49.886
269.14	46.256
269.51	50.877
269.88	49.795
270.25	49.296
270.62	49.367
270.99	49.899
271.36	43.366
271.73	46.758
272.10	49.499
272.47	49.699
272.84	48.594
273.21	47.094
273.58	47.379
273.95	46.154
274.32	45.057
274.69	45.261
275.06	48.168
275.43	44.177
275.80	46.914
276.17	46.481
276.54	44.776
276.91	49.553
277.28	44.304
277.65	48.833
278.02	44.301
278.39	45.471
278.76	48.682
279.13	48.227
279.50	47.938
279.87	44.186
280.23	45.246
280.60	47.288
280.97	45.066
281.34	46.520
281.71	47.208
282.08	47.010
282.45	45.008
282.82	45.683
283.19	43.619
283.56	44.590
283.92	45.345
284.29	47.551
284.66	45.484
285.03	44.071
285.40	42.968
285.77	47.368
286.14	44.733
286.51	45.358
286.87	44.866
287.24	43.524
287.61	44.544
287.98	42.145
288.35	44.379
288.72	43.047
289.08	42.460
289.45	42.899
289.82	43.976
290.19	41.954
290.56	41.408
290.93	39.658
291.29	41.736
291.66	40.358
292.03	38.535
292.40	40.680
292.77	37.062
293.13	37.077
293.50	36.794
293.87	39.195
294.24	40.000
294.60	38.812
294.97	35.839
295.34	37.260
295.71	36.318
296.08	34.755
296.44	36.520
296.81	36.541
297.18	35.492
297.55	35.967
297.91	35.231
298.28	36.256
298.65	35.434
299.02	35.773
299.38	34.897
299.75	34.579
300.12	34.491
300.48	35.484
300.85	34.308
301.22	35.459
301.59	35.160
301.95	32.881
302.32	32.000
302.69	34.502
303.05	34.276
303.42	33.925
303.79	34.167
304.15	33.544
304.52	32.558
304.89	32.984
305.25	31.056
305.62	32.706
305.99	32.887
306.35	33.569
306.72	32.782
307.09	31.878
307.45	31.366
307.82	31.887
308.19	31.483
308.55	33.462
308.92	32.035
309.29	31.992
309.65	33.236
310.02	31.881
310.38	31.102
310.75	32.621
311.12	32.407
311.48	31.574
311.85	32.099
312.22	32.258
312.58	30.798
312.95	29.637
313.31	32.249
313.68	31.868
314.05	31.165
314.41	31.330
314.78	31.244
315.14	31.216
315.51	31.487
315.87	31.413
316.24	31.872
316.61	32.327
316.97	31.674
317.34	29.982
317.70	31.441
318.07	31.570
318.43	29.932
318.80	31.104
319.16	30.815
319.53	30.506
319.89	30.587
320.26	29.359
320.62	30.851
320.99	30.194
321.35	32.532
321.72	31.628
322.08	30.117
322.45	30.985
322.81	32.220
323.18	31.681
323.54	31.552
323.91	30.516
324.27	31.756
324.64	30.814
325.00	30.763
325.37	29.648
325.73	30.992
326.10	30.657
326.46	31.189
326.83	30.424
327.19	30.630
327.56	32.095
327.92	30.527
328.29	30.968
328.65	30.402
329.01	30.795
329.38	31.255
329.74	31.079
330.11	31.250
330.47	29.655
330.84	29.974
331.20	30.917
331.56	30.849
331.93	31.130
332.29	30.424
332.66	29.734
333.02	30.570
333.38	29.279
333.75	30.051
334.11	31.193
334.48	30.446
334.84	31.606
335.20	30.143
335.57	30.776
335.93	30.331
336.29	28.702
336.66	30.109
337.02	28.763
337.38	30.782
337.75	29.339
338.11	30.866
338.47	29.446
338.84	29.780
339.20	27.633
339.56	28.418
339.93	28.982
340.29	29.308
340.65	29.440
341.02	29.449
341.38	29.426
341.74	28.652
342.11	29.043
342.47	28.118
342.83	29.871
343.20	28.373
343.56	29.832
343.92	29.143
344.28	29.453
344.65	29.225
345.01	28.393
345.37	28.694
345.73	27.046
346.10	29.875
346.46	29.035
346.82	28.315
347.19	28.724
347.55	29.135
347.91	27.935
348.27	28.604
348.63	28.408
349.00	27.218
349.36	28.550
349.72	28.125
350.08	29.049
350.45	28.593
350.81	27.828
351.17	28.571
351.53	28.810
351.89	28.778
352.26	27.537
352.62	27.910
352.98	28.855
353.34	27.633
353.70	28.197
354.07	27.198
354.43	27.942
354.79	28.571
355.15	27.962
355.51	27.047
355.87	26.552
356.24	27.985
356.60	27.790
356.96	28.169
357.32	26.543
357.68	28.331
358.04	27.320
358.40	27.015
358.77	27.632
359.13	26.219
359.49	27.212
359.85	26.976
360.21	27.403
360.57	27.351
360.93	26.657
361.29	26.737
361.66	27.082
362.02	27.627
362.38	27.266
362.74	26.885
363.10	27.510
363.46	26.385
363.82	26.207
364.18	27.023
364.54	27.248
364.90	27.358
365.26	26.828
365.62	26.467
365.98	26.344
366.35	26.779
366.71	28.503
367.07	27.131
367.43	26.855
367.79	28.069
368.15	27.157
368.51	26.996
368.87	26.976
369.23	26.533
369.59	26.434
369.95	26.234
370.31	26.671
370.67	26.066
371.03	27.424
371.39	25.588
371.75	27.098
372.11	26.287
372.47	25.051
372.83	25.916
373.19	26.551
373.55	26.423
373.91	25.085
374.27	26.714
374.63	26.116
374.99	25.729
375.35	26.883
375.71	26.258
376.07	25.694
376.42	25.882
376.78	26.725
377.14	25.764
377.50	26.818
377.86	26.601
378.22	26.347
378.58	25.565
378.94	26.291
379.30	25.308
379.66	25.985
380.02	26.255
380.38	26.786
380.74	25.803
381.09	26.016
381.45	26.193
381.81	26.522
382.17	25.475
382.53	25.556
382.89	26.129
383.25	26.084
383.61	25.347
383.97	25.206
384.32	26.017
384.68	25.174
385.04	25.737
385.40	26.341
385.76	26.436
386.12	26.032
386.48	27.118
386.83	26.043
387.19	25.492
387.55	25.587
387.91	26.142
388.27	25.751
388.62	26.575
388.98	25.099
389.34	26.930
389.70	26.612
390.06	25.577
390.42	25.904
390.77	26.249
391.13	25.646
391.49	26.208
391.85	25.333
392.20	26.631
392.56	26.226
392.92	26.009
393.28	26.313
393.64	25.140
393.99	26.031
394.35	26.460
394.71	25.689
395.07	25.269
395.42	25.814
395.78	25.716
396.14	25.371
396.50	25.119
396.85	25.641
397.21	24.970
397.57	24.323
397.92	26.117
398.28	24.661
398.64	24.771
399.00	24.555
399.35	25.864
399.71	25.054
400.07	25.997
400.42	25.029
400.78	25.579
401.14	26.067
401.49	25.526
401.85	25.349
402.21	26.130
402.57	25.704
402.92	25.473
403.28	25.293
403.63	24.045
403.99	24.406
404.35	24.559
404.70	25.666
405.06	23.967
405.42	25.761
405.77	25.845
406.13	25.824
406.49	25.000
406.84	25.429
407.20	24.651
407.55	24.167
407.91	24.576
408.27	24.794
408.62	24.666
408.98	25.769
409.34	23.871
409.69	24.289
410.05	24.560
410.40	26.218
410.76	25.911
411.11	25.716
411.47	25.307
411.83	25.103
412.18	25.241
412.54	24.837
412.89	25.204
413.25	25.451
413.60	25.043
413.96	24.825
414.31	25.609
414.67	24.925
415.03	24.246
415.38	25.536
415.74	24.985
416.09	26.033
416.45	25.423
416.80	25.398
417.16	25.415
417.51	24.844
417.87	25.077
418.22	25.629
418.58	24.721
418.93	24.913
419.29	25.031
419.64	25.330
420.00	25.638
420.35	25.211
420.71	26.307
421.06	24.497
421.42	25.115
421.77	25.310
422.12	24.524
422.48	25.141
422.83	26.123
423.19	25.093
423.54	25.719
423.90	25.014
424.25	25.280
424.61	25.258
424.96	26.030
425.31	25.743
425.67	24.477
426.02	25.014
426.38	24.627
426.73	25.279
427.09	26.009
427.44	24.358
427.79	24.820
428.15	24.658
428.50	24.775
428.85	24.225
429.21	25.532
429.56	24.284
429.92	25.897
430.27	25.494
430.62	25.550
430.98	25.971
431.33	25.709
431.68	25.335
432.04	24.479
432.39	24.585
432.74	25.171
433.10	25.744
433.45	25.028
433.80	25.483
434.16	25.052
434.51	25.899
434.86	25.624
435.22	25.770
435.57	25.531
435.92	25.487
436.28	25.654
436.63	25.833
436.98	25.443
437.34	25.817
437.69	25.867
438.04	25.859
438.39	25.158
438.75	24.184
439.10	26.057
439.45	26.048
439.81	25.141
440.16	24.879
440.51	25.418
440.86	24.458
441.22	25.295
441.57	25.367
441.92	25.752
442.27	25.657
442.63	25.236
442.98	25.720
443.33	25.618
443.68	25.372
444.03	26.341
444.39	25.428
444.74	25.881
445.09	24.480
445.44	26.185
445.79	26.533
446.15	25.437
446.50	25.426
446.85	26.070
447.20	25.967
447.55	25.523
447.91	25.812
448.26	25.634
448.61	25.186
448.96	26.502
449.31	25.451
449.66	24.510
450.02	25.527
450.37	26.265
450.72	26.211
451.07	26.082
451.42	25.708
451.77	25.959
452.12	25.790
452.47	25.609
452.83	27.421
453.18	25.628
453.53	25.503
453.88	25.621
454.23	26.045
454.58	26.233
454.93	25.667
455.28	26.189
455.63	25.810
455.98	26.760
456.34	25.913
456.69	26.044
457.04	25.768
457.39	25.499
457.74	26.286
458.09	25.151
458.44	26.239
458.79	26.044
459.14	26.167
459.49	25.750
459.84	26.076
460.19	25.375
460.54	26.633
460.89	25.940
461.24	25.862
461.59	26.619
461.94	25.214
462.29	27.044
462.64	25.830
462.99	26.616
463.34	25.762
463.69	25.733
464.04	26.459
464.39	25.897
464.74	26.112
465.09	25.490
465.44	26.073
465.79	25.383
466.14	25.795
466.49	26.211
466.84	26.722
467.19	26.879
467.54	25.911
467.89	25.632
468.24	26.205
468.59	25.651
468.94	24.825
469.29	25.615
469.64	25.556
469.99	26.896
470.34	25.928
470.68	25.769
471.03	26.981
471.38	25.245
471.73	25.618
472.08	26.079
472.43	26.490
472.78	26.071
473.13	26.106
473.48	26.647
473.83	26.698
474.17	25.733
474.52	26.218
474.87	25.914
475.22	27.268
475.57	25.545
475.92	25.884
476.27	26.092
476.61	25.961
476.96	26.069
477.31	26.683
477.66	27.230
478.01	25.419
478.36	26.221
478.70	25.961
479.05	26.687
479.40	27.493
479.75	26.561
480.10	25.817
480.45	26.755
480.79	26.621
481.14	26.562
481.49	26.761
481.84	25.805
482.19	27.011
482.53	26.498
482.88	27.426
483.23	26.456
483.58	26.943
483.92	26.640
484.27	26.334
484.62	26.650
484.97	26.944
485.31	26.575
485.66	25.493
486.01	24.635
486.36	25.547
486.70	26.525
487.05	27.080
487.40	26.979
487.75	27.354
488.09	26.599
488.44	26.510
488.79	26.981
489.13	26.249
489.48	26.835
489.83	26.197
490.17	26.002
490.52	26.190
490.87	26.734
491.22	26.213
491.56	26.792
491.91	26.952
492.26	26.785
492.60	25.842
492.95	27.731
493.30	26.670
493.64	27.464
493.99	27.193
494.34	26.263
494.68	26.296
495.03	26.828
495.37	26.720
495.72	26.757
496.07	26.424
496.41	26.384
496.76	25.646
497.11	27.006
497.45	26.327
497.80	26.921
498.14	26.576
498.49	26.425
498.84	26.920
499.18	26.991
499.53	26.368
499.87	27.648
500.22	26.002
500.56	26.316
500.91	27.689
501.26	27.455
501.60	25.851
501.95	27.052
502.29	27.468
502.64	27.197
502.98	26.230
503.33	26.782
503.67	26.472
504.02	26.883
504.36	27.256
504.71	27.193
505.06	27.285
505.40	27.331
505.75	26.594
506.09	27.072
506.44	27.205
506.78	27.156
507.13	27.109
507.47	27.759
507.82	26.610
508.16	26.625
508.51	26.676
508.85	26.547
509.19	27.428
509.54	28.050
509.88	27.538
510.23	27.538
510.57	27.453
510.92	27.383
511.26	26.888
511.61	25.978
511.95	27.770
512.30	27.376
512.64	27.936
512.98	27.864
513.33	27.772
513.67	27.894
514.02	27.747
514.36	27.366
514.70	27.604
515.05	27.894
515.39	27.612
515.74	27.572
516.08	27.681
516.42	29.513
516.77	27.603
517.11	27.849
517.46	27.837
517.80	27.793
518.14	28.128
518.49	28.145
518.83	27.887
519.17	27.141
519.52	27.987
519.86	27.350
520.20	27.476
520.55	28.204
520.89	27.928
521.23	28.476
521.58	28.475
521.92	28.442
522.26	28.293
522.61	27.604
522.95	28.028
523.29	28.678
523.64	27.466
523.98	28.751
524.32	29.628
524.66	29.084
525.01	28.369
525.35	27.915
525.69	27.726
526.04	28.473
526.38	28.161
526.72	28.374
527.06	28.563
527.41	28.047
527.75	29.157
528.09	29.811
528.43	27.768
528.78	27.572
529.12	28.326
529.46	28.049
529.80	28.890
530.15	28.638
530.49	28.766
530.83	28.867
531.17	28.375
531.51	27.858
531.86	29.567
532.20	29.573
532.54	28.486
532.88	28.606
533.22	29.346
533.57	28.332
533.91	28.620
534.25	28.830
534.59	28.793
534.93	28.693
535.27	27.662
535.62	29.733
535.96	28.995
536.30	28.555
536.64	28.288
536.98	29.090
537.32	28.765
537.66	27.885
538.01	29.003
538.35	28.258
538.69	28.546
539.03	28.817
539.37	28.799
539.71	28.348
540.05	28.657
540.39	28.484
540.73	28.112
541.07	27.836
541.42	28.411
541.76	27.343
542.10	28.528
542.44	27.588
542.78	28.467
543.12	27.890
543.46	28.144
543.80	27.938
544.14	28.606
544.48	29.314
544.82	28.486
545.16	28.384
545.50	28.220
545.84	27.495
546.18	29.383
546.52	28.726
546.86	27.736
547.20	29.008
547.54	27.653
547.88	27.908
548.22	27.018
548.56	27.970
548.90	28.299
549.24	29.119
549.58	29.085
549.92	28.954
550.26	29.061
550.60	28.717
550.94	29.237
551.28	28.581
551.62	28.774
551.96	28.220
552.30	28.681
552.64	28.065
552.98	28.883
553.32	29.260
553.66	29.325
554.00	29.130
554.34	28.764
554.68	28.341
555.02	28.581
555.36	27.942
555.69	28.956
556.03	27.617
556.37	28.974
556.71	28.852
557.05	29.010
557.39	28.998
557.73	28.930
558.07	27.815
558.41	28.837
558.75	29.547
559.08	29.088
559.42	28.258
559.76	28.969
560.10	28.265
560.44	28.034
560.78	28.125
561.12	28.264
561.45	28.954
561.79	28.694
562.13	28.959
562.47	28.545
562.81	29.114
563.15	29.419
563.48	28.403
563.82	28.839
564.16	28.044
564.50	28.129
564.84	27.257
565.17	28.176
565.51	27.906
565.85	28.563
566.19	27.707
566.52	29.608
566.86	27.844
567.20	27.787
567.54	27.403
567.88	28.440
568.21	28.261
568.55	28.249
568.89	27.417
569.23	27.376
569.56	27.980
569.90	26.907
570.24	26.712
570.57	26.876
570.91	26.638
571.25	26.902
571.59	27.470
571.92	26.413
572.26	26.628
572.60	26.699
572.93	27.581
573.27	26.890
573.61	26.734
573.95	26.997
574.28	26.559
574.62	26.239
574.96	25.805
575.29	26.239
575.63	26.773
575.97	26.587
576.30	26.252
576.64	25.984
576.98	25.831
577.31	26.873
577.65	26.145
577.98	26.299
578.32	26.292
578.66	26.103
578.99	25.579
579.33	26.834
579.67	26.179
580.00	26.321
580.34	25.873
580.67	26.103
581.01	26.547
581.35	25.950
581.68	25.839
582.02	25.212
582.35	26.274
582.69	26.326
583.02	26.518
583.36	26.617
583.70	26.630
584.03	26.950
584.37	26.561
584.70	26.455
585.04	25.436
585.37	26.005
585.71	26.127
586.04	25.914
586.38	26.416
586.72	26.347
587.05	26.298
587.39	26.527
587.72	26.435
588.06	26.692
588.39	26.338
588.73	25.688
589.06	25.988
589.40	27.074
589.73	27.346
590.07	27.321
590.40	27.688
590.73	27.041
591.07	27.327
591.40	27.333
591.74	27.067
592.07	27.243
592.41	26.262
592.74	26.802
593.08	26.401
593.41	26.655
593.75	26.724
594.08	26.659
594.41	27.083
594.75	26.503
595.08	26.380
595.42	27.045
595.75	26.348
596.09	27.482
596.42	27.374
596.75	27.132
597.09	27.111
597.42	26.698
597.75	27.440
598.09	26.746
598.42	27.503
598.76	26.939
599.09	26.166
599.42	25.612
599.76	26.312
600.09	27.327
600.42	26.126
600.76	26.321
601.09	25.987
601.42	25.987
601.76	26.828
602.09	26.876
602.42	26.827
602.76	26.310
603.09	26.762
603.42	26.445
603.76	26.145
604.09	26.899
604.42	26.752
604.76	26.674
605.09	27.204
605.42	27.871
605.75	26.538
606.09	26.726
606.42	26.304
606.75	26.012
607.09	26.152
607.42	25.896
607.75	26.377
608.08	27.230
608.42	26.119
608.75	26.658
609.08	26.570
609.41	26.643
609.75	26.607
610.08	27.441
610.41	26.423
610.74	26.765
611.07	26.599
611.41	26.457
611.74	26.790
612.07	27.115
612.40	26.521
612.73	27.286
613.07	27.335
613.40	26.901
613.73	26.384
614.06	27.134
614.39	26.628
614.72	26.541
615.06	26.083
615.39	27.356
615.72	27.346
616.05	26.615
616.38	27.800
616.71	27.220
617.05	26.890
617.38	27.073
617.71	26.728
618.04	26.606
618.37	27.104
618.70	27.602
619.03	27.360
619.36	27.682
619.69	27.354
620.03	27.244
620.36	27.730
620.69	26.959
621.02	28.543
621.35	28.374
621.68	29.790
622.01	27.900
622.34	28.103
622.67	26.942
623.00	25.709
623.33	28.401
623.66	28.275
623.99	27.123
624.32	28.395
624.65	26.834
624.99	27.763
625.32	27.825
625.65	28.860
625.98	27.593
626.31	27.215
626.64	27.326
626.97	26.857
627.30	28.018
627.63	27.607
627.96	28.754
628.29	29.494
628.62	27.960
628.95	28.659
629.28	28.292
629.61	28.956
629.94	26.946
630.26	27.034
630.59	29.188
630.92	27.965
631.25	29.428
631.58	28.437
631.91	28.866
632.24	29.395
