SpectraSuite Data File
++++++++++++++++++++++++++++++++++++
Date: Thu May 14 16:16:02 PDT 2015
User: schluterlab
Dark Spectrum Present: Yes
Reference Spectrum Present: Yes
Number of Sampled Component Spectra: 1
Spectrometers: USB2E3373
Integration Time (usec): 3000 (USB2E3373)
Spectra Averaged: 3 (USB2E3373)
Boxcar Smoothing: 0 (USB2E3373)
Correct for Electrical Dark: No (USB2E3373)
Strobe/Lamp Enabled: No (USB2E3373)
Correct for Detector Non-linearity: No (USB2E3373)
Correct for Stray Light: No (USB2E3373)
Number of Pixels in Processed Spectrum: 2048
>>>>>Begin Processed Spectral Data<<<<<
178.53	0.000
178.91	-42.857
179.29	-1200.000
179.67	-600.000
180.04	92.857
180.42	40.000
180.80	240.000
181.18	-600.000
181.56	600.000
181.94	50.000
182.31	25.000
182.69	233.333
183.07	-400.000
183.45	325.000
183.83	33.333
184.20	-133.333
184.58	-200.000
184.96	-75.000
185.34	-44.444
185.72	60.000
186.09	122.222
186.47	500.000
186.85	380.000
187.23	-155.556
187.61	-900.000
187.98	140.000
188.36	50.000
188.74	75.000
189.12	133.333
189.49	37.500
189.87	-50.000
190.25	-11.111
190.63	80.000
191.00	-144.444
191.38	0.000
191.76	-200.000
192.14	-116.667
192.51	100.000
192.89	33.333
193.27	0.000
193.65	-28.571
194.02	-400.000
194.40	-142.857
194.78	200.000
195.15	0.000
195.53	9.091
195.91	0.000
196.29	-50.000
196.66	-15.385
197.04	-1700.000
197.42	-114.286
197.79	250.000
198.17	37.500
198.55	-42.857
198.92	111.111
199.30	-87.500
199.68	27.273
200.05	21.429
200.43	-600.000
200.81	214.286
201.18	0.000
201.56	200.000
201.94	0.000
202.31	166.667
202.69	-122.222
203.07	200.000
203.44	-11.111
203.82	75.000
204.19	-16.667
204.57	-116.667
204.95	12.500
205.32	-300.000
205.70	100.000
206.08	-116.667
206.45	-50.000
206.83	280.000
207.20	-100.000
207.58	-20.000
207.96	-183.333
208.33	-16.667
208.71	33.333
209.08	116.667
209.46	0.000
209.84	200.000
210.21	600.000
210.59	250.000
210.96	233.333
211.34	-175.000
211.71	-12.500
212.09	-400.000
212.46	0.000
212.84	500.000
213.22	-240.000
213.59	50.000
213.97	-40.000
214.34	33.333
214.72	283.333
215.09	-225.000
215.47	0.000
215.84	85.714
216.22	650.000
216.59	-60.000
216.97	-140.000
217.34	0.000
217.72	-25.000
218.09	0.000
218.47	-250.000
218.84	0.000
219.22	240.000
219.59	0.000
219.97	15.000
220.34	850.000
220.72	-33.333
221.09	-7.692
221.47	-200.000
221.84	70.000
222.22	-171.429
222.59	0.000
222.97	100.000
223.34	-20.000
223.72	-1200.000
224.09	0.000
224.46	-50.000
224.84	-80.000
225.21	-57.143
225.59	-325.000
225.96	-325.000
226.34	3.846
226.71	216.667
227.08	-50.000
227.46	-13.333
227.83	-175.000
228.21	-15.789
228.58	87.500
228.95	600.000
229.33	8.333
229.70	-70.000
230.08	68.421
230.45	210.000
230.82	-233.333
231.20	-7.143
231.57	91.667
231.95	45.455
232.32	9.091
232.69	10.000
233.07	-150.000
233.44	-35.294
233.81	-160.000
234.19	66.667
234.56	22.727
234.93	27.586
235.31	0.000
235.68	44.444
236.05	-25.000
236.43	26.923
236.80	36.000
237.17	-11.111
237.55	12.121
237.92	-90.000
238.29	-12.903
238.67	18.182
239.04	0.000
239.41	26.190
239.79	0.000
240.16	5.556
240.53	2.174
240.91	-17.647
241.28	8.197
241.65	13.433
242.02	16.216
242.40	-7.692
242.77	-1.333
243.14	4.878
243.51	5.263
243.89	10.256
244.26	14.851
244.63	11.765
245.00	9.346
245.38	6.140
245.75	1.770
246.12	7.143
246.49	-0.775
246.87	11.429
247.24	7.285
247.61	9.868
247.98	1.342
248.36	6.790
248.73	0.613
249.10	5.464
249.47	5.970
249.84	13.089
250.22	5.699
250.59	7.222
250.96	4.545
251.33	-2.551
251.70	8.547
252.08	6.667
252.45	7.787
252.82	7.438
253.19	3.516
253.56	3.042
253.94	2.692
254.31	6.439
254.68	9.790
255.05	11.726
255.42	6.122
255.79	5.178
256.16	1.987
256.54	5.960
256.91	6.557
257.28	3.607
257.65	1.592
258.02	5.015
258.39	6.268
258.76	8.869
259.14	6.322
259.51	5.187
259.88	8.215
260.25	6.667
260.62	8.493
260.99	8.470
261.36	7.507
261.73	6.101
262.10	7.143
262.47	7.775
262.85	8.838
263.22	5.455
263.59	3.158
263.96	5.882
264.33	5.882
264.70	4.691
265.07	7.876
265.44	8.617
265.81	5.324
266.18	7.483
266.55	8.036
266.92	7.062
267.29	8.534
267.66	7.982
268.03	8.297
268.40	8.351
268.77	4.556
269.14	5.507
269.51	6.798
269.88	6.762
270.25	7.445
270.62	6.751
270.99	8.283
271.36	7.921
271.73	5.894
272.10	6.212
272.47	5.210
272.84	6.426
273.21	6.212
273.58	6.855
273.95	4.038
274.32	5.703
274.69	5.803
275.06	7.326
275.43	5.360
275.80	7.937
276.17	5.370
276.54	6.343
276.91	6.977
277.28	5.606
277.65	6.463
278.02	6.618
278.39	7.065
278.76	4.569
279.13	6.560
279.50	7.216
279.87	5.546
280.23	3.697
280.60	5.593
280.97	7.237
281.34	7.301
281.71	7.783
282.08	6.645
282.45	5.074
282.82	6.593
283.19	4.523
283.56	5.410
283.92	6.907
284.29	8.847
284.66	5.911
285.03	4.647
285.40	7.264
285.77	6.037
286.14	7.328
286.51	6.088
286.87	4.107
287.24	7.078
287.61	5.680
287.98	3.323
288.35	7.988
288.72	6.509
289.08	6.589
289.45	5.473
289.82	5.422
290.19	6.466
290.56	6.056
290.93	7.133
291.29	5.785
291.66	5.372
292.03	5.020
292.40	5.986
292.77	5.526
293.13	5.683
293.50	4.336
293.87	5.369
294.24	7.467
294.60	5.689
294.97	5.503
295.34	7.682
295.71	5.675
296.08	5.039
296.44	6.250
296.81	6.577
297.18	5.853
297.55	4.717
297.91	5.457
298.28	5.687
298.65	4.875
299.02	4.486
299.38	5.835
299.75	5.841
300.12	4.630
300.48	5.645
300.85	5.737
301.22	6.040
301.59	5.594
301.95	5.763
302.32	5.444
302.69	4.929
303.05	5.658
303.42	5.211
303.79	5.312
304.15	5.258
304.52	4.228
304.89	5.864
305.25	6.625
305.62	5.329
305.99	5.876
306.35	5.343
306.72	5.688
307.09	5.787
307.45	5.176
307.82	5.752
308.19	4.743
308.55	5.882
308.92	5.453
309.29	6.801
309.65	4.873
310.02	4.257
310.38	5.217
310.75	6.117
311.12	6.232
311.48	5.963
311.85	6.838
312.22	5.313
312.58	6.009
312.95	5.832
313.31	5.691
313.68	7.418
314.05	6.956
314.41	6.102
314.78	6.630
315.14	6.624
315.51	7.479
315.87	7.741
316.24	7.945
316.61	8.259
316.97	6.787
317.34	5.996
317.70	7.773
318.07	7.760
318.43	7.653
318.80	8.361
319.16	7.039
319.53	7.027
319.89	6.047
320.26	8.096
320.62	7.092
320.99	7.941
321.35	8.780
321.72	8.186
322.08	6.763
322.45	7.859
322.81	7.671
323.18	8.053
323.54	8.190
323.91	8.185
324.27	7.401
324.64	8.564
325.00	8.126
325.37	8.272
325.73	8.347
326.10	9.165
326.46	8.306
326.83	9.768
327.19	8.898
327.56	8.458
327.92	7.789
328.29	8.952
328.65	7.956
329.01	8.714
329.38	9.014
329.74	10.188
330.11	8.990
330.47	8.762
330.84	8.699
331.20	9.333
331.56	7.972
331.93	8.787
332.29	8.898
332.66	8.721
333.02	8.375
333.38	8.054
333.75	7.912
334.11	8.841
334.48	8.086
334.84	8.666
335.20	7.725
335.57	8.600
335.93	8.595
336.29	8.153
336.66	7.822
337.02	8.194
337.38	8.333
337.75	9.174
338.11	8.747
338.47	8.354
338.84	7.614
339.20	7.414
339.56	7.825
339.93	8.621
340.29	9.179
340.65	7.867
341.02	8.220
341.38	7.680
341.74	7.667
342.11	8.850
342.47	7.863
342.83	8.052
343.20	8.013
343.56	8.741
343.92	8.167
344.28	8.438
344.65	8.837
345.01	8.268
345.37	8.787
345.73	7.638
346.10	9.048
346.46	7.358
346.82	8.764
347.19	8.098
347.55	8.574
347.91	7.578
348.27	7.967
348.63	7.845
349.00	7.681
349.36	8.401
349.72	8.185
350.08	8.395
350.45	7.148
350.81	7.391
351.17	7.970
351.53	8.946
351.89	8.504
352.26	7.313
352.62	7.612
352.98	7.710
353.34	7.618
353.70	7.550
354.07	7.824
354.43	7.441
354.79	7.779
355.15	7.800
355.51	8.845
355.87	7.180
356.24	8.973
356.60	7.021
356.96	7.561
357.32	7.584
357.68	6.881
358.04	7.111
358.40	7.164
358.77	7.602
359.13	7.829
359.49	7.584
359.85	7.542
360.21	8.393
360.57	7.681
360.93	7.475
361.29	7.860
361.66	7.096
362.02	8.559
362.38	7.871
362.74	7.751
363.10	7.497
363.46	7.618
363.82	7.884
364.18	7.037
364.54	7.815
364.90	8.161
365.26	7.448
365.62	8.400
365.98	8.101
366.35	8.121
366.71	6.735
367.07	7.645
367.43	8.404
367.79	7.299
368.15	8.094
368.51	7.442
368.87	8.818
369.23	7.933
369.59	7.923
369.95	7.437
370.31	7.968
370.67	7.978
371.03	7.687
371.39	7.253
371.75	7.497
372.11	7.927
372.47	7.448
372.83	8.508
373.19	8.406
373.55	7.046
373.91	8.112
374.27	7.503
374.63	7.713
374.99	7.493
375.35	7.597
375.71	7.419
376.07	6.972
376.42	7.431
376.78	8.515
377.14	7.923
377.50	8.033
377.86	8.374
378.22	8.024
378.58	8.264
378.94	7.688
379.30	7.850
379.66	8.524
380.02	7.848
380.38	7.719
380.74	7.268
381.09	7.375
381.45	8.068
381.81	8.138
382.17	8.017
382.53	7.836
382.89	8.296
383.25	8.734
383.61	7.407
383.97	7.656
384.32	7.715
384.68	7.251
385.04	8.329
385.40	7.778
385.76	7.972
386.12	7.959
386.48	8.471
386.83	7.986
387.19	7.706
387.55	6.866
387.91	8.276
388.27	8.083
388.62	8.076
388.98	7.276
389.34	8.309
389.70	8.425
390.06	8.348
390.42	7.952
390.77	8.549
391.13	7.864
391.49	8.152
391.85	7.818
392.20	7.770
392.56	8.506
392.92	8.451
393.28	8.513
393.64	7.877
393.99	8.542
394.35	8.411
394.71	8.383
395.07	7.365
395.42	7.824
395.78	8.349
396.14	8.497
396.50	7.957
396.85	7.931
397.21	7.988
397.57	8.009
397.92	8.362
398.28	7.876
398.64	7.494
399.00	7.644
399.35	7.801
399.71	7.283
400.07	8.198
400.42	8.207
400.78	7.697
401.14	8.480
401.49	7.675
401.85	8.895
402.21	8.575
402.57	7.864
402.92	7.979
403.28	7.377
403.63	7.458
403.99	7.720
404.35	7.902
404.70	8.385
405.06	7.717
405.42	8.080
405.77	8.615
406.13	7.888
406.49	8.333
406.84	8.199
407.20	8.440
407.55	7.571
407.91	7.228
408.27	7.833
408.62	7.563
408.98	7.777
409.34	7.625
409.69	7.417
410.05	8.206
410.40	7.715
410.76	7.628
411.11	7.832
411.47	7.494
411.83	7.584
412.18	7.771
412.54	7.647
412.89	7.742
413.25	7.111
413.60	7.065
413.96	7.925
414.31	7.932
414.67	7.871
415.03	7.692
415.38	6.999
415.74	7.147
416.09	7.958
416.45	7.702
416.80	8.201
417.16	8.174
417.51	7.783
417.87	8.522
418.22	7.186
418.58	7.125
418.93	7.858
419.29	6.782
419.64	7.803
420.00	7.181
420.35	7.524
420.71	7.295
421.06	7.246
421.42	7.798
421.77	7.324
422.12	7.664
422.48	6.964
422.83	7.831
423.19	7.374
423.54	7.024
423.90	7.786
424.25	8.213
424.61	6.774
424.96	7.304
425.31	7.537
425.67	6.978
426.02	6.696
426.38	7.118
426.73	7.031
427.09	8.131
427.44	6.772
427.79	6.855
428.15	6.735
428.50	6.461
428.85	7.405
429.21	8.085
429.56	6.861
429.92	6.978
430.27	7.229
430.62	7.084
430.98	6.936
431.33	6.598
431.68	6.705
432.04	7.110
432.39	6.802
432.74	6.906
433.10	6.869
433.45	6.299
433.80	6.760
434.16	6.973
434.51	6.835
434.86	6.352
435.22	6.642
435.57	6.781
435.92	6.956
436.28	6.371
436.63	6.936
436.98	6.441
437.34	6.933
437.69	6.164
438.04	6.187
438.39	7.754
438.75	6.087
439.10	6.342
439.45	6.708
439.81	6.045
440.16	6.756
440.51	6.410
440.86	6.059
441.22	6.538
441.57	6.761
441.92	6.596
442.27	6.616
442.63	6.657
442.98	7.204
443.33	6.523
443.68	6.987
444.03	6.773
444.39	6.288
444.74	6.891
445.09	6.285
445.44	6.639
445.79	6.466
446.15	7.246
446.50	6.563
446.85	7.004
447.20	6.576
447.55	6.590
447.91	6.073
448.26	6.237
448.61	6.270
448.96	6.652
449.31	6.045
449.66	5.719
450.02	6.540
450.37	7.086
450.72	6.082
451.07	6.492
451.42	6.644
451.77	5.948
452.12	6.151
452.47	5.764
452.83	5.743
453.18	6.188
453.53	5.859
453.88	6.074
454.23	6.158
454.58	6.674
454.93	5.583
455.28	6.623
455.63	5.799
455.98	6.536
456.34	6.066
456.69	5.644
457.04	5.792
457.39	5.710
457.74	7.215
458.09	5.821
458.44	5.603
458.79	6.550
459.14	6.240
459.49	6.735
459.84	6.139
460.19	6.052
460.54	6.076
460.89	6.247
461.24	6.207
461.59	6.253
461.94	4.906
462.29	6.271
462.64	5.794
462.99	5.587
463.34	6.295
463.69	6.213
464.04	6.670
464.39	6.110
464.74	5.758
465.09	6.286
465.44	6.223
465.79	5.976
466.14	6.618
466.49	6.474
466.84	5.895
467.19	5.723
467.54	5.053
467.89	5.690
468.24	6.094
468.59	5.327
468.94	4.953
469.29	4.859
469.64	5.086
469.99	5.163
470.34	5.074
470.68	6.357
471.03	5.632
471.38	5.428
471.73	5.397
472.08	5.964
472.43	5.298
472.78	5.856
473.13	5.499
473.48	5.982
473.83	5.920
474.17	5.217
474.52	5.652
474.87	6.035
475.22	5.972
475.57	5.815
475.92	5.973
476.27	5.644
476.61	5.659
476.96	5.266
477.31	5.594
477.66	5.876
478.01	4.881
478.36	5.583
478.70	4.778
479.05	5.266
479.40	5.528
479.75	6.196
480.10	5.542
480.45	6.199
480.79	5.850
481.14	5.607
481.49	5.089
481.84	5.614
482.19	5.634
482.53	5.160
482.88	5.272
483.23	5.469
483.58	5.328
483.92	5.275
484.27	5.377
484.62	5.363
484.97	5.599
485.31	5.597
485.66	5.563
486.01	5.669
486.36	5.878
486.70	6.118
487.05	6.042
487.40	5.851
487.75	5.776
488.09	5.692
488.44	5.425
488.79	5.970
489.13	5.576
489.48	5.049
489.83	5.191
490.17	4.658
490.52	5.296
490.87	5.499
491.22	5.069
491.56	5.247
491.91	5.102
492.26	4.976
492.60	5.247
492.95	5.090
493.30	4.796
493.64	5.212
493.99	4.825
494.34	4.704
494.68	4.754
495.03	4.978
495.37	4.927
495.72	4.853
496.07	5.346
496.41	4.376
496.76	5.254
497.11	4.841
497.45	4.963
497.80	5.020
498.14	4.853
498.49	5.009
498.84	4.890
499.18	4.813
499.53	5.516
499.87	5.275
500.22	4.141
500.56	4.588
500.91	4.394
501.26	5.500
501.60	4.596
501.95	5.080
502.29	4.695
502.64	4.854
502.98	5.479
503.33	5.054
503.67	4.623
504.02	5.254
504.36	5.451
504.71	4.410
505.06	4.729
505.40	4.479
505.75	4.827
506.09	4.788
506.44	4.643
506.78	5.183
507.13	5.164
507.47	4.453
507.82	5.019
508.16	4.589
508.51	4.548
508.85	4.440
509.19	4.974
509.54	5.235
509.88	4.614
510.23	4.177
510.57	5.268
510.92	5.322
511.26	4.570
511.61	4.394
511.95	4.783
512.30	4.874
512.64	3.798
512.98	4.452
513.33	4.839
513.67	4.539
514.02	4.701
514.36	3.939
514.70	3.958
515.05	4.797
515.39	4.934
515.74	4.931
516.08	5.018
516.42	4.867
516.77	3.996
517.11	4.435
517.46	4.878
517.80	4.810
518.14	5.604
518.49	3.850
518.83	4.417
519.17	4.470
519.52	4.822
519.86	4.541
520.20	5.218
520.55	4.491
520.89	4.448
521.23	4.690
521.58	4.181
521.92	4.419
522.26	4.066
522.61	4.109
522.95	5.306
523.29	4.368
523.64	4.148
523.98	5.248
524.32	4.986
524.66	4.496
525.01	4.700
525.35	3.446
525.69	4.292
526.04	5.052
526.38	4.483
526.72	4.671
527.06	4.516
527.41	4.548
527.75	4.513
528.09	5.195
528.43	4.737
528.78	4.104
529.12	4.014
529.46	4.666
529.80	4.348
530.15	4.464
530.49	3.618
530.83	4.900
531.17	3.345
531.51	4.813
531.86	4.868
532.20	5.549
532.54	4.129
532.88	3.818
533.22	4.832
533.57	4.847
533.91	4.714
534.25	5.088
534.59	3.966
534.93	4.018
535.27	4.113
535.62	4.889
535.96	4.532
536.30	4.230
536.64	4.745
536.98	5.474
537.32	5.000
537.66	4.242
538.01	4.653
538.35	4.629
538.69	4.147
539.03	5.457
539.37	4.888
539.71	5.586
540.05	4.796
540.39	3.912
540.73	4.372
541.07	4.598
541.42	4.548
541.76	4.686
542.10	4.222
542.44	4.446
542.78	4.562
543.12	4.827
543.46	4.151
543.80	4.317
544.14	4.069
544.48	5.142
544.82	4.907
545.16	4.711
545.50	4.374
545.84	4.654
546.18	5.062
546.52	4.268
546.86	4.969
547.20	4.580
547.54	4.370
547.88	4.400
548.22	4.035
548.56	4.915
548.90	3.761
549.24	4.620
549.58	4.858
549.92	4.018
550.26	5.243
550.60	4.595
550.94	5.175
551.28	4.488
551.62	4.447
551.96	4.725
552.30	5.226
552.64	4.916
552.98	4.492
553.32	4.695
553.66	4.309
554.00	4.729
554.34	4.376
554.68	4.261
555.02	4.139
555.36	4.668
555.69	4.612
556.03	3.531
556.37	5.131
556.71	4.502
557.05	4.473
557.39	3.384
557.73	4.690
558.07	3.709
558.41	4.518
558.75	3.922
559.08	4.384
559.42	3.978
559.76	4.749
560.10	4.153
560.44	4.090
560.78	5.688
561.12	4.495
561.45	4.258
561.79	4.457
562.13	5.299
562.47	4.439
562.81	3.544
563.15	4.356
563.48	3.915
563.82	4.232
564.16	4.119
564.50	4.648
564.84	5.015
565.17	4.647
565.51	4.891
565.85	4.572
566.19	4.032
566.52	4.564
566.86	3.962
567.20	4.350
567.54	4.514
567.88	4.587
568.21	4.990
568.55	4.940
568.89	4.857
569.23	4.520
569.56	4.807
569.90	4.882
570.24	4.688
570.57	5.003
570.91	4.685
571.25	5.062
571.59	5.149
571.92	5.117
572.26	5.214
572.60	5.023
572.93	5.539
573.27	5.058
573.61	5.717
573.95	5.365
574.28	5.536
574.62	4.798
574.96	4.830
575.29	5.221
575.63	4.943
575.97	5.030
576.30	5.379
576.64	5.154
576.98	5.376
577.31	5.212
577.65	5.180
577.98	5.196
578.32	5.203
578.66	5.126
578.99	5.202
579.33	5.158
579.67	5.213
580.00	5.102
580.34	5.497
580.67	5.207
581.01	5.236
581.35	5.396
581.68	5.217
582.02	5.261
582.35	5.442
582.69	5.542
583.02	5.102
583.36	5.237
583.70	5.294
584.03	5.208
584.37	5.258
584.70	5.452
585.04	5.045
585.37	5.325
585.71	5.394
586.04	5.262
586.38	5.223
586.72	5.114
587.05	4.758
587.39	5.061
587.72	4.904
588.06	5.271
588.39	5.402
588.73	5.238
589.06	5.333
589.40	4.794
589.73	4.949
590.07	5.040
590.40	4.936
590.73	4.949
591.07	5.063
591.40	4.860
591.74	4.452
592.07	5.238
592.41	4.456
592.74	5.041
593.08	5.064
593.41	5.308
593.75	5.201
594.08	4.847
594.41	5.160
594.75	4.782
595.08	5.013
595.42	4.935
595.75	4.779
596.09	5.456
596.42	4.801
596.75	4.863
597.09	5.172
597.42	4.887
597.75	5.135
598.09	5.437
598.42	5.187
598.76	4.624
599.09	5.020
599.42	5.196
599.76	5.249
600.09	4.972
600.42	5.072
600.76	5.053
601.09	5.178
601.42	4.978
601.76	4.862
602.09	5.039
602.42	4.798
602.76	4.834
603.09	4.699
603.42	4.552
603.76	5.039
604.09	4.933
604.42	5.101
604.76	4.833
605.09	5.146
605.42	4.825
605.75	5.346
606.09	4.293
606.42	4.670
606.75	4.610
607.09	4.416
607.42	4.971
607.75	5.393
608.08	5.130
608.42	4.756
608.75	5.182
609.08	4.499
609.41	4.588
609.75	4.643
610.08	5.013
610.41	4.588
610.74	5.084
611.07	4.707
611.41	5.247
611.74	4.896
612.07	4.862
612.40	4.278
612.73	4.743
613.07	4.792
613.40	4.860
613.73	4.863
614.06	4.465
614.39	4.713
614.72	5.289
615.06	4.572
615.39	4.592
615.72	4.645
616.05	4.371
616.38	5.096
616.71	4.336
617.05	4.633
617.38	5.136
617.71	5.400
618.04	5.397
618.37	4.918
618.70	4.412
619.03	4.002
619.36	4.377
619.69	4.676
620.03	4.331
620.36	4.049
620.69	4.812
621.02	5.315
621.35	4.136
621.68	4.555
622.01	3.772
622.34	4.812
622.67	4.055
623.00	3.779
623.33	4.313
623.66	4.669
623.99	4.345
624.32	5.458
624.65	4.633
624.99	4.096
625.32	5.617
625.65	4.450
625.98	4.136
626.31	4.748
626.64	4.396
626.97	3.976
627.30	3.721
627.63	4.201
627.96	5.180
628.29	3.969
628.62	3.778
628.95	4.032
629.28	3.314
629.61	5.051
629.94	4.519
630.26	3.644
630.59	2.936
630.92	3.723
631.25	4.651
631.58	4.708
631.91	3.374
632.24	3.746
632.57	3.510
632.90	3.611
633.23	4.184
633.56	2.959
633.89	2.583
634.22	3.950
634.55	3.967
634.88	2.706
635.20	4.090
635.53	3.051
635.86	3.684
636.19	4.666
636.52	3.797
636.85	3.984
637.18	4.366
637.51	3.226
637.83	4.319
638.16	3.802
638.49	2.347
638.82	3.833
639.15	2.405
639.48	4.388
639.81	3.233
640.13	5.300
640.46	2.909
640.79	2.206
641.12	4.596
641.45	2.886
641.77	5.263
642.10	3.150
642.43	4.255
642.76	2.439
643.09	3.836
643.41	2.521
643.74	3.586
644.07	3.586
644.40	3.536
644.73	3.048
645.05	3.084
645.38	3.741
645.71	4.692
646.04	5.595
646.36	4.672
646.69	2.761
647.02	4.128
647.35	4.427
647.67	3.060
648.00	3.025
648.33	4.204
648.66	3.424
648.98	3.129
649.31	2.436
649.64	4.382
649.96	3.979
650.29	1.530
650.62	3.253
650.94	3.153
651.27	0.898
651.60	3.363
651.92	2.128
652.25	4.631
652.58	3.714
652.90	4.070
653.23	4.366
653.56	2.996
653.88	5.758
654.21	4.930
654.54	3.757
654.86	4.108
655.19	3.137
655.52	4.469
655.84	5.373
656.17	6.744
656.49	9.337
656.82	10.333
657.15	8.089
657.47	6.115
657.80	4.427
658.13	3.384
658.45	4.662
658.78	5.157
659.10	5.035
659.43	5.087
659.75	4.621
