SpectraSuite Data File
++++++++++++++++++++++++++++++++++++
Date: Thu May 14 16:07:50 PDT 2015
User: schluterlab
Dark Spectrum Present: Yes
Reference Spectrum Present: Yes
Number of Sampled Component Spectra: 1
Spectrometers: USB2E3373
Integration Time (usec): 3000 (USB2E3373)
Spectra Averaged: 3 (USB2E3373)
Boxcar Smoothing: 0 (USB2E3373)
Correct for Electrical Dark: No (USB2E3373)
Strobe/Lamp Enabled: No (USB2E3373)
Correct for Detector Non-linearity: No (USB2E3373)
Correct for Stray Light: No (USB2E3373)
Number of Pixels in Processed Spectrum: 2048
>>>>>Begin Processed Spectral Data<<<<<
178.53	0.000
178.91	214.286
179.29	-2200.000
179.67	-1400.000
180.04	157.143
180.42	130.000
180.80	420.000
181.18	-1900.000
181.56	-700.000
181.94	175.000
182.31	-175.000
182.69	566.667
183.07	-450.000
183.45	500.000
183.83	-150.000
184.20	-66.667
184.58	1600.000
184.96	-525.000
185.34	-55.556
185.72	-200.000
186.09	255.556
186.47	400.000
186.85	440.000
187.23	-77.778
187.61	-1800.000
187.98	260.000
188.36	450.000
188.74	-450.000
189.12	-300.000
189.49	-81.250
189.87	-187.500
190.25	-177.778
190.63	-340.000
191.00	-111.111
191.38	0.000
191.76	-175.000
192.14	-150.000
192.51	700.000
192.89	-116.667
193.27	0.000
193.65	-185.714
194.02	-2700.000
194.40	-228.571
194.78	342.857
195.15	0.000
195.53	-9.091
195.91	0.000
196.29	-25.000
196.66	0.000
197.04	-1700.000
197.42	-285.714
197.79	-700.000
198.17	-150.000
198.55	-300.000
198.92	-22.222
199.30	-150.000
199.68	-72.727
200.05	-42.857
200.43	-1500.000
200.81	242.857
201.18	0.000
201.56	233.333
201.94	0.000
202.31	800.000
202.69	-177.778
203.07	200.000
203.44	-177.778
203.82	-400.000
204.19	-116.667
204.57	-333.333
204.95	-100.000
205.32	-1900.000
205.70	550.000
206.08	-216.667
206.45	-83.333
206.83	380.000
207.20	-266.667
207.58	-320.000
207.96	-266.667
208.33	-200.000
208.71	150.000
209.08	-33.333
209.46	0.000
209.84	300.000
210.21	750.000
210.59	950.000
210.96	733.333
211.34	-425.000
211.71	-112.500
212.09	-900.000
212.46	0.000
212.84	1250.000
213.22	-400.000
213.59	-200.000
213.97	-180.000
214.34	-600.000
214.72	250.000
215.09	-425.000
215.47	0.000
215.84	71.429
216.22	1500.000
216.59	-140.000
216.97	-300.000
217.34	-300.000
217.72	-137.500
218.09	-300.000
218.47	-525.000
218.84	0.000
219.22	260.000
219.59	-47.059
219.97	-45.000
220.34	750.000
220.72	-200.000
221.09	-15.385
221.47	-466.667
221.84	-30.000
222.22	-314.286
222.59	0.000
222.97	-162.500
223.34	-380.000
223.72	-2200.000
224.09	-250.000
224.46	-325.000
224.84	-100.000
225.21	-157.143
225.59	-250.000
225.96	-475.000
226.34	-11.538
226.71	350.000
227.08	-650.000
227.46	-26.667
227.83	-350.000
228.21	-47.368
228.58	137.500
228.95	1150.000
229.33	-25.000
229.70	-70.000
230.08	-15.789
230.45	190.000
230.82	-66.667
231.20	-71.429
231.57	-66.667
231.95	-127.273
232.32	-45.455
232.69	-40.000
233.07	-500.000
233.44	-88.235
233.81	-160.000
234.19	-72.222
234.56	-45.455
234.93	-10.345
235.31	-10.526
235.68	-44.444
236.05	-50.000
236.43	-15.385
236.80	0.000
237.17	-14.815
237.55	-60.606
237.92	-210.000
238.29	-22.581
238.67	-18.182
239.04	-38.889
239.41	-28.571
239.79	-4.348
240.16	-29.630
240.53	-41.304
240.91	-35.294
241.28	-29.508
241.65	-7.463
242.02	-18.919
242.40	-33.846
242.77	-17.333
243.14	-26.829
243.51	-31.579
243.89	-28.205
244.26	-4.950
244.63	-2.941
245.00	-5.607
245.38	-7.895
245.75	-23.009
246.12	-9.524
246.49	-12.403
246.87	-1.429
247.24	-7.285
247.61	-9.211
247.98	-14.765
248.36	-14.198
248.73	-15.337
249.10	-6.011
249.47	-3.483
249.84	-2.094
250.22	-9.845
250.59	-6.667
250.96	-1.818
251.33	-8.673
251.70	-2.137
252.08	-5.417
252.45	-3.689
252.82	-9.091
253.19	-8.984
253.56	-3.042
253.94	-5.769
254.31	-7.197
254.68	-0.350
255.05	0.651
255.42	-5.782
255.79	-6.472
256.16	-3.311
256.54	-5.298
256.91	-4.918
257.28	-4.262
257.65	-4.777
258.02	-3.835
258.39	-4.274
258.76	-1.835
259.14	-0.575
259.51	-5.476
259.88	-4.533
260.25	-2.222
260.62	-3.014
260.99	-2.186
261.36	-1.877
261.73	-5.305
262.10	-5.769
262.47	-4.826
262.85	0.000
263.22	-4.416
263.59	-3.947
263.96	-2.813
264.33	-4.348
264.70	-3.704
265.07	-0.716
265.44	-1.361
265.81	-3.704
266.18	-2.268
266.55	-2.009
266.92	-4.784
267.29	-0.219
267.66	-2.882
268.03	-2.838
268.40	-2.923
268.77	-5.011
269.14	-5.066
269.51	-1.535
269.88	-0.615
270.25	-3.018
270.62	-2.110
270.99	-1.010
271.36	-1.980
271.73	-1.179
272.10	-1.202
272.47	-2.004
272.84	-3.213
273.21	-3.407
273.58	-1.411
273.95	-1.923
274.32	-3.232
274.69	-4.255
275.06	-2.381
275.43	-3.882
275.80	-1.764
276.17	-1.667
276.54	-1.493
276.91	-3.936
277.28	-3.255
277.65	-1.616
278.02	-1.287
278.39	-1.087
278.76	-4.042
279.13	-2.482
279.50	-0.344
279.87	-1.073
280.23	-4.049
280.60	-2.373
280.97	-1.316
281.34	-2.886
281.71	-0.169
282.08	-0.997
282.45	-2.619
282.82	-2.041
283.19	-3.877
283.56	-2.459
283.92	0.000
284.29	0.474
284.66	-0.164
285.03	-2.083
285.40	-0.773
285.77	-2.012
286.14	-0.305
286.51	-2.131
286.87	-2.370
287.24	-2.410
287.61	-2.541
287.98	-2.115
288.35	-1.775
288.72	-0.888
289.08	0.293
289.45	-2.219
289.82	-2.861
290.19	-1.293
290.56	-0.986
290.93	-1.569
291.29	-1.791
291.66	-1.377
292.03	-1.493
292.40	-0.680
292.77	-1.078
293.13	-1.624
293.50	-1.051
293.87	-2.013
294.24	0.267
294.60	0.379
294.97	-4.027
295.34	0.384
295.71	-1.387
296.08	-0.129
296.44	-1.838
296.81	-1.462
297.18	-1.494
297.55	-0.118
297.91	-1.542
298.28	-1.540
298.65	-0.595
299.02	-1.417
299.38	-0.801
299.75	0.234
300.12	0.000
300.48	0.230
300.85	0.787
301.22	0.336
301.59	0.000
301.95	-0.226
302.32	0.111
302.69	-0.548
303.05	-0.109
303.42	0.443
303.79	0.000
304.15	0.841
304.52	-1.163
304.89	0.524
305.25	1.346
305.62	0.522
305.99	0.206
306.35	1.411
306.72	0.620
307.09	-0.406
307.45	0.518
307.82	1.615
308.19	0.605
308.55	1.832
308.92	0.389
309.29	2.586
309.65	0.097
310.02	0.891
310.38	1.575
310.75	1.650
311.12	2.780
311.48	2.444
311.85	0.665
312.22	2.562
312.58	3.099
312.95	2.008
313.31	2.891
313.68	3.846
314.05	4.426
314.41	4.098
314.78	3.361
315.14	3.993
315.51	4.617
315.87	4.680
316.24	4.475
316.61	5.062
316.97	6.154
317.34	4.674
317.70	6.638
318.07	6.790
318.43	5.442
318.80	7.023
319.16	6.867
319.53	5.484
319.89	7.537
320.26	7.740
320.62	7.004
320.99	8.033
321.35	8.503
321.72	9.581
322.08	8.476
322.45	8.491
322.81	9.206
323.18	8.584
323.54	10.000
323.91	9.431
324.27	10.327
324.64	11.167
325.00	10.862
325.37	11.466
325.73	10.992
326.10	12.084
326.46	12.052
326.83	12.170
327.19	12.441
327.56	12.806
327.92	13.297
328.29	12.177
328.65	13.735
329.01	14.129
329.38	13.901
329.74	14.384
330.11	14.983
330.47	14.575
330.84	14.298
331.20	14.750
331.56	15.165
331.93	15.063
332.29	14.576
332.66	15.615
333.02	14.405
333.38	14.765
333.75	14.815
334.11	15.013
334.48	16.172
334.84	14.613
335.20	14.694
335.57	15.008
335.93	16.364
336.29	14.642
336.66	14.298
337.02	14.465
337.38	16.582
337.75	14.132
338.11	15.223
338.47	13.565
338.84	14.129
339.20	14.743
339.56	14.909
339.93	13.875
340.29	14.654
340.65	15.004
341.02	15.802
341.38	14.632
341.74	14.609
342.11	14.883
342.47	15.330
342.83	14.573
343.20	15.290
343.56	15.477
343.92	14.732
344.28	15.391
344.65	14.729
345.01	14.899
345.37	15.163
345.73	13.562
346.10	13.807
346.46	14.557
346.82	14.532
347.19	14.897
347.55	15.630
347.91	14.710
348.27	14.643
348.63	14.623
349.00	13.497
349.36	13.829
349.72	15.030
350.08	15.305
350.45	13.536
350.81	13.348
351.17	15.113
351.53	14.481
351.89	14.806
352.26	13.806
352.62	13.284
352.98	13.206
353.34	13.891
353.70	15.177
354.07	14.903
354.43	14.123
354.79	13.837
355.15	14.717
355.51	14.620
355.87	14.660
356.24	14.221
356.60	14.560
356.96	14.159
357.32	13.680
357.68	15.227
358.04	13.698
358.40	13.358
358.77	13.743
359.13	13.220
359.49	12.862
359.85	14.213
360.21	13.343
360.57	13.855
360.93	13.188
361.29	14.807
361.66	13.903
362.02	14.475
362.38	13.493
362.74	14.036
363.10	14.512
363.46	13.227
363.82	13.707
364.18	14.004
364.54	13.209
364.90	14.314
365.26	12.828
365.62	13.733
365.98	14.159
366.35	14.161
366.71	13.333
367.07	14.885
367.43	14.905
367.79	15.328
368.15	14.716
368.51	14.344
368.87	13.847
369.23	13.400
369.59	14.413
369.95	14.266
370.31	14.247
370.67	13.686
371.03	14.612
371.39	13.835
371.75	14.512
372.11	13.889
372.47	14.015
372.83	13.678
373.19	14.543
373.55	14.634
373.91	14.042
374.27	14.166
374.63	14.614
374.99	14.523
375.35	15.130
375.71	15.097
376.07	14.655
376.42	14.610
376.78	15.227
377.14	14.161
377.50	14.042
377.86	14.778
378.22	13.832
378.58	15.279
378.94	13.732
379.30	14.528
379.66	14.580
380.02	15.061
380.38	14.804
380.74	15.380
381.09	14.925
381.45	14.886
381.81	15.867
382.17	15.618
382.53	15.614
382.89	15.406
383.25	16.002
383.61	14.352
383.97	15.135
384.32	15.610
384.68	14.965
385.04	15.674
385.40	15.321
385.76	14.713
386.12	15.320
386.48	15.647
386.83	15.673
387.19	15.295
387.55	14.906
387.91	15.639
388.27	15.647
388.62	15.292
388.98	15.341
389.34	16.205
389.70	16.153
390.06	15.867
390.42	16.145
390.77	16.556
391.13	15.845
391.49	15.761
391.85	15.576
392.20	15.955
392.56	16.243
392.92	16.412
393.28	16.252
393.64	15.922
393.99	16.851
394.35	16.180
394.71	16.527
395.07	16.108
395.42	16.048
395.78	16.210
396.14	16.875
396.50	16.152
396.85	15.862
397.21	16.154
397.57	17.020
397.92	17.526
398.28	16.784
398.64	15.904
399.00	15.497
399.35	16.387
399.71	16.141
400.07	16.227
400.42	16.822
400.78	16.088
401.14	16.904
401.49	17.112
401.85	16.919
402.21	17.439
402.57	16.784
402.92	16.726
403.28	16.159
403.63	16.229
403.99	17.815
404.35	17.567
404.70	17.167
405.06	17.011
405.42	16.452
405.77	17.230
406.13	16.802
406.49	16.948
406.84	16.953
407.20	16.937
407.55	16.475
407.91	16.342
408.27	16.608
408.62	17.336
408.98	17.411
409.34	16.481
409.69	18.109
410.05	17.585
410.40	18.503
410.76	18.003
411.11	17.300
411.47	17.752
411.83	18.048
412.18	17.831
412.54	18.020
412.89	17.753
413.25	17.833
413.60	17.576
413.96	18.357
414.31	17.847
414.67	18.306
415.03	17.846
415.38	18.222
415.74	17.715
416.09	18.137
416.45	18.347
416.80	18.421
417.16	18.263
417.51	18.555
417.87	18.394
418.22	19.341
418.58	18.092
418.93	18.568
419.29	18.619
419.64	19.208
420.00	18.338
420.35	19.933
420.71	19.816
421.06	18.114
421.42	18.979
421.77	18.901
422.12	19.345
422.48	19.048
422.83	19.715
423.19	19.310
423.54	19.746
423.90	19.382
424.25	19.307
424.61	19.288
424.96	19.385
425.31	20.064
425.67	19.163
426.02	20.421
426.38	19.805
426.73	19.587
427.09	22.088
427.44	20.098
427.79	19.071
428.15	19.920
428.50	20.000
428.85	21.010
429.21	20.904
429.56	20.484
429.92	20.344
430.27	20.482
430.62	20.127
430.98	21.102
431.33	21.017
431.68	20.546
432.04	20.823
432.39	20.193
432.74	21.290
433.10	21.255
433.45	21.182
433.80	21.298
434.16	20.558
434.51	21.531
434.86	23.073
435.22	21.413
435.57	22.877
435.92	22.482
436.28	21.445
436.63	21.846
436.98	21.739
437.34	23.055
437.69	21.629
438.04	22.105
438.39	22.803
438.75	22.357
439.10	23.626
439.45	23.030
439.81	22.712
440.16	23.378
440.51	23.467
440.86	22.902
441.22	22.294
441.57	23.113
441.92	22.502
442.27	23.687
442.63	23.746
442.98	23.799
443.33	23.882
443.68	24.579
444.03	24.459
444.39	24.919
444.74	24.451
445.09	24.379
445.44	24.816
445.79	25.479
446.15	24.923
446.50	24.341
446.85	25.049
447.20	25.048
447.55	24.895
447.91	24.450
448.26	24.630
448.61	24.389
448.96	25.483
449.31	24.867
449.66	25.490
450.02	25.316
450.37	25.413
450.72	25.457
451.07	25.228
451.42	25.534
451.77	25.125
452.12	25.734
452.47	25.609
452.83	25.507
453.18	25.978
453.53	25.330
453.88	25.400
454.23	26.045
454.58	25.653
454.93	26.274
455.28	27.032
455.63	25.753
455.98	26.592
456.34	25.854
456.69	26.396
457.04	26.300
457.39	26.109
457.74	26.622
458.09	25.755
458.44	26.131
458.79	25.374
459.14	26.009
459.49	26.429
459.84	26.390
460.19	26.208
460.54	26.917
460.89	26.734
461.24	26.034
461.59	26.563
461.94	25.271
462.29	26.484
462.64	25.890
462.99	25.989
463.34	26.931
463.69	25.967
464.04	25.848
464.39	26.401
464.74	26.853
465.09	26.932
465.44	25.751
465.79	26.970
466.14	26.472
466.49	25.789
466.84	26.336
467.19	26.358
467.54	26.968
467.89	26.207
468.24	25.928
468.59	25.420
468.94	25.583
469.29	25.255
469.64	25.874
469.99	25.685
470.34	26.671
470.68	26.316
471.03	27.505
471.38	26.488
471.73	26.008
472.08	26.332
472.43	27.032
472.78	26.008
473.13	26.169
473.48	26.344
473.83	27.278
474.17	26.202
474.52	25.616
474.87	26.689
475.22	26.817
475.57	26.012
475.92	26.132
476.27	26.624
476.61	25.545
476.96	26.017
477.31	26.337
477.66	26.285
478.01	26.182
478.36	26.022
478.70	26.404
479.05	26.994
479.40	26.061
479.75	26.657
480.10	25.959
480.45	26.117
480.79	26.168
481.14	26.011
481.49	26.533
481.84	26.153
482.19	26.151
482.53	26.279
482.88	26.362
483.23	25.656
483.58	25.415
483.92	26.152
484.27	25.318
484.62	25.660
484.97	25.622
485.31	25.202
485.66	24.899
486.01	24.432
486.36	25.226
486.70	25.835
487.05	26.406
487.40	26.074
487.75	25.598
488.09	25.106
488.44	25.493
488.79	25.531
489.13	25.561
489.48	24.505
489.83	24.427
490.17	24.666
490.52	24.179
490.87	25.338
491.22	25.173
491.56	25.597
491.91	25.338
492.26	24.751
492.60	24.617
492.95	24.923
493.30	25.280
493.64	24.792
493.99	25.263
494.34	25.174
494.68	24.325
495.03	25.286
495.37	24.678
495.72	24.127
496.07	25.285
496.41	24.324
496.76	24.145
497.11	23.949
497.45	24.687
497.80	23.989
498.14	24.762
498.49	24.357
498.84	24.223
499.18	23.572
499.53	24.798
499.87	24.659
500.22	24.310
500.56	23.752
500.91	24.439
501.26	24.364
501.60	23.641
501.95	23.491
502.29	24.133
502.64	24.180
502.98	23.339
503.33	23.326
503.67	22.939
504.02	23.161
504.36	24.263
504.71	24.024
505.06	23.647
505.40	23.172
505.75	23.087
506.09	23.297
506.44	23.120
506.78	23.349
507.13	22.914
507.47	23.543
507.82	23.532
508.16	23.088
508.51	23.535
508.85	23.571
509.19	22.833
509.54	23.535
509.88	22.681
510.23	22.292
510.57	23.200
510.92	22.690
511.26	22.751
511.61	21.729
511.95	22.889
512.30	23.191
512.64	22.089
512.98	22.211
513.33	22.732
513.67	22.030
514.02	22.586
514.36	22.251
514.70	22.500
515.05	23.097
515.39	22.047
515.74	21.474
516.08	22.979
516.42	23.182
516.77	22.766
517.11	22.125
517.46	21.527
517.80	22.394
518.14	22.524
518.49	21.475
518.83	22.246
519.17	21.163
519.52	21.488
519.86	21.225
520.20	22.151
520.55	21.961
520.89	21.171
521.23	21.552
521.58	20.847
521.92	21.360
522.26	21.649
522.61	21.238
522.95	20.992
523.29	21.034
523.64	20.516
523.98	21.734
524.32	22.006
524.66	20.433
525.01	20.781
525.35	19.874
525.69	20.244
526.04	20.264
526.38	21.034
526.72	20.646
527.06	21.173
527.41	20.991
527.75	20.368
528.09	20.484
528.43	19.834
528.78	19.653
529.12	19.954
529.46	19.899
529.80	19.908
530.15	19.710
530.49	19.336
530.83	19.362
531.17	19.534
531.51	18.652
531.86	20.373
532.20	20.305
532.54	19.210
532.88	19.030
533.22	19.976
533.57	18.984
533.91	19.641
534.25	19.389
534.59	20.000
534.93	18.676
535.27	19.549
535.62	19.272
535.96	18.884
536.30	18.096
536.64	19.459
536.98	19.557
537.32	17.778
537.66	18.403
538.01	18.973
538.35	18.697
538.69	17.849
539.03	18.578
539.37	18.139
539.71	18.559
540.05	18.046
540.39	17.665
540.73	17.972
541.07	18.148
541.42	17.011
541.76	18.209
542.10	17.129
542.44	17.722
542.78	18.309
543.12	17.938
543.46	17.582
543.80	17.146
544.14	17.115
544.48	17.553
544.82	17.714
545.16	17.054
545.50	18.095
545.84	16.963
546.18	17.778
546.52	17.325
546.86	16.478
547.20	17.176
547.54	16.479
547.88	17.179
548.22	16.959
548.56	17.379
548.90	16.000
549.24	17.386
549.58	15.962
549.92	16.454
550.26	16.958
550.60	15.826
550.94	17.012
551.28	16.700
551.62	16.307
551.96	15.663
552.30	16.444
552.64	16.490
552.98	15.970
553.32	16.849
553.66	15.949
554.00	16.456
554.34	16.602
554.68	16.010
555.02	15.309
555.36	16.042
555.69	15.375
556.03	14.880
556.37	16.333
556.71	14.458
557.05	15.591
557.39	14.532
557.73	15.588
558.07	14.437
558.41	14.817
558.75	14.469
559.08	14.683
559.42	14.815
559.76	14.111
560.10	14.200
560.44	14.578
560.78	15.500
561.12	14.901
561.45	14.173
561.79	14.591
562.13	14.233
562.47	13.933
562.81	14.367
563.15	13.699
563.48	13.673
563.82	14.813
564.16	13.931
564.50	13.588
564.84	13.864
565.17	13.529
565.51	12.946
565.85	13.658
566.19	14.171
566.52	13.283
566.86	13.356
567.20	13.377
567.54	12.693
567.88	13.150
568.21	12.994
568.55	13.525
568.89	12.937
569.23	13.308
569.56	12.935
569.90	12.830
570.24	12.513
570.57	12.733
570.91	12.400
571.25	13.133
571.59	12.747
571.92	12.820
572.26	12.520
572.60	12.613
572.93	12.775
573.27	12.813
573.61	12.414
573.95	12.285
574.28	12.077
574.62	11.915
574.96	11.998
575.29	11.831
575.63	12.012
575.97	12.000
576.30	11.892
576.64	11.501
576.98	11.708
577.31	11.673
577.65	11.907
577.98	11.634
578.32	11.509
578.66	11.478
578.99	11.509
579.33	11.716
579.67	11.469
580.00	11.306
580.34	11.606
580.67	11.496
581.01	11.251
581.35	10.968
581.68	11.003
582.02	11.205
582.35	11.476
582.69	10.931
583.02	11.175
583.36	11.255
583.70	10.725
584.03	10.871
584.37	10.837
584.70	10.465
585.04	10.416
585.37	10.826
585.71	10.939
586.04	10.480
586.38	10.585
586.72	10.278
587.05	10.003
587.39	10.421
587.72	10.335
588.06	10.542
588.39	10.331
588.73	10.265
589.06	10.468
589.40	10.449
589.73	10.540
590.07	10.212
590.40	10.446
590.73	10.322
591.07	9.903
591.40	9.642
591.74	9.459
592.07	10.434
592.41	10.095
592.74	9.691
593.08	10.382
593.41	9.740
593.75	9.828
594.08	10.118
594.41	9.487
594.75	9.499
595.08	10.027
595.42	9.838
595.75	9.719
596.09	9.624
596.42	9.853
596.75	9.958
597.09	9.778
597.42	9.337
597.75	9.722
598.09	9.444
598.42	10.052
598.76	9.247
599.09	9.149
599.42	9.118
599.76	8.881
600.09	9.276
600.42	9.309
600.76	9.478
601.09	8.596
601.42	8.857
601.76	9.000
602.09	8.578
602.42	8.470
602.76	8.930
603.09	8.884
603.42	8.996
603.76	8.140
604.09	9.049
604.42	9.101
604.76	7.991
605.09	8.656
605.42	9.011
605.75	8.500
606.09	8.361
606.42	8.245
606.75	8.246
607.09	8.333
607.42	7.977
607.75	8.128
608.08	8.564
608.42	8.424
608.75	8.209
609.08	7.895
609.41	8.513
609.75	8.348
610.08	8.487
610.41	7.647
610.74	8.361
611.07	8.437
611.41	8.700
611.74	8.822
612.07	8.322
612.40	7.842
612.73	7.628
613.07	8.802
613.40	8.470
613.73	7.800
614.06	8.292
614.39	8.552
614.72	7.472
615.06	7.844
615.39	7.395
615.72	7.867
616.05	8.208
616.38	7.215
616.71	7.889
617.05	7.721
617.38	8.454
617.71	7.181
618.04	7.555
618.37	7.923
618.70	7.692
619.03	7.348
619.36	7.768
619.69	7.303
620.03	7.659
620.36	7.607
620.69	7.403
621.02	7.283
621.35	8.345
621.68	7.303
622.01	6.619
622.34	6.276
622.67	7.423
623.00	6.140
623.33	7.498
623.66	7.523
623.99	6.847
624.32	8.057
624.65	7.336
624.99	7.022
625.32	7.446
625.65	7.552
625.98	6.780
626.31	7.300
626.64	7.179
626.97	7.052
627.30	6.606
627.63	6.077
627.96	7.508
628.29	6.381
628.62	5.542
628.95	6.486
629.28	6.372
629.61	6.481
629.94	6.276
630.26	6.186
630.59	5.699
630.92	6.234
631.25	7.245
631.58	6.685
631.91	4.967
632.24	5.956
632.57	5.882
632.90	6.118
633.23	6.429
633.56	6.939
633.89	6.198
634.22	6.445
634.55	6.054
634.88	4.437
635.20	6.674
635.53	5.763
635.86	5.742
