SpectraSuite Data File
++++++++++++++++++++++++++++++++++++
Date: Thu May 14 16:18:40 PDT 2015
User: schluterlab
Dark Spectrum Present: Yes
Reference Spectrum Present: Yes
Number of Sampled Component Spectra: 1
Spectrometers: USB2E3373
Integration Time (usec): 3000 (USB2E3373)
Spectra Averaged: 3 (USB2E3373)
Boxcar Smoothing: 0 (USB2E3373)
Correct for Electrical Dark: No (USB2E3373)
Strobe/Lamp Enabled: No (USB2E3373)
Correct for Detector Non-linearity: No (USB2E3373)
Correct for Stray Light: No (USB2E3373)
Number of Pixels in Processed Spectrum: 2048
>>>>>Begin Processed Spectral Data<<<<<
178.53	0.000
178.91	100.000
179.29	-2200.000
179.67	-1100.000
180.04	171.429
180.42	90.000
180.80	380.000
181.18	-300.000
181.56	-100.000
181.94	175.000
182.31	-100.000
182.69	33.333
183.07	-250.000
183.45	125.000
183.83	-150.000
184.20	-200.000
184.58	300.000
184.96	-100.000
185.34	-11.111
185.72	20.000
186.09	133.333
186.47	950.000
186.85	420.000
187.23	-177.778
187.61	-500.000
187.98	100.000
188.36	375.000
188.74	-125.000
189.12	-133.333
189.49	-37.500
189.87	50.000
190.25	11.111
190.63	40.000
191.00	-33.333
191.38	0.000
191.76	-200.000
192.14	33.333
192.51	200.000
192.89	33.333
193.27	0.000
193.65	-28.571
194.02	-1300.000
194.40	0.000
194.78	142.857
195.15	0.000
195.53	-72.727
195.91	0.000
196.29	-50.000
196.66	0.000
197.04	-300.000
197.42	-171.429
197.79	-300.000
198.17	-87.500
198.55	-57.143
198.92	-11.111
199.30	0.000
199.68	9.091
200.05	35.714
200.43	-400.000
200.81	100.000
201.18	0.000
201.56	200.000
201.94	0.000
202.31	33.333
202.69	-111.111
203.07	700.000
203.44	-55.556
203.82	-250.000
204.19	25.000
204.57	33.333
204.95	-150.000
205.32	200.000
205.70	-0.000
206.08	-150.000
206.45	-50.000
206.83	360.000
207.20	-83.333
207.58	-240.000
207.96	33.333
208.33	0.000
208.71	8.333
209.08	216.667
209.46	0.000
209.84	183.333
210.21	300.000
210.59	100.000
210.96	366.667
211.34	100.000
211.71	-175.000
212.09	-1100.000
212.46	0.000
212.84	950.000
213.22	-220.000
213.59	-175.000
213.97	20.000
214.34	100.000
214.72	50.000
215.09	-200.000
215.47	0.000
215.84	57.143
216.22	250.000
216.59	20.000
216.97	-160.000
217.34	-250.000
217.72	-25.000
218.09	-100.000
218.47	-150.000
218.84	0.000
219.22	20.000
219.59	-17.647
219.97	-10.000
220.34	900.000
220.72	-22.222
221.09	23.077
221.47	-300.000
221.84	-50.000
222.22	-128.571
222.59	0.000
222.97	100.000
223.34	-140.000
223.72	-900.000
224.09	-75.000
224.46	-25.000
224.84	80.000
225.21	0.000
225.59	-275.000
225.96	-275.000
226.34	23.077
226.71	-0.000
227.08	-600.000
227.46	73.333
227.83	-25.000
228.21	42.105
228.58	175.000
228.95	600.000
229.33	33.333
229.70	-70.000
230.08	63.158
230.45	120.000
230.82	-300.000
231.20	-14.286
231.57	33.333
231.95	-18.182
232.32	27.273
232.69	30.000
233.07	-250.000
233.44	23.529
233.81	10.000
234.19	11.111
234.56	22.727
234.93	20.690
235.31	-26.316
235.68	11.111
236.05	-55.000
236.43	57.692
236.80	68.000
237.17	-22.222
237.55	12.121
237.92	30.000
238.29	29.032
238.67	0.000
239.04	16.667
239.41	26.190
239.79	19.565
240.16	25.926
240.53	28.261
240.91	15.686
241.28	31.148
241.65	47.761
242.02	44.595
242.40	18.462
242.77	28.000
243.14	19.512
243.51	19.737
243.89	17.949
244.26	28.713
244.63	34.314
245.00	30.841
245.38	28.070
245.75	15.929
246.12	34.921
246.49	27.907
246.87	32.143
247.24	31.126
247.61	27.632
247.98	30.201
248.36	32.099
248.73	27.607
249.10	26.776
249.47	33.333
249.84	36.649
250.22	33.161
250.59	34.444
250.96	30.000
251.33	25.000
251.70	35.043
252.08	32.083
252.45	33.607
252.82	30.165
253.19	28.906
253.56	32.319
253.94	32.308
254.31	30.682
254.68	30.420
255.05	32.573
255.42	27.211
255.79	31.715
256.16	33.775
256.54	30.464
256.91	32.459
257.28	32.131
257.65	31.529
258.02	28.024
258.39	33.048
258.76	31.193
259.14	34.483
259.51	30.259
259.88	28.045
260.25	32.778
260.62	31.507
260.99	36.612
261.36	33.512
261.73	32.891
262.10	32.143
262.47	31.635
262.85	34.596
263.22	30.390
263.59	25.789
263.96	35.294
264.33	31.458
264.70	30.370
265.07	33.413
265.44	33.560
265.81	31.713
266.18	31.293
266.55	32.366
266.92	32.802
267.29	31.291
267.66	33.038
268.03	31.004
268.40	32.359
268.77	29.385
269.14	30.617
269.51	30.702
269.88	32.172
270.25	29.577
270.62	32.489
270.99	33.131
271.36	29.901
271.73	32.417
272.10	33.066
272.47	31.663
272.84	31.124
273.21	32.265
273.58	31.452
273.95	30.000
274.32	29.468
274.69	30.174
275.06	30.037
275.43	29.390
275.80	29.277
276.17	30.741
276.54	29.478
276.91	29.517
277.28	31.646
277.65	30.162
278.02	32.353
278.39	29.348
278.76	29.877
279.13	29.610
279.50	31.271
279.87	30.948
280.23	28.169
280.60	30.678
280.97	28.618
281.34	28.862
281.71	31.472
282.08	29.070
282.45	30.606
282.82	28.728
283.19	26.656
283.56	30.000
283.92	31.231
284.29	32.701
284.66	29.392
285.03	26.923
285.40	27.202
285.77	29.876
286.14	29.008
286.51	29.376
286.87	29.700
287.24	28.916
287.61	26.756
287.98	26.133
288.35	30.030
288.72	29.438
289.08	28.843
289.45	28.107
289.82	27.560
290.19	28.736
290.56	26.197
290.93	29.529
291.29	28.375
291.66	26.860
292.03	24.966
292.40	28.844
292.77	25.606
293.13	26.928
293.50	26.018
293.87	25.638
294.24	28.267
294.60	26.169
294.97	23.758
295.34	27.017
295.71	25.095
296.08	25.065
296.44	25.245
296.81	26.066
297.18	24.533
297.55	23.821
297.91	25.267
298.28	24.408
298.65	23.424
299.02	25.148
299.38	24.371
299.75	23.481
300.12	25.231
300.48	24.078
300.85	23.060
301.22	25.056
301.59	23.630
301.95	23.277
302.32	24.667
302.69	23.877
303.05	24.592
303.42	24.058
303.79	24.583
304.15	23.764
304.52	23.996
304.89	23.665
305.25	22.878
305.62	23.929
305.99	24.227
306.35	24.093
306.72	23.475
307.09	22.335
307.45	24.017
307.82	24.016
308.19	24.016
308.55	24.108
308.92	23.272
309.29	25.192
309.65	23.684
310.02	24.059
310.38	23.622
310.75	25.340
311.12	25.120
311.48	24.047
311.85	24.691
312.22	24.953
312.58	24.977
312.95	22.849
313.31	25.294
313.68	24.908
314.05	24.752
314.41	24.499
314.78	25.250
315.14	25.590
315.51	25.208
315.87	25.473
316.24	25.845
316.61	25.844
316.97	25.249
317.34	26.014
317.70	26.201
318.07	26.190
318.43	25.935
318.80	27.007
319.16	27.124
319.53	25.707
319.89	25.241
320.26	26.512
320.62	26.152
320.99	27.147
321.35	27.172
321.72	27.814
322.08	26.961
322.45	28.455
322.81	27.978
323.18	28.142
323.54	27.759
323.91	28.648
324.27	28.227
324.64	29.303
325.00	28.607
325.37	29.975
325.73	28.678
326.10	29.035
326.46	30.863
326.83	30.665
327.19	30.236
327.56	31.304
327.92	30.763
328.29	29.758
328.65	30.905
329.01	31.049
329.38	31.761
329.74	31.079
330.11	32.021
330.47	30.329
330.84	31.955
331.20	32.167
331.56	32.322
331.93	33.222
332.29	33.559
332.66	34.136
333.02	31.993
333.38	31.460
333.75	30.387
334.11	32.944
334.48	31.848
334.84	33.305
335.20	32.242
335.57	32.799
335.93	33.306
336.29	31.947
336.66	32.885
337.02	32.107
337.38	32.738
337.75	30.744
338.11	32.969
338.47	33.002
338.84	31.895
339.20	31.592
339.56	31.301
339.93	31.117
340.29	31.079
340.65	30.657
341.02	32.243
341.38	32.336
341.74	31.477
342.11	31.134
342.47	30.103
342.83	33.494
343.20	32.788
343.56	33.039
343.92	32.506
344.28	31.562
344.65	32.713
345.01	32.215
345.37	33.048
345.73	32.892
346.10	32.527
346.46	32.199
346.82	32.584
347.19	31.856
347.55	31.791
347.91	31.649
348.27	32.018
348.63	31.531
349.00	30.574
349.36	31.450
349.72	31.696
350.08	31.055
350.45	32.091
350.81	31.297
351.17	30.677
351.53	31.994
351.89	32.954
352.26	32.090
352.62	32.164
352.98	32.214
353.34	30.620
353.70	31.664
354.07	30.775
354.43	31.207
354.79	31.189
355.15	30.537
355.51	32.749
355.87	32.536
356.24	32.243
356.60	30.820
356.96	32.246
357.32	31.747
357.68	32.064
358.04	32.335
358.40	31.866
358.77	32.091
359.13	31.905
359.49	31.673
359.85	31.980
360.21	31.994
360.57	31.515
360.93	32.017
361.29	32.912
361.66	32.730
362.02	32.289
362.38	33.310
362.74	31.844
363.10	33.700
363.46	32.479
363.82	33.381
364.18	32.020
364.54	33.817
364.90	33.846
365.26	31.931
365.62	33.467
365.98	33.084
366.35	32.752
366.71	33.061
367.07	33.288
367.43	32.239
367.79	33.842
368.15	34.114
368.51	33.085
368.87	32.332
369.23	34.133
369.59	33.402
369.95	33.266
370.31	33.761
370.67	34.250
371.03	32.687
371.39	32.841
371.75	34.388
372.11	33.130
372.47	33.175
372.83	34.228
373.19	34.490
373.55	32.859
373.91	34.151
374.27	32.988
374.63	33.356
374.99	34.284
375.35	34.545
375.71	33.742
376.07	33.441
376.42	34.635
376.78	34.058
377.14	34.311
377.50	34.156
377.86	35.776
378.22	35.269
378.58	35.196
378.94	34.155
379.30	34.681
379.66	34.685
380.02	35.603
380.38	36.809
380.74	35.606
381.09	35.889
381.45	35.398
381.81	36.066
382.17	36.639
382.53	35.673
382.89	35.892
383.25	36.460
383.61	35.590
383.97	36.042
384.32	36.364
384.68	35.847
385.04	37.305
385.40	36.830
385.76	36.460
386.12	36.026
386.48	37.118
386.83	37.545
387.19	37.080
387.55	36.737
387.91	36.644
388.27	38.222
388.62	37.171
388.98	36.210
389.34	37.183
389.70	38.292
390.06	35.938
390.42	36.928
390.77	38.290
391.13	38.028
391.49	37.681
391.85	37.939
392.20	38.078
392.56	38.157
392.92	39.258
393.28	38.751
393.64	37.877
393.99	37.943
394.35	39.603
394.71	37.305
395.07	37.665
395.42	37.350
395.78	39.610
396.14	38.265
396.50	38.836
396.85	38.939
397.21	38.876
397.57	40.342
397.92	39.576
398.28	38.620
398.64	38.730
399.00	38.691
399.35	39.005
399.71	40.272
400.07	39.921
400.42	39.581
400.78	39.641
401.14	40.011
401.49	39.966
401.85	39.884
402.21	40.556
402.57	41.021
402.92	41.135
403.28	39.813
403.63	40.095
403.99	40.321
404.35	40.250
404.70	40.737
405.06	40.598
405.42	41.452
405.77	41.058
406.13	40.465
406.49	40.709
406.84	42.271
407.20	40.414
407.55	40.945
407.91	40.541
408.27	41.048
408.62	41.885
408.98	41.091
409.34	40.938
409.69	41.965
410.05	42.438
410.40	42.343
410.76	41.840
411.11	42.022
411.47	42.015
411.83	43.210
412.18	43.855
412.54	42.620
412.89	42.375
413.25	43.567
413.60	43.136
413.96	43.007
414.31	41.360
414.67	43.172
415.03	41.723
415.38	43.190
415.74	42.883
416.09	43.122
416.45	42.079
416.80	43.023
417.16	43.742
417.51	44.396
417.87	44.083
418.22	43.713
418.58	42.627
418.93	44.645
419.29	44.760
419.64	43.277
420.00	44.510
420.35	43.122
420.71	44.744
421.06	44.221
421.42	44.610
421.77	44.319
422.12	44.186
422.48	43.932
422.83	45.181
423.19	44.828
423.54	46.350
423.90	44.451
424.25	45.813
424.61	45.063
424.96	44.865
425.31	45.435
425.67	45.464
426.02	46.320
426.38	45.752
426.73	44.978
427.09	45.790
427.44	45.276
427.79	44.997
428.15	45.320
428.50	45.393
428.85	44.776
429.21	45.745
429.56	45.508
429.92	45.897
430.27	45.976
430.62	45.481
430.98	45.352
431.33	45.161
431.68	44.588
432.04	46.216
432.39	47.349
432.74	46.404
433.10	46.025
433.45	45.987
433.80	46.888
434.16	46.281
434.51	46.608
434.86	48.208
435.22	47.184
435.57	48.290
435.92	46.633
436.28	47.895
436.63	48.443
436.98	45.947
437.34	48.140
437.69	46.670
438.04	47.805
438.39	47.674
438.75	47.316
439.10	47.304
439.45	48.295
439.81	48.023
440.16	47.078
440.51	48.328
440.86	48.193
441.22	48.553
441.57	48.480
441.92	47.090
442.27	48.687
442.63	47.789
442.98	48.879
443.33	48.606
443.68	48.464
444.03	49.436
444.39	48.359
444.74	48.392
445.09	47.643
445.44	49.104
445.79	48.898
446.15	49.640
446.50	48.837
446.85	48.444
447.20	49.565
447.55	48.274
447.91	49.319
448.26	49.207
448.61	48.565
448.96	50.376
449.31	48.993
449.66	48.366
450.02	48.840
450.37	49.867
450.72	49.731
451.07	49.260
451.42	50.144
451.77	48.082
452.12	50.000
452.47	48.841
452.83	50.394
453.18	49.154
453.53	49.569
453.88	48.702
454.23	50.169
454.58	49.971
454.93	49.575
455.28	51.114
455.63	49.858
455.98	50.279
456.34	50.177
456.69	49.794
457.04	51.832
457.39	50.000
457.74	51.566
458.09	49.039
458.44	50.216
458.79	49.510
459.14	49.345
459.49	50.934
459.84	49.948
460.19	50.028
460.54	50.539
460.89	49.974
461.24	50.460
461.59	50.858
461.94	49.800
462.29	50.896
462.64	50.392
462.99	50.534
463.34	51.265
463.69	50.176
464.04	50.917
464.39	51.233
464.74	50.627
465.09	50.634
465.44	50.751
465.79	51.454
466.14	50.078
466.49	49.895
466.84	52.066
467.19	50.694
467.54	49.882
467.89	49.943
468.24	50.416
468.59	50.203
468.94	49.883
469.29	51.650
469.64	51.303
469.99	50.797
470.34	51.671
470.68	52.495
471.03	51.408
471.38	51.210
471.73	52.601
472.08	52.728
472.43	52.438
472.78	51.826
473.13	53.034
473.48	53.474
473.83	51.770
474.17	51.641
474.52	53.879
474.87	51.495
475.22	52.732
475.57	51.402
475.92	52.464
476.27	52.503
476.61	51.090
476.96	51.512
477.31	52.228
477.66	52.676
478.01	53.025
478.36	51.944
478.70	52.217
479.05	53.272
479.40	52.221
479.75	53.122
480.10	52.392
480.45	52.188
480.79	52.200
481.14	52.390
481.49	52.749
481.84	53.916
482.19	52.602
482.53	53.695
482.88	53.744
483.23	53.802
483.58	51.965
483.92	52.394
484.27	52.202
484.62	52.434
484.97	52.372
485.31	51.320
485.66	50.662
486.01	49.972
486.36	50.651
486.70	52.264
487.05	52.932
487.40	52.357
487.75	52.926
488.09	52.437
488.44	51.880
488.79	52.344
489.13	52.824
489.48	51.845
489.83	51.670
490.17	51.924
490.52	51.601
490.87	52.453
491.22	53.943
491.56	53.072
491.91	53.816
492.26	53.094
492.60	53.039
492.95	53.313
493.30	52.398
493.64	53.745
493.99	53.114
494.34	52.439
494.68	52.463
495.03	52.863
495.37	53.839
495.72	53.605
496.07	53.550
496.41	52.767
496.76	52.836
497.11	53.333
497.45	53.474
497.80	54.154
498.14	54.376
498.49	53.952
498.84	54.068
499.18	53.396
499.53	54.664
499.87	53.319
500.22	53.250
500.56	53.891
500.91	54.188
501.26	55.091
501.60	54.441
501.95	54.581
502.29	54.673
502.64	55.225
502.98	53.538
503.33	53.477
503.67	53.511
504.02	54.072
504.36	54.736
504.71	55.719
505.06	54.616
505.40	54.616
505.75	54.463
506.09	54.696
506.44	55.942
506.78	55.917
507.13	56.063
507.47	55.992
507.82	56.439
508.16	55.880
508.51	55.931
508.85	56.731
509.19	56.561
509.54	57.012
509.88	57.552
510.23	57.018
510.57	57.371
510.92	57.716
511.26	56.421
511.61	55.963
511.95	56.027
512.30	58.149
512.64	57.771
512.98	57.479
513.33	58.518
513.67	56.859
514.02	58.304
514.36	58.824
514.70	59.740
515.05	58.394
515.39	59.003
515.74	60.657
516.08	59.165
516.42	60.073
516.77	60.410
517.11	59.103
517.46	60.551
517.80	60.823
518.14	60.392
518.49	61.388
518.83	59.180
519.17	59.181
519.52	59.696
519.86	60.612
520.20	61.395
520.55	60.022
520.89	61.149
521.23	61.418
521.58	61.525
521.92	62.210
522.26	61.684
522.61	62.442
522.95	62.687
523.29	62.184
523.64	62.444
523.98	63.263
524.32	62.693
524.66	63.233
525.01	61.835
525.35	62.608
525.69	61.485
526.04	61.424
526.38	62.414
526.72	62.860
527.06	64.106
527.41	62.682
527.75	63.717
528.09	64.050
528.43	63.114
528.78	62.717
529.12	63.475
529.46	63.013
529.80	63.330
530.15	63.188
530.49	64.650
530.83	63.813
531.17	64.337
531.51	64.741
531.86	65.144
532.20	64.756
532.54	63.734
532.88	63.758
533.22	63.819
533.57	63.358
533.91	63.187
534.25	63.595
534.59	64.655
534.93	63.384
535.27	62.310
535.62	64.412
535.96	64.265
536.30	63.572
536.64	64.685
536.98	64.699
537.32	64.383
537.66	65.003
538.01	62.779
538.35	63.886
538.69	64.123
539.03	66.033
539.37	63.428
539.71	63.604
540.05	64.808
540.39	63.936
540.73	63.145
541.07	64.378
541.42	63.320
541.76	63.286
542.10	63.209
542.44	63.337
542.78	64.112
543.12	63.051
543.46	63.919
543.80	62.650
544.14	63.375
544.48	65.248
544.82	64.572
545.16	63.327
545.50	62.732
545.84	65.095
546.18	63.827
546.52	65.223
546.86	62.893
547.20	64.822
547.54	64.232
547.88	63.110
548.22	63.333
548.56	62.902
548.90	64.000
549.24	63.040
549.58	65.426
549.92	63.903
550.26	64.078
550.60	64.008
550.94	63.842
551.28	62.838
551.62	64.218
551.96	63.172
552.30	64.245
552.64	62.414
552.98	63.319
553.32	64.630
553.66	64.116
554.00	62.863
554.34	64.221
554.68	63.654
555.02	64.520
555.36	64.694
555.69	62.972
556.03	63.430
556.37	64.018
556.71	64.172
557.05	64.153
557.39	64.632
557.73	63.078
558.07	63.974
558.41	63.256
558.75	63.151
559.08	65.344
559.42	64.678
559.76	63.908
560.10	62.291
560.44	64.182
560.78	64.125
561.12	63.300
561.45	63.139
561.79	63.126
562.13	63.586
562.47	62.639
562.81	63.228
563.15	62.753
563.48	62.213
563.82	63.543
564.16	62.386
564.50	62.217
564.84	61.888
565.17	62.647
565.51	62.888
565.85	63.717
566.19	61.751
566.52	62.083
566.86	61.969
567.20	60.359
567.54	61.551
567.88	61.825
568.21	61.611
568.55	62.158
568.89	61.235
569.23	60.963
569.56	60.531
569.90	60.086
570.24	60.169
570.57	58.980
570.91	59.002
571.25	57.940
571.59	58.670
571.92	58.982
572.26	58.047
572.60	57.767
572.93	57.974
573.27	58.303
573.61	57.729
573.95	57.781
574.28	57.720
574.62	56.867
574.96	56.859
575.29	56.753
575.63	56.641
575.97	57.246
576.30	57.192
576.64	56.502
576.98	57.312
577.31	57.249
577.65	57.037
577.98	56.777
578.32	56.315
578.66	56.069
578.99	56.482
579.33	57.025
579.67	56.460
580.00	56.597
580.34	56.523
580.67	56.355
581.01	56.339
581.35	55.620
581.68	56.309
582.02	55.472
582.35	56.692
582.69	56.226
583.02	56.830
583.36	56.500
583.70	57.010
584.03	55.988
584.37	56.184
584.70	56.137
585.04	55.127
585.37	55.678
585.71	55.750
586.04	56.011
586.38	56.708
586.72	55.152
587.05	55.769
587.39	55.821
587.72	57.153
588.06	55.996
588.39	56.161
588.73	55.344
589.06	56.208
589.40	57.160
589.73	56.362
590.07	55.836
590.40	57.302
590.73	57.264
591.07	57.111
591.40	57.076
591.74	57.750
592.07	56.070
592.41	56.546
592.74	55.520
593.08	55.828
593.41	56.022
593.75	55.345
594.08	56.286
594.41	56.731
594.75	55.862
595.08	56.023
595.42	55.844
595.75	55.893
596.09	56.591
596.42	56.611
596.75	55.616
597.09	57.455
597.42	56.734
597.75	55.508
598.09	55.833
598.42	56.092
598.76	55.101
599.09	55.180
599.42	54.408
599.76	54.506
600.09	55.088
600.42	54.454
600.76	54.822
601.09	54.298
601.42	54.961
601.76	54.103
602.09	54.253
602.42	53.980
602.76	54.760
603.09	55.543
603.42	55.455
603.76	54.545
604.09	54.826
604.42	55.046
604.76	54.909
605.09	54.567
605.42	54.904
605.75	54.000
606.09	54.909
606.42	53.630
606.75	54.273
607.09	53.495
607.42	53.565
607.75	54.201
608.08	54.025
608.42	54.131
608.75	54.104
609.08	53.862
609.41	54.654
609.75	54.464
610.08	55.057
610.41	54.460
610.74	54.160
611.07	54.529
611.41	55.067
611.74	55.751
612.07	54.418
612.40	54.373
612.73	55.697
613.07	54.377
613.40	54.379
613.73	55.368
614.06	53.876
614.39	53.741
614.72	53.809
615.06	53.994
615.39	54.422
615.72	54.218
616.05	53.473
616.38	54.894
616.71	53.814
617.05	54.420
617.38	53.237
617.71	54.536
618.04	54.452
618.37	54.044
618.70	55.090
619.03	55.018
619.36	54.747
619.69	54.965
620.03	54.300
620.36	54.049
620.69	54.719
621.02	55.118
621.35	56.967
621.68	56.399
622.01	53.879
622.34	54.463
622.67	55.464
623.00	53.239
623.33	55.541
623.66	54.604
623.99	54.312
624.32	54.516
624.65	52.317
624.99	55.137
625.32	55.389
625.65	55.158
625.98	54.712
626.31	54.855
626.64	55.458
626.97	54.089
627.30	54.442
627.63	54.089
627.96	55.781
628.29	54.630
628.62	54.492
628.95	56.266
629.28	55.565
629.61	54.882
629.94	53.975
630.26	52.797
630.59	54.836
630.92	55.238
631.25	56.619
631.58	58.004
631.91	55.951
632.24	56.388
632.57	55.028
632.90	55.868
633.23	56.327
633.56	58.061
