SpectraSuite Data File
++++++++++++++++++++++++++++++++++++
Date: Thu May 14 16:10:15 PDT 2015
User: schluterlab
Dark Spectrum Present: Yes
Reference Spectrum Present: Yes
Number of Sampled Component Spectra: 1
Spectrometers: USB2E3373
Integration Time (usec): 3000 (USB2E3373)
Spectra Averaged: 3 (USB2E3373)
Boxcar Smoothing: 0 (USB2E3373)
Correct for Electrical Dark: No (USB2E3373)
Strobe/Lamp Enabled: No (USB2E3373)
Correct for Detector Non-linearity: No (USB2E3373)
Correct for Stray Light: No (USB2E3373)
Number of Pixels in Processed Spectrum: 2048
>>>>>Begin Processed Spectral Data<<<<<
178.53	0.000
178.91	157.143
179.29	-1800.000
179.67	-1400.000
180.04	171.429
180.42	20.000
180.80	180.000
181.18	-700.000
181.56	-100.000
181.94	425.000
182.31	-275.000
182.69	266.667
183.07	-350.000
183.45	550.000
183.83	-333.333
184.20	-333.333
184.58	1100.000
184.96	-450.000
185.34	-55.556
185.72	-140.000
186.09	222.222
186.47	600.000
186.85	320.000
187.23	-233.333
187.61	-1500.000
187.98	380.000
188.36	200.000
188.74	-225.000
189.12	-533.333
189.49	-62.500
189.87	-212.500
190.25	-33.333
190.63	-120.000
191.00	-77.778
191.38	0.000
191.76	-200.000
192.14	-166.667
192.51	750.000
192.89	-50.000
193.27	0.000
193.65	-157.143
194.02	-1400.000
194.40	-100.000
194.78	157.143
195.15	0.000
195.53	-27.273
195.91	0.000
196.29	-175.000
196.66	-69.231
197.04	-1200.000
197.42	-128.571
197.79	-600.000
198.17	-37.500
198.55	-142.857
198.92	-55.556
199.30	-187.500
199.68	0.000
200.05	-7.143
200.43	-500.000
200.81	242.857
201.18	0.000
201.56	166.667
201.94	0.000
202.31	533.333
202.69	-222.222
203.07	400.000
203.44	-122.222
203.82	-475.000
204.19	0.000
204.57	-133.333
204.95	-237.500
205.32	-900.000
205.70	125.000
206.08	-16.667
206.45	83.333
206.83	380.000
207.20	-33.333
207.58	-280.000
207.96	-133.333
208.33	-66.667
208.71	75.000
209.08	-83.333
209.46	0.000
209.84	350.000
210.21	550.000
210.59	100.000
210.96	600.000
211.34	-250.000
211.71	-125.000
212.09	-1400.000
212.46	0.000
212.84	1100.000
213.22	-300.000
213.59	-150.000
213.97	-20.000
214.34	-500.000
214.72	316.667
215.09	-275.000
215.47	0.000
215.84	142.857
216.22	1250.000
216.59	-120.000
216.97	-300.000
217.34	-100.000
217.72	-200.000
218.09	-375.000
218.47	-400.000
218.84	0.000
219.22	-0.000
219.59	-47.059
219.97	15.000
220.34	550.000
220.72	-33.333
221.09	38.462
221.47	-466.667
221.84	-60.000
222.22	-300.000
222.59	0.000
222.97	-25.000
223.34	-300.000
223.72	-1700.000
224.09	-275.000
224.46	-225.000
224.84	40.000
225.21	-157.143
225.59	-500.000
225.96	-350.000
226.34	-15.385
226.71	300.000
227.08	-600.000
227.46	-13.333
227.83	-375.000
228.21	0.000
228.58	112.500
228.95	900.000
229.33	-58.333
229.70	-50.000
230.08	36.842
230.45	140.000
230.82	33.333
231.20	-50.000
231.57	-108.333
231.95	-18.182
232.32	-9.091
232.69	-20.000
233.07	-275.000
233.44	-5.882
233.81	-60.000
234.19	0.000
234.56	13.636
234.93	13.793
235.31	0.000
235.68	-33.333
236.05	-15.000
236.43	38.462
236.80	28.000
237.17	-3.704
237.55	-18.182
237.92	-40.000
238.29	0.000
238.67	27.273
239.04	8.333
239.41	19.048
239.79	-10.870
240.16	20.370
240.53	4.348
240.91	-1.961
241.28	18.033
241.65	25.373
242.02	24.324
242.40	13.846
242.77	10.667
243.14	8.537
243.51	19.737
243.89	24.359
244.26	25.743
244.63	35.294
245.00	28.037
245.38	11.404
245.75	15.929
246.12	30.952
246.49	24.806
246.87	30.714
247.24	25.166
247.61	27.632
247.98	32.215
248.36	31.481
248.73	30.675
249.10	30.601
249.47	30.846
249.84	35.079
250.22	24.870
250.59	28.333
250.96	33.182
251.33	23.469
251.70	29.915
252.08	32.917
252.45	31.148
252.82	27.273
253.19	30.078
253.56	31.179
253.94	27.692
254.31	28.030
254.68	34.965
255.05	31.270
255.42	28.571
255.79	31.715
256.16	31.126
256.54	30.464
256.91	30.164
257.28	28.852
257.65	28.662
258.02	29.204
258.39	27.920
258.76	33.945
259.14	29.885
259.51	33.429
259.88	28.045
260.25	33.056
260.62	30.137
260.99	32.514
261.36	32.440
261.73	28.382
262.10	30.769
262.47	31.635
262.85	33.333
263.22	31.688
263.59	26.842
263.96	30.435
264.33	28.645
264.70	31.358
265.07	32.220
265.44	33.560
265.81	31.944
266.18	32.200
266.55	32.812
266.92	33.257
267.29	32.385
267.66	31.042
268.03	34.279
268.40	33.403
268.77	32.346
269.14	31.278
269.51	31.360
269.88	31.762
270.25	29.779
270.62	27.848
270.99	33.939
271.36	32.277
271.73	29.666
272.10	31.062
272.47	30.461
272.84	28.313
273.21	29.659
273.58	30.645
273.95	30.000
274.32	28.897
274.69	29.207
275.06	31.685
275.43	28.466
275.80	30.511
276.17	27.778
276.54	30.410
276.91	27.013
277.28	28.210
277.65	31.777
278.02	29.963
278.39	30.072
278.76	28.471
279.13	29.610
279.50	30.412
279.87	29.517
280.23	26.761
280.60	29.153
280.97	29.605
281.34	29.711
281.71	30.118
282.08	28.239
282.45	28.314
282.82	27.630
283.19	27.625
283.56	28.033
283.92	27.628
284.29	32.385
284.66	26.929
285.03	26.282
285.40	29.675
285.77	28.638
286.14	27.939
286.51	27.854
286.87	27.488
287.24	28.614
287.61	27.504
287.98	26.435
288.35	26.183
288.72	28.994
289.08	28.404
289.45	26.775
289.82	26.355
290.19	26.868
290.56	26.901
290.93	26.391
291.29	26.309
291.66	24.931
292.03	25.237
292.40	28.299
292.77	23.854
293.13	24.493
293.50	24.573
293.87	25.101
294.24	25.867
294.60	24.399
294.97	22.282
295.34	24.840
295.71	22.825
296.08	23.514
296.44	22.917
296.81	24.482
297.18	22.042
297.55	23.585
297.91	23.606
298.28	22.986
298.65	24.376
299.02	22.550
299.38	23.112
299.75	23.131
300.12	23.032
300.48	22.696
300.85	21.372
301.22	23.602
301.59	21.233
301.95	22.712
302.32	22.889
302.69	20.482
303.05	23.613
303.42	23.060
303.79	22.396
304.15	23.449
304.52	23.467
304.89	23.246
305.25	21.325
305.62	21.735
305.99	21.546
306.35	21.774
306.72	22.958
307.09	22.234
307.45	21.325
307.82	21.393
308.19	22.906
308.55	21.890
308.92	22.395
309.29	22.510
309.65	21.442
310.02	21.386
310.38	21.358
310.75	22.233
311.12	21.764
311.48	23.265
311.85	22.507
312.22	22.960
312.58	21.878
312.95	20.841
313.31	21.319
313.68	22.985
314.05	23.397
314.41	22.860
314.78	22.434
315.14	23.321
315.51	22.715
315.87	21.692
316.24	22.009
316.61	23.091
316.97	22.262
317.34	23.016
317.70	23.930
318.07	23.016
318.43	23.044
318.80	23.244
319.16	23.090
319.53	22.365
319.89	23.576
320.26	24.199
320.62	22.606
320.99	23.453
321.35	23.475
321.72	24.837
322.08	23.805
322.45	22.945
322.81	24.188
323.18	23.097
323.54	23.448
323.91	24.822
324.27	23.580
324.64	25.189
325.00	23.632
325.37	23.997
325.73	25.041
326.10	25.061
326.46	25.489
326.83	25.380
327.19	24.173
327.56	25.296
327.92	24.626
328.29	24.355
328.65	25.126
329.01	25.042
329.38	24.600
329.74	25.514
330.11	26.541
330.47	25.611
330.84	24.978
331.20	26.000
331.56	25.650
331.93	25.272
332.29	26.186
332.66	23.920
333.02	24.791
333.38	24.245
333.75	25.253
334.11	23.853
334.48	24.587
334.84	25.149
335.20	24.937
335.57	26.138
335.93	25.537
336.29	23.960
336.66	25.652
337.02	24.749
337.38	24.660
337.75	24.132
338.11	24.727
338.47	24.979
338.84	24.619
339.20	23.842
339.56	24.135
339.93	24.056
340.29	24.477
340.65	23.844
341.02	25.858
341.38	25.222
341.74	25.343
342.11	24.055
342.47	23.193
342.83	24.155
343.20	24.285
343.56	24.218
343.92	25.620
344.28	24.688
344.65	23.566
345.01	23.791
345.37	24.261
345.73	22.993
346.10	25.507
346.46	24.763
346.82	24.869
347.19	24.446
347.55	23.900
347.91	24.740
348.27	24.734
348.63	24.676
349.00	22.968
349.36	24.089
349.72	24.479
350.08	25.260
350.45	23.346
350.81	23.303
351.17	23.684
351.53	24.716
351.89	24.753
352.26	24.701
352.62	24.254
352.98	23.969
353.34	22.704
353.70	23.498
354.07	23.845
354.43	23.386
354.79	24.084
355.15	23.179
355.51	22.588
355.87	23.710
356.24	24.106
356.60	23.060
356.96	25.130
357.32	23.420
357.68	22.694
358.04	23.653
358.40	23.731
358.77	24.123
359.13	23.412
359.49	22.379
359.85	24.075
360.21	23.458
360.57	24.480
360.93	23.836
361.29	24.421
361.66	24.041
362.02	24.495
362.38	23.682
362.74	23.115
363.10	23.796
363.46	24.030
363.82	23.580
364.18	24.068
364.54	24.136
364.90	24.415
365.26	23.448
365.62	25.000
365.98	23.826
366.35	24.094
366.71	24.626
367.07	24.222
367.43	24.163
367.79	24.818
368.15	25.017
368.51	25.372
368.87	24.624
369.23	23.733
369.59	23.975
369.95	25.220
370.31	23.903
370.67	24.140
371.03	24.030
371.39	23.976
371.75	24.347
372.11	24.729
372.47	24.238
372.83	24.738
373.19	24.016
373.55	24.051
373.91	23.586
374.27	23.997
374.63	25.304
374.99	24.867
375.35	24.481
375.71	24.645
376.07	25.113
376.42	24.559
376.78	24.239
377.14	24.704
377.50	24.668
377.86	25.739
378.22	26.048
378.58	25.327
378.94	24.707
379.30	26.069
379.66	25.279
380.02	25.447
380.38	25.518
380.74	25.915
381.09	25.958
381.45	26.023
381.81	26.112
382.17	26.366
382.53	26.433
382.89	26.185
383.25	26.319
383.61	25.231
383.97	25.972
384.32	27.273
384.68	25.580
385.04	26.605
385.40	26.989
385.76	27.491
386.12	25.853
386.48	27.118
386.83	27.592
387.19	26.651
387.55	26.995
387.91	27.226
388.27	27.309
388.62	27.320
388.98	26.847
389.34	27.814
389.70	27.542
390.06	28.005
390.42	27.711
390.77	27.995
391.13	27.347
391.49	26.872
391.85	27.273
392.20	28.233
392.56	26.934
392.92	27.535
393.28	28.911
393.64	28.268
393.99	29.343
394.35	29.147
394.71	29.461
395.07	28.383
395.42	28.726
395.78	29.250
396.14	29.649
396.50	29.454
396.85	28.861
397.21	29.822
397.57	28.386
397.92	30.183
398.28	28.789
398.64	29.176
399.00	28.953
399.35	29.529
399.71	30.163
400.07	29.646
400.42	30.151
400.78	29.456
401.14	29.596
401.49	30.301
401.85	30.523
402.21	31.286
402.57	31.162
402.92	30.496
403.28	30.621
403.63	29.475
403.99	30.285
404.35	30.927
404.70	30.482
405.06	30.924
405.42	31.499
405.77	31.788
406.13	31.551
406.49	31.588
406.84	31.801
407.20	31.750
407.55	32.465
407.91	31.867
408.27	32.744
408.62	32.286
408.98	32.037
409.34	32.493
409.69	33.004
410.05	32.708
410.40	34.049
410.76	33.707
411.11	34.015
411.47	32.678
411.83	34.039
412.18	35.060
412.54	33.491
412.89	33.527
413.25	34.255
413.60	33.774
413.96	34.091
414.31	34.731
414.67	33.810
415.03	34.708
415.38	35.183
415.74	33.170
416.09	34.300
416.45	34.502
416.80	34.945
417.16	35.121
417.51	33.935
417.87	34.457
418.22	34.970
418.58	36.493
418.93	36.088
419.29	35.450
419.64	35.534
420.00	35.371
420.35	34.812
420.71	34.922
421.06	34.963
421.42	34.633
421.77	35.541
422.12	34.937
422.48	36.201
422.83	36.418
423.19	35.862
423.54	36.836
423.90	35.892
424.25	36.800
424.61	36.051
424.96	36.189
425.31	36.943
425.67	36.822
426.02	35.861
426.38	36.165
426.73	36.161
427.09	37.313
427.44	36.592
427.79	36.374
428.15	36.815
428.50	36.573
428.85	36.338
429.21	37.074
429.56	36.772
429.92	36.364
430.27	37.012
430.62	36.932
430.98	36.006
431.33	37.195
431.68	35.920
432.04	37.481
432.39	37.868
432.74	37.443
433.10	37.966
433.45	37.347
433.80	37.822
434.16	38.275
434.51	37.256
434.86	37.405
435.22	37.991
435.57	38.679
435.92	38.397
436.28	38.965
436.63	38.995
436.98	37.520
437.34	38.050
437.69	37.755
438.04	37.916
438.39	38.254
438.75	37.797
439.10	38.319
439.45	38.290
439.81	38.475
440.16	38.070
440.51	38.517
440.86	38.355
441.22	38.639
441.57	38.312
441.92	38.070
442.27	39.242
442.63	38.500
442.98	38.260
443.33	38.401
443.68	38.652
444.03	40.216
444.39	39.344
444.74	39.408
445.09	37.861
445.44	39.463
445.79	39.703
446.15	39.825
446.50	38.656
446.85	39.105
447.20	39.362
447.55	39.592
447.91	38.743
448.26	39.006
448.61	39.745
448.96	40.021
449.31	39.661
449.66	39.216
450.02	39.399
450.37	38.998
450.72	39.935
451.07	39.579
451.42	38.764
451.77	39.689
452.12	41.196
452.47	39.275
452.83	41.104
453.18	39.405
453.53	39.977
453.88	39.978
454.23	40.621
454.58	39.988
454.93	39.563
455.28	39.735
455.63	39.454
455.98	40.670
456.34	40.106
456.69	40.212
457.04	41.430
457.39	40.133
457.74	40.213
458.09	40.088
458.44	41.164
458.79	40.124
459.14	39.591
459.49	40.577
459.84	40.714
460.19	39.645
460.54	40.375
460.89	41.080
461.24	40.402
461.59	40.066
461.94	39.361
462.29	41.097
462.64	40.435
462.99	40.364
463.34	41.142
463.69	39.918
464.04	41.857
464.39	40.639
464.74	38.997
465.09	41.696
465.44	40.987
465.79	40.508
466.14	41.011
466.49	40.211
466.84	40.661
467.19	39.884
467.54	39.248
467.89	40.287
468.24	40.997
468.59	40.764
468.94	41.375
469.29	41.452
469.64	39.797
469.99	40.472
470.34	41.275
470.68	41.627
471.03	41.716
471.38	41.596
471.73	42.263
472.08	42.640
472.43	41.421
472.78	42.128
473.13	42.288
473.48	41.873
473.83	42.716
474.17	40.328
474.52	42.634
474.87	42.082
475.22	42.085
475.57	41.225
475.92	40.717
476.27	41.747
476.61	41.537
476.96	40.824
477.31	41.040
477.66	42.917
478.01	41.688
478.36	40.179
478.70	42.020
479.05	43.047
479.40	43.287
479.75	41.547
480.10	42.634
480.45	41.887
480.79	41.950
481.14	41.866
481.49	42.072
481.84	42.428
482.19	41.849
482.53	41.714
482.88	42.357
483.23	42.597
483.58	41.441
483.92	41.534
484.27	41.575
484.62	41.502
484.97	41.330
485.31	40.971
485.66	39.238
486.01	38.209
486.36	38.711
486.70	39.788
487.05	40.194
487.40	40.005
487.75	39.796
488.09	40.209
488.44	38.872
488.79	40.000
489.13	40.731
489.48	41.243
489.83	40.765
490.17	41.636
490.52	41.913
490.87	41.497
491.22	41.941
491.56	41.937
491.91	42.259
492.26	41.021
492.60	41.801
492.95	43.177
493.30	43.075
493.64	42.488
493.99	42.675
494.34	41.463
494.68	42.355
495.03	42.423
495.37	42.965
495.72	41.995
496.07	42.594
496.41	41.870
496.76	43.119
497.11	42.166
497.45	42.123
497.80	42.559
498.14	41.678
498.49	42.923
498.84	42.185
499.18	43.050
499.53	43.453
499.87	43.824
500.22	42.253
500.56	43.635
500.91	43.021
501.26	43.136
501.60	42.333
501.95	43.248
502.29	42.211
502.64	42.851
502.98	42.105
503.33	42.808
503.67	42.172
504.02	42.820
504.36	44.549
504.71	42.673
505.06	43.474
505.40	41.865
505.75	43.579
506.09	43.646
506.44	43.918
506.78	44.220
507.13	43.476
507.47	44.008
507.82	43.655
508.16	42.400
508.51	42.944
508.85	44.025
509.19	44.481
509.54	44.044
509.88	43.516
510.23	44.439
510.57	45.626
510.92	45.235
511.26	43.290
511.61	43.844
511.95	44.363
512.30	44.362
512.64	43.028
512.98	45.023
513.33	44.909
513.67	45.283
514.02	45.733
514.36	45.627
514.70	45.260
515.05	45.725
515.39	46.719
515.74	46.501
516.08	46.170
516.42	46.625
516.77	46.162
517.11	45.487
517.46	45.599
517.80	46.179
518.14	47.606
518.49	46.638
518.83	46.035
519.17	45.934
519.52	47.117
519.86	47.307
520.20	47.870
520.55	47.262
520.89	48.592
521.23	46.678
521.58	47.910
521.92	47.649
522.26	47.537
522.61	48.322
522.95	48.443
523.29	47.874
523.64	47.197
523.98	48.431
524.32	49.112
524.66	48.662
525.01	48.188
525.35	47.157
525.69	47.622
526.04	46.843
526.38	48.276
526.72	47.174
527.06	49.384
527.41	49.155
527.75	49.525
528.09	49.410
528.43	49.911
528.78	47.399
529.12	48.165
529.46	48.567
529.80	49.256
530.15	49.391
530.49	49.051
530.83	49.351
531.17	48.925
531.51	48.315
531.86	50.421
532.20	50.000
532.54	49.013
532.88	49.758
533.22	48.969
533.57	49.048
533.91	48.765
534.25	49.802
534.59	49.080
534.93	48.274
535.27	49.634
535.62	48.721
535.96	49.680
536.30	48.414
536.64	49.489
536.98	49.754
537.32	49.877
537.66	51.528
538.01	49.124
538.35	48.782
538.69	48.498
539.03	49.601
539.37	49.176
539.71	49.790
540.05	49.760
540.39	49.817
540.73	48.816
541.07	49.540
541.42	49.144
541.76	49.526
542.10	49.035
542.44	48.965
542.78	50.365
543.12	49.046
543.46	48.168
543.80	48.501
544.14	49.970
544.48	50.532
544.82	50.209
545.16	49.493
545.50	49.970
545.84	49.235
546.18	50.370
546.52	50.064
546.86	49.308
547.20	49.873
547.54	48.752
547.88	49.488
548.22	49.825
548.56	48.917
548.90	48.657
549.24	49.301
549.58	49.716
549.92	49.872
550.26	48.867
550.60	49.458
550.94	50.323
551.28	48.779
551.62	50.472
551.96	48.932
552.30	50.287
552.64	47.791
552.98	49.969
553.32	51.190
553.66	49.260
554.00	50.315
554.34	50.257
554.68	48.741
555.02	48.883
555.36	50.953
555.69	48.687
556.03	49.685
556.37	49.374
556.71	48.637
557.05	49.393
557.39	49.635
557.73	49.934
558.07	50.927
558.41	49.568
558.75	49.628
559.08	49.408
559.42	49.657
559.76	49.661
560.10	48.560
560.44	50.594
560.78	50.000
561.12	49.754
561.45	50.365
561.79	49.512
562.13	48.121
562.47	48.089
562.81	49.177
563.15	49.179
563.48	48.850
563.82	47.279
564.16	47.365
564.50	48.391
564.84	48.437
565.17	46.647
565.51	47.468
565.85	47.625
566.19	47.984
566.52	47.864
566.86	47.765
567.20	46.710
567.54	46.575
567.88	47.655
568.21	47.184
568.55	46.331
568.89	45.529
569.23	46.008
569.56	44.979
569.90	44.369
570.24	43.845
570.57	43.040
570.91	43.478
571.25	43.130
571.59	42.972
571.92	41.738
572.26	42.271
572.60	41.851
572.93	42.304
573.27	42.062
573.61	41.662
573.95	40.762
574.28	40.972
574.62	41.246
574.96	40.406
575.29	40.736
575.63	40.841
575.97	40.862
576.30	40.168
576.64	41.446
576.98	40.137
577.31	40.977
577.65	40.879
577.98	40.267
578.32	39.879
578.66	40.011
578.99	39.975
579.33	39.996
579.67	40.299
580.00	39.559
580.34	40.118
580.67	39.585
581.01	39.701
581.35	39.860
581.68	39.823
582.02	39.495
582.35	39.691
582.69	39.497
583.02	39.544
583.36	39.372
583.70	39.150
584.03	39.333
584.37	39.077
584.70	39.633
585.04	39.549
585.37	40.345
585.71	39.482
586.04	38.793
586.38	39.253
586.72	38.706
587.05	38.961
587.39	39.616
587.72	40.263
588.06	38.685
588.39	39.034
588.73	39.127
589.06	39.532
589.40	39.336
589.73	40.360
590.07	40.351
590.40	41.075
590.73	40.756
591.07	41.437
591.40	40.280
591.74	41.852
592.07	41.413
592.41	41.285
592.74	40.540
593.08	40.159
593.41	39.866
593.75	39.282
594.08	39.533
594.41	40.288
594.75	38.858
595.08	39.771
595.42	39.708
595.75	39.199
596.09	40.393
596.42	39.914
596.75	40.756
597.09	41.576
597.42	40.246
597.75	39.788
598.09	40.079
598.42	40.410
598.76	40.390
599.09	39.516
599.42	39.055
599.76	38.627
600.09	39.173
600.42	39.540
600.76	38.144
601.09	39.130
601.42	38.895
601.76	38.448
602.09	39.564
602.42	39.040
602.76	39.373
603.09	38.840
603.42	39.776
603.76	39.323
604.09	39.638
604.42	39.119
604.76	38.699
605.09	39.170
605.42	39.354
605.75	38.923
606.09	38.261
606.42	39.219
606.75	37.856
607.09	38.518
607.42	38.459
607.75	39.000
608.08	38.674
608.42	38.533
608.75	39.760
609.08	37.691
609.41	39.347
609.75	39.152
610.08	39.930
610.41	38.658
610.74	38.403
611.07	39.565
611.41	39.821
611.74	39.723
612.07	39.130
612.40	39.401
612.73	39.071
613.07	37.995
613.40	40.375
613.73	38.999
614.06	39.058
614.39	39.213
614.72	39.447
615.06	38.932
615.39	38.714
615.72	39.052
616.05	39.728
616.38	40.565
616.71	39.133
617.05	39.936
617.38	39.968
617.71	40.119
618.04	40.205
618.37	40.328
618.70	40.158
619.03	39.427
619.36	41.245
619.69	40.615
620.03	40.113
620.36	39.877
620.69	40.284
621.02	41.273
621.35	42.671
621.68	42.155
622.01	40.854
622.34	40.586
622.67	42.062
623.00	39.339
623.33	41.805
623.66	40.856
623.99	40.487
624.32	41.131
624.65	40.219
624.99	41.547
625.32	41.084
625.65	40.391
625.98	39.797
626.31	41.106
626.64	41.245
626.97	41.710
627.30	41.002
627.63	41.560
627.96	41.066
628.29	41.868
628.62	41.730
628.95	41.805
629.28	41.121
629.61	41.498
629.94	41.088
630.26	41.864
630.59	41.969
630.92	41.645
631.25	43.023
631.58	45.292
631.91	45.080
632.24	43.228
632.57	41.746
