SpectraSuite Data File
++++++++++++++++++++++++++++++++++++
Date: Thu May 14 16:15:46 PDT 2015
User: schluterlab
Dark Spectrum Present: Yes
Reference Spectrum Present: Yes
Number of Sampled Component Spectra: 1
Spectrometers: USB2E3373
Integration Time (usec): 3000 (USB2E3373)
Spectra Averaged: 3 (USB2E3373)
Boxcar Smoothing: 0 (USB2E3373)
Correct for Electrical Dark: No (USB2E3373)
Strobe/Lamp Enabled: No (USB2E3373)
Correct for Detector Non-linearity: No (USB2E3373)
Correct for Stray Light: No (USB2E3373)
Number of Pixels in Processed Spectrum: 2048
>>>>>Begin Processed Spectral Data<<<<<
178.53	0.000
178.91	57.143
179.29	-1000.000
179.67	-700.000
180.04	157.143
180.42	20.000
180.80	140.000
181.18	-200.000
181.56	-300.000
181.94	175.000
182.31	-150.000
182.69	166.667
183.07	-350.000
183.45	225.000
183.83	-66.667
184.20	-233.333
184.58	200.000
184.96	-150.000
185.34	-66.667
185.72	-40.000
186.09	122.222
186.47	250.000
186.85	100.000
187.23	-77.778
187.61	100.000
187.98	80.000
188.36	300.000
188.74	50.000
189.12	-33.333
189.49	43.750
189.87	-25.000
190.25	55.556
190.63	100.000
191.00	-133.333
191.38	0.000
191.76	-225.000
192.14	0.000
192.51	700.000
192.89	66.667
193.27	0.000
193.65	-14.286
194.02	-1100.000
194.40	-14.286
194.78	85.714
195.15	0.000
195.53	-54.545
195.91	0.000
196.29	25.000
196.66	23.077
197.04	-500.000
197.42	-57.143
197.79	-250.000
198.17	-50.000
198.55	0.000
198.92	0.000
199.30	100.000
199.68	27.273
200.05	57.143
200.43	-200.000
200.81	85.714
201.18	0.000
201.56	144.444
201.94	0.000
202.31	100.000
202.69	-66.667
203.07	100.000
203.44	-77.778
203.82	-100.000
204.19	8.333
204.57	-83.333
204.95	0.000
205.32	-1000.000
205.70	-25.000
206.08	-83.333
206.45	66.667
206.83	300.000
207.20	16.667
207.58	-240.000
207.96	-183.333
208.33	116.667
208.71	75.000
209.08	33.333
209.46	0.000
209.84	150.000
210.21	400.000
210.59	350.000
210.96	633.333
211.34	125.000
211.71	-37.500
212.09	-1100.000
212.46	0.000
212.84	700.000
213.22	-100.000
213.59	-50.000
213.97	-30.000
214.34	-100.000
214.72	-33.333
215.09	-200.000
215.47	0.000
215.84	128.571
216.22	700.000
216.59	-20.000
216.97	-300.000
217.34	-300.000
217.72	-62.500
218.09	-125.000
218.47	-175.000
218.84	0.000
219.22	-80.000
219.59	-23.529
219.97	25.000
220.34	300.000
220.72	-11.111
221.09	-7.692
221.47	-166.667
221.84	-100.000
222.22	-42.857
222.59	0.000
222.97	50.000
223.34	-220.000
223.72	-400.000
224.09	-200.000
224.46	-350.000
224.84	-60.000
225.21	-185.714
225.59	-300.000
225.96	-75.000
226.34	53.846
226.71	100.000
227.08	400.000
227.46	33.333
227.83	-75.000
228.21	26.316
228.58	75.000
228.95	800.000
229.33	58.333
229.70	-110.000
230.08	0.000
230.45	130.000
230.82	-133.333
231.20	14.286
231.57	50.000
231.95	-36.364
232.32	-36.364
232.69	30.000
233.07	-100.000
233.44	-41.176
233.81	0.000
234.19	11.111
234.56	27.273
234.93	41.379
235.31	5.263
235.68	16.667
236.05	-55.000
236.43	26.923
236.80	112.000
237.17	11.111
237.55	12.121
237.92	-50.000
238.29	6.452
238.67	-4.545
239.04	-2.778
239.41	21.429
239.79	28.261
240.16	5.556
240.53	17.391
240.91	1.961
241.28	18.033
241.65	37.313
242.02	24.324
242.40	10.769
242.77	21.333
243.14	3.659
243.51	3.947
243.89	11.538
244.26	18.812
244.63	21.569
245.00	18.692
245.38	26.316
245.75	6.195
246.12	19.048
246.49	20.155
246.87	24.286
247.24	19.205
247.61	17.763
247.98	16.779
248.36	17.901
248.73	14.724
249.10	23.497
249.47	16.418
249.84	21.990
250.22	22.798
250.59	23.333
250.96	24.091
251.33	18.878
251.70	22.650
252.08	22.500
252.45	20.492
252.82	21.488
253.19	16.797
253.56	18.251
253.94	17.308
254.31	20.076
254.68	20.979
255.05	23.127
255.42	17.007
255.79	22.330
256.16	19.205
256.54	18.874
256.91	21.967
257.28	19.016
257.65	20.064
258.02	17.404
258.39	18.234
258.76	21.713
259.14	24.138
259.51	22.478
259.88	17.847
260.25	19.167
260.62	21.644
260.99	23.224
261.36	23.324
261.73	20.955
262.10	22.527
262.47	21.448
262.85	24.242
263.22	16.883
263.59	20.526
263.96	19.949
264.33	18.926
264.70	20.494
265.07	23.150
265.44	24.717
265.81	21.528
266.18	22.449
266.55	21.429
266.92	19.818
267.29	22.319
267.66	20.621
268.03	22.707
268.40	22.338
268.77	17.768
269.14	19.383
269.51	20.614
269.88	22.951
270.25	22.736
270.62	21.730
270.99	22.424
271.36	23.366
271.73	18.664
272.10	23.647
272.47	20.240
272.84	19.679
273.21	21.242
273.58	20.968
273.95	19.423
274.32	19.772
274.69	20.309
275.06	21.795
275.43	19.224
275.80	20.459
276.17	20.741
276.54	20.709
276.91	17.710
277.28	20.434
277.65	21.544
278.02	19.485
278.39	19.384
278.76	19.684
279.13	19.858
279.50	22.165
279.87	20.930
280.23	18.486
280.60	21.017
280.97	19.079
281.34	20.204
281.71	21.997
282.08	17.608
282.45	21.604
282.82	20.094
283.19	18.740
283.56	20.984
283.92	20.120
284.29	18.799
284.66	19.704
285.03	19.872
285.40	19.629
285.77	19.040
286.14	19.695
286.51	19.482
286.87	18.799
287.24	20.181
287.61	18.984
287.98	18.580
288.35	19.231
288.72	20.562
289.08	18.448
289.45	17.308
289.82	18.072
290.19	18.391
290.56	17.606
290.93	17.832
291.29	17.493
291.66	17.631
292.03	16.418
292.40	19.184
292.77	17.925
293.13	17.997
293.50	16.032
293.87	15.973
294.24	18.400
294.60	18.078
294.97	14.899
295.34	16.773
295.71	16.898
296.08	15.762
296.44	15.319
296.81	15.834
297.18	15.940
297.55	15.094
297.91	15.065
298.28	15.640
298.65	15.696
299.02	16.175
299.38	15.675
299.75	16.005
300.12	15.278
300.48	15.323
300.85	15.636
301.22	15.213
301.59	15.068
301.95	15.028
302.32	15.667
302.69	14.348
303.05	14.908
303.42	15.854
303.79	14.583
304.15	14.511
304.52	14.905
304.89	16.021
305.25	13.768
305.62	15.047
305.99	15.052
306.35	14.012
306.72	15.926
307.09	13.503
307.45	14.182
307.82	15.338
308.19	13.017
308.55	15.236
308.92	13.827
309.29	14.080
309.65	14.327
310.02	13.465
310.38	14.961
310.75	14.757
311.12	15.149
311.48	15.249
311.85	14.910
312.22	14.421
312.58	14.742
312.95	13.098
313.31	14.815
313.68	14.927
314.05	16.079
314.41	15.209
314.78	14.351
315.14	14.973
315.51	15.143
315.87	15.482
316.24	15.708
316.61	14.387
316.97	15.023
317.34	14.903
317.70	14.672
318.07	15.432
318.43	15.476
318.80	14.381
319.16	14.850
319.53	14.310
319.89	13.760
320.26	14.769
320.62	14.716
320.99	14.035
321.35	14.972
321.72	15.256
322.08	14.698
322.45	15.086
322.81	15.614
323.18	14.159
323.54	15.259
323.91	14.858
324.27	14.114
324.64	15.869
325.00	14.428
325.37	16.216
325.73	15.620
326.10	15.247
326.46	15.961
326.83	16.413
327.19	15.197
327.56	15.494
327.92	14.634
328.29	14.839
328.65	15.829
329.01	15.228
329.38	15.754
329.74	14.897
330.11	16.182
330.47	16.091
330.84	16.451
331.20	16.500
331.56	15.425
331.93	15.481
332.29	16.695
332.66	15.033
333.02	15.829
333.38	15.688
333.75	15.993
334.11	16.514
334.48	15.842
334.84	16.907
335.20	15.701
335.57	16.020
335.93	16.529
336.29	15.225
336.66	16.316
337.02	15.719
337.38	16.752
337.75	15.702
338.11	16.989
338.47	15.964
338.84	15.398
339.20	15.417
339.56	15.815
339.93	15.681
340.29	15.056
340.65	15.328
341.02	15.563
341.38	16.896
341.74	15.900
342.11	15.286
342.47	15.965
342.83	16.345
343.20	16.108
343.56	15.718
343.92	16.493
344.28	16.172
344.65	16.124
345.01	16.849
345.37	16.330
345.73	14.887
346.10	14.977
346.46	15.348
346.82	15.581
347.19	15.355
347.55	16.388
347.91	14.413
348.27	15.326
348.63	15.994
349.00	15.436
349.36	15.985
349.72	15.253
350.08	16.196
350.45	15.589
350.81	14.480
351.17	16.391
351.53	16.073
351.89	15.642
352.26	14.552
352.62	15.522
352.98	15.115
353.34	14.862
353.70	15.254
354.07	15.723
354.43	14.958
354.79	15.333
355.15	14.790
355.51	15.789
355.87	14.361
356.24	15.285
356.60	15.447
356.96	15.493
357.32	14.126
357.68	14.861
358.04	14.895
358.40	14.627
358.77	15.863
359.13	15.362
359.49	14.052
359.85	14.358
360.21	14.993
360.57	14.573
360.93	14.880
361.29	15.228
361.66	14.482
362.02	15.449
362.38	16.022
362.74	14.385
363.10	15.406
363.46	14.612
363.82	15.057
364.18	14.497
364.54	14.592
364.90	15.518
365.26	14.828
365.62	14.733
365.98	14.295
366.35	14.430
366.71	15.306
367.07	15.562
367.43	14.380
367.79	14.864
368.15	15.585
368.51	14.479
368.87	15.480
369.23	15.000
369.59	14.208
369.95	15.957
370.31	15.935
370.67	14.580
371.03	15.166
371.39	15.312
371.75	15.337
372.11	15.176
372.47	14.353
372.83	15.576
373.19	15.010
373.55	15.176
373.91	14.792
374.27	14.942
374.63	15.832
374.99	15.053
375.35	14.675
375.71	15.032
376.07	15.236
376.42	15.806
376.78	15.413
377.14	14.910
377.50	15.813
377.86	16.256
378.22	15.509
378.58	15.636
378.94	15.728
379.30	14.880
379.66	15.344
380.02	16.330
380.38	15.668
380.74	15.775
381.09	15.389
381.45	15.511
381.81	15.691
382.17	15.321
382.53	16.199
382.89	15.068
383.25	15.826
383.61	14.583
383.97	15.430
384.32	16.926
384.68	15.487
385.04	15.847
385.40	15.910
385.76	16.706
386.12	15.799
386.48	16.706
386.83	16.269
387.19	15.701
387.55	15.493
387.91	15.126
388.27	16.282
388.62	15.636
388.98	16.131
389.34	16.618
389.70	16.560
390.06	15.867
390.42	16.867
390.77	17.158
391.13	16.138
391.49	16.123
391.85	16.303
392.20	16.311
392.56	17.188
392.92	16.685
393.28	16.971
393.64	16.536
393.99	17.316
394.35	17.114
394.71	16.287
395.07	15.449
395.42	16.905
395.78	18.160
396.14	17.053
396.50	16.271
396.85	16.875
397.21	16.864
397.57	16.726
397.92	17.526
398.28	16.730
398.64	17.162
399.00	16.230
399.35	16.754
399.71	16.793
400.07	17.631
400.42	17.288
400.78	17.419
401.14	17.302
401.49	17.567
401.85	16.919
402.21	17.787
402.57	17.371
402.92	17.435
403.28	17.155
403.63	17.124
403.99	17.102
404.35	17.510
404.70	17.790
405.06	16.739
405.42	17.799
405.77	17.285
406.13	17.342
406.49	18.525
406.84	17.784
407.20	17.440
407.55	16.899
407.91	17.725
408.27	17.609
408.62	18.790
408.98	18.108
409.34	16.481
409.69	18.109
410.05	17.995
410.40	18.503
410.76	17.499
411.11	18.469
411.47	18.550
411.83	18.107
412.18	18.735
412.54	18.139
412.89	17.986
413.25	18.284
413.60	17.806
413.96	18.415
414.31	18.187
414.67	17.889
415.03	18.338
415.38	18.411
415.74	17.532
416.09	18.137
416.45	18.347
416.80	17.503
417.16	17.880
417.51	18.555
417.87	18.026
418.22	18.623
418.58	18.401
418.93	19.267
419.29	18.434
419.64	17.767
420.00	18.338
420.35	18.360
420.71	17.863
421.06	17.999
421.42	18.119
421.77	18.848
422.12	19.503
422.48	18.177
422.83	18.510
423.19	18.780
423.54	18.308
423.90	18.443
424.25	19.040
424.61	18.083
424.96	18.396
425.31	18.790
425.67	17.928
426.02	18.650
426.38	18.829
426.73	18.304
427.09	19.723
427.44	18.187
427.79	18.629
428.15	19.178
428.50	18.371
428.85	18.083
429.21	19.840
429.56	18.016
429.92	18.771
430.27	18.506
430.62	18.955
430.98	18.298
431.33	18.475
431.68	18.199
432.04	19.045
432.39	18.907
432.74	18.893
433.10	19.470
433.45	18.060
433.80	19.045
434.16	18.543
434.51	18.705
434.86	19.055
435.22	19.766
435.57	19.281
435.92	18.642
436.28	19.056
436.63	19.061
436.98	19.270
437.34	18.433
437.69	18.657
438.04	18.720
438.39	20.103
438.75	19.148
439.10	19.292
439.45	19.508
439.81	19.661
440.16	18.820
440.51	19.119
440.86	19.288
441.22	18.596
441.57	19.340
441.92	18.817
442.27	19.242
442.63	19.871
442.98	19.744
443.33	19.253
443.68	19.772
444.03	19.897
444.39	19.279
444.74	19.091
445.09	19.361
445.44	19.336
445.79	18.918
446.15	19.168
446.50	19.742
446.85	19.893
447.20	19.923
447.55	19.195
447.91	19.372
448.26	19.503
448.61	19.394
448.96	20.225
449.31	19.406
449.66	19.172
450.02	19.409
450.37	20.085
450.72	18.461
451.07	19.818
451.42	19.931
451.77	19.066
452.12	19.752
452.47	18.835
452.83	20.214
453.18	19.440
453.53	19.529
453.88	19.161
454.23	20.452
454.58	20.662
454.93	19.296
455.28	21.072
455.63	19.727
455.98	19.888
456.34	20.377
456.69	19.577
457.04	19.385
457.39	20.344
457.74	20.582
458.09	18.946
458.44	20.259
458.79	19.856
459.14	19.927
459.49	19.977
459.84	19.780
460.19	19.545
460.54	19.478
460.89	19.269
461.24	19.943
461.59	19.867
461.94	19.624
462.29	19.429
462.64	19.916
462.99	19.209
463.34	20.441
463.69	20.164
464.04	20.623
464.39	20.684
464.74	20.353
465.09	19.319
465.44	19.742
465.79	19.831
466.14	19.802
466.49	20.211
466.84	20.055
467.19	20.231
467.54	19.918
467.89	19.713
468.24	20.332
468.59	19.745
468.94	19.580
469.29	19.376
469.64	20.598
469.99	19.822
470.34	20.668
470.68	20.369
471.03	20.629
471.38	20.078
471.73	20.221
472.08	21.320
472.43	20.710
472.78	21.725
473.13	19.722
473.48	21.027
473.83	20.371
474.17	20.985
474.52	20.986
474.87	20.709
475.22	21.465
475.57	20.613
475.92	20.657
476.27	20.660
476.61	20.197
476.96	20.177
477.31	20.248
477.66	21.039
478.01	20.590
478.36	20.289
478.70	19.754
479.05	21.063
479.40	21.027
479.75	21.085
480.10	20.417
480.45	20.966
480.79	20.862
481.14	21.140
481.49	20.400
481.84	20.757
482.19	20.258
482.53	20.420
482.88	20.470
483.23	21.254
483.58	20.349
483.92	20.789
484.27	20.491
484.62	20.132
484.97	20.684
485.31	19.219
485.66	19.228
486.01	18.966
486.36	19.180
486.70	19.573
487.05	20.483
487.40	20.269
487.75	20.153
488.09	20.006
488.44	19.729
488.79	19.663
489.13	20.275
489.48	19.340
489.83	20.402
490.17	20.494
490.52	20.402
490.87	20.939
491.22	20.754
491.56	21.544
491.91	20.802
492.26	21.333
492.60	21.032
492.95	21.457
493.30	21.112
493.64	20.894
493.99	20.746
494.34	20.819
494.68	20.814
495.03	20.705
495.37	21.349
495.72	21.088
496.07	21.166
496.41	20.721
496.76	21.393
497.11	21.189
497.45	20.673
497.80	21.057
498.14	21.406
498.49	21.599
498.84	21.024
499.18	21.233
499.53	21.435
499.87	21.890
500.22	20.971
500.56	20.558
500.91	21.739
501.26	21.364
501.60	20.990
501.95	21.277
502.29	21.457
502.64	21.644
502.98	21.096
503.33	21.210
503.67	20.672
504.02	20.271
504.36	22.118
504.71	21.589
505.06	20.919
505.40	21.572
505.75	21.721
506.09	21.823
506.44	21.495
506.78	22.248
507.13	22.637
507.47	22.549
507.82	22.112
508.16	21.702
508.51	21.425
508.85	21.965
509.19	22.359
509.54	22.526
509.88	22.487
510.23	22.584
510.57	23.006
510.92	22.013
511.26	22.559
511.61	21.439
511.95	22.450
512.30	22.550
512.64	22.589
512.98	22.011
513.33	22.681
513.67	22.438
514.02	22.943
514.36	23.018
514.70	23.177
515.05	22.732
515.39	22.362
515.74	23.171
516.08	22.768
516.42	23.757
516.77	22.766
517.11	22.383
517.46	22.853
517.80	23.731
518.14	23.993
518.49	23.698
518.83	22.831
519.17	23.156
519.52	23.166
519.86	23.337
520.20	24.494
520.55	24.151
520.89	23.198
521.23	24.400
521.58	24.068
521.92	23.796
522.26	23.253
522.61	24.711
522.95	23.875
523.29	23.736
523.64	23.879
523.98	24.244
524.32	25.272
524.66	24.303
525.01	22.933
525.35	23.492
525.69	23.434
526.04	23.995
526.38	23.793
526.72	24.452
527.06	23.636
527.41	24.198
527.75	24.703
528.09	24.557
528.43	23.623
528.78	23.642
529.12	24.197
529.46	24.733
529.80	24.314
530.15	23.942
530.49	24.437
530.83	25.030
531.17	23.357
531.51	23.466
531.86	23.558
532.20	25.244
532.54	23.878
532.88	25.152
533.22	25.044
533.57	24.351
533.91	23.962
534.25	24.194
534.59	24.195
534.93	24.165
535.27	24.845
535.62	24.275
535.96	24.811
536.30	24.442
536.64	24.925
536.98	24.662
537.32	25.926
537.66	24.267
538.01	25.076
538.35	24.361
538.69	24.700
539.03	24.893
539.37	24.028
539.71	24.384
540.05	24.341
540.39	23.839
540.73	24.287
541.07	24.586
541.42	24.217
541.76	23.488
542.10	23.824
542.44	24.178
542.78	24.513
543.12	24.017
543.46	24.603
543.80	23.981
544.14	24.895
544.48	25.355
544.82	24.776
545.16	24.747
545.50	24.326
545.84	23.882
546.18	26.481
546.52	24.841
546.86	24.403
547.20	25.064
547.54	23.845
547.88	23.508
548.22	23.801
548.56	23.640
548.90	23.522
549.24	24.498
549.58	24.038
549.92	24.936
550.26	24.854
550.60	24.442
550.94	24.838
551.28	24.620
551.62	25.202
551.96	24.984
552.30	25.558
552.64	25.140
552.98	24.454
553.32	24.566
553.66	25.016
554.00	25.347
554.34	25.032
554.68	24.597
555.02	25.624
555.36	25.970
555.69	24.023
556.03	24.968
556.37	26.345
556.71	24.731
557.05	24.792
557.39	25.149
557.73	25.694
558.07	25.232
558.41	24.917
558.75	25.423
559.08	25.539
559.42	25.103
559.76	25.237
560.10	26.122
560.44	25.858
560.78	25.125
561.12	24.938
561.45	24.574
561.79	24.725
562.13	25.693
562.47	24.846
562.81	24.494
563.15	25.442
563.48	25.730
563.82	25.212
564.16	24.288
564.50	24.791
564.84	25.723
565.17	25.235
565.51	24.338
565.85	25.119
566.19	25.058
566.52	24.927
566.86	24.505
567.20	23.545
567.54	24.535
567.88	25.433
568.21	24.061
568.55	24.652
568.89	24.467
569.23	24.461
569.56	23.955
569.90	23.414
570.24	23.575
570.57	23.412
570.91	23.209
571.25	22.765
571.59	23.073
571.92	23.001
572.26	22.922
572.60	22.632
572.93	23.212
573.27	22.900
573.61	22.790
573.95	22.651
574.28	22.728
574.62	22.442
574.96	21.989
575.29	22.318
575.63	22.430
575.97	22.754
576.30	22.428
576.64	22.811
576.98	22.733
577.31	22.383
577.65	22.802
577.98	22.157
578.32	22.044
578.66	21.824
578.99	22.425
579.33	22.232
579.67	22.597
580.00	22.454
580.34	21.815
580.67	21.845
581.01	22.891
581.35	22.307
581.68	22.112
582.02	22.329
582.35	22.246
582.69	22.614
583.02	22.519
583.36	22.715
583.70	22.449
584.03	22.414
584.37	22.315
584.70	22.518
585.04	22.181
585.37	21.918
585.71	22.395
586.04	23.030
586.38	23.445
586.72	22.387
587.05	22.819
587.39	22.638
587.72	22.895
588.06	23.138
588.39	23.152
588.73	22.884
589.06	23.476
589.40	22.618
589.73	22.686
590.07	23.375
590.40	23.563
590.73	23.082
591.07	23.976
591.40	22.862
591.74	23.251
592.07	23.955
592.41	23.068
592.74	23.465
593.08	23.758
593.41	23.593
593.75	23.391
594.08	23.054
594.41	23.045
594.75	23.082
595.08	22.611
595.42	22.727
595.75	23.765
596.09	23.721
596.42	23.898
596.75	23.504
597.09	23.758
597.42	23.957
597.75	24.226
598.09	24.048
598.42	24.367
598.76	23.271
599.09	23.425
599.42	23.131
599.76	22.846
600.09	23.991
600.42	23.390
600.76	23.382
601.09	23.166
601.42	23.138
601.76	23.103
602.09	23.159
602.42	23.083
602.76	22.472
603.09	24.009
603.42	23.158
603.76	23.009
604.09	23.882
604.42	23.450
604.76	22.755
605.09	23.694
605.42	24.203
605.75	23.692
606.09	23.628
606.42	22.619
606.75	23.238
607.09	22.849
607.42	23.931
607.75	23.212
608.08	23.362
608.42	23.982
608.75	23.383
609.08	23.217
609.41	23.467
609.75	23.214
610.08	24.186
610.41	24.087
610.74	23.950
611.07	24.245
611.41	24.036
611.74	24.296
612.07	24.731
612.40	24.335
612.73	24.548
613.07	23.912
613.40	24.398
613.73	23.832
614.06	24.485
614.39	23.664
614.72	23.532
615.06	23.628
615.39	23.925
615.72	23.981
616.05	24.526
616.38	24.823
616.71	25.705
617.05	24.015
617.38	25.308
617.71	24.406
618.04	24.555
618.37	24.645
618.70	26.471
619.03	24.791
619.36	25.092
619.69	24.600
620.03	25.235
620.36	25.031
620.69	24.985
621.02	25.919
621.35	25.980
621.68	26.826
622.01	26.477
622.34	26.569
622.67	25.773
623.00	24.359
623.33	25.282
623.66	25.292
623.99	24.292
624.32	27.031
624.65	25.032
624.99	25.748
625.32	26.127
625.65	24.680
625.98	25.085
626.31	26.364
626.64	25.934
626.97	25.281
627.30	25.285
627.63	24.756
627.96	26.802
628.29	26.848
628.62	25.357
628.95	25.416
629.28	26.253
629.61	26.852
629.94	26.192
630.26	26.780
630.59	25.907
630.92	26.147
631.25	26.565
631.58	28.060
631.91	27.835
632.24	28.146
632.57	26.376
632.90	27.081
633.23	28.163
633.56	25.714
633.89	27.273
