SpectraSuite Data File
++++++++++++++++++++++++++++++++++++
Date: Thu May 14 16:13:14 PDT 2015
User: schluterlab
Dark Spectrum Present: Yes
Reference Spectrum Present: Yes
Number of Sampled Component Spectra: 1
Spectrometers: USB2E3373
Integration Time (usec): 3000 (USB2E3373)
Spectra Averaged: 3 (USB2E3373)
Boxcar Smoothing: 0 (USB2E3373)
Correct for Electrical Dark: No (USB2E3373)
Strobe/Lamp Enabled: No (USB2E3373)
Correct for Detector Non-linearity: No (USB2E3373)
Correct for Stray Light: No (USB2E3373)
Number of Pixels in Processed Spectrum: 2048
>>>>>Begin Processed Spectral Data<<<<<
178.53	0.000
178.91	14.286
179.29	-900.000
179.67	-1000.000
180.04	121.429
180.42	60.000
180.80	200.000
181.18	-500.000
181.56	-100.000
181.94	-125.000
182.31	-175.000
182.69	366.667
183.07	-450.000
183.45	200.000
183.83	-50.000
184.20	66.667
184.58	500.000
184.96	-50.000
185.34	-55.556
185.72	-120.000
186.09	111.111
186.47	100.000
186.85	260.000
187.23	-155.556
187.61	-600.000
187.98	140.000
188.36	200.000
188.74	-150.000
189.12	-166.667
189.49	37.500
189.87	-37.500
190.25	-55.556
190.63	-120.000
191.00	-11.111
191.38	0.000
191.76	-275.000
192.14	-83.333
192.51	400.000
192.89	116.667
193.27	0.000
193.65	-42.857
194.02	-700.000
194.40	-57.143
194.78	-14.286
195.15	0.000
195.53	-45.455
195.91	0.000
196.29	-150.000
196.66	-38.462
197.04	-1900.000
197.42	-114.286
197.79	-550.000
198.17	-25.000
198.55	-114.286
198.92	22.222
199.30	-37.500
199.68	27.273
200.05	-28.571
200.43	-950.000
200.81	200.000
201.18	0.000
201.56	88.889
201.94	0.000
202.31	533.333
202.69	-133.333
203.07	400.000
203.44	-133.333
203.82	-225.000
204.19	-100.000
204.57	-133.333
204.95	-37.500
205.32	-800.000
205.70	100.000
206.08	16.667
206.45	-66.667
206.83	340.000
207.20	0.000
207.58	-300.000
207.96	-183.333
208.33	116.667
208.71	58.333
209.08	-50.000
209.46	0.000
209.84	183.333
210.21	-400.000
210.59	100.000
210.96	133.333
211.34	-200.000
211.71	-75.000
212.09	-700.000
212.46	0.000
212.84	800.000
213.22	-220.000
213.59	-25.000
213.97	30.000
214.34	-100.000
214.72	83.333
215.09	-200.000
215.47	0.000
215.84	85.714
216.22	600.000
216.59	-40.000
216.97	-120.000
217.34	-125.000
217.72	12.500
218.09	-75.000
218.47	-200.000
218.84	0.000
219.22	80.000
219.59	-47.059
219.97	60.000
220.34	700.000
220.72	-77.778
221.09	30.769
221.47	-266.667
221.84	-40.000
222.22	-228.571
222.59	0.000
222.97	-25.000
223.34	-220.000
223.72	-700.000
224.09	250.000
224.46	-100.000
224.84	-40.000
225.21	-28.571
225.59	-125.000
225.96	-125.000
226.34	0.000
226.71	183.333
227.08	-750.000
227.46	46.667
227.83	-100.000
228.21	21.053
228.58	137.500
228.95	250.000
229.33	8.333
229.70	50.000
230.08	84.211
230.45	70.000
230.82	-300.000
231.20	-21.429
231.57	-25.000
231.95	-54.545
232.32	-18.182
232.69	35.000
233.07	-175.000
233.44	-35.294
233.81	-10.000
234.19	-16.667
234.56	9.091
234.93	48.276
235.31	52.632
235.68	27.778
236.05	-40.000
236.43	19.231
236.80	56.000
237.17	29.630
237.55	6.061
237.92	-40.000
238.29	61.290
238.67	6.818
239.04	11.111
239.41	28.571
239.79	21.739
240.16	22.222
240.53	21.739
240.91	3.922
241.28	16.393
241.65	34.328
242.02	22.973
242.40	4.615
242.77	24.000
243.14	29.268
243.51	14.474
243.89	10.256
244.26	36.634
244.63	30.392
245.00	30.841
245.38	28.070
245.75	10.619
246.12	24.603
246.49	27.907
246.87	25.000
247.24	25.828
247.61	32.895
247.98	27.517
248.36	26.543
248.73	27.607
249.10	28.415
249.47	30.348
249.84	37.696
250.22	30.570
250.59	26.667
250.96	31.818
251.33	26.531
251.70	26.068
252.08	27.083
252.45	34.426
252.82	26.446
253.19	22.656
253.56	30.798
253.94	28.462
254.31	29.545
254.68	32.168
255.05	34.853
255.42	27.891
255.79	29.773
256.16	32.119
256.54	29.470
256.91	31.475
257.28	34.098
257.65	32.484
258.02	27.434
258.39	29.060
258.76	31.804
259.14	31.897
259.51	34.006
259.88	29.462
260.25	29.167
260.62	31.507
260.99	34.153
261.36	33.244
261.73	30.504
262.10	32.692
262.47	30.563
262.85	34.343
263.22	30.909
263.59	30.000
263.96	32.992
264.33	30.691
264.70	32.593
265.07	35.561
265.44	31.293
265.81	32.639
266.18	35.601
266.55	32.143
266.92	29.157
267.29	32.385
267.66	31.707
268.03	34.498
268.40	33.403
268.77	30.296
269.14	29.075
269.51	33.114
269.88	32.172
270.25	29.980
270.62	31.435
270.99	35.758
271.36	33.465
271.73	30.845
272.10	35.872
272.47	30.862
272.84	31.526
273.21	33.467
273.58	34.073
273.95	31.731
274.32	29.658
274.69	29.014
275.06	31.868
275.43	29.575
275.80	30.864
276.17	29.815
276.54	31.157
276.91	30.233
277.28	34.177
277.65	31.777
278.02	29.596
278.39	30.254
278.76	33.216
279.13	30.496
279.50	31.787
279.87	30.590
280.23	28.169
280.60	31.017
280.97	32.401
281.34	28.862
281.71	31.472
282.08	29.568
282.45	29.296
282.82	28.885
283.19	28.918
283.56	28.197
283.92	32.282
284.29	33.175
284.66	29.064
285.03	28.846
285.40	29.212
285.77	30.805
286.14	29.771
286.51	30.441
286.87	28.594
287.24	31.175
287.61	30.643
287.98	30.211
288.35	29.142
288.72	30.178
289.08	27.965
289.45	27.071
289.82	28.765
290.19	28.448
290.56	29.155
290.93	28.959
291.29	28.926
291.66	27.548
292.03	28.087
292.40	28.844
292.77	25.606
293.13	25.440
293.50	26.150
293.87	26.980
294.24	27.333
294.60	25.537
294.97	26.309
295.34	26.761
295.71	24.086
296.08	23.385
296.44	26.103
296.81	24.726
297.18	24.035
297.55	23.939
297.91	24.792
298.28	23.815
298.65	24.614
299.02	24.321
299.38	24.256
299.75	24.416
300.12	22.454
300.48	24.539
300.85	24.184
301.22	23.826
301.59	22.603
301.95	22.938
302.32	23.778
302.69	21.796
303.05	23.721
303.42	23.614
303.79	22.292
304.15	23.239
304.52	23.044
304.89	22.408
305.25	21.946
305.62	22.989
305.99	22.887
306.35	22.581
306.72	22.441
307.09	23.249
307.45	21.636
307.82	22.200
308.19	22.503
308.55	22.469
308.92	23.369
309.29	22.510
309.65	22.417
310.02	22.574
310.38	20.177
310.75	22.427
311.12	21.572
311.48	22.678
311.85	22.602
312.22	22.770
312.58	21.127
312.95	21.033
313.31	22.313
313.68	22.802
314.05	21.319
314.41	21.949
314.78	21.798
315.14	22.505
315.51	21.607
315.87	23.042
316.24	22.374
316.61	22.380
316.97	21.538
317.34	21.164
317.70	22.445
318.07	22.134
318.43	22.534
318.80	22.241
319.16	21.030
319.53	19.623
319.89	20.947
320.26	21.797
320.62	21.543
320.99	19.575
321.35	21.719
321.72	22.326
322.08	20.830
322.45	22.403
322.81	21.300
323.18	21.681
323.54	21.034
323.91	22.509
324.27	20.998
324.64	22.166
325.00	20.896
325.37	21.212
325.73	21.488
326.10	21.006
326.46	21.498
326.83	22.338
327.19	21.732
327.56	21.976
327.92	21.873
328.29	20.403
328.65	21.524
329.01	20.728
329.38	22.072
329.74	21.147
330.11	20.976
330.47	20.556
330.84	20.672
331.20	21.167
331.56	22.270
331.93	22.092
332.29	20.847
332.66	21.179
333.02	20.603
333.38	20.470
333.75	20.370
334.11	20.517
334.48	20.957
334.84	22.090
335.20	20.235
335.57	20.067
335.93	21.570
336.29	20.216
336.66	20.942
337.02	20.903
337.38	21.003
337.75	20.000
338.11	20.774
338.47	20.513
338.84	19.712
339.20	18.871
339.56	20.181
339.93	21.100
340.29	19.485
340.65	19.384
341.02	20.032
341.38	20.857
341.74	20.500
342.11	21.400
342.47	19.142
342.83	21.176
343.20	20.850
343.56	20.128
343.92	20.256
344.28	19.609
344.65	20.930
345.01	20.203
345.37	20.840
345.73	19.096
346.10	20.281
346.46	20.411
346.82	19.850
347.19	18.946
347.55	19.879
347.91	19.539
348.27	20.030
348.63	19.421
349.00	19.612
349.36	19.703
349.72	19.792
350.08	21.248
350.45	18.403
350.81	19.759
351.17	19.023
351.53	19.788
351.89	19.818
352.26	19.851
352.62	20.000
352.98	19.695
353.34	18.671
353.70	20.493
354.07	19.151
354.43	19.666
354.79	19.147
355.15	18.543
355.51	20.029
355.87	18.325
356.24	19.924
356.60	18.699
356.96	19.718
357.32	18.959
357.68	19.766
358.04	18.488
358.40	19.776
358.77	20.029
359.13	18.612
359.49	19.182
359.85	18.202
360.21	19.656
360.57	18.952
360.93	18.477
361.29	19.509
361.66	18.465
362.02	19.555
362.38	18.904
362.74	18.296
363.10	18.776
363.46	18.560
363.82	18.679
364.18	19.423
364.54	18.949
364.90	18.528
365.26	18.276
365.62	19.067
365.98	18.652
366.35	19.195
366.71	19.320
367.07	18.403
367.43	19.173
367.79	19.244
368.15	19.866
368.51	19.215
368.87	19.138
369.23	18.200
369.59	18.716
369.95	18.391
370.31	18.906
370.67	18.294
371.03	18.906
371.39	17.864
371.75	18.157
372.11	19.106
372.47	18.145
372.83	17.997
373.19	18.279
373.55	18.902
373.91	17.723
374.27	19.211
374.63	19.080
374.99	18.302
375.35	18.312
375.71	18.645
376.07	17.883
376.42	17.443
376.78	18.894
377.14	19.152
377.50	18.406
377.86	18.165
378.22	19.042
378.58	18.193
378.94	19.014
379.30	17.633
379.66	18.342
380.02	18.696
380.38	19.412
380.74	18.310
381.09	18.525
381.45	18.125
381.81	18.970
382.17	18.230
382.53	18.246
382.89	17.664
383.25	17.468
383.61	17.650
383.97	18.492
384.32	18.720
384.68	17.227
385.04	19.202
385.40	18.503
385.76	18.230
386.12	17.953
386.48	18.412
386.83	18.832
387.19	18.656
387.55	18.721
387.91	17.865
388.27	17.436
388.62	18.270
388.98	17.879
389.34	17.914
389.70	18.071
390.06	17.703
390.42	17.470
390.77	19.025
391.13	17.606
391.49	17.572
391.85	18.121
392.20	19.276
392.56	17.779
392.92	17.884
393.28	18.629
393.64	17.654
393.99	18.187
394.35	18.283
394.71	18.084
395.07	17.964
395.42	17.590
395.78	19.074
396.14	18.717
396.50	16.508
396.85	18.068
397.21	17.456
397.57	17.609
397.92	17.812
398.28	16.784
398.64	16.991
399.00	17.330
399.35	18.063
399.71	17.500
400.07	17.406
400.42	17.520
400.78	17.535
401.14	17.359
401.49	18.078
401.85	17.791
402.21	18.250
402.57	18.369
402.92	17.908
403.28	17.447
403.63	16.647
403.99	17.637
404.35	18.192
404.70	18.470
405.06	17.228
405.42	18.970
405.77	17.721
406.13	17.450
406.49	16.723
406.84	16.898
407.20	17.440
407.55	16.535
407.91	16.845
408.27	17.079
408.62	17.568
408.98	17.528
409.34	17.243
409.69	17.305
410.05	17.585
410.40	18.213
410.76	17.274
411.11	18.235
411.47	17.568
411.83	17.872
412.18	18.434
412.54	18.079
412.89	17.171
413.25	17.325
413.60	16.887
413.96	17.249
414.31	17.394
414.67	17.472
415.03	17.600
415.38	17.781
415.74	18.021
416.09	18.137
416.45	17.470
416.80	17.013
417.16	17.688
417.51	17.186
417.87	17.903
418.22	17.964
418.58	17.782
418.93	18.859
419.29	17.571
419.64	17.047
420.00	17.923
420.35	17.238
420.71	16.370
421.06	16.849
421.42	17.431
421.77	16.747
422.12	17.495
422.48	17.716
422.83	17.963
423.19	17.560
423.54	17.257
423.90	18.112
424.25	18.400
424.61	17.853
424.96	18.067
425.31	17.994
425.67	17.499
426.02	17.432
426.38	17.049
426.73	17.355
427.09	18.743
427.44	16.876
427.79	18.021
428.15	17.295
428.50	16.742
428.85	17.853
429.21	18.298
429.56	17.078
429.92	16.658
430.27	17.542
430.62	16.805
430.98	17.265
431.33	17.546
431.68	16.140
432.04	17.826
432.39	16.658
432.74	16.838
433.10	16.820
433.45	16.890
433.80	17.489
434.16	17.562
434.51	17.677
434.86	17.101
435.22	17.109
435.57	17.158
435.92	17.028
436.28	17.406
436.63	17.313
436.98	16.962
437.34	17.249
437.69	17.391
438.04	16.711
438.39	17.289
438.75	17.322
439.10	17.706
439.45	16.713
439.81	17.627
440.16	17.051
440.51	17.503
440.86	17.454
441.22	17.042
441.57	17.086
441.92	17.507
442.27	17.626
442.63	17.188
442.98	18.036
443.33	17.307
443.68	18.434
444.03	17.780
444.39	17.753
444.74	17.509
445.09	16.979
445.44	17.861
445.79	17.337
446.15	17.626
446.50	17.313
446.85	17.704
447.20	18.037
447.55	17.416
447.91	17.382
448.26	17.600
448.61	17.056
448.96	17.758
449.31	16.967
449.66	16.993
450.02	17.669
450.37	17.741
450.72	16.846
451.07	17.711
451.42	17.504
451.77	17.399
452.12	17.833
452.47	16.696
452.83	17.568
453.18	17.104
453.53	16.542
453.88	17.394
454.23	17.119
454.58	17.528
454.93	17.415
455.28	17.219
455.63	17.169
455.98	16.983
456.34	17.786
456.69	17.578
457.04	17.671
457.39	17.350
457.74	17.953
458.09	16.914
458.44	18.211
458.79	17.019
459.14	17.305
459.49	17.431
459.84	17.786
460.19	16.491
460.54	17.376
460.89	18.581
461.24	17.471
461.59	17.820
461.94	17.228
462.29	17.805
462.64	16.415
462.99	17.640
463.34	17.197
463.69	17.761
464.04	17.510
464.39	17.489
464.74	17.560
465.09	16.667
465.44	17.918
465.79	17.768
466.14	16.519
466.49	17.474
466.84	17.025
467.19	17.399
467.54	17.509
467.89	17.586
468.24	16.953
468.59	16.445
468.94	16.900
469.29	17.157
469.64	17.101
469.99	16.953
470.34	17.203
470.68	17.362
471.03	17.682
471.38	17.070
471.73	16.970
472.08	17.195
472.43	18.122
472.78	17.380
473.13	17.636
473.48	17.523
473.83	17.760
474.17	17.292
474.52	16.717
474.87	18.217
475.22	17.690
475.57	17.134
475.92	17.322
476.27	16.880
476.61	17.082
476.96	16.840
477.31	17.624
477.66	17.733
478.01	16.878
478.36	17.099
478.70	17.389
479.05	17.536
479.40	17.078
479.75	17.579
480.10	16.959
480.45	17.229
480.79	17.188
481.14	16.590
481.49	16.811
481.84	17.319
482.19	17.376
482.53	17.796
482.88	17.590
483.23	17.297
483.58	17.118
483.92	16.844
484.27	17.062
484.62	16.749
484.97	17.613
485.31	17.071
485.66	16.851
486.01	17.304
486.36	17.419
486.70	17.935
487.05	17.789
487.40	18.133
487.75	18.117
488.09	17.836
488.44	17.109
488.79	17.403
489.13	17.017
489.48	17.243
489.83	17.103
490.17	16.403
490.52	16.708
490.87	17.005
491.22	17.071
491.56	17.363
491.91	17.575
492.26	17.482
492.60	17.315
492.95	17.201
493.30	16.674
493.64	16.382
493.99	17.325
494.34	16.768
494.68	16.702
495.03	17.313
495.37	17.221
495.72	17.098
496.07	17.178
496.41	16.559
496.76	17.723
497.11	17.367
497.45	17.307
497.80	17.015
498.14	16.825
498.49	17.417
498.84	17.093
499.18	17.049
499.53	16.951
499.87	17.231
500.22	16.073
500.56	16.059
500.91	16.979
501.26	17.000
501.60	16.659
501.95	16.978
502.29	17.376
502.64	17.403
502.98	16.868
503.33	16.760
503.67	16.136
504.02	16.769
504.36	17.873
504.71	16.720
505.06	16.826
505.40	17.550
505.75	17.350
506.09	17.081
506.44	17.549
506.78	16.743
507.13	16.505
507.47	17.006
507.82	17.472
508.16	17.304
508.51	16.362
508.85	17.241
509.19	17.196
509.54	17.291
509.88	16.707
510.23	17.727
510.57	17.690
510.92	16.691
511.26	16.114
511.61	16.031
511.95	15.617
512.30	16.741
512.64	16.092
512.98	17.309
513.33	16.935
513.67	17.185
514.02	16.403
514.36	16.675
514.70	16.458
515.05	16.893
515.39	16.903
515.74	17.603
516.08	17.063
516.42	16.902
516.77	17.350
517.11	17.071
517.46	16.808
517.80	17.424
518.14	17.845
518.49	16.866
518.83	17.137
519.17	16.424
519.52	16.719
519.86	16.895
520.20	16.400
520.55	16.539
520.89	16.498
521.23	16.974
521.58	17.062
521.92	16.601
522.26	16.781
522.61	17.419
522.95	16.897
523.29	16.494
523.64	17.433
523.98	16.885
524.32	18.395
524.66	16.961
525.01	16.704
525.35	16.485
525.69	16.473
526.04	16.073
526.38	16.494
526.72	16.840
527.06	17.771
527.41	17.085
527.75	16.330
528.09	17.355
528.43	16.519
528.78	16.821
529.12	17.202
529.46	16.582
529.80	16.476
530.15	16.638
530.49	16.311
530.83	16.883
531.17	16.906
531.51	16.667
531.86	17.969
532.20	17.622
532.54	17.235
532.88	17.333
533.22	17.089
533.57	16.619
533.91	17.677
534.25	17.354
534.59	17.126
534.93	16.921
535.27	16.789
535.62	17.339
535.96	16.734
536.30	18.096
536.64	17.477
536.98	17.282
537.32	16.975
537.66	17.717
538.01	16.798
538.35	17.235
538.69	16.947
539.03	17.106
539.37	17.609
539.71	17.538
540.05	16.966
540.39	16.809
540.73	16.636
541.07	17.106
541.42	16.952
541.76	17.200
542.10	18.034
542.44	17.113
542.78	17.214
543.12	17.402
543.46	17.399
543.80	16.607
544.14	16.756
544.48	18.085
544.82	17.834
545.16	16.577
545.50	16.956
545.84	16.840
546.18	18.457
546.52	16.688
546.86	16.226
547.20	17.048
547.54	17.416
547.88	16.637
548.22	17.018
548.56	16.735
548.90	16.955
549.24	17.143
549.58	17.603
549.92	17.347
550.26	17.864
550.60	16.720
550.94	17.141
551.28	16.766
551.62	17.183
551.96	17.152
552.30	18.228
552.64	17.050
552.98	17.155
553.32	18.135
553.66	18.135
554.00	18.285
554.34	17.439
554.68	17.818
555.02	17.477
555.36	17.620
555.69	16.976
556.03	17.718
556.37	17.772
556.71	16.867
557.05	16.933
557.39	17.120
557.73	17.371
558.07	17.550
558.41	17.608
558.75	17.647
559.08	17.954
559.42	17.078
559.76	17.978
560.10	17.482
560.44	17.942
560.78	17.062
561.12	17.734
561.45	17.883
561.79	17.521
562.13	17.807
562.47	16.954
562.81	17.089
563.15	17.487
563.48	18.148
563.82	17.533
564.16	17.383
564.50	16.925
564.84	16.637
565.17	18.235
565.51	16.801
565.85	17.518
566.19	17.857
566.52	17.554
566.86	17.431
567.20	16.313
567.54	16.994
567.88	17.380
568.21	18.083
568.55	17.650
568.89	18.021
569.23	17.533
569.56	18.054
569.90	18.175
570.24	17.538
570.57	17.736
570.91	17.544
571.25	17.819
571.59	18.007
571.92	17.591
572.26	18.131
572.60	18.073
572.93	17.924
573.27	17.898
573.61	18.158
573.95	18.257
574.28	17.986
574.62	18.122
574.96	17.865
575.29	17.603
575.63	18.064
575.97	18.323
576.30	17.740
576.64	17.681
576.98	17.813
577.31	17.915
577.65	18.428
577.98	17.865
578.32	18.220
578.66	17.659
578.99	17.633
579.33	17.541
579.67	17.679
580.00	17.824
580.34	17.845
580.67	18.005
581.01	18.066
581.35	17.884
581.68	18.314
582.02	18.192
582.35	17.988
582.69	18.132
583.02	18.408
583.36	18.156
583.70	18.087
584.03	18.023
584.37	18.119
584.70	17.873
585.04	17.810
585.37	18.118
585.71	18.037
586.04	17.878
586.38	18.059
586.72	17.623
587.05	17.856
587.39	17.876
587.72	17.871
588.06	18.085
588.39	17.799
588.73	17.857
589.06	17.861
589.40	18.070
589.73	18.091
590.07	18.137
590.40	18.222
590.73	18.028
591.07	18.615
591.40	17.263
591.74	17.886
592.07	18.473
592.41	17.232
592.74	17.252
593.08	17.930
593.41	18.139
593.75	18.075
594.08	17.843
594.41	18.077
594.75	18.001
595.08	17.900
595.42	17.825
595.75	18.308
596.09	18.536
596.42	18.237
596.75	18.255
597.09	18.303
597.42	17.720
597.75	17.836
598.09	18.452
598.42	18.335
598.76	17.768
599.09	17.978
599.42	17.600
599.76	17.927
600.09	17.684
600.42	18.118
600.76	17.999
601.09	17.756
601.42	17.679
601.76	18.276
602.09	17.655
602.42	17.266
602.76	18.155
603.09	18.098
603.42	17.522
603.76	18.041
604.09	18.275
604.42	17.798
604.76	17.466
605.09	17.870
605.42	18.381
605.75	18.000
606.09	17.357
606.42	17.694
606.75	17.354
607.09	17.512
607.42	17.649
607.75	17.859
608.08	17.522
608.42	17.614
608.75	18.035
609.08	17.105
609.41	18.041
609.75	17.500
610.08	17.898
610.41	17.502
610.74	17.395
611.07	17.673
611.41	18.475
611.74	18.152
612.07	18.420
612.40	17.110
612.73	17.946
613.07	17.946
613.40	18.142
613.73	17.333
614.06	18.253
614.39	17.833
614.72	17.661
615.06	17.661
615.39	17.255
615.72	18.294
616.05	17.533
616.38	18.012
616.71	18.025
617.05	17.838
617.38	18.406
617.71	17.765
618.04	17.809
618.37	17.923
618.70	17.986
619.03	17.384
619.36	17.571
619.69	17.809
620.03	16.949
620.36	17.607
620.69	17.643
621.02	18.438
621.35	18.650
621.68	17.643
622.01	18.292
622.34	16.876
622.67	17.595
623.00	16.869
623.33	18.514
623.66	17.445
623.99	18.170
624.32	17.999
624.65	17.503
624.99	19.181
625.32	19.138
625.65	17.262
625.98	16.746
626.31	17.364
626.64	18.462
626.97	17.029
627.30	17.312
627.63	17.329
627.96	17.417
628.29	17.588
628.62	17.632
628.95	17.353
629.28	16.483
629.61	16.414
629.94	16.820
630.26	18.305
630.59	18.135
630.92	17.229
631.25	19.141
631.58	19.209
631.91	17.901
632.24	17.579
632.57	17.552
632.90	17.854
633.23	17.347
