SpectraSuite Data File
++++++++++++++++++++++++++++++++++++
Date: Thu May 14 15:50:50 PDT 2015
User: schluterlab
Dark Spectrum Present: Yes
Reference Spectrum Present: Yes
Number of Sampled Component Spectra: 1
Spectrometers: USB2E3373
Integration Time (usec): 3000 (USB2E3373)
Spectra Averaged: 3 (USB2E3373)
Boxcar Smoothing: 0 (USB2E3373)
Correct for Electrical Dark: No (USB2E3373)
Strobe/Lamp Enabled: No (USB2E3373)
Correct for Detector Non-linearity: No (USB2E3373)
Correct for Stray Light: No (USB2E3373)
Number of Pixels in Processed Spectrum: 2048
>>>>>Begin Processed Spectral Data<<<<<
178.53	0.000
178.91	642.857
179.29	-5300.000
179.67	-5200.000
180.04	457.143
180.42	390.000
180.80	860.000
181.18	-3300.000
181.56	-3800.000
181.94	1025.000
182.31	-1025.000
182.69	1200.000
183.07	-2100.000
183.45	1100.000
183.83	-700.000
184.20	-1433.333
184.58	4100.000
184.96	-1100.000
185.34	-444.444
185.72	-680.000
186.09	577.778
186.47	2300.000
186.85	940.000
187.23	-444.444
187.61	-4300.000
187.98	820.000
188.36	1325.000
188.74	-900.000
189.12	-1466.667
189.49	-243.750
189.87	-512.500
190.25	-388.889
190.63	-800.000
191.00	-511.111
191.38	0.000
191.76	-1100.000
192.14	-666.667
192.51	2000.000
192.89	-666.667
193.27	0.000
193.65	-557.143
194.02	-5600.000
194.40	-642.857
194.78	642.857
195.15	0.000
195.53	-390.909
195.91	0.000
196.29	-1075.000
196.66	-307.692
197.04	-4200.000
197.42	-614.286
197.79	-1850.000
198.17	-550.000
198.55	-671.429
198.92	-333.333
199.30	-475.000
199.68	-336.364
200.05	-221.429
200.43	-2300.000
200.81	671.429
201.18	0.000
201.56	644.444
201.94	0.000
202.31	1466.667
202.69	-488.889
203.07	4200.000
203.44	-466.667
203.82	-1050.000
204.19	-333.333
204.57	-766.667
204.95	-512.500
205.32	-4700.000
205.70	1200.000
206.08	-683.333
206.45	-766.667
206.83	1080.000
207.20	-616.667
207.58	-900.000
207.96	-816.667
208.33	-516.667
208.71	408.333
209.08	-566.667
209.46	0.000
209.84	783.333
210.21	1800.000
210.59	2350.000
210.96	1700.000
211.34	-1125.000
211.71	-600.000
212.09	-3600.000
212.46	0.000
212.84	2750.000
213.22	-920.000
213.59	-825.000
213.97	-420.000
214.34	-1533.333
214.72	750.000
215.09	-1225.000
215.47	0.000
215.84	700.000
216.22	2300.000
216.59	-920.000
216.97	-740.000
217.34	-1175.000
217.72	-475.000
218.09	-1175.000
218.47	-1025.000
218.84	0.000
219.22	760.000
219.59	-211.765
219.97	-195.000
220.34	2400.000
220.72	-466.667
221.09	-261.538
221.47	-1566.667
221.84	-350.000
222.22	-685.714
222.59	0.000
222.97	-475.000
223.34	-1100.000
223.72	-3700.000
224.09	-950.000
224.46	-925.000
224.84	-640.000
225.21	-771.429
225.59	-1325.000
225.96	-1000.000
226.34	-123.077
226.71	750.000
227.08	-2200.000
227.46	-260.000
227.83	-1150.000
228.21	-168.421
228.58	650.000
228.95	2450.000
229.33	-350.000
229.70	-430.000
230.08	-173.684
230.45	480.000
230.82	-1366.667
231.20	-307.143
231.57	-300.000
231.95	-390.909
232.32	-372.727
232.69	-195.000
233.07	-1050.000
233.44	-258.824
233.81	-470.000
234.19	-205.556
234.56	-140.909
234.93	-106.897
235.31	-226.316
235.68	-200.000
236.05	-225.000
236.43	-134.615
236.80	-132.000
237.17	-133.333
237.55	-112.121
237.92	-500.000
238.29	-112.903
238.67	-86.364
239.04	-86.111
239.41	-88.095
239.79	-76.087
240.16	-64.815
240.53	-82.609
240.91	-88.235
241.28	-68.852
241.65	-49.254
242.02	-44.595
242.40	-73.846
242.77	-49.333
243.14	-56.098
243.51	-59.211
243.89	-56.410
244.26	-33.663
244.63	-32.353
245.00	-31.776
245.38	-33.333
245.75	-40.708
246.12	-23.810
246.49	-33.333
246.87	-22.143
247.24	-16.556
247.61	-19.079
247.98	-15.436
248.36	-17.284
248.73	-12.883
249.10	-11.475
249.47	-7.463
249.84	-9.948
250.22	-16.062
250.59	-12.778
250.96	-8.636
251.33	-15.306
251.70	-5.983
252.08	-6.667
252.45	-9.016
252.82	-12.397
253.19	-9.766
253.56	-3.802
253.94	-10.000
254.31	-4.924
254.68	-4.895
255.05	-4.560
255.42	-1.361
255.79	-5.178
256.16	-5.960
256.54	-8.278
256.91	-3.279
257.28	-6.557
257.65	-5.414
258.02	-5.015
258.39	-3.134
258.76	-2.446
259.14	-2.586
259.51	-3.458
259.88	-3.116
260.25	-2.778
260.62	-1.096
260.99	0.000
261.36	2.413
261.73	-2.122
262.10	-3.022
262.47	-2.145
262.85	1.010
263.22	-2.078
263.59	-5.526
263.96	0.000
264.33	-1.023
264.70	-2.716
265.07	1.671
265.44	2.041
265.81	-1.389
266.18	0.907
266.55	0.670
266.92	-1.595
267.29	-0.656
267.66	-1.552
268.03	0.655
268.40	-1.044
268.77	-2.278
269.14	-0.441
269.51	-1.754
269.88	2.049
270.25	0.805
270.62	2.110
270.99	3.636
271.36	3.960
271.73	1.179
272.10	1.603
272.47	1.002
272.84	0.000
273.21	0.802
273.58	2.016
273.95	1.538
274.32	0.190
274.69	-0.967
275.06	2.198
275.43	-0.185
275.80	2.116
276.17	1.111
276.54	0.933
276.91	-1.431
277.28	0.723
277.65	0.898
278.02	1.838
278.39	-1.630
278.76	-1.582
279.13	1.418
279.50	2.062
279.87	0.716
280.23	-1.761
280.60	1.695
280.97	1.809
281.34	1.358
281.71	3.723
282.08	0.166
282.45	0.982
282.82	1.570
283.19	0.000
283.56	0.164
283.92	3.904
284.29	2.686
284.66	3.284
285.03	-1.603
285.40	1.082
285.77	0.155
286.14	3.664
286.51	1.218
286.87	0.948
287.24	2.108
287.61	1.644
287.98	0.755
288.35	1.183
288.72	2.663
289.08	2.928
289.45	1.627
289.82	1.355
290.19	1.724
290.56	2.254
290.93	1.569
291.29	1.515
291.66	3.168
292.03	1.085
292.40	2.449
292.77	2.830
293.13	2.436
293.50	0.526
293.87	2.013
294.24	2.667
294.60	1.896
294.97	1.342
295.34	3.457
295.71	0.252
296.08	1.034
296.44	2.451
296.81	1.827
297.18	1.121
297.55	1.179
297.91	1.423
298.28	-0.118
298.65	1.308
299.02	2.007
299.38	1.945
299.75	3.388
300.12	1.042
300.48	1.267
300.85	3.150
301.22	3.132
301.59	2.055
301.95	2.938
302.32	2.333
302.69	1.424
303.05	1.415
303.42	0.998
303.79	1.562
304.15	1.893
304.52	1.797
304.89	1.885
305.25	1.760
305.62	2.090
305.99	2.062
306.35	2.923
306.72	2.792
307.09	1.218
307.45	1.553
307.82	1.514
308.19	2.119
308.55	2.122
308.92	1.558
309.29	2.969
309.65	1.754
310.02	1.584
310.38	2.559
310.75	2.913
311.12	2.301
311.48	1.369
311.85	2.659
312.22	3.036
312.58	2.817
312.95	2.772
313.31	3.071
313.68	3.022
314.05	4.065
314.41	3.188
314.78	3.270
315.14	3.902
315.51	3.601
315.87	4.410
316.24	3.836
316.61	4.796
316.97	2.896
317.34	3.704
317.70	5.590
318.07	4.233
318.43	5.187
318.80	5.936
319.16	4.979
319.53	3.770
319.89	4.119
320.26	5.694
320.62	4.699
320.99	5.355
321.35	5.823
321.72	6.233
322.08	5.771
322.45	6.233
322.81	7.130
323.18	5.664
323.54	7.586
323.91	7.562
324.27	8.606
324.64	8.060
325.00	8.043
325.37	9.091
325.73	8.512
326.10	9.489
326.46	9.935
326.83	10.088
327.19	9.370
327.56	10.830
327.92	10.149
328.29	9.839
328.65	9.883
329.01	10.575
329.38	11.373
329.74	11.558
330.11	10.531
330.47	10.447
330.84	10.939
331.20	11.667
331.56	12.392
331.93	11.715
332.29	11.695
332.66	11.379
333.02	12.228
333.38	11.661
333.75	12.879
334.11	11.510
334.48	12.459
334.84	12.489
335.20	11.923
335.57	12.563
335.93	13.554
336.29	11.647
336.66	11.522
337.02	12.960
337.38	13.776
337.75	13.058
338.11	13.204
338.47	11.993
338.84	11.929
339.20	11.457
339.56	13.097
339.93	12.644
340.29	12.238
340.65	12.733
341.02	13.567
341.38	13.096
341.74	13.317
342.11	12.953
342.47	11.835
342.83	12.963
343.20	12.674
343.56	13.232
343.92	13.050
344.28	13.516
344.65	14.109
345.01	14.041
345.37	12.908
345.73	12.705
346.10	14.197
346.46	14.161
346.82	13.858
347.19	13.445
347.55	13.429
347.91	13.596
348.27	14.416
348.63	14.242
349.00	14.169
349.36	14.424
349.72	15.104
350.08	14.339
350.45	13.840
350.81	14.932
351.17	14.211
351.53	14.556
351.89	15.414
352.26	14.328
352.62	14.328
352.98	13.511
353.34	13.219
353.70	13.945
354.07	14.680
354.43	14.047
354.79	14.361
355.15	13.981
355.51	15.570
355.87	14.361
356.24	16.274
356.60	14.560
356.96	14.603
357.32	14.572
357.68	13.836
358.04	15.120
358.40	15.448
358.77	16.009
359.13	15.066
359.49	15.019
359.85	14.938
360.21	15.925
360.57	15.578
360.93	15.867
361.29	16.140
361.66	15.713
362.02	15.866
362.38	15.179
362.74	15.573
363.10	16.575
363.46	15.859
363.82	16.974
364.18	17.030
364.54	16.805
364.90	16.589
365.26	15.241
365.62	17.267
365.98	16.065
366.35	17.114
366.71	16.531
367.07	18.065
367.43	16.349
367.79	17.717
368.15	17.793
368.51	17.456
368.87	16.656
369.23	16.800
369.59	17.555
369.95	17.647
370.31	18.231
370.67	17.056
371.03	17.313
371.39	17.193
371.75	18.363
372.11	18.496
372.47	16.791
372.83	19.175
373.19	17.478
373.55	18.225
373.91	17.996
374.27	18.952
374.63	17.862
374.99	18.435
375.35	18.831
375.71	18.839
376.07	18.528
376.42	19.521
376.78	20.199
377.14	19.214
377.50	19.861
377.86	19.828
378.22	19.820
378.58	20.036
378.94	20.012
379.30	19.274
379.66	20.282
380.02	19.792
380.38	20.507
380.74	20.789
381.09	20.616
381.45	20.341
381.81	21.721
382.17	21.200
382.53	20.936
382.89	21.614
383.25	21.219
383.61	21.181
383.97	21.143
384.32	22.548
384.68	20.940
385.04	22.441
385.40	21.862
385.76	23.212
386.12	21.903
386.48	22.000
386.83	21.931
387.19	22.480
387.55	22.653
387.91	23.116
388.27	23.383
388.62	21.936
388.98	21.884
389.34	23.394
389.70	23.184
390.06	22.854
390.42	22.831
390.77	23.600
391.13	22.887
391.49	23.732
391.85	23.576
392.20	23.191
392.56	23.981
392.92	23.501
393.28	23.991
393.64	24.246
393.99	24.579
394.35	24.182
394.71	24.731
395.07	24.251
395.42	24.101
395.78	24.619
396.14	24.777
396.50	24.347
396.85	24.270
397.21	24.438
397.57	24.735
397.92	24.971
398.28	23.846
398.64	23.970
399.00	24.346
399.35	25.026
399.71	24.239
400.07	25.042
400.42	24.854
400.78	25.116
401.14	25.726
401.49	26.151
401.85	25.698
402.21	24.913
402.57	26.350
402.92	25.000
403.28	24.532
403.63	25.358
403.99	25.297
404.35	25.696
404.70	25.836
405.06	25.000
405.42	25.410
405.77	26.499
406.13	25.932
406.49	25.225
406.84	25.762
407.20	25.601
407.55	25.560
407.91	24.890
408.27	25.206
408.62	25.189
408.98	25.653
409.34	25.337
409.69	25.958
410.05	26.671
410.40	26.392
410.76	25.967
411.11	25.482
411.47	26.044
411.83	26.455
412.18	26.386
412.54	25.845
412.89	24.854
413.25	26.411
413.60	26.077
413.96	26.282
414.31	26.346
414.67	26.178
415.03	26.154
415.38	26.103
415.74	25.168
416.09	25.972
416.45	26.049
416.80	26.316
417.16	26.245
417.51	26.775
417.87	27.100
418.22	27.006
418.58	26.084
418.93	26.310
419.29	26.141
419.64	26.651
420.00	26.291
420.35	26.277
420.71	26.651
421.06	26.107
421.42	27.408
421.77	26.602
422.12	26.427
422.48	26.421
422.83	26.287
423.19	26.897
423.54	25.885
423.90	27.112
424.25	26.720
424.61	26.579
424.96	26.469
425.31	26.168
425.67	26.731
426.02	27.283
426.38	25.660
426.73	25.446
427.09	25.894
427.44	26.106
427.79	26.258
428.15	25.913
428.50	26.854
428.85	25.603
429.21	26.436
429.56	26.209
429.92	25.455
430.27	26.940
430.62	26.234
430.98	26.365
431.33	26.002
431.68	25.814
432.04	26.816
432.39	25.924
432.74	25.913
433.10	25.635
433.45	25.084
433.80	26.127
434.16	25.671
434.51	26.721
434.86	26.819
435.22	25.505
435.57	26.710
435.92	26.155
436.28	26.337
436.63	26.707
436.98	25.658
437.34	26.437
437.69	25.647
438.04	25.859
438.39	25.617
438.75	25.235
439.10	26.956
439.45	25.266
439.81	25.198
440.16	25.201
440.51	26.310
440.86	25.625
441.22	24.866
441.57	25.681
441.92	25.461
442.27	25.859
442.63	25.435
442.98	26.201
443.33	26.302
443.68	26.165
444.03	26.529
444.39	25.705
444.74	25.778
445.09	25.291
445.44	25.922
445.79	25.383
446.15	26.105
446.50	26.460
446.85	25.243
447.20	25.532
447.55	25.575
447.91	25.131
448.26	26.110
448.61	25.292
448.96	24.678
449.31	23.966
449.66	24.564
450.02	24.789
450.37	25.093
450.72	24.058
451.07	24.658
451.42	24.032
451.77	24.958
452.12	24.492
452.47	24.480
452.83	24.662
453.18	24.869
453.53	23.550
453.88	23.799
454.23	24.520
454.58	23.912
454.93	24.393
455.28	24.624
455.63	24.559
455.98	24.246
456.34	24.205
456.69	24.397
457.04	23.877
457.39	24.834
457.74	24.385
458.09	23.723
458.44	24.515
458.79	23.363
459.14	23.755
459.49	24.109
459.84	24.397
460.19	23.320
460.54	23.453
460.89	23.769
461.24	23.046
461.59	23.298
461.94	23.274
462.29	23.684
462.64	22.993
462.99	23.352
463.34	22.648
463.69	22.040
464.04	23.402
464.39	23.150
464.74	22.805
465.09	23.010
465.44	23.337
465.79	23.321
466.14	22.929
466.49	23.000
466.84	22.479
467.19	21.445
467.54	22.092
467.89	22.011
468.24	22.327
468.59	21.540
468.94	21.562
469.29	21.776
469.64	21.106
469.99	21.479
470.34	21.473
470.68	21.805
471.03	22.004
471.38	21.256
471.73	21.001
472.08	21.383
472.43	21.072
472.78	22.355
473.13	20.986
473.48	21.873
473.83	21.997
474.17	20.106
474.52	21.948
474.87	21.262
475.22	21.296
475.57	21.132
475.92	21.155
476.27	20.927
476.61	21.391
476.96	19.760
477.31	21.386
477.66	21.039
478.01	20.996
478.36	20.788
478.70	20.296
479.05	20.808
479.40	20.237
479.75	20.413
480.10	20.275
480.45	20.875
480.79	20.816
481.14	20.313
481.49	19.855
481.84	20.757
482.19	20.688
482.53	20.682
482.88	20.337
483.23	19.742
483.58	19.869
483.92	19.282
484.27	20.449
484.62	20.008
484.97	19.712
485.31	19.254
485.66	18.769
486.01	19.594
486.36	20.282
486.70	21.146
487.05	21.078
487.40	20.246
487.75	19.796
488.09	19.527
488.44	18.342
488.79	18.685
489.13	18.067
489.48	17.981
489.83	18.149
490.17	18.712
490.52	17.980
490.87	18.359
491.22	18.241
491.56	19.027
491.91	19.407
492.26	18.563
492.60	18.321
492.95	18.517
493.30	17.750
493.64	17.871
493.99	18.684
494.34	17.814
494.68	17.559
495.03	18.062
495.37	18.020
495.72	17.460
496.07	17.485
496.41	17.375
496.76	17.890
497.11	16.773
497.45	17.436
497.80	18.170
498.14	17.370
498.49	17.509
498.84	17.596
499.18	16.644
499.53	17.220
499.87	17.275
500.22	16.474
500.56	16.284
500.91	16.934
501.26	16.818
501.60	16.748
501.95	17.152
502.29	17.025
502.64	17.140
502.98	16.091
503.33	16.328
503.67	16.311
504.02	16.025
504.36	16.845
504.71	16.628
505.06	16.371
505.40	16.225
505.75	16.393
506.09	16.989
506.44	16.760
506.78	15.826
507.13	16.966
507.47	16.248
507.82	15.672
508.16	15.488
508.51	15.565
508.85	15.919
509.19	15.775
509.54	16.138
509.88	15.930
510.23	16.124
510.57	16.191
510.92	16.546
511.26	15.152
511.61	15.355
511.95	15.813
512.30	16.100
512.64	15.692
512.98	14.907
513.33	15.423
513.67	15.298
514.02	15.636
514.36	15.243
514.70	15.156
515.05	15.798
515.39	15.696
515.74	15.907
516.08	14.633
516.42	16.117
516.77	14.564
517.11	13.976
517.46	15.323
517.80	15.927
518.14	15.071
518.49	14.262
518.83	14.955
519.17	14.647
519.52	15.147
519.86	15.048
520.20	14.483
520.55	14.567
520.89	14.302
521.23	14.629
521.58	14.746
521.92	14.674
522.26	14.433
522.61	15.278
522.95	14.072
523.29	13.736
523.64	13.621
523.98	14.661
524.32	15.186
524.66	13.887
525.01	13.080
525.35	13.957
525.69	13.863
526.04	13.318
526.38	14.195
526.72	14.821
527.06	14.018
527.41	14.636
527.75	14.430
528.09	14.404
528.43	12.966
528.78	14.220
529.12	13.647
529.46	13.603
529.80	13.959
530.15	12.986
530.49	13.760
530.83	13.459
531.17	12.724
531.51	13.057
531.86	14.844
532.20	13.780
532.54	13.764
532.88	13.879
533.22	13.259
533.57	13.445
533.91	13.580
534.25	13.624
534.59	13.046
534.93	13.469
535.27	13.915
535.62	12.962
535.96	13.829
536.30	13.043
536.64	13.033
536.98	13.284
537.32	13.827
537.66	13.038
538.01	12.447
538.35	12.424
538.69	13.221
539.03	13.305
539.37	12.073
539.71	13.754
540.05	12.530
540.39	12.103
540.73	12.690
541.07	12.385
541.42	11.518
541.76	11.862
542.10	12.786
542.44	12.667
542.78	12.895
543.12	13.051
543.46	12.332
543.80	11.990
544.14	12.208
544.48	12.116
544.82	12.986
545.16	12.821
545.50	11.983
545.84	12.309
546.18	12.963
546.52	12.420
546.86	12.075
547.20	12.023
547.54	12.484
547.88	11.694
548.22	11.871
548.56	12.463
548.90	11.642
549.24	12.401
549.58	12.492
549.92	11.480
550.26	12.039
550.60	12.444
550.94	11.902
551.28	11.683
551.62	11.860
551.96	10.874
552.30	11.472
552.64	11.388
552.98	11.666
553.32	11.640
553.66	10.547
554.00	11.917
554.34	11.583
554.68	11.879
555.02	11.104
555.36	11.900
555.69	10.506
556.03	11.286
556.37	11.827
556.71	12.302
557.05	10.863
557.39	11.281
557.73	11.295
558.07	10.861
558.41	11.030
558.75	11.089
559.08	10.578
559.42	10.905
559.76	11.601
560.10	11.453
560.44	11.346
560.78	11.750
561.12	11.207
561.45	11.192
561.79	10.806
562.13	12.076
562.47	10.666
562.81	10.823
563.15	11.490
563.48	11.498
563.82	11.548
564.16	10.418
564.50	10.548
564.84	10.619
565.17	11.118
565.51	10.990
565.85	10.867
566.19	10.657
566.52	10.532
566.86	11.375
567.20	10.821
567.54	10.834
567.88	11.774
568.21	11.462
568.55	10.743
568.89	10.985
569.23	11.618
569.56	10.903
569.90	11.404
570.24	10.961
570.57	11.097
570.91	11.359
571.25	11.253
571.59	11.188
571.92	11.381
572.26	11.117
572.60	11.084
572.93	11.634
573.27	11.042
573.61	11.143
573.95	11.289
574.28	11.423
574.62	11.164
574.96	11.050
575.29	10.883
575.63	11.319
575.97	11.234
576.30	11.054
576.64	10.904
576.98	10.524
577.31	10.951
577.65	11.081
577.98	11.276
578.32	11.381
578.66	11.289
578.99	10.915
579.33	10.894
579.67	10.879
580.00	10.856
580.34	10.777
580.67	10.613
581.01	10.948
581.35	10.949
581.68	10.949
582.02	11.270
582.35	11.329
582.69	11.392
583.02	10.895
583.36	11.070
583.70	10.566
584.03	10.463
584.37	10.862
584.70	10.293
585.04	10.602
585.37	10.871
585.71	10.701
586.04	10.832
586.38	10.771
586.72	10.353
587.05	10.207
587.39	10.371
587.72	10.622
588.06	11.170
588.39	10.929
588.73	10.106
589.06	10.666
589.40	10.049
589.73	10.283
590.07	10.444
590.40	10.953
590.73	9.933
591.07	10.834
591.40	10.070
591.74	10.016
592.07	10.028
592.41	9.976
592.74	10.259
593.08	10.573
593.41	10.528
593.75	10.661
594.08	10.512
594.41	10.417
594.75	10.063
595.08	10.027
595.42	10.357
595.75	9.977
596.09	10.268
596.42	10.032
596.75	9.726
597.09	10.303
597.42	9.734
597.75	10.270
598.09	9.960
598.42	10.133
598.76	9.629
599.09	9.897
599.42	9.688
599.76	10.003
600.09	10.277
600.42	10.244
600.76	10.040
601.09	9.791
601.42	9.955
601.76	9.724
602.09	9.578
602.42	9.160
602.76	10.295
603.09	9.985
603.42	10.043
603.76	8.985
604.09	10.362
604.42	9.688
604.76	9.855
605.09	9.493
605.42	9.609
605.75	9.654
606.09	9.332
606.42	9.413
606.75	9.483
607.09	9.485
607.42	9.441
607.75	9.261
608.08	10.024
608.42	9.391
608.75	9.453
609.08	9.508
609.41	9.263
609.75	8.973
610.08	9.807
610.41	9.431
610.74	9.538
611.07	9.636
611.41	9.148
611.74	9.330
612.07	9.677
612.40	9.173
612.73	8.802
613.07	9.291
613.40	9.721
613.73	9.581
614.06	10.059
614.39	8.746
614.72	9.170
615.06	9.625
615.39	8.748
615.72	9.005
616.05	8.985
616.38	9.536
616.71	8.673
617.05	8.573
617.38	9.256
617.71	9.341
618.04	9.606
618.37	9.180
618.70	8.484
619.03	8.781
619.36	8.755
619.69	8.456
620.03	8.663
620.36	8.650
620.69	8.267
621.02	9.121
621.35	8.708
621.68	9.978
622.01	7.687
622.34	8.368
622.67	8.522
623.00	7.422
623.33	8.693
623.66	9.339
623.99	7.637
624.32	9.097
624.65	8.366
624.99	9.298
625.32	9.406
625.65	9.036
625.98	8.949
626.31	8.575
626.64	7.546
626.97	7.577
627.30	7.365
627.63	7.802
627.96	9.309
628.29	7.938
628.62	7.473
628.95	7.011
629.28	8.496
629.61	7.828
629.94	6.946
630.26	6.780
630.59	7.427
630.92	7.013
631.25	8.408
631.58	7.439
631.91	7.498
632.24	7.685
632.57	7.116
632.90	6.319
633.23	6.735
633.56	7.551
633.89	5.888
634.22	7.069
634.55	6.994
634.88	6.926
