SpectraSuite Data File
++++++++++++++++++++++++++++++++++++
Date: Thu May 14 16:13:16 PDT 2015
User: schluterlab
Dark Spectrum Present: Yes
Reference Spectrum Present: Yes
Number of Sampled Component Spectra: 1
Spectrometers: USB2E3373
Integration Time (usec): 3000 (USB2E3373)
Spectra Averaged: 3 (USB2E3373)
Boxcar Smoothing: 0 (USB2E3373)
Correct for Electrical Dark: No (USB2E3373)
Strobe/Lamp Enabled: No (USB2E3373)
Correct for Detector Non-linearity: No (USB2E3373)
Correct for Stray Light: No (USB2E3373)
Number of Pixels in Processed Spectrum: 2048
>>>>>Begin Processed Spectral Data<<<<<
178.53	0.000
178.91	-14.286
179.29	-1600.000
179.67	-1000.000
180.04	185.714
180.42	-20.000
180.80	340.000
181.18	-1200.000
181.56	400.000
181.94	-0.000
182.31	-175.000
182.69	100.000
183.07	0.000
183.45	150.000
183.83	0.000
184.20	-33.333
184.58	100.000
184.96	-175.000
185.34	0.000
185.72	-80.000
186.09	211.111
186.47	250.000
186.85	140.000
187.23	-166.667
187.61	-900.000
187.98	100.000
188.36	275.000
188.74	-275.000
189.12	-100.000
189.49	-37.500
189.87	-137.500
190.25	11.111
190.63	-40.000
191.00	-122.222
191.38	0.000
191.76	-300.000
192.14	-100.000
192.51	550.000
192.89	116.667
193.27	0.000
193.65	-157.143
194.02	-1300.000
194.40	-14.286
194.78	142.857
195.15	0.000
195.53	-9.091
195.91	0.000
196.29	-250.000
196.66	-61.538
197.04	-500.000
197.42	-42.857
197.79	-400.000
198.17	-112.500
198.55	-14.286
198.92	66.667
199.30	-50.000
199.68	27.273
200.05	0.000
200.43	-500.000
200.81	157.143
201.18	0.000
201.56	266.667
201.94	0.000
202.31	300.000
202.69	-111.111
203.07	-100.000
203.44	-66.667
203.82	-200.000
204.19	-8.333
204.57	-200.000
204.95	0.000
205.32	-1000.000
205.70	-50.000
206.08	-33.333
206.45	-16.667
206.83	340.000
207.20	-16.667
207.58	-280.000
207.96	-133.333
208.33	33.333
208.71	25.000
209.08	83.333
209.46	0.000
209.84	366.667
210.21	350.000
210.59	150.000
210.96	266.667
211.34	100.000
211.71	-12.500
212.09	-600.000
212.46	0.000
212.84	700.000
213.22	-220.000
213.59	-100.000
213.97	20.000
214.34	-166.667
214.72	283.333
215.09	-325.000
215.47	0.000
215.84	128.571
216.22	550.000
216.59	-120.000
216.97	-40.000
217.34	25.000
217.72	37.500
218.09	-150.000
218.47	-250.000
218.84	0.000
219.22	140.000
219.59	17.647
219.97	10.000
220.34	850.000
220.72	-66.667
221.09	30.769
221.47	-233.333
221.84	-40.000
222.22	-114.286
222.59	0.000
222.97	37.500
223.34	-420.000
223.72	-700.000
224.09	-200.000
224.46	-75.000
224.84	-200.000
225.21	-114.286
225.59	-250.000
225.96	-150.000
226.34	38.462
226.71	116.667
227.08	50.000
227.46	-26.667
227.83	-275.000
228.21	0.000
228.58	100.000
228.95	400.000
229.33	25.000
229.70	-50.000
230.08	-15.789
230.45	-0.000
230.82	100.000
231.20	-42.857
231.57	-33.333
231.95	-36.364
232.32	54.545
232.69	45.000
233.07	-250.000
233.44	-5.882
233.81	-20.000
234.19	55.556
234.56	-13.636
234.93	27.586
235.31	0.000
235.68	38.889
236.05	-25.000
236.43	46.154
236.80	56.000
237.17	14.815
237.55	36.364
237.92	80.000
238.29	16.129
238.67	27.273
239.04	33.333
239.41	54.762
239.79	30.435
240.16	35.185
240.53	23.913
240.91	21.569
241.28	29.508
241.65	31.343
242.02	41.892
242.40	33.846
242.77	34.667
243.14	24.390
243.51	38.158
243.89	55.128
244.26	42.574
244.63	44.118
245.00	45.794
245.38	30.702
245.75	30.088
246.12	38.095
246.49	41.860
246.87	41.429
247.24	38.411
247.61	35.526
247.98	38.926
248.36	35.802
248.73	38.037
249.10	33.880
249.47	40.796
249.84	48.168
250.22	40.415
250.59	37.778
250.96	43.636
251.33	43.878
251.70	43.590
252.08	38.750
252.45	41.803
252.82	42.149
253.19	36.328
253.56	46.008
253.94	39.615
254.31	43.182
254.68	46.503
255.05	45.603
255.42	39.116
255.79	43.689
256.16	41.060
256.54	39.073
256.91	43.607
257.28	44.262
257.65	42.038
258.02	39.823
258.39	39.031
258.76	46.789
259.14	45.977
259.51	43.516
259.88	43.909
260.25	42.222
260.62	45.205
260.99	46.721
261.36	44.772
261.73	43.501
262.10	45.330
262.47	47.453
262.85	46.465
263.22	41.299
263.59	42.368
263.96	45.524
264.33	45.780
264.70	44.938
265.07	44.869
265.44	46.259
265.81	42.361
266.18	44.444
266.55	43.750
266.92	42.825
267.29	44.639
267.66	45.455
268.03	45.852
268.40	45.720
268.77	41.686
269.14	44.934
269.51	47.807
269.88	42.623
270.25	45.272
270.62	45.359
270.99	43.434
271.36	44.158
271.73	44.008
272.10	46.293
272.47	45.491
272.84	42.570
273.21	44.489
273.58	43.750
273.95	40.769
274.32	40.114
274.69	42.553
275.06	44.322
275.43	42.514
275.80	41.975
276.17	43.333
276.54	43.097
276.91	43.649
277.28	41.953
277.65	40.754
278.02	45.772
278.39	44.565
278.76	41.125
279.13	46.277
279.50	41.924
279.87	42.039
280.23	41.725
280.60	42.034
280.97	40.789
281.34	40.917
281.71	43.147
282.08	40.698
282.45	41.080
282.82	41.287
283.19	40.872
283.56	42.951
283.92	41.892
284.29	42.654
284.66	44.828
285.03	42.468
285.40	39.876
285.77	39.938
286.14	40.000
286.51	43.379
286.87	40.442
287.24	42.771
287.61	40.209
287.98	38.218
288.35	41.124
288.72	38.018
289.08	41.581
289.45	38.018
289.82	38.855
290.19	39.943
290.56	36.197
290.93	37.233
291.29	39.118
291.66	39.532
292.03	37.992
292.40	37.007
292.77	35.984
293.13	37.348
293.50	33.903
293.87	35.034
294.24	36.400
294.60	36.283
294.97	34.765
295.34	35.211
295.71	34.048
296.08	34.625
296.44	33.456
296.81	35.079
297.18	34.371
297.55	33.255
297.91	33.571
298.28	33.294
298.65	32.699
299.02	32.704
299.38	32.723
299.75	32.360
300.12	32.870
300.48	33.295
300.85	33.071
301.22	33.333
301.59	30.936
301.95	33.559
302.32	32.667
302.69	32.530
303.05	31.665
303.42	32.262
303.79	30.938
304.15	32.282
304.52	31.078
304.89	31.518
305.25	29.296
305.62	31.870
305.99	31.649
306.35	31.754
306.72	31.851
307.09	30.761
307.45	31.884
307.82	31.887
308.19	30.979
308.55	31.919
308.92	30.672
309.29	30.364
309.65	31.384
310.02	30.396
310.38	29.626
310.75	30.097
311.12	31.448
311.48	31.183
311.85	31.339
312.22	31.784
312.58	30.610
312.95	29.159
313.31	30.443
313.68	30.311
314.05	30.623
314.41	30.601
314.78	30.518
315.14	29.310
315.51	30.656
315.87	29.703
316.24	30.776
316.61	29.574
316.97	30.407
317.34	30.247
317.70	31.266
318.07	30.688
318.43	30.017
318.80	30.351
319.16	30.215
319.53	28.535
319.89	29.185
320.26	30.249
320.62	29.167
320.99	28.624
321.35	30.222
321.72	30.140
322.08	28.224
322.45	29.449
322.81	29.603
323.18	29.292
323.54	28.966
323.91	29.359
324.27	29.088
324.64	30.898
325.00	28.524
325.37	29.730
325.73	28.678
326.10	29.521
326.46	28.827
326.83	30.584
327.19	29.370
327.56	29.486
327.92	27.616
328.29	28.548
328.65	28.727
329.01	28.849
329.38	29.486
329.74	29.795
330.11	29.110
330.47	28.812
330.84	28.682
331.20	30.417
331.56	29.029
331.93	29.540
332.29	30.508
332.66	28.156
333.02	27.638
333.38	28.943
333.75	27.862
334.11	27.857
334.48	28.135
334.84	29.652
335.20	27.540
335.57	29.089
335.93	29.917
336.29	29.118
336.66	28.259
337.02	29.682
337.38	27.466
337.75	27.934
338.11	27.923
338.47	27.626
338.84	28.765
339.20	27.717
339.56	27.348
339.93	27.422
340.29	27.375
340.65	26.926
341.02	28.093
341.38	28.213
341.74	28.006
342.11	27.675
342.47	27.085
342.83	28.341
343.20	28.291
343.56	27.426
343.92	28.583
344.28	26.875
344.65	28.372
345.01	28.081
345.37	26.750
345.73	27.670
346.10	26.833
346.46	27.453
346.82	26.667
347.19	27.044
347.55	27.693
347.91	26.969
348.27	26.100
348.63	26.885
349.00	27.293
349.36	27.509
349.72	26.563
350.08	26.746
350.45	27.452
350.81	27.074
351.17	26.466
351.53	26.839
351.89	27.487
352.26	27.090
352.62	27.239
352.98	26.870
353.34	26.960
353.70	26.656
354.07	25.857
354.43	25.740
354.79	25.954
355.15	26.196
355.51	26.681
355.87	26.477
356.24	25.627
356.60	26.608
356.96	25.945
357.32	25.428
357.68	25.915
358.04	25.299
358.40	26.194
358.77	27.120
359.13	26.145
359.49	25.502
359.85	25.236
360.21	25.395
360.57	25.556
360.93	25.811
361.29	26.877
361.66	25.996
362.02	27.140
362.38	26.001
362.74	25.419
363.10	26.135
363.46	25.900
363.82	25.213
364.18	26.742
364.54	26.141
364.90	27.023
365.26	25.310
365.62	25.533
365.98	26.549
366.35	25.906
366.71	25.646
367.07	25.846
367.43	26.001
367.79	26.676
368.15	26.421
368.51	25.101
368.87	25.735
369.23	26.133
369.59	25.205
369.95	25.085
370.31	25.726
370.67	26.341
371.03	25.416
371.39	24.916
371.75	25.516
372.11	26.016
372.47	25.322
372.83	25.196
373.19	24.750
373.55	24.390
373.91	24.744
374.27	24.709
374.63	25.913
374.99	25.066
375.35	25.779
375.71	25.677
376.07	26.017
376.42	25.441
376.78	25.171
377.14	24.392
377.50	25.174
377.86	25.862
378.22	25.749
378.58	24.732
378.94	24.531
379.30	25.718
379.66	25.514
380.02	25.389
380.38	25.749
380.74	25.070
381.09	24.448
381.45	25.000
381.81	25.585
382.17	25.356
382.53	25.731
382.89	25.169
383.25	24.443
383.61	24.942
383.97	24.264
384.32	26.495
384.68	25.290
385.04	24.639
385.40	24.573
385.76	25.440
386.12	24.835
386.48	24.882
386.83	25.030
387.19	25.319
387.55	23.944
387.91	24.772
388.27	24.480
388.62	23.425
388.98	23.632
389.34	25.103
389.70	24.695
390.06	25.340
390.42	24.759
390.77	25.346
391.13	24.531
391.49	24.155
391.85	24.788
392.20	24.555
392.56	25.399
392.92	25.463
393.28	25.097
393.64	24.637
393.99	25.392
394.35	25.000
394.71	25.030
395.07	24.491
395.42	24.900
395.78	25.472
396.14	24.540
396.50	24.466
396.85	24.925
397.21	24.675
397.57	24.441
397.92	24.971
398.28	23.954
398.64	24.714
399.00	23.874
399.35	25.131
399.71	24.511
400.07	24.481
400.42	24.971
400.78	24.595
401.14	24.872
401.49	23.650
401.85	24.651
402.21	25.087
402.57	25.176
402.92	25.296
403.28	24.532
403.63	23.747
403.99	24.109
404.35	24.105
404.70	24.703
405.06	24.620
405.42	24.122
405.77	25.082
406.13	24.581
406.49	23.761
406.84	23.712
407.20	24.651
407.55	23.925
407.91	24.513
408.27	24.499
408.62	24.258
408.98	24.318
409.34	24.106
409.69	23.980
410.05	24.619
410.40	25.000
410.76	24.453
411.11	25.307
411.47	24.570
411.83	24.280
412.18	25.060
412.54	24.896
412.89	23.865
413.25	24.887
413.60	24.469
413.96	23.951
414.31	24.249
414.67	24.627
415.03	25.108
415.38	24.590
415.74	23.763
416.09	25.108
416.45	24.483
416.80	23.195
417.16	24.202
417.51	24.346
417.87	24.341
418.22	24.192
418.58	23.730
418.93	24.156
419.29	23.921
419.64	24.130
420.00	24.036
420.35	23.975
420.71	24.182
421.06	23.404
421.42	23.911
421.77	23.748
422.12	24.207
422.48	24.526
422.83	25.137
423.19	24.934
423.54	24.447
423.90	23.523
424.25	24.480
424.61	23.823
424.96	25.151
425.31	24.257
425.67	23.403
426.02	24.848
426.38	24.340
426.73	24.219
427.09	24.683
427.44	23.921
427.79	24.046
428.15	23.801
428.50	23.933
428.85	23.651
429.21	24.202
429.56	23.001
429.92	24.275
430.27	24.386
430.62	24.231
430.98	24.102
431.33	23.851
431.68	23.898
432.04	23.870
432.39	24.371
432.74	23.573
433.10	23.688
433.45	22.742
433.80	24.464
434.16	25.103
434.51	23.792
434.86	24.430
435.22	24.973
435.57	24.351
435.92	24.040
436.28	24.346
436.63	24.031
436.98	23.564
437.34	23.393
437.69	23.941
438.04	23.956
438.39	23.894
438.75	23.243
439.10	23.679
439.45	23.868
439.81	24.859
440.16	23.914
440.51	23.857
440.86	24.402
441.22	24.116
441.57	22.904
441.92	23.812
442.27	24.798
442.63	24.292
442.98	23.746
443.33	24.566
443.68	24.827
444.03	24.600
444.39	24.411
444.74	24.451
445.09	24.024
445.44	24.710
445.79	24.042
446.15	23.433
446.50	24.289
446.85	24.027
447.20	24.662
447.55	24.843
447.91	23.874
448.26	23.784
448.61	23.964
448.96	25.161
449.31	24.231
449.66	23.747
450.02	24.789
450.37	24.347
450.72	24.327
451.07	24.487
451.42	23.339
451.77	23.346
452.12	24.661
452.47	24.421
452.83	24.775
453.18	24.227
453.53	23.722
453.88	24.462
454.23	25.198
454.58	24.898
454.93	24.697
455.28	25.226
455.63	23.593
455.98	24.916
456.34	24.794
456.69	25.514
457.04	25.236
457.39	25.222
457.74	25.056
458.09	23.613
458.44	23.922
458.79	23.672
459.14	24.384
459.49	23.939
459.84	24.187
460.19	24.153
460.54	24.986
460.89	24.299
461.24	23.908
461.59	24.792
461.94	24.187
462.29	24.188
462.64	23.778
462.99	24.419
463.34	24.400
463.69	23.857
464.04	24.458
464.39	24.720
464.74	24.116
465.09	23.760
465.44	24.571
465.79	24.590
466.14	24.231
466.49	25.158
466.84	24.187
467.19	23.815
467.54	24.031
467.89	23.333
468.24	24.543
468.59	24.030
468.94	23.193
469.29	24.115
469.64	24.285
469.99	23.518
470.34	24.691
470.68	25.632
471.03	24.100
471.38	24.003
471.73	24.382
472.08	24.810
472.43	24.564
472.78	23.741
473.13	25.032
473.48	23.686
473.83	25.247
474.17	24.619
474.52	23.993
474.87	23.920
475.22	24.676
475.57	24.091
475.92	24.689
476.27	24.015
476.61	23.884
476.96	24.348
477.31	24.505
477.66	24.974
478.01	24.301
478.36	24.676
478.70	24.089
479.05	25.153
479.40	24.877
479.75	24.640
480.10	23.685
480.45	24.521
480.79	24.535
481.14	24.219
481.49	23.944
481.84	25.022
482.19	23.785
482.53	24.749
482.88	24.369
483.23	25.256
483.58	24.236
483.92	24.025
484.27	24.132
484.62	24.134
484.97	24.572
485.31	23.794
485.66	23.440
486.01	22.825
486.36	24.032
486.70	24.743
487.05	24.485
487.40	24.402
487.75	24.122
488.09	23.894
488.44	24.106
488.79	24.115
489.13	23.534
489.48	23.612
489.83	23.340
490.17	24.220
490.52	23.481
490.87	24.365
491.22	24.480
491.56	23.976
491.91	24.030
492.26	24.275
492.60	24.355
492.95	23.914
493.30	24.070
493.64	24.485
493.99	23.816
494.34	24.216
494.68	23.940
495.03	24.317
495.37	24.234
495.72	23.764
496.07	24.496
496.41	24.367
496.76	24.729
497.11	24.331
497.45	23.694
497.80	24.256
498.14	23.401
498.49	24.127
498.84	24.497
499.18	24.741
499.53	24.664
499.87	24.308
500.22	24.354
500.56	24.157
500.91	24.531
501.26	24.864
501.60	23.995
501.95	23.882
502.29	24.441
502.64	24.661
502.98	24.245
503.33	23.974
503.67	24.160
504.02	24.737
504.36	24.933
504.71	24.116
505.06	24.784
505.40	25.091
505.75	25.000
506.09	24.816
506.44	24.373
506.78	25.000
507.13	24.574
507.47	24.301
507.82	24.100
508.16	25.382
508.51	23.722
508.85	23.855
509.19	24.728
509.54	25.072
509.88	24.381
510.23	25.352
510.57	25.423
510.92	24.190
511.26	24.002
511.61	24.239
511.95	24.256
512.30	24.471
512.64	23.688
512.98	24.512
513.33	24.143
513.67	24.936
514.02	24.885
514.36	24.808
514.70	24.948
515.05	24.609
515.39	24.042
515.74	25.345
516.08	25.040
516.42	25.693
516.77	25.026
517.11	24.858
517.46	25.928
517.80	24.693
518.14	25.190
518.49	25.054
518.83	24.055
519.17	24.179
519.52	24.843
519.86	25.026
520.20	25.346
520.55	24.754
520.89	24.775
521.23	25.349
521.58	25.537
521.92	25.439
522.26	24.685
522.61	25.405
522.95	24.337
523.29	25.632
523.64	24.608
523.98	26.241
524.32	26.361
524.66	25.157
525.01	23.896
525.35	23.894
525.69	24.652
526.04	25.086
526.38	24.885
526.72	24.856
527.06	25.279
527.41	25.889
527.75	25.594
528.09	25.266
528.43	25.222
528.78	24.393
529.12	24.484
529.46	24.396
529.80	24.542
530.15	25.797
530.49	24.496
530.83	25.325
531.17	25.030
531.51	25.752
531.86	25.541
532.20	25.061
532.54	25.254
532.88	26.121
533.22	25.221
533.57	25.101
533.91	25.365
534.25	25.042
534.59	24.943
534.93	24.844
535.27	25.915
535.62	26.151
535.96	24.811
536.30	24.148
536.64	26.426
536.98	25.584
537.32	24.938
537.66	25.140
538.01	24.653
538.35	25.639
538.69	25.481
539.03	25.935
539.37	26.796
539.71	25.826
540.05	25.300
540.39	24.511
540.73	23.983
541.07	25.261
541.42	25.222
541.76	24.792
542.10	25.211
542.44	25.274
542.78	26.034
543.12	25.149
543.46	24.847
543.80	24.760
544.14	24.237
544.48	25.296
544.82	25.554
545.16	25.045
545.50	24.985
545.84	24.923
546.18	26.667
546.52	25.987
546.86	24.654
547.20	25.636
547.54	26.217
547.88	25.196
548.22	24.561
548.56	25.336
548.90	25.552
549.24	24.924
549.58	25.804
549.92	25.957
550.26	25.243
550.60	25.782
550.94	25.356
551.28	25.875
551.62	26.415
551.96	25.113
552.30	25.621
552.64	25.762
552.98	25.328
553.32	26.045
553.66	25.273
554.00	25.347
554.34	25.225
554.68	25.242
555.02	25.361
555.36	26.627
555.69	24.856
556.03	25.347
556.37	25.156
556.71	25.555
557.05	26.837
557.39	25.017
557.73	25.892
558.07	25.298
558.41	26.379
558.75	25.220
559.08	26.444
559.42	25.652
559.76	26.187
560.10	24.983
560.44	25.264
560.78	26.687
561.12	26.232
561.45	25.669
561.79	24.908
562.13	26.001
562.47	25.956
562.81	25.316
563.15	25.189
563.48	26.414
563.82	25.393
564.16	25.439
564.50	25.685
564.84	26.313
565.17	25.765
565.51	24.856
565.85	25.178
566.19	25.576
566.52	25.805
566.86	26.033
567.20	24.850
567.54	25.491
567.88	25.382
568.21	27.026
568.55	25.803
568.89	25.511
569.23	25.306
569.56	25.361
569.90	25.695
570.24	25.835
570.57	25.176
570.91	24.954
571.25	24.732
571.59	24.520
571.92	24.867
572.26	24.960
572.60	24.843
572.93	24.743
573.27	25.035
573.61	24.749
573.95	24.836
574.28	24.620
574.62	24.670
574.96	24.813
575.29	24.367
575.63	24.555
575.97	24.359
576.30	24.106
576.64	24.314
576.98	24.374
577.31	24.551
577.65	24.433
577.98	24.473
578.32	24.269
578.66	24.557
578.99	24.165
579.33	24.700
579.67	24.773
580.00	24.792
580.34	24.891
580.67	23.963
581.01	24.513
581.35	24.391
581.68	24.330
582.02	24.593
582.35	24.860
582.69	25.128
583.02	24.724
583.36	24.707
583.70	24.540
584.03	24.670
584.37	24.685
584.70	24.352
585.04	24.087
585.37	24.194
585.71	24.746
586.04	24.373
586.38	24.420
586.72	24.593
587.05	24.252
587.39	24.682
587.72	25.144
588.06	25.097
588.39	25.044
588.73	24.021
589.06	24.436
589.40	24.370
589.73	24.968
590.07	25.398
590.40	25.051
590.73	24.779
591.07	25.689
591.40	24.339
591.74	24.483
592.07	25.660
592.41	24.527
592.74	24.672
593.08	24.873
593.41	24.847
593.75	25.057
594.08	24.811
594.41	24.968
594.75	24.975
595.08	24.563
595.42	24.805
595.75	25.024
596.09	25.042
596.42	25.152
596.75	25.241
597.09	25.333
597.42	24.434
597.75	24.343
598.09	24.802
598.42	25.412
598.76	25.182
599.09	24.671
599.42	24.304
599.76	24.298
600.09	25.092
600.42	25.325
600.76	24.306
601.09	24.129
601.42	23.927
601.76	25.000
602.09	24.375
602.42	24.609
602.76	24.871
603.09	25.147
603.42	25.325
603.76	24.806
604.09	25.053
604.42	25.064
604.76	25.342
605.09	24.930
605.42	25.120
605.75	24.615
606.09	24.935
606.42	24.298
606.75	24.363
607.09	24.616
607.42	24.277
607.75	24.775
608.08	25.257
608.42	24.869
608.75	25.083
609.08	24.915
609.41	25.320
609.75	24.955
610.08	25.638
610.41	25.149
610.74	24.874
611.07	24.734
611.41	25.740
611.74	25.450
612.07	25.152
612.40	25.190
612.73	24.988
613.07	25.477
613.40	24.976
613.73	25.373
614.06	25.172
614.39	24.879
614.72	25.133
615.06	24.928
615.39	24.553
615.72	25.213
616.05	25.158
616.38	25.025
616.71	24.817
617.05	24.601
617.38	25.040
617.71	25.324
618.04	25.580
618.37	25.301
618.70	25.283
619.03	25.149
619.36	25.586
619.69	25.945
620.03	25.424
620.36	25.153
620.69	25.848
621.02	25.394
621.35	27.649
621.68	26.030
622.01	25.836
622.34	25.174
622.67	25.292
623.00	24.291
623.33	26.012
623.66	26.005
623.99	25.675
624.32	26.901
624.65	24.389
624.99	25.618
625.32	25.474
625.65	25.759
625.98	25.559
626.31	25.939
626.64	25.934
626.97	26.107
627.30	25.057
627.63	25.806
627.96	26.502
628.29	25.914
628.62	25.525
628.95	26.994
629.28	26.168
629.61	26.936
629.94	26.109
630.26	24.322
630.59	26.339
630.92	25.974
631.25	26.655
631.58	27.119
631.91	25.961
632.24	27.474
632.57	25.427
632.90	26.379
633.23	25.714
