SpectraSuite Data File
++++++++++++++++++++++++++++++++++++
Date: Thu May 14 16:14:18 PDT 2015
User: schluterlab
Dark Spectrum Present: Yes
Reference Spectrum Present: Yes
Number of Sampled Component Spectra: 1
Spectrometers: USB2E3373
Integration Time (usec): 3000 (USB2E3373)
Spectra Averaged: 3 (USB2E3373)
Boxcar Smoothing: 0 (USB2E3373)
Correct for Electrical Dark: No (USB2E3373)
Strobe/Lamp Enabled: No (USB2E3373)
Correct for Detector Non-linearity: No (USB2E3373)
Correct for Stray Light: No (USB2E3373)
Number of Pixels in Processed Spectrum: 2048
>>>>>Begin Processed Spectral Data<<<<<
178.53	0.000
178.91	157.143
179.29	-2300.000
179.67	100.000
180.04	164.286
180.42	60.000
180.80	120.000
181.18	-700.000
181.56	-100.000
181.94	125.000
182.31	-200.000
182.69	-100.000
183.07	-50.000
183.45	125.000
183.83	-100.000
184.20	166.667
184.58	-100.000
184.96	-325.000
185.34	-33.333
185.72	40.000
186.09	200.000
186.47	200.000
186.85	200.000
187.23	-133.333
187.61	-2200.000
187.98	60.000
188.36	375.000
188.74	-125.000
189.12	-100.000
189.49	25.000
189.87	-25.000
190.25	77.778
190.63	20.000
191.00	-11.111
191.38	0.000
191.76	-400.000
192.14	-266.667
192.51	-50.000
192.89	83.333
193.27	0.000
193.65	-28.571
194.02	-900.000
194.40	0.000
194.78	85.714
195.15	0.000
195.53	0.000
195.91	0.000
196.29	0.000
196.66	-76.923
197.04	-300.000
197.42	71.429
197.79	-350.000
198.17	-50.000
198.55	-42.857
198.92	44.444
199.30	-87.500
199.68	54.545
200.05	57.143
200.43	-400.000
200.81	128.571
201.18	0.000
201.56	144.444
201.94	0.000
202.31	100.000
202.69	-66.667
203.07	100.000
203.44	22.222
203.82	-350.000
204.19	-91.667
204.57	-66.667
204.95	-75.000
205.32	100.000
205.70	275.000
206.08	0.000
206.45	-16.667
206.83	300.000
207.20	0.000
207.58	-120.000
207.96	-50.000
208.33	66.667
208.71	75.000
209.08	33.333
209.46	0.000
209.84	116.667
210.21	-50.000
210.59	450.000
210.96	533.333
211.34	25.000
211.71	-50.000
212.09	-400.000
212.46	0.000
212.84	550.000
213.22	-240.000
213.59	-100.000
213.97	60.000
214.34	33.333
214.72	183.333
215.09	-175.000
215.47	0.000
215.84	114.286
216.22	150.000
216.59	-220.000
216.97	-120.000
217.34	-225.000
217.72	25.000
218.09	75.000
218.47	-150.000
218.84	0.000
219.22	60.000
219.59	0.000
219.97	60.000
220.34	350.000
220.72	-44.444
221.09	30.769
221.47	-66.667
221.84	30.000
222.22	-71.429
222.59	0.000
222.97	112.500
223.34	-180.000
223.72	-400.000
224.09	-75.000
224.46	-50.000
224.84	60.000
225.21	-71.429
225.59	-100.000
225.96	50.000
226.34	11.538
226.71	216.667
227.08	-400.000
227.46	-53.333
227.83	-75.000
228.21	5.263
228.58	75.000
228.95	500.000
229.33	100.000
229.70	20.000
230.08	47.368
230.45	130.000
230.82	-66.667
231.20	-28.571
231.57	66.667
231.95	36.364
232.32	-90.909
232.69	35.000
233.07	-125.000
233.44	-11.765
233.81	10.000
234.19	55.556
234.56	-4.545
234.93	17.241
235.31	21.053
235.68	-38.889
236.05	-10.000
236.43	80.769
236.80	56.000
237.17	-14.815
237.55	21.212
237.92	-60.000
238.29	9.677
238.67	4.545
239.04	5.556
239.41	7.143
239.79	13.043
240.16	9.259
240.53	-2.174
240.91	0.000
241.28	16.393
241.65	16.418
242.02	20.270
242.40	7.692
242.77	12.000
243.14	3.659
243.51	9.211
243.89	16.667
244.26	27.723
244.63	19.608
245.00	21.495
245.38	18.421
245.75	15.929
246.12	26.984
246.49	18.605
246.87	20.714
247.24	17.219
247.61	25.000
247.98	18.792
248.36	19.136
248.73	19.632
249.10	13.661
249.47	21.393
249.84	23.037
250.22	19.689
250.59	21.667
250.96	24.545
251.33	21.939
251.70	20.085
252.08	23.750
252.45	22.131
252.82	21.488
253.19	21.484
253.56	23.194
253.94	21.923
254.31	20.076
254.68	24.476
255.05	23.127
255.42	18.707
255.79	22.006
256.16	19.205
256.54	19.205
256.91	21.639
257.28	22.623
257.65	19.427
258.02	20.354
258.39	21.937
258.76	24.771
259.14	25.287
259.51	27.666
259.88	21.530
260.25	20.278
260.62	21.918
260.99	27.049
261.36	22.252
261.73	20.955
262.10	23.626
262.47	23.056
262.85	25.000
263.22	21.299
263.59	20.000
263.96	22.506
264.33	19.693
264.70	24.444
265.07	22.912
265.44	25.170
265.81	23.611
266.18	23.356
266.55	21.875
266.92	21.640
267.29	21.882
267.66	23.060
268.03	26.638
268.40	22.129
268.77	20.957
269.14	19.383
269.51	23.026
269.88	21.926
270.25	23.742
270.62	21.730
270.99	24.646
271.36	23.960
271.73	25.540
272.10	24.850
272.47	24.248
272.84	24.297
273.21	24.649
273.58	23.589
273.95	24.423
274.32	19.392
274.69	22.050
275.06	23.626
275.43	22.551
275.80	21.693
276.17	20.185
276.54	21.455
276.91	21.825
277.28	22.966
277.65	22.083
278.02	21.140
278.39	22.645
278.76	20.387
279.13	23.050
279.50	23.368
279.87	20.394
280.23	20.599
280.60	22.203
280.97	23.191
281.34	21.392
281.71	24.196
282.08	19.934
282.45	20.295
282.82	20.251
283.19	20.679
283.56	20.328
283.92	21.922
284.29	22.433
284.66	21.018
285.03	19.071
285.40	22.257
285.77	20.433
286.14	21.527
286.51	22.070
286.87	19.431
287.24	20.482
287.61	18.984
287.98	19.184
288.35	18.639
288.72	20.266
289.08	21.669
289.45	19.675
289.82	18.675
290.19	19.684
290.56	19.437
290.93	21.541
291.29	18.733
291.66	20.110
292.03	17.775
292.40	19.728
292.77	18.464
293.13	18.674
293.50	18.660
293.87	18.926
294.24	18.800
294.60	19.469
294.97	16.376
295.34	18.438
295.71	16.646
296.08	16.537
296.44	18.505
296.81	17.296
297.18	17.310
297.55	16.274
297.91	15.540
298.28	15.877
298.65	15.933
299.02	16.057
299.38	16.362
299.75	17.757
300.12	15.278
300.48	16.244
300.85	16.985
301.22	15.772
301.59	16.210
301.95	15.819
302.32	16.444
302.69	15.334
303.05	15.669
303.42	15.965
303.79	14.688
304.15	16.509
304.52	14.905
304.89	14.346
305.25	15.321
305.62	15.465
305.99	17.320
306.35	15.222
306.72	16.339
307.09	14.416
307.45	15.735
307.82	16.044
308.19	14.127
308.55	17.068
308.92	15.287
309.29	14.751
309.65	14.815
310.02	16.337
310.38	14.961
310.75	15.243
311.12	16.203
311.48	15.640
311.85	14.435
312.22	15.844
312.58	13.803
312.95	14.818
313.31	14.453
313.68	14.560
314.05	15.899
314.41	14.845
314.78	14.805
315.14	15.517
315.51	15.605
315.87	16.112
316.24	14.886
316.61	14.920
316.97	13.846
317.34	14.638
317.70	14.934
318.07	14.638
318.43	14.881
318.80	15.468
319.16	14.077
319.53	14.653
319.89	13.672
320.26	15.036
320.62	14.184
320.99	14.589
321.35	14.325
321.72	16.186
322.08	14.518
322.45	14.995
322.81	15.704
323.18	14.248
323.54	15.086
323.91	15.747
324.27	14.544
324.64	15.365
325.00	14.428
325.37	15.643
325.73	14.876
326.10	15.977
326.46	14.658
326.83	15.532
327.19	15.669
327.56	15.020
327.92	14.005
328.29	14.758
328.65	14.740
329.01	15.821
329.38	14.827
329.74	15.839
330.11	16.010
330.47	15.333
330.84	16.021
331.20	15.667
331.56	14.471
331.93	15.732
332.29	15.169
332.66	15.532
333.02	15.159
333.38	16.611
333.75	15.320
334.11	15.179
334.48	14.191
334.84	14.868
335.20	14.694
335.57	16.442
335.93	15.372
336.29	13.228
336.66	14.298
337.02	15.134
337.38	15.136
337.75	14.711
338.11	15.475
338.47	15.054
338.84	14.805
339.20	13.985
339.56	14.827
339.93	14.778
340.29	15.781
340.65	15.410
341.02	15.243
341.38	15.602
341.74	13.721
342.11	14.803
342.47	13.185
342.83	15.378
343.20	15.454
343.56	14.435
343.92	14.812
344.28	15.234
344.65	14.651
345.01	14.743
345.37	15.474
345.73	12.549
346.10	14.665
346.46	14.082
346.82	15.281
347.19	14.209
347.55	14.568
347.91	13.893
348.27	14.112
348.63	13.404
349.00	13.721
349.36	14.498
349.72	13.467
350.08	15.379
350.45	13.992
350.81	13.650
351.17	14.887
351.53	14.253
351.89	14.882
352.26	14.328
352.62	13.955
352.98	13.206
353.34	13.219
353.70	13.251
354.07	13.711
354.43	13.516
354.79	14.211
355.15	14.349
355.51	14.474
355.87	14.061
356.24	14.525
356.60	13.599
356.96	14.603
357.32	13.457
357.68	12.738
358.04	13.922
358.40	14.328
358.77	13.743
359.13	14.106
359.49	12.714
359.85	12.980
360.21	12.984
360.57	13.137
360.93	13.540
361.29	14.105
361.66	13.758
362.02	14.753
362.38	13.071
362.74	13.128
363.10	13.067
363.46	14.197
363.82	13.849
364.18	14.004
364.54	13.900
364.90	14.181
365.26	12.966
365.62	13.600
365.98	13.479
366.35	14.027
366.71	14.082
367.07	13.599
367.43	13.263
367.79	13.935
368.15	13.779
368.51	13.599
368.87	12.802
369.23	13.000
369.59	13.661
369.95	13.523
370.31	12.762
370.67	13.480
371.03	13.366
371.39	12.156
371.75	13.686
372.11	13.008
372.47	13.609
372.83	13.547
373.19	13.542
373.55	12.669
373.91	12.406
374.27	12.872
374.63	13.532
374.99	12.666
375.35	13.571
375.71	12.581
376.07	12.201
376.42	12.909
376.78	12.803
377.14	13.475
377.50	13.536
377.86	12.007
378.22	13.473
378.58	12.723
378.94	12.911
379.30	13.005
379.66	13.110
380.02	12.291
380.38	13.594
380.74	12.845
381.09	12.602
381.45	13.068
381.81	13.642
382.17	12.886
382.53	13.860
382.89	13.036
383.25	13.072
383.61	12.384
383.97	12.780
384.32	12.739
384.68	12.935
385.04	13.823
385.40	13.730
385.76	13.540
386.12	12.807
386.48	13.471
386.83	12.753
387.19	12.804
387.55	12.383
387.91	12.386
388.27	12.125
388.62	12.600
388.98	11.732
389.34	12.964
389.70	13.248
390.06	12.907
390.42	11.687
390.77	12.282
391.13	12.500
391.49	13.587
391.85	11.636
392.20	12.693
392.56	13.467
392.92	13.522
393.28	13.212
393.64	11.899
393.99	13.248
394.35	13.259
394.71	13.293
395.07	11.677
395.42	12.964
395.78	13.285
396.14	12.775
396.50	12.055
396.85	12.880
397.21	12.544
397.57	12.014
397.92	12.887
398.28	12.113
398.64	12.357
399.00	12.251
399.35	13.298
399.71	12.772
400.07	11.735
400.42	12.806
400.78	12.037
401.14	12.749
401.49	13.758
401.85	12.674
402.21	13.557
402.57	12.735
402.92	13.002
403.28	12.939
403.63	11.814
403.99	12.767
404.35	13.132
404.70	13.541
405.06	13.043
405.42	12.471
405.77	13.468
406.13	12.210
406.49	12.444
406.84	12.853
407.20	12.968
407.55	12.538
407.91	12.319
408.27	12.544
408.62	12.507
408.98	12.362
409.34	12.317
409.69	12.237
410.05	12.603
410.40	13.109
410.76	13.012
411.11	12.858
411.47	13.022
411.83	13.580
412.18	12.651
412.54	13.456
412.89	13.038
413.25	12.472
413.60	12.694
413.96	13.928
414.31	12.408
414.67	13.119
415.03	12.554
415.38	12.926
415.74	12.951
416.09	13.140
416.45	12.210
416.80	13.158
417.16	13.155
417.51	12.391
417.87	13.673
418.22	12.635
418.58	13.445
418.93	13.912
419.29	13.379
419.64	12.305
420.00	12.700
420.35	13.419
420.71	12.292
421.06	12.593
421.42	13.073
421.77	12.278
422.12	13.319
422.48	13.415
422.83	13.034
423.19	13.103
423.54	12.721
423.90	13.694
424.25	12.747
424.61	11.940
424.96	13.344
425.31	12.686
425.67	12.775
426.02	13.171
426.38	12.801
426.73	12.444
427.09	13.379
427.44	12.998
427.79	12.383
428.15	12.557
428.50	13.202
428.85	12.687
429.21	13.723
429.56	12.734
429.92	12.924
430.27	13.157
430.62	12.946
430.98	13.133
431.33	12.512
431.68	13.075
432.04	12.798
432.39	13.016
432.74	13.527
433.10	13.629
433.45	12.319
433.80	12.876
434.16	13.481
434.51	12.795
434.86	13.246
435.22	12.540
435.57	13.797
435.92	13.356
436.28	12.856
436.63	12.835
436.98	12.721
437.34	13.021
437.69	12.933
438.04	12.586
438.39	13.498
438.75	12.507
439.10	13.108
439.45	13.080
439.81	12.542
440.16	12.440
440.51	13.712
440.86	13.619
441.22	12.755
441.57	13.050
441.92	13.434
442.27	13.030
442.63	12.866
442.98	13.874
443.33	12.888
443.68	13.578
444.03	13.641
444.39	13.407
444.74	13.119
445.09	13.786
445.44	12.540
445.79	12.883
446.15	13.309
446.50	13.385
446.85	13.765
447.20	13.733
447.55	13.651
447.91	12.932
448.26	12.315
448.61	13.018
448.96	13.788
449.31	13.892
449.66	12.800
450.02	14.082
450.37	13.426
450.72	14.047
451.07	13.610
451.42	12.998
451.77	13.508
452.12	14.108
452.47	13.131
452.83	13.739
453.18	12.901
453.53	13.096
453.88	13.694
454.23	14.520
454.58	14.161
454.93	12.743
455.28	13.727
455.63	14.269
455.98	13.575
456.34	13.310
456.69	13.404
457.04	13.771
457.39	13.692
457.74	13.647
458.09	13.454
458.44	13.524
458.79	13.203
459.14	13.267
459.49	13.696
459.84	14.428
460.19	13.659
460.54	13.913
460.89	13.499
461.24	13.161
461.59	14.056
461.94	12.892
462.29	14.054
462.64	13.458
462.99	14.062
463.34	13.887
463.69	13.951
464.04	13.952
464.39	13.565
464.74	14.025
465.09	14.072
465.44	13.573
465.79	14.172
466.14	12.715
466.49	13.579
466.84	13.223
467.19	13.757
467.54	13.690
467.89	14.023
468.24	13.740
468.59	13.028
468.94	13.403
469.29	13.017
469.64	13.477
469.99	13.639
470.34	13.923
470.68	13.876
471.03	14.538
471.38	14.323
471.73	13.394
472.08	13.832
472.43	14.208
472.78	15.113
473.13	14.791
473.48	13.897
473.83	14.045
474.17	13.540
474.52	14.191
474.87	14.230
475.22	14.366
475.57	13.811
475.92	14.435
476.27	14.111
476.61	13.811
476.96	13.764
477.31	14.455
477.66	14.166
478.01	14.082
478.36	14.108
478.70	13.744
479.05	14.519
479.40	13.968
479.75	14.505
480.10	14.069
480.45	14.266
480.79	14.422
481.14	14.108
481.49	13.994
481.84	14.621
482.19	14.280
482.53	14.167
482.88	14.400
483.23	13.917
483.58	13.930
483.92	13.652
484.27	14.352
484.62	14.686
484.97	14.658
485.31	13.587
485.66	13.043
486.01	12.613
486.36	12.950
486.70	13.022
487.05	13.253
487.40	13.466
487.75	14.148
488.09	13.976
488.44	14.488
488.79	14.030
489.13	14.663
489.48	13.515
489.83	14.286
490.17	13.649
490.52	14.696
490.87	14.382
491.22	13.908
491.56	13.780
491.91	14.261
492.26	13.977
492.60	14.386
492.95	15.138
493.30	14.164
493.64	14.148
493.99	14.649
494.34	13.632
494.68	13.747
495.03	14.802
495.37	14.692
495.72	14.376
496.07	15.206
496.41	14.329
496.76	14.554
497.11	14.692
497.45	14.329
497.80	14.349
498.14	14.694
498.49	14.430
498.84	14.305
499.18	14.890
499.53	14.664
499.87	15.165
500.22	14.114
500.56	14.350
500.91	14.966
501.26	14.909
501.60	14.185
501.95	15.024
502.29	14.568
502.64	15.173
502.98	15.099
503.33	14.816
503.67	14.348
504.02	14.098
504.36	14.701
504.71	14.975
505.06	14.416
505.40	14.488
505.75	14.617
506.09	15.009
506.44	14.903
506.78	15.688
507.13	15.168
507.47	15.396
507.82	16.004
508.16	14.388
508.51	14.721
508.85	15.399
509.19	15.253
509.54	15.514
509.88	14.424
510.23	15.299
510.57	16.143
510.92	14.707
511.26	14.959
511.61	14.582
511.95	14.983
512.30	15.411
512.64	14.693
512.98	15.108
513.33	15.827
513.67	15.451
514.02	16.045
514.36	16.266
514.70	15.208
515.05	14.546
515.39	15.853
515.74	15.854
516.08	15.954
516.42	16.117
516.77	15.089
517.11	15.833
517.46	15.536
517.80	15.714
518.14	15.832
518.49	15.944
518.83	16.232
519.17	15.347
519.52	15.618
519.86	15.576
520.20	15.655
520.55	15.991
520.89	16.498
521.23	16.192
521.58	16.836
521.92	16.261
522.26	16.037
522.61	15.683
522.95	15.456
523.29	16.379
523.64	15.471
523.98	16.942
524.32	17.421
524.66	16.221
525.01	16.535
525.35	16.715
525.69	16.299
526.04	16.246
526.38	15.920
526.72	16.148
527.06	16.012
527.41	16.152
527.75	17.340
528.09	16.529
528.43	17.052
528.78	15.723
529.12	15.826
529.46	16.414
529.80	16.590
530.15	16.174
530.49	15.421
530.83	16.175
531.17	15.233
531.51	16.125
531.86	16.286
532.20	17.195
532.54	16.278
532.88	17.091
533.22	16.794
533.57	16.849
533.91	16.723
534.25	16.280
534.59	15.575
534.93	16.072
535.27	16.113
535.62	16.657
535.96	16.560
536.30	16.275
536.64	16.997
536.98	16.482
537.32	16.914
537.66	17.218
538.01	16.314
538.35	17.052
538.69	15.986
539.03	16.922
539.37	16.137
539.71	17.057
540.05	16.607
540.39	15.281
540.73	15.543
541.07	15.880
541.42	16.066
541.76	16.667
542.10	15.923
542.44	16.322
542.78	16.606
543.12	16.567
543.46	15.751
543.80	16.367
544.14	16.218
544.48	16.430
544.82	16.936
545.16	16.398
545.50	15.818
545.84	15.983
546.18	17.901
546.52	15.796
546.86	17.233
547.20	16.730
547.54	15.730
547.88	15.672
548.22	15.731
548.56	16.501
548.90	16.000
549.24	17.386
549.58	15.710
549.92	15.880
550.26	16.699
550.60	16.847
550.94	16.947
551.28	17.096
551.62	17.251
551.96	16.052
552.30	16.890
552.64	15.806
552.98	16.781
553.32	16.592
553.66	16.592
554.00	16.078
554.34	15.508
554.68	16.914
555.02	17.280
555.36	17.357
555.69	16.720
556.03	17.024
556.37	17.397
556.71	17.121
557.05	16.166
557.39	16.656
557.73	17.305
558.07	16.026
558.41	17.276
558.75	16.971
559.08	16.980
559.42	16.735
559.76	17.639
560.10	16.678
560.44	16.095
560.78	16.813
561.12	16.256
561.45	16.849
561.79	15.751
562.13	16.205
562.47	15.660
562.81	16.329
563.15	16.477
563.48	16.656
563.82	15.357
564.16	16.475
564.50	16.269
564.84	15.516
565.17	16.471
565.51	15.823
565.85	16.211
566.19	15.495
566.52	15.331
566.86	16.638
567.20	16.422
567.54	14.764
567.88	15.443
568.21	15.415
568.55	15.971
568.89	15.660
569.23	14.871
569.56	14.693
569.90	15.467
570.24	14.536
570.57	14.753
570.91	14.176
571.25	14.174
571.59	14.445
571.92	13.593
572.26	14.214
572.60	13.950
572.93	14.222
573.27	14.133
573.61	13.579
573.95	13.620
574.28	13.922
574.62	13.506
574.96	13.608
575.29	13.307
575.63	13.467
575.97	13.940
576.30	13.694
576.64	13.982
576.98	13.508
577.31	13.798
577.65	13.723
577.98	13.705
578.32	12.907
578.66	13.230
578.99	13.148
579.33	13.717
579.67	13.849
580.00	13.778
580.34	13.765
580.67	13.438
581.01	13.436
581.35	13.481
581.68	13.150
582.02	13.127
582.35	13.565
582.69	13.548
583.02	13.754
583.36	13.452
583.70	13.679
584.03	13.799
584.37	14.120
584.70	13.985
585.04	13.206
585.37	13.610
585.71	13.528
586.04	13.540
586.38	13.510
586.72	13.612
587.05	13.789
587.39	13.862
587.72	13.469
588.06	13.564
588.39	13.966
588.73	13.995
589.06	14.221
589.40	13.614
589.73	14.299
590.07	14.224
590.40	14.571
590.73	14.316
591.07	14.594
591.40	13.530
591.74	14.467
592.07	14.373
592.41	13.841
592.74	14.625
593.08	13.726
593.41	13.794
593.75	13.822
594.08	13.844
594.41	14.744
594.75	13.783
595.08	13.964
595.42	14.318
595.75	14.272
596.09	14.334
596.42	14.690
596.75	14.859
597.09	14.990
597.42	14.819
597.75	14.191
598.09	14.762
598.42	14.958
598.76	14.291
599.09	14.276
599.42	13.778
599.76	14.229
600.09	13.814
600.42	14.414
600.76	14.003
601.09	14.238
601.42	13.526
601.76	13.828
602.09	14.796
602.42	13.777
602.76	14.465
603.09	14.060
603.42	14.234
603.76	13.883
604.09	14.620
604.42	14.642
604.76	14.612
605.09	15.078
605.42	14.912
605.75	14.154
606.09	14.296
606.42	14.447
606.75	14.205
607.09	14.401
607.42	14.297
607.75	14.615
608.08	13.694
608.42	14.309
608.75	15.050
609.08	14.474
609.41	14.689
609.75	14.286
610.08	14.380
610.41	14.231
610.74	14.790
611.07	14.520
611.41	15.157
611.74	15.012
612.07	15.521
612.40	14.021
612.73	14.523
613.07	14.866
613.40	14.533
613.73	15.118
614.06	15.407
614.39	14.383
614.72	14.362
615.06	14.822
615.39	14.355
615.72	14.218
616.05	14.862
616.38	14.985
616.71	15.152
617.05	14.963
617.38	15.837
617.71	15.983
618.04	15.758
618.37	15.738
618.70	16.290
619.03	14.755
619.36	15.598
619.69	15.759
620.03	15.882
620.36	15.337
620.69	15.484
621.02	15.617
621.35	16.255
621.68	16.558
622.01	16.085
622.34	15.063
622.67	16.082
623.00	15.857
623.33	16.191
623.66	15.694
623.99	15.800
624.32	15.984
624.65	15.058
624.99	15.410
625.32	16.656
625.65	17.060
625.98	15.729
626.31	15.946
626.64	16.996
626.97	15.679
627.30	15.718
627.63	16.654
627.96	16.291
628.29	16.031
628.62	16.457
628.95	16.564
629.28	16.058
629.61	18.266
629.94	16.653
630.26	16.186
630.59	15.803
630.92	16.797
631.25	18.068
631.58	17.608
631.91	16.963
632.24	17.195
632.57	16.698
632.90	18.656
633.23	17.959
633.56	17.551
633.89	17.459
634.22	18.295
