SpectraSuite Data File
++++++++++++++++++++++++++++++++++++
Date: Thu May 14 16:08:51 PDT 2015
User: schluterlab
Dark Spectrum Present: Yes
Reference Spectrum Present: Yes
Number of Sampled Component Spectra: 1
Spectrometers: USB2E3373
Integration Time (usec): 3000 (USB2E3373)
Spectra Averaged: 3 (USB2E3373)
Boxcar Smoothing: 0 (USB2E3373)
Correct for Electrical Dark: No (USB2E3373)
Strobe/Lamp Enabled: No (USB2E3373)
Correct for Detector Non-linearity: No (USB2E3373)
Correct for Stray Light: No (USB2E3373)
Number of Pixels in Processed Spectrum: 2048
>>>>>Begin Processed Spectral Data<<<<<
178.53	0.000
178.91	185.714
179.29	-1300.000
179.67	-1500.000
180.04	164.286
180.42	110.000
180.80	460.000
181.18	-1300.000
181.56	-800.000
181.94	225.000
182.31	-275.000
182.69	266.667
183.07	-350.000
183.45	325.000
183.83	-133.333
184.20	-266.667
184.58	1000.000
184.96	-275.000
185.34	-122.222
185.72	-220.000
186.09	211.111
186.47	600.000
186.85	340.000
187.23	-77.778
187.61	-700.000
187.98	240.000
188.36	375.000
188.74	-150.000
189.12	-333.333
189.49	-75.000
189.87	-212.500
190.25	-100.000
190.63	-60.000
191.00	-133.333
191.38	0.000
191.76	-425.000
192.14	-250.000
192.51	800.000
192.89	-66.667
193.27	0.000
193.65	-171.429
194.02	-1500.000
194.40	-142.857
194.78	100.000
195.15	0.000
195.53	-154.545
195.91	0.000
196.29	-300.000
196.66	-38.462
197.04	-1100.000
197.42	-214.286
197.79	-550.000
198.17	-112.500
198.55	-128.571
198.92	100.000
199.30	-237.500
199.68	18.182
200.05	-114.286
200.43	-1150.000
200.81	285.714
201.18	0.000
201.56	155.556
201.94	0.000
202.31	633.333
202.69	-188.889
203.07	1900.000
203.44	-188.889
203.82	-525.000
204.19	-33.333
204.57	-250.000
204.95	-162.500
205.32	-2100.000
205.70	425.000
206.08	-100.000
206.45	-300.000
206.83	480.000
207.20	-166.667
207.58	-420.000
207.96	-283.333
208.33	-116.667
208.71	150.000
209.08	-50.000
209.46	0.000
209.84	383.333
210.21	700.000
210.59	400.000
210.96	633.333
211.34	-275.000
211.71	-137.500
212.09	-400.000
212.46	0.000
212.84	950.000
213.22	-140.000
213.59	-225.000
213.97	-50.000
214.34	-433.333
214.72	400.000
215.09	-550.000
215.47	0.000
215.84	200.000
216.22	900.000
216.59	-180.000
216.97	-260.000
217.34	-175.000
217.72	-62.500
218.09	-275.000
218.47	-450.000
218.84	0.000
219.22	220.000
219.59	-64.706
219.97	-20.000
220.34	300.000
220.72	-122.222
221.09	-76.923
221.47	-66.667
221.84	-120.000
222.22	-171.429
222.59	0.000
222.97	-50.000
223.34	-240.000
223.72	-700.000
224.09	-175.000
224.46	-150.000
224.84	-160.000
225.21	-171.429
225.59	-625.000
225.96	-475.000
226.34	-34.615
226.71	400.000
227.08	-400.000
227.46	-20.000
227.83	-675.000
228.21	-10.526
228.58	187.500
228.95	800.000
229.33	-66.667
229.70	30.000
230.08	10.526
230.45	170.000
230.82	-333.333
231.20	-28.571
231.57	-91.667
231.95	-54.545
232.32	-27.273
232.69	-15.000
233.07	-150.000
233.44	-35.294
233.81	-70.000
234.19	-11.111
234.56	9.091
234.93	17.241
235.31	-21.053
235.68	-44.444
236.05	-85.000
236.43	34.615
236.80	20.000
237.17	-7.407
237.55	9.091
237.92	-40.000
238.29	6.452
238.67	0.000
239.04	0.000
239.41	7.143
239.79	2.174
240.16	-5.556
240.53	0.000
240.91	3.922
241.28	9.836
241.65	22.388
242.02	27.027
242.40	-9.231
242.77	6.667
243.14	4.878
243.51	0.000
243.89	0.000
244.26	13.861
244.63	28.431
245.00	18.692
245.38	20.175
245.75	0.885
246.12	10.317
246.49	14.729
246.87	17.857
247.24	15.894
247.61	27.632
247.98	16.779
248.36	25.309
248.73	17.791
249.10	20.219
249.47	24.876
249.84	27.225
250.22	18.653
250.59	23.889
250.96	27.273
251.33	22.959
251.70	24.786
252.08	22.917
252.45	27.049
252.82	23.140
253.19	22.266
253.56	21.293
253.94	22.692
254.31	23.485
254.68	26.224
255.05	27.687
255.42	23.129
255.79	22.006
256.16	26.490
256.54	23.841
256.91	27.541
257.28	26.230
257.65	20.064
258.02	24.189
258.39	21.652
258.76	27.217
259.14	27.586
259.51	25.360
259.88	25.212
260.25	26.389
260.62	26.575
260.99	29.235
261.36	25.737
261.73	28.117
262.10	26.923
262.47	25.469
262.85	28.535
263.22	23.636
263.59	21.579
263.96	25.064
264.33	25.064
264.70	25.185
265.07	30.549
265.44	26.984
265.81	22.917
266.18	27.664
266.55	27.455
266.92	23.690
267.29	27.790
267.66	25.277
268.03	26.201
268.40	26.096
268.77	24.601
269.14	24.229
269.51	24.561
269.88	25.820
270.25	26.761
270.62	25.949
270.99	27.273
271.36	29.307
271.73	25.540
272.10	27.455
272.47	24.850
272.84	24.498
273.21	23.848
273.58	28.427
273.95	25.962
274.32	25.475
274.69	23.791
275.06	26.923
275.43	25.878
275.80	26.279
276.17	24.630
276.54	24.440
276.91	23.792
277.28	29.114
277.65	28.905
278.02	25.184
278.39	26.087
278.76	23.902
279.13	24.645
279.50	26.289
279.87	25.403
280.23	23.592
280.60	26.271
280.97	24.507
281.34	24.278
281.71	27.073
282.08	25.748
282.45	25.696
282.82	24.176
283.19	25.525
283.56	26.230
283.92	25.526
284.29	25.750
284.66	25.123
285.03	22.436
285.40	25.811
285.77	25.077
286.14	26.718
286.51	25.571
286.87	23.065
287.24	24.398
287.61	25.561
287.98	23.263
288.35	25.444
288.72	23.225
289.08	25.476
289.45	22.781
289.82	23.645
290.19	25.287
290.56	24.507
290.93	23.252
291.29	23.829
291.66	23.691
292.03	22.795
292.40	24.082
292.77	20.620
293.13	21.786
293.50	21.288
293.87	22.013
294.24	23.600
294.60	21.871
294.97	18.389
295.34	20.871
295.71	20.303
296.08	22.093
296.44	20.711
296.81	20.341
297.18	18.804
297.55	20.047
297.91	21.708
298.28	18.009
298.65	20.571
299.02	19.953
299.38	18.650
299.75	18.808
300.12	18.171
300.48	20.161
300.85	18.898
301.22	19.128
301.59	19.406
301.95	19.774
302.32	20.222
302.69	19.168
303.05	19.913
303.42	19.069
303.79	19.583
304.15	20.084
304.52	17.970
304.89	19.267
305.25	18.737
305.62	19.227
305.99	19.072
306.35	19.355
306.72	19.855
307.09	18.173
307.45	18.737
307.82	18.668
308.19	18.567
308.55	19.190
308.92	19.377
309.29	18.103
309.65	17.349
310.02	17.822
310.38	17.421
310.75	17.864
311.12	19.942
311.48	18.866
311.85	17.854
312.22	18.880
312.58	19.343
312.95	18.738
313.31	17.977
313.68	18.864
314.05	18.338
314.41	17.213
314.78	16.985
315.14	18.512
315.51	18.190
315.87	18.992
316.24	19.269
316.61	18.739
316.97	17.647
317.34	16.402
317.70	18.865
318.07	18.607
318.43	18.282
318.80	19.231
319.16	18.455
319.53	16.967
319.89	17.528
320.26	18.238
320.62	17.642
320.99	18.929
321.35	19.871
321.72	18.605
322.08	18.395
322.45	18.699
322.81	17.780
323.18	16.018
323.54	17.328
323.91	18.683
324.27	17.556
324.64	18.388
325.00	17.164
325.37	18.428
325.73	16.860
326.10	18.410
326.46	18.567
326.83	18.895
327.19	17.638
327.56	19.289
327.92	17.624
328.29	17.500
328.65	18.090
329.01	16.920
329.38	18.787
329.74	18.579
330.11	17.979
330.47	17.860
330.84	18.174
331.20	18.250
331.56	17.071
331.93	17.992
332.29	17.119
332.66	17.276
333.02	17.755
333.38	16.779
333.75	17.593
334.11	18.098
334.48	17.409
334.84	17.417
335.20	16.961
335.57	18.044
335.93	17.686
336.29	16.972
336.66	16.905
337.02	17.391
337.38	17.347
337.75	16.364
338.11	17.746
338.47	16.791
338.84	16.920
339.20	17.355
339.56	16.886
339.93	18.062
340.29	17.150
340.65	17.194
341.02	17.717
341.38	17.785
341.74	16.384
342.11	17.940
342.47	17.077
342.83	17.633
343.20	17.253
343.56	17.402
343.92	17.614
344.28	18.047
344.65	17.674
345.01	17.083
345.37	18.118
345.73	17.303
346.10	17.005
346.46	16.297
346.82	17.453
347.19	17.265
347.55	17.375
347.91	17.088
348.27	16.009
348.63	16.070
349.00	17.748
349.36	16.654
349.72	17.336
350.08	16.939
350.45	16.350
350.81	16.817
351.17	16.090
351.53	17.513
351.89	17.008
352.26	16.642
352.62	16.642
352.98	16.718
353.34	16.206
353.70	16.025
354.07	16.617
354.43	16.477
354.79	16.305
355.15	16.703
355.51	16.886
355.87	15.782
356.24	17.338
356.60	16.038
356.96	16.457
357.32	16.877
357.68	15.739
358.04	16.766
358.40	15.896
358.77	16.520
359.13	15.510
359.49	14.721
359.85	16.026
360.21	15.854
360.57	14.860
360.93	16.220
361.29	16.211
361.66	15.279
362.02	16.980
362.38	16.655
362.74	16.271
363.10	15.818
363.46	16.759
363.82	15.057
364.18	16.256
364.54	15.906
364.90	17.124
365.26	15.793
365.62	15.600
365.98	15.929
366.35	15.101
366.71	15.782
367.07	16.035
367.43	16.021
367.79	16.257
368.15	16.455
368.51	15.629
368.87	15.872
369.23	15.733
369.59	16.120
369.95	15.416
370.31	16.475
370.67	16.369
371.03	16.205
371.39	16.051
371.75	16.437
372.11	15.786
372.47	16.452
372.83	16.296
373.19	15.544
373.55	15.921
373.91	15.542
374.27	15.847
374.63	15.968
374.99	15.584
375.35	15.519
375.71	16.065
376.07	15.946
376.42	15.050
376.78	15.600
377.14	15.471
377.50	15.370
377.86	16.071
378.22	15.808
378.58	15.220
378.94	16.256
379.30	15.231
379.66	14.991
380.02	15.234
380.38	15.726
380.74	15.662
381.09	15.679
381.45	15.568
381.81	16.628
382.17	15.914
382.53	15.497
382.89	15.632
383.25	15.358
383.61	14.410
383.97	15.194
384.32	15.670
384.68	15.081
385.04	15.732
385.40	15.852
385.76	15.651
386.12	16.098
386.48	16.529
386.83	16.091
387.19	15.353
387.55	15.376
387.91	16.096
388.27	16.339
388.62	15.693
388.98	15.567
389.34	15.203
389.70	15.805
390.06	15.512
390.42	15.241
390.77	16.255
391.13	15.493
391.49	15.338
391.85	14.848
392.20	15.896
392.56	15.712
392.92	16.031
393.28	16.142
393.64	15.419
393.99	16.851
394.35	15.654
394.71	15.629
395.07	15.150
395.42	14.849
395.78	16.880
396.14	15.567
396.50	15.914
396.85	15.325
397.21	15.917
397.57	14.723
397.92	16.380
398.28	15.644
398.64	14.989
399.00	16.073
399.35	15.079
399.71	15.380
400.07	15.104
400.42	16.705
400.78	16.030
401.14	15.424
401.49	16.430
401.85	14.884
402.21	15.933
402.57	15.962
402.92	15.721
403.28	15.749
403.63	15.513
403.99	15.321
404.35	15.691
404.70	16.034
405.06	15.489
405.42	16.101
405.77	16.685
406.13	15.937
406.49	15.372
406.84	16.343
407.20	16.042
407.55	14.779
407.91	14.771
408.27	16.549
408.62	16.114
408.98	16.019
409.34	14.663
409.69	15.451
410.05	16.178
410.40	17.053
410.76	16.377
411.11	16.072
411.47	15.848
411.83	16.226
412.18	16.687
412.54	15.116
412.89	16.298
413.25	15.576
413.60	15.968
413.96	16.142
414.31	15.864
414.67	15.742
415.03	15.015
415.38	15.637
415.74	15.638
416.09	16.656
416.45	14.840
416.80	15.973
417.16	15.900
417.51	15.691
417.87	15.635
418.22	16.527
418.58	14.684
418.93	16.356
419.29	15.413
419.64	15.426
420.00	15.608
420.35	16.508
420.71	15.738
421.06	15.871
421.42	15.940
421.77	15.886
422.12	15.909
422.48	15.822
422.83	16.375
423.19	16.074
423.54	15.653
423.90	15.572
424.25	16.533
424.61	15.212
424.96	15.266
425.31	16.507
425.67	15.405
426.02	16.491
426.38	15.614
426.73	15.904
427.09	16.897
427.44	15.674
427.79	15.920
428.15	14.612
428.50	15.955
428.85	15.614
429.21	15.851
429.56	15.202
429.92	16.118
430.27	16.048
430.62	16.268
430.98	15.199
431.33	15.347
431.68	15.565
432.04	15.744
432.39	16.229
432.74	16.210
433.10	16.333
433.45	14.548
433.80	15.933
434.16	16.271
434.51	16.136
434.86	17.047
435.22	16.738
435.57	16.450
435.92	15.693
436.28	16.268
436.63	15.729
436.98	16.640
437.34	15.558
437.69	15.520
438.04	15.124
438.39	15.049
438.75	15.606
439.10	16.755
439.45	15.595
439.81	16.554
440.16	15.710
440.51	16.221
440.86	15.231
441.22	15.488
441.57	16.300
441.92	15.907
442.27	15.859
442.63	15.946
442.98	16.702
443.33	15.623
443.68	16.898
444.03	16.980
444.39	16.274
444.74	16.335
445.09	16.320
445.44	16.122
445.79	15.948
446.15	16.598
446.50	15.866
446.85	16.148
447.20	16.103
447.55	15.481
447.91	15.707
448.26	16.173
448.61	16.472
448.96	16.899
449.31	14.687
449.66	15.087
450.02	16.403
450.37	15.610
450.72	15.662
451.07	16.230
451.42	15.771
451.77	16.509
452.12	15.858
452.47	15.686
452.83	15.935
453.18	15.587
453.53	15.623
453.88	15.903
454.23	15.989
454.58	16.251
454.93	15.777
455.28	16.436
455.63	16.487
455.98	16.257
456.34	15.194
456.69	16.755
457.04	16.253
457.39	16.519
457.74	16.387
458.09	15.980
458.44	16.433
458.79	15.884
459.14	16.151
459.49	16.129
459.84	16.317
460.19	15.491
460.54	16.809
460.89	15.934
461.24	15.115
461.59	16.768
461.94	15.916
462.29	17.021
462.64	15.872
462.99	16.886
463.34	16.937
463.69	16.178
464.04	16.454
464.39	16.928
464.74	16.933
465.09	16.263
465.44	16.255
465.79	16.764
466.14	15.946
466.49	16.421
466.84	17.245
467.19	16.647
467.54	16.040
467.89	15.862
468.24	15.734
468.59	15.229
468.94	16.317
469.29	15.417
469.64	15.130
469.99	16.252
470.34	16.089
470.68	16.610
471.03	16.437
471.38	16.416
471.73	15.540
472.08	16.244
472.43	16.195
472.78	16.562
473.13	16.498
473.48	16.495
473.83	16.483
474.17	16.823
474.52	16.115
474.87	16.611
475.22	16.901
475.57	16.719
475.92	15.928
476.27	16.720
476.61	16.615
476.96	16.528
477.31	16.683
477.66	16.632
478.01	15.963
478.36	17.049
478.70	16.207
479.05	15.491
479.40	15.893
479.75	16.955
480.10	16.627
480.45	16.727
480.79	17.052
481.14	16.636
481.49	16.265
481.84	17.015
482.19	16.817
482.53	17.097
482.88	16.615
483.23	16.585
483.58	16.157
483.92	16.179
484.27	16.977
484.62	16.625
484.97	16.563
485.31	16.015
485.66	16.041
486.01	16.307
486.36	16.516
486.70	16.731
487.05	16.323
487.40	16.485
487.75	16.056
488.09	15.441
488.44	16.245
488.79	16.121
489.13	16.075
489.48	15.961
489.83	16.016
490.17	16.565
490.52	16.256
490.87	16.751
491.22	16.594
491.56	17.108
491.91	16.703
492.26	17.525
492.60	16.310
492.95	16.498
493.30	16.450
493.64	16.251
493.99	17.237
494.34	16.420
494.68	16.403
495.03	17.181
495.37	17.177
495.72	17.596
496.07	17.485
496.41	15.830
496.76	17.389
497.11	16.561
497.45	17.091
497.80	17.192
498.14	16.553
498.49	17.187
498.84	17.642
499.18	17.319
499.53	17.220
499.87	16.967
500.22	16.251
500.56	17.004
500.91	17.162
501.26	17.864
501.60	17.145
501.95	17.499
502.29	16.893
502.64	17.140
502.98	17.213
503.33	16.674
503.67	16.485
504.02	16.419
504.36	17.158
504.71	17.180
505.06	17.281
505.40	17.048
505.75	17.077
506.09	18.002
506.44	16.945
506.78	17.615
507.13	17.520
507.47	17.432
507.82	16.619
508.16	16.491
508.51	16.362
508.85	17.808
509.19	17.432
509.54	17.435
509.88	17.484
510.23	17.970
510.57	17.980
510.92	17.658
511.26	16.354
511.61	17.093
511.95	17.277
512.30	17.971
512.64	17.141
512.98	17.559
513.33	17.893
513.67	16.879
514.02	17.220
514.36	17.289
514.70	17.448
515.05	17.570
515.39	17.690
515.74	18.187
516.08	18.067
516.42	18.524
516.77	18.612
517.11	17.586
517.46	17.975
517.80	17.477
518.14	18.553
518.49	18.113
518.83	17.137
519.17	17.447
519.52	18.449
519.86	17.687
520.20	18.637
520.55	17.798
520.89	18.131
521.23	18.035
521.58	18.870
521.92	18.130
522.26	17.869
522.61	17.824
522.95	17.589
523.29	18.736
523.64	17.825
523.98	18.768
524.32	19.255
524.66	18.668
525.01	17.610
525.35	18.380
525.69	17.865
526.04	17.394
526.38	18.046
526.72	18.512
527.06	17.889
527.41	18.076
527.75	18.884
528.09	18.831
528.43	17.762
528.78	17.919
529.12	18.005
529.46	18.662
529.80	17.792
530.15	18.609
530.49	18.327
530.83	18.064
531.17	17.742
531.51	18.472
531.86	18.570
532.20	18.902
532.54	18.253
532.88	18.788
533.22	18.798
533.57	18.927
533.91	18.687
534.25	18.146
534.59	18.851
534.93	18.506
535.27	18.648
535.62	19.045
535.96	17.141
536.30	17.744
536.64	19.219
536.98	19.127
537.32	18.519
537.66	18.528
538.01	18.248
538.35	18.331
538.69	18.930
539.03	19.375
539.37	18.198
539.71	18.559
540.05	18.345
540.39	17.726
540.73	18.094
541.07	18.761
541.42	18.133
541.76	18.387
542.10	18.094
542.44	17.052
542.78	18.066
543.12	18.534
543.46	17.888
543.80	18.106
544.14	17.534
544.48	17.612
544.82	18.372
545.16	18.068
545.50	17.915
545.84	18.187
546.18	19.383
546.52	18.025
546.86	18.428
547.20	18.893
547.54	18.664
547.88	17.601
548.22	17.895
548.56	18.549
548.90	18.090
549.24	18.176
549.58	17.161
549.92	18.622
550.26	17.476
550.60	18.124
550.94	18.435
551.28	17.954
551.62	18.531
551.96	18.252
552.30	19.248
552.64	18.171
552.98	18.091
553.32	18.457
553.66	17.878
554.00	18.159
554.34	18.597
554.68	17.366
555.02	18.791
555.36	18.803
555.69	18.193
556.03	17.402
556.37	18.273
556.71	18.833
557.05	18.594
557.39	17.784
557.73	18.296
558.07	18.013
558.41	18.870
558.75	18.458
559.08	18.372
559.42	17.970
559.76	18.860
560.10	18.486
560.44	17.810
560.78	19.500
561.12	19.027
561.45	19.039
561.79	18.071
562.13	18.608
562.47	18.434
562.81	17.975
563.15	18.561
563.48	19.080
563.82	18.984
564.16	19.079
564.50	18.057
564.84	18.348
565.17	18.059
565.51	17.606
565.85	18.705
566.19	17.108
566.52	18.139
566.86	18.393
567.20	17.346
567.54	18.216
567.88	18.654
568.21	18.132
568.55	17.938
568.89	18.293
569.23	17.575
569.56	17.741
569.90	17.534
570.24	17.707
570.57	16.902
570.91	16.963
571.25	16.922
571.59	17.256
571.92	16.738
572.26	16.702
572.60	16.571
572.93	16.532
573.27	17.140
573.61	16.834
573.95	16.970
574.28	16.515
574.62	16.212
574.96	16.498
575.29	16.391
575.63	16.216
575.97	16.575
576.30	16.457
576.64	16.488
576.98	16.287
577.31	16.601
577.65	16.880
577.98	16.830
578.32	16.363
578.66	16.378
578.99	16.260
579.33	16.518
579.67	16.183
580.00	16.386
580.34	16.143
580.67	16.417
581.01	16.616
581.35	16.637
581.68	16.593
582.02	16.564
582.35	16.837
582.69	16.456
583.02	16.296
583.36	16.246
583.70	16.178
584.03	16.319
584.37	16.119
584.70	16.210
585.04	16.113
585.37	16.416
585.71	16.980
586.04	16.402
586.38	16.342
586.72	15.693
587.05	16.398
587.39	16.554
587.72	16.411
588.06	16.514
588.39	16.256
588.73	16.323
589.06	16.479
589.40	16.810
589.73	16.870
590.07	16.611
590.40	17.174
590.73	17.215
591.07	17.126
591.40	16.407
591.74	17.488
592.07	17.093
592.41	17.311
592.74	17.217
593.08	17.420
593.41	17.439
593.75	17.098
594.08	17.086
594.41	16.795
594.75	16.905
595.08	16.723
595.42	16.851
595.75	16.758
596.09	16.808
596.42	16.983
596.75	16.943
597.09	17.172
597.42	16.687
597.75	17.013
598.09	17.063
598.42	17.129
598.76	16.240
599.09	16.946
599.42	17.533
599.76	16.738
600.09	16.950
600.42	16.617
600.76	16.711
601.09	16.993
601.42	16.478
601.76	16.931
602.09	16.905
602.42	16.467
602.76	16.384
603.09	17.107
603.42	16.474
603.76	16.667
604.09	17.459
604.42	16.844
604.76	16.819
605.09	16.913
605.42	16.348
605.75	16.654
606.09	17.395
606.42	17.147
606.75	16.792
607.09	16.551
607.42	16.917
607.75	17.390
608.08	16.969
608.42	16.969
608.75	17.413
609.08	17.148
609.41	17.424
609.75	17.411
610.08	17.766
610.41	17.247
610.74	16.933
611.07	17.362
611.41	17.758
611.74	17.229
612.07	17.719
612.40	17.110
612.73	17.066
613.07	17.115
613.40	17.613
613.73	17.188
614.06	17.370
614.39	17.104
614.72	17.273
615.06	16.939
615.39	16.868
615.72	17.299
616.05	17.193
616.38	17.861
616.71	17.398
617.05	17.252
617.38	18.192
617.71	17.063
618.04	17.701
618.37	17.923
618.70	17.930
619.03	18.399
619.36	17.386
619.69	17.809
620.03	17.451
620.36	17.607
620.69	16.410
621.02	19.029
621.35	18.650
621.68	18.583
622.01	18.007
622.34	18.201
622.67	18.900
623.00	16.937
623.33	19.044
623.66	18.936
623.99	17.775
624.32	18.389
624.65	17.761
624.99	18.140
625.32	19.268
625.65	18.611
625.98	17.966
626.31	19.135
626.64	18.681
626.97	18.680
627.30	17.540
627.63	18.455
627.96	20.120
628.29	18.521
628.62	19.060
628.95	18.843
629.28	19.456
629.61	18.603
629.94	19.833
630.26	19.068
630.59	18.912
630.92	18.009
631.25	20.394
631.58	18.927
631.91	20.150
632.24	19.404
