SpectraSuite Data File
++++++++++++++++++++++++++++++++++++
Date: Thu May 14 15:51:01 PDT 2015
User: schluterlab
Dark Spectrum Present: Yes
Reference Spectrum Present: Yes
Number of Sampled Component Spectra: 1
Spectrometers: USB2E3373
Integration Time (usec): 3000 (USB2E3373)
Spectra Averaged: 3 (USB2E3373)
Boxcar Smoothing: 0 (USB2E3373)
Correct for Electrical Dark: No (USB2E3373)
Strobe/Lamp Enabled: No (USB2E3373)
Correct for Detector Non-linearity: No (USB2E3373)
Correct for Stray Light: No (USB2E3373)
Number of Pixels in Processed Spectrum: 2048
>>>>>Begin Processed Spectral Data<<<<<
178.53	0.000
178.91	542.857
179.29	-4800.000
179.67	-5200.000
180.04	442.857
180.42	390.000
180.80	1020.000
181.18	-4400.000
181.56	-3600.000
181.94	1125.000
182.31	-1225.000
182.69	1300.000
183.07	-2200.000
183.45	1350.000
183.83	-750.000
184.20	-1333.333
184.58	3900.000
184.96	-1075.000
185.34	-522.222
185.72	-640.000
186.09	644.444
186.47	2300.000
186.85	1000.000
187.23	-522.222
187.61	-5000.000
187.98	800.000
188.36	1200.000
188.74	-975.000
189.12	-1266.667
189.49	-200.000
189.87	-537.500
190.25	-433.333
190.63	-880.000
191.00	-488.889
191.38	0.000
191.76	-1100.000
192.14	-700.000
192.51	2550.000
192.89	-516.667
193.27	0.000
193.65	-542.857
194.02	-3800.000
194.40	-614.286
194.78	585.714
195.15	0.000
195.53	-354.545
195.91	0.000
196.29	-925.000
196.66	-300.000
197.04	-4800.000
197.42	-471.429
197.79	-1750.000
198.17	-500.000
198.55	-528.571
198.92	-422.222
199.30	-487.500
199.68	-245.455
200.05	-271.429
200.43	-2200.000
200.81	757.143
201.18	0.000
201.56	544.444
201.94	0.000
202.31	1366.667
202.69	-577.778
203.07	4200.000
203.44	-466.667
203.82	-875.000
204.19	-341.667
204.57	-733.333
204.95	-500.000
205.32	-4300.000
205.70	1150.000
206.08	-566.667
206.45	-633.333
206.83	1020.000
207.20	-683.333
207.58	-920.000
207.96	-950.000
208.33	-700.000
208.71	408.333
209.08	-633.333
209.46	0.000
209.84	850.000
210.21	2700.000
210.59	2300.000
210.96	1400.000
211.34	-825.000
211.71	-525.000
212.09	-4100.000
212.46	0.000
212.84	2300.000
213.22	-960.000
213.59	-1150.000
213.97	-310.000
214.34	-1366.667
214.72	766.667
215.09	-875.000
215.47	0.000
215.84	485.714
216.22	2700.000
216.59	-880.000
216.97	-780.000
217.34	-1100.000
217.72	-450.000
218.09	-1150.000
218.47	-1125.000
218.84	0.000
219.22	800.000
219.59	-229.412
219.97	-210.000
220.34	2600.000
220.72	-511.111
221.09	-284.615
221.47	-1400.000
221.84	-370.000
222.22	-528.571
222.59	0.000
222.97	-562.500
223.34	-940.000
223.72	-4800.000
224.09	-1275.000
224.46	-1025.000
224.84	-740.000
225.21	-628.571
225.59	-1075.000
225.96	-1175.000
226.34	-107.692
226.71	950.000
227.08	-2250.000
227.46	-266.667
227.83	-1100.000
228.21	-194.737
228.58	537.500
228.95	1950.000
229.33	-300.000
229.70	-410.000
230.08	-168.421
230.45	490.000
230.82	-1433.333
231.20	-250.000
231.57	-300.000
231.95	-354.545
232.32	-409.091
232.69	-180.000
233.07	-950.000
233.44	-205.882
233.81	-500.000
234.19	-205.556
234.56	-168.182
234.93	-127.586
235.31	-215.789
235.68	-205.556
236.05	-195.000
236.43	-103.846
236.80	-76.000
237.17	-133.333
237.55	-124.242
237.92	-510.000
238.29	-119.355
238.67	-79.545
239.04	-102.778
239.41	-80.952
239.79	-78.261
240.16	-68.519
240.53	-78.261
240.91	-94.118
241.28	-65.574
241.65	-41.791
242.02	-37.838
242.40	-69.231
242.77	-53.333
243.14	-50.000
243.51	-53.947
243.89	-56.410
244.26	-34.653
244.63	-33.333
245.00	-33.645
245.38	-32.456
245.75	-44.248
246.12	-23.810
246.49	-35.659
246.87	-21.429
247.24	-19.868
247.61	-23.026
247.98	-24.832
248.36	-20.988
248.73	-26.994
249.10	-18.579
249.47	-10.945
249.84	-14.136
250.22	-15.026
250.59	-20.556
250.96	-10.909
251.33	-15.306
251.70	-10.684
252.08	-7.500
252.45	-8.197
252.82	-14.050
253.19	-11.719
253.56	-8.745
253.94	-10.000
254.31	-6.061
254.68	-4.895
255.05	-4.560
255.42	-7.823
255.79	-8.738
256.16	-11.258
256.54	-11.921
256.91	-10.492
257.28	-8.525
257.65	-11.465
258.02	-9.440
258.39	-5.128
258.76	-2.141
259.14	-1.724
259.51	-6.628
259.88	-8.782
260.25	-4.444
260.62	-4.384
260.99	-3.552
261.36	-1.877
261.73	-6.366
262.10	-6.868
262.47	-2.413
262.85	-0.505
263.22	-6.494
263.59	-7.895
263.96	-5.115
264.33	-5.627
264.70	-4.444
265.07	-2.387
265.44	-1.587
265.81	-3.704
266.18	-1.361
266.55	-2.009
266.92	-7.517
267.29	-1.751
267.66	-1.552
268.03	-1.310
268.40	-2.923
268.77	-6.378
269.14	-5.727
269.51	-2.632
269.88	-0.820
270.25	-3.018
270.62	-4.008
270.99	-0.606
271.36	-1.386
271.73	-1.768
272.10	1.002
272.47	-3.206
272.84	-3.815
273.21	-4.810
273.58	-1.411
273.95	-2.308
274.32	-3.042
274.69	-1.161
275.06	-2.930
275.43	-2.773
275.80	0.353
276.17	-2.407
276.54	-1.493
276.91	-2.862
277.28	-1.808
277.65	-1.077
278.02	-0.919
278.39	-2.174
278.76	-2.636
279.13	-1.241
279.50	0.000
279.87	-0.537
280.23	-4.754
280.60	-1.356
280.97	-1.809
281.34	-2.547
281.71	-0.169
282.08	-2.159
282.45	-2.946
282.82	-0.628
283.19	-3.716
283.56	0.000
283.92	1.201
284.29	0.948
284.66	0.328
285.03	-3.045
285.40	-0.464
285.77	-1.548
286.14	0.611
286.51	0.609
286.87	-0.948
287.24	-1.205
287.61	-2.691
287.98	-1.662
288.35	-1.331
288.72	-0.148
289.08	0.146
289.45	-1.923
289.82	-0.753
290.19	-1.006
290.56	-0.141
290.93	0.143
291.29	-0.138
291.66	-1.653
292.03	-1.764
292.40	0.680
292.77	-1.348
293.13	0.947
293.50	-0.657
293.87	-0.671
294.24	0.667
294.60	-0.379
294.97	-1.342
295.34	0.128
295.71	-0.631
296.08	-0.258
296.44	-1.716
296.81	-2.436
297.18	-0.498
297.55	-0.590
297.91	-0.712
298.28	-1.540
298.65	-0.951
299.02	-0.236
299.38	-0.343
299.75	-0.467
300.12	-1.505
300.48	0.230
300.85	-0.675
301.22	1.230
301.59	-0.571
301.95	0.113
302.32	0.778
302.69	-0.110
303.05	0.109
303.42	0.333
303.79	-0.417
304.15	-0.526
304.52	-0.529
304.89	0.000
305.25	-0.414
305.62	1.358
305.99	1.134
306.35	-0.403
306.72	1.655
307.09	0.102
307.45	0.621
307.82	0.706
308.19	0.303
308.55	1.446
308.92	0.974
309.29	1.245
309.65	0.975
310.02	-0.297
310.38	0.492
310.75	0.777
311.12	0.575
311.48	0.684
311.85	1.235
312.22	0.190
312.58	0.469
312.95	1.052
313.31	1.716
313.68	2.381
314.05	2.349
314.41	1.821
314.78	1.998
315.14	2.722
315.51	2.862
315.87	2.880
316.24	3.927
316.61	4.085
316.97	1.176
317.34	2.910
317.70	3.755
318.07	3.527
318.43	4.422
318.80	5.769
319.16	4.464
319.53	3.685
319.89	4.820
320.26	6.050
320.62	5.319
320.99	5.910
321.35	6.562
321.72	7.535
322.08	6.583
322.45	8.130
322.81	7.310
323.18	6.726
323.54	8.190
323.91	8.096
324.27	7.659
324.64	8.060
325.00	8.955
325.37	9.582
325.73	9.339
326.10	10.543
326.46	10.505
326.83	10.969
327.19	10.866
327.56	10.830
327.92	10.307
328.29	9.758
328.65	10.637
329.01	11.252
329.38	11.205
329.74	11.130
330.11	11.045
330.47	11.879
330.84	10.594
331.20	10.833
331.56	11.612
331.93	11.715
332.29	11.864
332.66	11.960
333.02	12.060
333.38	11.745
333.75	12.037
334.11	11.426
334.48	12.211
334.84	12.234
335.20	12.343
335.57	12.901
335.93	12.066
336.29	10.982
336.66	11.186
337.02	12.960
337.38	12.670
337.75	11.322
338.11	11.690
338.47	11.414
338.84	11.252
339.20	11.120
339.56	12.109
339.93	12.726
340.29	12.158
340.65	11.922
341.02	12.530
341.38	11.884
341.74	11.461
342.11	10.539
342.47	11.914
342.83	11.675
343.20	13.083
343.56	11.949
343.92	11.529
344.28	12.188
344.65	12.636
345.01	12.715
345.37	11.664
345.73	11.380
346.10	11.856
346.46	11.076
346.82	13.483
347.19	12.376
347.55	12.595
347.91	11.664
348.27	11.988
348.63	11.577
349.00	12.826
349.36	12.193
349.72	11.979
350.08	11.590
350.45	11.483
350.81	11.538
351.17	11.504
351.53	12.434
351.89	12.301
352.26	12.388
352.62	11.194
352.98	10.458
353.34	10.904
353.70	11.941
354.07	11.401
354.43	11.086
354.79	11.593
355.15	11.921
355.51	11.769
355.87	11.369
356.24	11.635
356.60	11.013
356.96	11.712
357.32	10.706
357.68	11.274
358.04	10.928
358.40	10.672
358.77	11.257
359.13	11.004
359.49	10.409
359.85	12.183
360.21	11.406
360.57	10.553
360.93	11.142
361.29	12.421
361.66	11.513
362.02	12.596
362.38	12.439
362.74	11.034
363.10	11.761
363.46	11.565
363.82	11.506
364.18	11.330
364.54	11.687
364.90	12.040
365.26	11.517
365.62	12.200
365.98	11.504
366.35	12.215
366.71	12.857
367.07	10.758
367.43	11.753
367.79	12.674
368.15	13.110
368.51	12.720
368.87	11.822
369.23	11.600
369.59	11.270
369.95	12.847
370.31	12.289
370.67	11.623
371.03	12.188
371.39	11.551
371.75	13.067
372.11	12.805
372.47	12.999
372.83	12.435
373.19	12.408
373.55	11.924
373.91	12.406
374.27	12.872
374.63	11.773
374.99	12.334
375.35	13.377
375.71	12.129
376.07	12.072
376.42	12.783
376.78	13.487
377.14	12.414
377.50	12.650
377.86	13.177
378.22	13.353
378.58	12.723
378.94	12.735
379.30	13.064
379.66	12.757
380.02	13.907
380.38	13.594
380.74	12.732
381.09	13.298
381.45	13.977
381.81	13.700
382.17	12.708
382.53	14.035
382.89	13.939
383.25	13.423
383.61	13.310
383.97	13.015
384.32	13.517
384.68	12.761
385.04	14.170
385.40	13.553
385.76	14.068
386.12	14.183
386.48	14.529
386.83	13.886
387.19	13.499
387.55	13.439
387.91	14.155
388.27	13.799
388.62	14.204
388.98	13.988
389.34	14.260
389.70	14.003
390.06	14.269
390.42	14.217
390.77	15.232
391.13	14.319
391.49	13.708
391.85	14.727
392.20	15.006
392.56	15.594
392.92	15.376
393.28	13.986
393.64	14.581
393.99	15.166
394.35	14.953
394.71	16.048
395.07	14.551
395.42	14.849
395.78	15.356
396.14	14.736
396.50	14.014
396.85	15.444
397.21	14.556
397.57	15.665
397.92	15.750
398.28	14.503
398.64	14.931
399.00	15.131
399.35	15.759
399.71	14.620
400.07	16.171
400.42	15.367
400.78	14.873
401.14	15.083
401.49	16.146
401.85	15.233
402.21	15.527
402.57	16.432
402.92	15.957
403.28	14.930
403.63	14.618
403.99	15.321
404.35	15.350
404.70	15.921
405.06	15.380
405.42	15.867
405.77	16.194
406.13	16.532
406.49	15.709
406.84	15.900
407.20	15.763
407.55	15.082
407.91	16.153
408.27	15.783
408.62	16.579
408.98	15.902
409.34	15.132
409.69	14.957
410.05	16.237
410.40	16.531
410.76	15.816
411.11	15.839
411.47	16.523
411.83	16.343
412.18	16.867
412.54	16.360
412.89	16.182
413.25	16.761
413.60	15.738
413.96	16.434
414.31	16.771
414.67	16.756
415.03	16.492
415.38	16.646
415.74	15.761
416.09	16.595
416.45	15.967
416.80	16.034
417.16	15.517
417.51	16.252
417.87	15.757
418.22	16.168
418.58	15.985
418.93	16.705
419.29	16.400
419.64	16.267
420.00	17.211
420.35	16.564
420.71	17.174
421.06	16.389
421.42	16.284
421.77	16.263
422.12	16.913
422.48	16.539
422.83	17.196
423.19	17.401
423.54	16.925
423.90	16.786
424.25	17.280
424.61	16.246
424.96	17.024
425.31	16.826
425.67	16.425
426.02	17.266
426.38	16.705
426.73	16.797
427.09	16.840
427.44	16.221
427.79	16.860
428.15	16.553
428.50	16.742
428.85	16.188
429.21	17.021
429.56	17.127
429.92	16.560
430.27	17.639
430.62	17.391
430.98	16.576
431.33	16.911
431.68	16.762
432.04	16.658
432.39	16.872
432.74	17.180
433.10	16.712
433.45	16.890
433.80	16.416
434.16	16.684
434.51	16.906
434.86	18.024
435.22	17.853
435.57	16.804
435.92	16.361
436.28	17.463
436.63	17.750
436.98	16.855
437.34	17.418
437.69	16.731
438.04	17.240
438.39	16.829
438.75	17.156
439.10	17.812
439.45	17.440
439.81	17.232
440.16	17.319
440.51	18.004
440.86	16.398
441.22	17.363
441.57	17.872
441.92	18.235
442.27	18.384
442.63	17.635
442.98	17.930
443.33	17.833
443.68	18.285
444.03	18.062
444.39	17.661
444.74	17.050
445.09	17.334
445.44	18.019
445.79	18.343
446.15	17.575
446.50	17.778
446.85	17.947
447.20	18.085
447.55	18.305
447.91	17.592
448.26	17.230
448.61	18.013
448.96	18.401
449.31	17.338
449.66	17.429
450.02	18.513
450.37	18.540
450.72	17.976
451.07	17.995
451.42	17.620
451.77	17.343
452.12	18.341
452.47	17.766
452.83	18.525
453.18	17.104
453.53	17.404
453.88	18.222
454.23	18.362
454.58	17.353
454.93	17.658
455.28	18.543
455.63	17.453
455.98	18.156
456.34	17.962
456.69	17.931
457.04	17.849
457.39	17.517
457.74	18.624
458.09	17.957
458.44	18.858
458.79	18.669
459.14	17.881
459.49	17.883
459.84	18.835
460.19	17.157
460.54	18.115
460.89	18.264
461.24	17.011
461.59	17.709
461.94	17.513
462.29	18.085
462.64	17.803
462.99	17.263
463.34	17.975
463.69	18.054
464.04	18.344
464.39	17.545
464.74	18.016
465.09	17.878
465.44	17.167
465.79	17.715
466.14	17.926
466.49	18.053
466.84	17.080
467.19	16.936
467.54	17.274
467.89	17.184
468.24	17.452
468.59	16.850
468.94	17.366
469.29	17.217
469.64	16.275
469.99	17.336
470.34	17.574
470.68	17.430
471.03	16.765
471.38	16.743
471.73	16.255
472.08	16.878
472.43	17.459
472.78	17.443
473.13	17.004
473.48	17.583
473.83	17.818
474.17	17.292
474.52	16.897
474.87	17.331
475.22	18.197
475.57	17.238
475.92	18.019
476.27	17.625
476.61	18.017
476.96	17.049
477.31	17.178
477.66	18.206
478.01	17.082
478.36	17.398
478.70	17.438
479.05	17.689
479.40	17.078
479.75	17.531
480.10	16.817
480.45	18.049
480.79	17.596
481.14	17.371
481.49	17.129
481.84	17.711
482.19	17.763
482.53	17.621
482.88	17.767
483.23	17.608
483.58	17.380
483.92	16.711
484.27	17.316
484.62	16.997
484.97	17.613
485.31	16.966
485.66	16.743
486.01	17.175
486.36	18.108
486.70	18.882
487.05	18.800
487.40	18.458
487.75	18.015
488.09	17.667
488.44	17.078
488.79	16.560
489.13	17.161
489.48	16.466
489.83	16.579
490.17	16.525
490.52	16.585
490.87	16.667
491.22	16.724
491.56	16.468
491.91	16.703
492.26	16.659
492.60	16.353
492.95	16.674
493.30	16.719
493.64	16.338
493.99	16.886
494.34	16.943
494.68	16.617
495.03	16.388
495.37	16.201
495.72	16.735
496.07	17.397
496.41	15.916
496.76	17.223
497.11	16.221
497.45	16.703
497.80	16.659
498.14	15.737
498.49	16.176
498.84	16.728
499.18	16.149
499.53	16.592
499.87	16.527
500.22	15.494
500.56	15.655
500.91	16.705
501.26	16.136
501.60	15.024
501.95	16.283
502.29	16.411
502.64	16.091
502.98	15.919
503.33	16.026
503.67	15.613
504.02	15.806
504.36	16.354
504.71	15.618
505.06	15.689
505.40	15.585
505.75	15.847
506.09	15.746
506.44	16.156
506.78	15.917
507.13	15.491
507.47	16.011
507.82	15.246
508.16	14.914
508.51	15.659
508.85	15.210
509.19	15.822
509.54	16.042
509.88	15.542
510.23	15.444
510.57	16.578
510.92	15.530
511.26	14.719
511.61	14.727
511.95	15.373
512.30	15.362
512.64	14.393
512.98	15.158
513.33	15.827
513.67	14.839
514.02	15.432
514.36	14.987
514.70	14.792
515.05	15.276
515.39	15.591
515.74	14.581
516.08	15.161
516.42	15.646
516.77	15.300
517.11	14.440
517.46	15.164
517.80	15.767
518.14	16.213
518.49	15.347
518.83	14.635
519.17	14.593
519.52	14.832
519.86	14.678
520.20	14.803
520.55	14.294
520.89	15.090
521.23	14.852
521.58	14.181
521.92	15.184
522.26	15.006
522.61	13.773
522.95	14.360
523.29	14.023
523.64	14.518
523.98	14.661
524.32	15.358
524.66	14.400
525.01	13.817
525.35	14.245
525.69	14.443
526.04	14.868
526.38	14.713
526.72	13.841
527.06	14.487
527.41	14.869
527.75	14.252
528.09	14.109
528.43	14.683
528.78	13.584
529.12	13.933
529.46	14.840
529.80	14.416
530.15	14.087
530.49	13.760
530.83	14.168
531.17	13.799
531.51	13.598
531.86	14.363
532.20	14.756
532.54	13.405
532.88	14.364
533.22	13.907
533.57	13.329
533.91	14.366
534.25	15.093
534.59	13.563
534.93	13.356
535.27	13.690
535.62	13.701
535.96	14.062
536.30	13.455
536.64	14.234
536.98	13.838
537.32	14.074
537.66	14.036
538.01	12.689
538.35	13.886
538.69	12.861
539.03	14.102
539.37	13.486
539.71	13.634
540.05	13.669
540.39	12.958
540.73	12.143
541.07	13.182
541.42	13.349
541.76	12.515
542.10	13.209
542.44	12.363
542.78	13.625
543.12	13.528
543.46	13.492
543.80	11.930
544.14	12.926
544.48	13.180
544.82	13.345
545.16	12.701
545.50	13.241
545.84	13.595
546.18	14.198
546.52	12.739
546.86	12.453
547.20	13.486
547.54	12.235
547.88	11.814
548.22	12.105
548.56	12.288
548.90	12.657
549.24	13.435
549.58	13.249
549.92	11.990
550.26	13.269
550.60	12.061
550.94	12.484
551.28	12.607
551.62	12.871
551.96	12.233
552.30	12.237
552.64	12.134
552.98	12.352
553.32	12.669
553.66	12.412
554.00	12.043
554.34	12.934
554.68	12.201
555.02	12.155
555.36	12.492
555.69	11.595
556.03	11.223
556.37	12.641
556.71	12.112
557.05	12.141
557.39	12.342
557.73	11.889
558.07	11.722
558.41	12.292
558.75	12.035
559.08	11.621
559.42	11.317
559.76	12.212
560.10	11.186
560.44	11.939
560.78	12.375
561.12	12.500
561.45	11.800
561.79	12.637
562.13	12.446
562.47	11.221
562.81	10.886
563.15	13.005
563.48	11.498
563.82	11.790
564.16	11.872
564.50	11.979
564.84	11.268
565.17	12.471
565.51	12.083
565.85	11.223
566.19	11.406
566.52	11.644
566.86	11.319
567.20	11.202
567.54	11.471
567.88	11.468
568.21	11.957
568.55	11.990
568.89	12.438
569.23	12.083
569.56	12.192
569.90	12.580
570.24	12.411
570.57	11.835
570.91	11.911
571.25	12.062
571.59	12.552
571.92	12.233
572.26	12.229
572.60	12.258
572.93	12.413
573.27	11.942
573.61	11.858
573.95	12.552
574.28	12.217
574.62	12.392
574.96	11.932
575.29	12.271
575.63	12.104
575.97	12.192
576.30	11.966
576.64	12.073
576.98	12.005
577.31	12.067
577.65	12.175
577.98	11.822
578.32	12.098
578.66	12.194
578.99	11.796
579.33	12.139
579.67	12.103
580.00	11.935
580.34	12.042
580.67	11.893
581.01	12.008
581.35	11.748
581.68	11.908
582.02	11.954
582.35	12.085
582.69	12.111
583.02	12.166
583.36	11.707
583.70	11.815
584.03	11.663
584.37	11.429
584.70	11.027
585.04	11.207
585.37	11.622
585.71	11.499
586.04	11.713
586.38	11.235
586.72	11.106
587.05	11.486
587.39	11.169
587.72	11.651
588.06	11.291
588.39	11.153
588.73	11.005
589.06	11.456
589.40	11.217
589.73	11.054
590.07	11.273
590.40	11.224
590.73	11.205
591.07	11.392
591.40	10.731
591.74	10.890
592.07	11.287
592.41	10.134
592.74	10.792
593.08	11.146
593.41	11.169
593.75	11.178
594.08	10.906
594.41	10.673
594.75	11.192
595.08	10.935
595.42	10.779
595.75	11.172
596.09	10.640
596.42	10.641
596.75	10.807
597.09	10.505
597.42	10.290
597.75	10.819
598.09	11.151
598.42	10.655
598.76	10.432
599.09	10.573
599.42	10.795
599.76	10.664
600.09	10.410
600.42	10.677
600.76	10.601
601.09	10.521
601.42	10.539
601.76	10.552
602.09	10.650
602.42	10.105
602.76	10.221
603.09	10.132
603.42	10.224
603.76	9.937
604.09	10.965
604.42	10.495
604.76	10.008
605.09	10.371
605.42	10.566
605.75	9.731
606.09	10.302
606.42	10.325
606.75	9.670
607.09	9.716
607.42	10.135
607.75	9.848
608.08	9.945
608.42	9.875
608.75	9.411
609.08	10.017
609.41	9.484
609.75	9.420
610.08	10.114
610.41	9.686
610.74	9.286
611.07	9.725
611.41	9.731
611.74	9.099
612.07	10.145
612.40	9.506
612.73	9.535
613.07	9.829
613.40	9.913
613.73	8.859
614.06	9.666
614.39	9.524
614.72	8.831
615.06	9.336
615.39	9.183
615.72	9.573
616.05	9.713
616.38	9.233
616.71	9.822
617.05	8.466
617.38	9.417
617.71	8.477
618.04	9.606
618.37	9.727
618.70	9.276
619.03	7.826
619.36	8.323
619.69	8.456
620.03	8.663
620.36	8.773
620.69	8.328
621.02	8.005
621.35	8.926
621.68	8.749
622.01	7.972
622.34	8.020
622.67	8.179
623.00	7.355
623.33	8.958
623.66	9.079
623.99	7.834
624.32	9.162
624.65	8.044
624.99	8.908
625.32	8.687
625.65	8.901
625.98	8.814
626.31	8.788
626.64	9.084
626.97	7.952
627.30	7.441
627.63	8.027
627.96	9.309
628.29	8.872
628.62	6.549
628.95	7.362
629.28	6.882
629.61	7.492
629.94	6.778
630.26	7.627
630.59	8.463
630.92	7.359
631.25	8.140
631.58	8.098
631.91	6.279
632.24	6.148
