SpectraSuite Data File
++++++++++++++++++++++++++++++++++++
Date: Thu May 14 16:13:32 PDT 2015
User: schluterlab
Dark Spectrum Present: Yes
Reference Spectrum Present: Yes
Number of Sampled Component Spectra: 1
Spectrometers: USB2E3373
Integration Time (usec): 3000 (USB2E3373)
Spectra Averaged: 3 (USB2E3373)
Boxcar Smoothing: 0 (USB2E3373)
Correct for Electrical Dark: No (USB2E3373)
Strobe/Lamp Enabled: No (USB2E3373)
Correct for Detector Non-linearity: No (USB2E3373)
Correct for Stray Light: No (USB2E3373)
Number of Pixels in Processed Spectrum: 2048
>>>>>Begin Processed Spectral Data<<<<<
178.53	0.000
178.91	71.429
179.29	-1700.000
179.67	-700.000
180.04	142.857
180.42	80.000
180.80	120.000
181.18	-700.000
181.56	700.000
181.94	200.000
182.31	-75.000
182.69	-133.333
183.07	-500.000
183.45	275.000
183.83	-133.333
184.20	-33.333
184.58	-100.000
184.96	-200.000
185.34	-66.667
185.72	140.000
186.09	211.111
186.47	500.000
186.85	200.000
187.23	-166.667
187.61	-500.000
187.98	60.000
188.36	100.000
188.74	-125.000
189.12	-200.000
189.49	6.250
189.87	-112.500
190.25	22.222
190.63	-100.000
191.00	-100.000
191.38	0.000
191.76	-200.000
192.14	-116.667
192.51	400.000
192.89	-83.333
193.27	0.000
193.65	-100.000
194.02	-1100.000
194.40	-85.714
194.78	100.000
195.15	0.000
195.53	27.273
195.91	0.000
196.29	-50.000
196.66	-23.077
197.04	-100.000
197.42	-142.857
197.79	-500.000
198.17	-175.000
198.55	-257.143
198.92	-88.889
199.30	-100.000
199.68	0.000
200.05	-28.571
200.43	-550.000
200.81	57.143
201.18	0.000
201.56	155.556
201.94	0.000
202.31	433.333
202.69	-111.111
203.07	-500.000
203.44	-44.444
203.82	-50.000
204.19	-75.000
204.57	-83.333
204.95	-37.500
205.32	-800.000
205.70	-50.000
206.08	-66.667
206.45	16.667
206.83	280.000
207.20	0.000
207.58	-240.000
207.96	-100.000
208.33	-16.667
208.71	33.333
209.08	-83.333
209.46	0.000
209.84	250.000
210.21	250.000
210.59	-50.000
210.96	300.000
211.34	-25.000
211.71	-25.000
212.09	-600.000
212.46	0.000
212.84	550.000
213.22	-420.000
213.59	-375.000
213.97	-40.000
214.34	-66.667
214.72	100.000
215.09	-225.000
215.47	0.000
215.84	128.571
216.22	150.000
216.59	100.000
216.97	-100.000
217.34	-100.000
217.72	62.500
218.09	-150.000
218.47	-200.000
218.84	0.000
219.22	40.000
219.59	35.294
219.97	20.000
220.34	400.000
220.72	-44.444
221.09	7.692
221.47	-333.333
221.84	-10.000
222.22	-100.000
222.59	0.000
222.97	12.500
223.34	-300.000
223.72	-800.000
224.09	-325.000
224.46	-25.000
224.84	-100.000
225.21	28.571
225.59	-125.000
225.96	-225.000
226.34	-3.846
226.71	200.000
227.08	-250.000
227.46	60.000
227.83	50.000
228.21	21.053
228.58	162.500
228.95	750.000
229.33	-16.667
229.70	-20.000
230.08	0.000
230.45	80.000
230.82	-166.667
231.20	7.143
231.57	25.000
231.95	-27.273
232.32	36.364
232.69	-25.000
233.07	-150.000
233.44	-5.882
233.81	0.000
234.19	16.667
234.56	4.545
234.93	10.345
235.31	-26.316
235.68	-5.556
236.05	-5.000
236.43	23.077
236.80	28.000
237.17	14.815
237.55	-9.091
237.92	-120.000
238.29	12.903
238.67	-15.909
239.04	0.000
239.41	7.143
239.79	-15.217
240.16	-1.852
240.53	-19.565
240.91	-9.804
241.28	-4.918
241.65	5.970
242.02	8.108
242.40	-1.538
242.77	0.000
243.14	-2.439
243.51	-15.789
243.89	-24.359
244.26	8.911
244.63	-2.941
245.00	6.542
245.38	-4.386
245.75	-7.965
246.12	-1.587
246.49	3.101
246.87	12.143
247.24	-2.649
247.61	-1.974
247.98	-2.685
248.36	-1.235
248.73	-11.656
249.10	0.546
249.47	4.478
249.84	6.806
250.22	1.036
250.59	-1.111
250.96	9.091
251.33	-4.082
251.70	1.709
252.08	-3.333
252.45	3.279
252.82	0.000
253.19	0.391
253.56	2.281
253.94	-1.538
254.31	4.545
254.68	5.944
255.05	4.560
255.42	1.701
255.79	0.971
256.16	0.993
256.54	0.000
256.91	3.934
257.28	1.967
257.65	0.955
258.02	1.770
258.39	0.855
258.76	7.339
259.14	4.023
259.51	3.458
259.88	0.283
260.25	1.111
260.62	0.822
260.99	5.464
261.36	5.362
261.73	1.061
262.10	-2.198
262.47	2.413
262.85	4.545
263.22	-0.260
263.59	0.526
263.96	0.256
264.33	0.767
264.70	1.975
265.07	4.773
265.44	4.989
265.81	1.852
266.18	1.814
266.55	3.125
266.92	0.683
267.29	3.720
267.66	1.774
268.03	3.930
268.40	4.384
268.77	2.733
269.14	1.322
269.51	4.825
269.88	4.713
270.25	4.024
270.62	2.954
270.99	4.242
271.36	4.950
271.73	4.912
272.10	3.808
272.47	3.006
272.84	4.217
273.21	2.605
273.58	3.427
273.95	4.231
274.32	2.281
274.69	2.128
275.06	0.549
275.43	2.033
275.80	3.704
276.17	2.778
276.54	2.799
276.91	3.041
277.28	3.797
277.65	5.027
278.02	3.125
278.39	3.261
278.76	2.285
279.13	1.773
279.50	3.952
279.87	2.504
280.23	-0.528
280.60	2.712
280.97	4.441
281.34	1.019
281.71	4.399
282.08	3.987
282.45	3.437
282.82	2.826
283.19	1.131
283.56	1.803
283.92	3.754
284.29	5.055
284.66	4.598
285.03	0.962
285.40	2.628
285.77	2.632
286.14	3.206
286.51	3.805
286.87	3.002
287.24	3.765
287.61	2.990
287.98	3.021
288.35	3.550
288.72	1.775
289.08	3.075
289.45	3.402
289.82	1.355
290.19	3.736
290.56	4.930
290.93	2.710
291.29	1.515
291.66	2.755
292.03	3.121
292.40	4.626
292.77	4.043
293.13	4.736
293.50	3.022
293.87	3.893
294.24	3.600
294.60	4.046
294.97	2.550
295.34	4.866
295.71	3.657
296.08	4.393
296.44	3.554
296.81	4.994
297.18	3.985
297.55	4.245
297.91	3.440
298.28	4.739
298.65	3.924
299.02	5.077
299.38	4.119
299.75	4.673
300.12	3.356
300.48	4.724
300.85	5.062
301.22	7.047
301.59	4.566
301.95	5.876
302.32	6.222
302.69	5.367
303.05	7.073
303.42	6.763
303.79	6.667
304.15	6.099
304.52	5.708
304.89	6.178
305.25	6.729
305.62	6.374
305.99	7.423
306.35	7.560
306.72	7.653
307.09	7.614
307.45	8.592
307.82	7.467
308.19	7.568
308.55	8.872
308.92	8.277
309.29	9.770
309.65	8.090
310.02	8.713
310.38	9.252
310.75	10.194
311.12	10.163
311.48	9.189
311.85	11.111
312.22	10.721
312.58	11.268
312.95	12.141
313.31	12.285
313.68	10.897
314.05	12.105
314.41	13.479
314.78	13.351
315.14	13.339
315.51	14.866
315.87	14.401
316.24	15.434
316.61	16.163
316.97	15.113
317.34	16.490
317.70	16.594
318.07	18.254
318.43	17.602
318.80	19.147
319.16	17.167
319.53	18.252
319.89	19.281
320.26	19.217
320.62	19.592
320.99	21.330
321.35	20.980
321.72	23.535
322.08	23.535
322.45	23.397
322.81	24.278
323.18	25.221
323.54	25.776
323.91	27.669
324.27	27.711
324.64	29.387
325.00	29.768
325.37	30.631
325.73	31.570
326.10	30.819
326.46	33.795
326.83	35.068
327.19	34.331
327.56	35.178
327.92	35.563
328.29	35.726
328.65	36.516
329.01	38.240
329.38	38.248
329.74	39.726
330.11	39.983
330.47	39.090
330.84	41.085
331.20	40.083
331.56	40.988
331.93	42.510
332.29	42.288
332.66	41.279
333.02	41.541
333.38	41.275
333.75	42.340
334.11	43.620
334.48	44.142
334.84	43.415
335.20	42.653
335.57	43.929
335.93	44.215
336.29	43.760
336.66	44.491
337.02	44.398
337.38	44.133
337.75	43.636
338.11	45.837
338.47	44.665
338.84	43.993
339.20	45.493
339.56	44.811
339.93	44.828
340.29	44.444
340.65	43.796
341.02	46.688
341.38	46.241
341.74	47.135
342.11	46.742
342.47	45.036
342.83	47.182
343.20	47.506
343.56	46.913
343.92	45.877
344.28	47.109
344.65	46.512
345.01	46.958
345.37	46.190
345.73	47.233
346.10	47.192
346.46	47.152
346.82	47.790
347.19	47.899
347.55	48.255
347.91	47.474
348.27	48.862
348.63	48.286
349.00	48.248
349.36	48.625
349.72	48.586
350.08	48.143
350.45	49.049
350.81	48.265
351.17	47.895
351.53	48.825
351.89	49.279
352.26	50.746
352.62	49.701
352.98	50.076
353.34	48.992
353.70	51.926
354.07	50.298
354.43	50.190
354.79	50.411
355.15	51.435
355.51	50.365
355.87	50.561
356.24	52.395
356.60	49.520
356.96	52.261
357.32	51.004
357.68	50.512
358.04	51.422
358.40	51.791
358.77	51.608
359.13	50.443
359.49	52.119
359.85	51.269
360.21	53.013
360.57	52.118
360.93	51.340
361.29	52.561
361.66	51.267
362.02	53.027
362.38	54.533
362.74	53.282
363.10	54.264
363.46	54.363
363.82	53.764
364.18	53.976
364.54	54.703
364.90	53.779
365.26	54.138
365.62	54.933
365.98	53.710
366.35	53.557
366.71	54.558
367.07	55.954
367.43	53.841
367.79	55.806
368.15	55.318
368.51	55.751
368.87	54.670
369.23	54.467
369.59	56.148
369.95	55.781
370.31	56.043
370.67	55.433
371.03	57.271
371.39	56.145
371.75	56.809
372.11	56.369
372.47	55.315
372.83	56.414
373.19	56.171
373.55	56.843
373.91	56.783
374.27	55.821
374.63	57.916
374.99	56.432
375.35	56.948
375.71	57.290
376.07	57.908
376.42	55.668
376.78	57.241
377.14	57.642
377.50	58.571
377.86	57.328
378.22	57.844
378.58	57.967
378.94	56.162
379.30	57.411
379.66	58.495
380.02	58.454
380.38	58.756
380.74	57.296
381.09	58.769
381.45	57.841
381.81	59.836
382.17	58.907
382.53	58.830
382.89	58.239
383.25	59.203
383.61	58.275
383.97	59.011
384.32	59.450
384.68	59.107
385.04	59.283
385.40	59.222
385.76	60.258
386.12	59.306
386.48	59.059
386.83	58.760
387.19	58.285
387.55	58.920
387.91	59.646
388.27	59.700
388.62	57.159
388.98	58.996
389.34	59.988
389.70	59.094
390.06	58.674
390.42	58.072
390.77	59.663
391.13	58.392
391.49	60.507
391.85	58.424
392.20	59.015
392.56	59.362
392.92	58.451
393.28	58.872
393.64	58.883
393.99	59.442
394.35	60.105
394.71	60.000
395.07	59.222
395.42	57.510
395.78	60.512
396.14	59.834
396.50	57.957
396.85	58.855
397.21	58.166
397.57	59.069
397.92	59.049
398.28	58.555
398.64	59.783
399.00	57.382
399.35	58.377
399.71	58.424
400.07	58.506
400.42	58.498
400.78	57.870
401.14	59.192
401.49	59.238
401.85	60.291
402.21	58.227
402.57	58.862
402.92	58.392
403.28	58.080
403.63	57.637
403.99	57.542
404.35	57.817
404.70	57.337
405.06	58.315
405.42	57.728
405.77	58.070
406.13	57.590
406.49	58.221
406.84	56.898
407.20	58.189
407.55	57.480
407.91	57.762
408.27	57.951
408.62	58.173
408.98	58.619
409.34	56.540
409.69	56.860
410.05	56.975
410.40	58.237
410.76	57.263
411.11	56.926
411.47	57.617
411.83	57.496
412.18	58.012
412.54	56.846
412.89	56.927
413.25	56.772
413.60	55.773
413.96	56.993
414.31	56.714
414.67	56.231
415.03	54.646
415.38	57.818
415.74	56.445
416.09	56.447
416.45	55.604
416.80	55.630
417.16	57.088
417.51	57.161
417.87	55.120
418.22	56.228
418.58	56.939
418.93	55.413
419.29	57.398
419.64	56.363
420.00	56.558
420.35	55.081
420.71	55.313
421.06	55.894
421.42	56.881
421.77	55.035
422.12	55.233
422.48	56.016
422.83	56.243
423.19	56.658
423.54	57.024
423.90	55.549
424.25	55.733
424.61	55.454
424.96	56.178
425.31	56.157
425.67	55.609
426.02	56.336
426.38	56.659
426.73	56.250
427.09	56.171
427.44	55.052
427.79	56.385
428.15	55.708
428.50	57.247
428.85	55.052
429.21	57.074
429.56	55.577
429.92	55.233
430.27	55.277
430.62	55.594
430.98	54.943
431.33	55.132
431.68	54.262
432.04	55.358
432.39	55.651
432.74	56.050
433.10	56.896
433.45	56.466
433.80	56.921
434.16	55.733
434.51	56.372
434.86	57.275
435.22	57.545
435.57	57.783
435.92	57.707
436.28	57.053
436.63	56.745
436.98	56.039
437.34	56.313
437.69	55.696
438.04	56.954
438.39	56.806
438.75	56.669
439.10	56.765
439.45	56.121
439.81	55.706
440.16	54.799
440.51	57.915
440.86	55.531
441.22	56.967
441.57	57.180
441.92	56.305
442.27	56.414
442.63	56.234
442.98	56.670
443.33	56.181
443.68	56.442
444.03	57.620
444.39	57.235
444.74	56.304
445.09	55.955
445.44	56.797
445.79	56.513
446.15	56.423
446.50	56.744
446.85	55.934
447.20	56.480
447.55	57.741
447.91	56.387
448.26	56.765
448.61	56.482
448.96	57.350
449.31	56.151
449.66	54.793
450.02	56.435
450.37	56.367
450.72	57.266
451.07	57.175
451.42	56.441
451.77	56.087
452.12	55.982
452.47	55.615
452.83	56.700
453.18	55.692
453.53	55.543
453.88	55.163
454.23	54.746
454.58	58.154
454.93	56.917
455.28	57.315
455.63	55.600
455.98	56.369
456.34	55.889
456.69	56.143
457.04	57.033
457.39	55.876
457.74	57.942
458.09	54.970
458.44	55.927
458.79	54.409
459.14	55.794
459.49	56.140
459.84	55.929
460.19	54.581
460.54	55.650
460.89	55.056
461.24	55.747
461.59	54.898
461.94	54.022
462.29	55.375
462.64	54.737
462.99	55.179
463.34	56.262
463.69	53.224
464.04	54.919
464.39	54.709
464.74	54.618
465.09	55.133
465.44	54.077
465.79	54.733
466.14	53.986
466.49	53.684
466.84	54.931
467.19	53.468
467.54	53.584
467.89	53.908
468.24	53.518
468.59	54.314
468.94	53.555
469.29	53.509
469.64	53.783
469.99	54.557
470.34	53.527
470.68	55.366
471.03	54.158
471.38	53.695
471.73	54.616
472.08	53.807
472.43	54.545
472.78	54.471
473.13	53.097
473.48	54.260
473.83	54.556
474.17	53.224
474.52	54.480
474.87	52.879
475.22	53.521
475.57	52.700
475.92	52.862
476.27	51.970
476.61	53.271
476.96	53.024
477.31	53.317
477.66	53.305
478.01	52.822
478.36	52.642
478.70	52.414
479.05	52.812
479.40	52.419
479.75	52.402
480.10	52.582
480.45	52.826
480.79	52.290
481.14	51.425
481.49	51.931
481.84	51.697
482.19	52.258
482.53	52.864
482.88	52.548
483.23	52.779
483.58	51.616
483.92	50.532
484.27	50.804
484.62	50.578
484.97	51.516
485.31	50.334
485.66	47.907
486.01	47.701
486.36	48.125
486.70	49.759
487.05	50.674
487.40	50.592
487.75	50.534
488.09	50.042
488.44	49.260
488.79	49.342
489.13	49.928
489.48	49.709
489.83	49.175
490.17	49.534
490.52	49.836
490.87	49.915
491.22	50.390
491.56	50.341
491.91	50.327
492.26	49.156
492.60	49.585
492.95	50.417
493.30	49.978
493.64	50.022
493.99	49.518
494.34	48.824
494.68	50.021
495.03	49.956
495.37	49.800
495.72	49.660
496.07	49.036
496.41	48.777
496.76	49.791
497.11	49.299
497.45	48.899
497.80	49.089
498.14	49.161
498.49	50.092
498.84	50.046
499.18	48.448
499.53	48.610
499.87	49.055
500.22	47.863
500.56	48.763
500.91	48.833
501.26	49.227
501.60	47.945
501.95	48.155
502.29	48.179
502.64	48.929
502.98	48.188
503.33	48.035
503.67	47.972
504.02	47.242
504.36	47.587
504.71	48.507
505.06	47.976
505.40	48.446
505.75	47.587
506.09	48.527
506.44	47.400
506.78	48.807
507.13	47.810
507.47	47.892
507.82	48.201
508.16	47.849
508.51	46.695
508.85	47.567
509.19	47.845
509.54	47.358
509.88	46.527
510.23	47.936
510.57	47.704
510.92	46.976
511.26	47.186
511.61	46.692
511.95	46.510
512.30	46.775
512.64	46.777
512.98	47.274
513.33	47.933
513.67	46.813
514.02	48.186
514.36	47.519
514.70	47.240
515.05	47.706
515.39	46.772
515.74	46.341
516.08	47.808
516.42	47.671
516.77	46.898
517.11	46.467
517.46	46.766
517.80	47.675
518.14	47.606
518.49	46.584
518.83	46.301
519.17	46.257
519.52	46.122
519.86	46.779
520.20	46.752
520.55	45.728
520.89	46.565
521.23	45.282
521.58	47.910
521.92	47.365
522.26	46.048
522.61	46.701
522.95	47.174
523.29	46.667
523.64	45.404
523.98	46.149
524.32	46.705
524.66	46.215
525.01	44.847
525.35	45.663
525.69	44.896
526.04	44.546
526.38	45.115
526.72	44.348
527.06	45.161
527.41	44.606
527.75	46.378
528.09	45.159
528.43	45.293
528.78	44.104
529.12	44.323
529.46	44.857
529.80	45.252
530.15	44.290
530.49	45.670
530.83	44.746
531.17	43.548
531.51	44.465
531.86	44.651
532.20	44.390
532.54	43.986
532.88	44.424
533.22	43.194
533.57	43.508
533.91	43.603
534.25	43.810
534.59	43.793
534.93	43.124
535.27	43.437
535.62	43.377
535.96	43.696
536.30	43.831
536.64	44.024
536.98	43.419
537.32	42.346
537.66	43.294
538.01	41.571
538.35	42.631
538.69	42.428
539.03	43.777
539.37	42.462
539.71	43.544
540.05	43.405
540.39	42.421
540.73	41.955
541.07	42.428
541.42	41.583
541.76	40.985
542.10	42.340
542.44	41.596
542.78	41.423
543.12	41.299
543.46	41.575
543.80	40.048
544.14	41.233
544.48	41.667
544.82	41.831
545.16	40.847
545.50	41.342
545.84	41.764
546.18	41.296
546.52	42.420
546.86	40.755
547.20	42.366
547.54	40.699
547.88	40.145
548.22	40.175
548.56	40.667
548.90	40.896
549.24	40.912
549.58	41.136
549.92	40.880
550.26	41.100
550.60	40.651
550.94	41.397
551.28	39.736
551.62	41.307
551.96	39.547
552.30	41.173
552.64	40.572
552.98	40.549
553.32	40.643
553.66	39.936
554.00	40.101
554.34	40.476
554.68	40.413
555.02	39.685
555.36	40.237
555.69	39.013
556.03	38.651
556.37	39.737
556.71	38.237
557.05	40.383
557.39	39.084
557.73	39.630
558.07	39.404
558.41	40.133
558.75	38.945
559.08	40.292
559.42	38.889
559.76	38.874
560.10	39.652
560.44	40.106
560.78	40.375
561.12	38.608
561.45	38.504
561.79	39.683
562.13	38.817
562.47	37.485
562.81	37.722
563.15	38.889
563.48	38.222
563.82	38.634
564.16	38.340
564.50	37.187
564.84	37.463
565.17	37.647
565.51	36.766
565.85	37.530
566.19	36.751
566.52	37.332
566.86	36.276
567.20	36.052
567.54	37.015
567.88	36.850
568.21	36.561
568.55	36.547
568.89	36.087
569.23	36.164
569.56	35.522
569.90	35.816
570.24	34.806
570.57	34.445
570.91	34.752
571.25	33.931
571.59	34.372
571.92	33.316
572.26	33.722
572.60	33.797
572.93	33.593
573.27	33.830
573.61	33.457
573.95	32.945
574.28	32.329
574.62	32.265
574.96	32.201
575.29	31.989
575.63	32.225
575.97	32.383
576.30	32.494
576.64	32.355
576.98	32.688
577.31	32.326
577.65	32.357
577.98	31.871
578.32	31.201
578.66	31.681
578.99	31.681
579.33	31.703
579.67	31.596
580.00	31.760
580.34	31.741
580.67	31.796
581.01	31.696
581.35	31.560
581.68	30.967
582.02	31.482
582.35	31.733
582.69	31.782
583.02	31.770
583.36	31.526
583.70	32.084
584.03	31.725
584.37	31.696
584.70	31.198
585.04	31.156
585.37	31.330
585.71	30.982
586.04	31.176
586.38	31.082
586.72	31.060
587.05	31.261
587.39	31.439
587.72	31.459
588.06	31.093
588.39	31.466
588.73	31.429
589.06	31.151
589.40	32.391
589.73	31.459
590.07	31.233
590.40	31.744
590.73	31.495
591.07	33.060
591.40	31.610
591.74	32.234
592.07	32.318
592.41	32.216
592.74	30.990
593.08	31.592
593.41	30.971
593.75	30.029
594.08	30.900
594.41	30.801
594.75	30.953
595.08	30.888
595.42	30.682
595.75	30.707
596.09	31.921
596.42	31.064
596.75	31.262
597.09	31.677
597.42	31.347
597.75	30.498
598.09	30.952
598.42	31.242
598.76	30.531
599.09	30.473
599.42	29.568
599.76	29.944
600.09	30.230
600.42	30.130
600.76	29.557
601.09	30.302
601.42	30.175
601.76	30.276
602.09	29.664
602.42	29.335
602.76	29.779
603.09	30.323
603.42	30.311
603.76	29.774
604.09	30.979
604.42	30.018
604.76	30.213
605.09	28.879
605.42	29.705
605.75	29.731
606.09	29.489
606.42	29.734
606.75	29.948
607.09	29.263
607.42	29.634
607.75	29.816
608.08	29.242
608.42	29.021
608.75	30.265
609.08	29.796
609.41	29.907
609.75	30.179
610.08	29.376
610.41	29.099
610.74	30.378
611.07	30.329
611.41	29.372
611.74	29.654
612.07	29.780
612.40	30.846
612.73	30.171
613.07	29.291
613.40	29.451
613.73	29.947
614.06	30.422
614.39	29.543
614.72	29.549
615.06	29.500
615.39	29.580
615.72	29.763
616.05	28.995
616.38	29.062
616.71	30.094
617.05	29.606
617.38	30.123
617.71	29.806
618.04	30.005
618.37	30.492
618.70	30.600
619.03	28.793
619.36	30.271
619.69	29.340
620.03	30.320
620.36	29.264
620.69	29.180
621.02	29.265
621.35	32.003
621.68	30.875
622.01	29.680
622.34	30.335
622.67	29.828
623.00	28.340
623.33	30.524
623.66	29.702
623.99	29.098
624.32	31.189
624.65	29.215
624.99	30.104
625.32	30.895
625.65	30.007
625.98	29.424
626.31	29.199
626.64	30.476
626.97	29.557
627.30	29.461
627.63	29.782
627.96	30.856
628.29	30.584
628.62	30.227
628.95	30.500
629.28	31.096
629.61	31.397
629.94	29.874
630.26	29.831
630.59	30.311
630.92	30.649
631.25	31.038
631.58	31.733
631.91	29.335
632.24	29.491
632.57	30.645
632.90	31.595
633.23	31.224
633.56	30.204
633.89	30.269
634.22	31.601
634.55	32.255
634.88	29.870
635.20	31.432
635.53	32.542
635.86	31.419
636.19	32.025
636.52	30.063
636.85	29.111
