SpectraSuite Data File
++++++++++++++++++++++++++++++++++++
Date: Thu May 14 16:11:29 PDT 2015
User: schluterlab
Dark Spectrum Present: Yes
Reference Spectrum Present: Yes
Number of Sampled Component Spectra: 1
Spectrometers: USB2E3373
Integration Time (usec): 3000 (USB2E3373)
Spectra Averaged: 3 (USB2E3373)
Boxcar Smoothing: 0 (USB2E3373)
Correct for Electrical Dark: No (USB2E3373)
Strobe/Lamp Enabled: No (USB2E3373)
Correct for Detector Non-linearity: No (USB2E3373)
Correct for Stray Light: No (USB2E3373)
Number of Pixels in Processed Spectrum: 2048
>>>>>Begin Processed Spectral Data<<<<<
178.53	0.000
178.91	128.571
179.29	-2000.000
179.67	-900.000
180.04	207.143
180.42	90.000
180.80	200.000
181.18	-200.000
181.56	0.000
181.94	275.000
182.31	-25.000
182.69	466.667
183.07	-50.000
183.45	350.000
183.83	-66.667
184.20	-366.667
184.58	400.000
184.96	-275.000
185.34	-55.556
185.72	-40.000
186.09	111.111
186.47	450.000
186.85	340.000
187.23	-211.111
187.61	-1700.000
187.98	260.000
188.36	100.000
188.74	-325.000
189.12	-533.333
189.49	-50.000
189.87	-112.500
190.25	-111.111
190.63	-80.000
191.00	-233.333
191.38	0.000
191.76	-125.000
192.14	-200.000
192.51	900.000
192.89	-116.667
193.27	0.000
193.65	-142.857
194.02	-1000.000
194.40	-14.286
194.78	285.714
195.15	0.000
195.53	-27.273
195.91	0.000
196.29	25.000
196.66	-69.231
197.04	-1000.000
197.42	-142.857
197.79	-900.000
198.17	-50.000
198.55	-200.000
198.92	-55.556
199.30	-62.500
199.68	-63.636
200.05	-14.286
200.43	-650.000
200.81	242.857
201.18	0.000
201.56	222.222
201.94	0.000
202.31	466.667
202.69	-133.333
203.07	800.000
203.44	-77.778
203.82	-200.000
204.19	-100.000
204.57	-183.333
204.95	-137.500
205.32	-1400.000
205.70	350.000
206.08	-150.000
206.45	-66.667
206.83	200.000
207.20	-150.000
207.58	-420.000
207.96	-83.333
208.33	16.667
208.71	125.000
209.08	83.333
209.46	0.000
209.84	300.000
210.21	500.000
210.59	350.000
210.96	633.333
211.34	0.000
211.71	-87.500
212.09	-1000.000
212.46	0.000
212.84	800.000
213.22	-140.000
213.59	-225.000
213.97	0.000
214.34	-333.333
214.72	166.667
215.09	-400.000
215.47	0.000
215.84	71.429
216.22	850.000
216.59	-60.000
216.97	-240.000
217.34	-400.000
217.72	-137.500
218.09	-375.000
218.47	-375.000
218.84	0.000
219.22	200.000
219.59	-11.765
219.97	-40.000
220.34	250.000
220.72	-44.444
221.09	-7.692
221.47	100.000
221.84	-70.000
222.22	-157.143
222.59	0.000
222.97	0.000
223.34	-160.000
223.72	-500.000
224.09	-125.000
224.46	-500.000
224.84	-20.000
225.21	-271.429
225.59	-225.000
225.96	-300.000
226.34	-15.385
226.71	233.333
227.08	-350.000
227.46	-93.333
227.83	-325.000
228.21	-15.789
228.58	87.500
228.95	600.000
229.33	-91.667
229.70	-140.000
230.08	42.105
230.45	220.000
230.82	-133.333
231.20	-57.143
231.57	-75.000
231.95	-9.091
232.32	-81.818
232.69	-15.000
233.07	-100.000
233.44	-29.412
233.81	-80.000
234.19	5.556
234.56	-9.091
234.93	34.483
235.31	10.526
235.68	22.222
236.05	-40.000
236.43	15.385
236.80	32.000
237.17	-18.519
237.55	-42.424
237.92	-30.000
238.29	-25.806
238.67	-2.273
239.04	-8.333
239.41	-23.810
239.79	-17.391
240.16	5.556
240.53	2.174
240.91	-19.608
241.28	-9.836
241.65	2.985
242.02	4.054
242.40	-1.538
242.77	-13.333
243.14	-2.439
243.51	-14.474
243.89	-7.692
244.26	-3.960
244.63	1.961
245.00	3.738
245.38	2.632
245.75	-7.965
246.12	-0.794
246.49	0.000
246.87	5.000
247.24	10.596
247.61	11.842
247.98	12.752
248.36	-0.617
248.73	-0.613
249.10	4.372
249.47	5.473
249.84	9.948
250.22	2.073
250.59	5.000
250.96	9.091
251.33	-1.531
251.70	4.274
252.08	4.583
252.45	4.918
252.82	6.612
253.19	3.125
253.56	4.183
253.94	4.615
254.31	5.303
254.68	9.091
255.05	9.446
255.42	7.823
255.79	4.531
256.16	6.291
256.54	5.960
256.91	8.852
257.28	7.213
257.65	3.822
258.02	4.425
258.39	5.698
258.76	10.092
259.14	10.345
259.51	4.899
259.88	4.533
260.25	9.444
260.62	7.945
260.99	10.109
261.36	9.115
261.73	6.101
262.10	6.868
262.47	5.630
262.85	8.333
263.22	5.455
263.59	6.053
263.96	8.951
264.33	6.394
264.70	8.642
265.07	9.308
265.44	6.803
265.81	4.167
266.18	8.163
266.55	6.027
266.92	4.100
267.29	9.847
267.66	5.100
268.03	7.642
268.40	8.351
268.77	4.784
269.14	5.066
269.51	5.702
269.88	7.377
270.25	6.439
270.62	6.540
270.99	7.475
271.36	10.099
271.73	7.466
272.10	9.018
272.47	6.814
272.84	6.426
273.21	5.611
273.58	8.065
273.95	9.038
274.32	5.513
274.69	7.350
275.06	8.425
275.43	5.915
275.80	8.113
276.17	5.370
276.54	7.649
276.91	5.546
277.28	8.137
277.65	7.899
278.02	9.191
278.39	4.529
278.76	6.327
279.13	6.206
279.50	8.763
279.87	9.660
280.23	4.930
280.60	6.271
280.97	6.579
281.34	7.301
281.71	9.475
282.08	7.143
282.45	7.856
282.82	6.436
283.19	6.139
283.56	6.230
283.92	8.859
284.29	7.425
284.66	6.076
285.03	6.410
285.40	7.110
285.77	4.799
286.14	6.718
286.51	6.240
286.87	6.477
287.24	8.434
287.61	6.876
287.98	6.042
288.35	7.101
288.72	7.544
289.08	7.613
289.45	5.769
289.82	5.723
290.19	6.466
290.56	9.437
290.93	6.990
291.29	5.096
291.66	5.372
292.03	5.834
292.40	7.619
292.77	5.660
293.13	5.277
293.50	5.388
293.87	5.906
294.24	8.267
294.60	7.080
294.97	5.638
295.34	8.195
295.71	4.792
296.08	5.814
296.44	5.760
296.81	6.456
297.18	5.230
297.55	7.075
297.91	5.931
298.28	4.265
298.65	4.875
299.02	6.021
299.38	6.522
299.75	4.907
300.12	6.250
300.48	4.724
300.85	6.074
301.22	5.817
301.59	4.338
301.95	6.215
302.32	6.444
302.69	6.134
303.05	5.658
303.42	5.543
303.79	5.312
304.15	6.204
304.52	4.228
304.89	6.178
305.25	6.315
305.62	5.120
305.99	5.876
306.35	5.343
306.72	5.895
307.09	5.381
307.45	5.487
307.82	5.550
308.19	4.339
308.55	5.786
308.92	5.745
309.29	5.172
309.65	5.263
310.02	4.554
310.38	5.709
310.75	5.922
311.12	6.424
311.48	4.497
311.85	4.748
312.22	5.028
312.58	5.164
312.95	5.354
313.31	5.601
313.68	6.136
314.05	5.420
314.41	6.284
314.78	5.540
315.14	6.261
315.51	5.540
315.87	6.301
316.24	4.932
316.61	5.950
316.97	5.068
317.34	5.556
317.70	5.764
318.07	5.644
318.43	5.867
318.80	6.522
319.16	5.751
319.53	4.370
319.89	4.996
320.26	6.139
320.62	4.787
320.99	5.817
321.35	5.360
321.72	5.860
322.08	5.050
322.45	5.601
322.81	6.588
323.18	5.664
323.54	5.862
323.91	6.228
324.27	5.680
324.64	6.801
325.00	7.131
325.37	6.880
325.73	7.438
326.10	6.245
326.46	6.678
326.83	6.805
327.19	6.142
327.56	6.403
327.92	6.216
328.29	6.048
328.65	6.868
329.01	6.091
329.38	6.403
329.74	7.021
330.11	5.908
330.47	6.234
330.84	6.202
331.20	7.333
331.56	6.759
331.93	6.109
332.29	6.949
332.66	6.063
333.02	6.700
333.38	6.208
333.75	5.808
334.11	6.422
334.48	7.591
334.84	6.457
335.20	5.793
335.57	6.661
335.93	6.860
336.29	5.574
336.66	5.803
337.02	6.689
337.38	7.398
337.75	6.446
338.11	6.308
338.47	6.617
338.84	5.668
339.20	4.971
339.56	5.931
339.93	7.061
340.29	6.844
340.65	6.326
341.02	5.347
341.38	7.276
341.74	5.650
342.11	6.114
342.47	4.925
342.83	6.200
343.20	7.195
343.56	5.533
343.92	6.325
344.28	5.703
344.65	6.357
345.01	7.176
345.37	6.532
345.73	5.534
346.10	6.552
346.46	5.696
346.82	6.816
347.19	6.799
347.55	7.056
347.91	6.686
348.27	5.918
348.63	5.788
349.00	5.742
349.36	6.245
349.72	6.399
350.08	6.612
350.45	5.171
350.81	5.204
351.17	5.865
351.53	5.838
351.89	6.378
352.26	6.940
352.62	6.493
352.98	6.260
353.34	5.302
353.70	6.317
354.07	5.812
354.43	5.239
354.79	5.984
355.15	5.372
355.51	6.579
355.87	5.909
356.24	5.019
356.60	5.026
356.96	5.560
357.32	6.468
357.68	5.124
358.04	5.689
358.40	5.746
358.77	5.994
359.13	4.579
359.49	5.279
359.85	5.874
360.21	6.098
360.57	5.528
360.93	5.712
361.29	5.754
361.66	6.227
362.02	5.846
362.38	5.130
362.74	5.656
363.10	5.433
363.46	5.609
363.82	4.972
364.18	5.559
364.54	6.224
364.90	5.886
365.26	4.690
365.62	5.600
365.98	5.718
366.35	5.705
366.71	5.510
367.07	5.751
367.43	5.844
367.79	5.574
368.15	6.087
368.51	5.954
368.87	5.879
369.23	5.400
369.59	4.918
369.95	4.801
370.31	6.280
370.67	4.127
371.03	5.956
371.39	5.104
371.75	5.296
372.11	5.488
372.47	5.146
372.83	5.825
373.19	5.804
373.55	5.623
373.91	4.431
374.27	5.563
374.63	5.142
374.99	5.570
375.35	6.299
375.71	5.226
376.07	5.681
376.42	6.234
376.78	5.158
377.14	5.427
377.50	5.187
377.86	6.158
378.22	5.389
378.58	5.589
378.94	5.340
379.30	6.034
379.66	5.820
380.02	6.001
380.38	5.933
380.74	4.676
381.09	5.575
381.45	5.852
381.81	5.621
382.17	5.701
382.53	5.789
382.89	5.587
383.25	4.396
383.61	4.630
383.97	5.241
384.32	5.084
384.68	5.104
385.04	5.726
385.40	5.657
385.76	5.627
386.12	5.625
386.48	5.706
386.83	5.483
387.19	4.983
387.55	4.988
387.91	5.194
388.27	5.716
388.62	5.498
388.98	4.907
389.34	5.775
389.70	5.811
390.06	5.565
390.42	4.518
390.77	6.261
391.13	5.223
391.49	5.374
391.85	4.848
392.20	5.042
392.56	6.025
392.92	5.725
393.28	5.583
393.64	5.028
393.99	5.927
394.35	5.549
394.71	5.629
395.07	4.611
395.42	5.311
395.78	5.850
396.14	5.229
396.50	5.760
396.85	5.188
397.21	5.089
397.57	4.594
397.92	5.613
398.28	5.052
398.64	5.378
399.00	5.131
399.35	5.183
399.71	5.000
400.07	5.166
400.42	4.948
400.78	4.861
401.14	5.805
401.49	5.514
401.85	5.581
402.21	5.910
402.57	5.516
402.92	5.910
403.28	4.508
403.63	5.072
403.99	5.344
404.35	5.287
404.70	5.439
405.06	5.598
405.42	4.801
405.77	6.216
406.13	5.511
406.49	5.518
406.84	5.208
407.20	5.310
407.55	4.603
407.91	4.903
408.27	5.477
408.62	5.119
408.98	5.746
409.34	4.282
409.69	5.192
410.05	5.686
410.40	5.452
410.76	5.160
411.11	5.377
411.47	5.160
411.83	5.409
412.18	5.000
412.54	5.572
412.89	5.588
413.25	5.135
413.60	4.882
413.96	5.303
414.31	5.156
414.67	5.844
415.03	5.600
415.38	5.422
415.74	4.459
416.09	5.244
416.45	4.634
416.80	5.875
417.16	5.747
417.51	5.729
417.87	5.457
418.22	5.329
418.58	5.143
418.93	5.995
419.29	5.610
419.64	4.862
420.00	4.510
420.35	5.334
420.71	4.423
421.06	4.945
421.42	4.989
421.77	5.170
422.12	5.761
422.48	5.172
422.83	6.024
423.19	4.615
423.54	5.642
423.90	5.301
424.25	6.133
424.61	4.420
424.96	6.205
425.31	5.626
425.67	5.636
426.02	4.870
426.38	4.420
426.73	5.469
427.09	5.882
427.44	5.025
427.79	4.865
428.15	5.137
428.50	5.337
428.85	5.741
429.21	6.330
429.56	5.035
429.92	5.602
430.27	5.542
430.62	5.081
430.98	4.870
431.33	4.643
431.68	4.789
432.04	5.485
432.39	5.356
432.74	5.422
433.10	5.462
433.45	4.069
433.80	5.418
434.16	5.682
434.51	4.676
434.86	4.995
435.22	5.367
435.57	5.012
435.92	5.120
436.28	4.721
436.63	5.079
436.98	6.388
437.34	4.735
437.69	4.953
438.04	5.553
438.39	5.055
438.75	4.925
439.10	5.655
439.45	5.925
439.81	5.367
440.16	5.523
440.51	5.686
440.86	5.058
441.22	5.734
441.57	5.765
441.92	5.577
442.27	4.798
442.63	5.912
442.98	6.030
443.33	5.681
443.68	5.996
444.03	6.115
444.39	5.640
444.74	5.615
445.09	5.879
445.44	5.216
445.79	5.891
446.15	5.396
446.50	6.253
446.85	5.156
447.20	5.948
447.55	5.230
447.91	5.236
448.26	4.863
448.61	5.420
448.96	6.116
449.31	4.772
449.66	5.011
450.02	6.118
450.37	5.754
450.72	5.328
451.07	5.638
451.42	5.199
451.77	5.392
452.12	5.813
452.47	5.585
452.83	5.574
453.18	5.312
453.53	4.767
453.88	5.522
454.23	5.876
454.58	5.630
454.93	4.915
455.28	5.719
455.63	5.230
455.98	5.754
456.34	5.713
456.69	5.350
457.04	5.910
457.39	5.211
457.74	5.984
458.09	5.601
458.44	5.819
458.79	5.570
459.14	6.240
459.49	5.093
459.84	5.561
460.19	5.219
460.54	5.451
460.89	5.611
461.24	4.483
461.59	5.921
461.94	4.621
462.29	5.823
462.64	5.432
462.99	5.901
463.34	6.035
463.69	6.038
464.04	5.281
464.39	5.886
464.74	5.644
465.09	5.536
465.44	5.204
465.79	5.976
466.14	5.419
466.49	5.474
466.84	4.518
467.19	6.416
467.54	4.994
467.89	5.287
468.24	5.983
468.59	4.748
468.94	4.837
469.29	4.739
469.64	5.531
469.99	5.481
470.34	5.817
470.68	5.400
471.03	5.566
471.38	5.625
471.73	5.332
472.08	5.711
472.43	6.141
472.78	6.612
473.13	5.563
473.48	5.740
473.83	5.978
474.17	5.627
474.52	4.570
474.87	5.537
475.22	5.746
475.57	5.192
475.92	5.426
476.27	6.496
476.61	5.348
476.96	4.849
477.31	5.891
477.66	6.663
478.01	5.389
478.36	5.833
478.70	5.172
479.05	6.288
479.40	5.923
479.75	6.148
480.10	5.732
480.45	5.561
480.79	5.850
481.14	5.193
481.49	5.089
481.84	5.483
482.19	5.462
482.53	5.422
482.88	6.070
483.23	5.425
483.58	5.546
483.92	4.920
484.27	5.631
484.62	5.239
484.97	5.599
485.31	5.033
485.66	5.455
486.01	5.448
486.36	5.311
486.70	5.620
487.05	5.804
487.40	5.758
487.75	5.903
488.09	5.945
488.44	5.487
488.79	6.543
489.13	5.612
489.48	5.359
489.83	5.352
490.17	5.427
490.52	5.624
490.87	5.880
491.22	5.546
491.56	5.845
491.91	5.800
492.26	5.322
492.60	5.772
492.95	5.880
493.30	4.975
493.64	6.045
493.99	5.921
494.34	5.401
494.68	4.968
495.03	6.123
495.37	5.637
495.72	5.941
496.07	5.478
496.41	5.277
496.76	5.838
497.11	5.138
497.45	5.352
497.80	5.997
498.14	5.488
498.49	5.469
498.84	5.896
499.18	5.848
499.53	6.009
499.87	5.890
500.22	5.076
500.56	5.443
500.91	5.950
501.26	5.409
501.60	5.877
501.95	5.818
502.29	5.704
502.64	5.772
502.98	5.997
503.33	5.572
503.67	4.797
504.02	5.517
504.36	5.585
504.71	5.834
505.06	5.275
505.40	5.439
505.75	5.829
506.09	5.387
506.44	5.246
506.78	5.688
507.13	5.947
507.47	5.448
507.82	5.445
508.16	5.354
508.51	5.860
508.85	5.054
509.19	5.921
509.54	5.764
509.88	5.342
510.23	5.925
510.57	6.332
510.92	5.709
511.26	5.243
511.61	5.408
511.95	5.808
512.30	6.155
512.64	5.097
512.98	5.353
513.33	5.595
513.67	5.456
514.02	5.519
514.36	5.575
514.70	5.469
515.05	5.318
515.39	6.089
515.74	7.317
516.08	5.811
516.42	6.175
516.77	6.309
517.11	5.003
517.46	5.090
517.80	6.681
518.14	6.529
518.49	6.616
518.83	5.907
519.17	5.062
519.52	5.765
519.86	6.125
520.20	5.964
520.55	6.024
520.89	5.800
521.23	5.193
521.58	5.989
521.92	5.949
522.26	5.212
522.61	6.250
522.95	5.536
523.29	5.345
523.64	5.157
523.98	6.218
524.32	5.960
524.66	5.976
525.01	6.116
525.35	5.227
525.69	5.800
526.04	6.200
526.38	5.862
526.72	6.113
527.06	5.572
527.41	5.656
527.75	5.760
528.09	6.316
528.43	5.921
528.78	5.202
529.12	5.275
529.46	5.340
529.80	5.606
530.15	5.797
530.49	5.516
530.83	6.021
531.17	5.615
531.51	6.258
531.86	6.010
532.20	5.976
532.54	5.805
532.88	5.818
533.22	5.775
533.57	6.174
533.91	6.453
534.25	6.670
534.59	5.632
534.93	5.490
535.27	5.915
535.62	6.254
535.96	6.334
536.30	5.288
536.64	6.366
536.98	5.904
537.32	6.481
537.66	6.301
538.01	5.498
538.35	5.847
538.69	5.889
539.03	5.947
539.37	6.066
539.71	5.586
540.05	6.355
540.39	5.746
540.73	7.165
541.07	5.089
541.42	5.966
541.76	6.050
542.10	5.609
542.44	5.238
542.78	6.204
543.12	6.257
543.46	5.617
543.80	5.635
544.14	5.506
544.48	6.383
544.82	6.104
545.16	5.784
545.50	5.752
545.84	5.389
546.18	6.543
546.52	5.924
546.86	5.660
547.20	5.980
547.54	6.117
547.88	5.546
548.22	5.205
548.56	5.734
548.90	5.493
549.24	5.593
549.58	5.868
549.92	6.059
550.26	5.761
550.60	6.701
550.94	6.145
551.28	5.941
551.62	6.334
551.96	6.149
552.30	6.373
552.64	5.849
552.98	6.425
553.32	5.788
553.66	5.852
554.00	6.305
554.34	5.212
554.68	5.617
555.02	6.045
555.36	6.772
555.69	5.317
556.03	5.422
556.37	6.383
556.71	5.263
557.05	6.581
557.39	6.437
557.73	6.209
558.07	5.563
558.41	5.980
558.75	5.882
559.08	5.776
559.42	5.281
559.76	6.445
560.10	5.760
560.44	5.937
560.78	6.625
561.12	5.973
561.45	6.144
561.79	5.983
562.13	6.285
562.47	6.042
562.81	5.633
563.15	6.187
563.48	5.531
563.82	6.106
564.16	5.694
564.50	6.257
564.84	6.136
565.17	5.941
565.51	5.409
565.85	6.235
566.19	5.242
566.52	5.968
566.86	5.999
567.20	5.438
567.54	6.213
567.88	5.759
568.21	5.632
568.55	5.755
568.89	5.583
569.23	5.788
569.56	5.315
569.90	5.773
570.24	6.105
570.57	5.709
570.91	5.511
571.25	6.017
571.59	5.845
571.92	5.624
572.26	5.320
572.60	5.597
572.93	5.622
573.27	5.704
573.61	6.194
573.95	5.851
574.28	6.073
574.62	5.480
574.96	5.536
575.29	5.640
575.63	5.613
575.97	6.036
576.30	6.119
576.64	5.822
576.98	5.421
577.31	5.607
577.65	5.778
577.98	5.572
578.32	5.534
578.66	6.050
578.99	5.488
579.33	6.003
579.67	5.598
580.00	6.001
580.34	6.174
580.67	5.693
581.01	5.820
581.35	5.864
581.68	5.839
582.02	5.912
582.35	6.001
582.69	5.748
583.02	5.625
583.36	6.141
583.70	5.930
584.03	5.832
584.37	5.727
584.70	5.795
585.04	5.696
585.37	5.767
585.71	5.609
586.04	5.790
586.38	5.687
586.72	5.540
587.05	5.526
587.39	5.560
587.72	5.718
588.06	6.069
588.39	5.900
588.73	5.767
589.06	6.067
589.40	5.624
589.73	5.784
590.07	5.968
590.40	6.220
590.73	5.302
591.07	5.845
591.40	5.949
591.74	5.525
592.07	6.009
592.41	5.323
592.74	5.680
593.08	5.605
593.41	5.803
593.75	5.690
594.08	5.635
594.41	6.314
594.75	6.045
595.08	5.451
595.42	5.649
595.75	5.909
596.09	5.862
596.42	5.661
596.75	5.905
597.09	6.101
597.42	5.642
597.75	5.566
598.09	6.111
598.42	6.152
598.76	5.541
599.09	6.088
599.42	5.297
599.76	5.877
600.09	5.839
600.42	6.073
600.76	5.845
601.09	5.775
601.42	5.630
601.76	6.000
602.09	5.933
602.42	6.180
602.76	6.162
603.09	5.727
603.42	6.033
603.76	5.743
604.09	6.352
604.42	5.798
604.76	5.556
605.09	6.023
605.42	6.061
605.75	5.923
606.09	5.748
606.42	5.545
606.75	5.322
607.09	6.068
607.42	5.896
607.75	5.784
608.08	5.762
608.42	6.489
608.75	6.053
609.08	6.070
609.41	6.396
609.75	5.714
610.08	6.025
610.41	5.862
610.74	5.588
611.07	5.639
611.41	6.502
611.74	6.236
612.07	6.405
612.40	5.561
612.73	5.428
613.07	5.477
613.40	5.919
613.73	5.441
614.06	6.133
614.39	5.151
614.72	5.968
615.06	5.390
615.39	5.510
615.72	5.972
616.05	5.780
616.38	6.004
616.71	5.486
617.05	5.005
617.38	6.153
617.71	6.156
618.04	5.720
618.37	6.721
618.70	5.656
619.03	5.197
619.36	5.487
619.69	6.086
620.03	6.152
620.36	5.092
620.69	5.861
621.02	6.759
621.35	5.370
621.68	6.218
622.01	5.979
622.34	5.300
622.67	5.430
623.00	4.453
623.33	5.707
623.66	5.642
623.99	4.740
624.32	6.433
624.65	5.212
624.99	5.852
625.32	6.205
625.65	5.125
625.98	5.085
626.31	6.308
626.64	5.275
626.97	5.401
627.30	4.632
627.63	5.701
627.96	5.931
628.29	5.992
628.62	5.038
628.95	5.609
629.28	5.862
629.61	5.808
629.94	5.690
630.26	5.424
630.59	5.354
630.92	5.195
631.25	6.440
631.58	6.121
631.91	4.873
632.24	4.803
632.57	6.167
632.90	3.009
633.23	6.122
633.56	5.306
633.89	5.062
634.22	5.613
634.55	5.010
634.88	4.762
635.20	5.705
635.53	5.537
635.86	5.634
636.19	6.151
636.52	6.329
636.85	4.801
637.18	4.470
637.51	5.591
637.83	7.641
638.16	5.184
638.49	4.577
638.82	5.862
639.15	5.269
639.48	6.582
639.81	5.774
640.13	7.067
640.46	4.848
640.79	5.637
641.12	5.093
641.45	5.897
641.77	6.290
642.10	4.724
642.43	7.314
642.76	4.472
643.09	5.479
643.41	5.602
643.74	4.966
644.07	5.931
644.40	3.960
644.73	5.080
645.05	4.699
645.38	5.324
645.71	5.279
646.04	5.452
646.36	4.672
646.69	5.828
647.02	6.269
647.35	5.802
647.67	6.441
648.00	5.255
648.33	5.255
648.66	6.134
648.98	4.626
649.31	5.277
649.64	6.773
649.96	5.703
650.29	3.338
650.62	5.658
650.94	4.354
651.27	3.743
651.60	5.409
651.92	3.647
652.25	6.223
652.58	6.327
652.90	3.924
653.23	6.197
653.56	5.849
653.88	7.303
654.21	5.211
654.54	5.925
654.86	7.649
655.19	4.391
655.52	5.188
655.84	5.159
656.17	6.082
656.49	8.853
656.82	10.104
657.15	8.275
657.47	6.378
657.80	4.970
658.13	3.901
