SpectraSuite Data File
++++++++++++++++++++++++++++++++++++
Date: Thu May 14 16:18:47 PDT 2015
User: schluterlab
Dark Spectrum Present: Yes
Reference Spectrum Present: Yes
Number of Sampled Component Spectra: 1
Spectrometers: USB2E3373
Integration Time (usec): 3000 (USB2E3373)
Spectra Averaged: 3 (USB2E3373)
Boxcar Smoothing: 0 (USB2E3373)
Correct for Electrical Dark: No (USB2E3373)
Strobe/Lamp Enabled: No (USB2E3373)
Correct for Detector Non-linearity: No (USB2E3373)
Correct for Stray Light: No (USB2E3373)
Number of Pixels in Processed Spectrum: 2048
>>>>>Begin Processed Spectral Data<<<<<
178.53	0.000
178.91	14.286
179.29	-1100.000
179.67	-700.000
180.04	157.143
180.42	-0.000
180.80	220.000
181.18	-400.000
181.56	-400.000
181.94	225.000
182.31	-75.000
182.69	233.333
183.07	100.000
183.45	250.000
183.83	-100.000
184.20	0.000
184.58	300.000
184.96	-300.000
185.34	-11.111
185.72	40.000
186.09	233.333
186.47	550.000
186.85	360.000
187.23	-111.111
187.61	-1400.000
187.98	-0.000
188.36	350.000
188.74	-25.000
189.12	133.333
189.49	43.750
189.87	-75.000
190.25	66.667
190.63	-140.000
191.00	-122.222
191.38	0.000
191.76	-275.000
192.14	-66.667
192.51	400.000
192.89	150.000
193.27	0.000
193.65	28.571
194.02	-1000.000
194.40	-57.143
194.78	100.000
195.15	0.000
195.53	27.273
195.91	0.000
196.29	-125.000
196.66	-23.077
197.04	-1600.000
197.42	-85.714
197.79	250.000
198.17	-50.000
198.55	-57.143
198.92	77.778
199.30	0.000
199.68	18.182
200.05	-35.714
200.43	-200.000
200.81	271.429
201.18	0.000
201.56	66.667
201.94	0.000
202.31	300.000
202.69	-155.556
203.07	-500.000
203.44	-22.222
203.82	-200.000
204.19	-33.333
204.57	-150.000
204.95	-50.000
205.32	-400.000
205.70	-50.000
206.08	-50.000
206.45	16.667
206.83	220.000
207.20	-16.667
207.58	-20.000
207.96	50.000
208.33	50.000
208.71	58.333
209.08	66.667
209.46	0.000
209.84	266.667
210.21	200.000
210.59	100.000
210.96	66.667
211.34	75.000
211.71	-75.000
212.09	-500.000
212.46	0.000
212.84	600.000
213.22	-140.000
213.59	-75.000
213.97	-10.000
214.34	-300.000
214.72	133.333
215.09	-250.000
215.47	0.000
215.84	100.000
216.22	350.000
216.59	-20.000
216.97	-140.000
217.34	-150.000
217.72	-12.500
218.09	-150.000
218.47	-175.000
218.84	0.000
219.22	100.000
219.59	11.765
219.97	-25.000
220.34	250.000
220.72	-55.556
221.09	30.769
221.47	-133.333
221.84	100.000
222.22	-228.571
222.59	0.000
222.97	12.500
223.34	-120.000
223.72	-600.000
224.09	0.000
224.46	-100.000
224.84	-100.000
225.21	-114.286
225.59	-75.000
225.96	-350.000
226.34	-7.692
226.71	300.000
227.08	-250.000
227.46	80.000
227.83	25.000
228.21	5.263
228.58	37.500
228.95	200.000
229.33	25.000
229.70	90.000
230.08	73.684
230.45	60.000
230.82	-366.667
231.20	121.429
231.57	-16.667
231.95	-9.091
232.32	-27.273
232.69	0.000
233.07	0.000
233.44	-23.529
233.81	10.000
234.19	66.667
234.56	45.455
234.93	20.690
235.31	31.579
235.68	33.333
236.05	5.000
236.43	57.692
236.80	56.000
237.17	33.333
237.55	12.121
237.92	10.000
238.29	-6.452
238.67	0.000
239.04	0.000
239.41	16.667
239.79	52.174
240.16	22.222
240.53	26.087
240.91	9.804
241.28	19.672
241.65	28.358
242.02	31.081
242.40	16.923
242.77	29.333
243.14	19.512
243.51	2.632
243.89	19.231
244.26	29.703
244.63	24.510
245.00	30.841
245.38	23.684
245.75	17.699
246.12	26.190
246.49	26.357
246.87	26.429
247.24	19.868
247.61	26.316
247.98	18.121
248.36	21.605
248.73	22.086
249.10	25.137
249.47	29.353
249.84	28.272
250.22	29.016
250.59	19.444
250.96	25.909
251.33	17.347
251.70	20.940
252.08	21.250
252.45	26.639
252.82	27.686
253.19	24.609
253.56	25.856
253.94	25.769
254.31	21.591
254.68	29.021
255.05	25.407
255.42	24.490
255.79	23.625
256.16	24.172
256.54	25.166
256.91	25.574
257.28	23.279
257.65	21.656
258.02	20.649
258.39	27.635
258.76	28.746
259.14	26.437
259.51	26.513
259.88	27.195
260.25	24.167
260.62	26.849
260.99	29.781
261.36	26.273
261.73	26.525
262.10	25.824
262.47	25.469
262.85	26.515
263.22	25.974
263.59	24.474
263.96	23.785
264.33	21.228
264.70	28.642
265.07	29.356
265.44	27.664
265.81	26.157
266.18	26.757
266.55	26.339
266.92	25.057
267.29	26.915
267.66	26.608
268.03	29.039
268.40	25.470
268.77	24.374
269.14	23.348
269.51	24.781
269.88	27.049
270.25	24.748
270.62	29.114
270.99	24.848
271.36	27.921
271.73	24.951
272.10	26.854
272.47	28.257
272.84	25.904
273.21	24.449
273.58	27.621
273.95	24.808
274.32	24.525
274.69	25.532
275.06	26.557
275.43	24.214
275.80	27.337
276.17	25.000
276.54	23.321
276.91	25.045
277.28	26.040
277.65	26.930
278.02	26.103
278.39	26.268
278.76	24.956
279.13	27.305
279.50	28.007
279.87	24.150
280.23	21.831
280.60	25.254
280.97	25.822
281.34	24.618
281.71	26.227
282.08	23.920
282.45	21.931
282.82	23.234
283.19	26.010
283.56	25.246
283.92	24.174
284.29	24.803
284.66	26.273
285.03	23.878
285.40	24.111
285.77	23.065
286.14	25.038
286.51	22.983
286.87	25.434
287.24	24.699
287.61	26.009
287.98	23.414
288.35	25.000
288.72	23.077
289.08	25.037
289.45	22.337
289.82	21.536
290.19	24.425
290.56	22.958
290.93	21.683
291.29	21.901
291.66	22.314
292.03	21.574
292.40	24.354
292.77	22.776
293.13	20.974
293.50	23.259
293.87	21.611
294.24	22.000
294.60	21.997
294.97	19.866
295.34	22.535
295.71	22.320
296.08	19.251
296.44	19.118
296.81	20.585
297.18	22.042
297.55	18.750
297.91	20.878
298.28	19.431
298.65	20.927
299.02	19.244
299.38	20.366
299.75	21.262
300.12	20.718
300.48	19.355
300.85	21.372
301.22	19.575
301.59	19.064
301.95	18.418
302.32	19.778
302.69	19.825
303.05	21.763
303.42	19.290
303.79	19.271
304.15	20.400
304.52	19.133
304.89	20.105
305.25	21.014
305.62	18.913
305.99	19.897
306.35	19.153
306.72	20.889
307.09	18.883
307.45	19.151
307.82	19.273
308.19	19.677
308.55	21.504
308.92	20.740
309.29	19.636
309.65	20.858
310.02	20.693
310.38	21.161
310.75	21.359
311.12	22.148
311.48	20.235
311.85	21.368
312.22	20.398
312.58	21.784
312.95	20.459
313.31	22.403
313.68	22.070
314.05	24.029
314.41	23.497
314.78	22.707
315.14	23.593
315.51	23.176
315.87	24.302
316.24	25.205
316.61	24.689
316.97	25.701
317.34	24.603
317.70	26.638
318.07	27.160
318.43	26.531
318.80	28.344
319.16	27.639
319.53	27.592
319.89	26.819
320.26	28.559
320.62	28.723
320.99	30.286
321.35	30.684
321.72	31.907
322.08	31.830
322.45	32.611
322.81	33.664
323.18	33.717
323.54	34.310
323.91	35.053
324.27	35.972
324.64	35.936
325.00	36.733
325.37	37.510
325.73	38.678
326.10	38.848
326.46	40.554
326.83	41.233
327.19	41.181
327.56	41.581
327.92	41.778
328.29	42.419
328.65	41.876
329.01	44.416
329.38	44.903
329.74	44.863
330.11	45.205
330.47	44.735
330.84	45.306
331.20	45.000
331.56	45.234
331.93	46.946
332.29	47.203
332.66	46.346
333.02	45.896
333.38	45.721
333.75	47.222
334.11	47.289
334.48	47.030
334.84	47.664
335.20	47.187
335.57	47.302
335.93	48.595
336.29	46.173
336.66	46.678
337.02	47.659
337.38	48.129
337.75	47.190
338.11	49.285
338.47	48.470
338.84	46.954
339.20	47.683
339.56	47.035
339.93	49.015
340.29	47.826
340.65	47.526
341.02	48.284
341.38	49.879
341.74	47.296
342.11	48.029
342.47	48.372
342.83	48.953
343.20	49.305
343.56	47.875
343.92	47.958
344.28	49.687
344.65	47.907
345.01	48.206
345.37	49.145
345.73	48.090
346.10	48.206
346.46	48.418
346.82	48.464
347.19	49.121
347.55	48.938
347.91	48.960
348.27	49.545
348.63	48.439
349.00	48.024
349.36	47.807
349.72	49.256
350.08	48.440
350.45	49.430
350.81	49.774
351.17	49.023
351.53	49.128
351.89	48.975
352.26	49.328
352.62	50.373
352.98	48.626
353.34	46.751
353.70	48.613
354.07	48.882
354.43	49.431
354.79	49.589
355.15	49.301
355.51	50.292
355.87	49.963
356.24	52.243
356.60	49.667
356.96	52.187
357.32	49.442
357.68	50.000
358.04	48.578
358.40	50.149
358.77	50.512
359.13	49.778
359.49	49.591
359.85	50.181
360.21	49.139
360.57	50.467
360.93	50.564
361.29	50.877
361.66	49.602
362.02	51.566
362.38	50.949
362.74	51.676
363.10	50.138
363.46	51.108
363.82	50.639
364.18	50.809
364.54	49.931
364.90	51.505
365.26	52.759
365.62	50.933
365.98	50.919
366.35	51.275
366.71	50.816
367.07	52.571
367.43	50.952
367.79	52.289
368.15	51.639
368.51	50.812
368.87	51.600
369.23	51.133
369.59	52.117
369.95	51.995
370.31	52.194
370.67	51.994
371.03	52.701
371.39	51.444
371.75	52.270
372.11	52.100
372.47	53.284
372.83	52.683
373.19	52.368
373.55	51.694
373.91	52.761
374.27	51.940
374.63	52.233
374.99	52.586
375.35	54.286
375.71	53.290
376.07	51.840
376.42	51.826
376.78	53.884
377.14	52.464
377.50	53.763
377.86	52.771
378.22	53.473
378.58	53.864
378.94	52.876
379.30	52.841
379.66	53.616
380.02	53.318
380.38	53.975
380.74	52.225
381.09	53.252
381.45	53.125
381.81	54.977
382.17	51.960
382.53	52.865
382.89	53.104
383.25	54.103
383.61	53.472
383.97	53.534
384.32	54.366
384.68	53.538
385.04	53.615
385.40	54.331
385.76	54.865
386.12	53.321
386.48	52.824
386.83	54.231
387.19	52.549
387.55	53.521
387.91	53.025
388.27	53.060
388.62	53.036
388.98	53.074
389.34	53.801
389.70	53.922
390.06	53.760
390.42	53.313
390.77	54.545
391.13	52.641
391.49	52.959
391.85	52.485
392.20	52.669
392.56	52.747
392.92	52.944
393.28	51.741
393.64	52.737
393.99	53.051
394.35	52.979
394.71	52.096
395.07	51.317
395.42	52.027
395.78	52.773
396.14	52.644
396.50	51.663
396.85	50.626
397.21	51.538
397.57	51.649
397.92	51.145
398.28	51.548
398.64	50.744
399.00	49.424
399.35	50.628
399.71	51.467
400.07	51.937
400.42	50.524
400.78	51.447
401.14	50.313
401.49	49.858
401.85	51.105
402.21	50.985
402.57	50.704
402.92	50.000
403.28	49.473
403.63	50.179
403.99	48.990
404.35	48.266
404.70	49.632
405.06	48.967
405.42	49.473
405.77	49.891
406.13	48.136
406.49	49.043
406.84	48.366
407.20	49.189
407.55	49.243
407.91	47.832
408.27	47.998
408.62	49.389
408.98	48.636
409.34	48.798
409.69	49.629
410.05	47.948
410.40	48.782
410.76	47.729
411.11	48.919
411.47	48.034
411.83	48.912
412.18	48.976
412.54	48.726
412.89	48.079
413.25	47.404
413.60	47.272
413.96	47.902
414.31	47.025
414.67	46.333
415.03	47.077
415.38	47.541
415.74	47.831
416.09	47.748
416.45	47.464
416.80	47.185
417.16	47.957
417.51	47.260
417.87	49.050
418.22	48.084
418.58	47.522
418.93	48.719
419.29	48.459
419.64	48.439
420.00	49.852
420.35	48.007
420.71	48.650
421.06	48.994
421.42	48.509
421.77	48.034
422.12	48.467
422.48	48.643
422.83	49.507
423.19	48.594
423.54	50.332
423.90	48.813
424.25	49.973
424.61	49.598
424.96	50.137
425.31	49.045
425.67	49.597
426.02	50.083
426.38	49.828
426.73	49.498
427.09	51.961
427.44	50.027
427.79	51.686
428.15	49.315
428.50	50.730
428.85	50.517
429.21	51.489
429.56	51.037
429.92	51.155
430.27	51.277
430.62	51.246
430.98	51.008
431.33	50.440
431.68	50.575
432.04	51.701
432.39	51.794
432.74	51.998
433.10	51.595
433.45	51.672
433.80	51.448
434.16	51.085
434.51	52.569
434.86	54.452
435.22	53.135
435.57	54.068
435.92	53.478
436.28	53.527
436.63	53.741
436.98	53.355
437.34	54.115
437.69	52.504
438.04	52.459
438.39	52.843
438.75	53.016
439.10	53.858
439.45	53.438
439.81	53.729
440.16	53.941
440.51	54.515
440.86	53.085
441.22	54.126
441.57	55.136
441.92	54.510
442.27	55.505
442.63	54.247
442.98	54.803
443.33	54.287
443.68	54.708
444.03	55.362
444.39	55.294
444.74	53.956
445.09	54.131
445.44	55.005
445.79	55.316
446.15	55.447
446.50	54.884
446.85	55.885
447.20	54.497
447.55	54.446
447.91	54.293
448.26	54.968
448.61	53.826
448.96	55.740
449.31	54.401
449.66	54.194
450.02	55.116
450.37	55.514
450.72	55.005
451.07	55.182
451.42	56.384
451.77	55.753
452.12	56.264
452.47	55.318
452.83	56.700
453.18	54.583
453.53	55.658
453.88	54.721
454.23	55.706
454.58	56.239
454.93	56.250
455.28	56.171
455.63	55.657
455.98	55.810
456.34	57.244
456.69	55.497
457.04	56.087
457.39	56.264
457.74	56.376
458.09	55.903
458.44	56.519
458.79	55.493
459.14	56.004
459.49	55.914
459.84	55.561
460.19	55.192
460.54	57.297
460.89	57.279
461.24	55.862
461.59	57.388
461.94	55.562
462.29	56.103
462.64	56.246
462.99	55.869
463.34	55.743
463.69	55.627
464.04	55.920
464.39	56.670
464.74	54.162
465.09	56.171
465.44	56.062
465.79	55.526
466.14	54.143
466.49	55.105
466.84	56.143
467.19	56.243
467.54	53.173
467.89	55.690
468.24	55.014
468.59	55.414
468.94	55.478
469.29	53.509
469.64	54.990
469.99	56.087
470.34	55.817
470.68	56.733
471.03	55.992
471.38	55.592
471.73	55.657
472.08	55.393
472.43	55.930
472.78	57.179
473.13	54.614
473.48	54.985
473.83	56.471
474.17	54.631
474.52	56.284
474.87	54.540
475.22	54.986
475.57	54.258
475.92	55.600
476.27	54.792
476.61	54.309
476.96	54.536
477.31	55.495
477.66	55.824
478.01	54.855
478.36	55.284
478.70	55.961
479.05	56.442
479.40	55.035
479.75	54.851
480.10	54.192
480.45	55.333
480.79	55.873
481.14	54.779
481.49	54.612
481.84	54.569
482.19	55.785
482.53	55.662
482.88	55.560
483.23	55.491
483.58	54.454
483.92	54.699
484.27	53.853
484.62	53.300
484.97	54.238
485.31	54.277
485.66	51.229
486.01	49.917
486.36	51.278
486.70	52.794
487.05	54.081
487.40	53.169
487.75	53.791
488.09	54.241
488.44	53.668
488.79	54.132
489.13	53.621
489.48	53.010
489.83	52.274
490.17	53.503
490.52	53.243
490.87	53.596
491.22	54.766
491.56	53.712
491.91	54.557
492.26	53.959
492.60	53.957
492.95	54.278
493.30	54.729
493.64	53.701
493.99	53.816
494.34	53.833
494.68	54.261
495.03	54.229
495.37	54.860
495.72	53.787
496.07	53.330
496.41	53.496
496.76	54.379
497.11	53.461
497.45	53.474
497.80	53.887
498.14	53.333
498.49	53.998
498.84	53.565
499.18	53.486
499.53	53.857
499.87	53.758
500.22	53.117
500.56	53.306
500.91	53.913
501.26	53.773
501.60	53.469
501.95	53.278
502.29	52.962
502.64	53.039
502.98	52.071
503.33	51.793
503.67	51.635
504.02	53.065
504.36	53.351
504.71	53.192
505.06	51.933
505.40	52.697
505.75	53.370
506.09	52.716
506.44	54.271
506.78	52.706
507.13	53.158
507.47	53.908
507.82	53.030
508.16	52.390
508.51	51.992
508.85	52.858
509.19	52.724
509.54	52.305
509.88	52.307
510.23	54.201
510.57	52.924
510.92	53.266
511.26	51.948
511.61	51.473
511.95	52.221
512.30	52.339
512.64	51.974
512.98	52.726
513.33	52.621
513.67	53.085
514.02	52.427
514.36	54.425
514.70	53.438
515.05	53.233
515.39	53.176
515.74	54.507
516.08	52.404
516.42	53.218
516.77	52.997
517.11	52.604
517.46	53.393
517.80	53.715
518.14	53.645
518.49	53.416
518.83	52.209
519.17	50.835
519.52	51.730
519.86	52.429
520.20	52.662
520.55	52.519
520.89	52.590
521.23	52.931
521.58	51.977
521.92	52.975
522.26	52.577
522.61	53.356
522.95	52.826
523.29	53.103
523.64	52.298
523.98	53.337
524.32	53.639
524.66	52.931
525.01	50.113
525.35	50.661
525.69	51.392
526.04	52.009
526.38	51.782
526.72	52.076
527.06	53.372
527.41	52.653
527.75	53.207
528.09	50.767
528.43	50.858
528.78	51.329
529.12	50.516
529.46	50.703
529.80	51.430
530.15	51.536
530.49	51.008
530.83	50.945
531.17	51.493
531.51	51.685
531.86	51.923
532.20	50.488
532.54	50.150
532.88	50.485
533.22	50.206
533.57	49.163
533.91	50.112
534.25	49.802
534.59	50.000
534.93	49.859
535.27	50.197
535.62	49.233
535.96	50.436
536.30	49.177
536.64	50.330
536.98	50.738
537.32	50.185
537.66	49.844
538.01	48.399
538.35	48.599
538.69	49.159
539.03	51.257
539.37	47.939
539.71	49.249
540.05	50.480
540.39	49.267
540.73	48.209
541.07	48.682
541.42	48.317
541.76	47.450
542.10	48.372
542.44	48.173
542.78	48.479
543.12	47.557
543.46	48.046
543.80	48.082
544.14	47.935
544.48	48.641
544.82	46.978
545.16	48.420
545.50	48.352
545.84	47.214
546.18	48.827
546.52	48.280
546.86	48.553
547.20	48.791
547.54	47.940
547.88	47.016
548.22	45.906
548.56	47.806
548.90	47.881
549.24	47.356
549.58	46.688
549.92	47.640
550.26	47.184
550.60	47.798
550.94	46.636
551.28	47.987
551.62	48.518
551.96	47.379
552.30	47.610
552.64	47.418
552.98	47.536
553.32	47.910
553.66	47.395
554.00	49.054
554.34	47.040
554.68	45.901
555.02	46.058
555.36	48.060
555.69	47.534
556.03	46.910
556.37	46.871
556.71	47.876
557.05	47.157
557.39	47.578
557.73	47.358
558.07	46.689
558.41	46.977
558.75	47.126
559.08	48.573
559.42	47.051
559.76	45.997
560.10	47.488
560.44	47.164
560.78	46.188
561.12	46.305
561.45	46.046
561.79	46.093
562.13	46.580
562.47	44.760
562.81	45.190
563.15	45.391
563.48	46.551
563.82	46.433
564.16	44.458
564.50	44.338
564.84	45.723
565.17	44.294
565.51	44.189
565.85	46.140
566.19	45.276
566.52	44.880
566.86	44.312
567.20	44.209
567.54	43.335
567.88	43.527
568.21	43.231
568.55	43.118
568.89	42.578
569.23	42.839
569.56	42.282
569.90	40.948
570.24	41.653
570.57	40.635
570.91	40.171
571.25	39.543
571.59	39.994
571.92	39.206
572.26	39.307
572.60	39.285
572.93	39.187
573.27	39.337
573.61	38.909
573.95	39.306
574.28	38.916
574.62	38.427
574.96	37.649
575.29	38.312
575.63	38.739
575.97	38.802
576.30	38.465
576.64	37.819
576.98	37.768
577.31	38.546
577.65	38.258
577.98	37.293
578.32	37.286
578.66	37.599
578.99	37.518
579.33	37.594
579.67	37.829
580.00	37.334
580.34	37.478
580.67	37.158
581.01	37.473
581.35	37.152
581.68	37.107
582.02	36.954
582.35	37.948
582.69	37.872
583.02	37.133
583.36	37.811
583.70	37.810
584.03	37.293
584.37	37.571
584.70	37.335
585.04	37.294
585.37	37.450
585.71	37.131
586.04	36.614
586.38	37.117
586.72	37.052
587.05	37.452
587.39	37.921
587.72	38.014
588.06	37.573
588.39	37.441
588.73	37.196
589.06	37.951
589.40	38.045
589.73	38.464
590.07	38.528
590.40	38.168
590.73	38.176
591.07	38.682
591.40	37.986
591.74	39.070
592.07	38.977
592.41	37.973
592.74	37.700
593.08	38.025
593.41	38.670
593.75	37.328
594.08	37.655
594.41	38.173
594.75	37.496
595.08	37.651
595.42	37.597
595.75	37.456
596.09	38.258
596.42	38.338
596.75	37.939
597.09	38.990
597.42	38.458
597.75	38.024
598.09	37.897
598.42	38.762
598.76	38.135
599.09	37.237
599.42	36.708
599.76	37.174
600.09	37.638
600.42	37.337
600.76	36.757
601.09	36.475
601.42	36.801
601.76	36.793
602.09	37.169
602.42	36.423
602.76	36.790
603.09	36.858
603.42	37.464
603.76	36.963
604.09	37.260
604.42	37.394
604.76	36.834
605.09	37.495
605.42	37.161
605.75	36.462
606.09	37.029
606.42	36.629
606.75	36.582
607.09	36.905
607.42	36.069
607.75	37.202
608.08	36.227
608.42	36.961
608.75	36.899
609.08	36.375
609.41	36.877
609.75	37.857
610.08	37.731
610.41	37.171
610.74	37.269
611.07	37.167
611.41	36.906
611.74	38.199
612.07	37.214
612.40	37.215
612.73	38.191
613.07	37.457
613.40	37.151
613.73	37.313
614.06	37.144
614.39	36.735
614.72	36.875
615.06	36.574
615.39	36.298
615.72	36.682
616.05	36.960
616.38	37.538
616.71	37.722
617.05	36.049
617.38	37.507
617.71	36.825
618.04	37.723
618.37	37.923
618.70	38.292
619.03	37.455
619.36	38.348
619.69	38.565
620.03	37.853
620.36	37.914
620.69	37.384
621.02	38.714
621.35	40.929
621.68	39.046
622.01	39.573
622.34	38.494
622.67	38.282
623.00	37.247
623.33	38.620
623.66	37.873
623.99	37.788
624.32	38.856
624.65	37.001
624.99	38.752
625.32	38.406
625.65	38.570
625.98	38.305
626.31	38.412
626.64	39.194
626.97	39.385
627.30	38.117
627.63	39.310
627.96	39.565
628.29	39.066
628.62	38.203
628.95	40.929
629.28	38.573
629.61	40.320
629.94	39.079
630.26	39.068
630.59	38.774
630.92	39.307
631.25	40.877
631.58	40.772
631.91	41.518
632.24	39.769
632.57	41.841
632.90	41.324
633.23	41.122
633.56	41.429
633.89	39.566
