SpectraSuite Data File
++++++++++++++++++++++++++++++++++++
Date: Thu May 14 16:16:04 PDT 2015
User: schluterlab
Dark Spectrum Present: Yes
Reference Spectrum Present: Yes
Number of Sampled Component Spectra: 1
Spectrometers: USB2E3373
Integration Time (usec): 3000 (USB2E3373)
Spectra Averaged: 3 (USB2E3373)
Boxcar Smoothing: 0 (USB2E3373)
Correct for Electrical Dark: No (USB2E3373)
Strobe/Lamp Enabled: No (USB2E3373)
Correct for Detector Non-linearity: No (USB2E3373)
Correct for Stray Light: No (USB2E3373)
Number of Pixels in Processed Spectrum: 2048
>>>>>Begin Processed Spectral Data<<<<<
178.53	0.000
178.91	128.571
179.29	-2300.000
179.67	-100.000
180.04	164.286
180.42	60.000
180.80	100.000
181.18	-300.000
181.56	-600.000
181.94	175.000
182.31	50.000
182.69	-33.333
183.07	-50.000
183.45	75.000
183.83	-16.667
184.20	-200.000
184.58	-100.000
184.96	-300.000
185.34	-100.000
185.72	60.000
186.09	155.556
186.47	600.000
186.85	140.000
187.23	-211.111
187.61	-1000.000
187.98	260.000
188.36	175.000
188.74	-150.000
189.12	66.667
189.49	18.750
189.87	-37.500
190.25	0.000
190.63	40.000
191.00	-22.222
191.38	0.000
191.76	-175.000
192.14	-66.667
192.51	50.000
192.89	0.000
193.27	0.000
193.65	42.857
194.02	-300.000
194.40	100.000
194.78	128.571
195.15	0.000
195.53	-18.182
195.91	0.000
196.29	-175.000
196.66	-46.154
197.04	-700.000
197.42	-28.571
197.79	-300.000
198.17	12.500
198.55	-28.571
198.92	0.000
199.30	-62.500
199.68	9.091
200.05	28.571
200.43	0.000
200.81	100.000
201.18	0.000
201.56	88.889
201.94	0.000
202.31	666.667
202.69	-44.444
203.07	400.000
203.44	-44.444
203.82	-75.000
204.19	-58.333
204.57	0.000
204.95	-75.000
205.32	-900.000
205.70	-0.000
206.08	-116.667
206.45	-166.667
206.83	400.000
207.20	-50.000
207.58	-140.000
207.96	-16.667
208.33	16.667
208.71	100.000
209.08	-66.667
209.46	0.000
209.84	283.333
210.21	-0.000
210.59	50.000
210.96	366.667
211.34	50.000
211.71	-37.500
212.09	-700.000
212.46	0.000
212.84	850.000
213.22	-100.000
213.59	25.000
213.97	20.000
214.34	-166.667
214.72	300.000
215.09	50.000
215.47	0.000
215.84	71.429
216.22	1000.000
216.59	40.000
216.97	-60.000
217.34	-200.000
217.72	12.500
218.09	-50.000
218.47	-275.000
218.84	0.000
219.22	200.000
219.59	-17.647
219.97	-20.000
220.34	400.000
220.72	-66.667
221.09	53.846
221.47	0.000
221.84	-10.000
222.22	-142.857
222.59	0.000
222.97	-137.500
223.34	-180.000
223.72	-100.000
224.09	-100.000
224.46	-150.000
224.84	-60.000
225.21	-28.571
225.59	-275.000
225.96	-125.000
226.34	15.385
226.71	116.667
227.08	-200.000
227.46	26.667
227.83	0.000
228.21	-5.263
228.58	100.000
228.95	450.000
229.33	8.333
229.70	20.000
230.08	52.632
230.45	140.000
230.82	100.000
231.20	0.000
231.57	33.333
231.95	-27.273
232.32	100.000
232.69	25.000
233.07	-200.000
233.44	-23.529
233.81	-120.000
234.19	0.000
234.56	22.727
234.93	31.034
235.31	0.000
235.68	5.556
236.05	0.000
236.43	73.077
236.80	52.000
237.17	7.407
237.55	18.182
237.92	-60.000
238.29	22.581
238.67	-6.818
239.04	5.556
239.41	16.667
239.79	6.522
240.16	1.852
240.53	15.217
240.91	-5.882
241.28	27.869
241.65	16.418
242.02	29.730
242.40	15.385
242.77	0.000
243.14	14.634
243.51	2.632
243.89	7.692
244.26	30.693
244.63	25.490
245.00	18.692
245.38	16.667
245.75	15.044
246.12	22.222
246.49	18.605
246.87	21.429
247.24	26.490
247.61	29.605
247.98	23.490
248.36	19.136
248.73	14.110
249.10	19.126
249.47	31.841
249.84	30.366
250.22	19.171
250.59	20.000
250.96	24.091
251.33	15.306
251.70	19.231
252.08	23.333
252.45	20.492
252.82	22.314
253.19	18.750
253.56	24.335
253.94	18.077
254.31	27.273
254.68	23.776
255.05	24.104
255.42	19.728
255.79	19.417
256.16	21.523
256.54	24.834
256.91	25.574
257.28	20.656
257.65	19.745
258.02	17.404
258.39	20.798
258.76	24.465
259.14	22.126
259.51	21.614
259.88	19.263
260.25	20.556
260.62	21.644
260.99	23.224
261.36	19.839
261.73	18.302
262.10	24.176
262.47	23.324
262.85	24.495
263.22	21.818
263.59	18.684
263.96	24.297
264.33	22.506
264.70	22.716
265.07	24.344
265.44	24.717
265.81	20.370
266.18	22.676
266.55	22.768
266.92	21.185
267.29	24.289
267.66	21.508
268.03	22.926
268.40	20.668
268.77	20.273
269.14	22.247
269.51	20.833
269.88	23.361
270.25	20.523
270.62	22.152
270.99	22.424
271.36	21.782
271.73	20.236
272.10	22.846
272.47	22.244
272.84	21.084
273.21	20.842
273.58	21.573
273.95	18.654
274.32	20.532
274.69	19.536
275.06	21.795
275.43	19.963
275.80	20.635
276.17	20.370
276.54	20.896
276.91	21.825
277.28	22.423
277.65	21.364
278.02	20.772
278.39	21.196
278.76	19.156
279.13	20.390
279.50	22.165
279.87	21.825
280.23	19.542
280.60	21.695
280.97	20.888
281.34	20.713
281.71	21.489
282.08	18.937
282.45	18.985
282.82	20.251
283.19	18.094
283.56	17.377
283.92	22.673
284.29	21.169
284.66	21.182
285.03	19.231
285.40	21.175
285.77	20.743
286.14	21.985
286.51	20.091
286.87	19.905
287.24	19.277
287.61	20.478
287.98	19.789
288.35	18.343
288.72	19.083
289.08	20.059
289.45	19.231
289.82	18.675
290.19	18.822
290.56	18.310
290.93	19.116
291.29	19.146
291.66	18.320
292.03	18.589
292.40	20.816
292.77	18.598
293.13	17.591
293.50	17.740
293.87	18.121
294.24	19.867
294.60	17.446
294.97	17.584
295.34	19.846
295.71	16.393
296.08	18.217
296.44	15.686
296.81	17.661
297.18	17.435
297.55	17.335
297.91	16.014
298.28	15.877
298.65	17.598
299.02	17.001
299.38	16.590
299.75	17.757
300.12	17.361
300.48	18.088
300.85	15.636
301.22	17.338
301.59	15.753
301.95	16.836
302.32	16.444
302.69	15.772
303.05	16.649
303.42	16.519
303.79	16.979
304.15	17.666
304.52	15.645
304.89	16.126
305.25	15.528
305.62	17.137
305.99	17.320
306.35	16.935
306.72	16.960
307.09	16.244
307.45	17.288
307.82	17.558
308.19	17.558
308.55	17.647
308.92	18.598
309.29	16.571
309.65	16.277
310.02	16.436
310.38	16.437
310.75	16.893
311.12	16.970
311.48	17.107
311.85	18.234
312.22	17.552
312.58	15.869
312.95	18.164
313.31	17.254
313.68	18.498
314.05	17.886
314.41	18.215
314.78	17.257
315.14	17.241
315.51	16.990
315.87	18.092
316.24	18.995
316.61	18.917
316.97	18.824
317.34	17.901
317.70	18.777
318.07	18.607
318.43	18.707
318.80	20.067
319.16	17.682
319.53	17.652
319.89	18.843
320.26	19.395
320.62	17.819
320.99	18.744
321.35	19.593
321.72	20.558
322.08	19.748
322.45	18.699
322.81	20.487
323.18	19.646
323.54	19.052
323.91	19.751
324.27	19.363
324.64	19.395
325.00	19.818
325.37	20.475
325.73	20.909
326.10	21.087
326.46	21.824
326.83	20.496
327.19	20.236
327.56	20.791
327.92	20.063
328.29	19.919
328.65	20.268
329.01	20.305
329.38	20.640
329.74	20.462
330.11	21.147
330.47	20.472
330.84	19.552
331.20	20.833
331.56	21.317
331.93	20.335
332.29	20.678
332.66	20.266
333.02	20.184
333.38	20.134
333.75	20.286
334.11	20.601
334.48	19.637
334.84	21.495
335.20	19.983
335.57	19.815
335.93	20.496
336.29	18.885
336.66	20.353
337.02	19.983
337.38	20.408
337.75	19.752
338.11	19.260
338.47	19.024
338.84	19.543
339.20	19.545
339.56	19.440
339.93	18.801
340.29	20.612
340.65	18.654
341.02	20.511
341.38	19.806
341.74	19.048
342.11	19.710
342.47	19.142
342.83	19.082
343.20	20.442
343.56	19.888
343.92	18.815
344.28	19.766
344.65	19.535
345.01	19.423
345.37	20.218
345.73	19.096
346.10	19.189
346.46	18.671
346.82	19.401
347.19	19.251
347.55	20.713
347.91	19.242
348.27	18.058
348.63	20.107
349.00	18.419
349.36	19.628
349.72	18.824
350.08	20.431
350.45	18.631
350.81	19.080
351.17	19.173
351.53	19.030
351.89	19.590
352.26	18.358
352.62	18.731
352.98	18.931
353.34	17.625
353.70	18.259
354.07	18.778
354.43	17.920
354.79	19.073
355.15	18.764
355.51	19.518
355.87	17.577
356.24	18.707
356.60	19.069
356.96	18.458
357.32	18.810
357.68	19.180
358.04	18.787
358.40	18.955
358.77	19.810
359.13	18.464
359.49	16.952
359.85	18.637
360.21	18.221
360.57	17.875
360.93	18.054
361.29	18.175
361.66	18.972
362.02	18.789
362.38	18.552
362.74	18.575
363.10	18.088
363.46	18.906
363.82	18.537
364.18	19.916
364.54	17.497
364.90	18.462
365.26	17.931
365.62	18.467
365.98	18.856
366.35	17.919
366.71	18.435
367.07	19.215
367.43	19.041
367.79	18.912
368.15	19.465
368.51	17.659
368.87	18.811
369.23	18.933
369.59	18.511
369.95	18.932
370.31	17.961
370.67	18.157
371.03	18.144
371.39	17.999
371.75	17.882
372.11	17.683
372.47	19.499
372.83	18.914
373.19	19.280
373.55	18.022
373.91	17.246
374.27	17.853
374.63	18.336
374.99	17.639
375.35	19.286
375.71	18.129
376.07	18.528
376.42	18.640
376.78	19.640
377.14	18.465
377.50	18.786
377.86	19.643
378.22	17.725
378.58	18.490
378.94	18.251
379.30	18.571
379.66	18.695
380.02	17.830
380.38	19.067
380.74	17.972
381.09	18.235
381.45	18.523
381.81	19.614
382.17	19.002
382.53	18.421
382.89	19.526
383.25	18.699
383.61	17.824
383.97	18.551
384.32	19.797
384.68	19.084
385.04	18.739
385.40	19.741
385.76	18.933
386.12	18.851
386.48	19.529
386.83	19.249
387.19	18.482
387.55	18.838
387.91	18.322
388.27	18.938
388.62	19.129
388.98	17.992
389.34	19.446
389.70	18.768
390.06	18.354
390.42	19.096
390.77	19.928
391.13	18.369
391.49	18.418
391.85	18.182
392.20	18.565
392.56	18.842
392.92	19.248
393.28	19.624
393.64	18.939
393.99	18.710
394.35	19.100
394.71	19.701
395.07	18.323
395.42	18.789
395.78	19.257
396.14	19.192
396.50	18.290
396.85	19.082
397.21	18.580
397.57	19.552
397.92	19.702
398.28	18.523
398.64	18.535
399.00	17.958
399.35	18.429
399.71	18.370
400.07	18.529
400.42	18.859
400.78	19.039
401.14	19.180
401.49	19.159
401.85	19.070
402.21	20.104
402.57	19.131
402.92	18.853
403.28	18.443
403.63	18.735
403.99	18.824
404.35	19.272
404.70	19.773
405.06	18.750
405.42	19.145
405.77	18.593
406.13	17.936
406.49	18.806
406.84	19.058
407.20	18.781
407.55	17.807
407.91	18.542
408.27	19.140
408.62	19.081
408.98	18.688
409.34	18.240
409.69	19.592
410.05	19.226
410.40	18.619
410.76	18.059
411.11	18.469
411.47	18.612
411.83	19.106
412.18	18.554
412.54	19.561
412.89	18.685
413.25	18.792
413.60	18.150
413.96	18.706
414.31	18.414
414.67	18.605
415.03	18.031
415.38	18.222
415.74	18.204
416.09	19.124
416.45	18.535
416.80	17.993
417.16	19.029
417.51	18.742
417.87	17.781
418.22	18.263
418.58	17.720
418.93	19.674
419.29	18.002
419.64	18.667
420.00	18.813
420.35	18.697
420.71	18.897
421.06	17.424
421.42	17.546
421.77	17.124
422.12	18.235
422.48	18.075
422.83	18.237
423.19	17.347
423.54	18.308
423.90	18.112
424.25	17.920
424.61	17.681
424.96	17.847
425.31	18.524
425.67	17.338
426.02	18.152
426.38	18.370
426.73	18.025
427.09	18.800
427.44	18.187
427.79	17.634
428.15	17.466
428.50	18.090
428.85	17.279
429.21	17.287
429.56	17.325
429.92	17.248
430.27	17.880
430.62	16.561
430.98	16.970
431.33	18.084
431.68	17.098
432.04	17.369
432.39	17.033
432.74	18.151
433.10	17.415
433.45	15.942
433.80	17.650
434.16	18.079
434.51	17.883
434.86	18.187
435.22	17.800
435.57	17.748
435.92	17.585
436.28	17.292
436.63	17.804
436.98	17.391
437.34	17.700
437.69	17.391
438.04	17.345
438.39	17.576
438.75	17.045
439.10	18.129
439.45	17.105
439.81	17.288
440.16	17.534
440.51	16.945
440.86	17.565
441.22	17.363
441.57	16.824
441.92	17.362
442.27	17.121
442.63	17.635
442.98	17.182
443.33	16.833
443.68	17.691
444.03	18.015
444.39	17.013
444.74	17.611
445.09	16.827
445.44	16.913
445.79	16.954
446.15	17.318
446.50	16.382
446.85	17.850
447.20	17.166
447.55	18.096
447.91	16.754
448.26	17.072
448.61	16.525
448.96	17.167
449.31	16.914
449.66	17.211
450.02	17.827
450.37	17.208
450.72	17.600
451.07	16.458
451.42	16.580
451.77	16.064
452.12	16.930
452.47	16.518
452.83	18.074
453.18	17.221
453.53	16.140
453.88	16.952
454.23	16.949
454.58	16.773
454.93	16.930
455.28	18.001
455.63	17.567
455.98	16.983
456.34	17.314
456.69	17.872
457.04	17.612
457.39	16.851
457.74	16.667
458.09	16.255
458.44	16.649
458.79	16.555
459.14	16.780
459.49	16.355
459.84	16.737
460.19	16.435
460.54	16.922
460.89	16.728
461.24	16.264
461.59	16.989
461.94	16.657
462.29	16.797
462.64	15.993
462.99	17.200
463.34	17.521
463.69	16.354
464.04	17.121
464.39	16.087
464.74	16.990
465.09	16.667
465.44	16.470
465.79	16.869
466.14	15.946
466.49	16.474
466.84	18.017
467.19	16.243
467.54	15.922
467.89	16.034
468.24	16.177
468.59	15.808
468.94	16.317
469.29	15.837
469.64	16.147
469.99	16.252
470.34	16.399
470.68	16.610
471.03	16.306
471.38	16.024
471.73	16.320
472.08	16.307
472.43	16.135
472.78	15.869
473.13	15.866
473.48	16.495
473.83	16.773
474.17	16.647
474.52	15.815
474.87	16.334
475.22	16.732
475.57	15.732
475.92	16.277
476.27	15.974
476.61	15.992
476.96	15.016
477.31	16.436
477.66	15.477
478.01	16.472
478.36	15.852
478.70	16.158
479.05	16.922
479.40	15.893
479.75	16.523
480.10	16.153
480.45	16.135
480.79	16.644
481.14	15.303
481.49	15.538
481.84	15.840
482.19	15.699
482.53	15.916
482.88	16.261
483.23	15.829
483.58	15.284
483.92	15.337
484.27	15.580
484.62	15.594
484.97	15.552
485.31	15.699
485.66	15.069
486.01	15.254
486.36	15.261
486.70	15.992
487.05	15.689
487.40	14.952
487.75	15.471
488.09	15.075
488.44	15.012
488.79	15.346
489.13	15.243
489.48	15.223
489.83	14.809
490.17	14.419
490.52	15.599
490.87	15.271
491.22	15.381
491.56	15.358
491.91	16.049
492.26	15.275
492.60	15.785
492.95	15.314
493.30	15.823
493.64	15.550
493.99	15.088
494.34	15.462
494.68	14.946
495.03	14.670
495.37	15.446
495.72	15.692
496.07	15.250
496.41	15.058
496.76	15.680
497.11	15.159
497.45	15.710
497.80	15.415
498.14	15.828
498.49	15.395
498.84	16.088
499.18	15.250
499.53	15.426
499.87	14.945
500.22	14.515
500.56	14.935
500.91	14.966
501.26	15.864
501.60	14.671
501.95	15.198
502.29	15.094
502.64	15.173
502.98	15.574
503.33	15.076
503.67	14.959
504.02	15.412
504.36	15.907
504.71	14.883
505.06	15.189
505.40	15.219
505.75	15.164
506.09	15.009
506.44	15.413
506.78	16.284
507.13	15.722
507.47	15.490
507.82	14.867
508.16	15.679
508.51	14.627
508.85	15.305
509.19	15.017
509.54	15.754
509.88	14.424
510.23	15.590
510.57	15.998
510.92	15.481
511.26	15.633
511.61	15.017
511.95	15.471
512.30	15.313
512.64	14.693
512.98	15.158
513.33	14.869
513.67	14.329
514.02	15.483
514.36	14.476
514.70	15.469
515.05	15.172
515.39	15.223
515.74	15.483
516.08	15.531
516.42	15.751
516.77	14.511
517.11	15.266
517.46	15.217
517.80	15.981
518.14	16.322
518.49	15.889
518.83	15.061
519.17	14.755
519.52	15.409
519.86	15.628
520.20	14.963
520.55	15.170
520.89	14.921
521.23	15.075
521.58	15.028
521.92	15.354
522.26	14.376
522.61	15.509
522.95	15.225
523.29	15.057
523.64	14.798
523.98	16.315
524.32	15.817
524.66	15.879
525.01	14.326
525.35	14.934
525.69	15.777
526.04	14.581
526.38	14.713
526.72	15.917
527.06	15.308
527.41	14.927
527.75	14.964
528.09	15.289
528.43	14.979
528.78	15.376
529.12	14.679
529.46	14.784
529.80	15.389
530.15	15.362
530.49	14.769
530.83	14.758
531.17	14.695
531.51	14.621
531.86	14.844
532.20	15.671
532.54	15.200
532.88	15.758
533.22	15.380
533.57	15.407
533.91	15.320
534.25	15.432
534.59	15.230
534.93	15.280
535.27	15.211
535.62	15.577
535.96	15.689
536.30	14.454
536.64	15.435
536.98	15.314
537.32	15.432
537.66	15.159
538.01	15.408
538.35	15.104
538.69	14.183
539.03	15.696
539.37	15.371
539.71	15.375
540.05	15.348
540.39	14.120
540.73	15.240
541.07	15.021
541.42	14.708
541.76	15.006
542.10	14.355
542.44	14.921
542.78	15.633
543.12	15.495
543.46	14.957
543.80	14.448
544.14	15.739
544.48	15.248
544.82	15.141
545.16	15.086
545.50	15.458
545.84	14.819
546.18	15.679
546.52	15.478
546.86	14.654
547.20	15.585
547.54	14.357
547.88	14.045
548.22	14.971
548.56	14.570
548.90	14.567
549.24	14.529
549.58	15.142
549.92	14.605
550.26	15.469
550.60	15.252
550.94	15.459
551.28	15.446
551.62	15.296
551.96	14.887
552.30	14.659
552.64	15.246
552.98	15.533
553.32	14.920
553.66	14.984
554.00	15.132
554.34	14.801
554.68	14.719
555.02	13.995
555.36	15.516
555.69	14.734
556.03	15.006
556.37	15.207
556.71	15.219
557.05	14.313
557.39	14.267
557.73	15.390
558.07	15.099
558.41	15.017
558.75	14.740
559.08	15.518
559.42	14.746
559.76	15.129
560.10	15.405
560.44	15.303
560.78	15.688
561.12	14.840
561.45	14.964
561.79	15.263
562.13	14.787
562.47	14.365
562.81	14.810
563.15	14.962
563.48	14.295
563.82	14.994
564.16	14.052
564.50	14.482
564.84	14.690
565.17	14.353
565.51	14.672
565.85	14.667
566.19	14.113
566.52	14.745
566.86	14.658
567.20	13.866
567.54	14.764
567.88	14.118
568.21	14.476
568.55	15.060
568.89	14.480
569.23	14.068
569.56	14.459
569.90	14.291
570.24	14.199
570.57	14.112
570.91	14.360
571.25	13.914
571.59	14.250
571.92	14.312
572.26	14.240
572.60	14.223
572.93	13.805
573.27	13.852
573.61	14.320
573.95	13.790
574.28	14.179
574.62	14.097
574.96	13.741
575.29	13.748
575.63	13.883
575.97	13.988
576.30	13.940
576.64	13.911
576.98	13.645
577.31	13.710
577.65	14.383
577.98	14.175
578.32	13.900
578.66	13.758
578.99	14.090
579.33	13.562
579.67	13.667
580.00	13.531
580.34	14.376
580.67	13.658
581.01	13.825
581.35	13.793
581.68	14.144
582.02	14.039
582.35	14.157
582.69	13.992
583.02	13.829
583.36	13.617
583.70	13.724
584.03	13.655
584.37	13.873
584.70	13.716
585.04	13.532
585.37	13.942
585.71	13.873
586.04	14.003
586.38	13.904
586.72	13.512
587.05	13.431
587.39	13.488
587.72	13.756
588.06	13.830
588.39	14.140
588.73	13.386
589.06	13.854
589.40	13.614
589.73	13.946
590.07	13.462
590.40	13.759
590.73	13.963
591.07	13.477
591.40	13.258
591.74	13.871
592.07	14.576
592.41	13.644
592.74	14.022
593.08	14.331
593.41	14.552
593.75	13.994
594.08	13.905
594.41	14.167
594.75	13.750
595.08	13.392
595.42	13.929
595.75	13.691
596.09	13.758
596.42	13.615
596.75	13.817
597.09	14.343
597.42	14.184
597.75	14.387
598.09	13.690
598.42	14.757
598.76	13.642
599.09	13.920
599.42	13.510
599.76	13.767
600.09	14.348
600.42	14.014
600.76	13.507
601.09	13.342
601.42	13.354
601.76	13.724
602.09	13.760
602.42	13.740
602.76	13.690
603.09	13.913
603.42	14.053
603.76	13.813
604.09	13.982
604.42	13.505
604.76	13.166
605.09	13.961
605.42	14.195
605.75	13.423
606.09	13.774
606.42	13.243
606.75	13.868
607.09	13.172
607.42	13.873
607.75	13.873
608.08	13.694
608.42	13.704
608.75	13.557
609.08	12.988
609.41	13.145
609.75	13.661
610.08	13.896
610.41	14.274
610.74	14.160
611.07	13.632
611.41	14.170
611.74	13.764
612.07	14.540
612.40	14.116
612.73	14.083
613.07	14.181
613.40	13.908
613.73	14.011
614.06	14.181
614.39	13.703
614.72	13.634
615.06	13.426
615.39	13.823
615.72	13.934
616.05	13.356
616.38	14.682
616.71	13.741
617.05	12.886
617.38	14.500
617.71	14.093
618.04	14.031
618.37	14.153
618.70	14.140
619.03	13.799
619.36	13.687
619.69	14.029
620.03	13.685
620.36	14.110
620.69	13.880
621.02	14.304
621.35	13.861
621.68	15.691
622.01	14.235
622.34	13.529
622.67	13.746
623.00	12.416
623.33	14.068
623.66	14.721
623.99	14.681
624.32	14.295
624.65	13.771
624.99	14.174
625.32	14.958
625.65	14.565
625.98	14.034
626.31	13.962
626.64	14.286
626.97	14.704
627.30	13.667
627.63	14.179
627.96	15.165
628.29	14.708
628.62	13.770
628.95	13.848
629.28	14.359
629.61	15.657
629.94	14.812
630.26	14.407
630.59	14.594
630.92	14.199
631.25	14.311
631.58	15.160
631.91	13.964
632.24	14.409
632.57	14.231
632.90	14.544
633.23	15.408
633.56	15.000
633.89	14.360
634.22	15.489
