SpectraSuite Data File
++++++++++++++++++++++++++++++++++++
Date: Thu May 14 16:20:54 PDT 2015
User: schluterlab
Dark Spectrum Present: Yes
Reference Spectrum Present: Yes
Number of Sampled Component Spectra: 1
Spectrometers: USB2E3373
Integration Time (usec): 3000 (USB2E3373)
Spectra Averaged: 3 (USB2E3373)
Boxcar Smoothing: 0 (USB2E3373)
Correct for Electrical Dark: No (USB2E3373)
Strobe/Lamp Enabled: No (USB2E3373)
Correct for Detector Non-linearity: No (USB2E3373)
Correct for Stray Light: No (USB2E3373)
Number of Pixels in Processed Spectrum: 2048
>>>>>Begin Processed Spectral Data<<<<<
178.53	0.000
178.91	157.143
179.29	-1600.000
179.67	-300.000
180.04	150.000
180.42	70.000
180.80	260.000
181.18	-700.000
181.56	200.000
181.94	175.000
182.31	175.000
182.69	266.667
183.07	50.000
183.45	225.000
183.83	-83.333
184.20	133.333
184.58	400.000
184.96	-300.000
185.34	-22.222
185.72	0.000
186.09	100.000
186.47	400.000
186.85	180.000
187.23	-100.000
187.61	-1500.000
187.98	200.000
188.36	475.000
188.74	-300.000
189.12	-33.333
189.49	6.250
189.87	-112.500
190.25	22.222
190.63	20.000
191.00	-88.889
191.38	0.000
191.76	-250.000
192.14	-133.333
192.51	200.000
192.89	166.667
193.27	0.000
193.65	-57.143
194.02	-200.000
194.40	-85.714
194.78	128.571
195.15	0.000
195.53	-36.364
195.91	0.000
196.29	-50.000
196.66	-7.692
197.04	-1100.000
197.42	-85.714
197.79	-550.000
198.17	-137.500
198.55	-85.714
198.92	66.667
199.30	-125.000
199.68	-9.091
200.05	-28.571
200.43	-400.000
200.81	242.857
201.18	0.000
201.56	144.444
201.94	0.000
202.31	566.667
202.69	-111.111
203.07	100.000
203.44	-111.111
203.82	-200.000
204.19	25.000
204.57	-150.000
204.95	-125.000
205.32	-1500.000
205.70	175.000
206.08	50.000
206.45	-116.667
206.83	280.000
207.20	-133.333
207.58	-160.000
207.96	-116.667
208.33	0.000
208.71	100.000
209.08	66.667
209.46	0.000
209.84	216.667
210.21	200.000
210.59	300.000
210.96	333.333
211.34	-275.000
211.71	0.000
212.09	-1000.000
212.46	0.000
212.84	350.000
213.22	-260.000
213.59	0.000
213.97	-10.000
214.34	-233.333
214.72	183.333
215.09	-300.000
215.47	0.000
215.84	114.286
216.22	500.000
216.59	120.000
216.97	-80.000
217.34	125.000
217.72	-62.500
218.09	-125.000
218.47	-350.000
218.84	0.000
219.22	60.000
219.59	-11.765
219.97	-5.000
220.34	850.000
220.72	-22.222
221.09	7.692
221.47	33.333
221.84	-10.000
222.22	-85.714
222.59	0.000
222.97	-87.500
223.34	-260.000
223.72	-1500.000
224.09	-200.000
224.46	-325.000
224.84	-180.000
225.21	-100.000
225.59	-325.000
225.96	75.000
226.34	11.538
226.71	200.000
227.08	-200.000
227.46	-60.000
227.83	-400.000
228.21	10.526
228.58	37.500
228.95	750.000
229.33	-66.667
229.70	-90.000
230.08	78.947
230.45	80.000
230.82	-100.000
231.20	-57.143
231.57	8.333
231.95	-63.636
232.32	27.273
232.69	40.000
233.07	-75.000
233.44	-29.412
233.81	-180.000
234.19	-16.667
234.56	-27.273
234.93	24.138
235.31	-21.053
235.68	-61.111
236.05	-75.000
236.43	-19.231
236.80	-40.000
237.17	-22.222
237.55	-18.182
237.92	-60.000
238.29	-32.258
238.67	-27.273
239.04	8.333
239.41	-9.524
239.79	2.174
240.16	-12.963
240.53	-15.217
240.91	-35.294
241.28	0.000
241.65	-1.493
242.02	-2.703
242.40	-24.615
242.77	-20.000
243.14	1.220
243.51	-26.316
243.89	-14.103
244.26	-4.950
244.63	-3.922
245.00	4.673
245.38	-1.754
245.75	-0.885
246.12	-0.794
246.49	-3.876
246.87	5.714
247.24	1.325
247.61	1.974
247.98	-5.369
248.36	4.938
248.73	-3.681
249.10	-1.639
249.47	8.458
249.84	6.806
250.22	1.036
250.59	-3.889
250.96	1.818
251.33	-0.510
251.70	3.419
252.08	3.750
252.45	6.148
252.82	0.000
253.19	-1.172
253.56	4.183
253.94	-0.385
254.31	6.061
254.68	5.944
255.05	6.840
255.42	3.061
255.79	0.000
256.16	0.662
256.54	0.331
256.91	5.246
257.28	0.328
257.65	-1.274
258.02	2.655
258.39	3.989
258.76	5.505
259.14	4.598
259.51	5.476
259.88	0.567
260.25	3.611
260.62	4.384
260.99	7.650
261.36	3.485
261.73	1.592
262.10	3.571
262.47	2.413
262.85	4.040
263.22	1.039
263.59	-2.368
263.96	0.767
264.33	0.000
264.70	5.432
265.07	4.535
265.44	7.483
265.81	4.167
266.18	4.082
266.55	4.911
266.92	2.278
267.29	5.908
267.66	1.996
268.03	4.585
268.40	2.088
268.77	2.733
269.14	1.762
269.51	6.140
269.88	6.557
270.25	3.622
270.62	5.696
270.99	5.051
271.36	4.158
271.73	3.536
272.10	4.409
272.47	3.206
272.84	5.020
273.21	4.609
273.58	3.629
273.95	3.654
274.32	2.091
274.69	4.836
275.06	4.029
275.43	3.142
275.80	4.056
276.17	3.148
276.54	3.358
276.91	3.041
277.28	3.255
277.65	3.232
278.02	3.676
278.39	3.442
278.76	1.933
279.13	1.596
279.50	7.045
279.87	4.114
280.23	1.585
280.60	4.237
280.97	5.921
281.34	2.207
281.71	2.538
282.08	2.824
282.45	3.110
282.82	3.454
283.19	2.100
283.56	3.770
283.92	5.255
284.29	5.055
284.66	3.941
285.03	3.205
285.40	5.410
285.77	2.786
286.14	2.901
286.51	4.262
286.87	3.949
287.24	4.819
287.61	4.335
287.98	3.172
288.35	2.515
288.72	3.254
289.08	3.953
289.45	3.402
289.82	2.259
290.19	3.017
290.56	4.085
290.93	1.284
291.29	3.719
291.66	3.306
292.03	2.714
292.40	4.082
292.77	1.617
293.13	3.789
293.50	1.577
293.87	2.819
294.24	4.000
294.60	4.172
294.97	2.148
295.34	4.609
295.71	3.657
296.08	4.005
296.44	3.309
296.81	2.558
297.18	3.113
297.55	3.302
297.91	3.203
298.28	1.066
298.65	4.281
299.02	2.834
299.38	3.204
299.75	5.023
300.12	2.431
300.48	1.959
300.85	4.049
301.22	4.251
301.59	3.425
301.95	2.938
302.32	4.000
302.69	2.410
303.05	3.591
303.42	2.772
303.79	3.229
304.15	1.788
304.52	3.700
304.89	2.618
305.25	4.141
305.62	2.821
305.99	4.227
306.35	2.823
306.72	3.206
307.09	1.827
307.45	3.623
307.82	3.431
308.19	2.523
308.55	4.050
308.92	2.921
309.29	3.448
309.65	1.949
310.02	1.980
310.38	2.953
310.75	2.816
311.12	4.027
311.48	2.053
311.85	3.324
312.22	3.700
312.58	3.005
312.95	3.059
313.31	3.162
313.68	3.297
314.05	4.517
314.41	3.825
314.78	3.724
315.14	2.450
315.51	3.416
315.87	4.230
316.24	3.653
316.61	3.819
316.97	2.624
317.34	2.646
317.70	4.192
318.07	4.056
318.43	4.847
318.80	4.682
319.16	4.034
319.53	2.571
319.89	2.717
320.26	4.448
320.62	2.926
320.99	4.155
321.35	3.050
321.72	4.186
322.08	2.615
322.45	3.252
322.81	3.610
323.18	3.805
323.54	3.190
323.91	3.381
324.27	3.012
324.64	4.282
325.00	3.566
325.37	3.686
325.73	3.636
326.10	2.920
326.46	4.316
326.83	4.804
327.19	4.016
327.56	3.083
327.92	3.068
328.29	3.226
328.65	2.931
329.01	3.130
329.38	3.117
329.74	4.195
330.11	3.682
330.47	3.454
330.84	3.531
331.20	4.333
331.56	3.553
331.93	3.682
332.29	3.644
332.66	3.488
333.02	3.183
333.38	3.943
333.75	3.451
334.11	3.420
334.48	3.630
334.84	3.483
335.20	4.534
335.57	4.047
335.93	3.058
336.29	2.413
336.66	2.860
337.02	3.512
337.38	4.337
337.75	2.893
338.11	3.364
338.47	3.888
338.84	3.469
339.20	3.117
339.56	3.295
339.93	4.433
340.29	3.865
340.65	3.731
341.02	3.990
341.38	4.365
341.74	3.551
342.11	3.379
342.47	2.859
342.83	3.140
343.20	3.025
343.56	3.609
343.92	3.203
344.28	4.062
344.65	3.023
345.01	3.978
345.37	3.421
345.73	2.962
346.10	4.134
346.46	3.797
346.82	4.045
347.19	3.743
347.55	3.794
347.91	3.789
348.27	3.869
348.63	3.656
349.00	2.834
349.36	3.420
349.72	3.869
350.08	4.309
350.45	3.270
350.81	3.167
351.17	3.083
351.53	2.957
351.89	3.645
352.26	3.209
352.62	3.284
352.98	3.435
353.34	3.734
353.70	2.928
354.07	3.353
354.43	2.733
354.79	3.366
355.15	2.502
355.51	4.898
355.87	3.067
356.24	3.726
356.60	3.030
356.96	4.077
357.32	3.048
357.68	2.343
358.04	2.395
358.40	3.358
358.77	3.582
359.13	3.397
359.49	2.900
359.85	2.466
360.21	3.372
360.57	2.943
360.93	3.103
361.29	3.158
361.66	2.896
362.02	3.897
362.38	2.178
362.74	3.142
363.10	3.508
363.46	2.909
363.82	1.847
364.18	2.674
364.54	3.458
364.90	3.612
365.26	2.345
365.62	3.600
365.98	3.336
366.35	3.221
366.71	2.585
367.07	2.774
367.43	3.611
367.79	2.986
368.15	3.612
368.51	3.518
368.87	3.331
369.23	2.933
369.59	3.347
369.95	3.245
370.31	3.241
370.67	3.232
371.03	3.116
371.39	2.216
371.75	3.095
372.11	3.049
372.47	2.911
372.83	2.945
373.19	3.336
373.55	2.642
373.91	2.863
374.27	3.493
374.63	3.112
374.99	2.984
375.35	4.091
375.71	3.226
376.07	3.163
376.42	2.519
376.78	3.356
377.14	3.556
377.50	1.581
377.86	3.879
378.22	3.293
378.58	3.092
378.94	3.462
379.30	3.163
379.66	2.939
380.02	3.231
380.38	3.111
380.74	3.211
381.09	2.729
381.45	3.011
381.81	3.103
382.17	2.732
382.53	3.333
382.89	2.935
383.25	2.872
383.61	2.025
383.97	2.473
384.32	2.811
384.68	2.204
385.04	3.008
385.40	3.359
385.76	2.814
386.12	2.932
386.48	2.765
386.83	3.516
387.19	3.013
387.55	2.171
387.91	2.740
388.27	2.945
388.62	3.379
388.98	2.820
389.34	3.123
389.70	3.370
390.06	2.783
390.42	2.349
390.77	2.830
391.13	2.347
391.49	3.261
391.85	2.242
392.20	3.144
392.56	3.308
392.92	3.108
393.28	3.704
393.64	2.793
393.99	3.080
394.35	3.213
394.71	3.533
395.07	2.335
395.42	3.541
395.78	3.413
396.14	2.614
396.50	2.969
396.85	2.445
397.21	2.840
397.57	3.651
397.92	3.150
398.28	2.499
398.64	2.059
399.00	2.723
399.35	3.037
399.71	2.554
400.07	2.134
400.42	2.561
400.78	2.488
401.14	2.960
401.49	2.558
401.85	2.791
402.21	2.781
402.57	3.169
402.92	2.896
403.28	2.576
403.63	2.446
403.99	2.850
404.35	3.070
404.70	3.059
405.06	3.315
405.42	2.986
405.77	3.490
406.13	2.863
406.49	2.928
406.84	2.825
407.20	2.459
407.55	1.999
407.91	2.451
408.27	3.887
408.62	3.083
408.98	3.598
409.34	1.584
409.69	2.719
410.05	3.634
410.40	3.248
410.76	3.870
411.11	3.331
411.47	3.071
411.83	3.410
412.18	3.012
412.54	3.320
412.89	3.260
413.25	2.370
413.60	3.044
413.96	3.380
414.31	4.079
414.67	3.757
415.03	3.138
415.38	2.963
415.74	2.993
416.09	3.516
416.45	2.818
416.80	2.938
417.16	3.512
417.51	3.487
417.87	3.250
418.22	2.934
418.58	2.788
418.93	4.016
419.29	3.268
419.64	3.421
420.00	2.552
420.35	3.313
420.71	2.929
421.06	2.875
421.42	3.039
421.77	2.477
422.12	3.330
422.48	2.970
422.83	3.505
423.19	3.183
423.54	3.208
423.90	3.203
424.25	3.040
424.61	2.239
424.96	3.679
425.31	3.450
425.67	2.952
426.02	3.431
426.38	2.928
426.73	3.069
427.09	3.806
427.44	3.495
427.79	3.483
428.15	3.139
428.50	3.202
428.85	3.330
429.21	3.564
429.56	2.863
429.92	2.948
430.27	2.699
430.62	3.468
430.98	3.000
431.33	2.737
431.68	2.969
432.04	2.895
432.39	3.321
432.74	2.911
433.10	3.353
433.45	2.341
433.80	3.380
434.16	4.029
434.51	2.929
434.86	3.257
435.22	3.188
435.57	3.479
435.92	3.116
436.28	2.787
436.63	2.895
436.98	3.221
437.34	2.649
437.69	2.532
438.04	3.384
438.39	2.987
438.75	3.376
439.10	3.436
439.45	3.466
439.81	2.655
440.16	2.788
440.51	3.122
440.86	3.335
441.22	3.323
441.57	2.778
441.92	3.346
442.27	3.384
442.63	3.626
442.98	3.415
443.33	2.998
443.68	4.014
444.03	3.998
444.39	3.421
444.74	3.675
445.09	2.940
445.44	3.688
445.79	3.496
446.15	2.878
446.50	3.049
446.85	3.259
447.20	3.337
447.55	3.713
447.91	2.723
448.26	3.224
448.61	3.348
448.96	3.970
449.31	2.757
449.66	3.159
450.02	3.797
450.37	4.262
450.72	3.445
451.07	3.702
451.42	2.946
451.77	3.280
452.12	3.273
452.47	3.327
452.83	3.322
453.18	3.386
453.53	2.814
453.88	3.368
454.23	3.785
454.58	3.831
454.93	2.670
455.28	3.070
455.63	3.468
455.98	3.464
456.34	3.180
456.69	2.763
457.04	2.955
457.39	3.825
457.74	3.691
458.09	3.185
458.44	4.256
458.79	2.940
459.14	3.199
459.49	3.056
459.84	3.148
460.19	2.499
460.54	3.861
460.89	3.229
461.24	3.333
461.59	3.708
461.94	3.023
462.29	3.807
462.64	3.440
462.99	3.955
463.34	3.894
463.69	3.341
464.04	3.558
464.39	3.812
464.74	4.105
465.09	3.518
465.44	3.755
465.79	4.125
466.14	3.439
466.49	3.474
466.84	3.085
467.19	3.295
467.54	3.055
467.89	3.448
468.24	3.823
468.59	2.606
468.94	2.972
469.29	3.119
469.64	2.988
469.99	2.868
470.34	3.342
470.68	3.213
471.03	3.733
471.38	2.878
471.73	2.146
472.08	3.426
472.43	3.853
472.78	3.967
473.13	3.097
473.48	3.686
473.83	4.179
474.17	3.400
474.52	3.247
474.87	3.821
475.22	3.775
475.57	3.271
475.92	4.032
476.27	3.674
476.61	2.960
476.96	3.076
477.31	3.614
477.66	3.882
478.01	3.355
478.36	3.190
478.70	3.941
479.05	3.732
479.40	3.258
479.75	4.467
480.10	3.884
480.45	3.145
480.79	3.311
481.14	3.585
481.49	3.408
481.84	3.786
482.19	3.183
482.53	3.892
482.88	3.677
483.23	3.691
483.58	3.362
483.92	3.059
484.27	3.302
484.62	3.754
484.97	3.810
485.31	3.238
485.66	3.214
486.01	3.343
486.36	3.184
486.70	3.468
487.05	3.229
487.40	3.785
487.75	3.791
488.09	3.748
488.44	3.514
488.79	3.777
489.13	3.910
489.48	3.262
489.83	3.219
490.17	3.119
490.52	3.777
490.87	3.553
491.22	2.860
491.56	4.096
491.91	3.881
492.26	3.808
492.60	3.367
492.95	3.817
493.30	3.317
493.64	3.811
493.99	3.114
494.34	3.354
494.68	3.212
495.03	3.612
495.37	3.595
495.72	3.628
496.07	4.294
496.41	3.432
496.76	3.336
497.11	3.185
497.45	4.057
497.80	3.998
498.14	3.356
498.49	3.309
498.84	3.793
499.18	3.644
499.53	4.215
499.87	3.912
500.22	3.250
500.56	3.239
500.91	3.753
501.26	3.727
501.60	3.403
501.95	3.647
502.29	3.949
502.64	3.673
502.98	4.357
503.33	2.765
503.67	3.576
504.02	2.802
504.36	3.798
504.71	3.583
505.06	3.865
505.40	3.656
505.75	3.916
506.09	4.006
506.44	4.132
506.78	3.624
507.13	4.057
507.47	3.363
507.82	4.025
508.16	3.394
508.51	3.000
508.85	3.307
509.19	4.074
509.54	4.083
509.88	3.934
510.23	3.885
510.57	4.157
510.92	4.403
511.26	3.848
511.61	3.332
511.95	4.588
512.30	4.530
512.64	3.048
512.98	4.052
513.33	3.679
513.67	3.723
514.02	3.475
514.36	3.836
514.70	3.750
515.05	3.337
515.39	3.465
515.74	3.818
516.08	3.803
516.42	4.396
516.77	3.523
517.11	3.404
517.46	4.401
517.80	3.902
518.14	4.244
518.49	4.121
518.83	4.045
519.17	3.931
519.52	4.717
519.86	4.329
520.20	3.994
520.55	3.888
520.89	4.336
521.23	4.188
521.58	3.842
521.92	4.079
522.26	3.952
522.61	3.935
522.95	3.633
523.29	3.966
523.64	3.980
523.98	4.221
524.32	4.298
524.66	4.212
525.01	4.134
525.35	4.193
525.69	4.060
526.04	4.133
526.38	4.655
526.72	4.095
527.06	4.106
527.41	3.673
527.75	4.454
528.09	3.424
528.43	3.730
528.78	4.393
529.12	4.702
529.46	3.991
529.80	3.776
530.15	3.768
530.49	3.974
530.83	4.073
531.17	4.062
531.51	4.152
531.86	3.546
532.20	4.573
532.54	4.309
532.88	4.727
533.22	4.596
533.57	4.155
533.91	4.658
534.25	5.088
534.59	3.506
534.93	3.056
535.27	3.380
535.62	4.321
535.96	3.777
536.30	4.230
536.64	4.024
536.98	4.182
537.32	4.259
537.66	4.242
538.01	3.625
538.35	4.019
538.69	3.546
539.03	4.047
539.37	4.240
539.71	3.604
540.05	4.496
540.39	4.218
540.73	3.582
541.07	4.537
541.42	3.839
541.76	4.152
542.10	4.584
542.44	3.898
542.78	4.258
543.12	4.827
543.46	4.396
543.80	3.657
544.14	4.129
544.48	4.492
544.82	4.608
545.16	3.995
545.50	4.134
545.84	3.858
546.18	4.506
546.52	3.885
546.86	4.088
547.20	4.389
547.54	4.120
547.88	3.797
548.22	3.567
548.56	3.920
548.90	4.000
549.24	4.438
549.58	4.479
549.92	4.401
550.26	4.595
550.60	4.595
550.94	4.657
551.28	4.620
551.62	3.841
551.96	4.078
552.30	5.099
552.64	4.605
552.98	5.115
553.32	4.695
553.66	4.566
554.00	4.918
554.34	4.311
554.68	4.584
555.02	4.271
555.36	4.734
555.69	3.716
556.03	4.477
556.37	4.443
556.71	3.995
557.05	3.898
557.39	4.114
557.73	4.161
558.07	4.371
558.41	4.319
558.75	4.124
559.08	4.384
559.42	3.772
559.76	5.495
560.10	4.488
560.44	3.892
560.78	4.375
561.12	3.941
561.45	4.866
561.79	4.335
562.13	4.375
562.47	3.884
562.81	4.684
563.15	3.472
563.48	5.096
563.82	3.748
564.16	3.695
564.50	4.172
564.84	4.602
565.17	4.118
565.51	4.258
565.85	3.860
566.19	3.687
566.52	4.096
566.86	4.358
567.20	3.861
567.54	3.717
567.88	4.027
568.21	4.298
568.55	3.885
568.89	3.904
569.23	4.605
569.56	3.830
569.90	3.956
570.24	3.777
570.57	3.913
570.91	3.613
571.25	3.963
571.59	4.258
571.92	3.838
572.26	3.732
572.60	3.767
572.93	4.286
573.27	3.681
573.61	4.103
573.95	3.982
574.28	3.971
574.62	3.593
574.96	3.529
575.29	3.459
575.63	3.650
575.97	3.593
576.30	3.898
576.64	3.985
576.98	3.576
577.31	3.811
577.65	3.735
577.98	3.614
578.32	3.401
578.66	3.543
578.99	3.277
579.33	3.757
579.67	3.513
580.00	3.574
580.34	4.014
580.67	3.486
581.01	3.592
581.35	3.643
581.68	3.727
582.02	3.909
582.35	3.650
582.69	3.644
583.02	3.476
583.36	3.882
583.70	3.317
584.03	3.576
584.37	3.653
584.70	3.667
585.04	3.348
585.37	3.800
585.71	4.121
586.04	3.765
586.38	3.784
586.72	3.434
587.05	3.633
587.39	3.615
587.72	3.565
588.06	3.965
588.39	3.834
588.73	3.783
589.06	3.922
589.40	3.319
589.73	3.663
590.07	4.410
590.40	4.226
590.73	4.312
591.07	3.797
591.40	3.733
591.74	4.014
592.07	4.425
592.41	3.509
592.74	3.798
593.08	3.949
593.41	4.316
593.75	3.563
594.08	3.817
594.41	3.590
594.75	3.786
595.08	3.701
595.42	3.799
595.75	3.842
596.09	4.236
596.42	3.798
596.75	4.091
597.09	4.364
597.42	3.854
597.75	3.920
598.09	3.968
598.42	4.182
598.76	3.821
599.09	3.596
599.42	3.654
599.76	3.929
600.09	4.505
600.42	3.971
600.76	4.128
601.09	3.618
601.42	4.154
601.76	3.931
602.09	3.753
602.42	4.108
602.76	3.948
603.09	3.781
603.42	3.685
603.76	3.559
604.09	4.471
604.42	3.743
604.76	3.805
605.09	4.587
605.42	4.147
605.75	4.500
606.09	3.546
606.42	3.648
606.75	3.448
607.09	3.687
607.42	4.200
607.75	3.869
608.08	4.104
608.42	3.829
608.75	3.980
609.08	3.608
609.41	3.970
609.75	4.286
610.08	4.398
610.41	3.823
610.74	4.286
611.07	4.307
611.41	4.350
611.74	3.741
612.07	4.208
612.40	3.802
612.73	4.059
613.07	4.156
613.40	4.042
613.73	3.226
614.06	4.563
614.39	3.984
614.72	3.882
615.06	4.090
615.39	3.335
615.72	4.028
616.05	3.983
616.38	4.238
616.71	4.232
617.05	4.047
617.38	4.922
617.71	4.752
618.04	4.641
618.37	4.317
618.70	4.242
619.03	3.763
619.36	4.069
619.69	4.036
620.03	4.834
620.36	4.233
620.69	3.948
621.02	4.856
621.35	3.774
621.68	5.134
622.01	4.484
622.34	4.324
622.67	3.986
623.00	3.239
623.33	3.650
623.66	5.318
623.99	3.752
624.32	5.198
624.65	4.376
624.99	4.486
625.32	4.311
625.65	4.720
625.98	4.068
626.31	4.748
626.64	4.396
626.97	4.726
627.30	3.493
627.63	3.751
627.96	4.880
628.29	4.436
628.62	4.198
628.95	4.207
629.28	4.248
629.61	4.377
629.94	4.184
630.26	4.492
630.59	4.922
630.92	4.329
631.25	5.277
631.58	5.273
631.91	4.592
632.24	4.707
632.57	5.693
632.90	4.814
633.23	4.898
633.56	4.796
633.89	4.959
634.22	5.613
634.55	4.384
634.88	5.303
635.20	4.952
635.53	5.763
635.86	4.984
636.19	6.257
636.52	5.485
636.85	5.516
637.18	4.782
637.51	6.344
637.83	6.091
638.16	6.106
638.49	4.812
638.82	4.059
639.15	3.895
639.48	5.312
639.81	5.658
640.13	4.711
640.46	4.121
640.79	4.779
641.12	4.845
641.45	4.391
641.77	6.033
642.10	5.118
642.43	7.181
642.76	5.962
643.09	4.110
643.41	5.602
643.74	5.241
644.07	6.069
644.40	5.233
644.73	5.225
645.05	4.112
645.38	5.324
645.71	5.132
646.04	6.887
646.36	4.088
646.69	4.141
647.02	5.810
647.35	5.496
647.67	5.797
648.00	5.414
648.33	6.156
648.66	5.849
648.98	5.442
649.31	5.142
649.64	6.242
649.96	4.907
650.29	3.894
650.62	5.233
650.94	5.405
651.27	4.790
651.60	4.386
651.92	3.647
652.25	4.486
652.58	6.190
652.90	4.360
653.23	4.507
653.56	3.709
653.88	5.478
654.21	5.634
654.54	4.769
654.86	5.099
655.19	4.015
655.52	4.469
655.84	3.845
656.17	4.122
656.49	5.551
656.82	6.108
657.15	4.677
657.47	3.604
657.80	2.723
658.13	2.137
658.45	2.740
658.78	3.692
