SpectraSuite Data File
++++++++++++++++++++++++++++++++++++
Date: Thu May 14 15:50:43 PDT 2015
User: schluterlab
Dark Spectrum Present: Yes
Reference Spectrum Present: Yes
Number of Sampled Component Spectra: 1
Spectrometers: USB2E3373
Integration Time (usec): 3000 (USB2E3373)
Spectra Averaged: 3 (USB2E3373)
Boxcar Smoothing: 0 (USB2E3373)
Correct for Electrical Dark: No (USB2E3373)
Strobe/Lamp Enabled: No (USB2E3373)
Correct for Detector Non-linearity: No (USB2E3373)
Correct for Stray Light: No (USB2E3373)
Number of Pixels in Processed Spectrum: 2048
>>>>>Begin Processed Spectral Data<<<<<
178.53	0.000
178.91	614.286
179.29	-4600.000
179.67	-5000.000
180.04	414.286
180.42	440.000
180.80	880.000
181.18	-4300.000
181.56	-3100.000
181.94	1025.000
182.31	-975.000
182.69	1533.333
183.07	-2150.000
183.45	1025.000
183.83	-750.000
184.20	-1466.667
184.58	3800.000
184.96	-1000.000
185.34	-477.778
185.72	-760.000
186.09	655.556
186.47	2650.000
186.85	1060.000
187.23	-544.444
187.61	-5000.000
187.98	880.000
188.36	1175.000
188.74	-950.000
189.12	-1333.333
189.49	-212.500
189.87	-575.000
190.25	-366.667
190.63	-880.000
191.00	-488.889
191.38	0.000
191.76	-1350.000
192.14	-666.667
192.51	2050.000
192.89	-600.000
193.27	0.000
193.65	-600.000
194.02	-4800.000
194.40	-557.143
194.78	628.571
195.15	0.000
195.53	-381.818
195.91	0.000
196.29	-1100.000
196.66	-338.462
197.04	-4400.000
197.42	-714.286
197.79	-2300.000
198.17	-725.000
198.55	-614.286
198.92	-388.889
199.30	-512.500
199.68	-327.273
200.05	-228.571
200.43	-2450.000
200.81	771.429
201.18	0.000
201.56	566.667
201.94	0.000
202.31	1300.000
202.69	-411.111
203.07	3700.000
203.44	-455.556
203.82	-1225.000
204.19	-291.667
204.57	-783.333
204.95	-562.500
205.32	-4800.000
205.70	1050.000
206.08	-566.667
206.45	-633.333
206.83	980.000
207.20	-666.667
207.58	-940.000
207.96	-800.000
208.33	-683.333
208.71	525.000
209.08	-616.667
209.46	0.000
209.84	850.000
210.21	2350.000
210.59	2500.000
210.96	1400.000
211.34	-850.000
211.71	-475.000
212.09	-4600.000
212.46	0.000
212.84	2650.000
213.22	-960.000
213.59	-1100.000
213.97	-430.000
214.34	-1633.333
214.72	750.000
215.09	-1050.000
215.47	0.000
215.84	671.429
216.22	2900.000
216.59	-800.000
216.97	-880.000
217.34	-1075.000
217.72	-425.000
218.09	-1050.000
218.47	-1250.000
218.84	0.000
219.22	900.000
219.59	-235.294
219.97	-195.000
220.34	2800.000
220.72	-466.667
221.09	-261.538
221.47	-1533.333
221.84	-410.000
222.22	-642.857
222.59	0.000
222.97	-462.500
223.34	-980.000
223.72	-4700.000
224.09	-1150.000
224.46	-1100.000
224.84	-740.000
225.21	-685.714
225.59	-1250.000
225.96	-1250.000
226.34	-146.154
226.71	716.667
227.08	-1900.000
227.46	-186.667
227.83	-1200.000
228.21	-178.947
228.58	575.000
228.95	2550.000
229.33	-358.333
229.70	-440.000
230.08	-173.684
230.45	480.000
230.82	-1266.667
231.20	-314.286
231.57	-266.667
231.95	-345.455
232.32	-245.455
232.69	-170.000
233.07	-1275.000
233.44	-252.941
233.81	-440.000
234.19	-188.889
234.56	-200.000
234.93	-106.897
235.31	-173.684
235.68	-205.556
236.05	-225.000
236.43	-130.769
236.80	-120.000
237.17	-122.222
237.55	-115.152
237.92	-380.000
238.29	-119.355
238.67	-84.091
239.04	-108.333
239.41	-90.476
239.79	-82.609
240.16	-66.667
240.53	-86.957
240.91	-74.510
241.28	-50.820
241.65	-37.313
242.02	-29.730
242.40	-50.769
242.77	-25.333
243.14	-31.707
243.51	-44.737
243.89	-39.744
244.26	-15.842
244.63	-16.667
245.00	-25.234
245.38	-19.298
245.75	-25.664
246.12	-12.698
246.49	-15.504
246.87	-15.714
247.24	-7.285
247.61	-11.184
247.98	-15.436
248.36	-11.111
248.73	-13.497
249.10	-6.011
249.47	2.488
249.84	2.094
250.22	-5.181
250.59	-2.778
250.96	-4.091
251.33	-7.653
251.70	0.427
252.08	-1.250
252.45	-2.049
252.82	-2.066
253.19	-2.734
253.56	1.141
253.94	-2.692
254.31	-0.758
254.68	3.846
255.05	5.537
255.42	3.401
255.79	0.647
256.16	-1.325
256.54	1.987
256.91	1.639
257.28	2.951
257.65	0.318
258.02	-0.885
258.39	4.843
258.76	7.645
259.14	7.184
259.51	4.035
259.88	2.550
260.25	1.944
260.62	4.384
260.99	6.011
261.36	5.898
261.73	3.183
262.10	3.297
262.47	8.043
262.85	8.333
263.22	5.195
263.59	2.632
263.96	5.627
264.33	0.256
264.70	5.679
265.07	4.535
265.44	8.390
265.81	5.787
266.18	6.122
266.55	7.366
266.92	5.239
267.29	8.753
267.66	7.317
268.03	5.895
268.40	6.472
268.77	4.328
269.14	3.965
269.51	7.895
269.88	10.246
270.25	8.451
270.62	8.228
270.99	8.889
271.36	10.099
271.73	9.037
272.10	9.218
272.47	6.814
272.84	8.032
273.21	8.016
273.58	8.266
273.95	7.500
274.32	6.274
274.69	5.996
275.06	9.707
275.43	5.730
275.80	8.289
276.17	9.815
276.54	10.261
276.91	8.229
277.28	9.403
277.65	7.899
278.02	9.191
278.39	7.609
278.76	8.084
279.13	7.624
279.50	9.794
279.87	10.018
280.23	7.746
280.60	8.475
280.97	10.033
281.34	7.810
281.71	10.829
282.08	9.302
282.45	7.692
282.82	6.436
283.19	6.785
283.56	9.180
283.92	10.961
284.29	9.953
284.66	8.867
285.03	9.455
285.40	8.964
285.77	9.443
286.14	9.771
286.51	8.067
286.87	10.900
287.24	8.886
287.61	9.268
287.98	7.402
288.35	10.059
288.72	9.320
289.08	8.931
289.45	7.249
289.82	7.681
290.19	8.046
290.56	6.479
290.93	9.843
291.29	9.917
291.66	8.678
292.03	7.056
292.40	9.660
292.77	7.951
293.13	8.931
293.50	7.359
293.87	7.919
294.24	8.800
294.60	8.470
294.97	6.711
295.34	8.323
295.71	8.197
296.08	7.881
296.44	9.069
296.81	8.404
297.18	7.846
297.55	6.368
297.91	7.948
298.28	8.057
298.65	6.897
299.02	8.028
299.38	7.094
299.75	8.645
300.12	7.870
300.48	8.065
300.85	8.886
301.22	8.613
301.59	6.393
301.95	7.119
302.32	8.333
302.69	8.105
303.05	8.379
303.42	7.761
303.79	8.125
304.15	8.623
304.52	7.294
304.89	8.482
305.25	7.557
305.62	9.195
305.99	8.557
306.35	9.375
306.72	8.376
307.09	8.629
307.45	9.110
307.82	8.880
308.19	8.274
308.55	9.643
308.92	8.666
309.29	9.004
309.65	8.285
310.02	8.020
310.38	8.563
310.75	9.417
311.12	10.738
311.48	9.580
311.85	9.972
312.22	9.583
312.58	9.765
312.95	8.891
313.31	11.834
313.68	10.806
314.05	12.647
314.41	11.658
314.78	11.262
315.14	10.980
315.51	12.558
315.87	12.961
316.24	12.785
316.61	13.410
316.97	12.127
317.34	12.346
317.70	15.895
318.07	13.933
318.43	14.541
318.80	16.137
319.16	15.107
319.53	14.053
319.89	15.513
320.26	16.281
320.62	15.337
320.99	16.528
321.35	17.190
321.72	17.488
322.08	17.493
322.45	18.157
322.81	20.307
323.18	20.265
323.54	20.086
323.91	21.174
324.27	20.310
324.64	21.327
325.00	21.559
325.37	22.113
325.73	24.132
326.10	23.033
326.46	24.593
326.83	24.740
327.19	23.465
327.56	25.534
327.92	24.154
328.29	24.758
328.65	25.712
329.01	25.465
329.38	27.211
329.74	28.168
330.11	26.541
330.47	27.464
330.84	27.476
331.20	28.167
331.56	28.163
331.93	29.372
332.29	29.153
332.66	29.319
333.02	28.643
333.38	28.440
333.75	28.535
334.11	29.358
334.48	29.785
334.84	29.482
335.20	27.036
335.57	28.921
335.93	30.248
336.29	29.201
336.66	29.521
337.02	30.268
337.38	30.102
337.75	29.587
338.11	31.203
338.47	29.694
338.84	28.596
339.20	28.812
339.56	29.736
339.93	29.064
340.29	27.697
340.65	28.954
341.02	30.646
341.38	30.719
341.74	29.782
342.11	31.215
342.47	29.468
342.83	30.032
343.20	30.662
343.56	29.912
343.92	28.983
344.28	29.609
344.65	30.000
345.01	29.485
345.37	31.026
345.73	27.124
346.10	30.343
346.46	29.351
346.82	30.712
347.19	30.405
347.55	30.804
347.91	29.643
348.27	29.894
348.63	29.855
349.00	28.337
349.36	29.071
349.72	29.688
350.08	30.163
350.45	29.049
350.81	29.713
351.17	28.421
351.53	29.492
351.89	29.841
352.26	29.104
352.62	29.328
352.98	29.160
353.34	29.052
353.70	30.740
354.07	30.179
354.43	29.613
354.79	29.469
355.15	29.654
355.51	30.921
355.87	28.945
356.24	30.418
356.60	29.268
356.96	29.059
357.32	28.625
357.68	28.477
358.04	29.341
358.40	29.478
358.77	29.898
359.13	28.804
359.49	29.145
359.85	28.934
360.21	29.268
360.57	27.997
360.93	29.690
361.29	29.965
361.66	29.327
362.02	30.828
362.38	29.796
362.74	29.260
363.10	30.880
363.46	30.055
363.82	30.611
364.18	29.697
364.54	29.737
364.90	30.569
365.26	29.448
365.62	29.333
365.98	29.680
366.35	29.396
366.71	29.728
367.07	29.432
367.43	29.678
367.79	29.993
368.15	30.903
368.51	30.514
368.87	29.197
369.23	29.933
369.59	31.148
369.95	29.817
370.31	31.060
370.67	28.748
371.03	30.402
371.39	29.819
371.75	29.780
372.11	30.217
372.47	29.993
372.83	30.366
373.19	30.887
373.55	29.675
373.91	29.312
374.27	29.625
374.63	29.635
374.99	30.968
375.35	30.584
375.71	30.581
376.07	29.180
376.42	29.030
376.78	31.510
377.14	30.318
377.50	30.297
377.86	30.234
378.22	30.838
378.58	30.678
378.94	29.988
379.30	30.756
379.66	30.864
380.02	31.275
380.38	31.279
380.74	30.817
381.09	31.359
381.45	30.455
381.81	31.616
382.17	31.057
382.53	30.643
382.89	29.176
383.25	31.125
383.61	30.613
383.97	31.037
384.32	31.519
384.68	30.162
385.04	30.538
385.40	30.819
385.76	32.063
386.12	30.102
386.48	31.235
386.83	30.632
387.19	30.185
387.55	30.282
387.91	30.422
388.27	31.293
388.62	30.470
388.98	29.836
389.34	31.703
389.70	30.564
390.06	30.314
390.42	30.482
390.77	31.186
391.13	30.223
391.49	30.737
391.85	30.606
392.20	30.783
392.56	31.364
392.92	31.134
393.28	31.951
393.64	30.223
393.99	31.203
394.35	31.016
394.71	31.677
395.07	30.539
395.42	30.040
395.78	31.261
396.14	31.373
396.50	30.107
396.85	29.577
397.21	30.355
397.57	31.331
397.92	31.100
398.28	29.658
398.64	30.263
399.00	30.105
399.35	30.628
399.71	30.326
400.07	30.376
400.42	31.315
400.78	30.150
401.14	30.507
401.49	30.017
401.85	30.930
402.21	30.533
402.57	31.221
402.92	30.792
403.28	29.684
403.63	30.191
403.99	29.632
404.35	29.790
404.70	30.312
405.06	29.946
405.42	30.269
405.77	30.044
406.13	29.444
406.49	30.687
406.84	30.748
407.20	30.688
407.55	30.103
407.91	29.667
408.27	29.270
408.62	29.727
408.98	30.528
409.34	30.147
409.69	29.543
410.05	29.777
410.40	31.206
410.76	30.735
411.11	30.099
411.47	30.897
411.83	29.924
412.18	30.301
412.54	31.120
412.89	29.686
413.25	29.684
413.60	29.868
413.96	29.953
414.31	29.462
414.67	29.756
415.03	29.538
415.38	30.013
415.74	29.383
416.09	28.994
416.45	29.054
416.80	29.192
417.16	29.246
417.51	29.639
417.87	29.185
418.22	28.862
418.58	28.191
418.93	29.802
419.29	29.223
419.64	29.172
420.00	28.961
420.35	29.534
420.71	29.638
421.06	28.235
421.42	29.759
421.77	28.110
422.12	29.228
422.48	29.442
422.83	29.792
423.19	29.761
423.54	30.531
423.90	28.713
424.25	28.320
424.61	29.104
424.96	29.654
425.31	29.406
425.67	28.986
426.02	29.109
426.38	28.990
426.73	29.408
427.09	30.219
427.44	28.837
427.79	29.464
428.15	28.824
428.50	29.382
428.85	28.875
429.21	29.415
429.56	29.121
429.92	27.666
430.27	28.627
430.62	29.116
430.98	28.677
431.33	28.983
431.68	29.023
432.04	28.796
432.39	28.602
432.74	29.623
433.10	27.961
433.45	28.317
433.80	27.897
434.16	29.494
434.51	29.496
434.86	30.022
435.22	29.277
435.57	28.892
435.92	28.826
436.28	28.783
436.63	29.055
436.98	28.341
437.34	28.861
437.69	28.949
438.04	29.191
438.39	28.087
438.75	29.773
439.10	29.863
439.45	29.681
439.81	28.644
440.16	28.525
440.51	29.487
440.86	27.682
441.22	28.885
441.57	29.036
441.92	28.952
442.27	29.949
442.63	29.210
442.98	30.203
443.33	28.669
443.68	30.278
444.03	30.339
444.39	29.681
444.74	29.607
445.09	28.637
445.44	29.241
445.79	30.316
446.15	29.753
446.50	29.612
446.85	29.232
447.20	29.642
447.55	29.393
447.91	28.586
448.26	28.964
448.61	29.543
448.96	30.418
449.31	29.056
449.66	29.139
450.02	29.272
450.37	29.515
450.72	29.010
451.07	29.841
451.42	28.538
451.77	29.294
452.12	29.345
452.47	29.352
452.83	29.279
453.18	28.838
453.53	29.006
453.88	28.493
454.23	29.209
454.58	29.309
454.93	28.398
455.28	29.380
455.63	28.596
455.98	29.553
456.34	29.505
456.69	28.748
457.04	28.487
457.39	29.601
457.74	29.306
458.09	28.720
458.44	29.580
458.79	28.829
459.14	29.418
459.49	28.749
459.84	29.748
460.19	28.318
460.54	29.018
460.89	29.487
461.24	28.966
461.59	28.390
461.94	27.496
462.29	29.395
462.64	28.365
462.99	28.562
463.34	28.553
463.69	28.605
464.04	28.460
464.39	28.083
464.74	28.677
465.09	28.431
465.44	28.058
465.79	28.662
466.14	27.619
466.49	29.789
466.84	28.430
467.19	29.133
467.54	28.026
467.89	27.356
468.24	28.421
468.59	27.736
468.94	28.322
469.29	27.534
469.64	28.099
469.99	27.279
470.34	27.723
470.68	27.683
471.03	27.374
471.38	27.142
471.73	27.763
472.08	28.426
472.43	27.514
472.78	27.519
473.13	28.192
473.48	27.251
473.83	27.742
474.17	27.550
474.52	27.721
474.87	26.744
475.22	26.986
475.57	27.362
475.92	27.178
476.27	28.009
476.61	27.414
476.96	27.372
477.31	28.267
477.66	28.856
478.01	27.809
478.36	27.567
478.70	27.685
479.05	27.863
479.40	27.394
479.75	28.194
480.10	27.523
480.45	27.484
480.79	27.619
481.14	27.757
481.49	27.624
481.84	27.937
482.19	28.731
482.53	27.941
482.88	27.293
483.23	28.190
483.58	27.162
483.92	27.261
484.27	27.858
484.62	27.186
484.97	27.877
485.31	26.998
485.66	25.790
486.01	26.556
486.36	27.353
486.70	28.789
487.05	29.556
487.40	28.721
487.75	27.964
488.09	27.585
488.44	26.973
488.79	26.745
489.13	26.901
489.48	26.136
489.83	26.076
490.17	26.812
490.52	26.190
490.87	26.184
491.22	27.080
491.56	26.749
491.91	26.690
492.26	26.309
492.60	26.060
492.95	27.029
493.30	26.266
493.64	26.281
493.99	26.842
494.34	25.958
494.68	26.809
495.03	26.079
495.37	26.542
495.72	26.304
496.07	26.293
496.41	26.469
496.76	26.772
497.11	26.667
497.45	25.723
497.80	26.833
498.14	26.213
498.49	25.735
498.84	25.503
499.18	25.686
499.53	25.336
499.87	25.714
500.22	25.467
500.56	26.001
500.91	25.355
501.26	26.318
501.60	24.967
501.95	25.402
502.29	26.196
502.64	25.317
502.98	25.798
503.33	25.227
503.67	25.207
504.02	25.482
504.36	25.648
504.71	24.989
505.06	25.784
505.40	25.868
505.75	25.182
506.09	25.645
506.44	26.323
506.78	25.550
507.13	25.911
507.47	24.633
507.82	24.811
508.16	25.287
508.51	24.566
508.85	25.508
509.19	24.586
509.54	25.456
509.88	24.526
510.23	24.478
510.57	25.278
510.92	24.770
511.26	24.916
511.61	23.757
511.95	24.158
512.30	25.111
512.64	24.538
512.98	24.662
513.33	24.597
513.67	24.426
514.02	24.272
514.36	23.734
514.70	24.375
515.05	24.453
515.39	24.619
515.74	25.186
516.08	23.930
516.42	24.333
516.77	23.817
517.11	23.466
517.46	24.655
517.80	24.853
518.14	24.755
518.49	24.349
518.83	24.534
519.17	23.102
519.52	24.319
519.86	24.076
520.20	24.388
520.55	23.384
520.89	23.818
521.23	23.786
521.58	24.802
521.92	23.796
522.26	22.910
522.61	23.495
522.95	24.106
523.29	23.046
523.64	23.206
523.98	23.446
524.32	24.069
524.66	23.335
525.01	21.857
525.35	23.148
525.69	22.680
526.04	22.618
526.38	22.184
526.72	24.106
527.06	24.282
527.41	23.615
527.75	23.219
528.09	23.731
528.43	22.558
528.78	22.717
529.12	23.165
529.46	22.091
529.80	23.398
530.15	22.435
530.49	22.776
530.83	24.144
531.17	23.118
531.51	22.503
531.86	22.897
532.20	22.927
532.54	21.604
532.88	22.909
533.22	22.923
533.57	23.197
533.91	23.232
534.25	22.329
534.59	22.414
534.93	22.524
535.27	22.423
535.62	22.911
535.96	23.126
536.30	22.268
536.64	22.583
536.98	23.001
537.32	22.160
537.66	22.895
538.01	21.692
538.35	21.133
538.69	21.935
539.03	22.563
539.37	22.026
539.71	22.643
540.05	22.242
540.39	21.088
540.73	21.494
541.07	22.072
541.42	22.032
541.76	20.463
542.10	21.532
542.44	21.315
542.78	21.533
543.12	22.229
543.46	21.612
543.80	21.343
544.14	21.005
544.48	21.749
544.82	21.963
545.16	23.196
545.50	21.210
545.84	22.168
546.18	21.543
546.52	20.510
546.86	20.692
547.20	21.120
547.54	20.599
547.88	20.856
548.22	21.696
548.56	20.889
548.90	21.194
549.24	21.277
549.58	20.820
549.92	20.281
550.26	20.647
550.60	21.378
550.94	21.087
551.28	20.726
551.62	20.687
551.96	20.712
552.30	20.395
552.64	21.406
552.98	21.023
553.32	20.900
553.66	21.736
554.00	21.942
554.34	20.463
554.68	20.465
555.02	20.762
555.36	21.236
555.69	19.667
556.03	19.231
556.37	20.839
556.71	21.243
557.05	19.936
557.39	19.443
557.73	20.674
558.07	19.669
558.41	20.864
558.75	20.284
559.08	20.459
559.42	18.519
559.76	19.742
560.10	20.496
560.44	21.306
560.78	20.187
561.12	20.382
561.45	20.377
561.79	20.208
562.13	20.148
562.47	19.297
562.81	20.443
563.15	19.949
563.48	19.826
563.82	19.105
564.16	19.624
564.50	19.785
564.84	19.941
565.17	20.529
565.51	19.102
565.85	20.428
566.19	18.836
566.52	19.778
566.86	19.581
567.20	18.162
567.54	19.331
567.88	19.011
568.21	19.911
568.55	20.336
568.89	19.610
569.23	20.617
569.56	19.930
569.90	20.919
570.24	20.304
570.57	19.981
570.91	19.626
571.25	20.249
571.59	20.317
571.92	20.496
572.26	20.064
572.60	19.492
572.93	19.983
573.27	20.146
573.61	19.905
573.95	19.641
574.28	19.692
574.62	19.964
574.96	19.696
575.29	19.894
575.63	19.958
575.97	19.904
576.30	19.689
576.64	19.709
576.98	19.385
577.31	19.755
577.65	19.934
577.98	20.143
578.32	19.618
578.66	19.676
578.99	19.844
579.33	20.098
579.67	19.832
580.00	19.600
580.34	19.655
580.67	19.638
581.01	19.212
581.35	19.462
581.68	19.539
582.02	19.332
582.35	20.306
582.69	20.065
583.02	19.791
583.36	19.532
583.70	19.246
584.03	19.150
584.37	19.156
584.70	18.557
585.04	18.833
585.37	19.510
585.71	19.180
586.04	19.353
586.38	19.243
586.72	18.752
587.05	18.675
587.39	19.097
587.72	19.234
588.06	19.221
588.39	19.069
588.73	18.624
589.06	18.849
589.40	19.023
589.73	18.798
590.07	18.468
590.40	18.864
590.73	18.346
591.07	18.652
591.40	17.924
591.74	17.727
592.07	17.905
592.41	18.099
592.74	17.607
593.08	18.917
593.41	19.102
593.75	18.333
594.08	18.661
594.41	18.301
594.75	18.134
595.08	17.328
595.42	18.474
595.75	18.373
596.09	18.638
596.42	18.094
596.75	18.641
597.09	18.182
597.42	17.521
597.75	17.327
598.09	18.095
598.42	18.577
598.76	17.501
599.09	18.085
599.42	18.069
599.76	17.927
600.09	18.318
600.42	18.519
600.76	17.933
601.09	17.889
601.42	18.263
601.76	17.897
602.09	17.691
602.42	17.412
602.76	17.601
603.09	17.731
603.42	17.666
603.76	17.583
604.09	18.275
604.42	18.239
604.76	17.580
605.09	17.870
605.42	17.943
605.75	17.654
606.09	17.171
606.42	17.804
606.75	17.279
607.09	16.897
607.42	17.341
607.75	17.351
608.08	17.206
608.42	17.291
608.75	17.579
609.08	16.723
609.41	17.071
609.75	16.518
610.08	17.414
610.41	17.545
610.74	16.933
611.07	17.185
611.41	17.399
611.74	17.644
612.07	17.765
612.40	16.730
612.73	17.604
613.07	16.968
613.40	17.276
613.73	16.899
614.06	17.272
614.39	17.201
614.72	16.788
615.06	16.651
615.39	15.418
615.72	16.635
616.05	16.173
616.38	16.902
616.71	16.823
617.05	16.400
617.38	17.335
617.71	17.117
618.04	16.460
618.37	17.596
618.70	17.308
619.03	15.830
619.36	15.290
619.69	15.823
620.03	16.070
620.36	16.442
620.69	15.978
621.02	15.551
621.35	16.038
621.68	16.920
622.01	15.445
622.34	16.179
622.67	16.770
623.00	15.722
623.33	15.727
623.66	17.121
623.99	15.800
624.32	17.024
624.65	16.345
624.99	15.800
625.32	16.590
625.65	15.914
625.98	15.254
626.31	15.096
626.64	15.971
626.97	14.479
627.30	14.655
627.63	14.479
627.96	16.141
628.29	16.576
628.62	13.686
628.95	15.513
629.28	14.359
629.61	14.983
629.94	14.895
630.26	13.644
630.59	14.940
630.92	14.113
631.25	16.279
631.58	15.160
631.91	13.590
632.24	15.370
632.57	14.991
