SpectraSuite Data File
++++++++++++++++++++++++++++++++++++
Date: Thu May 14 16:21:20 PDT 2015
User: schluterlab
Dark Spectrum Present: Yes
Reference Spectrum Present: Yes
Number of Sampled Component Spectra: 1
Spectrometers: USB2E3373
Integration Time (usec): 3000 (USB2E3373)
Spectra Averaged: 3 (USB2E3373)
Boxcar Smoothing: 0 (USB2E3373)
Correct for Electrical Dark: No (USB2E3373)
Strobe/Lamp Enabled: No (USB2E3373)
Correct for Detector Non-linearity: No (USB2E3373)
Correct for Stray Light: No (USB2E3373)
Number of Pixels in Processed Spectrum: 2048
>>>>>Begin Processed Spectral Data<<<<<
178.53	0.000
178.91	28.571
179.29	-900.000
179.67	-900.000
180.04	157.143
180.42	-20.000
180.80	220.000
181.18	-1100.000
181.56	-100.000
181.94	325.000
182.31	-175.000
182.69	566.667
183.07	-50.000
183.45	125.000
183.83	0.000
184.20	100.000
184.58	1100.000
184.96	-275.000
185.34	-33.333
185.72	-60.000
186.09	222.222
186.47	200.000
186.85	200.000
187.23	-200.000
187.61	-1500.000
187.98	120.000
188.36	475.000
188.74	50.000
189.12	166.667
189.49	31.250
189.87	12.500
190.25	-66.667
190.63	-40.000
191.00	-133.333
191.38	0.000
191.76	-100.000
192.14	-116.667
192.51	500.000
192.89	50.000
193.27	0.000
193.65	0.000
194.02	-1200.000
194.40	-114.286
194.78	171.429
195.15	0.000
195.53	27.273
195.91	0.000
196.29	-125.000
196.66	0.000
197.04	-1300.000
197.42	-128.571
197.79	-250.000
198.17	-150.000
198.55	-85.714
198.92	55.556
199.30	-137.500
199.68	-54.545
200.05	-7.143
200.43	-250.000
200.81	185.714
201.18	0.000
201.56	155.556
201.94	0.000
202.31	266.667
202.69	-100.000
203.07	500.000
203.44	-22.222
203.82	-175.000
204.19	-33.333
204.57	-166.667
204.95	-125.000
205.32	-300.000
205.70	125.000
206.08	-100.000
206.45	-133.333
206.83	420.000
207.20	-50.000
207.58	-80.000
207.96	-116.667
208.33	0.000
208.71	75.000
209.08	33.333
209.46	0.000
209.84	183.333
210.21	300.000
210.59	700.000
210.96	400.000
211.34	125.000
211.71	112.500
212.09	-700.000
212.46	0.000
212.84	1050.000
213.22	-360.000
213.59	-425.000
213.97	-100.000
214.34	-100.000
214.72	50.000
215.09	-250.000
215.47	0.000
215.84	85.714
216.22	500.000
216.59	-100.000
216.97	-180.000
217.34	-150.000
217.72	0.000
218.09	-150.000
218.47	-275.000
218.84	0.000
219.22	40.000
219.59	11.765
219.97	-25.000
220.34	1350.000
220.72	-44.444
221.09	-7.692
221.47	-200.000
221.84	40.000
222.22	-157.143
222.59	0.000
222.97	-75.000
223.34	-60.000
223.72	-200.000
224.09	-275.000
224.46	-25.000
224.84	0.000
225.21	-128.571
225.59	-300.000
225.96	-175.000
226.34	15.385
226.71	283.333
227.08	-500.000
227.46	-53.333
227.83	-300.000
228.21	-21.053
228.58	-0.000
228.95	700.000
229.33	-41.667
229.70	-100.000
230.08	52.632
230.45	70.000
230.82	-233.333
231.20	14.286
231.57	0.000
231.95	-36.364
232.32	36.364
232.69	40.000
233.07	100.000
233.44	11.765
233.81	-70.000
234.19	-16.667
234.56	18.182
234.93	3.448
235.31	10.526
235.68	-5.556
236.05	-80.000
236.43	11.538
236.80	40.000
237.17	-14.815
237.55	6.061
237.92	-150.000
238.29	-12.903
238.67	-6.818
239.04	-19.444
239.41	0.000
239.79	0.000
240.16	-7.407
240.53	-10.870
240.91	-23.529
241.28	4.918
241.65	13.433
242.02	-9.459
242.40	-6.154
242.77	5.333
243.14	2.439
243.51	-9.211
243.89	-15.385
244.26	0.990
244.63	3.922
245.00	1.869
245.38	-7.018
245.75	-12.389
246.12	7.143
246.49	3.876
246.87	6.429
247.24	5.960
247.61	7.895
247.98	2.013
248.36	1.852
248.73	0.000
249.10	4.918
249.47	8.458
249.84	5.236
250.22	-2.073
250.59	5.000
250.96	2.727
251.33	-3.571
251.70	2.564
252.08	6.250
252.45	4.918
252.82	1.653
253.19	1.563
253.56	3.422
253.94	-2.308
254.31	-0.379
254.68	5.245
255.05	4.560
255.42	4.082
255.79	0.324
256.16	2.980
256.54	0.993
256.91	4.590
257.28	1.639
257.65	0.000
258.02	-0.885
258.39	6.838
258.76	6.116
259.14	5.460
259.51	5.764
259.88	3.116
260.25	0.833
260.62	7.397
260.99	4.645
261.36	4.558
261.73	0.796
262.10	2.198
262.47	4.021
262.85	6.818
263.22	0.779
263.59	0.000
263.96	1.279
264.33	2.558
264.70	4.691
265.07	5.967
265.44	7.710
265.81	2.778
266.18	4.989
266.55	2.679
266.92	1.595
267.29	4.814
267.66	4.213
268.03	3.493
268.40	3.340
268.77	1.595
269.14	3.084
269.51	3.728
269.88	4.303
270.25	5.634
270.62	5.274
270.99	6.465
271.36	5.743
271.73	6.483
272.10	4.208
272.47	4.208
272.84	3.213
273.21	2.204
273.58	4.032
273.95	3.269
274.32	3.612
274.69	3.675
275.06	5.311
275.43	3.697
275.80	5.644
276.17	2.407
276.54	3.918
276.91	3.936
277.28	3.617
277.65	4.488
278.02	3.309
278.39	3.986
278.76	2.988
279.13	4.965
279.50	5.326
279.87	4.114
280.23	1.232
280.60	5.593
280.97	2.796
281.34	3.565
281.71	4.569
282.08	4.485
282.45	3.601
282.82	3.768
283.19	2.908
283.56	3.279
283.92	4.805
284.29	4.581
284.66	4.926
285.03	2.724
285.40	3.555
285.77	4.489
286.14	3.969
286.51	4.718
286.87	2.686
287.24	3.916
287.61	5.830
287.98	4.079
288.35	3.698
288.72	2.811
289.08	5.564
289.45	3.698
289.82	3.614
290.19	3.879
290.56	4.507
290.93	2.568
291.29	3.719
291.66	3.581
292.03	3.664
292.40	4.218
292.77	3.369
293.13	2.571
293.50	2.891
293.87	4.161
294.24	4.800
294.60	5.563
294.97	2.013
295.34	5.378
295.71	3.783
296.08	2.584
296.44	4.167
296.81	3.532
297.18	3.487
297.55	3.184
297.91	4.152
298.28	2.488
298.65	3.448
299.02	3.896
299.38	3.661
299.75	3.505
300.12	2.546
300.48	3.687
300.85	3.825
301.22	4.139
301.59	3.196
301.95	4.068
302.32	3.778
302.69	3.614
303.05	3.808
303.42	3.880
303.79	4.062
304.15	3.049
304.52	2.960
304.89	3.665
305.25	3.209
305.62	3.448
305.99	2.887
306.35	2.722
306.72	4.033
307.09	2.132
307.45	3.934
307.82	3.532
308.19	2.624
308.55	3.279
308.92	3.505
309.29	3.736
309.65	2.827
310.02	2.574
310.38	3.346
310.75	2.718
311.12	3.260
311.48	3.617
311.85	3.039
312.22	2.941
312.58	4.038
312.95	2.964
313.31	4.607
313.68	4.670
314.05	4.426
314.41	4.645
314.78	3.906
315.14	4.265
315.51	3.970
315.87	3.960
316.24	4.384
316.61	4.440
316.97	4.072
317.34	3.527
317.70	4.629
318.07	4.145
318.43	4.592
318.80	5.686
319.16	3.948
319.53	3.342
319.89	4.470
320.26	4.537
320.62	4.699
320.99	4.247
321.35	4.621
321.72	4.558
322.08	4.328
322.45	4.155
322.81	4.422
323.18	4.602
323.54	5.172
323.91	4.626
324.27	5.336
324.64	5.206
325.00	5.307
325.37	5.078
325.73	6.033
326.10	6.002
326.46	5.782
326.83	6.485
327.19	6.299
327.56	6.403
327.92	5.744
328.29	5.887
328.65	5.444
329.01	6.176
329.38	6.824
329.74	6.764
330.11	7.363
330.47	6.908
330.84	7.321
331.20	7.417
331.56	7.192
331.93	7.280
332.29	8.051
332.66	7.641
333.02	6.868
333.38	6.711
333.75	6.734
334.11	6.339
334.48	7.756
334.84	7.562
335.20	7.389
335.57	6.661
335.93	6.860
336.29	6.073
336.66	6.728
337.02	6.605
337.38	7.398
337.75	7.355
338.11	7.317
338.47	6.948
338.84	7.614
339.20	6.150
339.56	7.578
339.93	6.650
340.29	7.729
340.65	6.975
341.02	8.061
341.38	8.650
341.74	6.860
342.11	7.482
342.47	7.149
342.83	7.729
343.20	7.032
343.56	6.736
343.92	7.526
344.28	7.109
344.65	8.140
345.01	7.644
345.37	6.998
345.73	6.547
346.10	7.254
346.46	6.804
346.82	7.715
347.19	8.174
347.55	8.270
347.91	8.024
348.27	7.132
348.63	8.073
349.00	6.711
349.36	7.658
349.72	7.589
350.08	7.875
350.45	6.844
350.81	7.240
351.17	6.992
351.53	7.657
351.89	7.517
352.26	7.388
352.62	6.493
352.98	7.557
353.34	7.618
353.70	6.549
354.07	7.377
354.43	7.669
354.79	6.806
355.15	7.432
355.51	8.480
355.87	7.330
356.24	8.289
356.60	7.613
356.96	6.597
357.32	7.063
357.68	7.028
358.04	6.662
358.40	7.164
358.77	8.333
359.13	6.573
359.49	5.948
359.85	7.542
360.21	7.819
360.57	7.035
360.93	7.264
361.29	7.509
361.66	6.807
362.02	8.281
362.38	7.168
362.74	7.053
363.10	7.497
363.46	7.618
363.82	7.173
364.18	7.741
364.54	7.884
364.90	7.625
365.26	6.069
365.62	8.667
365.98	7.352
366.35	7.248
366.71	7.619
367.07	7.713
367.43	7.879
367.79	8.029
368.15	7.090
368.51	7.307
368.87	8.426
369.23	8.067
369.59	7.309
369.95	7.843
370.31	8.103
370.67	8.322
371.03	7.964
371.39	7.186
371.75	8.047
372.11	7.249
372.47	7.583
372.83	8.246
373.19	8.072
373.55	8.401
373.91	6.612
374.27	7.956
374.63	7.781
374.99	7.162
375.35	7.792
375.71	8.129
376.07	7.941
376.42	7.935
376.78	8.639
377.14	7.486
377.50	8.349
377.86	8.621
378.22	7.186
378.58	8.086
378.94	8.157
379.30	7.733
379.66	7.760
380.02	7.848
380.38	7.949
380.74	8.169
381.09	8.246
381.45	8.182
381.81	8.724
382.17	8.373
382.53	8.480
382.89	8.352
383.25	8.382
383.61	7.755
383.97	7.774
384.32	8.074
384.68	8.179
385.04	9.312
385.40	9.193
385.76	9.027
386.12	8.677
386.48	8.294
386.83	8.284
387.19	8.111
387.55	8.099
387.91	8.219
388.27	8.603
388.62	8.591
388.98	8.291
389.34	8.309
389.70	8.658
390.06	7.342
390.42	7.771
390.77	8.549
391.13	8.099
391.49	8.696
391.85	8.121
392.20	8.956
392.56	9.273
392.92	8.561
393.28	7.739
393.64	8.659
393.99	8.600
394.35	8.820
394.71	8.743
395.07	8.263
395.42	8.053
395.78	9.324
396.14	8.734
396.50	8.610
396.85	9.123
397.21	8.343
397.57	8.834
397.92	8.706
398.28	8.365
398.64	8.295
399.00	8.429
399.35	8.429
399.71	9.130
400.07	9.096
400.42	8.906
400.78	9.433
401.14	9.334
401.49	8.755
401.85	8.140
402.21	9.386
402.57	9.742
402.92	9.043
403.28	8.314
403.63	8.890
403.99	8.432
404.35	8.982
404.70	8.895
405.06	8.207
405.42	9.133
405.77	8.942
406.13	9.130
406.49	9.291
406.84	9.418
407.20	9.335
407.55	8.601
407.91	9.114
408.27	9.600
408.62	9.133
408.98	8.822
409.34	8.270
409.69	8.900
410.05	9.144
410.40	9.165
410.76	9.086
411.11	8.767
411.47	8.968
411.83	10.053
412.18	9.096
412.54	9.306
412.89	8.964
413.25	9.650
413.60	9.707
413.96	9.499
414.31	9.462
414.67	10.256
415.03	9.415
415.38	9.269
415.74	9.224
416.09	9.870
416.45	8.265
416.80	9.853
417.16	9.515
417.51	9.589
417.87	9.442
418.22	10.000
418.58	9.294
418.93	10.361
419.29	8.940
419.64	9.124
420.00	9.792
420.35	8.871
420.71	9.650
421.06	9.661
421.42	9.002
421.77	8.831
422.12	10.307
422.48	9.370
422.83	10.515
423.19	9.761
423.54	9.790
423.90	9.718
424.25	9.120
424.61	9.127
424.96	9.775
425.31	10.563
425.67	9.608
426.02	9.242
426.38	9.472
426.73	9.431
427.09	10.611
427.44	9.503
427.79	9.784
428.15	9.646
428.50	9.494
428.85	10.218
429.21	10.053
429.56	9.378
429.92	9.975
430.27	10.361
430.62	9.819
430.98	10.133
431.33	10.020
431.68	9.531
432.04	10.157
432.39	10.819
432.74	9.932
433.10	10.492
433.45	9.643
433.80	10.247
434.16	10.279
434.51	9.866
434.86	10.098
435.22	11.265
435.57	9.965
435.92	9.905
436.28	10.353
436.63	10.595
436.98	9.877
437.34	9.921
437.69	10.017
438.04	10.947
438.39	9.879
438.75	10.238
439.10	10.677
439.45	11.012
439.81	10.000
440.16	10.080
440.51	11.037
440.86	10.506
441.22	10.182
441.57	11.268
441.92	10.572
442.27	10.808
442.63	11.624
442.98	11.793
443.33	10.889
443.68	11.298
444.03	11.430
444.39	11.512
444.74	10.924
445.09	11.505
445.44	10.695
445.79	12.165
446.15	11.254
446.50	11.059
446.85	11.041
447.20	11.122
447.55	11.715
447.91	11.571
448.26	11.416
448.61	10.840
448.96	12.393
449.31	11.453
449.66	11.275
450.02	11.603
450.37	12.040
450.72	11.195
451.07	10.934
451.42	11.034
451.77	10.839
452.12	11.061
452.47	11.527
452.83	12.162
453.18	11.675
453.53	11.488
453.88	10.988
454.23	11.977
454.58	11.550
454.93	11.650
455.28	11.318
455.63	11.597
455.98	11.676
456.34	11.425
456.69	10.876
457.04	12.116
457.39	11.142
457.74	11.745
458.09	10.599
458.44	12.284
458.79	11.243
459.14	11.641
459.49	11.036
459.84	11.805
460.19	11.049
460.54	11.982
460.89	11.382
461.24	11.552
461.59	12.562
461.94	11.295
462.29	12.710
462.64	11.949
462.99	12.429
463.34	11.616
463.69	11.665
464.04	12.507
464.39	12.052
464.74	12.486
465.09	11.476
465.44	12.232
465.79	12.480
466.14	11.985
466.49	12.684
466.84	12.727
467.19	11.734
467.54	11.986
467.89	12.471
468.24	12.687
468.59	11.233
468.94	11.480
469.29	12.478
469.64	11.380
469.99	13.129
470.34	13.057
470.68	12.372
471.03	12.836
471.38	12.884
471.73	12.484
472.08	12.437
472.43	13.004
472.78	13.350
473.13	12.453
473.48	13.535
473.83	13.117
474.17	12.896
474.52	12.989
474.87	13.621
475.22	12.901
475.57	12.980
475.92	13.091
476.27	13.472
476.61	13.240
476.96	12.461
477.31	13.317
477.66	13.694
478.01	14.133
478.36	13.210
478.70	12.857
479.05	13.395
479.40	14.067
479.75	13.641
480.10	13.501
480.45	13.355
480.79	13.968
481.14	13.465
481.49	13.221
481.84	13.577
482.19	13.720
482.53	13.730
482.88	13.735
483.23	13.473
483.58	14.017
483.92	13.874
484.27	13.929
484.62	13.779
484.97	14.075
485.31	13.164
485.66	12.746
486.01	12.502
486.36	12.598
486.70	13.680
487.05	13.609
487.40	13.606
487.75	13.562
488.09	14.060
488.44	13.471
488.79	13.963
489.13	13.867
489.48	13.282
489.83	13.722
490.17	13.406
490.52	14.039
490.87	14.129
491.22	13.605
491.56	14.164
491.91	14.086
492.26	14.669
492.60	13.774
492.95	14.173
493.30	14.254
493.64	13.798
493.99	14.254
494.34	13.807
494.68	13.704
495.03	14.626
495.37	14.203
495.72	13.923
496.07	14.330
496.41	13.943
496.76	14.595
497.11	14.013
497.45	13.940
497.80	14.838
498.14	14.059
498.49	14.246
498.84	14.671
499.18	14.665
499.53	14.619
499.87	14.374
500.22	13.980
500.56	14.530
500.91	15.149
501.26	15.364
501.60	14.141
501.95	15.502
502.29	14.612
502.64	15.348
502.98	14.754
503.33	14.384
503.67	14.522
504.02	15.061
504.36	15.282
504.71	14.929
505.06	14.870
505.40	14.899
505.75	15.437
506.09	15.516
506.44	15.970
506.78	16.468
507.13	15.768
507.47	15.680
507.82	15.956
508.16	15.488
508.51	15.518
508.85	16.627
509.19	16.485
509.54	16.427
509.88	16.416
510.23	17.241
510.57	17.061
510.92	16.981
511.26	16.643
511.61	16.948
511.95	16.886
512.30	17.430
512.64	17.441
512.98	17.309
513.33	17.692
513.67	17.338
514.02	17.322
514.36	18.465
514.70	18.229
515.05	18.040
515.39	18.425
515.74	18.823
516.08	18.489
516.42	20.042
516.77	19.295
517.11	18.308
517.46	18.664
517.80	18.920
518.14	18.988
518.49	19.414
518.83	19.266
519.17	19.440
519.52	18.658
519.86	19.905
520.20	19.862
520.55	20.318
520.89	19.764
521.23	19.821
521.58	19.266
521.92	19.433
522.26	19.359
522.61	20.370
522.95	19.839
523.29	19.425
523.64	20.796
523.98	21.563
524.32	20.745
524.66	20.091
525.01	20.612
525.35	20.678
525.69	20.302
526.04	20.264
526.38	20.977
526.72	20.300
527.06	21.466
527.41	21.050
527.75	21.318
528.09	21.133
528.43	21.314
528.78	20.173
529.12	21.101
529.46	20.405
529.80	21.510
530.15	21.217
530.49	21.174
530.83	20.779
531.17	21.804
531.51	22.262
531.86	21.695
532.20	22.866
532.54	21.484
532.88	21.030
533.22	22.098
533.57	21.696
533.91	22.447
534.25	21.877
534.59	22.701
534.93	22.241
535.27	21.577
535.62	22.854
535.96	21.964
536.30	21.915
536.64	22.583
536.98	22.325
537.32	23.148
537.66	23.456
538.01	21.752
538.35	22.229
538.69	21.154
539.03	22.685
539.37	22.850
539.71	22.763
540.05	22.722
540.39	22.188
540.73	21.797
541.07	22.256
541.42	22.091
541.76	22.005
542.10	21.592
542.44	22.107
542.78	21.898
543.12	22.110
543.46	22.650
543.80	21.523
544.14	22.801
544.48	23.050
544.82	23.579
545.16	23.435
545.50	22.648
545.84	22.413
546.18	23.704
546.52	22.739
546.86	22.138
547.20	22.328
547.54	22.846
547.88	21.760
548.22	21.287
548.56	22.411
548.90	22.567
549.24	23.283
549.58	22.524
549.92	22.066
550.26	23.560
550.60	22.655
550.94	23.286
551.28	22.112
551.62	24.259
551.96	23.560
552.30	23.709
552.64	22.651
552.98	22.520
553.32	23.344
553.66	22.958
554.00	23.644
554.34	24.389
554.68	21.627
555.02	23.390
555.36	24.589
555.69	22.870
556.03	22.699
556.37	23.091
556.71	23.018
557.05	23.323
557.39	22.760
557.73	23.118
558.07	21.788
558.41	23.322
558.75	23.800
559.08	24.426
559.42	22.840
559.76	22.795
560.10	22.773
560.44	23.483
560.78	22.500
561.12	23.214
561.45	24.757
561.79	23.321
562.13	23.290
562.47	21.948
562.81	23.544
563.15	22.917
563.48	23.555
563.82	22.733
564.16	22.774
564.50	22.884
564.84	21.770
565.17	22.941
565.51	22.152
565.85	22.684
566.19	22.465
566.52	22.060
566.86	22.354
567.20	22.349
567.54	22.411
567.88	21.916
568.21	21.887
568.55	21.918
568.89	22.288
569.23	21.926
569.56	21.454
569.90	21.026
570.24	21.113
570.57	20.141
570.91	20.361
571.25	20.856
571.59	20.874
571.92	20.203
572.26	20.196
572.60	20.748
572.93	20.623
573.27	20.792
573.61	20.858
573.95	20.539
574.28	19.855
574.62	20.009
574.96	19.828
575.29	19.982
575.63	19.820
575.97	20.096
576.30	19.985
576.64	19.852
576.98	19.658
577.31	19.777
577.65	19.872
577.98	19.748
578.32	19.360
578.66	19.695
578.99	19.762
579.33	20.098
579.67	19.923
580.00	19.802
580.34	20.201
580.67	20.234
581.01	20.273
581.35	19.774
581.68	19.627
582.02	19.332
582.35	19.911
582.69	19.689
583.02	20.034
583.36	20.189
583.70	20.382
584.03	19.846
584.37	20.390
584.70	19.902
585.04	20.042
585.37	20.106
585.71	19.612
586.04	19.947
586.38	20.404
586.72	19.880
587.05	20.031
587.39	20.319
587.72	19.856
588.06	20.164
588.39	20.538
588.73	20.291
589.06	20.429
589.40	20.344
589.73	20.341
590.07	20.955
590.40	21.366
590.73	20.643
591.07	21.445
591.40	21.384
591.74	21.463
592.07	21.559
592.41	20.820
592.74	20.873
593.08	21.083
593.41	20.210
593.75	19.828
594.08	20.872
594.41	20.833
594.75	20.027
595.08	20.760
595.42	20.942
595.75	20.601
596.09	20.874
596.42	20.674
596.75	21.420
597.09	21.576
597.42	21.494
597.75	20.855
598.09	21.190
598.42	21.391
598.76	20.099
599.09	20.684
599.42	19.745
599.76	20.700
600.09	20.153
600.42	20.554
600.76	20.145
601.09	20.544
601.42	20.666
601.76	20.621
602.09	21.015
602.42	20.174
602.76	20.775
603.09	21.256
603.42	20.845
603.76	20.684
604.09	20.688
604.42	20.881
604.76	21.043
605.09	21.141
605.42	20.933
605.75	20.962
606.09	20.119
606.42	20.503
606.75	20.127
607.09	20.161
607.42	20.925
607.75	20.281
608.08	20.403
608.42	20.677
608.75	21.186
609.08	20.968
609.41	20.909
609.75	21.518
610.08	20.668
610.41	20.561
610.74	20.378
611.07	21.492
611.41	20.807
611.74	20.970
612.07	21.038
612.40	20.675
612.73	21.565
613.07	20.587
613.40	21.126
613.73	20.944
614.06	21.688
614.39	20.019
614.72	21.009
615.06	20.404
615.39	20.590
615.72	21.232
616.05	20.884
616.38	21.292
616.71	20.899
617.05	21.353
617.38	22.204
617.71	21.922
618.04	20.831
618.37	22.404
618.70	21.210
619.03	20.968
619.36	22.565
619.69	21.845
620.03	21.908
620.36	21.902
620.69	20.913
621.02	22.572
621.35	23.077
621.68	22.849
622.01	22.278
622.34	21.618
622.67	22.131
623.00	20.918
623.33	21.898
623.66	22.179
623.99	20.935
624.32	22.677
624.65	22.136
624.99	22.887
625.32	22.208
625.65	22.589
625.98	21.492
626.31	22.041
626.64	22.711
626.97	21.080
627.30	20.805
627.63	22.131
627.96	23.423
628.29	22.257
628.62	21.159
628.95	21.998
629.28	21.325
629.61	23.906
629.94	21.674
630.26	21.864
630.59	21.934
630.92	21.212
631.25	23.524
631.58	22.599
631.91	22.587
632.24	23.439
632.57	22.201
632.90	23.069
633.23	23.571
633.56	23.367
633.89	22.211
634.22	24.116
634.55	22.965
634.88	23.377
635.20	25.296
635.53	24.407
635.86	23.944
636.19	24.390
636.52	23.629
636.85	22.983
637.18	22.973
637.51	23.226
637.83	25.471
638.16	25.576
638.49	22.887
638.82	23.788
639.15	21.993
639.48	25.173
639.81	22.748
640.13	23.910
640.46	23.152
640.79	21.201
641.12	23.106
641.45	22.585
641.77	24.134
642.10	22.966
642.43	24.601
642.76	24.526
643.09	24.384
643.41	23.950
643.74	24.552
644.07	24.966
644.40	25.318
