SpectraSuite Data File
++++++++++++++++++++++++++++++++++++
Date: Thu May 14 16:14:16 PDT 2015
User: schluterlab
Dark Spectrum Present: Yes
Reference Spectrum Present: Yes
Number of Sampled Component Spectra: 1
Spectrometers: USB2E3373
Integration Time (usec): 3000 (USB2E3373)
Spectra Averaged: 3 (USB2E3373)
Boxcar Smoothing: 0 (USB2E3373)
Correct for Electrical Dark: No (USB2E3373)
Strobe/Lamp Enabled: No (USB2E3373)
Correct for Detector Non-linearity: No (USB2E3373)
Correct for Stray Light: No (USB2E3373)
Number of Pixels in Processed Spectrum: 2048
>>>>>Begin Processed Spectral Data<<<<<
178.53	0.000
178.91	71.429
179.29	-1000.000
179.67	-1700.000
180.04	135.714
180.42	20.000
180.80	240.000
181.18	-500.000
181.56	700.000
181.94	150.000
182.31	-100.000
182.69	33.333
183.07	-400.000
183.45	125.000
183.83	-83.333
184.20	-500.000
184.58	600.000
184.96	-225.000
185.34	-66.667
185.72	-200.000
186.09	177.778
186.47	600.000
186.85	260.000
187.23	-22.222
187.61	-1100.000
187.98	100.000
188.36	150.000
188.74	150.000
189.12	-200.000
189.49	25.000
189.87	-12.500
190.25	-33.333
190.63	-120.000
191.00	-88.889
191.38	0.000
191.76	-200.000
192.14	-166.667
192.51	600.000
192.89	-16.667
193.27	0.000
193.65	-114.286
194.02	-500.000
194.40	-57.143
194.78	14.286
195.15	0.000
195.53	9.091
195.91	0.000
196.29	-150.000
196.66	-23.077
197.04	-300.000
197.42	-42.857
197.79	-650.000
198.17	-100.000
198.55	-28.571
198.92	44.444
199.30	-25.000
199.68	72.727
200.05	21.429
200.43	-450.000
200.81	171.429
201.18	0.000
201.56	133.333
201.94	0.000
202.31	200.000
202.69	-33.333
203.07	200.000
203.44	-22.222
203.82	-50.000
204.19	75.000
204.57	-166.667
204.95	-50.000
205.32	-800.000
205.70	175.000
206.08	-116.667
206.45	50.000
206.83	300.000
207.20	0.000
207.58	-140.000
207.96	-133.333
208.33	83.333
208.71	91.667
209.08	-83.333
209.46	0.000
209.84	150.000
210.21	550.000
210.59	400.000
210.96	400.000
211.34	-50.000
211.71	-125.000
212.09	-700.000
212.46	0.000
212.84	950.000
213.22	-240.000
213.59	100.000
213.97	140.000
214.34	-33.333
214.72	166.667
215.09	-400.000
215.47	0.000
215.84	85.714
216.22	700.000
216.59	-160.000
216.97	180.000
217.34	-275.000
217.72	-50.000
218.09	-225.000
218.47	-275.000
218.84	0.000
219.22	120.000
219.59	5.882
219.97	15.000
220.34	450.000
220.72	-88.889
221.09	15.385
221.47	166.667
221.84	-110.000
222.22	-71.429
222.59	0.000
222.97	-25.000
223.34	60.000
223.72	-800.000
224.09	0.000
224.46	-450.000
224.84	-180.000
225.21	-285.714
225.59	-175.000
225.96	-100.000
226.34	23.077
226.71	300.000
227.08	-350.000
227.46	46.667
227.83	-25.000
228.21	-26.316
228.58	137.500
228.95	150.000
229.33	91.667
229.70	-80.000
230.08	-10.526
230.45	30.000
230.82	-100.000
231.20	0.000
231.57	-25.000
231.95	-36.364
232.32	9.091
232.69	-40.000
233.07	-50.000
233.44	23.529
233.81	0.000
234.19	5.556
234.56	-9.091
234.93	17.241
235.31	5.263
235.68	38.889
236.05	-5.000
236.43	19.231
236.80	8.000
237.17	0.000
237.55	-6.061
237.92	-90.000
238.29	-19.355
238.67	9.091
239.04	-5.556
239.41	7.143
239.79	17.391
240.16	-5.556
240.53	0.000
240.91	-5.882
241.28	14.754
241.65	20.896
242.02	21.622
242.40	6.154
242.77	12.000
243.14	-6.098
243.51	5.263
243.89	5.128
244.26	18.812
244.63	7.843
245.00	11.215
245.38	12.281
245.75	0.000
246.12	7.937
246.49	8.527
246.87	14.286
247.24	15.232
247.61	17.763
247.98	11.409
248.36	8.642
248.73	5.521
249.10	10.383
249.47	14.925
249.84	16.754
250.22	10.881
250.59	16.111
250.96	15.909
251.33	12.755
251.70	14.530
252.08	14.167
252.45	13.525
252.82	12.810
253.19	14.062
253.56	12.548
253.94	13.462
254.31	15.909
254.68	18.182
255.05	16.938
255.42	13.265
255.79	10.680
256.16	12.252
256.54	12.914
256.91	16.066
257.28	13.770
257.65	14.650
258.02	12.094
258.39	13.675
258.76	17.431
259.14	17.816
259.51	15.562
259.88	13.598
260.25	14.722
260.62	16.164
260.99	16.940
261.36	14.477
261.73	16.976
262.10	14.560
262.47	15.550
262.85	15.152
263.22	15.065
263.59	12.368
263.96	15.857
264.33	13.299
264.70	16.543
265.07	16.706
265.44	16.327
265.81	15.046
266.18	15.646
266.55	13.839
266.92	15.262
267.29	16.630
267.66	12.417
268.03	15.721
268.40	15.031
268.77	10.706
269.14	12.555
269.51	14.693
269.88	15.369
270.25	14.889
270.62	16.034
270.99	17.778
271.36	17.426
271.73	13.752
272.10	16.633
272.47	15.230
272.84	15.462
273.21	15.631
273.58	14.315
273.95	15.385
274.32	14.829
274.69	12.766
275.06	14.286
275.43	13.494
275.80	14.991
276.17	14.259
276.54	14.366
276.91	11.628
277.28	16.817
277.65	15.799
278.02	15.625
278.39	15.942
278.76	16.520
279.13	15.248
279.50	17.526
279.87	13.953
280.23	12.676
280.60	16.102
280.97	14.474
281.34	14.771
281.71	15.905
282.08	14.950
282.45	14.239
282.82	14.286
283.19	13.247
283.56	14.098
283.92	15.015
284.29	15.166
284.66	15.928
285.03	14.103
285.40	13.447
285.77	13.777
286.14	15.878
286.51	13.699
286.87	13.744
287.24	14.910
287.61	13.752
287.98	12.236
288.35	14.941
288.72	13.166
289.08	15.227
289.45	13.609
289.82	12.952
290.19	13.506
290.56	14.085
290.93	14.265
291.29	13.499
291.66	12.397
292.03	12.212
292.40	13.605
292.77	12.938
293.13	12.991
293.50	10.907
293.87	13.423
294.24	13.333
294.60	12.895
294.97	11.678
295.34	14.725
295.71	9.962
296.08	11.111
296.44	12.745
296.81	13.033
297.18	12.080
297.55	10.731
297.91	11.744
298.28	11.019
298.65	10.702
299.02	9.563
299.38	12.357
299.75	10.280
300.12	10.417
300.48	10.599
300.85	12.261
301.22	11.186
301.59	10.731
301.95	12.429
302.32	11.000
302.69	9.967
303.05	11.208
303.42	10.421
303.79	9.792
304.15	10.410
304.52	9.197
304.89	10.785
305.25	10.041
305.62	10.136
305.99	10.825
306.35	11.391
306.72	10.238
307.09	10.355
307.45	10.663
307.82	10.898
308.19	9.485
308.55	11.283
308.92	10.808
309.29	11.015
309.65	9.064
310.02	10.891
310.38	10.236
310.75	9.223
311.12	11.026
311.48	9.873
311.85	10.446
312.22	9.867
312.58	9.859
312.95	8.700
313.31	10.569
313.68	11.447
314.05	10.840
314.41	10.383
314.78	10.990
315.14	11.162
315.51	10.434
315.87	10.891
316.24	10.868
316.61	10.568
316.97	10.769
317.34	10.229
317.70	10.917
318.07	10.317
318.43	11.139
318.80	11.538
319.16	9.957
319.53	9.769
319.89	9.991
320.26	10.320
320.62	9.574
320.99	9.603
321.35	9.612
321.72	11.721
322.08	10.280
322.45	10.569
322.81	10.379
323.18	9.558
323.54	10.086
323.91	10.320
324.27	10.069
324.64	10.999
325.00	10.531
325.37	11.220
325.73	10.909
326.10	11.436
326.46	11.726
326.83	12.490
327.19	10.551
327.56	12.016
327.92	10.936
328.29	11.048
328.65	10.972
329.01	10.829
329.38	11.289
329.74	12.243
330.11	11.644
330.47	10.952
330.84	11.370
331.20	12.500
331.56	11.698
331.93	11.464
332.29	11.780
332.66	11.960
333.02	10.720
333.38	11.326
333.75	11.616
334.11	10.676
334.48	11.221
334.84	11.725
335.20	11.839
335.57	12.142
335.93	11.488
336.29	10.815
336.66	10.597
337.02	10.870
337.38	10.884
337.75	9.256
338.11	11.270
338.47	11.001
338.84	11.337
339.20	10.025
339.56	10.132
339.93	10.837
340.29	11.514
340.65	10.381
341.02	11.253
341.38	11.075
341.74	11.138
342.11	11.022
342.47	10.802
342.83	11.433
343.20	10.793
343.56	11.067
343.92	10.729
344.28	10.547
344.65	10.775
345.01	10.218
345.37	10.264
345.73	9.743
346.10	10.452
346.46	11.076
346.82	11.086
347.19	11.154
347.55	10.470
347.91	10.475
348.27	10.622
348.63	11.043
349.00	10.067
349.36	10.855
349.72	11.161
350.08	10.253
350.45	9.734
350.81	10.483
351.17	10.451
351.53	9.553
351.89	10.478
352.26	10.746
352.62	11.045
352.98	10.916
353.34	10.306
353.70	11.171
354.07	10.879
354.43	10.099
354.79	9.723
355.15	10.081
355.51	10.673
355.87	9.798
356.24	10.722
356.60	10.052
356.96	10.600
357.32	9.888
357.68	10.249
358.04	9.731
358.40	9.776
358.77	10.380
359.13	9.453
359.49	9.665
359.85	9.645
360.21	9.828
360.57	9.476
360.93	9.520
361.29	10.246
361.66	10.282
362.02	11.482
362.38	10.260
362.74	9.497
363.10	10.729
363.46	10.111
363.82	8.949
364.18	10.134
364.54	9.474
364.90	10.033
365.26	9.517
365.62	10.667
365.98	9.735
366.35	9.933
366.71	9.796
367.07	10.149
367.43	9.980
367.79	10.219
368.15	9.498
368.51	9.540
368.87	10.255
369.23	8.933
369.59	9.495
369.95	9.872
370.31	10.601
370.67	10.316
371.03	10.526
371.39	9.738
371.75	9.697
372.11	11.247
372.47	9.885
372.83	10.275
373.19	9.139
373.55	9.824
373.91	8.725
374.27	9.573
374.63	10.217
374.99	9.416
375.35	9.870
375.71	9.161
376.07	9.813
376.42	10.202
376.78	11.001
377.14	9.981
377.50	9.488
377.86	10.653
378.22	10.359
378.58	10.285
378.94	9.331
379.30	9.725
379.66	9.347
380.02	10.098
380.38	9.389
380.74	9.803
381.09	9.640
381.45	9.773
381.81	10.070
382.17	10.154
382.53	9.766
382.89	10.440
383.25	9.203
383.61	8.912
383.97	9.423
384.32	9.809
384.68	8.643
385.04	9.601
385.40	10.136
385.76	9.965
386.12	8.917
386.48	9.706
386.83	8.939
387.19	9.849
387.55	9.859
387.91	9.932
388.27	9.353
388.62	9.393
388.98	9.137
389.34	9.252
389.70	10.227
390.06	9.947
390.42	9.096
390.77	10.114
391.13	9.566
391.49	9.783
391.85	9.636
392.20	9.193
392.56	9.687
392.92	9.433
393.28	9.729
393.64	9.721
393.99	9.820
394.35	9.988
394.71	10.419
395.07	9.102
395.42	9.252
395.78	10.177
396.14	9.269
396.50	9.086
396.85	9.541
397.21	9.941
397.57	10.071
397.92	9.908
398.28	8.474
398.64	9.153
399.00	9.424
399.35	9.895
399.71	9.457
400.07	9.657
400.42	9.488
400.78	9.722
401.14	9.448
401.49	9.721
401.85	9.360
402.21	9.444
402.57	9.977
402.92	10.757
403.28	9.016
403.63	9.069
403.99	8.789
404.35	9.608
404.70	9.575
405.06	9.565
405.42	9.309
405.77	9.542
406.13	9.454
406.49	9.459
406.84	9.751
407.20	9.223
407.55	9.449
407.91	9.428
408.27	9.364
408.62	9.715
408.98	9.344
409.34	8.328
409.69	9.333
410.05	9.848
410.40	9.861
410.76	9.534
411.11	9.585
411.47	9.091
411.83	9.641
412.18	10.361
412.54	9.959
412.89	9.197
413.25	9.650
413.60	9.190
413.96	9.790
414.31	9.745
414.67	10.018
415.03	9.846
415.38	9.647
415.74	9.713
416.09	9.192
416.45	8.704
416.80	9.119
417.16	9.387
417.51	10.025
417.87	9.687
418.22	9.641
418.58	9.603
418.93	9.546
419.29	8.693
419.64	9.424
420.00	8.902
420.35	9.433
420.71	9.477
421.06	9.718
421.42	9.805
421.77	8.831
422.12	9.989
422.48	9.524
422.83	10.077
423.19	9.655
423.54	9.513
423.90	9.221
424.25	9.867
424.61	8.611
424.96	8.677
425.31	9.713
425.67	9.179
426.02	9.795
426.38	9.529
426.73	8.482
427.09	10.669
427.44	9.831
427.79	9.784
428.15	8.505
428.50	9.775
428.85	9.127
429.21	9.734
429.56	9.674
429.92	9.435
430.27	9.639
430.62	9.868
430.98	9.001
431.33	9.286
431.68	9.626
432.04	10.056
432.39	8.891
432.74	9.075
433.10	9.410
433.45	8.974
433.80	10.247
434.16	9.039
434.51	9.301
434.86	9.826
435.22	9.352
435.57	10.083
435.92	9.349
436.28	9.613
436.63	10.158
436.98	10.091
437.34	9.639
437.69	9.631
438.04	9.519
438.39	9.937
438.75	9.519
439.10	10.201
439.45	10.061
439.81	9.774
440.16	9.920
440.51	9.978
440.86	9.839
441.22	9.593
441.57	9.696
441.92	10.233
442.27	10.000
442.63	9.737
442.98	10.245
443.33	9.995
443.68	10.109
444.03	10.489
444.39	10.495
444.74	10.107
445.09	9.883
445.44	10.063
445.79	9.579
446.15	9.712
446.50	10.646
446.85	9.679
447.20	10.010
447.55	10.199
447.91	10.419
448.26	10.042
448.61	10.149
448.96	10.247
449.31	9.650
449.66	9.858
450.02	10.285
450.37	10.069
450.72	9.795
451.07	10.080
451.42	10.110
451.77	9.839
452.12	9.594
452.47	10.160
452.83	10.867
453.18	10.333
453.53	10.454
453.88	10.381
454.23	9.774
454.58	10.099
454.93	9.466
455.28	10.536
455.63	11.086
455.98	10.168
456.34	10.777
456.69	9.641
457.04	9.220
457.39	9.978
457.74	10.179
458.09	10.489
458.44	10.075
458.79	9.696
459.14	9.754
459.49	9.621
459.84	9.969
460.19	9.328
460.54	10.051
460.89	9.952
461.24	10.172
461.59	10.017
461.94	9.641
462.29	10.078
462.64	10.320
462.99	10.169
463.34	10.837
463.69	10.903
464.04	10.895
464.39	10.202
464.74	9.977
465.09	10.323
465.44	9.227
465.79	10.524
466.14	10.005
466.49	10.895
466.84	10.138
467.19	11.040
467.54	9.636
467.89	9.828
468.24	10.249
468.59	9.323
468.94	10.198
469.29	10.018
469.64	10.362
469.99	10.134
470.34	10.520
470.68	10.185
471.03	10.347
471.38	9.483
471.73	9.818
472.08	10.025
472.43	10.235
472.78	10.831
473.13	9.545
473.48	10.876
473.83	10.737
474.17	10.492
474.52	9.982
474.87	10.299
475.22	11.155
475.57	10.177
475.92	10.801
476.27	9.265
476.61	10.540
476.96	9.906
477.31	10.545
477.66	10.598
478.01	10.524
478.36	10.219
478.70	10.493
479.05	10.020
479.40	10.958
479.75	10.567
480.10	9.806
480.45	10.210
480.79	10.884
481.14	9.972
481.49	9.950
481.84	10.879
482.19	10.065
482.53	10.275
482.88	10.545
483.23	10.271
483.58	9.782
483.92	10.062
484.27	9.907
484.62	10.355
484.97	10.653
485.31	10.313
485.66	10.019
486.01	9.584
486.36	9.904
486.70	10.180
487.05	10.539
487.40	10.471
487.75	10.560
488.09	10.087
488.44	10.265
488.79	10.793
489.13	10.463
489.48	10.058
489.83	10.342
490.17	10.409
490.52	10.181
490.87	10.448
491.22	10.572
491.56	10.452
491.91	10.379
492.26	10.428
492.60	10.188
492.95	10.048
493.30	10.264
493.64	10.556
493.99	10.526
494.34	10.322
494.68	9.722
495.03	10.088
495.37	10.475
495.72	9.705
496.07	11.043
496.41	10.425
496.76	10.884
497.11	9.809
497.45	10.531
497.80	10.795
498.14	10.340
498.49	10.248
498.84	10.238
499.18	10.391
499.53	10.583
499.87	10.945
500.22	10.018
500.56	10.121
500.91	10.526
501.26	11.045
501.60	10.075
501.95	10.421
502.29	11.145
502.64	10.582
502.98	10.958
503.33	10.497
503.67	9.725
504.02	10.377
504.36	10.947
504.71	10.932
505.06	11.050
505.40	10.512
505.75	10.747
506.09	11.004
506.44	9.517
506.78	11.009
507.13	11.249
507.47	10.516
507.82	11.080
508.16	10.373
508.51	11.205
508.85	10.723
509.19	10.943
509.54	11.527
509.88	10.636
510.23	11.219
510.57	11.455
510.92	10.692
511.26	10.390
511.61	9.947
511.95	10.395
512.30	10.832
512.64	10.395
512.98	10.955
513.33	11.089
513.67	10.556
514.02	10.833
514.36	11.355
514.70	10.625
515.05	10.949
515.39	10.551
515.74	10.498
516.08	10.882
516.42	12.036
516.77	11.882
517.11	10.521
517.46	11.506
517.80	11.170
518.14	11.534
518.49	11.388
518.83	10.963
519.17	10.716
519.52	11.268
519.86	11.616
520.20	11.768
520.55	11.336
520.89	11.205
521.23	11.837
521.58	11.130
521.92	11.331
522.26	10.825
522.61	11.806
522.95	11.015
523.29	11.034
523.64	11.435
523.98	11.352
524.32	12.665
524.66	10.757
525.01	11.552
525.35	10.913
525.69	11.253
526.04	11.137
526.38	11.609
526.72	11.303
527.06	10.792
527.41	11.195
527.75	12.055
528.09	11.275
528.43	12.256
528.78	10.636
529.12	11.239
529.46	10.680
529.80	11.327
530.15	11.304
530.49	10.558
530.83	11.393
531.17	11.708
531.51	11.552
531.86	11.599
532.20	11.524
532.54	11.430
532.88	11.212
533.22	11.844
533.57	11.598
533.91	11.336
534.25	11.928
534.59	11.724
534.93	11.319
535.27	10.930
535.62	11.939
535.96	11.156
536.30	11.398
536.64	11.592
536.98	11.808
537.32	12.099
537.66	11.728
538.01	11.782
538.35	11.449
538.69	10.757
539.03	11.588
539.37	11.837
539.71	11.652
540.05	12.230
540.39	11.125
540.73	11.293
541.07	11.711
541.42	11.341
541.76	11.388
542.10	11.821
542.44	10.901
542.78	11.010
543.12	11.800
543.46	11.233
543.80	11.391
544.14	11.849
544.48	11.820
544.82	11.909
545.16	12.045
545.50	11.983
545.84	11.145
546.18	12.901
546.52	11.465
546.86	12.075
547.20	11.069
547.54	11.486
547.88	10.970
548.22	11.579
548.56	11.352
548.90	11.881
549.24	11.429
549.58	11.293
549.92	11.543
550.26	11.586
550.60	11.678
550.94	11.643
551.28	12.145
551.62	12.871
551.96	12.168
552.30	12.620
552.64	11.637
552.98	11.229
553.32	11.318
553.66	11.961
554.00	11.602
554.34	11.261
554.68	10.846
555.02	12.878
555.36	11.637
555.69	10.570
556.03	11.602
556.37	12.078
556.71	12.112
557.05	11.821
557.39	11.812
557.73	11.691
558.07	11.722
558.41	12.359
558.75	11.697
559.08	12.387
559.42	11.866
559.76	13.026
560.10	11.721
560.44	12.005
560.78	11.750
561.12	11.268
561.45	11.436
561.79	12.943
562.13	12.323
562.47	11.036
562.81	11.392
563.15	11.553
563.48	11.995
563.82	11.366
564.16	11.448
564.50	12.574
564.84	11.445
565.17	11.294
565.51	11.162
565.85	11.045
566.19	12.039
566.52	12.171
566.86	12.054
567.20	11.474
567.54	10.993
567.88	11.162
568.21	11.660
568.55	11.127
568.89	11.484
569.23	11.787
569.56	11.333
569.90	11.190
570.24	10.995
570.57	10.648
570.91	10.655
571.25	11.021
571.59	11.133
571.92	11.167
572.26	10.667
572.60	11.057
572.93	11.383
573.27	10.846
573.61	10.985
573.95	10.731
574.28	11.025
574.62	10.778
574.96	10.895
575.29	10.795
575.63	11.296
575.97	11.257
576.30	10.733
576.64	11.143
576.98	10.729
577.31	11.104
577.65	10.834
577.98	10.655
578.32	10.443
578.66	10.743
578.99	10.834
579.33	11.183
579.67	10.675
580.00	10.969
580.34	11.082
580.67	10.547
581.01	10.731
581.35	10.657
581.68	10.594
582.02	10.977
582.35	10.572
582.69	10.982
583.02	10.951
583.36	10.947
583.70	11.134
584.03	10.823
584.37	10.911
584.70	10.733
585.04	10.370
585.37	10.782
585.71	10.593
586.04	10.942
586.38	10.933
586.72	10.679
587.05	10.437
587.39	10.671
587.72	10.837
588.06	10.880
588.39	10.854
588.73	10.820
589.06	10.948
589.40	11.186
589.73	11.118
590.07	11.041
590.40	11.325
590.73	10.640
591.07	11.318
591.40	11.003
591.74	11.208
592.07	11.896
592.41	11.120
592.74	11.076
593.08	11.369
593.41	11.344
593.75	11.178
594.08	10.936
594.41	11.250
594.75	11.126
595.08	10.902
595.42	11.039
595.75	11.334
596.09	11.183
596.42	11.035
596.75	12.042
597.09	11.556
597.42	11.323
597.75	11.211
598.09	11.786
598.42	11.862
598.76	10.623
599.09	10.894
599.42	11.197
599.76	11.159
600.09	10.944
600.42	11.144
600.76	11.295
601.09	11.251
601.42	11.123
601.76	10.793
602.09	10.865
602.42	10.832
602.76	11.107
603.09	11.344
603.42	11.452
603.76	10.712
604.09	11.568
604.42	11.229
604.76	11.339
605.09	11.687
605.42	11.643
605.75	11.538
606.09	11.198
606.42	11.237
606.75	11.132
607.09	10.714
607.42	11.715
607.75	11.645
608.08	11.326
608.42	11.850
608.75	11.360
609.08	10.951
609.41	10.719
609.75	10.714
610.08	10.950
610.41	11.130
610.74	11.008
611.07	11.057
611.41	11.659
611.74	11.409
612.07	11.173
612.40	11.312
612.73	11.100
613.07	11.736
613.40	11.357
613.73	11.314
614.06	11.531
614.39	11.808
614.72	11.548
615.06	11.453
615.39	11.068
615.72	11.848
616.05	11.899
616.38	11.453
616.71	11.912
617.05	11.661
617.38	12.360
617.71	11.771
618.04	11.225
618.37	12.404
618.70	11.991
619.03	11.231
619.36	11.406
619.69	11.531
620.03	11.488
620.36	11.902
620.69	11.043
621.02	12.139
621.35	12.337
621.68	12.726
622.01	12.740
622.34	11.367
622.67	12.027
623.00	10.256
623.33	11.413
623.66	11.997
623.99	11.192
624.32	12.346
624.65	11.390
624.99	11.443
625.32	12.149
625.65	12.205
625.98	11.458
626.31	11.765
626.64	11.941
626.97	12.003
627.30	11.617
627.63	11.553
627.96	13.063
628.29	12.840
628.62	11.839
628.95	12.796
629.28	12.574
629.61	12.626
629.94	11.632
630.26	11.864
630.59	11.399
630.92	11.169
631.25	12.970
631.58	13.183
631.91	12.277
632.24	12.008
632.57	12.429
632.90	12.237
633.23	12.959
633.56	14.082
633.89	12.397
634.22	12.786
634.55	13.570
634.88	11.688
635.20	13.563
635.53	13.333
635.86	14.301
636.19	14.528
636.52	13.819
636.85	12.053
637.18	13.929
637.51	12.581
637.83	14.175
638.16	12.903
638.49	12.911
638.82	12.514
639.15	12.371
639.48	13.164
