SpectraSuite Data File
++++++++++++++++++++++++++++++++++++
Date: Thu May 14 16:11:25 PDT 2015
User: schluterlab
Dark Spectrum Present: Yes
Reference Spectrum Present: Yes
Number of Sampled Component Spectra: 1
Spectrometers: USB2E3373
Integration Time (usec): 3000 (USB2E3373)
Spectra Averaged: 3 (USB2E3373)
Boxcar Smoothing: 0 (USB2E3373)
Correct for Electrical Dark: No (USB2E3373)
Strobe/Lamp Enabled: No (USB2E3373)
Correct for Detector Non-linearity: No (USB2E3373)
Correct for Stray Light: No (USB2E3373)
Number of Pixels in Processed Spectrum: 2048
>>>>>Begin Processed Spectral Data<<<<<
178.53	0.000
178.91	128.571
179.29	-2500.000
179.67	-900.000
180.04	150.000
180.42	220.000
180.80	320.000
181.18	-1400.000
181.56	300.000
181.94	300.000
182.31	-125.000
182.69	166.667
183.07	-150.000
183.45	275.000
183.83	-233.333
184.20	-300.000
184.58	800.000
184.96	-200.000
185.34	-22.222
185.72	-180.000
186.09	222.222
186.47	350.000
186.85	300.000
187.23	-111.111
187.61	-800.000
187.98	300.000
188.36	125.000
188.74	-275.000
189.12	0.000
189.49	-43.750
189.87	-237.500
190.25	-66.667
190.63	-300.000
191.00	-155.556
191.38	0.000
191.76	-225.000
192.14	-50.000
192.51	450.000
192.89	-66.667
193.27	0.000
193.65	-157.143
194.02	-1800.000
194.40	-71.429
194.78	85.714
195.15	0.000
195.53	-27.273
195.91	0.000
196.29	75.000
196.66	-38.462
197.04	-600.000
197.42	-128.571
197.79	-350.000
198.17	-150.000
198.55	-200.000
198.92	33.333
199.30	-87.500
199.68	-109.091
200.05	-35.714
200.43	-500.000
200.81	314.286
201.18	0.000
201.56	122.222
201.94	0.000
202.31	566.667
202.69	-233.333
203.07	100.000
203.44	-100.000
203.82	-300.000
204.19	-33.333
204.57	-216.667
204.95	-112.500
205.32	-1300.000
205.70	225.000
206.08	-16.667
206.45	-150.000
206.83	260.000
207.20	-100.000
207.58	-300.000
207.96	-233.333
208.33	-33.333
208.71	108.333
209.08	33.333
209.46	0.000
209.84	216.667
210.21	350.000
210.59	450.000
210.96	400.000
211.34	-150.000
211.71	-100.000
212.09	-600.000
212.46	0.000
212.84	1500.000
213.22	-360.000
213.59	-300.000
213.97	30.000
214.34	-266.667
214.72	133.333
215.09	-175.000
215.47	0.000
215.84	57.143
216.22	700.000
216.59	-300.000
216.97	-200.000
217.34	-125.000
217.72	-50.000
218.09	-225.000
218.47	-275.000
218.84	0.000
219.22	-20.000
219.59	-29.412
219.97	-15.000
220.34	350.000
220.72	-77.778
221.09	30.769
221.47	-100.000
221.84	-90.000
222.22	-114.286
222.59	0.000
222.97	-50.000
223.34	-220.000
223.72	-900.000
224.09	-275.000
224.46	-275.000
224.84	-140.000
225.21	-157.143
225.59	-350.000
225.96	-400.000
226.34	-26.923
226.71	283.333
227.08	-200.000
227.46	-73.333
227.83	-125.000
228.21	21.053
228.58	100.000
228.95	950.000
229.33	-116.667
229.70	-120.000
230.08	52.632
230.45	190.000
230.82	-333.333
231.20	-28.571
231.57	-91.667
231.95	-127.273
232.32	-9.091
232.69	-55.000
233.07	50.000
233.44	-47.059
233.81	-150.000
234.19	-61.111
234.56	-36.364
234.93	-6.897
235.31	-26.316
235.68	-77.778
236.05	-75.000
236.43	19.231
236.80	20.000
237.17	-22.222
237.55	-12.121
237.92	-60.000
238.29	-9.677
238.67	-9.091
239.04	-8.333
239.41	-21.429
239.79	-10.870
240.16	-27.778
240.53	-19.565
240.91	-31.373
241.28	-4.918
241.65	1.493
242.02	1.351
242.40	-21.538
242.77	-4.000
243.14	-3.659
243.51	-14.474
243.89	-26.923
244.26	-6.931
244.63	-13.725
245.00	-11.215
245.38	-3.509
245.75	-7.965
246.12	1.587
246.49	-6.977
246.87	-2.143
247.24	-0.662
247.61	-3.947
247.98	-6.040
248.36	-3.086
248.73	-4.908
249.10	-6.011
249.47	3.483
249.84	2.094
250.22	-8.808
250.59	-3.333
250.96	1.818
251.33	-6.122
251.70	0.000
252.08	-0.417
252.45	-1.639
252.82	-2.479
253.19	-0.781
253.56	1.141
253.94	-1.538
254.31	-1.894
254.68	2.797
255.05	1.303
255.42	-2.041
255.79	-0.324
256.16	-0.331
256.54	-0.993
256.91	-2.295
257.28	-1.311
257.65	-1.911
258.02	-4.425
258.39	0.570
258.76	2.446
259.14	1.437
259.51	0.576
259.88	-1.983
260.25	-0.278
260.62	0.000
260.99	1.366
261.36	2.413
261.73	-0.796
262.10	-2.747
262.47	0.000
262.85	3.535
263.22	-1.299
263.59	-2.368
263.96	-1.279
264.33	-1.790
264.70	0.494
265.07	1.909
265.44	2.494
265.81	-0.926
266.18	2.948
266.55	1.339
266.92	-2.278
267.29	0.438
267.66	0.665
268.03	-1.747
268.40	0.000
268.77	-4.556
269.14	-1.982
269.51	1.316
269.88	3.893
270.25	1.408
270.62	1.899
270.99	2.828
271.36	2.178
271.73	0.196
272.10	2.605
272.47	-0.401
272.84	-1.004
273.21	-0.200
273.58	0.000
273.95	0.192
274.32	1.141
274.69	0.387
275.06	0.183
275.43	-0.924
275.80	0.353
276.17	-1.111
276.54	-0.373
276.91	0.000
277.28	0.542
277.65	0.718
278.02	0.184
278.39	-0.362
278.76	-1.054
279.13	0.532
279.50	1.890
279.87	-0.537
280.23	-2.993
280.60	0.169
280.97	0.658
281.34	-0.340
281.71	1.015
282.08	0.498
282.45	-1.309
282.82	-0.471
283.19	-1.292
283.56	-0.164
283.92	1.652
284.29	1.896
284.66	1.642
285.03	-0.962
285.40	1.855
285.77	0.464
286.14	2.290
286.51	0.609
286.87	0.000
287.24	0.753
287.61	1.794
287.98	-0.906
288.35	-0.148
288.72	-0.148
289.08	0.293
289.45	-0.740
289.82	-1.054
290.19	-0.287
290.56	2.254
290.93	0.000
291.29	0.551
291.66	0.964
292.03	0.000
292.40	1.905
292.77	0.135
293.13	1.624
293.50	-0.920
293.87	-0.805
294.24	0.267
294.60	1.517
294.97	-0.268
295.34	3.329
295.71	0.126
296.08	0.775
296.44	0.000
296.81	0.853
297.18	-1.619
297.55	0.472
297.91	-0.119
298.28	-0.711
298.65	0.951
299.02	0.000
299.38	0.915
299.75	1.636
300.12	-0.463
300.48	0.230
300.85	1.125
301.22	1.007
301.59	0.228
301.95	0.000
302.32	1.778
302.69	-0.548
303.05	0.871
303.42	0.554
303.79	0.312
304.15	0.105
304.52	0.317
304.89	0.942
305.25	1.035
305.62	0.418
305.99	1.134
306.35	-0.302
306.72	0.517
307.09	-0.406
307.45	-0.207
307.82	0.202
308.19	1.413
308.55	1.157
308.92	0.292
309.29	0.862
309.65	0.195
310.02	0.693
310.38	0.098
310.75	0.583
311.12	0.959
311.48	0.000
311.85	-0.570
312.22	-0.285
312.58	1.502
312.95	-0.574
313.31	0.813
313.68	1.007
314.05	1.536
314.41	1.275
314.78	1.453
315.14	0.544
315.51	1.570
315.87	0.720
316.24	0.091
316.61	1.332
316.97	-0.543
317.34	0.265
317.70	1.310
318.07	0.529
318.43	1.446
318.80	2.007
319.16	1.545
319.53	-0.086
319.89	0.701
320.26	1.690
320.62	-0.355
320.99	1.016
321.35	1.109
321.72	1.581
322.08	0.721
322.45	0.000
322.81	1.986
323.18	0.973
323.54	0.948
323.91	0.623
324.27	0.344
324.64	1.847
325.00	1.327
325.37	2.211
325.73	1.322
326.10	1.298
326.46	2.117
326.83	2.082
327.19	2.047
327.56	1.660
327.92	1.180
328.29	1.774
328.65	0.838
329.01	1.861
329.38	1.853
329.74	1.541
330.11	2.312
330.47	1.179
330.84	1.981
331.20	3.000
331.56	0.953
331.93	2.259
332.29	1.780
332.66	2.159
333.02	1.173
333.38	1.258
333.75	1.936
334.11	1.251
334.48	1.898
334.84	1.869
335.20	1.427
335.57	1.602
335.93	2.645
336.29	1.082
336.66	0.925
337.02	1.421
337.38	2.466
337.75	1.983
338.11	2.271
338.47	1.985
338.84	1.523
339.20	1.095
339.56	2.471
339.93	1.888
340.29	2.093
340.65	1.703
341.02	1.915
341.38	1.698
341.74	1.937
342.11	2.172
342.47	0.874
342.83	2.013
343.20	1.717
343.56	2.245
343.92	1.041
344.28	1.719
344.65	2.326
345.01	2.106
345.37	1.944
345.73	1.091
346.10	1.716
346.46	1.266
346.82	1.948
347.19	2.445
347.55	2.124
347.91	1.560
348.27	1.062
348.63	1.752
349.00	1.939
349.36	1.710
349.72	1.562
350.08	2.749
350.45	1.217
350.81	1.433
351.17	1.128
351.53	1.440
351.89	1.670
352.26	2.090
352.62	1.791
352.98	0.992
353.34	1.120
353.70	1.079
354.07	1.937
354.43	0.759
354.79	1.421
355.15	1.325
355.51	1.901
355.87	1.496
356.24	1.597
356.60	1.700
356.96	0.890
357.32	2.305
357.68	1.171
358.04	1.048
358.40	1.567
358.77	1.535
359.13	0.886
359.49	0.446
359.85	1.813
360.21	2.296
360.57	1.292
360.93	0.776
361.29	1.825
361.66	0.941
362.02	2.088
362.38	1.827
362.74	1.536
363.10	1.651
363.46	1.801
363.82	0.426
364.18	1.126
364.54	1.383
364.90	1.472
365.26	0.897
365.62	1.467
365.98	0.885
366.35	1.074
366.71	1.565
367.07	1.691
367.43	1.970
367.79	2.057
368.15	1.940
368.51	1.556
368.87	1.306
369.23	1.200
369.59	0.751
369.95	1.082
370.31	1.891
370.67	0.757
371.03	1.524
371.39	0.604
371.75	0.757
372.11	1.694
372.47	1.151
372.83	1.374
373.19	1.935
373.55	0.745
373.91	0.613
374.27	1.940
374.63	1.624
374.99	1.326
375.35	1.494
375.71	1.806
376.07	1.356
376.42	1.008
376.78	2.859
377.14	1.123
377.50	1.771
377.86	2.155
378.22	1.257
378.58	1.546
378.94	1.819
379.30	1.523
379.66	1.529
380.02	1.673
380.38	1.613
380.74	1.634
381.09	1.278
381.45	1.477
381.81	1.464
382.17	1.841
382.53	1.462
382.89	1.637
383.25	0.586
383.61	0.405
383.97	1.119
384.32	2.033
384.68	0.696
385.04	1.562
385.40	1.237
385.76	1.231
386.12	1.376
386.48	0.824
386.83	1.907
387.19	1.275
387.55	0.880
387.91	1.199
388.27	1.963
388.62	1.718
388.98	1.128
389.34	2.062
389.70	1.278
390.06	1.480
390.42	1.145
390.77	2.288
391.13	1.408
391.49	1.208
391.85	1.030
392.20	1.423
392.56	2.067
392.92	1.745
393.28	1.548
393.64	1.285
393.99	1.859
394.35	2.103
394.71	2.216
395.07	0.539
395.42	1.256
395.78	1.950
396.14	2.020
396.50	1.425
396.85	1.252
397.21	1.302
397.57	1.413
397.92	1.432
398.28	0.598
398.64	0.744
399.00	0.419
399.35	1.204
399.71	1.250
400.07	1.348
400.42	1.688
400.78	1.505
401.14	2.277
401.49	1.478
401.85	0.872
402.21	1.333
402.57	2.289
402.92	1.300
403.28	0.878
403.63	0.776
403.99	0.831
404.35	1.080
404.70	1.530
405.06	1.957
405.42	1.405
405.77	1.799
406.13	1.135
406.49	1.295
406.84	1.994
407.20	2.180
407.55	0.242
407.91	1.194
408.27	1.178
408.62	1.396
408.98	1.277
409.34	0.704
409.69	1.051
410.05	1.583
410.40	1.856
410.76	1.346
411.11	1.929
411.47	1.536
411.83	1.411
412.18	1.145
412.54	1.778
412.89	1.746
413.25	1.129
413.60	1.091
413.96	1.807
414.31	1.700
414.67	1.968
415.03	1.415
415.38	1.324
415.74	1.527
416.09	1.604
416.45	1.879
416.80	1.469
417.16	1.213
417.51	0.872
417.87	1.288
418.22	1.497
418.58	1.735
418.93	1.572
419.29	0.925
419.64	0.600
420.00	1.009
420.35	1.684
420.71	0.976
421.06	1.725
421.42	1.548
421.77	1.400
422.12	1.004
422.48	1.792
422.83	1.643
423.19	1.273
423.54	1.549
423.90	1.270
424.25	1.173
424.61	0.574
424.96	1.153
425.31	1.911
425.67	0.913
426.02	0.996
426.38	1.550
426.73	1.451
427.09	1.903
427.44	1.311
427.79	1.382
428.15	1.256
428.50	1.517
428.85	1.320
429.21	2.128
429.56	0.839
429.92	1.032
430.27	0.867
430.62	0.782
430.98	0.984
431.33	1.857
431.68	0.814
432.04	1.219
432.39	1.660
432.74	1.142
433.10	1.785
433.45	0.892
433.80	1.288
434.16	1.756
434.51	1.799
434.86	0.869
435.22	0.797
435.57	1.238
435.92	1.725
436.28	1.195
436.63	0.765
436.98	1.127
437.34	1.409
437.69	1.211
438.04	1.481
438.39	1.781
438.75	1.217
439.10	1.956
439.45	1.733
439.81	1.186
440.16	1.233
440.51	1.784
440.86	1.112
441.22	1.501
441.57	1.153
441.92	1.164
442.27	1.818
442.63	1.788
442.98	1.494
443.33	2.104
443.68	1.784
444.03	1.929
444.39	1.757
444.74	2.297
445.09	1.571
445.44	1.528
445.79	2.107
446.15	2.004
446.50	1.292
446.85	1.994
447.20	2.079
447.55	1.935
447.91	1.518
448.26	1.321
448.61	1.594
448.96	1.985
449.31	1.750
449.66	1.688
450.02	2.215
450.37	2.184
450.72	1.561
451.07	1.481
451.42	1.560
451.77	1.390
452.12	1.298
452.47	1.545
452.83	1.520
453.18	1.459
453.53	0.747
453.88	1.270
454.23	1.808
454.58	1.335
454.93	1.153
455.28	0.903
455.63	2.160
455.98	1.955
456.34	1.649
456.69	1.470
457.04	1.241
457.39	1.275
457.74	1.846
458.09	0.879
458.44	2.209
458.79	1.031
459.14	1.363
459.49	1.585
459.84	1.626
460.19	1.444
460.54	1.704
460.89	1.059
461.24	1.034
461.59	1.937
461.94	0.913
462.29	1.736
462.64	1.690
462.99	1.883
463.34	0.909
463.69	1.934
464.04	1.723
464.39	1.850
464.74	1.482
465.09	1.384
465.44	1.180
465.79	2.010
466.14	1.563
466.49	1.158
466.84	1.102
467.19	1.908
467.54	1.586
467.89	1.494
468.24	2.050
468.59	0.869
468.94	0.932
469.29	1.200
469.64	0.381
469.99	1.083
470.34	1.361
470.68	1.299
471.03	1.637
471.38	1.635
471.73	0.650
472.08	1.015
472.43	1.445
472.78	1.574
473.13	1.201
473.48	1.692
473.83	1.741
474.17	1.407
474.52	1.143
474.87	1.661
475.22	1.690
475.57	1.402
475.92	1.493
476.27	1.810
476.61	1.713
476.96	1.825
477.31	1.782
477.66	1.731
478.01	1.474
478.36	1.595
478.70	1.478
479.05	1.840
479.40	1.629
479.75	1.825
480.10	1.800
480.45	1.686
480.79	2.132
481.14	1.838
481.49	1.408
481.84	2.219
482.19	1.634
482.53	1.749
482.88	1.551
483.23	1.601
483.58	1.659
483.92	1.374
484.27	2.117
484.62	1.815
484.97	1.400
485.31	1.619
485.66	1.620
486.01	1.791
486.36	1.684
486.70	1.830
487.05	1.684
487.40	1.927
487.75	1.807
488.09	1.860
488.44	1.665
488.79	1.990
489.13	1.702
489.48	1.282
489.83	1.932
490.17	1.337
490.52	2.463
490.87	1.819
491.22	1.776
491.56	2.133
491.91	1.875
492.26	1.514
492.60	1.662
492.95	1.536
493.30	1.121
493.64	1.796
493.99	1.623
494.34	1.437
494.68	1.242
495.03	1.938
495.37	1.065
495.72	1.179
496.07	1.840
496.41	1.544
496.76	1.751
497.11	1.359
497.45	1.770
497.80	0.977
498.14	1.088
498.49	1.333
498.84	1.143
499.18	1.260
499.53	1.839
499.87	1.758
500.22	1.113
500.56	1.574
500.91	0.961
501.26	2.000
501.60	1.237
501.95	1.650
502.29	1.711
502.64	1.618
502.98	2.028
503.33	1.339
503.67	1.047
504.02	1.182
504.36	2.100
504.71	1.286
505.06	1.774
505.40	1.645
505.75	1.366
506.09	1.427
506.44	1.578
506.78	2.064
507.13	1.660
507.47	1.800
507.82	1.562
508.16	1.482
508.51	0.891
508.85	1.323
509.19	1.137
509.54	2.065
509.88	0.971
510.23	1.748
510.57	1.788
510.92	1.693
511.26	1.587
511.61	1.014
511.95	1.708
512.30	1.871
512.64	1.049
512.98	1.651
513.33	2.067
513.67	1.479
514.02	1.329
514.36	1.688
514.70	1.510
515.05	1.668
515.39	1.470
515.74	1.644
516.08	1.585
516.42	2.145
516.77	1.577
517.11	1.753
517.46	2.068
517.80	1.978
518.14	1.741
518.49	1.518
518.83	1.064
519.17	1.616
519.52	1.992
519.86	1.742
520.20	2.077
520.55	1.588
520.89	1.408
521.23	1.787
521.58	1.638
521.92	1.530
522.26	1.546
522.61	1.215
522.95	1.672
523.29	0.920
523.64	1.570
523.98	1.426
524.32	2.006
524.66	1.138
525.01	1.642
525.35	0.689
525.69	0.928
526.04	1.665
526.38	1.609
526.72	1.442
527.06	1.760
527.41	1.283
527.75	1.247
528.09	1.712
528.43	1.480
528.78	1.214
529.12	1.089
529.46	1.405
529.80	1.602
530.15	1.623
530.49	1.127
530.83	1.653
531.17	1.792
531.51	1.504
531.86	1.442
532.20	2.073
532.54	1.197
532.88	1.212
533.22	2.062
533.57	2.366
533.91	1.964
534.25	2.487
534.59	1.437
534.93	1.471
535.27	1.803
535.62	2.615
535.96	0.988
536.30	1.645
536.64	2.523
536.98	1.968
537.32	1.914
537.66	2.246
538.01	1.631
538.35	0.914
538.69	1.442
539.03	2.023
539.37	2.415
539.71	1.982
540.05	2.218
540.39	1.100
540.73	1.214
541.07	1.410
541.42	0.827
541.76	0.949
542.10	1.508
542.44	1.523
542.78	2.433
543.12	2.086
543.46	1.832
543.80	1.918
544.14	1.376
544.48	2.069
544.82	1.915
545.16	2.027
545.50	1.738
545.84	1.592
546.18	2.160
546.52	1.083
546.86	2.138
547.20	1.336
547.54	1.561
547.88	1.145
548.22	1.228
548.56	1.521
548.90	1.791
549.24	2.371
549.58	1.640
549.92	1.084
550.26	2.006
550.60	2.297
550.94	1.164
551.28	1.584
551.62	1.752
551.96	1.100
552.30	1.976
552.64	2.054
552.98	2.121
553.32	1.994
553.66	1.736
554.00	2.270
554.34	1.351
554.68	1.614
555.02	2.168
555.36	2.696
555.69	1.281
556.03	0.883
556.37	1.752
556.71	1.585
557.05	1.150
557.39	0.995
557.73	1.189
558.07	0.464
558.41	1.927
558.75	0.879
559.08	1.113
559.42	1.646
559.76	1.628
560.10	1.741
560.44	1.583
560.78	2.313
561.12	0.985
561.45	2.068
561.79	1.832
562.13	1.540
562.47	1.418
562.81	1.266
563.15	1.263
563.48	1.927
563.82	1.451
564.16	1.090
564.50	1.549
564.84	1.770
565.17	1.471
565.51	1.726
565.85	1.544
566.19	1.901
566.52	1.053
566.86	1.868
567.20	1.142
567.54	1.062
567.88	1.223
568.21	1.828
568.55	1.727
568.89	1.498
569.23	1.901
569.56	1.407
569.90	1.782
570.24	1.754
570.57	1.604
570.91	1.653
571.25	1.678
571.59	1.893
571.92	1.812
572.26	1.906
572.60	1.693
572.93	2.032
573.27	1.489
573.61	1.800
573.95	1.821
574.28	1.682
574.62	1.705
574.96	2.073
575.29	2.027
575.63	1.894
575.97	1.820
576.30	2.122
576.64	1.957
576.98	1.868
577.31	1.862
577.65	1.754
577.98	1.751
578.32	1.765
578.66	1.753
578.99	1.782
579.33	2.001
579.67	1.700
580.00	1.753
580.34	2.269
580.67	1.633
581.01	1.839
581.35	1.909
581.68	2.023
582.02	1.971
582.35	1.759
582.69	1.642
583.02	1.831
583.36	1.766
583.70	1.727
584.03	1.872
584.37	1.777
584.70	1.834
585.04	1.721
585.37	1.768
585.71	1.942
586.04	1.761
586.38	1.648
586.72	1.655
587.05	1.151
587.39	1.670
587.72	1.818
588.06	2.079
588.39	1.967
588.73	1.746
589.06	1.862
589.40	1.537
589.73	1.832
590.07	2.155
590.40	2.231
590.73	1.661
591.07	1.899
591.40	1.555
591.74	1.749
592.07	2.030
592.41	1.459
592.74	1.491
593.08	1.975
593.41	1.954
593.75	1.839
594.08	1.454
594.41	1.667
594.75	1.827
595.08	1.783
595.42	2.078
595.75	1.970
596.09	1.965
596.42	1.756
596.75	1.775
597.09	2.101
597.42	1.828
597.75	1.686
598.09	1.905
598.42	1.890
598.76	1.528
599.09	1.460
599.42	1.911
599.76	1.981
600.09	1.869
600.42	2.369
600.76	1.982
601.09	1.759
601.42	1.682
601.76	2.207
602.09	1.680
602.42	1.490
602.76	1.882
603.09	1.836
603.42	1.879
603.76	1.691
604.09	2.236
604.42	1.651
604.76	2.055
605.09	1.596
605.42	1.874
605.75	1.692
606.09	1.605
606.42	1.532
606.75	1.537
607.09	1.498
607.42	1.927
607.75	1.798
608.08	1.855
608.42	1.693
608.75	2.405
609.08	1.655
609.41	1.764
609.75	1.562
610.08	1.759
610.41	1.742
610.74	1.765
611.07	1.599
611.41	1.614
611.74	1.986
612.07	1.590
612.40	1.141
612.73	1.956
613.07	1.858
613.40	1.588
613.73	1.830
614.06	1.914
614.39	1.603
614.72	1.504
615.06	1.973
615.39	1.547
615.72	2.038
616.05	1.263
616.38	1.665
616.71	1.829
617.05	1.651
617.38	2.568
617.71	2.322
618.04	1.727
618.37	2.131
618.70	1.584
619.03	1.493
619.36	1.603
619.69	1.602
620.03	1.255
620.36	1.840
620.69	1.851
621.02	2.297
621.35	1.887
621.68	2.458
622.01	1.495
622.34	1.185
622.67	1.375
623.00	0.337
623.33	1.593
623.66	1.816
623.99	0.790
624.32	2.599
624.65	1.673
624.99	1.886
625.32	1.894
625.65	1.011
625.98	1.695
626.31	1.843
626.64	1.905
626.97	0.975
627.30	1.139
627.63	1.350
627.96	2.327
628.29	1.634
628.62	0.672
628.95	1.402
629.28	1.274
629.61	2.189
629.94	0.502
630.26	0.932
630.59	1.209
630.92	1.126
631.25	1.789
631.58	0.942
631.91	0.937
632.24	1.057
632.57	1.139
632.90	0.903
633.23	2.041
633.56	1.122
633.89	0.930
634.22	0.312
634.55	1.775
634.88	1.732
635.20	2.906
635.53	0.113
635.86	1.625
636.19	3.287
636.52	2.004
636.85	0.817
637.18	1.351
637.51	1.075
637.83	3.212
638.16	0.922
638.49	0.352
638.82	1.578
639.15	1.031
639.48	1.617
639.81	2.309
640.13	2.002
640.46	-0.848
640.79	0.490
641.12	1.242
641.45	0.125
641.77	2.696
642.10	0.787
642.43	3.191
642.76	2.981
643.09	0.548
643.41	0.700
643.74	-0.276
644.07	1.655
644.40	0.424
644.73	0.000
645.05	0.441
645.38	2.158
645.71	-0.440
646.04	2.152
646.36	0.730
646.69	0.767
647.02	1.988
647.35	2.137
647.67	2.093
648.00	-0.637
648.33	1.502
648.66	1.712
648.98	1.497
649.31	2.165
649.64	2.258
649.96	1.459
650.29	-0.556
650.62	1.839
650.94	0.901
651.27	0.150
651.60	1.023
651.92	0.000
652.25	1.737
652.58	1.651
652.90	0.291
653.23	1.268
653.56	0.856
653.88	3.933
654.21	1.408
654.54	1.012
654.86	0.425
655.19	0.627
655.52	1.596
655.84	1.709
