SpectraSuite Data File
++++++++++++++++++++++++++++++++++++
Date: Thu May 14 16:06:24 PDT 2015
User: schluterlab
Dark Spectrum Present: Yes
Reference Spectrum Present: Yes
Number of Sampled Component Spectra: 1
Spectrometers: USB2E3373
Integration Time (usec): 3000 (USB2E3373)
Spectra Averaged: 3 (USB2E3373)
Boxcar Smoothing: 0 (USB2E3373)
Correct for Electrical Dark: No (USB2E3373)
Strobe/Lamp Enabled: No (USB2E3373)
Correct for Detector Non-linearity: No (USB2E3373)
Correct for Stray Light: No (USB2E3373)
Number of Pixels in Processed Spectrum: 2048
>>>>>Begin Processed Spectral Data<<<<<
178.53	0.000
178.91	228.571
179.29	-2300.000
179.67	-1400.000
180.04	242.857
180.42	160.000
180.80	300.000
181.18	-1500.000
181.56	-500.000
181.94	300.000
182.31	-200.000
182.69	533.333
183.07	50.000
183.45	375.000
183.83	-283.333
184.20	-733.333
184.58	1800.000
184.96	-425.000
185.34	-166.667
185.72	-200.000
186.09	211.111
186.47	950.000
186.85	420.000
187.23	-200.000
187.61	-2200.000
187.98	340.000
188.36	525.000
188.74	-350.000
189.12	-366.667
189.49	-31.250
189.87	-225.000
190.25	-100.000
190.63	-140.000
191.00	-144.444
191.38	0.000
191.76	-525.000
192.14	-183.333
192.51	100.000
192.89	-166.667
193.27	0.000
193.65	-200.000
194.02	-3000.000
194.40	-128.571
194.78	57.143
195.15	0.000
195.53	-118.182
195.91	0.000
196.29	-200.000
196.66	-123.077
197.04	-2200.000
197.42	-200.000
197.79	-850.000
198.17	-200.000
198.55	-100.000
198.92	-166.667
199.30	-275.000
199.68	-45.455
200.05	-42.857
200.43	-600.000
200.81	314.286
201.18	0.000
201.56	333.333
201.94	0.000
202.31	600.000
202.69	-133.333
203.07	1500.000
203.44	-155.556
203.82	-400.000
204.19	-183.333
204.57	-300.000
204.95	-225.000
205.32	-2100.000
205.70	275.000
206.08	-133.333
206.45	-100.000
206.83	500.000
207.20	0.000
207.58	-220.000
207.96	-250.000
208.33	-133.333
208.71	141.667
209.08	-133.333
209.46	0.000
209.84	350.000
210.21	500.000
210.59	800.000
210.96	633.333
211.34	-25.000
211.71	-125.000
212.09	-1300.000
212.46	0.000
212.84	1150.000
213.22	-500.000
213.59	-350.000
213.97	-70.000
214.34	-633.333
214.72	400.000
215.09	-525.000
215.47	0.000
215.84	328.571
216.22	900.000
216.59	-140.000
216.97	-140.000
217.34	-250.000
217.72	-87.500
218.09	-275.000
218.47	-550.000
218.84	0.000
219.22	240.000
219.59	-29.412
219.97	5.000
220.34	550.000
220.72	-144.444
221.09	-84.615
221.47	-466.667
221.84	-20.000
222.22	-214.286
222.59	0.000
222.97	-162.500
223.34	-320.000
223.72	-1500.000
224.09	-325.000
224.46	-350.000
224.84	-340.000
225.21	-342.857
225.59	-425.000
225.96	-250.000
226.34	-11.538
226.71	250.000
227.08	-850.000
227.46	13.333
227.83	-475.000
228.21	-52.632
228.58	212.500
228.95	700.000
229.33	-100.000
229.70	-180.000
230.08	-5.263
230.45	250.000
230.82	-533.333
231.20	-57.143
231.57	-116.667
231.95	-90.909
232.32	-18.182
232.69	-55.000
233.07	-575.000
233.44	-35.294
233.81	-140.000
234.19	-38.889
234.56	-40.909
234.93	-17.241
235.31	-94.737
235.68	-61.111
236.05	-105.000
236.43	30.769
236.80	36.000
237.17	3.704
237.55	0.000
237.92	-150.000
238.29	-32.258
238.67	-13.636
239.04	-11.111
239.41	-9.524
239.79	-15.217
240.16	-9.259
240.53	-15.217
240.91	-19.608
241.28	-4.918
241.65	2.985
242.02	10.811
242.40	0.000
242.77	0.000
243.14	-9.756
243.51	-7.895
243.89	-10.256
244.26	17.822
244.63	3.922
245.00	11.215
245.38	11.404
245.75	0.000
246.12	6.349
246.49	8.527
246.87	12.143
247.24	11.921
247.61	13.816
247.98	11.409
248.36	9.259
248.73	6.748
249.10	11.475
249.47	23.383
249.84	21.466
250.22	15.544
250.59	9.444
250.96	16.364
251.33	10.204
251.70	17.521
252.08	14.583
252.45	14.754
252.82	11.983
253.19	11.719
253.56	17.871
253.94	12.308
254.31	17.803
254.68	19.580
255.05	17.590
255.42	14.626
255.79	13.592
256.16	16.225
256.54	14.570
256.91	14.426
257.28	16.066
257.65	17.197
258.02	15.339
258.39	17.664
258.76	19.878
259.14	21.552
259.51	17.579
259.88	14.448
260.25	16.944
260.62	18.356
260.99	19.126
261.36	16.086
261.73	15.650
262.10	17.582
262.47	15.550
262.85	21.212
263.22	16.104
263.59	12.632
263.96	17.391
264.33	20.972
264.70	17.531
265.07	19.093
265.44	19.728
265.81	18.519
266.18	19.955
266.55	16.964
266.92	18.907
267.29	20.569
267.66	18.847
268.03	17.686
268.40	17.745
268.77	17.995
269.14	15.419
269.51	17.982
269.88	19.467
270.25	17.505
270.62	19.620
270.99	18.990
271.36	18.416
271.73	17.485
272.10	20.040
272.47	18.637
272.84	18.273
273.21	15.832
273.58	20.161
273.95	17.115
274.32	16.160
274.69	17.602
275.06	18.315
275.43	16.081
275.80	17.813
276.17	17.037
276.54	18.657
276.91	16.279
277.28	17.902
277.65	20.287
278.02	17.279
278.39	18.116
278.76	17.399
279.13	16.135
279.50	18.385
279.87	16.816
280.23	13.908
280.60	18.136
280.97	16.776
281.34	16.638
281.71	18.951
282.08	16.777
282.45	16.858
282.82	18.053
283.19	16.478
283.56	17.049
283.92	19.069
284.29	18.325
284.66	16.913
285.03	15.705
285.40	17.002
285.77	17.647
286.14	18.626
286.51	17.352
286.87	16.904
287.24	18.373
287.61	15.396
287.98	17.221
288.35	15.385
288.72	16.864
289.08	16.837
289.45	14.497
289.82	15.211
290.19	16.379
290.56	15.493
290.93	16.833
291.29	18.182
291.66	15.152
292.03	16.689
292.40	17.687
292.77	14.555
293.13	16.103
293.50	14.586
293.87	14.899
294.24	16.800
294.60	15.297
294.97	15.302
295.34	17.029
295.71	14.124
296.08	15.633
296.44	14.216
296.81	14.982
297.18	12.827
297.55	12.972
297.91	14.235
298.28	13.507
298.65	14.269
299.02	15.348
299.38	14.302
299.75	13.318
300.12	13.426
300.48	13.479
300.85	14.398
301.22	15.324
301.59	12.215
301.95	14.802
302.32	14.778
302.69	13.910
303.05	14.581
303.42	14.412
303.79	13.125
304.15	15.037
304.52	14.693
304.89	13.822
305.25	15.010
305.62	15.465
305.99	14.227
306.35	13.911
306.72	14.891
307.09	13.299
307.45	14.596
307.82	13.925
308.19	14.430
308.55	16.104
308.92	14.411
309.29	15.038
309.65	15.107
310.02	14.257
310.38	14.469
310.75	15.146
311.12	15.724
311.48	15.347
311.85	15.005
312.22	16.224
312.58	15.869
312.95	15.488
313.31	17.254
313.68	16.758
314.05	18.067
314.41	18.397
314.78	16.712
315.14	16.878
315.51	16.620
315.87	19.532
316.24	18.174
316.61	19.183
316.97	19.548
317.34	19.136
317.70	20.000
318.07	19.400
318.43	21.429
318.80	20.987
319.16	21.202
319.53	20.223
319.89	22.436
320.26	22.509
320.62	21.809
320.99	22.253
321.35	22.366
321.72	23.907
322.08	24.707
322.45	24.210
322.81	23.375
323.18	25.575
323.54	25.776
323.91	25.801
324.27	24.441
324.64	26.196
325.00	26.368
325.37	26.454
325.73	27.686
326.10	28.224
326.46	28.583
326.83	30.104
327.19	28.583
327.56	30.593
327.92	30.685
328.29	30.161
328.65	30.653
329.01	32.318
329.38	32.266
329.74	32.277
330.11	34.932
330.47	33.614
330.84	33.333
331.20	33.500
331.56	33.969
331.93	33.891
332.29	34.746
332.66	34.136
333.02	32.831
333.38	33.138
333.75	33.502
334.11	34.779
334.48	34.653
334.84	35.344
335.20	33.753
335.57	35.160
335.93	34.711
336.29	33.860
336.66	34.903
337.02	34.030
337.38	35.799
337.75	34.463
338.11	36.669
338.47	35.649
338.84	34.095
339.20	34.541
339.56	35.173
339.93	35.632
340.29	34.944
340.65	34.550
341.02	36.073
341.38	35.408
341.74	33.737
342.11	34.433
342.47	33.598
342.83	35.668
343.20	36.141
343.56	34.162
343.92	34.668
344.28	34.688
344.65	35.504
345.01	34.789
345.37	35.537
345.73	34.139
346.10	35.257
346.46	34.889
346.82	34.906
347.19	34.607
347.55	35.736
347.91	35.513
348.27	35.129
348.63	34.577
349.00	34.825
349.36	34.424
349.72	34.301
350.08	34.844
350.45	34.677
350.81	34.992
351.17	34.361
351.53	35.102
351.89	34.093
352.26	34.179
352.62	33.806
352.98	34.427
353.34	33.682
353.70	36.441
354.07	35.320
354.43	35.232
354.79	34.630
355.15	35.026
355.51	35.307
355.87	35.079
356.24	34.677
356.60	35.107
356.96	35.137
357.32	34.349
357.68	34.480
358.04	34.132
358.40	32.612
358.77	34.576
359.13	35.229
359.49	33.829
359.85	34.373
360.21	32.999
360.57	34.027
360.93	34.344
361.29	35.579
361.66	34.685
362.02	35.769
362.38	34.996
362.74	34.916
363.10	34.525
363.46	34.626
363.82	34.801
364.18	36.031
364.54	34.716
364.90	35.452
365.26	34.207
365.62	35.067
365.98	34.649
366.35	37.047
366.71	35.510
367.07	34.844
367.43	35.982
367.79	36.165
368.15	36.120
368.51	35.386
368.87	34.357
369.23	35.067
369.59	35.519
369.95	35.227
370.31	35.179
370.67	35.007
371.03	35.180
371.39	34.856
371.75	36.589
372.11	35.569
372.47	34.597
372.83	35.668
373.19	35.690
373.55	34.824
373.91	35.242
374.27	34.799
374.63	35.386
374.99	34.151
375.35	35.779
375.71	36.258
376.07	35.249
376.42	35.202
376.78	35.861
377.14	35.246
377.50	35.927
377.86	36.330
378.22	35.569
378.58	36.088
378.94	36.092
379.30	35.267
379.66	36.273
380.02	35.718
380.38	36.521
380.74	35.437
381.09	36.121
381.45	35.114
381.81	36.885
382.17	35.392
382.53	36.023
382.89	34.368
383.25	35.580
383.61	35.185
383.97	35.159
384.32	35.945
384.68	35.615
385.04	36.669
385.40	37.301
385.76	37.104
386.12	35.787
386.48	35.471
386.83	36.293
387.19	35.863
387.55	35.329
387.91	35.788
388.27	35.508
388.62	34.937
388.98	35.759
389.34	36.181
389.70	35.677
390.06	35.524
390.42	36.627
390.77	36.905
391.13	35.387
391.49	36.111
391.85	35.576
392.20	36.240
392.56	35.381
392.92	34.951
393.28	35.876
393.64	34.078
393.99	35.503
394.35	36.273
394.71	36.287
395.07	35.988
395.42	35.465
395.78	37.355
396.14	35.948
396.50	36.164
396.85	35.122
397.21	34.852
397.57	34.923
397.92	35.968
398.28	34.927
398.64	35.469
399.00	34.188
399.35	34.921
399.71	36.087
400.07	36.103
400.42	35.506
400.78	35.995
401.14	35.800
401.49	35.190
401.85	36.453
402.21	36.501
402.57	34.859
402.92	36.229
403.28	34.660
403.63	35.084
403.99	34.561
404.35	34.963
404.70	35.524
405.06	34.946
405.42	34.953
405.77	35.442
406.13	34.738
406.49	35.923
406.84	34.737
407.20	36.054
407.55	34.343
407.91	35.764
408.27	35.159
408.62	35.660
408.98	34.823
409.34	34.487
409.69	35.785
410.05	35.346
410.40	35.731
410.76	34.773
411.11	34.541
411.47	36.118
411.83	35.509
412.18	34.157
412.54	34.736
412.89	35.797
413.25	34.199
413.60	34.463
413.96	34.674
414.31	34.108
414.67	35.480
415.03	34.954
415.38	34.931
415.74	35.247
416.09	34.608
416.45	33.939
416.80	33.415
417.16	33.844
417.51	34.122
417.87	34.764
418.22	35.150
418.58	35.502
418.93	34.633
419.29	35.018
419.64	35.234
420.00	34.718
420.35	34.868
420.71	34.693
421.06	34.273
421.42	34.346
421.77	33.980
422.12	33.985
422.48	35.023
422.83	34.173
423.19	34.005
423.54	34.956
423.90	35.064
424.25	35.093
424.61	33.927
424.96	35.255
425.31	35.297
425.67	34.407
426.02	35.529
426.38	34.156
426.73	33.426
427.09	36.275
427.44	34.080
427.79	34.936
428.15	34.132
428.50	35.112
428.85	33.984
429.21	35.479
429.56	34.501
429.92	33.956
430.27	35.084
430.62	34.441
430.98	33.792
431.33	34.115
431.68	33.908
432.04	34.891
432.39	34.976
432.74	34.075
433.10	34.884
433.45	34.058
433.80	34.710
434.16	34.762
434.51	35.200
434.86	35.831
435.22	35.016
435.57	34.552
435.92	34.947
436.28	35.210
436.63	36.155
436.98	33.226
437.34	35.062
437.69	34.728
438.04	34.215
438.39	35.497
438.75	34.588
439.10	34.937
439.45	34.209
439.81	34.011
440.16	34.638
440.51	34.615
440.86	33.852
441.22	34.459
441.57	35.535
441.92	35.160
442.27	35.354
442.63	34.128
442.98	35.326
443.33	35.139
443.68	35.877
444.03	36.077
444.39	35.414
444.74	34.967
445.09	34.516
445.44	34.668
445.79	35.105
446.15	34.481
446.50	35.866
446.85	34.582
447.20	34.768
447.55	34.833
447.91	35.026
448.26	35.518
448.61	34.538
448.96	35.354
449.31	34.252
449.66	35.131
450.02	34.494
450.37	35.109
450.72	34.499
451.07	34.909
451.42	34.084
451.77	34.519
452.12	35.835
452.47	33.987
452.83	36.261
453.18	34.559
453.53	34.061
453.88	35.671
454.23	35.367
454.58	34.765
454.93	35.376
455.28	35.039
455.63	34.792
455.98	34.972
456.34	34.688
456.69	35.038
457.04	35.225
457.39	34.756
457.74	35.682
458.09	35.036
458.44	35.776
458.79	34.863
459.14	34.662
459.49	35.484
459.84	35.152
460.19	34.814
460.54	35.718
460.89	35.786
461.24	35.057
461.59	34.975
461.94	34.683
462.29	35.722
462.64	34.460
462.99	35.844
463.34	34.718
463.69	34.877
464.04	36.076
464.39	34.809
464.74	34.436
465.09	35.294
465.44	34.657
465.79	34.744
466.14	33.403
466.49	35.316
466.84	35.647
467.19	35.029
467.54	34.548
467.89	34.770
468.24	35.346
468.59	34.800
468.94	34.324
469.29	35.153
469.64	35.346
469.99	34.863
470.34	35.087
470.68	35.612
471.03	35.298
471.38	34.990
471.73	35.371
472.08	35.850
472.43	34.497
472.78	36.398
473.13	34.197
473.48	36.073
473.83	36.564
474.17	34.701
474.52	35.298
474.87	34.884
475.22	35.155
475.57	34.112
475.92	35.490
476.27	35.037
476.61	34.631
476.96	34.463
477.31	34.604
477.66	36.516
478.01	34.672
478.36	33.799
478.70	34.581
479.05	35.276
479.40	35.291
479.75	35.351
480.10	34.628
480.45	35.324
480.79	34.875
481.14	34.972
481.49	34.848
481.84	35.596
482.19	34.409
482.53	35.418
482.88	35.224
483.23	35.394
483.58	34.803
483.92	34.663
484.27	34.462
484.62	34.117
484.97	34.759
485.31	33.685
485.66	31.110
486.01	31.431
486.36	31.195
486.70	32.723
487.05	33.994
487.40	33.922
487.75	33.969
488.09	34.150
488.44	33.816
488.79	33.761
489.13	34.830
489.48	34.019
489.83	33.642
490.17	33.414
490.52	34.278
490.87	34.222
491.22	35.442
491.56	34.300
491.91	34.758
492.26	34.271
492.60	33.537
492.95	35.103
493.30	34.110
493.64	34.560
493.99	34.868
494.34	34.538
494.68	33.533
495.03	33.216
495.37	34.842
495.72	34.512
496.07	34.619
496.41	33.805
496.76	34.404
497.11	33.673
497.45	33.923
497.80	35.007
498.14	34.512
498.49	34.467
498.84	34.415
499.18	34.188
499.53	34.574
499.87	34.593
500.22	34.105
500.56	33.693
500.91	34.050
501.26	34.364
501.60	33.893
501.95	33.435
502.29	34.489
502.64	33.887
502.98	33.520
503.33	33.261
503.67	33.450
504.02	33.669
504.36	34.182
504.71	34.130
505.06	34.061
505.40	33.912
505.75	33.424
506.09	34.530
506.44	34.030
506.78	33.807
507.13	34.025
507.47	34.107
507.82	33.665
508.16	32.457
508.51	33.521
508.85	34.483
509.19	33.681
509.54	33.622
509.88	34.483
510.23	34.288
510.57	34.751
510.92	33.962
511.26	33.285
511.61	32.352
511.95	34.114
512.30	34.072
512.64	33.683
512.98	33.617
513.33	33.821
513.67	33.962
514.02	34.083
514.36	34.066
514.70	34.010
515.05	33.733
515.39	34.173
515.74	33.987
516.08	34.865
516.42	34.223
516.77	33.912
517.11	33.522
517.46	33.722
517.80	34.580
518.14	34.712
518.49	34.599
518.83	33.635
519.17	32.795
519.52	33.176
519.86	34.002
520.20	33.866
520.55	34.885
520.89	33.840
521.23	32.942
521.58	34.350
521.92	34.618
522.26	33.162
522.61	34.491
522.95	33.160
523.29	34.655
523.64	32.960
523.98	34.455
524.32	33.926
524.66	34.548
525.01	32.956
525.35	33.372
525.69	33.933
526.04	33.639
526.38	34.310
526.72	34.314
527.06	34.487
527.41	34.169
527.75	34.442
528.09	33.825
528.43	34.044
528.78	32.717
529.12	32.741
529.46	33.165
529.80	33.181
530.15	33.971
530.49	33.452
530.83	32.704
531.17	33.572
531.51	32.431
531.86	33.954
532.20	33.841
532.54	32.555
532.88	32.848
533.22	32.999
533.57	31.391
533.91	33.389
534.25	32.448
534.59	32.816
534.93	33.107
535.27	33.352
535.62	33.087
535.96	31.784
536.30	32.139
536.64	32.733
536.98	33.764
537.32	32.778
537.66	32.377
538.01	32.508
538.35	32.460
538.69	32.031
539.03	33.047
539.37	32.921
539.71	32.252
540.05	32.434
540.39	31.785
540.73	32.544
541.07	33.906
541.42	31.955
541.76	30.486
542.10	31.182
542.44	31.669
542.78	31.752
543.12	31.347
543.46	30.769
543.80	31.655
544.14	31.897
544.48	32.979
544.82	32.256
545.16	31.366
545.50	31.037
545.84	31.353
546.18	32.778
546.52	32.420
546.86	32.327
547.20	31.934
547.54	30.774
547.88	31.103
548.22	30.351
548.56	30.252
548.90	31.045
549.24	32.219
549.58	31.167
549.92	31.250
550.26	31.780
550.60	31.717
550.94	31.242
551.28	31.551
551.62	32.412
551.96	31.327
552.30	31.740
552.64	30.554
552.98	30.443
553.32	32.090
553.66	30.997
554.00	31.211
554.34	31.210
554.68	30.600
555.02	30.355
555.36	30.966
555.69	30.109
556.03	31.400
556.37	31.164
556.71	30.564
557.05	30.479
557.39	30.524
557.73	31.176
558.07	29.934
558.41	31.163
558.75	32.049
559.08	30.828
559.42	30.933
559.76	31.954
560.10	30.543
560.44	30.805
560.78	30.687
561.12	29.495
561.45	29.805
561.79	30.037
562.13	30.006
562.47	29.346
562.81	30.253
563.15	30.114
563.48	30.143
563.82	30.290
564.16	30.042
564.50	29.201
564.84	29.558
565.17	29.824
565.51	28.539
565.85	29.097
566.19	29.320
566.52	30.252
566.86	29.202
567.20	27.841
567.54	28.465
567.88	28.644
568.21	28.607
568.55	28.201
568.89	27.916
569.23	27.714
569.56	26.807
569.90	26.764
570.24	27.352
570.57	26.203
570.91	26.363
571.25	25.832
571.59	26.051
571.92	25.933
572.26	25.463
572.60	25.880
572.93	26.078
573.27	26.328
573.61	25.887
573.95	25.807
574.28	24.644
574.62	24.920
574.96	24.680
575.29	24.587
575.63	24.879
575.97	24.910
576.30	25.241
576.64	24.720
576.98	25.103
577.31	24.923
577.65	24.701
577.98	24.059
578.32	23.938
578.66	24.444
578.99	24.391
579.33	24.411
579.67	24.887
580.00	25.129
580.34	24.455
580.67	24.360
581.01	24.405
581.35	24.196
581.68	23.762
582.02	23.616
582.35	24.087
582.69	24.051
583.02	24.369
583.36	24.584
583.70	24.744
584.03	24.502
584.37	24.611
584.70	24.425
585.04	23.785
585.37	24.260
585.71	23.538
586.04	24.218
586.38	24.443
586.72	23.966
587.05	23.791
587.39	24.383
587.72	24.330
588.06	23.791
588.39	24.496
588.73	23.968
589.06	25.085
589.40	24.524
589.73	24.775
590.07	24.934
590.40	24.713
590.73	25.345
591.07	25.540
591.40	24.495
591.74	25.119
592.07	25.579
592.41	24.685
592.74	24.530
593.08	24.108
593.41	24.351
593.75	24.109
594.08	24.205
594.41	24.423
594.75	24.444
595.08	24.293
595.42	24.058
595.75	24.378
596.09	25.042
596.42	25.116
596.75	24.855
597.09	25.495
597.42	24.076
597.75	24.461
598.09	25.040
598.42	25.332
598.76	24.264
599.09	23.638
599.42	23.667
599.76	23.374
600.09	24.091
600.42	24.157
600.76	24.075
601.09	23.664
601.42	23.344
601.76	24.138
602.09	24.089
602.42	23.373
602.76	24.207
603.09	23.678
603.42	23.772
603.76	23.432
604.09	24.556
604.42	23.853
604.76	23.478
605.09	23.813
605.42	23.804
605.75	23.154
606.09	23.180
606.42	23.349
606.75	23.088
607.09	23.118
607.42	24.085
607.75	23.681
608.08	23.599
608.42	23.620
608.75	23.922
609.08	23.981
609.41	23.291
609.75	23.661
610.08	24.318
610.41	23.959
610.74	23.235
611.07	24.201
611.41	24.215
611.74	24.296
612.07	24.030
612.40	24.097
612.73	23.814
613.07	24.792
613.40	24.302
613.73	24.025
614.06	23.602
614.39	24.004
614.72	23.775
615.06	23.628
615.39	23.393
615.72	23.791
616.05	24.186
616.38	24.369
616.71	24.504
617.05	23.802
617.38	24.559
617.71	24.406
618.04	23.907
618.37	24.590
618.70	24.887
619.03	24.731
619.36	25.277
619.69	24.536
620.03	24.419
620.36	24.049
620.69	24.429
621.02	24.869
621.35	27.068
621.68	25.669
622.01	25.623
622.34	24.407
622.67	25.361
623.00	23.819
623.33	24.751
623.66	24.254
623.99	24.226
624.32	25.211
624.65	23.938
624.99	24.837
625.32	25.016
625.65	25.219
625.98	24.407
626.31	24.947
626.64	25.348
626.97	25.506
627.30	24.677
627.63	24.831
627.96	26.201
628.29	23.735
628.62	25.861
628.95	27.520
629.28	25.913
629.61	25.758
629.94	24.603
630.26	25.254
630.59	24.093
630.92	25.541
631.25	26.655
631.58	25.895
631.91	26.429
