SpectraSuite Data File
++++++++++++++++++++++++++++++++++++
Date: Thu May 14 16:07:49 PDT 2015
User: schluterlab
Dark Spectrum Present: Yes
Reference Spectrum Present: Yes
Number of Sampled Component Spectra: 1
Spectrometers: USB2E3373
Integration Time (usec): 3000 (USB2E3373)
Spectra Averaged: 3 (USB2E3373)
Boxcar Smoothing: 0 (USB2E3373)
Correct for Electrical Dark: No (USB2E3373)
Strobe/Lamp Enabled: No (USB2E3373)
Correct for Detector Non-linearity: No (USB2E3373)
Correct for Stray Light: No (USB2E3373)
Number of Pixels in Processed Spectrum: 2048
>>>>>Begin Processed Spectral Data<<<<<
178.53	0.000
178.91	185.714
179.29	-2200.000
179.67	-1300.000
180.04	192.857
180.42	170.000
180.80	240.000
181.18	-1000.000
181.56	-600.000
181.94	450.000
182.31	-325.000
182.69	733.333
183.07	-650.000
183.45	300.000
183.83	-150.000
184.20	-300.000
184.58	2100.000
184.96	-400.000
185.34	-144.444
185.72	-140.000
186.09	233.333
186.47	600.000
186.85	320.000
187.23	-188.889
187.61	-1300.000
187.98	100.000
188.36	150.000
188.74	-425.000
189.12	-233.333
189.49	25.000
189.87	-187.500
190.25	-155.556
190.63	-200.000
191.00	-322.222
191.38	0.000
191.76	-675.000
192.14	-50.000
192.51	850.000
192.89	-150.000
193.27	0.000
193.65	-185.714
194.02	-1900.000
194.40	-142.857
194.78	228.571
195.15	0.000
195.53	-118.182
195.91	0.000
196.29	-50.000
196.66	-76.923
197.04	-1700.000
197.42	-114.286
197.79	-1000.000
198.17	-137.500
198.55	-142.857
198.92	-111.111
199.30	-112.500
199.68	-54.545
200.05	-14.286
200.43	-1200.000
200.81	342.857
201.18	0.000
201.56	277.778
201.94	0.000
202.31	600.000
202.69	-88.889
203.07	2300.000
203.44	-111.111
203.82	-125.000
204.19	-91.667
204.57	-216.667
204.95	-162.500
205.32	-1500.000
205.70	375.000
206.08	-250.000
206.45	-300.000
206.83	560.000
207.20	-166.667
207.58	-220.000
207.96	-266.667
208.33	-150.000
208.71	75.000
209.08	-200.000
209.46	0.000
209.84	233.333
210.21	300.000
210.59	350.000
210.96	500.000
211.34	-125.000
211.71	-162.500
212.09	-1100.000
212.46	0.000
212.84	1000.000
213.22	-180.000
213.59	-175.000
213.97	-70.000
214.34	-400.000
214.72	250.000
215.09	-325.000
215.47	0.000
215.84	128.571
216.22	900.000
216.59	-120.000
216.97	-340.000
217.34	-475.000
217.72	-175.000
218.09	-475.000
218.47	-400.000
218.84	0.000
219.22	220.000
219.59	-52.941
219.97	-35.000
220.34	700.000
220.72	-111.111
221.09	-53.846
221.47	-300.000
221.84	-130.000
222.22	-200.000
222.59	0.000
222.97	-62.500
223.34	-220.000
223.72	-1700.000
224.09	-275.000
224.46	-600.000
224.84	-260.000
225.21	-328.571
225.59	-275.000
225.96	-200.000
226.34	-19.231
226.71	400.000
227.08	-550.000
227.46	-53.333
227.83	-475.000
228.21	-21.053
228.58	262.500
228.95	1000.000
229.33	-58.333
229.70	-30.000
230.08	5.263
230.45	150.000
230.82	-233.333
231.20	-57.143
231.57	-41.667
231.95	-90.909
232.32	-9.091
232.69	-40.000
233.07	-675.000
233.44	-117.647
233.81	-140.000
234.19	5.556
234.56	-27.273
234.93	27.586
235.31	-36.842
235.68	-77.778
236.05	-130.000
236.43	-19.231
236.80	12.000
237.17	3.704
237.55	-24.242
237.92	-150.000
238.29	-19.355
238.67	6.818
239.04	-11.111
239.41	-11.905
239.79	8.696
240.16	16.667
240.53	-13.043
240.91	-29.412
241.28	-31.148
241.65	7.463
242.02	10.811
242.40	-13.846
242.77	5.333
243.14	-9.756
243.51	-11.842
243.89	8.974
244.26	12.871
244.63	6.863
245.00	12.150
245.38	9.649
245.75	1.770
246.12	19.048
246.49	3.876
246.87	11.429
247.24	15.894
247.61	5.921
247.98	11.409
248.36	8.025
248.73	8.589
249.10	12.022
249.47	21.393
249.84	18.848
250.22	14.508
250.59	7.778
250.96	15.000
251.33	10.714
251.70	14.957
252.08	18.750
252.45	15.164
252.82	13.636
253.19	14.844
253.56	19.011
253.94	14.615
254.31	16.667
254.68	19.930
255.05	20.847
255.42	12.925
255.79	17.152
256.16	14.570
256.54	13.245
256.91	18.361
257.28	16.393
257.65	14.968
258.02	14.749
258.39	16.239
258.76	14.679
259.14	16.667
259.51	16.427
259.88	15.297
260.25	14.444
260.62	16.438
260.99	18.579
261.36	19.839
261.73	17.772
262.10	18.132
262.47	16.622
262.85	21.970
263.22	18.442
263.59	14.211
263.96	19.182
264.33	16.113
264.70	19.259
265.07	17.422
265.44	19.501
265.81	17.130
266.18	19.048
266.55	17.411
266.92	17.084
267.29	19.694
267.66	17.073
268.03	18.777
268.40	17.119
268.77	17.995
269.14	13.436
269.51	17.105
269.88	20.697
270.25	18.913
270.62	17.932
270.99	22.222
271.36	17.426
271.73	19.646
272.10	18.637
272.47	15.631
272.84	16.466
273.21	17.836
273.58	18.145
273.95	15.577
274.32	16.730
274.69	17.988
275.06	19.597
275.43	15.157
275.80	18.871
276.17	13.148
276.54	16.978
276.91	16.458
277.28	16.637
277.65	17.774
278.02	19.669
278.39	18.116
278.76	17.223
279.13	17.021
279.50	17.869
279.87	19.678
280.23	17.254
280.60	18.136
280.97	16.118
281.34	16.808
281.71	18.105
282.08	17.442
282.45	17.185
282.82	15.385
283.19	15.024
283.56	17.541
283.92	18.318
284.29	19.115
284.66	17.077
285.03	14.904
285.40	18.083
285.77	17.183
286.14	18.015
286.51	19.330
286.87	15.956
287.24	17.470
287.61	15.546
287.98	16.012
288.35	16.716
288.72	14.201
289.08	15.959
289.45	14.497
289.82	15.964
290.19	14.943
290.56	13.239
290.93	14.123
291.29	15.565
291.66	16.116
292.03	15.197
292.40	17.279
292.77	14.825
293.13	15.968
293.50	13.535
293.87	14.765
294.24	17.733
294.60	15.044
294.97	13.020
295.34	16.005
295.71	14.754
296.08	13.437
296.44	14.828
296.81	14.495
297.18	12.453
297.55	13.915
297.91	14.116
298.28	13.744
298.65	15.339
299.02	13.341
299.38	14.073
299.75	14.486
300.12	13.889
300.48	14.055
300.85	14.398
301.22	15.101
301.59	14.954
301.95	13.446
302.32	15.111
302.69	14.896
303.05	14.690
303.42	14.634
303.79	14.688
304.15	15.037
304.52	15.011
304.89	15.183
305.25	14.596
305.62	14.525
305.99	14.639
306.35	14.919
306.72	16.546
307.09	15.533
307.45	15.114
307.82	15.237
308.19	15.742
308.55	16.393
308.92	15.482
309.29	15.326
309.65	15.400
310.02	16.337
310.38	15.256
310.75	16.505
311.12	16.683
311.48	15.738
311.85	16.809
312.22	16.603
312.58	16.244
312.95	18.260
313.31	18.519
313.68	18.864
314.05	18.609
314.41	18.670
314.78	18.892
315.14	19.601
315.51	20.037
315.87	19.352
316.24	21.644
316.61	21.314
316.97	21.991
317.34	20.282
317.70	21.921
318.07	22.046
318.43	23.044
318.80	23.495
319.16	23.605
319.53	22.279
319.89	23.401
320.26	25.712
320.62	24.291
320.99	24.654
321.35	25.786
321.72	25.674
322.08	26.240
322.45	26.558
322.81	27.166
323.18	27.168
323.54	27.586
323.91	29.004
324.27	26.764
324.64	28.631
325.00	28.441
325.37	27.846
325.73	28.843
326.10	29.278
326.46	29.723
326.83	30.584
327.19	30.236
327.56	29.249
327.92	29.190
328.29	29.194
328.65	28.894
329.01	30.711
329.38	30.413
329.74	30.223
330.11	31.935
330.47	29.992
330.84	31.697
331.20	30.917
331.56	31.889
331.93	31.464
332.29	31.780
332.66	31.977
333.02	30.235
333.38	30.117
333.75	30.387
334.11	30.692
334.48	31.106
334.84	32.370
335.20	30.143
335.57	31.197
335.93	30.413
336.29	29.950
336.66	30.866
337.02	30.936
337.38	30.187
337.75	29.835
338.11	31.623
338.47	29.859
338.84	30.288
339.20	28.896
339.56	29.984
339.93	30.624
340.29	29.469
340.65	29.603
341.02	30.407
341.38	29.830
341.74	28.329
342.11	30.008
342.47	28.118
342.83	29.710
343.20	29.926
343.56	29.832
343.92	29.303
344.28	29.375
344.65	29.380
345.01	30.109
345.37	29.005
345.73	28.137
346.10	29.173
346.46	28.877
346.82	28.989
347.19	29.412
347.55	29.818
347.91	28.232
348.27	28.149
348.63	27.723
349.00	26.696
349.36	27.658
349.72	27.455
350.08	28.306
350.45	28.137
350.81	27.753
351.17	28.120
351.53	27.597
351.89	27.715
352.26	26.716
352.62	27.015
352.98	26.794
353.34	26.587
353.70	27.042
354.07	28.092
354.43	27.563
354.79	27.898
355.15	27.815
355.51	28.582
355.87	27.375
356.24	26.008
356.60	27.642
356.96	26.612
357.32	26.617
357.68	26.867
358.04	26.347
358.40	26.567
358.77	26.023
359.13	26.662
359.49	25.056
359.85	25.888
360.21	25.825
360.57	26.346
360.93	25.882
361.29	25.895
361.66	25.489
362.02	26.166
362.38	26.564
362.74	25.419
363.10	26.272
363.46	26.177
363.82	25.497
364.18	25.475
364.54	25.311
364.90	25.953
365.26	25.586
365.62	25.733
365.98	25.528
366.35	26.174
366.71	25.102
367.07	26.319
367.43	25.476
367.79	25.348
368.15	25.217
368.51	25.981
368.87	25.408
369.23	24.600
369.59	25.410
369.95	25.152
370.31	25.253
370.67	24.622
371.03	24.515
371.39	23.842
371.75	24.691
372.11	23.984
372.47	24.238
372.83	25.000
373.19	23.682
373.55	25.203
373.91	23.995
374.27	24.386
374.63	25.575
374.99	25.199
375.35	24.481
375.71	24.903
376.07	23.886
376.42	23.804
376.78	25.544
377.14	24.205
377.50	25.237
377.86	25.554
378.22	25.030
378.58	24.673
378.94	24.296
379.30	24.546
379.66	24.339
380.02	23.716
380.38	24.136
380.74	24.394
381.09	24.274
381.45	24.602
381.81	26.522
382.17	23.812
382.53	24.035
382.89	23.984
383.25	24.326
383.61	24.190
383.97	23.910
384.32	24.641
384.68	23.202
385.04	24.176
385.40	24.337
385.76	24.502
386.12	23.579
386.48	23.353
386.83	24.732
387.19	22.827
387.55	22.946
387.91	23.174
388.27	23.845
388.62	23.253
388.98	22.899
389.34	23.925
389.70	23.649
390.06	23.091
390.42	22.711
390.77	24.323
391.13	23.298
391.49	23.188
391.85	22.606
392.20	23.191
392.56	23.922
392.92	23.501
393.28	23.494
393.64	22.961
393.99	23.707
394.35	23.949
394.71	23.832
395.07	22.814
395.42	22.787
395.78	24.375
396.14	22.995
396.50	23.159
396.85	22.660
397.21	22.308
397.57	22.850
397.92	22.680
398.28	22.488
398.64	22.426
399.00	23.141
399.35	22.984
399.71	22.772
400.07	22.852
400.42	22.410
400.78	21.875
401.14	23.335
401.49	22.342
401.85	22.442
402.21	22.248
402.57	22.594
402.92	22.695
403.28	21.897
403.63	22.196
403.99	22.328
404.35	22.229
404.70	22.380
405.06	22.120
405.42	21.136
405.77	22.301
406.13	21.664
406.49	22.973
406.84	22.881
407.20	21.856
407.55	22.168
407.91	21.873
408.27	22.615
408.62	21.815
408.98	21.590
409.34	21.056
409.69	22.744
410.05	22.040
410.40	22.158
410.76	22.098
411.11	21.742
411.47	22.113
411.83	22.340
412.18	22.590
412.54	21.636
412.89	22.177
413.25	21.896
413.60	21.252
413.96	22.786
414.31	21.643
414.67	22.182
415.03	21.354
415.38	21.311
415.74	21.197
416.09	21.838
416.45	20.664
416.80	21.481
417.16	21.839
417.51	21.295
417.87	21.704
418.22	21.617
418.58	20.384
418.93	21.886
419.29	21.023
419.64	20.468
420.00	21.246
420.35	21.786
420.71	21.482
421.06	21.219
421.42	20.126
421.77	20.625
422.12	21.353
422.48	21.045
422.83	21.632
423.19	20.955
423.54	21.571
423.90	20.652
424.25	21.333
424.61	20.494
424.96	20.868
425.31	21.072
425.67	20.988
426.02	21.251
426.38	21.125
426.73	20.313
427.09	21.396
427.44	19.934
427.79	21.006
428.15	20.890
428.50	20.955
428.85	21.183
429.21	21.117
429.56	20.681
429.92	20.049
430.27	21.060
430.62	21.055
430.98	20.610
431.33	21.065
431.68	20.929
432.04	20.467
432.39	20.728
432.74	19.920
433.10	21.092
433.45	20.903
433.80	20.333
434.16	20.661
434.51	21.172
434.86	20.358
435.22	21.041
435.57	20.696
435.92	20.145
436.28	21.047
436.63	21.354
436.98	20.719
437.34	20.800
437.69	20.583
438.04	20.412
438.39	20.333
438.75	20.753
439.10	20.666
439.45	20.067
439.81	21.130
440.16	19.839
440.51	21.405
440.86	20.345
441.22	20.418
441.57	20.545
441.92	20.757
442.27	20.859
442.63	20.765
442.98	21.131
443.33	21.147
443.68	21.011
444.03	21.355
444.39	20.943
444.74	21.235
445.09	20.071
445.44	20.917
445.79	20.307
446.15	21.531
446.50	20.930
446.85	21.401
447.20	20.551
447.55	20.607
447.91	20.209
448.26	20.560
448.61	20.670
448.96	21.298
449.31	20.891
449.66	19.771
450.02	20.517
450.37	21.524
450.72	20.721
451.07	20.843
451.42	20.682
451.77	20.011
452.12	20.090
452.47	20.559
452.83	20.833
453.18	20.432
453.53	20.850
453.88	19.823
454.23	20.282
454.58	20.546
454.93	20.510
455.28	20.650
455.63	21.376
455.98	20.279
456.34	20.318
456.69	20.929
457.04	21.099
457.39	20.676
457.74	20.973
458.09	20.758
458.44	20.797
458.79	20.320
459.14	19.979
459.49	19.921
459.84	20.409
460.19	20.378
460.54	20.500
460.89	20.328
461.24	19.828
461.59	20.587
461.94	19.452
462.29	20.101
462.64	21.123
462.99	19.774
463.34	20.571
463.69	19.812
464.04	20.956
464.39	20.348
464.74	19.555
465.09	20.300
465.44	19.635
465.79	19.672
466.14	19.802
466.49	19.684
466.84	19.725
467.19	20.289
467.54	18.801
467.89	20.287
468.24	19.391
468.59	18.471
468.94	19.289
469.29	18.956
469.64	19.263
469.99	19.057
470.34	19.678
470.68	19.481
471.03	20.039
471.38	20.667
471.73	19.571
472.08	19.226
472.43	19.506
472.78	19.270
473.13	19.722
473.48	19.033
473.83	19.153
474.17	19.343
474.52	19.302
474.87	19.324
475.22	19.944
475.57	18.847
475.92	19.164
476.27	18.956
476.61	19.003
476.96	18.874
477.31	19.851
477.66	19.727
478.01	19.827
478.36	19.242
478.70	18.966
479.05	19.070
479.40	19.200
479.75	18.540
480.10	19.564
480.45	18.551
480.79	19.138
481.14	19.072
481.49	18.810
481.84	19.626
482.19	19.312
482.53	19.414
482.88	19.672
483.23	19.253
483.58	19.170
483.92	19.193
484.27	19.179
484.62	18.317
484.97	19.168
485.31	18.691
485.66	18.120
486.01	17.784
486.36	18.322
486.70	19.380
487.05	19.790
487.40	19.944
487.75	19.593
488.09	19.583
488.44	19.020
488.79	19.022
489.13	19.334
489.48	17.942
489.83	18.592
490.17	18.064
490.52	18.103
490.87	17.936
491.22	18.154
491.56	18.259
491.91	18.360
492.26	18.607
492.60	18.321
492.95	18.166
493.30	18.826
493.64	17.915
493.99	18.333
494.34	18.206
494.68	18.458
495.03	18.018
495.37	18.331
495.72	18.413
496.07	18.142
496.41	18.447
496.76	18.390
497.11	18.047
497.45	18.170
497.80	17.814
498.14	18.095
498.49	17.877
498.84	18.739
499.18	18.219
499.53	18.475
499.87	18.593
500.22	17.097
500.56	17.184
500.91	18.078
501.26	18.727
501.60	17.985
501.95	18.194
502.29	17.990
502.64	18.190
502.98	17.947
503.33	17.754
503.67	17.270
504.02	17.776
504.36	18.186
504.71	17.777
505.06	17.553
505.40	17.642
505.75	18.078
506.09	17.495
506.44	18.199
506.78	17.706
507.13	17.566
507.47	18.238
507.82	17.850
508.16	17.543
508.51	17.018
508.85	17.100
509.19	17.385
509.54	18.060
509.88	17.144
510.23	17.678
510.57	18.318
510.92	17.804
511.26	17.316
511.61	16.514
511.95	16.886
512.30	17.134
512.64	17.341
512.98	17.809
513.33	17.339
513.67	17.491
514.02	17.629
514.36	17.545
514.70	17.135
515.05	17.362
515.39	16.955
515.74	17.285
516.08	16.904
516.42	17.635
516.77	15.878
517.11	17.122
517.46	18.081
517.80	16.889
518.14	17.410
518.49	17.245
518.83	16.498
519.17	16.263
519.52	16.876
519.86	17.423
520.20	16.560
520.55	15.717
520.89	16.836
521.23	17.141
521.58	16.723
521.92	16.091
522.26	16.781
522.61	16.782
522.95	17.128
523.29	15.977
523.64	15.863
523.98	17.171
524.32	17.708
524.66	16.278
525.01	15.798
525.35	16.025
525.69	16.937
526.04	16.418
526.38	15.805
526.72	16.724
527.06	16.774
527.41	15.977
527.75	16.983
528.09	16.352
528.43	16.223
528.78	15.780
529.12	16.456
529.46	16.076
529.80	16.705
530.15	16.348
530.49	16.311
530.83	16.116
531.17	16.786
531.51	15.945
531.86	16.647
532.20	16.829
532.54	15.859
532.88	16.727
533.22	16.028
533.57	16.330
533.91	16.723
534.25	15.715
534.59	16.437
534.93	15.789
535.27	15.944
535.62	16.657
535.96	16.212
536.30	15.687
536.64	16.396
536.98	16.421
537.32	15.370
537.66	16.594
538.01	15.952
538.35	15.347
538.69	15.986
539.03	16.554
539.37	16.078
539.71	15.856
540.05	16.787
540.39	15.465
540.73	15.786
541.07	16.493
541.42	15.771
541.76	16.074
542.10	15.923
542.44	15.652
542.78	16.302
543.12	15.673
543.46	16.422
543.80	15.528
544.14	15.739
544.48	15.839
544.82	16.697
545.16	16.756
545.50	16.477
545.84	15.615
546.18	16.728
546.52	15.350
546.86	15.220
547.20	15.585
547.54	15.293
547.88	14.888
548.22	15.088
548.56	15.331
548.90	15.761
549.24	16.657
549.58	16.088
549.92	15.051
550.26	15.858
550.60	15.699
550.94	15.653
551.28	15.512
551.62	15.431
551.96	14.628
552.30	16.571
552.64	15.370
552.98	15.721
553.32	16.077
553.66	15.820
554.00	15.132
554.34	16.023
554.68	15.171
555.02	15.243
555.36	15.648
555.69	14.798
556.03	15.006
556.37	16.583
556.71	14.965
557.05	15.591
557.39	15.063
557.73	14.465
558.07	15.166
558.41	16.146
558.75	15.686
559.08	14.196
559.42	14.609
559.76	15.468
560.10	15.338
560.44	15.567
560.78	15.750
561.12	15.271
561.45	15.268
561.79	15.263
562.13	15.527
562.47	14.612
562.81	14.557
563.15	15.593
563.48	14.978
563.82	15.538
564.16	14.597
564.50	15.614
564.84	15.162
565.17	14.882
565.51	14.442
565.85	15.143
566.19	14.516
566.52	14.453
566.86	14.601
567.20	13.975
567.54	15.826
567.88	15.138
568.21	15.267
568.55	15.540
568.89	15.570
569.23	15.674
569.56	15.045
569.90	15.431
570.24	15.110
570.57	14.817
570.91	15.156
571.25	15.158
571.59	15.586
571.92	14.925
572.26	15.537
572.60	15.643
572.93	15.113
573.27	14.892
573.61	15.326
573.95	15.319
574.28	15.394
574.62	15.371
574.96	15.174
575.29	14.827
575.63	15.038
575.97	15.234
576.30	15.371
576.64	15.008
576.98	15.034
577.31	15.462
577.65	15.477
577.98	15.474
578.32	14.837
578.66	15.172
578.99	15.380
579.33	15.207
579.67	15.458
580.00	14.925
580.34	15.336
580.67	15.137
581.01	14.777
581.35	15.157
581.68	15.049
582.02	15.179
582.35	15.291
582.69	15.207
583.02	15.754
583.36	15.116
583.70	15.474
584.03	15.359
584.37	15.280
584.70	15.526
585.04	14.741
585.37	14.803
585.71	15.167
586.04	15.170
586.38	15.088
586.72	14.741
587.05	14.914
587.39	15.183
587.72	15.167
588.06	15.015
588.39	15.086
588.73	14.815
589.06	14.786
589.40	14.843
589.73	15.328
590.07	15.749
590.40	15.551
590.73	15.058
591.07	15.376
591.40	14.697
591.74	14.746
592.07	14.941
592.41	14.866
592.74	14.838
593.08	14.936
593.41	15.281
593.75	15.086
594.08	15.086
594.41	14.455
594.75	14.779
595.08	14.199
595.42	14.870
595.75	15.047
596.09	14.436
596.42	15.120
596.75	14.203
597.09	15.354
597.42	15.137
597.75	14.504
598.09	15.159
598.42	14.998
598.76	14.673
599.09	14.525
599.42	14.817
599.76	14.361
600.09	14.648
600.42	14.481
600.76	15.059
601.09	14.504
601.42	14.452
601.76	14.690
602.09	14.189
602.42	14.758
602.76	14.797
603.09	14.391
603.42	14.595
603.76	14.165
604.09	15.401
604.42	15.119
604.76	15.107
605.09	15.556
605.42	14.474
605.75	14.577
606.09	14.670
606.42	14.374
606.75	14.093
607.09	14.363
607.42	14.875
607.75	14.654
608.08	14.128
608.42	14.349
608.75	14.718
609.08	14.941
609.41	15.307
609.75	13.929
610.08	15.084
610.41	14.019
610.74	14.118
611.07	14.210
611.41	15.067
611.74	15.012
612.07	15.147
612.40	14.211
612.73	14.914
613.07	14.670
613.40	15.159
613.73	14.540
614.06	14.573
614.39	14.772
614.72	14.702
615.06	14.341
615.39	13.775
615.72	14.597
616.05	14.959
616.38	14.379
616.71	15.517
617.05	14.271
617.38	14.928
617.71	14.849
618.04	14.247
618.37	15.246
618.70	14.480
619.03	14.755
619.36	14.180
619.69	13.453
620.03	13.936
620.36	14.110
620.69	13.448
621.02	14.370
621.35	14.151
621.68	14.389
622.01	14.448
622.34	13.110
622.67	13.196
623.00	13.900
623.33	13.736
623.66	14.981
623.99	13.562
624.32	15.205
624.65	13.964
624.99	14.239
625.32	15.284
625.65	15.172
625.98	12.949
626.31	14.033
626.64	14.359
626.97	14.479
627.30	13.136
627.63	13.278
627.96	14.640
628.29	13.307
628.62	13.350
628.95	13.760
629.28	14.359
629.61	13.468
629.94	13.724
630.26	13.051
630.59	13.385
630.92	13.160
631.25	13.238
631.58	14.124
631.91	13.871
