SpectraSuite Data File
++++++++++++++++++++++++++++++++++++
Date: Thu May 14 16:15:52 PDT 2015
User: schluterlab
Dark Spectrum Present: Yes
Reference Spectrum Present: Yes
Number of Sampled Component Spectra: 1
Spectrometers: USB2E3373
Integration Time (usec): 3000 (USB2E3373)
Spectra Averaged: 3 (USB2E3373)
Boxcar Smoothing: 0 (USB2E3373)
Correct for Electrical Dark: No (USB2E3373)
Strobe/Lamp Enabled: No (USB2E3373)
Correct for Detector Non-linearity: No (USB2E3373)
Correct for Stray Light: No (USB2E3373)
Number of Pixels in Processed Spectrum: 2048
>>>>>Begin Processed Spectral Data<<<<<
178.53	0.000
178.91	-14.286
179.29	-1700.000
179.67	-800.000
180.04	128.571
180.42	10.000
180.80	40.000
181.18	-700.000
181.56	500.000
181.94	175.000
182.31	-50.000
182.69	-166.667
183.07	0.000
183.45	200.000
183.83	-33.333
184.20	266.667
184.58	-800.000
184.96	-200.000
185.34	-44.444
185.72	-120.000
186.09	222.222
186.47	450.000
186.85	100.000
187.23	-88.889
187.61	-1100.000
187.98	180.000
188.36	400.000
188.74	-125.000
189.12	-100.000
189.49	0.000
189.87	-162.500
190.25	0.000
190.63	40.000
191.00	-111.111
191.38	0.000
191.76	-175.000
192.14	50.000
192.51	-0.000
192.89	33.333
193.27	0.000
193.65	-100.000
194.02	-1600.000
194.40	-28.571
194.78	214.286
195.15	0.000
195.53	63.636
195.91	0.000
196.29	100.000
196.66	-46.154
197.04	-300.000
197.42	-57.143
197.79	0.000
198.17	25.000
198.55	-114.286
198.92	66.667
199.30	-12.500
199.68	63.636
200.05	28.571
200.43	-50.000
200.81	185.714
201.18	0.000
201.56	188.889
201.94	0.000
202.31	100.000
202.69	-88.889
203.07	-0.000
203.44	-122.222
203.82	-250.000
204.19	25.000
204.57	-100.000
204.95	-137.500
205.32	-900.000
205.70	175.000
206.08	-50.000
206.45	-166.667
206.83	540.000
207.20	-150.000
207.58	-180.000
207.96	-100.000
208.33	16.667
208.71	100.000
209.08	-16.667
209.46	0.000
209.84	250.000
210.21	450.000
210.59	450.000
210.96	100.000
211.34	-25.000
211.71	-50.000
212.09	-100.000
212.46	0.000
212.84	450.000
213.22	-120.000
213.59	0.000
213.97	50.000
214.34	-300.000
214.72	66.667
215.09	-100.000
215.47	0.000
215.84	185.714
216.22	850.000
216.59	-80.000
216.97	-140.000
217.34	-300.000
217.72	0.000
218.09	-225.000
218.47	-175.000
218.84	0.000
219.22	20.000
219.59	-11.765
219.97	15.000
220.34	100.000
220.72	-122.222
221.09	-15.385
221.47	-133.333
221.84	-60.000
222.22	-114.286
222.59	0.000
222.97	-100.000
223.34	-240.000
223.72	-700.000
224.09	-150.000
224.46	-200.000
224.84	80.000
225.21	-157.143
225.59	-425.000
225.96	-375.000
226.34	3.846
226.71	216.667
227.08	-100.000
227.46	-6.667
227.83	-125.000
228.21	15.789
228.58	100.000
228.95	250.000
229.33	25.000
229.70	0.000
230.08	73.684
230.45	-20.000
230.82	0.000
231.20	-7.143
231.57	16.667
231.95	-36.364
232.32	-27.273
232.69	25.000
233.07	-100.000
233.44	-17.647
233.81	-80.000
234.19	72.222
234.56	68.182
234.93	27.586
235.31	-26.316
235.68	16.667
236.05	-60.000
236.43	30.769
236.80	28.000
237.17	40.741
237.55	3.030
237.92	-120.000
238.29	3.226
238.67	6.818
239.04	11.111
239.41	4.762
239.79	13.043
240.16	-11.111
240.53	-6.522
240.91	-9.804
241.28	18.033
241.65	5.970
242.02	16.216
242.40	4.615
242.77	8.000
243.14	12.195
243.51	1.316
243.89	6.410
244.26	9.901
244.63	16.667
245.00	15.888
245.38	13.158
245.75	-7.080
246.12	12.698
246.49	12.403
246.87	17.857
247.24	15.232
247.61	19.737
247.98	10.067
248.36	12.346
248.73	8.589
249.10	15.301
249.47	19.900
249.84	16.230
250.22	16.062
250.59	13.889
250.96	20.000
251.33	14.286
251.70	13.248
252.08	13.333
252.45	18.443
252.82	9.504
253.19	10.156
253.56	17.110
253.94	12.308
254.31	13.636
254.68	16.434
255.05	18.893
255.42	14.286
255.79	16.181
256.16	16.556
256.54	13.907
256.91	19.672
257.28	14.426
257.65	11.783
258.02	14.454
258.39	14.815
258.76	17.431
259.14	16.379
259.51	14.409
259.88	15.297
260.25	13.889
260.62	18.356
260.99	18.579
261.36	15.818
261.73	12.997
262.10	15.385
262.47	15.550
262.85	18.687
263.22	12.208
263.59	12.632
263.96	14.322
264.33	13.043
264.70	16.543
265.07	17.422
265.44	20.181
265.81	15.972
266.18	16.553
266.55	16.295
266.92	12.984
267.29	14.880
267.66	15.078
268.03	15.939
268.40	13.779
268.77	16.173
269.14	13.877
269.51	13.158
269.88	14.549
270.25	13.682
270.62	13.502
270.99	16.768
271.36	16.040
271.73	14.931
272.10	18.637
272.47	10.621
272.84	16.667
273.21	16.032
273.58	15.323
273.95	15.577
274.32	14.449
274.69	14.313
275.06	15.934
275.43	12.384
275.80	15.873
276.17	12.593
276.54	14.552
276.91	13.596
277.28	14.467
277.65	15.440
278.02	16.912
278.39	15.580
278.76	13.708
279.13	15.071
279.50	17.010
279.87	15.564
280.23	13.732
280.60	15.424
280.97	13.322
281.34	13.073
281.71	14.721
282.08	15.615
282.45	14.894
282.82	13.187
283.19	13.893
283.56	15.902
283.92	14.865
284.29	15.956
284.66	15.928
285.03	12.821
285.40	15.301
285.77	16.873
286.14	15.878
286.51	14.612
286.87	13.902
287.24	14.307
287.61	13.303
287.98	13.746
288.35	14.201
288.72	14.645
289.08	12.738
289.45	12.426
289.82	14.608
290.19	13.937
290.56	15.070
290.93	13.695
291.29	14.738
291.66	13.912
292.03	13.840
292.40	14.014
292.77	14.555
293.13	14.073
293.50	13.666
293.87	15.034
294.24	14.267
294.60	13.274
294.97	12.886
295.34	14.341
295.71	13.493
296.08	13.049
296.44	14.216
296.81	14.373
297.18	12.329
297.55	13.797
297.91	13.523
298.28	12.204
298.65	13.199
299.02	13.459
299.38	15.103
299.75	13.435
300.12	13.542
300.48	13.710
300.85	13.161
301.22	12.752
301.59	12.785
301.95	12.994
302.32	14.778
302.69	13.472
303.05	13.058
303.42	14.080
303.79	12.188
304.15	14.932
304.52	10.571
304.89	13.822
305.25	12.112
305.62	13.898
305.99	13.608
306.35	13.710
306.72	14.478
307.09	14.010
307.45	14.079
307.82	13.623
308.19	13.623
308.55	14.079
308.92	13.535
309.29	13.506
309.65	14.133
310.02	14.554
310.38	14.173
310.75	13.786
311.12	14.957
311.48	13.978
311.85	14.435
312.22	14.896
312.58	14.648
312.95	12.141
313.31	14.815
313.68	14.652
314.05	15.086
314.41	14.845
314.78	14.532
315.14	15.064
315.51	15.605
315.87	16.112
316.24	15.616
316.61	16.252
316.97	15.837
317.34	15.432
317.70	16.507
318.07	16.667
318.43	15.816
318.80	16.137
319.16	16.652
319.53	14.567
319.89	15.688
320.26	17.082
320.62	15.426
320.99	16.251
321.35	15.896
321.72	17.023
322.08	16.231
322.45	16.802
322.81	17.870
323.18	16.726
323.54	18.707
323.91	16.459
324.27	17.470
324.64	17.548
325.00	17.828
325.37	18.428
325.73	18.926
326.10	18.086
326.46	19.381
326.83	18.415
327.19	18.110
327.56	18.182
327.92	18.253
328.29	17.823
328.65	17.169
329.01	18.782
329.38	18.703
329.74	19.777
330.11	19.777
330.47	18.955
330.84	19.208
331.20	18.750
331.56	17.851
331.93	20.669
332.29	19.576
332.66	18.937
333.02	18.593
333.38	18.372
333.75	19.613
334.11	18.599
334.48	18.152
334.84	20.561
335.20	19.312
335.57	18.803
335.93	19.091
336.29	18.386
336.66	18.839
337.02	18.729
337.38	19.133
337.75	18.099
338.11	18.335
338.47	19.438
338.84	17.597
339.20	17.607
339.56	18.369
339.93	19.458
340.29	18.841
340.65	18.086
341.02	18.595
341.38	19.402
341.74	18.725
342.11	17.940
342.47	17.474
342.83	19.163
343.20	19.460
343.56	18.765
343.92	18.895
344.28	18.750
344.65	20.078
345.01	18.721
345.37	18.429
345.73	17.381
346.10	19.579
346.46	17.722
346.82	18.727
347.19	20.397
347.55	18.665
347.91	18.128
348.27	18.134
348.63	18.583
349.00	19.314
349.36	18.587
349.72	18.601
350.08	18.722
350.45	18.403
350.81	19.155
351.17	18.421
351.53	18.954
351.89	20.197
352.26	19.328
352.62	18.209
352.98	18.244
353.34	17.326
353.70	18.336
354.07	19.672
354.43	17.312
354.79	18.325
355.15	18.764
355.51	17.690
355.87	18.848
356.24	18.631
356.60	18.477
356.96	18.310
357.32	17.770
357.68	18.594
358.04	17.665
358.40	18.881
358.77	19.079
359.13	18.021
359.49	17.472
359.85	18.564
360.21	19.799
360.57	17.947
360.93	18.265
361.29	19.649
361.66	18.103
362.02	18.650
362.38	19.817
362.74	18.855
363.10	18.638
363.46	18.144
363.82	18.750
364.18	19.001
364.54	19.502
364.90	18.729
365.26	18.828
365.62	19.267
365.98	18.244
366.35	19.262
366.71	18.776
367.07	19.553
367.43	19.107
367.79	19.244
368.15	18.528
368.51	18.945
368.87	19.660
369.23	18.400
369.59	18.716
369.95	18.864
370.31	19.379
370.67	18.982
371.03	19.044
371.39	19.342
371.75	19.188
372.11	18.496
372.47	19.228
372.83	19.568
373.19	18.612
373.55	18.902
373.91	18.405
374.27	18.823
374.63	19.350
374.99	18.899
375.35	19.416
375.71	19.032
376.07	19.109
376.42	18.892
376.78	19.826
377.14	19.838
377.50	18.722
377.86	19.828
378.22	19.760
378.58	18.787
378.94	19.425
379.30	18.922
379.66	19.518
380.02	19.677
380.38	20.219
380.74	19.662
381.09	18.641
381.45	19.318
381.81	20.082
382.17	19.359
382.53	19.649
382.89	19.018
383.25	19.285
383.61	18.634
383.97	19.788
384.32	19.199
384.68	18.968
385.04	20.474
385.40	19.859
385.76	19.812
386.12	19.090
386.48	19.353
386.83	20.739
387.19	19.583
387.55	18.897
387.91	20.034
388.27	19.688
388.62	19.129
388.98	18.951
389.34	20.271
389.70	19.988
390.06	20.485
390.42	18.373
390.77	19.687
391.13	18.427
391.49	19.746
391.85	19.455
392.20	19.336
392.56	19.315
392.92	19.575
393.28	19.458
393.64	19.497
393.99	19.407
394.35	20.444
394.71	19.401
395.07	18.922
395.42	18.332
395.78	19.744
396.14	19.548
396.50	18.646
396.85	18.903
397.21	19.172
397.57	19.081
397.92	19.416
398.28	18.088
398.64	18.822
399.00	18.325
399.35	18.953
399.71	19.402
400.07	18.754
400.42	19.674
400.78	19.329
401.14	18.953
401.49	18.931
401.85	19.826
402.21	19.525
402.57	19.718
402.92	19.563
403.28	18.560
403.63	18.258
403.99	18.349
404.35	19.272
404.70	18.867
405.06	18.370
405.42	19.087
405.77	19.193
406.13	18.909
406.49	18.412
406.84	19.723
407.20	19.117
407.55	18.413
407.91	18.290
408.27	18.728
408.62	18.848
408.98	18.688
409.34	17.947
409.69	19.283
410.05	18.933
410.40	18.794
410.76	19.013
411.11	18.644
411.47	18.428
411.83	18.930
412.18	19.096
412.54	18.791
412.89	18.335
413.25	18.284
413.60	18.667
413.96	18.590
414.31	18.584
414.67	19.141
415.03	18.769
415.38	18.979
415.74	17.654
416.09	17.767
416.45	17.783
416.80	17.748
417.16	17.944
417.51	18.369
417.87	18.700
418.22	18.503
418.58	18.711
418.93	18.335
419.29	18.002
419.64	17.407
420.00	17.982
420.35	18.024
420.71	17.117
421.06	18.401
421.42	18.062
421.77	17.394
422.12	17.442
422.48	18.536
422.83	18.346
423.19	18.090
423.54	18.639
423.90	17.725
424.25	17.920
424.61	17.509
424.96	18.561
425.31	18.418
425.67	18.465
426.02	17.986
426.38	18.083
426.73	18.080
427.09	19.204
427.44	17.641
427.79	18.076
428.15	17.922
428.50	17.360
428.85	17.853
429.21	18.404
429.56	17.275
429.92	18.231
430.27	18.554
430.62	17.489
430.98	17.560
431.33	17.400
431.68	17.625
432.04	17.776
432.39	17.408
432.74	18.265
433.10	18.605
433.45	17.168
433.80	18.294
434.16	18.285
434.51	17.575
434.86	18.024
435.22	19.022
435.57	18.868
435.92	17.807
436.28	18.544
436.63	18.678
436.98	17.821
437.34	17.926
437.69	17.997
438.04	18.879
438.39	18.265
438.75	18.041
439.10	18.975
439.45	18.446
439.81	17.740
440.16	18.070
440.51	18.952
440.86	18.232
441.22	18.382
441.57	19.078
441.92	18.332
442.27	19.293
442.63	17.536
442.98	18.997
443.33	18.517
443.68	18.930
444.03	19.003
444.39	18.447
444.74	18.581
445.09	17.942
445.44	18.599
445.79	18.918
446.15	18.859
446.50	18.605
446.85	18.482
447.20	19.197
447.55	19.038
447.91	18.325
448.26	18.023
448.61	19.447
448.96	20.064
449.31	18.664
449.66	17.484
450.02	19.357
450.37	18.434
450.72	18.461
451.07	18.679
451.42	17.909
451.77	18.344
452.12	18.905
452.47	18.241
452.83	19.200
453.18	19.264
453.53	19.242
453.88	18.995
454.23	19.322
454.58	18.224
454.93	18.143
455.28	19.506
455.63	19.045
455.98	18.715
456.34	18.080
456.69	18.460
457.04	18.381
457.39	19.734
457.74	19.855
458.09	17.738
458.44	18.481
458.79	18.412
459.14	19.088
459.49	19.298
459.84	19.203
460.19	18.157
460.54	18.569
460.89	18.052
461.24	18.621
461.59	19.923
461.94	18.597
462.29	19.205
462.64	18.467
462.99	18.770
463.34	19.079
463.69	17.526
464.04	18.621
464.39	18.778
464.74	17.902
465.09	18.916
465.44	18.294
465.79	18.509
466.14	17.874
466.49	18.158
466.84	17.961
467.19	18.497
467.54	18.214
467.89	18.391
468.24	18.837
468.59	17.197
468.94	17.133
469.29	17.816
469.64	17.991
469.99	17.973
470.34	18.193
470.68	18.182
471.03	18.402
471.38	19.097
471.73	18.596
472.08	18.718
472.43	18.242
472.78	18.703
473.13	18.331
473.48	17.523
473.83	18.398
474.17	17.351
474.52	18.340
474.87	17.940
475.22	18.028
475.57	18.069
475.92	17.720
476.27	17.519
476.61	16.926
476.96	17.675
477.31	18.416
477.66	18.730
478.01	18.251
478.36	17.996
478.70	17.438
479.05	18.661
479.40	17.917
479.75	17.243
480.10	17.385
480.45	17.639
480.79	17.823
481.14	17.050
481.49	17.537
481.84	18.755
482.19	17.032
482.53	17.534
482.88	17.988
483.23	17.297
483.58	17.380
483.92	17.376
484.27	16.977
484.62	17.533
484.97	17.030
485.31	17.142
485.66	16.122
486.01	15.697
486.36	15.843
486.70	16.426
487.05	16.660
487.40	16.740
487.75	16.667
488.09	16.568
488.44	16.584
488.79	16.998
489.13	16.691
489.48	16.544
489.83	16.620
490.17	16.687
490.52	17.282
490.87	17.386
491.22	16.161
491.56	16.894
491.91	17.444
492.26	17.179
492.60	17.009
492.95	16.893
493.30	16.988
493.64	16.995
493.99	17.412
494.34	16.638
494.68	16.660
495.03	16.872
495.37	16.644
495.72	16.780
496.07	16.258
496.41	16.817
496.76	16.806
497.11	16.306
497.45	16.401
497.80	17.148
498.14	16.644
498.49	16.820
498.84	16.271
499.18	17.139
499.53	16.368
499.87	16.703
500.22	15.895
500.56	16.644
500.91	17.208
501.26	16.682
501.60	16.262
501.95	17.673
502.29	16.104
502.64	16.310
502.98	16.178
503.33	16.156
503.67	16.049
504.02	16.419
504.36	16.488
504.71	15.893
505.06	16.371
505.40	16.042
505.75	16.530
506.09	16.483
506.44	16.899
506.78	16.927
507.13	16.183
507.47	16.769
507.82	15.956
508.16	16.157
508.51	15.377
508.85	15.305
509.19	16.532
509.54	17.195
509.88	16.270
510.23	16.853
510.57	16.481
510.92	16.062
511.26	15.777
511.61	15.838
511.95	16.789
512.30	16.544
512.64	15.242
512.98	16.708
513.33	15.776
513.67	16.216
514.02	16.403
514.36	16.522
514.70	16.198
515.05	16.058
515.39	16.483
515.74	17.285
516.08	16.006
516.42	17.164
516.77	16.404
517.11	15.781
517.46	15.960
517.80	16.195
518.14	17.247
518.49	16.594
518.83	17.084
519.17	15.024
519.52	16.824
519.86	16.631
520.20	16.347
520.55	15.772
520.89	16.104
521.23	16.025
521.58	15.763
521.92	16.431
522.26	16.094
522.61	17.477
522.95	16.551
523.29	16.782
523.64	15.863
523.98	16.144
524.32	17.077
524.66	16.221
525.01	15.968
525.35	15.853
525.69	16.821
526.04	16.188
526.38	16.322
526.72	16.436
527.06	15.953
527.41	16.210
527.75	16.271
528.09	16.942
528.43	16.163
528.78	15.202
529.12	15.826
529.46	14.840
529.80	15.961
530.15	16.232
530.49	15.243
530.83	16.470
531.17	15.412
531.51	16.366
531.86	16.707
532.20	16.280
532.54	15.919
532.88	15.273
533.22	16.028
533.57	15.291
533.91	16.105
534.25	15.376
534.59	16.034
534.93	14.658
535.27	15.324
535.62	15.577
535.96	15.747
536.30	16.099
536.64	15.856
536.98	16.052
537.32	15.432
537.66	16.282
538.01	15.347
538.35	15.713
538.69	14.243
539.03	15.819
539.37	16.019
539.71	14.835
540.05	16.007
540.39	14.731
540.73	14.572
541.07	14.899
541.42	15.535
541.76	14.531
542.10	15.259
542.44	14.799
542.78	15.146
543.12	15.018
543.46	15.018
543.80	15.108
544.14	15.679
544.48	15.544
544.82	15.380
545.16	15.564
545.50	15.578
545.84	14.697
546.18	16.049
546.52	15.478
546.86	15.283
547.20	15.712
547.54	14.419
547.88	14.647
548.22	14.912
548.56	14.394
548.90	15.164
549.24	15.319
549.58	15.079
549.92	14.605
550.26	15.016
550.60	14.422
550.94	15.136
551.28	15.050
551.62	14.825
551.96	14.628
552.30	15.679
552.64	16.428
552.98	14.535
553.32	14.855
553.66	14.984
554.00	15.259
554.34	14.350
554.68	14.590
555.02	14.980
555.36	15.516
555.69	15.247
556.03	14.250
556.37	14.956
556.71	14.077
557.05	14.888
557.39	15.461
557.73	15.456
558.07	14.305
558.41	15.017
558.75	15.483
559.08	14.057
559.42	15.981
559.76	15.875
560.10	14.735
560.44	15.040
560.78	15.875
561.12	14.778
561.45	14.781
561.79	14.774
562.13	14.541
562.47	13.995
562.81	14.430
563.15	13.952
563.48	14.854
563.82	14.027
564.16	13.386
564.50	13.766
564.84	14.100
565.17	14.647
565.51	13.982
565.85	14.371
566.19	14.286
566.52	14.043
566.86	14.714
567.20	12.887
567.54	14.180
567.88	13.863
568.21	14.625
568.55	13.573
568.89	13.890
569.23	13.984
569.56	12.857
569.90	13.257
570.24	12.884
570.57	12.348
570.91	12.064
571.25	12.467
571.59	12.524
571.92	12.207
572.26	12.229
572.60	12.340
572.93	12.357
573.27	12.475
573.61	12.705
573.95	12.552
574.28	12.263
574.62	12.074
574.96	11.667
575.29	11.809
575.63	11.642
575.97	11.952
576.30	11.966
576.64	11.644
576.98	12.073
577.31	11.805
577.65	11.700
577.98	11.860
578.32	11.730
578.66	11.723
578.99	11.550
579.33	11.761
579.67	11.650
580.00	11.666
580.34	11.387
580.67	11.209
581.01	11.575
581.35	11.592
581.68	11.375
582.02	11.629
582.35	11.592
582.69	12.060
583.02	11.605
583.36	11.727
583.70	11.861
584.03	11.615
584.37	11.503
584.70	11.174
585.04	11.439
585.37	11.224
585.71	11.607
586.04	11.669
586.38	11.792
586.72	10.704
587.05	11.384
587.39	11.818
587.72	11.675
588.06	11.896
588.39	12.099
588.73	11.508
589.06	11.710
589.40	12.200
589.73	11.857
590.07	12.202
590.40	12.441
590.73	12.725
591.07	12.137
591.40	11.858
591.74	12.401
592.07	12.546
592.41	11.672
592.74	12.141
593.08	12.389
593.41	12.307
593.75	11.839
594.08	11.754
594.41	12.147
594.75	11.292
595.08	11.474
595.42	12.013
595.75	11.721
596.09	12.199
596.42	12.039
596.75	12.698
597.09	12.404
597.42	12.793
597.75	11.995
598.09	12.778
598.42	12.505
598.76	11.769
599.09	12.353
599.42	11.666
599.76	11.654
600.09	12.145
600.42	12.379
600.76	11.063
601.09	12.181
601.42	11.775
601.76	11.931
602.09	11.866
602.42	11.632
602.76	12.177
603.09	11.931
603.42	11.777
603.76	11.698
604.09	12.136
604.42	12.220
604.76	11.948
605.09	12.884
605.42	11.842
605.75	12.192
606.09	11.833
606.42	11.346
606.75	11.619
607.09	11.943
607.42	12.139
607.75	12.270
608.08	11.918
608.42	11.890
608.75	12.355
609.08	12.521
609.41	11.469
609.75	12.366
610.08	12.137
610.41	12.107
610.74	12.269
611.07	12.522
611.41	12.556
611.74	12.748
612.07	12.763
612.40	11.644
612.73	12.127
613.07	12.372
613.40	12.368
613.73	12.855
614.06	12.561
614.39	12.293
614.72	12.373
615.06	12.416
615.39	11.841
615.72	12.701
616.05	12.967
616.38	12.866
616.71	12.853
617.05	12.780
617.38	12.467
617.71	13.229
618.04	12.682
618.37	13.115
618.70	12.161
619.03	12.784
619.36	12.515
619.69	12.620
620.03	12.806
620.36	12.393
620.69	13.325
621.02	13.386
621.35	13.861
621.68	12.943
622.01	13.665
622.34	12.971
622.67	12.921
623.00	12.281
623.33	13.338
623.66	13.294
623.99	12.508
624.32	14.360
624.65	12.999
624.99	13.394
625.32	13.521
625.65	13.419
625.98	12.746
626.31	12.970
626.64	14.579
626.97	12.528
627.30	12.301
627.63	13.503
627.96	14.565
628.29	13.774
628.62	12.846
628.95	14.198
629.28	13.594
629.61	13.889
629.94	13.473
630.26	13.898
630.59	12.867
630.92	12.900
631.25	14.311
631.58	14.030
631.91	13.964
632.24	14.601
632.57	14.326
632.90	13.340
633.23	15.000
633.56	14.592
633.89	14.050
