SpectraSuite Data File
++++++++++++++++++++++++++++++++++++
Date: Thu May 14 16:08:54 PDT 2015
User: schluterlab
Dark Spectrum Present: Yes
Reference Spectrum Present: Yes
Number of Sampled Component Spectra: 1
Spectrometers: USB2E3373
Integration Time (usec): 3000 (USB2E3373)
Spectra Averaged: 3 (USB2E3373)
Boxcar Smoothing: 0 (USB2E3373)
Correct for Electrical Dark: No (USB2E3373)
Strobe/Lamp Enabled: No (USB2E3373)
Correct for Detector Non-linearity: No (USB2E3373)
Correct for Stray Light: No (USB2E3373)
Number of Pixels in Processed Spectrum: 2048
>>>>>Begin Processed Spectral Data<<<<<
178.53	0.000
178.91	128.571
179.29	-1600.000
179.67	-1500.000
180.04	207.143
180.42	80.000
180.80	380.000
181.18	-2000.000
181.56	-600.000
181.94	150.000
182.31	-425.000
182.69	566.667
183.07	-250.000
183.45	400.000
183.83	-200.000
184.20	-166.667
184.58	500.000
184.96	-425.000
185.34	-133.333
185.72	-220.000
186.09	244.444
186.47	850.000
186.85	360.000
187.23	-166.667
187.61	-1200.000
187.98	100.000
188.36	225.000
188.74	-275.000
189.12	-100.000
189.49	-31.250
189.87	-150.000
190.25	-144.444
190.63	-300.000
191.00	-100.000
191.38	0.000
191.76	-350.000
192.14	-166.667
192.51	750.000
192.89	-83.333
193.27	0.000
193.65	-171.429
194.02	-1200.000
194.40	-157.143
194.78	242.857
195.15	0.000
195.53	-118.182
195.91	0.000
196.29	-75.000
196.66	-84.615
197.04	-2400.000
197.42	-85.714
197.79	-800.000
198.17	-175.000
198.55	-185.714
198.92	-122.222
199.30	-187.500
199.68	-81.818
200.05	-28.571
200.43	-800.000
200.81	242.857
201.18	0.000
201.56	133.333
201.94	0.000
202.31	500.000
202.69	-222.222
203.07	100.000
203.44	-11.111
203.82	-350.000
204.19	-50.000
204.57	-116.667
204.95	-225.000
205.32	-1700.000
205.70	350.000
206.08	-100.000
206.45	-83.333
206.83	440.000
207.20	-216.667
207.58	-320.000
207.96	-283.333
208.33	-83.333
208.71	175.000
209.08	-116.667
209.46	0.000
209.84	233.333
210.21	950.000
210.59	-0.000
210.96	500.000
211.34	-125.000
211.71	-112.500
212.09	-2000.000
212.46	0.000
212.84	1100.000
213.22	-200.000
213.59	-225.000
213.97	0.000
214.34	-333.333
214.72	283.333
215.09	-525.000
215.47	0.000
215.84	228.571
216.22	850.000
216.59	-80.000
216.97	-220.000
217.34	-375.000
217.72	-37.500
218.09	-225.000
218.47	-425.000
218.84	0.000
219.22	220.000
219.59	-70.588
219.97	-45.000
220.34	1150.000
220.72	-255.556
221.09	-69.231
221.47	-333.333
221.84	-110.000
222.22	-285.714
222.59	0.000
222.97	-100.000
223.34	-360.000
223.72	-2500.000
224.09	-675.000
224.46	-150.000
224.84	-240.000
225.21	-300.000
225.59	-425.000
225.96	-575.000
226.34	-7.692
226.71	283.333
227.08	-600.000
227.46	-86.667
227.83	-300.000
228.21	-63.158
228.58	112.500
228.95	1000.000
229.33	-41.667
229.70	-50.000
230.08	-5.263
230.45	160.000
230.82	-366.667
231.20	-42.857
231.57	-66.667
231.95	-127.273
232.32	-54.545
232.69	5.000
233.07	-125.000
233.44	-70.588
233.81	-110.000
234.19	-22.222
234.56	-59.091
234.93	-31.034
235.31	-42.105
235.68	-16.667
236.05	-55.000
236.43	-19.231
236.80	12.000
237.17	-11.111
237.55	-21.212
237.92	-210.000
238.29	-41.935
238.67	-34.091
239.04	-38.889
239.41	-16.667
239.79	-2.174
240.16	-9.259
240.53	-10.870
240.91	-25.490
241.28	-3.279
241.65	11.940
242.02	9.459
242.40	-12.308
242.77	-16.000
243.14	-18.293
243.51	-22.368
243.89	-20.513
244.26	-1.980
244.63	-5.882
245.00	-7.477
245.38	-7.018
245.75	-10.619
246.12	3.175
246.49	-2.326
246.87	0.714
247.24	6.623
247.61	1.316
247.98	-0.671
248.36	0.000
248.73	-1.227
249.10	-1.093
249.47	4.478
249.84	2.094
250.22	-0.518
250.59	2.778
250.96	8.182
251.33	4.592
251.70	2.564
252.08	5.417
252.45	6.967
252.82	1.653
253.19	2.734
253.56	5.323
253.94	3.846
254.31	5.682
254.68	7.692
255.05	8.795
255.42	6.463
255.79	5.502
256.16	6.954
256.54	1.325
256.91	8.852
257.28	4.262
257.65	4.777
258.02	0.295
258.39	5.983
258.76	11.927
259.14	8.046
259.51	8.069
259.88	3.683
260.25	8.333
260.62	6.027
260.99	6.557
261.36	5.630
261.73	6.897
262.10	2.473
262.47	5.094
262.85	7.323
263.22	4.416
263.59	0.526
263.96	8.184
264.33	4.859
264.70	6.420
265.07	7.637
265.44	9.751
265.81	6.250
266.18	8.390
266.55	8.259
266.92	7.062
267.29	7.002
267.66	4.656
268.03	7.642
268.40	7.516
268.77	4.328
269.14	2.203
269.51	6.579
269.88	7.787
270.25	8.249
270.62	8.228
270.99	10.707
271.36	9.505
271.73	8.448
272.10	8.417
272.47	7.214
272.84	5.622
273.21	7.415
273.58	6.048
273.95	8.846
274.32	6.844
274.69	5.222
275.06	7.692
275.43	8.133
275.80	8.995
276.17	4.444
276.54	7.090
276.91	6.261
277.28	7.052
277.65	6.822
278.02	7.353
278.39	7.246
278.76	7.030
279.13	6.028
279.50	7.904
279.87	7.513
280.23	6.162
280.60	6.441
280.97	8.553
281.34	5.942
281.71	8.799
282.08	5.814
282.45	6.710
282.82	6.436
283.19	5.493
283.56	5.574
283.92	8.258
284.29	8.847
284.66	6.568
285.03	5.449
285.40	7.728
285.77	7.121
286.14	8.550
286.51	7.154
286.87	6.951
287.24	8.584
287.61	8.969
287.98	7.855
288.35	7.396
288.72	6.657
289.08	7.613
289.45	5.621
289.82	6.476
290.19	6.753
290.56	6.761
290.93	5.706
291.29	5.923
291.66	5.785
292.03	5.834
292.40	8.435
292.77	5.795
293.13	7.713
293.50	6.176
293.87	5.906
294.24	7.333
294.60	6.068
294.97	4.564
295.34	6.530
295.71	5.296
296.08	4.264
296.44	6.005
296.81	6.090
297.18	5.853
297.55	5.425
297.91	6.287
298.28	5.332
298.65	6.421
299.02	5.785
299.38	6.636
299.75	4.089
300.12	5.787
300.48	5.184
300.85	6.749
301.22	5.257
301.59	5.137
301.95	5.311
302.32	7.111
302.69	5.586
303.05	5.985
303.42	6.098
303.79	5.625
304.15	7.361
304.52	5.814
304.89	6.911
305.25	6.625
305.62	4.911
305.99	6.289
306.35	5.544
306.72	5.377
307.09	5.178
307.45	6.211
307.82	5.752
308.19	5.853
308.55	6.461
308.92	6.232
309.29	6.897
309.65	4.873
310.02	5.149
310.38	6.890
310.75	5.922
311.12	5.465
311.48	5.279
311.85	4.558
312.22	5.787
312.58	5.822
312.95	5.641
313.31	6.052
313.68	6.136
314.05	7.317
314.41	6.193
314.78	5.450
315.14	6.443
315.51	5.725
315.87	6.211
316.24	6.667
316.61	6.483
316.97	5.158
317.34	5.732
317.70	5.415
318.07	6.085
318.43	6.122
318.80	7.860
319.16	5.494
319.53	5.227
319.89	6.310
320.26	6.673
320.62	5.496
320.99	6.371
321.35	4.529
321.72	6.977
322.08	5.320
322.45	6.143
322.81	5.957
323.18	6.018
323.54	6.207
323.91	5.783
324.27	6.540
324.64	6.213
325.00	5.307
325.37	6.224
325.73	6.612
326.10	6.083
326.46	6.678
326.83	6.886
327.19	7.244
327.56	7.905
327.92	5.114
328.29	5.726
328.65	5.863
329.01	5.245
329.38	5.055
329.74	6.764
330.11	6.421
330.47	6.655
330.84	7.924
331.20	6.500
331.56	6.066
331.93	6.695
332.29	6.186
332.66	6.645
333.02	6.700
333.38	5.201
333.75	5.724
334.11	6.589
334.48	6.106
334.84	7.137
335.20	5.458
335.57	6.239
335.93	6.198
336.29	5.158
336.66	5.719
337.02	7.023
337.38	6.207
337.75	5.455
338.11	6.897
338.47	6.286
338.84	5.668
339.20	4.297
339.56	5.437
339.93	5.255
340.29	6.200
340.65	6.407
341.02	5.826
341.38	6.791
341.74	5.246
342.11	6.034
342.47	4.766
342.83	5.878
343.20	5.233
343.56	5.453
343.92	6.085
344.28	5.625
344.65	7.442
345.01	7.098
345.37	6.221
345.73	5.066
346.10	6.474
346.46	5.142
346.82	6.517
347.19	5.195
347.55	7.511
347.91	6.761
348.27	6.222
348.63	5.864
349.00	5.071
349.36	6.097
349.72	5.878
350.08	6.389
350.45	5.247
350.81	6.410
351.17	6.090
351.53	6.217
351.89	5.847
352.26	5.522
352.62	5.373
352.98	5.725
353.34	5.228
353.70	5.932
354.07	6.259
354.43	5.771
354.79	4.787
355.15	5.887
355.51	6.433
355.87	5.086
356.24	5.551
356.60	5.913
356.96	5.634
357.32	4.684
357.68	5.783
358.04	5.240
358.40	5.597
358.77	5.190
359.13	4.948
359.49	4.610
359.85	5.294
360.21	5.811
360.57	4.953
360.93	5.571
361.29	6.035
361.66	5.576
362.02	5.289
362.38	5.552
362.74	5.237
363.10	5.571
363.46	4.778
363.82	4.972
364.18	5.067
364.54	5.187
364.90	5.151
365.26	5.034
365.62	5.600
365.98	5.242
366.35	5.638
366.71	5.850
367.07	5.751
367.43	5.975
367.79	6.105
368.15	6.087
368.51	5.548
368.87	6.009
369.23	5.733
369.59	4.645
369.95	5.071
370.31	6.009
370.67	5.571
371.03	4.848
371.39	5.037
371.75	5.021
372.11	5.488
372.47	6.093
372.83	6.545
373.19	5.203
373.55	5.623
373.91	4.703
374.27	6.210
374.63	5.210
374.99	5.570
375.35	5.844
375.71	5.871
376.07	5.165
376.42	5.542
376.78	6.091
377.14	5.303
377.50	5.250
377.86	6.281
378.22	5.509
378.58	5.470
378.94	5.692
379.30	5.682
379.66	5.350
380.02	6.232
380.38	5.703
380.74	5.127
381.09	4.704
381.45	5.455
381.81	5.269
382.17	6.176
382.53	6.140
382.89	5.361
383.25	5.744
383.61	5.324
383.97	5.595
384.32	5.622
384.68	4.756
385.04	5.495
385.40	5.952
385.76	5.100
386.12	5.685
386.48	5.765
386.83	5.959
387.19	5.214
387.55	4.343
387.91	5.137
388.27	5.831
388.62	5.670
388.98	4.738
389.34	6.364
389.70	5.171
390.06	4.973
390.42	4.699
390.77	5.539
391.13	5.869
391.49	5.797
391.85	4.909
392.20	5.101
392.56	5.848
392.92	5.889
393.28	5.528
393.64	4.804
393.99	6.043
394.35	5.783
394.71	5.689
395.07	4.731
395.42	5.483
395.78	5.667
396.14	5.526
396.50	5.760
396.85	5.069
397.21	5.385
397.57	5.713
397.92	5.498
398.28	6.138
398.64	5.835
399.00	5.288
399.35	5.916
399.71	5.380
400.07	6.232
400.42	6.054
400.78	5.208
401.14	5.805
401.49	5.856
401.85	6.163
402.21	5.562
402.57	5.986
402.92	5.556
403.28	6.030
403.63	5.131
403.99	4.929
404.35	4.605
404.70	5.779
405.06	5.272
405.42	5.738
405.77	5.671
406.13	5.565
406.49	5.068
406.84	6.150
407.20	5.087
407.55	4.664
407.91	5.845
408.27	5.536
408.62	5.294
408.98	5.398
409.34	4.633
409.69	5.501
410.05	5.803
410.40	6.032
410.76	5.721
411.11	5.786
411.47	5.774
411.83	5.879
412.18	6.446
412.54	5.513
412.89	6.054
413.25	5.813
413.60	5.744
413.96	6.235
414.31	5.836
414.67	5.903
415.03	5.600
415.38	5.549
415.74	6.048
416.09	6.046
416.45	6.074
416.80	5.814
417.16	5.364
417.51	5.604
417.87	6.009
418.22	5.868
418.58	5.019
418.93	6.868
419.29	5.117
419.64	4.922
420.00	6.053
420.35	5.952
420.71	5.227
421.06	5.693
421.42	5.505
421.77	4.900
422.12	6.395
422.48	6.093
422.83	6.407
423.19	6.207
423.54	5.310
423.90	6.019
424.25	6.400
424.61	5.339
424.96	6.260
425.31	6.157
425.67	5.421
426.02	6.032
426.38	5.396
426.73	5.469
427.09	6.805
427.44	5.789
427.79	5.141
428.15	5.137
428.50	5.899
428.85	5.970
429.21	6.436
429.56	5.528
429.92	5.651
430.27	6.217
430.62	5.667
430.98	6.099
431.33	5.816
431.68	5.891
432.04	5.942
432.39	6.052
432.74	5.936
433.10	6.382
433.45	4.961
433.80	5.633
434.16	5.888
434.51	5.961
434.86	5.375
435.22	5.739
435.57	5.189
435.92	6.121
436.28	5.575
436.63	5.516
436.98	4.938
437.34	5.637
437.69	5.559
438.04	5.447
438.39	5.686
438.75	5.645
439.10	6.131
439.45	6.260
439.81	5.932
440.16	5.147
440.51	6.132
440.86	5.614
441.22	5.841
441.57	5.398
441.92	6.014
442.27	5.707
442.63	5.912
442.98	6.030
443.33	5.997
443.68	5.897
444.03	6.256
444.39	6.195
444.74	6.432
445.09	5.778
445.44	6.375
445.79	5.939
446.15	6.012
446.50	6.305
446.85	5.934
447.20	6.190
447.55	5.649
447.91	5.340
448.26	5.550
448.61	6.004
448.96	6.223
449.31	5.673
449.66	5.719
450.02	6.962
450.37	6.500
450.72	5.221
451.07	5.752
451.42	4.853
451.77	5.892
452.12	5.926
452.47	5.229
452.83	5.968
453.18	5.954
453.53	4.825
453.88	5.743
454.23	5.932
454.58	5.630
454.93	5.340
455.28	6.382
455.63	6.310
455.98	5.810
456.34	5.418
456.69	5.879
457.04	6.147
457.39	5.931
457.74	6.208
458.09	5.656
458.44	6.034
458.79	5.364
459.14	5.716
459.49	6.678
459.84	5.352
460.19	4.664
460.54	5.508
460.89	5.294
461.24	4.885
461.59	6.198
461.94	5.020
462.29	5.767
462.64	5.733
462.99	5.210
463.34	6.165
463.69	6.213
464.04	6.615
464.39	5.830
464.74	5.986
465.09	5.536
465.44	5.687
465.79	6.187
466.14	5.941
466.49	5.421
466.84	6.006
467.19	6.474
467.54	4.818
467.89	5.632
468.24	5.152
468.59	5.096
468.94	4.779
469.29	5.459
469.64	5.277
469.99	5.226
470.34	5.755
470.68	5.742
471.03	5.828
471.38	5.690
471.73	4.421
472.08	5.140
472.43	5.238
472.78	5.982
473.13	5.310
473.48	5.740
473.83	5.804
474.17	6.213
474.52	4.811
474.87	5.869
475.22	5.577
475.57	5.244
475.92	5.824
476.27	5.911
476.61	5.971
476.96	4.797
477.31	6.337
477.66	5.509
478.01	5.745
478.36	5.833
478.70	5.616
479.05	6.646
479.40	5.577
479.75	6.244
480.10	5.211
480.45	5.515
480.79	6.259
481.14	5.653
481.49	5.725
481.84	5.788
482.19	5.935
482.53	5.684
482.88	5.405
483.23	5.514
483.58	5.284
483.92	5.186
484.27	5.588
484.62	5.776
484.97	5.871
485.31	5.702
485.66	5.887
486.01	5.485
486.36	5.817
486.70	6.198
487.05	6.399
487.40	6.060
487.75	6.260
488.09	6.988
488.44	6.073
488.79	5.936
489.13	5.829
489.48	5.515
489.83	5.553
490.17	5.549
490.52	5.829
490.87	5.245
491.22	5.286
491.56	5.631
491.91	6.106
492.26	5.322
492.60	5.728
492.95	5.616
493.30	5.244
493.64	6.176
493.99	6.184
494.34	5.444
494.68	5.824
495.03	5.859
495.37	5.593
495.72	5.714
496.07	6.529
496.41	5.534
496.76	5.421
497.11	5.350
497.45	5.568
497.80	6.264
498.14	5.941
498.49	6.204
498.84	5.622
499.18	5.578
499.53	5.695
499.87	6.022
500.22	5.432
500.56	4.633
500.91	5.904
501.26	5.955
501.60	5.347
501.95	5.992
502.29	5.353
502.64	5.291
502.98	5.436
503.33	5.313
503.67	5.321
504.02	5.560
504.36	5.764
504.71	5.972
505.06	5.866
505.40	5.393
505.75	5.419
506.09	5.525
506.44	5.896
506.78	6.009
507.13	5.763
507.47	5.779
507.82	6.345
508.16	5.497
508.51	5.391
508.85	4.865
509.19	5.685
509.54	6.148
509.88	5.391
510.23	5.440
510.57	6.042
510.92	5.951
511.26	5.387
511.61	5.263
511.95	5.124
512.30	5.515
512.64	5.347
512.98	5.553
513.33	6.200
513.67	5.303
514.02	5.570
514.36	5.678
514.70	4.896
515.05	6.048
515.39	5.407
515.74	6.363
516.08	5.705
516.42	6.279
516.77	5.415
517.11	4.693
517.46	6.575
517.80	5.772
518.14	5.767
518.49	6.236
518.83	6.067
519.17	5.547
519.52	5.713
519.86	5.808
520.20	5.911
520.55	5.531
520.89	5.800
521.23	5.695
521.58	5.876
521.92	5.382
522.26	5.441
522.61	5.729
522.95	5.190
523.29	4.598
523.64	5.605
523.98	5.819
524.32	6.533
524.66	5.805
525.01	5.832
525.35	5.342
525.69	5.568
526.04	5.166
526.38	6.149
526.72	5.421
527.06	5.982
527.41	5.831
527.75	5.285
528.09	5.431
528.43	5.447
528.78	5.202
529.12	5.447
529.46	5.790
529.80	6.007
530.15	5.797
530.49	5.635
530.83	6.021
531.17	5.496
531.51	5.656
531.86	6.010
532.20	5.488
532.54	5.206
532.88	5.455
533.22	6.070
533.57	5.540
533.91	6.341
534.25	5.483
534.59	5.805
534.93	5.659
535.27	5.915
535.62	6.424
535.96	6.508
536.30	5.640
536.64	6.246
536.98	6.396
537.32	6.173
537.66	6.301
538.01	5.921
538.35	5.968
538.69	5.589
539.03	6.009
539.37	5.771
539.71	5.706
540.05	5.815
540.39	5.134
540.73	5.404
541.07	5.702
541.42	5.848
541.76	5.397
542.10	5.489
542.44	5.238
542.78	5.353
543.12	5.840
543.46	5.250
543.80	5.396
544.14	5.506
544.48	5.319
544.82	5.625
545.16	5.784
545.50	5.213
545.84	5.389
546.18	6.481
546.52	5.541
546.86	5.157
547.20	5.852
547.54	5.930
547.88	5.365
548.22	5.614
548.56	5.442
548.90	5.612
549.24	5.775
549.58	5.300
549.92	5.931
550.26	6.343
550.60	5.552
550.94	6.210
551.28	5.545
551.62	5.930
551.96	5.307
552.30	6.437
552.64	6.036
552.98	6.238
553.32	5.981
553.66	5.723
554.00	6.431
554.34	6.371
554.68	6.198
555.02	5.585
555.36	6.180
555.69	5.573
556.03	5.170
556.37	5.945
556.71	5.390
557.05	6.070
557.39	5.707
557.73	5.350
558.07	5.166
558.41	5.980
558.75	5.409
559.08	5.428
559.42	5.624
559.76	5.902
560.10	5.492
560.44	6.069
560.78	6.562
561.12	4.803
561.45	5.414
561.79	6.166
562.13	6.470
562.47	5.179
562.81	5.127
563.15	5.366
563.48	5.656
563.82	5.925
564.16	5.451
564.50	5.244
564.84	5.782
565.17	5.706
565.51	5.754
565.85	5.641
566.19	5.645
566.52	5.676
566.86	5.772
567.20	6.036
567.54	5.789
567.88	6.065
568.21	6.769
568.55	6.235
568.89	6.355
569.23	6.506
569.56	6.331
569.90	5.845
570.24	5.936
570.57	5.741
570.91	5.542
571.25	6.393
571.59	6.902
571.92	6.077
572.26	5.929
572.60	6.470
572.93	6.262
573.27	6.434
573.61	6.114
573.95	6.434
574.28	6.284
574.62	6.003
574.96	5.889
575.29	5.993
575.63	6.168
575.97	6.491
576.30	6.119
576.64	6.466
576.98	6.173
577.31	6.242
577.65	6.500
577.98	6.175
578.32	6.067
578.66	6.276
578.99	6.369
579.33	6.314
579.67	6.414
580.00	6.631
580.34	6.523
580.67	6.333
581.01	6.101
581.35	6.117
581.68	6.051
582.02	6.221
582.35	6.215
582.69	6.312
583.02	6.279
583.36	6.675
583.70	6.203
584.03	6.335
584.37	6.418
584.70	6.333
585.04	6.138
585.37	6.164
585.71	6.214
586.04	6.385
586.38	6.314
586.72	5.866
587.05	5.961
587.39	6.183
587.72	6.244
588.06	6.456
588.39	6.323
588.73	6.164
589.06	6.490
589.40	6.208
589.73	6.298
590.07	6.499
590.40	6.491
590.73	6.186
591.07	6.069
591.40	5.988
591.74	6.081
592.07	6.090
592.41	5.915
592.74	6.035
593.08	6.115
593.41	6.328
593.75	6.006
594.08	6.059
594.41	6.314
594.75	6.343
595.08	5.787
595.42	6.071
595.75	6.006
596.09	5.998
596.42	6.342
596.75	6.291
597.09	6.263
597.42	5.999
597.75	6.115
598.09	6.270
598.42	6.634
598.76	5.999
599.09	6.052
599.42	6.470
599.76	6.075
600.09	6.340
600.42	5.339
600.76	6.011
601.09	6.173
601.42	6.111
601.76	6.069
602.09	6.469
602.42	6.143
602.76	5.941
603.09	5.837
603.42	6.322
603.76	6.061
604.09	6.494
604.42	6.532
604.76	6.050
605.09	6.063
605.42	6.818
605.75	6.115
606.09	5.599
606.42	5.764
606.75	5.772
607.09	5.530
607.42	5.934
607.75	6.370
608.08	5.525
608.42	6.167
608.75	6.468
609.08	5.730
609.41	6.087
609.75	6.205
610.08	6.552
610.41	6.117
610.74	5.924
611.07	6.128
611.41	6.592
611.74	5.820
612.07	6.078
612.40	5.798
612.73	5.526
613.07	5.966
613.40	6.497
613.73	5.007
614.06	6.330
614.39	5.928
614.72	6.162
615.06	5.967
615.39	5.365
615.72	5.545
616.05	5.488
616.38	5.903
616.71	5.852
617.05	5.644
617.38	6.153
617.71	6.102
618.04	6.206
618.37	6.503
618.70	6.618
619.03	5.795
619.36	6.227
619.69	5.766
620.03	5.461
620.36	5.767
620.69	5.552
621.02	6.299
621.35	6.894
621.68	6.218
622.01	5.907
622.34	4.812
622.67	5.498
623.00	4.386
623.33	5.906
623.66	6.355
623.99	5.135
624.32	5.913
624.65	5.019
624.99	5.852
625.32	6.924
625.65	5.934
625.98	4.814
626.31	5.741
626.64	6.227
626.97	5.776
627.30	4.632
627.63	5.551
627.96	6.982
628.29	5.525
628.62	5.290
628.95	4.908
629.28	6.457
629.61	5.976
629.94	3.849
630.26	5.678
630.59	5.009
630.92	4.675
631.25	5.993
631.58	5.179
631.91	5.342
632.24	5.668
632.57	5.693
632.90	5.015
633.23	5.204
633.56	4.490
633.89	4.236
634.22	4.782
634.55	5.428
634.88	4.329
635.20	6.889
635.53	5.311
635.86	5.092
636.19	6.681
636.52	4.958
636.85	5.720
637.18	6.029
637.51	3.763
637.83	5.316
638.16	5.069
638.49	4.577
638.82	6.539
639.15	3.780
639.48	5.774
639.81	6.697
640.13	6.007
640.46	3.758
640.79	3.676
641.12	4.845
641.45	5.772
641.77	6.804
642.10	4.331
642.43	5.186
642.76	3.930
643.09	4.795
643.41	3.221
643.74	4.828
644.07	5.793
644.40	5.799
644.73	3.048
645.05	3.231
645.38	4.892
645.71	3.226
646.04	5.595
646.36	3.212
646.69	3.681
647.02	5.657
647.35	7.481
647.67	5.797
648.00	3.981
648.33	5.856
648.66	4.422
648.98	3.810
649.31	4.060
649.64	6.242
649.96	4.907
650.29	3.755
650.62	3.819
650.94	5.556
651.27	4.641
651.60	4.678
651.92	5.015
652.25	6.078
652.58	5.227
652.90	3.198
653.23	5.352
653.56	4.565
653.88	6.320
654.21	3.944
654.54	3.902
654.86	5.099
655.19	4.391
655.52	6.544
655.84	5.817
656.17	6.998
656.49	9.821
656.82	11.428
657.15	9.531
