SpectraSuite Data File
++++++++++++++++++++++++++++++++++++
Date: Thu May 14 16:13:37 PDT 2015
User: schluterlab
Dark Spectrum Present: Yes
Reference Spectrum Present: Yes
Number of Sampled Component Spectra: 1
Spectrometers: USB2E3373
Integration Time (usec): 3000 (USB2E3373)
Spectra Averaged: 3 (USB2E3373)
Boxcar Smoothing: 0 (USB2E3373)
Correct for Electrical Dark: No (USB2E3373)
Strobe/Lamp Enabled: No (USB2E3373)
Correct for Detector Non-linearity: No (USB2E3373)
Correct for Stray Light: No (USB2E3373)
Number of Pixels in Processed Spectrum: 2048
>>>>>Begin Processed Spectral Data<<<<<
178.53	0.000
178.91	100.000
179.29	-1300.000
179.67	-1000.000
180.04	164.286
180.42	30.000
180.80	220.000
181.18	-1100.000
181.56	700.000
181.94	-25.000
182.31	-75.000
182.69	466.667
183.07	0.000
183.45	275.000
183.83	33.333
184.20	-100.000
184.58	700.000
184.96	-150.000
185.34	0.000
185.72	120.000
186.09	55.556
186.47	-50.000
186.85	140.000
187.23	-122.222
187.61	-1300.000
187.98	80.000
188.36	200.000
188.74	-175.000
189.12	-133.333
189.49	0.000
189.87	-112.500
190.25	-77.778
190.63	-160.000
191.00	-144.444
191.38	0.000
191.76	125.000
192.14	-83.333
192.51	-100.000
192.89	-16.667
193.27	0.000
193.65	114.286
194.02	-1200.000
194.40	-85.714
194.78	85.714
195.15	0.000
195.53	-9.091
195.91	0.000
196.29	-150.000
196.66	-92.308
197.04	-1800.000
197.42	-71.429
197.79	-150.000
198.17	-112.500
198.55	-28.571
198.92	-66.667
199.30	-162.500
199.68	45.455
200.05	-21.429
200.43	-550.000
200.81	71.429
201.18	0.000
201.56	188.889
201.94	0.000
202.31	200.000
202.69	-166.667
203.07	200.000
203.44	11.111
203.82	-200.000
204.19	-66.667
204.57	-50.000
204.95	-87.500
205.32	-900.000
205.70	25.000
206.08	-50.000
206.45	16.667
206.83	200.000
207.20	33.333
207.58	-320.000
207.96	-166.667
208.33	0.000
208.71	33.333
209.08	33.333
209.46	0.000
209.84	200.000
210.21	400.000
210.59	-50.000
210.96	333.333
211.34	-50.000
211.71	-100.000
212.09	-800.000
212.46	0.000
212.84	450.000
213.22	-80.000
213.59	25.000
213.97	30.000
214.34	0.000
214.72	33.333
215.09	-25.000
215.47	0.000
215.84	114.286
216.22	350.000
216.59	-120.000
216.97	-140.000
217.34	-125.000
217.72	-87.500
218.09	-75.000
218.47	-125.000
218.84	0.000
219.22	340.000
219.59	17.647
219.97	30.000
220.34	1000.000
220.72	-100.000
221.09	7.692
221.47	-266.667
221.84	-20.000
222.22	-57.143
222.59	0.000
222.97	-62.500
223.34	-200.000
223.72	-1200.000
224.09	0.000
224.46	-325.000
224.84	280.000
225.21	-200.000
225.59	-150.000
225.96	-300.000
226.34	-3.846
226.71	216.667
227.08	-300.000
227.46	26.667
227.83	-150.000
228.21	26.316
228.58	125.000
228.95	300.000
229.33	16.667
229.70	-40.000
230.08	57.895
230.45	140.000
230.82	33.333
231.20	-14.286
231.57	25.000
231.95	-45.455
232.32	0.000
232.69	20.000
233.07	-150.000
233.44	-35.294
233.81	-10.000
234.19	-33.333
234.56	-27.273
234.93	13.793
235.31	-15.789
235.68	-16.667
236.05	-80.000
236.43	11.538
236.80	48.000
237.17	-7.407
237.55	18.182
237.92	-110.000
238.29	12.903
238.67	-13.636
239.04	0.000
239.41	2.381
239.79	-2.174
240.16	-5.556
240.53	-10.870
240.91	-33.333
241.28	1.639
241.65	7.463
242.02	-4.054
242.40	-15.385
242.77	-13.333
243.14	-9.756
243.51	-9.211
243.89	-2.564
244.26	2.970
244.63	3.922
245.00	3.738
245.38	1.754
245.75	-0.885
246.12	0.000
246.49	-5.426
246.87	-0.714
247.24	3.974
247.61	0.658
247.98	4.698
248.36	-1.235
248.73	3.681
249.10	-1.093
249.47	2.488
249.84	5.236
250.22	-1.036
250.59	4.444
250.96	8.182
251.33	-7.143
251.70	3.419
252.08	5.417
252.45	2.049
252.82	3.719
253.19	1.953
253.56	2.281
253.94	-3.462
254.31	1.515
254.68	2.797
255.05	5.212
255.42	4.082
255.79	0.000
256.16	0.662
256.54	0.000
256.91	2.951
257.28	2.623
257.65	-0.955
258.02	0.295
258.39	3.134
258.76	2.446
259.14	1.724
259.51	3.746
259.88	3.966
260.25	2.500
260.62	3.288
260.99	4.645
261.36	3.753
261.73	1.857
262.10	-0.275
262.47	1.609
262.85	6.313
263.22	-0.260
263.59	0.000
263.96	3.836
264.33	2.046
264.70	1.728
265.07	4.773
265.44	4.535
265.81	2.083
266.18	3.855
266.55	1.562
266.92	2.050
267.29	3.063
267.66	2.439
268.03	3.275
268.40	2.714
268.77	2.050
269.14	1.101
269.51	1.316
269.88	3.279
270.25	4.024
270.62	3.376
270.99	5.657
271.36	4.158
271.73	4.126
272.10	5.812
272.47	2.204
272.84	3.012
273.21	2.204
273.58	4.234
273.95	1.154
274.32	2.471
274.69	2.128
275.06	3.114
275.43	0.924
275.80	3.704
276.17	2.593
276.54	2.239
276.91	3.399
277.28	4.521
277.65	4.668
278.02	3.309
278.39	2.717
278.76	2.812
279.13	3.901
279.50	3.265
279.87	4.651
280.23	0.704
280.60	3.220
280.97	3.947
281.34	1.528
281.71	5.415
282.08	3.987
282.45	3.110
282.82	2.041
283.19	2.423
283.56	2.295
283.92	3.453
284.29	5.055
284.66	3.612
285.03	1.603
285.40	2.628
285.77	2.167
286.14	5.038
286.51	3.957
286.87	3.318
287.24	4.669
287.61	3.139
287.98	2.568
288.35	3.994
288.72	3.402
289.08	4.246
289.45	2.515
289.82	2.108
290.19	1.293
290.56	3.662
290.93	2.568
291.29	2.342
291.66	2.204
292.03	1.628
292.40	2.993
292.77	3.235
293.13	3.654
293.50	1.445
293.87	2.013
294.24	3.867
294.60	4.172
294.97	1.074
295.34	3.841
295.71	2.144
296.08	1.550
296.44	2.941
296.81	3.289
297.18	1.743
297.55	3.420
297.91	2.491
298.28	1.185
298.65	2.973
299.02	2.597
299.38	4.005
299.75	3.271
300.12	3.009
300.48	2.765
300.85	3.037
301.22	3.691
301.59	2.854
301.95	3.390
302.32	3.667
302.69	2.738
303.05	4.244
303.42	3.215
303.79	3.333
304.15	2.313
304.52	3.171
304.89	3.246
305.25	3.727
305.62	3.448
305.99	4.330
306.35	3.528
306.72	4.137
307.09	4.162
307.45	3.002
307.82	3.734
308.19	3.935
308.55	4.436
308.92	3.895
309.29	4.310
309.65	3.314
310.02	3.564
310.38	3.740
310.75	4.369
311.12	5.081
311.48	3.812
311.85	4.368
312.22	4.934
312.58	4.789
312.95	5.832
313.31	4.878
313.68	5.128
314.05	5.962
314.41	6.011
314.78	4.723
315.14	6.806
315.51	5.448
315.87	6.841
316.24	6.301
316.61	7.016
316.97	5.882
317.34	6.349
317.70	6.376
318.07	6.173
318.43	7.313
318.80	7.525
319.16	5.837
319.53	6.769
319.89	6.573
320.26	7.473
320.62	6.826
320.99	7.479
321.35	7.579
321.72	9.581
322.08	7.755
322.45	8.582
322.81	8.755
323.18	8.142
323.54	9.224
323.91	9.342
324.27	8.692
324.64	9.068
325.00	8.624
325.37	9.009
325.73	9.835
326.10	9.732
326.46	10.179
326.83	10.488
327.19	10.236
327.56	9.644
327.92	9.205
328.29	9.758
328.65	9.548
329.01	11.168
329.38	10.278
329.74	9.846
330.11	10.360
330.47	11.626
330.84	10.422
331.20	12.333
331.56	9.185
331.93	10.879
332.29	10.932
332.66	11.047
333.02	10.218
333.38	9.899
333.75	10.017
334.11	10.842
334.48	11.221
334.84	11.895
335.20	9.656
335.57	11.214
335.93	10.744
336.29	10.566
336.66	10.093
337.02	10.953
337.38	11.395
337.75	11.074
338.11	11.270
338.47	10.587
338.84	11.083
339.20	10.362
339.56	11.450
339.93	11.248
340.29	10.709
340.65	10.787
341.02	10.854
341.38	11.075
341.74	10.492
342.11	11.424
342.47	9.293
342.83	10.950
343.20	11.284
343.56	10.585
343.92	11.449
344.28	11.094
344.65	11.783
345.01	11.388
345.37	11.664
345.73	10.522
346.10	11.700
346.46	9.098
346.82	11.011
347.19	11.306
347.55	11.381
347.91	10.624
348.27	11.077
348.63	11.196
349.00	11.111
349.36	11.747
349.72	11.682
350.08	11.738
350.45	10.114
350.81	11.689
351.17	10.827
351.53	11.751
351.89	11.010
352.26	11.045
352.62	11.343
352.98	11.298
353.34	10.530
353.70	11.402
354.07	11.923
354.43	11.010
354.79	11.818
355.15	11.479
355.51	12.281
355.87	10.396
356.24	12.243
356.60	11.752
356.96	11.564
357.32	11.599
357.68	11.713
358.04	11.153
358.40	10.672
358.77	11.330
359.13	11.300
359.49	10.483
359.85	11.748
360.21	12.482
360.57	12.132
360.93	10.719
361.29	11.649
361.66	11.441
362.02	12.317
362.38	11.806
362.74	11.872
363.10	12.724
363.46	11.496
363.82	12.145
364.18	11.471
364.54	12.310
364.90	12.709
365.26	11.931
365.62	12.933
365.98	12.594
366.35	12.886
366.71	13.061
367.07	11.976
367.43	13.263
367.79	12.940
368.15	12.977
368.51	12.111
368.87	12.345
369.23	12.867
369.59	13.183
369.95	13.252
370.31	13.369
370.67	12.448
371.03	13.366
371.39	12.492
371.75	12.586
372.11	13.347
372.47	12.729
372.83	13.743
373.19	12.542
373.55	12.466
373.91	13.292
374.27	12.549
374.63	13.396
374.99	12.931
375.35	13.961
375.71	13.484
376.07	13.299
376.42	14.043
376.78	13.487
377.14	14.535
377.50	13.725
377.86	13.608
378.22	14.072
378.58	14.625
378.94	13.967
379.30	13.825
379.66	14.874
380.02	14.887
380.38	14.862
380.74	13.972
381.09	14.808
381.45	15.114
381.81	14.813
382.17	14.727
382.53	14.795
382.89	15.181
383.25	14.771
383.61	13.773
383.97	14.488
384.32	15.550
384.68	13.979
385.04	16.136
385.40	15.910
385.76	15.768
386.12	14.782
386.48	15.000
386.83	16.031
387.19	15.122
387.55	15.258
387.91	15.753
388.27	15.993
388.62	15.808
388.98	15.454
389.34	16.382
389.70	16.037
390.06	15.512
390.42	16.084
390.77	17.279
391.13	16.432
391.49	17.029
391.85	16.485
392.20	16.370
392.56	16.184
392.92	16.739
393.28	16.307
393.64	16.480
393.99	17.316
394.35	17.582
394.71	16.287
395.07	16.647
395.42	16.562
395.78	17.002
396.14	17.350
396.50	16.093
396.85	16.816
397.21	16.923
397.57	16.902
397.92	17.182
398.28	16.947
398.64	17.105
399.00	16.387
399.35	16.859
399.71	17.391
400.07	16.676
400.42	17.229
400.78	17.130
401.14	17.530
401.49	16.600
401.85	16.860
402.21	17.845
402.57	18.838
402.92	17.730
403.28	17.389
403.63	17.064
403.99	17.458
404.35	17.112
404.70	17.167
405.06	17.989
405.42	16.276
405.77	18.430
406.13	18.368
406.49	18.637
406.84	18.283
407.20	17.552
407.55	17.141
407.91	17.850
408.27	18.433
408.62	18.325
408.98	18.224
409.34	17.419
409.69	18.356
410.05	18.992
410.40	17.749
410.76	18.003
411.11	18.878
411.47	17.752
411.83	18.695
412.18	18.735
412.54	18.435
412.89	18.801
413.25	18.228
413.60	18.553
413.96	19.231
414.31	18.697
414.67	18.784
415.03	18.646
415.38	18.852
415.74	18.876
416.09	19.001
416.45	18.034
416.80	19.278
417.16	18.902
417.51	19.552
417.87	18.700
418.22	18.084
418.58	19.579
418.93	20.780
419.29	18.742
419.64	18.788
420.00	19.466
420.35	19.315
420.71	18.495
421.06	17.884
421.42	19.323
421.77	18.417
422.12	18.975
422.48	18.740
422.83	19.989
423.19	19.151
423.54	19.524
423.90	19.602
424.25	19.893
424.61	18.657
424.96	19.055
425.31	20.117
425.67	18.733
426.02	18.650
426.38	19.001
426.73	19.085
427.09	20.012
427.44	18.842
427.79	18.463
428.15	19.521
428.50	19.438
428.85	19.173
429.21	20.319
429.56	19.200
429.92	19.115
430.27	20.096
430.62	18.808
430.98	19.134
431.33	19.013
431.68	18.918
432.04	18.740
432.39	19.925
432.74	19.749
433.10	19.632
433.45	19.565
433.80	19.367
434.16	20.093
434.51	19.836
434.86	19.815
435.22	19.926
435.57	20.342
435.92	19.477
436.28	20.307
436.63	19.825
436.98	19.055
437.34	19.786
437.69	19.207
438.04	19.461
438.39	19.012
438.75	19.369
439.10	19.503
439.45	19.340
439.81	19.774
440.16	19.625
440.51	20.401
440.86	19.566
441.22	18.917
441.57	19.969
441.92	19.253
442.27	20.101
442.63	19.573
442.98	19.851
443.33	19.884
443.68	20.020
444.03	20.132
444.39	19.279
444.74	20.010
445.09	20.071
445.44	19.916
445.79	19.780
446.15	19.579
446.50	19.328
446.85	19.844
447.20	20.793
447.55	20.188
447.91	18.848
448.26	19.609
448.61	19.819
448.96	20.601
449.31	19.618
449.66	19.662
450.02	19.251
450.37	19.552
450.72	19.699
451.07	18.565
451.42	19.411
451.77	19.066
452.12	19.526
452.47	19.251
452.83	19.820
453.18	19.206
453.53	20.046
453.88	19.216
454.23	20.452
454.58	19.907
454.93	19.721
455.28	19.747
455.63	19.727
455.98	19.777
456.34	20.141
456.69	19.577
457.04	20.508
457.39	19.290
457.74	20.358
458.09	19.165
458.44	19.935
458.79	18.102
459.14	19.874
459.49	20.713
459.84	18.940
460.19	18.767
460.54	19.648
460.89	19.269
461.24	19.195
461.59	19.535
461.94	18.083
462.29	19.653
462.64	19.131
462.99	18.770
463.34	19.533
463.69	19.754
464.04	19.177
464.39	19.002
464.74	19.612
465.09	19.204
465.44	19.474
465.79	19.461
466.14	18.395
466.49	18.895
466.84	19.229
467.19	19.364
467.54	18.155
467.89	18.736
468.24	19.058
468.59	18.008
468.94	17.774
469.29	17.816
469.64	18.245
469.99	18.483
470.34	17.946
470.68	18.524
471.03	18.533
471.38	17.332
471.73	17.815
472.08	18.020
472.43	17.881
472.78	18.955
473.13	18.394
473.48	18.369
473.83	19.037
474.17	17.761
474.52	17.619
474.87	18.051
475.22	17.803
475.57	18.224
475.92	17.870
476.27	17.519
476.61	17.965
476.96	16.997
477.31	18.069
477.66	18.101
478.01	17.234
478.36	17.597
478.70	17.340
479.05	17.536
479.40	18.361
479.75	17.531
480.10	17.148
480.45	17.593
480.79	17.596
481.14	17.096
481.49	17.401
481.84	17.406
482.19	17.763
482.53	17.578
482.88	17.147
483.23	17.697
483.58	17.249
483.92	16.667
484.27	17.570
484.62	17.285
484.97	17.030
485.31	16.931
485.66	16.311
486.01	16.768
486.36	17.021
486.70	17.357
487.05	17.353
487.40	16.972
487.75	17.226
488.09	17.442
488.44	16.862
488.79	17.201
489.13	16.655
489.48	16.117
489.83	15.976
490.17	15.431
490.52	16.379
490.87	15.990
491.22	16.205
491.56	16.297
491.91	16.398
492.26	16.573
492.60	16.178
492.95	16.147
493.30	15.957
493.64	15.769
493.99	16.711
494.34	15.679
494.68	15.974
495.03	16.432
495.37	15.402
495.72	15.646
496.07	16.214
496.41	15.401
496.76	16.097
497.11	15.754
497.45	15.883
497.80	15.860
498.14	15.646
498.49	14.936
498.84	15.174
499.18	15.700
499.53	15.874
499.87	15.692
500.22	14.871
500.56	15.295
500.91	15.789
501.26	15.500
501.60	14.892
501.95	15.762
502.29	15.489
502.64	15.216
502.98	14.884
503.33	15.205
503.67	14.348
504.02	14.667
504.36	15.728
504.71	15.342
505.06	14.507
505.40	14.717
505.75	15.027
506.09	14.825
506.44	14.949
506.78	14.817
507.13	15.353
507.47	15.064
507.82	14.631
508.16	14.054
508.51	14.487
508.85	14.502
509.19	14.922
509.54	15.418
509.88	14.230
510.23	14.570
510.57	14.886
510.92	14.320
511.26	14.238
511.61	13.665
511.95	13.860
512.30	14.673
512.64	14.043
512.98	14.107
513.33	14.214
513.67	14.023
514.02	14.154
514.36	14.373
514.70	13.802
515.05	14.494
515.39	13.701
515.74	14.263
516.08	13.946
516.42	14.495
516.77	13.670
517.11	13.254
517.46	13.733
517.80	14.484
518.14	14.146
518.49	13.557
518.83	12.986
519.17	13.732
519.52	14.308
519.86	14.308
520.20	13.632
520.55	13.417
520.89	13.176
521.23	13.456
521.58	13.390
521.92	12.805
522.26	13.001
522.61	13.368
522.95	13.379
523.29	14.425
523.64	13.677
523.98	13.520
524.32	13.754
524.66	13.717
525.01	13.250
525.35	12.866
525.69	13.051
526.04	12.974
526.38	13.391
526.72	13.725
527.06	12.962
527.41	13.703
527.75	13.717
528.09	12.751
528.43	13.973
528.78	13.237
529.12	12.729
529.46	12.760
529.80	13.158
530.15	13.449
530.49	12.693
530.83	13.518
531.17	12.963
531.51	12.395
531.86	11.959
532.20	13.110
532.54	12.507
532.88	11.879
533.22	13.023
533.57	13.329
533.91	12.290
534.25	12.663
534.59	13.218
534.93	12.450
535.27	12.563
535.62	13.417
535.96	13.016
536.30	12.338
536.64	12.613
536.98	12.854
537.32	12.469
537.66	12.726
538.01	12.266
538.35	12.485
538.69	13.041
539.03	12.692
539.37	12.898
539.71	12.613
540.05	12.650
540.39	11.980
540.73	11.597
541.07	11.527
541.42	11.754
541.76	11.744
542.10	12.063
542.44	11.206
542.78	12.470
543.12	12.038
543.46	11.905
543.80	11.211
544.14	11.370
544.48	11.525
544.82	12.328
545.16	12.522
545.50	12.463
545.84	11.329
546.18	12.346
546.52	11.083
546.86	11.258
547.20	11.578
547.54	12.235
547.88	11.212
548.22	10.702
548.56	11.995
548.90	10.806
549.24	11.246
549.58	11.356
549.92	11.288
550.26	11.262
550.60	11.359
550.94	11.190
551.28	11.155
551.62	11.321
551.96	12.039
552.30	11.982
552.64	10.703
552.98	11.291
553.32	11.704
553.66	11.318
554.00	11.034
554.34	11.197
554.68	10.587
555.02	10.972
555.36	11.506
555.69	9.865
556.03	10.656
556.37	11.327
556.71	10.970
557.05	11.182
557.39	11.812
557.73	10.766
558.07	10.530
558.41	11.229
558.75	11.156
559.08	10.926
559.42	10.631
559.76	11.194
560.10	11.119
560.44	10.224
560.78	11.563
561.12	10.530
561.45	10.401
561.79	10.928
562.13	10.783
562.47	10.604
562.81	10.127
563.15	10.417
563.48	9.758
563.82	10.641
564.16	9.449
564.50	9.952
564.84	10.206
565.17	10.941
565.51	9.551
565.85	9.620
566.19	10.023
566.52	10.240
566.86	11.036
567.20	9.734
567.54	10.462
567.88	10.398
568.21	10.277
568.55	10.360
568.89	10.259
569.23	10.562
569.56	10.551
569.90	10.086
570.24	9.781
570.57	9.878
570.91	9.890
571.25	10.153
571.59	10.047
571.92	10.235
572.26	10.244
572.60	10.401
572.93	9.964
573.27	10.003
573.61	10.191
573.95	10.002
574.28	10.255
574.62	9.595
574.96	9.903
575.29	9.451
575.63	9.933
575.97	9.796
576.30	9.524
576.64	9.711
576.98	9.727
577.31	9.943
577.65	9.967
577.98	9.959
578.32	9.211
578.66	9.649
578.99	9.687
579.33	9.671
579.67	9.451
580.00	9.710
580.34	9.926
580.67	9.378
581.01	9.347
581.35	9.605
581.68	9.494
582.02	9.495
582.35	9.717
582.69	9.682
583.02	9.550
583.36	9.920
583.70	9.452
584.03	9.431
584.37	9.430
584.70	9.218
585.04	9.254
585.37	9.280
585.71	9.299
586.04	9.643
586.38	9.331
586.72	9.100
587.05	9.030
587.39	9.299
587.72	9.258
588.06	9.163
588.39	9.335
588.73	9.497
589.06	9.199
589.40	9.158
589.73	9.222
590.07	9.615
590.40	9.195
590.73	9.438
591.07	9.382
591.40	8.981
591.74	9.141
592.07	9.988
592.41	9.069
592.74	9.159
593.08	9.172
593.41	9.565
593.75	8.994
594.08	8.937
594.41	9.263
594.75	8.867
595.08	9.118
595.42	8.571
595.75	8.783
596.09	9.183
596.42	8.778
596.75	9.224
597.09	8.929
597.42	8.304
597.75	8.702
598.09	9.048
598.42	9.087
598.76	8.789
599.09	8.402
599.42	8.649
599.76	8.551
600.09	8.876
600.42	8.642
600.76	9.016
601.09	8.596
601.42	8.376
601.76	8.931
602.09	8.828
602.42	8.615
602.76	8.893
603.09	8.443
603.42	8.237
603.76	8.492
604.09	8.659
604.42	8.514
604.76	8.371
605.09	9.214
605.42	8.852
605.75	8.615
606.09	8.249
606.42	8.355
606.75	8.396
607.09	9.025
607.42	8.709
607.75	8.480
608.08	8.366
608.42	8.827
608.75	8.126
609.08	8.531
609.41	7.719
609.75	8.036
610.08	9.631
610.41	8.326
610.74	8.697
611.07	7.860
611.41	8.027
611.74	8.453
612.07	8.742
612.40	8.603
612.73	8.166
613.07	8.606
613.40	8.325
613.73	7.896
614.06	8.587
614.39	8.017
614.72	8.200
615.06	7.844
615.39	7.685
615.72	8.246
616.05	7.722
616.38	8.073
616.71	8.046
617.05	8.040
617.38	8.614
617.71	8.801
618.04	8.419
618.37	7.650
618.70	8.088
619.03	7.407
619.36	8.200
619.69	7.751
620.03	7.972
620.36	7.178
620.69	8.081
621.02	8.333
621.35	8.563
621.68	8.604
622.01	7.900
622.34	8.089
622.67	8.247
623.00	7.557
623.33	8.228
623.66	8.366
623.99	7.900
624.32	8.902
624.65	7.272
624.99	7.737
625.32	9.144
625.65	8.024
625.98	7.458
626.31	8.150
626.64	7.326
626.97	8.027
627.30	7.897
627.63	7.502
627.96	9.009
628.29	7.315
628.62	7.137
628.95	7.975
629.28	7.562
629.61	7.492
629.94	6.778
630.26	8.729
630.59	8.117
630.92	8.052
631.25	8.587
631.58	7.815
631.91	7.873
632.24	7.301
632.57	7.685
632.90	7.121
633.23	7.449
633.56	7.449
633.89	8.161
634.22	8.212
634.55	8.351
634.88	6.494
635.20	9.257
635.53	7.232
635.86	8.126
636.19	8.378
636.52	7.384
636.85	7.354
637.18	8.108
637.51	6.774
637.83	8.527
638.16	8.180
638.49	6.573
638.82	6.539
639.15	6.758
639.48	8.430
639.81	7.044
640.13	7.185
640.46	5.939
640.79	6.127
641.12	7.205
641.45	5.646
641.77	7.060
642.10	5.512
642.43	8.378
642.76	6.098
643.09	6.301
