SpectraSuite Data File
++++++++++++++++++++++++++++++++++++
Date: Thu May 14 16:15:56 PDT 2015
User: schluterlab
Dark Spectrum Present: Yes
Reference Spectrum Present: Yes
Number of Sampled Component Spectra: 1
Spectrometers: USB2E3373
Integration Time (usec): 3000 (USB2E3373)
Spectra Averaged: 3 (USB2E3373)
Boxcar Smoothing: 0 (USB2E3373)
Correct for Electrical Dark: No (USB2E3373)
Strobe/Lamp Enabled: No (USB2E3373)
Correct for Detector Non-linearity: No (USB2E3373)
Correct for Stray Light: No (USB2E3373)
Number of Pixels in Processed Spectrum: 2048
>>>>>Begin Processed Spectral Data<<<<<
178.53	0.000
178.91	42.857
179.29	-1000.000
179.67	-1100.000
180.04	92.857
180.42	30.000
180.80	-20.000
181.18	-300.000
181.56	600.000
181.94	-25.000
182.31	-50.000
182.69	33.333
183.07	0.000
183.45	275.000
183.83	-83.333
184.20	-200.000
184.58	500.000
184.96	-375.000
185.34	44.444
185.72	-20.000
186.09	188.889
186.47	300.000
186.85	20.000
187.23	-177.778
187.61	-1600.000
187.98	260.000
188.36	175.000
188.74	-175.000
189.12	-266.667
189.49	6.250
189.87	-75.000
190.25	-33.333
190.63	40.000
191.00	-55.556
191.38	0.000
191.76	-250.000
192.14	33.333
192.51	200.000
192.89	-50.000
193.27	0.000
193.65	0.000
194.02	-1200.000
194.40	-57.143
194.78	-0.000
195.15	0.000
195.53	27.273
195.91	0.000
196.29	-125.000
196.66	-38.462
197.04	-1100.000
197.42	-71.429
197.79	-150.000
198.17	-12.500
198.55	-100.000
198.92	55.556
199.30	-12.500
199.68	-81.818
200.05	7.143
200.43	-950.000
200.81	271.429
201.18	0.000
201.56	200.000
201.94	0.000
202.31	366.667
202.69	-33.333
203.07	100.000
203.44	-11.111
203.82	-250.000
204.19	-25.000
204.57	-16.667
204.95	25.000
205.32	-700.000
205.70	200.000
206.08	-116.667
206.45	-16.667
206.83	140.000
207.20	-50.000
207.58	-220.000
207.96	0.000
208.33	-83.333
208.71	58.333
209.08	50.000
209.46	0.000
209.84	116.667
210.21	300.000
210.59	200.000
210.96	333.333
211.34	-100.000
211.71	-25.000
212.09	-100.000
212.46	0.000
212.84	500.000
213.22	-160.000
213.59	-75.000
213.97	-20.000
214.34	-166.667
214.72	83.333
215.09	-150.000
215.47	0.000
215.84	57.143
216.22	700.000
216.59	-40.000
216.97	80.000
217.34	-75.000
217.72	-62.500
218.09	-125.000
218.47	-75.000
218.84	0.000
219.22	40.000
219.59	-23.529
219.97	25.000
220.34	550.000
220.72	-133.333
221.09	-23.077
221.47	-33.333
221.84	-10.000
222.22	0.000
222.59	0.000
222.97	37.500
223.34	-300.000
223.72	-300.000
224.09	0.000
224.46	-175.000
224.84	-60.000
225.21	-57.143
225.59	25.000
225.96	75.000
226.34	26.923
226.71	250.000
227.08	-650.000
227.46	33.333
227.83	-225.000
228.21	15.789
228.58	125.000
228.95	300.000
229.33	75.000
229.70	-40.000
230.08	15.789
230.45	110.000
230.82	33.333
231.20	7.143
231.57	50.000
231.95	9.091
232.32	-27.273
232.69	5.000
233.07	-100.000
233.44	-41.176
233.81	-140.000
234.19	-11.111
234.56	9.091
234.93	3.448
235.31	-21.053
235.68	-16.667
236.05	0.000
236.43	23.077
236.80	8.000
237.17	11.111
237.55	12.121
237.92	-30.000
238.29	16.129
238.67	0.000
239.04	-2.778
239.41	-16.667
239.79	4.348
240.16	25.926
240.53	-10.870
240.91	-11.765
241.28	8.197
241.65	28.358
242.02	27.027
242.40	18.462
242.77	16.000
243.14	4.878
243.51	7.895
243.89	3.846
244.26	22.772
244.63	23.529
245.00	16.822
245.38	13.158
245.75	4.425
246.12	18.254
246.49	10.853
246.87	21.429
247.24	16.556
247.61	20.395
247.98	16.779
248.36	10.494
248.73	10.429
249.10	14.208
249.47	20.398
249.84	20.942
250.22	17.098
250.59	17.222
250.96	14.545
251.33	17.347
251.70	18.803
252.08	19.167
252.45	16.393
252.82	18.182
253.19	12.500
253.56	12.167
253.94	16.154
254.31	18.182
254.68	24.825
255.05	19.544
255.42	19.388
255.79	15.858
256.16	15.232
256.54	15.563
256.91	17.377
257.28	16.066
257.65	16.242
258.02	14.159
258.39	16.524
258.76	19.878
259.14	20.690
259.51	19.020
259.88	15.864
260.25	16.667
260.62	17.808
260.99	20.219
261.36	20.912
261.73	16.711
262.10	15.934
262.47	17.426
262.85	21.212
263.22	17.662
263.59	12.632
263.96	18.159
264.33	17.391
264.70	17.037
265.07	20.048
265.44	19.274
265.81	17.824
266.18	20.635
266.55	16.295
266.92	15.490
267.29	18.818
267.66	16.851
268.03	16.594
268.40	17.745
268.77	14.806
269.14	14.758
269.51	19.298
269.88	19.262
270.25	19.316
270.62	18.565
270.99	18.182
271.36	15.644
271.73	18.075
272.10	16.633
272.47	17.836
272.84	17.068
273.21	17.836
273.58	16.734
273.95	15.577
274.32	16.350
274.69	16.248
275.06	17.582
275.43	15.896
275.80	16.049
276.17	16.852
276.54	15.672
276.91	16.637
277.28	18.264
277.65	17.235
278.02	19.301
278.39	17.935
278.76	17.047
279.13	15.071
279.50	17.354
279.87	19.141
280.23	15.317
280.60	15.763
280.97	18.421
281.34	15.280
281.71	17.597
282.08	15.947
282.45	16.694
282.82	17.425
283.19	15.670
283.56	18.525
283.92	18.468
284.29	19.431
284.66	17.077
285.03	13.942
285.40	16.538
285.77	16.873
286.14	16.641
286.51	17.808
286.87	15.324
287.24	16.566
287.61	15.247
287.98	16.465
288.35	17.012
288.72	16.272
289.08	16.984
289.45	15.237
289.82	17.620
290.19	15.805
290.56	16.197
290.93	17.118
291.29	17.080
291.66	16.116
292.03	14.654
292.40	16.463
292.77	14.555
293.13	16.373
293.50	15.375
293.87	15.302
294.24	17.200
294.60	16.182
294.97	13.960
295.34	15.365
295.71	14.250
296.08	15.504
296.44	15.441
296.81	15.591
297.18	15.318
297.55	15.448
297.91	15.896
298.28	13.981
298.65	16.171
299.02	13.695
299.38	15.103
299.75	14.836
300.12	13.079
300.48	16.244
300.85	14.061
301.22	14.541
301.59	14.498
301.95	15.254
302.32	15.000
302.69	14.896
303.05	15.560
303.42	14.967
303.79	14.375
304.15	15.457
304.52	15.222
304.89	15.602
305.25	15.839
305.62	14.107
305.99	14.330
306.35	15.020
306.72	16.132
307.09	15.431
307.45	15.942
307.82	13.522
308.19	15.641
308.55	15.911
308.92	16.748
309.29	15.996
309.65	15.692
310.02	15.347
310.38	16.142
310.75	16.019
311.12	15.532
311.48	16.813
311.85	16.334
312.22	16.034
312.58	16.995
312.95	16.348
313.31	17.706
313.68	16.209
314.05	19.241
314.41	18.761
314.78	17.348
315.14	17.695
315.51	17.913
315.87	18.542
316.24	18.356
316.61	18.384
316.97	17.557
317.34	18.342
317.70	18.865
318.07	19.929
318.43	18.622
318.80	19.565
319.16	18.455
319.53	17.738
319.89	18.405
320.26	20.730
320.62	18.528
320.99	20.406
321.35	21.072
321.72	20.930
322.08	20.379
322.45	22.403
322.81	21.390
323.18	20.531
323.54	21.810
323.91	21.352
324.27	20.826
324.64	23.258
325.00	21.808
325.37	21.294
325.73	22.562
326.10	23.520
326.46	22.557
326.83	24.740
327.19	23.150
327.56	24.427
327.92	24.626
328.29	23.548
328.65	22.697
329.01	24.535
329.38	25.695
329.74	25.599
330.11	25.942
330.47	25.021
330.84	24.376
331.20	25.250
331.56	24.957
331.93	25.105
332.29	26.271
332.66	25.166
333.02	24.958
333.38	25.084
333.75	26.263
334.11	25.688
334.48	25.495
334.84	26.508
335.20	24.853
335.57	25.211
335.93	25.537
336.29	24.709
336.66	25.399
337.02	26.254
337.38	26.956
337.75	25.785
338.11	26.156
338.47	27.047
338.84	25.888
339.20	25.021
339.56	26.277
339.93	25.369
340.29	26.087
340.65	25.304
341.02	26.816
341.38	26.273
341.74	26.392
342.11	26.307
342.47	24.940
342.83	26.731
343.20	27.637
343.56	26.464
343.92	26.101
344.28	25.703
344.65	26.899
345.01	26.911
345.37	27.449
345.73	26.111
346.10	26.521
346.46	26.661
346.82	26.592
347.19	27.196
347.55	28.604
347.91	26.300
348.27	27.466
348.63	27.570
349.00	27.293
349.36	27.138
349.72	26.860
350.08	27.935
350.45	27.148
350.81	27.677
351.17	27.293
351.53	27.521
351.89	27.107
352.26	28.582
352.62	28.134
352.98	28.244
353.34	26.214
353.70	28.197
354.07	27.794
354.43	28.170
354.79	27.749
355.15	28.624
355.51	28.436
355.87	28.048
356.24	29.049
356.60	27.938
356.96	27.947
357.32	28.104
357.68	28.111
358.04	27.919
358.40	28.134
358.77	28.728
359.13	28.582
359.49	28.401
359.85	28.209
360.21	28.336
360.57	28.930
360.93	28.773
361.29	30.316
361.66	29.037
362.02	29.019
362.38	28.812
362.74	29.749
363.10	30.468
363.46	29.778
363.82	30.185
364.18	28.994
364.54	29.668
364.90	30.301
365.26	30.000
365.62	29.933
365.98	29.135
366.35	29.262
366.71	31.361
367.07	30.582
367.43	29.941
367.79	31.188
368.15	30.368
368.51	30.717
368.87	30.111
369.23	30.733
369.59	30.260
369.95	30.696
370.31	30.655
370.67	30.674
371.03	31.025
371.39	29.684
371.75	32.462
372.11	31.165
372.47	31.144
372.83	30.628
373.19	31.154
373.55	30.352
373.91	30.675
374.27	31.953
374.63	32.138
374.99	31.830
375.35	32.403
375.71	31.226
376.07	31.375
376.42	31.801
376.78	32.007
377.14	32.502
377.50	32.385
377.86	32.512
378.22	31.497
378.58	32.699
378.94	32.394
379.30	31.869
379.66	32.981
380.02	32.429
380.38	32.604
380.74	32.451
381.09	33.159
381.45	32.898
381.81	33.255
382.17	33.551
382.53	32.865
382.89	32.449
383.25	33.705
383.61	32.639
383.97	32.627
384.32	34.390
384.68	32.773
385.04	33.603
385.40	33.707
385.76	34.994
386.12	33.273
386.48	34.353
386.83	34.207
387.19	33.951
387.55	33.803
387.91	33.333
388.27	34.007
388.62	33.562
388.98	33.051
389.34	34.885
389.70	34.689
390.06	34.221
390.42	33.253
390.77	34.919
391.13	34.566
391.49	35.628
391.85	34.242
392.20	33.630
392.56	34.613
392.92	34.842
393.28	35.489
393.64	34.749
393.99	34.399
394.35	34.871
394.71	34.910
395.07	34.311
395.42	34.095
395.78	35.101
396.14	35.710
396.50	35.629
396.85	34.764
397.21	34.260
397.57	34.099
397.92	35.109
398.28	34.601
398.64	34.325
399.00	33.822
399.35	34.503
399.71	34.837
400.07	34.700
400.42	34.284
400.78	35.417
401.14	34.604
401.49	34.736
401.85	34.767
402.21	36.095
402.57	34.977
402.92	34.574
403.28	33.782
403.63	33.652
403.99	33.314
404.35	35.475
404.70	33.484
405.06	33.370
405.42	34.485
405.77	34.787
406.13	33.766
406.49	34.009
406.84	34.460
407.20	33.650
407.55	33.555
407.91	34.255
408.27	33.687
408.62	35.195
408.98	34.359
409.34	33.372
409.69	34.178
410.05	34.994
410.40	34.455
410.76	34.605
411.11	33.548
411.47	34.337
411.83	34.274
412.18	34.578
412.54	33.729
412.89	34.226
413.25	33.804
413.60	34.693
413.96	34.266
414.31	34.504
414.67	34.109
415.03	34.462
415.38	33.985
415.74	34.881
416.09	34.485
416.45	33.563
416.80	34.149
417.16	34.291
417.51	33.811
417.87	34.335
418.22	34.731
418.58	33.953
418.93	34.051
419.29	35.142
419.64	35.354
420.00	34.006
420.35	34.812
420.71	33.946
421.06	33.698
421.42	33.945
421.77	33.495
422.12	34.461
422.48	34.460
422.83	34.337
423.19	33.952
423.54	34.900
423.90	34.235
424.25	34.827
424.61	34.788
424.96	33.828
425.31	34.873
425.67	34.514
426.02	34.864
426.38	34.328
426.73	34.766
427.09	35.755
427.44	33.643
427.79	34.384
428.15	34.418
428.50	33.764
428.85	34.271
429.21	35.213
429.56	34.551
429.92	35.135
430.27	35.036
430.62	34.001
430.98	34.579
431.33	33.871
431.68	34.579
432.04	35.703
432.39	34.440
432.74	34.532
433.10	35.100
433.45	34.392
433.80	35.461
434.16	35.486
434.51	35.252
434.86	35.939
435.22	35.282
435.57	36.203
435.92	34.613
436.28	35.267
436.63	35.718
436.98	34.353
437.34	34.893
437.69	34.397
438.04	35.272
438.39	35.325
438.75	35.307
439.10	36.469
439.45	36.501
439.81	34.746
440.16	35.228
440.51	35.563
440.86	34.964
441.22	35.531
441.57	35.901
441.92	35.257
442.27	36.111
442.63	35.718
442.98	36.233
443.33	35.139
443.68	37.017
444.03	36.500
444.39	36.893
444.74	37.060
445.09	35.732
445.44	36.196
445.79	37.213
446.15	37.307
446.50	36.176
446.85	37.160
447.20	36.267
447.55	36.977
447.91	36.335
448.26	36.416
448.61	36.663
448.96	37.822
449.31	36.585
449.66	36.220
450.02	36.973
450.37	38.093
450.72	36.168
451.07	36.503
451.42	35.875
451.77	36.965
452.12	36.907
452.47	35.829
452.83	37.444
453.18	36.836
453.53	37.277
453.88	36.775
454.23	36.893
454.58	37.377
454.93	36.711
455.28	37.327
455.63	37.408
455.98	37.709
456.34	36.042
456.69	36.626
457.04	36.643
457.39	36.308
457.74	38.087
458.09	37.342
458.44	36.961
458.79	36.153
459.14	35.291
459.49	36.842
459.84	36.044
460.19	36.091
460.54	36.627
460.89	36.316
461.24	36.437
461.59	36.801
461.94	35.368
462.29	36.170
462.64	36.331
462.99	37.351
463.34	37.119
463.69	36.577
464.04	37.243
464.39	36.435
464.74	36.203
465.09	35.467
465.44	35.408
465.79	37.123
466.14	35.227
466.49	36.053
466.84	36.749
467.19	36.185
467.54	35.076
467.89	35.747
468.24	36.233
468.59	34.858
468.94	34.848
469.29	35.093
469.64	35.283
469.99	36.329
470.34	35.582
470.68	35.954
471.03	36.870
471.38	36.167
471.73	36.151
472.08	36.294
472.43	36.123
472.78	36.524
473.13	34.829
473.48	36.133
473.83	36.158
474.17	34.642
474.52	36.861
474.87	34.496
475.22	34.873
475.57	35.202
475.92	34.495
476.27	34.878
476.61	33.853
476.96	34.515
477.31	35.050
477.66	35.887
478.01	35.231
478.36	33.799
478.70	34.483
479.05	35.429
479.40	35.242
479.75	35.639
480.10	34.391
480.45	35.005
480.79	34.059
481.14	34.467
481.49	34.439
481.84	34.943
482.19	34.194
482.53	34.849
482.88	34.958
483.23	34.415
483.58	34.279
483.92	34.309
484.27	33.700
484.62	33.622
484.97	32.737
485.31	32.101
485.66	30.975
486.01	30.637
486.36	30.859
486.70	31.342
487.05	31.993
487.40	31.925
487.75	31.985
488.09	32.375
488.44	32.028
488.79	32.209
489.13	33.128
489.48	32.233
489.83	32.596
490.17	32.199
490.52	32.102
490.87	33.883
491.22	31.716
491.56	33.532
491.91	33.232
492.26	33.276
492.60	32.794
492.95	33.567
493.30	32.317
493.64	33.114
493.99	32.105
494.34	32.753
494.68	32.120
495.03	32.511
495.37	32.889
495.72	32.562
496.07	33.304
496.41	31.532
496.76	32.569
497.11	32.059
497.45	32.024
497.80	32.341
498.14	32.517
498.49	32.996
498.84	31.810
499.18	32.299
499.53	32.915
499.87	32.484
500.22	31.167
500.56	31.849
500.91	31.625
501.26	32.227
501.60	31.065
501.95	31.481
502.29	31.812
502.64	30.914
502.98	31.536
503.33	31.490
503.67	30.920
504.02	31.567
504.36	30.831
504.71	31.052
505.06	31.241
505.40	30.850
505.75	31.011
506.09	31.538
506.44	31.894
506.78	31.514
507.13	31.443
507.47	31.502
507.82	31.723
508.16	31.166
508.51	30.380
508.85	31.082
509.19	30.933
509.54	31.652
509.88	30.306
510.23	31.666
510.57	31.078
510.92	31.156
511.26	30.880
511.61	29.792
511.95	30.307
512.30	31.216
512.64	30.485
512.98	30.515
513.33	32.107
513.67	30.087
514.02	30.710
514.36	30.691
514.70	31.354
515.05	30.605
515.39	30.026
515.74	31.336
516.08	31.379
516.42	32.025
516.77	31.546
517.11	29.964
517.46	30.541
517.80	31.053
518.14	31.828
518.49	31.128
518.83	30.229
519.17	30.264
519.52	29.927
519.86	30.570
520.20	30.937
520.55	30.613
520.89	30.912
521.23	30.821
521.58	30.960
521.92	30.482
522.26	30.355
522.61	31.308
522.95	30.796
523.29	31.264
523.64	29.204
523.98	30.861
524.32	31.289
524.66	30.336
525.01	29.785
525.35	29.064
525.69	30.104
526.04	29.851
526.38	30.402
526.72	30.161
527.06	29.736
527.41	30.146
527.75	30.819
528.09	30.519
528.43	30.136
528.78	29.249
529.12	29.415
529.46	29.680
529.80	29.462
530.15	28.754
530.49	29.004
530.83	29.634
531.17	29.092
531.51	29.783
531.86	28.846
532.20	30.671
532.54	29.204
532.88	29.152
533.22	29.346
533.57	28.621
533.91	27.946
534.25	29.339
534.59	28.161
534.93	27.108
535.27	28.451
535.62	27.231
535.96	28.123
536.30	27.438
536.64	29.009
536.98	28.905
537.32	28.333
537.66	29.445
538.01	28.157
538.35	26.614
538.69	27.284
539.03	27.590
539.37	28.681
539.71	27.568
540.05	27.758
540.39	27.445
540.73	27.383
541.07	28.081
541.42	26.816
541.76	27.165
542.10	26.840
542.44	26.492
542.78	27.494
543.12	26.996
543.46	27.350
543.80	26.259
544.14	25.853
544.48	26.537
544.82	28.426
545.16	27.132
545.50	27.322
545.84	26.699
546.18	28.519
546.52	27.325
546.86	27.233
547.20	26.654
547.54	26.592
547.88	26.281
548.22	25.556
548.56	25.278
548.90	26.567
549.24	26.626
549.58	26.940
549.92	26.658
550.26	26.861
550.60	27.186
550.94	27.102
551.28	25.149
551.62	27.358
551.96	25.825
552.30	27.215
552.64	26.758
552.98	27.573
553.32	26.752
553.66	26.109
554.00	26.671
554.34	24.775
554.68	26.017
555.02	25.558
555.36	26.561
555.69	26.137
556.03	25.221
556.37	25.657
556.71	25.111
557.05	26.390
557.39	25.747
557.73	26.948
558.07	25.762
558.41	26.711
558.75	26.302
559.08	27.627
559.42	25.583
559.76	26.323
560.10	25.988
560.44	25.528
560.78	26.438
561.12	25.493
561.45	25.791
561.79	25.641
562.13	25.323
562.47	24.784
562.81	25.316
563.15	25.947
563.48	26.352
563.82	25.635
564.16	23.864
564.50	24.672
564.84	24.189
565.17	24.412
565.51	23.475
565.85	24.169
566.19	23.041
566.52	24.459
566.86	23.543
567.20	23.600
567.54	23.261
567.88	24.006
568.21	23.271
568.55	23.022
568.89	23.423
569.23	22.983
569.56	21.805
569.90	21.882
570.24	22.192
570.57	21.199
570.91	20.759
571.25	20.856
571.59	20.763
571.92	20.336
572.26	20.646
572.60	20.066
572.93	20.206
573.27	20.708
573.61	20.143
573.95	20.151
574.28	19.879
574.62	19.668
574.96	19.321
575.29	19.299
575.63	19.173
575.97	19.569
576.30	19.714
576.64	19.470
576.98	19.180
577.31	18.835
577.65	19.336
577.98	19.183
578.32	18.735
578.66	18.884
578.99	18.861
579.33	19.386
579.67	18.654
580.00	18.678
580.34	19.197
580.67	18.711
581.01	19.104
581.35	18.215
581.68	18.846
582.02	18.404
582.35	18.662
582.69	18.577
583.02	18.707
583.36	18.649
583.70	19.155
584.03	18.790
584.37	18.884
584.70	18.998
585.04	18.531
585.37	18.582
585.71	18.792
586.04	18.846
586.38	18.408
586.72	18.451
587.05	18.803
587.39	19.272
587.72	18.971
588.06	18.738
588.39	18.920
588.73	18.783
589.06	18.933
589.40	19.053
589.73	19.152
590.07	19.861
590.40	20.047
590.73	19.972
591.07	19.806
591.40	19.596
591.74	19.873
592.07	20.097
592.41	19.479
592.74	19.844
593.08	20.191
593.41	19.510
593.75	19.454
594.08	19.630
594.41	19.615
594.75	19.861
595.08	19.448
595.42	19.708
595.75	19.632
596.09	19.925
596.42	19.885
596.75	20.108
597.09	20.404
597.42	20.024
597.75	19.600
598.09	19.960
598.42	20.346
598.76	19.603
599.09	19.580
599.42	19.410
599.76	18.719
600.09	19.086
600.42	18.886
600.76	18.989
601.09	18.653
601.42	18.744
601.76	18.517
602.09	18.835
602.42	18.902
602.76	18.967
603.09	19.567
603.42	18.895
603.76	18.922
604.09	19.659
604.42	19.229
604.76	19.406
605.09	19.386
605.42	20.016
605.75	19.577
606.09	18.514
606.42	18.716
606.75	19.678
607.09	19.278
607.42	19.306
607.75	19.422
608.08	18.745
608.42	19.307
608.75	19.403
609.08	19.270
609.41	20.071
609.75	19.643
610.08	20.361
610.41	18.989
610.74	19.160
611.07	19.449
611.41	20.090
611.74	19.353
612.07	19.355
612.40	19.962
612.73	19.853
613.07	20.147
613.40	20.164
613.73	20.077
614.06	19.921
614.39	19.874
614.72	19.699
615.06	19.538
615.39	19.768
615.72	19.431
616.05	19.427
616.38	19.374
616.71	20.585
617.05	20.021
617.38	20.385
617.71	20.248
618.04	19.914
618.37	20.765
618.70	19.966
619.03	19.654
619.36	21.332
619.69	20.564
620.03	20.527
620.36	20.184
620.69	20.543
621.02	20.604
621.35	22.642
621.68	22.343
622.01	20.569
622.34	20.711
622.67	21.924
623.00	20.445
623.33	20.173
623.66	21.530
623.99	20.935
624.32	21.053
624.65	20.077
624.99	20.936
625.32	21.359
625.65	21.443
625.98	20.203
626.31	21.616
626.64	22.930
626.97	21.980
627.30	20.957
627.63	21.005
627.96	21.997
628.29	21.167
628.62	22.418
628.95	22.261
629.28	21.835
629.61	23.232
629.94	21.841
630.26	21.695
630.59	22.366
630.92	22.338
631.25	24.240
631.58	23.823
631.91	24.461
632.24	23.151
632.57	23.340
632.90	23.069
633.23	24.082
633.56	23.265
633.89	23.864
634.22	23.597
