SpectraSuite Data File
++++++++++++++++++++++++++++++++++++
Date: Thu May 14 16:15:48 PDT 2015
User: schluterlab
Dark Spectrum Present: Yes
Reference Spectrum Present: Yes
Number of Sampled Component Spectra: 1
Spectrometers: USB2E3373
Integration Time (usec): 3000 (USB2E3373)
Spectra Averaged: 3 (USB2E3373)
Boxcar Smoothing: 0 (USB2E3373)
Correct for Electrical Dark: No (USB2E3373)
Strobe/Lamp Enabled: No (USB2E3373)
Correct for Detector Non-linearity: No (USB2E3373)
Correct for Stray Light: No (USB2E3373)
Number of Pixels in Processed Spectrum: 2048
>>>>>Begin Processed Spectral Data<<<<<
178.53	0.000
178.91	71.429
179.29	-1300.000
179.67	-700.000
180.04	100.000
180.42	50.000
180.80	140.000
181.18	600.000
181.56	1300.000
181.94	-25.000
182.31	25.000
182.69	33.333
183.07	350.000
183.45	150.000
183.83	133.333
184.20	-33.333
184.58	1400.000
184.96	-125.000
185.34	-77.778
185.72	-100.000
186.09	155.556
186.47	450.000
186.85	180.000
187.23	-66.667
187.61	-1100.000
187.98	140.000
188.36	125.000
188.74	-175.000
189.12	-66.667
189.49	-6.250
189.87	-75.000
190.25	33.333
190.63	-60.000
191.00	-144.444
191.38	0.000
191.76	-150.000
192.14	-33.333
192.51	50.000
192.89	0.000
193.27	0.000
193.65	-28.571
194.02	-500.000
194.40	28.571
194.78	157.143
195.15	0.000
195.53	27.273
195.91	0.000
196.29	-125.000
196.66	-38.462
197.04	-200.000
197.42	-14.286
197.79	-100.000
198.17	-75.000
198.55	-42.857
198.92	-66.667
199.30	-50.000
199.68	63.636
200.05	28.571
200.43	-350.000
200.81	142.857
201.18	0.000
201.56	122.222
201.94	0.000
202.31	700.000
202.69	-77.778
203.07	200.000
203.44	-11.111
203.82	-50.000
204.19	-41.667
204.57	-316.667
204.95	-137.500
205.32	-900.000
205.70	125.000
206.08	-33.333
206.45	66.667
206.83	260.000
207.20	-66.667
207.58	-180.000
207.96	-50.000
208.33	0.000
208.71	58.333
209.08	83.333
209.46	0.000
209.84	116.667
210.21	100.000
210.59	250.000
210.96	166.667
211.34	-25.000
211.71	-87.500
212.09	-400.000
212.46	0.000
212.84	850.000
213.22	-300.000
213.59	-125.000
213.97	50.000
214.34	-100.000
214.72	166.667
215.09	-150.000
215.47	0.000
215.84	-28.571
216.22	450.000
216.59	100.000
216.97	80.000
217.34	-200.000
217.72	-12.500
218.09	-25.000
218.47	-100.000
218.84	0.000
219.22	100.000
219.59	17.647
219.97	-25.000
220.34	850.000
220.72	-55.556
221.09	38.462
221.47	-233.333
221.84	-30.000
222.22	-71.429
222.59	0.000
222.97	87.500
223.34	-40.000
223.72	-1100.000
224.09	-325.000
224.46	75.000
224.84	60.000
225.21	-171.429
225.59	-350.000
225.96	-75.000
226.34	38.462
226.71	166.667
227.08	-50.000
227.46	-20.000
227.83	-100.000
228.21	47.368
228.58	50.000
228.95	50.000
229.33	16.667
229.70	10.000
230.08	42.105
230.45	100.000
230.82	0.000
231.20	7.143
231.57	50.000
231.95	-27.273
232.32	18.182
232.69	30.000
233.07	-75.000
233.44	-47.059
233.81	-10.000
234.19	72.222
234.56	18.182
234.93	41.379
235.31	0.000
235.68	11.111
236.05	-40.000
236.43	50.000
236.80	36.000
237.17	11.111
237.55	24.242
237.92	-50.000
238.29	3.226
238.67	-6.818
239.04	27.778
239.41	9.524
239.79	19.565
240.16	16.667
240.53	34.783
240.91	-1.961
241.28	6.557
241.65	20.896
242.02	25.676
242.40	16.923
242.77	8.000
243.14	3.659
243.51	10.526
243.89	20.513
244.26	20.792
244.63	17.647
245.00	17.757
245.38	13.158
245.75	7.965
246.12	22.222
246.49	20.930
246.87	19.286
247.24	19.868
247.61	20.395
247.98	23.490
248.36	24.074
248.73	16.564
249.10	18.033
249.47	19.900
249.84	28.272
250.22	19.689
250.59	25.000
250.96	25.909
251.33	19.388
251.70	20.513
252.08	21.250
252.45	20.902
252.82	21.901
253.19	21.484
253.56	20.913
253.94	18.462
254.31	26.894
254.68	26.923
255.05	25.081
255.42	25.510
255.79	18.123
256.16	23.179
256.54	22.185
256.91	23.279
257.28	21.639
257.65	25.159
258.02	21.829
258.39	21.083
258.76	27.217
259.14	24.425
259.51	21.902
259.88	20.680
260.25	22.500
260.62	24.110
260.99	25.956
261.36	25.201
261.73	22.281
262.10	25.000
262.47	21.448
262.85	27.020
263.22	22.597
263.59	18.947
263.96	22.762
264.33	22.506
264.70	25.185
265.07	25.776
265.44	28.571
265.81	23.380
266.18	24.263
266.55	22.321
266.92	22.779
267.29	22.319
267.66	25.277
268.03	23.144
268.40	22.965
268.77	24.601
269.14	24.890
269.51	23.904
269.88	26.025
270.25	23.742
270.62	25.738
270.99	22.626
271.36	25.149
271.73	22.593
272.10	26.453
272.47	25.451
272.84	23.896
273.21	22.044
273.58	22.581
273.95	22.308
274.32	20.913
274.69	22.631
275.06	22.711
275.43	19.593
275.80	21.517
276.17	22.037
276.54	21.082
276.91	22.898
277.28	21.157
277.65	24.776
278.02	22.978
278.39	23.188
278.76	21.265
279.13	20.745
279.50	23.024
279.87	23.435
280.23	19.718
280.60	20.678
280.97	23.191
281.34	21.562
281.71	25.381
282.08	20.598
282.45	20.131
282.82	21.350
283.19	21.163
283.56	22.459
283.92	22.823
284.29	23.855
284.66	22.824
285.03	20.192
285.40	21.638
285.77	20.898
286.14	21.069
286.51	21.309
286.87	20.695
287.24	21.536
287.61	22.870
287.98	19.940
288.35	21.006
288.72	20.118
289.08	20.059
289.45	21.154
289.82	19.578
290.19	20.259
290.56	21.690
290.93	16.690
291.29	19.972
291.66	20.799
292.03	18.046
292.40	21.769
292.77	18.868
293.13	15.832
293.50	18.660
293.87	17.584
294.24	21.600
294.60	18.710
294.97	17.718
295.34	18.566
295.71	17.024
296.08	17.442
296.44	17.892
296.81	18.514
297.18	18.182
297.55	17.807
297.91	17.200
298.28	15.877
298.65	17.836
299.02	16.883
299.38	17.735
299.75	16.939
300.12	16.435
300.48	17.051
300.85	15.973
301.22	17.338
301.59	17.352
301.95	16.384
302.32	17.889
302.69	16.648
303.05	16.866
303.42	16.186
303.79	17.188
304.15	17.350
304.52	16.173
304.89	17.801
305.25	15.217
305.62	14.525
305.99	17.526
306.35	15.726
306.72	16.960
307.09	16.041
307.45	16.149
307.82	16.145
308.19	15.843
308.55	16.586
308.92	16.358
309.29	15.517
309.65	14.815
310.02	15.545
310.38	15.846
310.75	16.893
311.12	17.450
311.48	16.129
311.85	16.904
312.22	14.896
312.58	15.305
312.95	15.296
313.31	15.808
313.68	17.491
314.05	15.628
314.41	16.667
314.78	15.531
315.14	16.425
315.51	16.436
315.87	16.382
316.24	16.347
316.61	16.963
316.97	15.385
317.34	16.049
317.70	17.118
318.07	15.608
318.43	15.136
318.80	17.057
319.16	16.309
319.53	12.939
319.89	15.425
320.26	16.459
320.62	14.716
320.99	15.512
321.35	15.804
321.72	18.419
322.08	14.968
322.45	16.441
322.81	17.148
323.18	15.575
323.54	15.517
323.91	16.370
324.27	16.609
324.64	16.625
325.00	15.837
325.37	17.035
325.73	16.198
326.10	17.518
326.46	16.938
326.83	16.653
327.19	16.929
327.56	16.522
327.92	16.758
328.29	16.048
328.65	16.415
329.01	16.413
329.38	17.355
329.74	17.123
330.11	17.038
330.47	17.607
330.84	16.193
331.20	17.250
331.56	17.851
331.93	18.326
332.29	16.949
332.66	17.442
333.02	16.667
333.38	15.604
333.75	16.414
334.11	17.014
334.48	16.667
334.84	18.097
335.20	16.289
335.57	17.454
335.93	17.190
336.29	16.140
336.66	16.484
337.02	16.806
337.38	17.857
337.75	15.124
338.11	16.737
338.47	16.873
338.84	17.259
339.20	15.838
339.56	16.474
339.93	16.420
340.29	16.747
340.65	16.951
341.02	16.919
341.38	16.815
341.74	15.819
342.11	16.734
342.47	15.171
342.83	16.345
343.20	16.435
343.56	17.001
343.92	16.813
344.28	16.484
344.65	17.442
345.01	16.381
345.37	16.485
345.73	15.978
346.10	16.537
346.46	16.297
346.82	15.431
347.19	15.661
347.55	17.147
347.91	16.122
348.27	15.857
348.63	15.689
349.00	15.511
349.36	16.803
349.72	15.774
350.08	16.716
350.45	15.437
350.81	16.290
351.17	15.414
351.53	16.603
351.89	14.958
352.26	15.672
352.62	16.343
352.98	15.725
353.34	15.758
353.70	15.408
354.07	16.021
354.43	15.186
354.79	15.183
355.15	15.820
355.51	16.520
355.87	15.557
356.24	16.274
356.60	16.630
356.96	15.196
357.32	15.316
357.68	14.934
358.04	15.719
358.40	15.224
358.77	15.424
359.13	16.100
359.49	14.424
359.85	15.591
360.21	16.141
360.57	15.865
360.93	15.444
361.29	15.930
361.66	15.062
362.02	16.493
362.38	15.460
362.74	14.944
363.10	16.025
363.46	15.512
363.82	15.341
364.18	15.975
364.54	15.007
364.90	16.054
365.26	14.759
365.62	14.800
365.98	15.725
366.35	15.034
366.71	15.986
367.07	15.291
367.43	15.430
367.79	15.461
368.15	15.585
368.51	16.103
368.87	15.545
369.23	15.067
369.59	15.574
369.95	15.822
370.31	16.070
370.67	15.475
371.03	16.066
371.39	14.305
371.75	15.818
372.11	14.499
372.47	15.640
372.83	16.623
373.19	15.210
373.55	14.905
373.91	13.770
374.27	14.877
374.63	15.562
374.99	15.252
375.35	16.039
375.71	14.710
376.07	15.688
376.42	15.554
376.78	15.662
377.14	15.346
377.50	16.066
377.86	15.579
378.22	15.569
378.58	15.458
378.94	15.962
379.30	15.349
379.66	16.343
380.02	15.465
380.38	15.553
380.74	16.000
381.09	16.028
381.45	15.455
381.81	16.042
382.17	15.736
382.53	16.316
382.89	15.632
383.25	15.709
383.61	15.509
383.97	14.723
384.32	15.490
384.68	14.443
385.04	15.558
385.40	15.439
385.76	16.061
386.12	15.919
386.48	16.059
386.83	16.329
387.19	14.716
387.55	15.082
387.91	14.897
388.27	15.589
388.62	15.750
388.98	15.398
389.34	16.146
389.70	14.933
390.06	14.920
390.42	15.422
390.77	16.255
391.13	15.552
391.49	16.787
391.85	14.788
392.20	15.540
392.56	16.539
392.92	15.758
393.28	16.363
393.64	15.196
393.99	15.398
394.35	16.005
394.71	16.168
395.07	15.808
395.42	15.820
395.78	15.539
396.14	16.221
396.50	16.330
396.85	14.967
397.21	15.325
397.57	15.430
397.92	16.094
398.28	15.372
398.64	15.561
399.00	15.288
399.35	15.183
399.71	15.761
400.07	15.553
400.42	16.123
400.78	15.799
401.14	15.822
401.49	16.259
401.85	15.523
402.21	15.006
402.57	16.725
402.92	15.780
403.28	15.222
403.63	15.632
403.99	15.499
404.35	16.146
404.70	16.261
405.06	15.652
405.42	14.871
405.77	16.630
406.13	15.667
406.49	16.273
406.84	15.235
407.20	15.987
407.55	15.385
407.91	16.091
408.27	16.196
408.62	16.521
408.98	15.844
409.34	14.956
409.69	16.255
410.05	16.882
410.40	16.241
410.76	15.704
411.11	15.897
411.47	16.646
411.83	16.755
412.18	16.506
412.54	15.590
412.89	16.298
413.25	15.801
413.60	16.198
413.96	15.793
414.31	15.581
414.67	15.862
415.03	15.754
415.38	15.574
415.74	16.371
416.09	16.595
416.45	16.093
416.80	16.034
417.16	16.156
417.51	16.127
417.87	16.125
418.22	16.228
418.58	15.799
418.93	17.171
419.29	15.105
419.64	15.666
420.00	15.134
420.35	16.339
420.71	15.681
421.06	15.526
421.42	15.883
421.77	15.563
422.12	15.803
422.48	15.617
422.83	16.046
423.19	16.180
423.54	16.482
423.90	16.013
424.25	15.840
424.61	15.270
424.96	16.474
425.31	17.197
425.67	15.620
426.02	15.606
426.38	15.844
426.73	15.681
427.09	17.301
427.44	15.948
427.79	15.589
428.15	15.582
428.50	16.517
428.85	15.614
429.21	17.234
429.56	16.634
429.92	16.118
430.27	16.145
430.62	15.730
430.98	15.937
431.33	15.640
431.68	15.517
432.04	16.709
432.39	16.283
432.74	15.525
433.10	16.117
433.45	16.444
433.80	15.933
434.16	16.219
434.51	15.982
434.86	16.558
435.22	16.259
435.57	16.333
435.92	16.082
436.28	16.667
436.63	16.111
436.98	15.566
437.34	15.953
437.69	16.401
438.04	16.341
438.39	16.715
438.75	16.657
439.10	16.649
439.45	15.987
439.81	16.158
440.16	15.871
440.51	16.499
440.86	15.953
441.22	16.827
441.57	15.461
441.92	16.149
442.27	16.010
442.63	16.046
442.98	16.435
443.33	16.360
443.68	16.204
444.03	16.839
444.39	17.013
444.74	16.233
445.09	16.878
445.44	16.228
445.79	16.140
446.15	16.958
446.50	15.401
446.85	17.121
447.20	16.489
447.55	15.690
447.91	16.335
448.26	16.068
448.61	16.738
448.96	17.543
449.31	17.603
449.66	15.741
450.02	16.719
450.37	17.262
450.72	16.900
451.07	16.458
451.42	16.753
451.77	17.009
452.12	16.817
452.47	16.340
452.83	16.723
453.18	15.703
453.53	16.427
453.88	15.627
454.23	16.215
454.58	16.367
454.93	15.534
455.28	17.399
455.63	16.543
455.98	16.760
456.34	15.842
456.69	15.991
457.04	17.376
457.39	16.408
457.74	16.723
458.09	15.870
458.44	16.703
458.79	16.555
459.14	16.571
459.49	16.469
459.84	16.369
460.19	15.880
460.54	16.979
460.89	16.040
461.24	16.207
461.59	16.491
461.94	15.630
462.29	16.909
462.64	16.174
462.99	16.196
463.34	17.002
463.69	16.061
464.04	16.787
464.39	16.760
464.74	16.648
465.09	16.494
465.44	16.792
465.79	17.081
466.14	16.154
466.49	16.474
466.84	16.639
467.19	17.052
467.54	16.451
467.89	16.207
468.24	16.122
468.59	16.445
468.94	16.783
469.29	16.437
469.64	16.974
469.99	15.934
470.34	15.842
470.68	16.815
471.03	18.271
471.38	16.874
471.73	16.580
472.08	16.117
472.43	17.640
472.78	17.821
473.13	16.435
473.48	17.100
473.83	17.295
474.17	16.530
474.52	17.198
474.87	16.999
475.22	17.127
475.57	16.874
475.92	16.327
476.27	16.667
476.61	17.030
476.96	16.788
477.31	17.277
477.66	17.891
478.01	17.184
478.36	17.547
478.70	16.798
479.05	17.536
479.40	16.930
479.75	17.387
480.10	17.432
480.45	16.727
480.79	17.098
481.14	16.360
481.49	16.265
481.84	17.232
482.19	17.204
482.53	17.140
482.88	17.280
483.23	17.297
483.58	17.293
483.92	16.755
484.27	17.104
484.62	16.172
484.97	17.030
485.31	16.895
485.66	16.149
486.01	15.143
486.36	15.735
486.70	15.912
487.05	16.541
487.40	16.856
487.75	16.845
488.09	17.272
488.44	16.769
488.79	17.133
489.13	17.161
489.48	17.243
489.83	16.821
490.17	17.092
490.52	16.913
490.87	17.343
491.22	17.071
491.56	17.747
491.91	17.052
492.26	16.789
492.60	17.228
492.95	17.946
493.30	17.526
493.64	17.127
493.99	16.798
494.34	17.334
494.68	17.901
495.03	17.225
495.37	17.577
495.72	17.914
496.07	17.222
496.41	17.375
496.76	17.223
497.11	17.240
497.45	17.479
497.80	17.414
498.14	17.324
498.49	17.693
498.84	17.596
499.18	17.409
499.53	17.623
499.87	17.714
500.22	17.142
500.56	17.769
500.91	17.391
501.26	17.545
501.60	17.366
501.95	17.977
502.29	17.727
502.64	18.277
502.98	17.256
503.33	17.840
503.67	17.096
504.02	17.426
504.36	18.141
504.71	17.593
505.06	17.599
505.40	18.236
505.75	18.033
506.09	17.403
506.44	17.827
506.78	18.073
507.13	17.981
507.47	18.285
507.82	18.277
508.16	18.308
508.51	17.862
508.85	17.761
509.19	17.954
509.54	18.540
509.88	18.018
510.23	18.844
510.57	19.575
510.92	19.207
511.26	18.374
511.61	17.769
511.95	18.204
512.30	19.449
512.64	18.391
512.98	18.509
513.33	19.052
513.67	18.511
514.02	18.804
514.36	19.130
514.70	19.375
515.05	19.082
515.39	18.688
515.74	19.830
516.08	19.599
516.42	19.885
516.77	19.453
517.11	18.927
517.46	19.353
517.80	19.829
518.14	19.913
518.49	19.794
518.83	19.851
519.17	18.901
519.52	20.440
519.86	20.063
520.20	19.223
520.55	20.153
520.89	20.158
521.23	20.491
521.58	20.056
521.92	20.453
522.26	20.103
522.61	19.850
522.95	20.531
523.29	20.920
523.64	20.179
523.98	20.593
524.32	21.032
524.66	19.977
525.01	19.989
525.35	19.874
525.69	20.012
526.04	20.149
526.38	20.805
526.72	20.473
527.06	20.293
527.41	20.933
527.75	20.428
528.09	20.602
528.43	19.657
528.78	19.884
529.12	20.241
529.46	19.899
529.80	20.366
530.15	21.101
530.49	20.463
530.83	20.012
531.17	20.609
531.51	20.939
531.86	21.514
532.20	20.671
532.54	19.689
532.88	20.788
533.22	20.448
533.57	21.004
533.91	21.268
534.25	19.785
534.59	20.172
534.93	19.921
535.27	21.352
535.62	21.205
535.96	21.383
536.30	20.975
536.64	21.562
536.98	21.710
537.32	21.852
537.66	22.208
538.01	21.088
538.35	20.767
538.69	20.613
539.03	21.521
539.37	20.966
539.71	21.021
540.05	21.223
540.39	21.455
540.73	20.219
541.07	21.766
541.42	21.087
541.76	20.759
542.10	21.472
542.44	20.463
542.78	20.864
543.12	21.573
543.46	20.879
543.80	20.564
544.14	20.706
544.48	20.863
544.82	21.364
545.16	21.049
545.50	21.869
545.84	21.617
546.18	22.037
546.52	21.401
546.86	20.755
547.20	21.565
547.54	21.411
547.88	20.374
548.22	20.760
548.56	21.826
548.90	21.373
549.24	22.128
549.58	21.199
549.92	21.173
550.26	21.424
550.60	22.144
550.94	22.122
551.28	20.924
551.62	22.439
551.96	22.201
552.30	22.690
552.64	21.095
552.98	22.021
553.32	22.186
553.66	21.415
554.00	22.446
554.34	21.879
554.68	21.433
555.02	22.470
555.36	23.143
555.69	21.461
556.03	22.762
556.37	22.466
556.71	22.194
557.05	23.003
557.39	23.026
557.73	22.259
558.07	22.649
558.41	23.056
558.75	22.650
559.08	22.756
559.42	22.702
559.76	22.999
560.10	22.773
560.44	22.625
560.78	23.063
561.12	22.229
561.45	22.871
561.79	21.734
562.13	23.413
562.47	22.318
562.81	23.101
563.15	23.106
563.48	23.244
563.82	22.128
564.16	21.866
564.50	22.348
564.84	21.947
565.17	22.235
565.51	21.922
565.85	23.337
566.19	21.947
566.52	21.826
566.86	22.581
567.20	22.458
567.54	22.092
567.88	22.528
568.21	22.233
568.55	22.878
568.89	21.380
569.23	21.462
569.56	20.946
569.90	21.703
570.24	20.843
570.57	21.135
570.91	21.035
571.25	20.422
571.59	21.097
571.92	20.416
572.26	20.328
572.60	20.066
572.93	20.818
573.27	21.158
573.61	20.381
573.95	20.272
574.28	20.369
574.62	20.236
574.96	20.357
575.29	20.071
575.63	20.259
575.97	20.575
576.30	20.775
576.64	20.544
576.98	20.342
577.31	20.587
577.65	20.243
577.98	20.350
578.32	19.654
578.66	19.808
578.99	19.906
579.33	20.654
579.67	20.558
580.00	20.274
580.34	20.223
580.67	20.896
581.01	20.338
581.35	20.300
581.68	19.805
582.02	19.870
582.35	19.895
582.69	20.048
583.02	20.239
583.36	20.435
583.70	20.586
584.03	20.998
584.37	20.933
584.70	21.149
585.04	20.414
585.37	20.349
585.71	19.871
586.04	20.454
586.38	20.241
586.72	20.030
587.05	20.849
587.39	20.818
587.72	20.502
588.06	20.914
588.39	21.135
588.73	20.926
589.06	21.360
589.40	21.389
589.73	21.015
590.07	21.684
590.40	21.738
590.73	21.492
591.07	22.264
591.40	21.656
591.74	22.496
592.07	21.397
592.41	21.293
592.74	21.122
593.08	21.465
593.41	21.056
593.75	21.149
594.08	21.054
594.41	21.571
594.75	20.824
595.08	21.332
595.42	22.078
595.75	21.472
596.09	21.823
596.42	21.784
596.75	22.115
597.09	22.303
597.42	22.130
597.75	22.344
598.09	22.381
598.42	22.035
598.76	21.590
599.09	21.431
599.42	21.254
599.76	21.327
600.09	21.555
600.42	21.255
600.76	21.103
601.09	20.644
601.42	21.490
601.76	21.103
602.09	21.623
602.42	21.011
602.76	21.587
603.09	21.990
603.42	21.532
603.76	21.635
604.09	21.824
604.42	21.872
604.76	21.499
605.09	21.939
605.42	21.611
605.75	21.577
606.09	20.679
606.42	21.051
606.75	21.439
607.09	21.237
607.42	21.657
607.75	22.118
608.08	21.665
608.42	22.007
608.75	21.766
609.08	21.307
609.41	22.011
609.75	21.920
610.08	22.427
610.41	21.835
610.74	21.597
611.07	22.114
611.41	22.332
611.74	21.986
612.07	22.768
612.40	22.481
612.73	22.738
613.07	22.298
613.40	22.666
613.73	22.340
614.06	23.062
614.39	22.449
614.72	22.368
615.06	22.474
615.39	22.378
615.72	22.133
616.05	22.244
616.38	22.149
616.71	23.145
617.05	22.151
617.38	22.525
617.71	23.056
618.04	22.612
618.37	23.716
618.70	23.133
619.03	22.879
619.36	23.551
619.69	23.382
620.03	23.540
620.36	23.006
620.69	22.579
621.02	23.819
621.35	24.673
621.68	24.078
622.01	24.270
622.34	23.780
622.67	23.574
623.00	23.212
623.33	24.353
623.66	24.254
623.99	23.041
624.32	24.107
624.65	23.552
624.99	23.667
625.32	23.906
625.65	23.938
625.98	23.864
626.31	24.026
626.64	24.835
626.97	23.931
627.30	23.538
627.63	23.556
627.96	25.000
628.29	23.658
628.62	23.090
628.95	24.715
629.28	23.874
629.61	25.673
629.94	22.594
630.26	24.407
630.59	25.043
630.92	24.762
631.25	26.923
631.58	25.800
631.91	26.242
632.24	26.225
632.57	26.091
632.90	26.179
633.23	25.510
633.56	25.102
633.89	25.517
