SpectraSuite Data File
++++++++++++++++++++++++++++++++++++
Date: Thu May 14 16:14:37 PDT 2015
User: schluterlab
Dark Spectrum Present: Yes
Reference Spectrum Present: Yes
Number of Sampled Component Spectra: 1
Spectrometers: USB2E3373
Integration Time (usec): 3000 (USB2E3373)
Spectra Averaged: 3 (USB2E3373)
Boxcar Smoothing: 0 (USB2E3373)
Correct for Electrical Dark: No (USB2E3373)
Strobe/Lamp Enabled: No (USB2E3373)
Correct for Detector Non-linearity: No (USB2E3373)
Correct for Stray Light: No (USB2E3373)
Number of Pixels in Processed Spectrum: 2048
>>>>>Begin Processed Spectral Data<<<<<
178.53	0.000
178.91	42.857
179.29	-1000.000
179.67	-500.000
180.04	135.714
180.42	70.000
180.80	260.000
181.18	-400.000
181.56	600.000
181.94	100.000
182.31	-150.000
182.69	300.000
183.07	-100.000
183.45	50.000
183.83	-83.333
184.20	0.000
184.58	400.000
184.96	-25.000
185.34	-55.556
185.72	-60.000
186.09	188.889
186.47	100.000
186.85	380.000
187.23	-33.333
187.61	-400.000
187.98	-20.000
188.36	125.000
188.74	-150.000
189.12	-166.667
189.49	31.250
189.87	-87.500
190.25	22.222
190.63	140.000
191.00	-44.444
191.38	0.000
191.76	-175.000
192.14	66.667
192.51	350.000
192.89	16.667
193.27	0.000
193.65	14.286
194.02	-900.000
194.40	71.429
194.78	142.857
195.15	0.000
195.53	-45.455
195.91	0.000
196.29	25.000
196.66	-53.846
197.04	-1400.000
197.42	-200.000
197.79	-350.000
198.17	-50.000
198.55	-128.571
198.92	-11.111
199.30	-137.500
199.68	81.818
200.05	42.857
200.43	-500.000
200.81	257.143
201.18	0.000
201.56	177.778
201.94	0.000
202.31	333.333
202.69	-177.778
203.07	800.000
203.44	33.333
203.82	0.000
204.19	50.000
204.57	-66.667
204.95	12.500
205.32	-100.000
205.70	150.000
206.08	-33.333
206.45	-83.333
206.83	240.000
207.20	-66.667
207.58	-180.000
207.96	-250.000
208.33	-50.000
208.71	41.667
209.08	83.333
209.46	0.000
209.84	83.333
210.21	600.000
210.59	350.000
210.96	200.000
211.34	-200.000
211.71	-25.000
212.09	-900.000
212.46	0.000
212.84	800.000
213.22	-80.000
213.59	0.000
213.97	-110.000
214.34	-166.667
214.72	116.667
215.09	-300.000
215.47	0.000
215.84	114.286
216.22	700.000
216.59	160.000
216.97	-60.000
217.34	-100.000
217.72	-25.000
218.09	-175.000
218.47	-25.000
218.84	0.000
219.22	120.000
219.59	41.176
219.97	-15.000
220.34	-350.000
220.72	-55.556
221.09	0.000
221.47	-366.667
221.84	-110.000
222.22	-142.857
222.59	0.000
222.97	75.000
223.34	-80.000
223.72	-1000.000
224.09	0.000
224.46	-150.000
224.84	80.000
225.21	-114.286
225.59	-300.000
225.96	-125.000
226.34	19.231
226.71	283.333
227.08	-200.000
227.46	-33.333
227.83	-275.000
228.21	-10.526
228.58	125.000
228.95	500.000
229.33	25.000
229.70	40.000
230.08	78.947
230.45	100.000
230.82	-300.000
231.20	50.000
231.57	83.333
231.95	27.273
232.32	-18.182
232.69	-20.000
233.07	50.000
233.44	35.294
233.81	-10.000
234.19	0.000
234.56	27.273
234.93	31.034
235.31	31.579
235.68	16.667
236.05	-45.000
236.43	19.231
236.80	56.000
237.17	22.222
237.55	9.091
237.92	-80.000
238.29	25.806
238.67	18.182
239.04	11.111
239.41	-4.762
239.79	8.696
240.16	3.704
240.53	8.696
240.91	17.647
241.28	18.033
241.65	29.851
242.02	20.270
242.40	18.462
242.77	10.667
243.14	8.537
243.51	11.842
243.89	11.538
244.26	17.822
244.63	14.706
245.00	15.888
245.38	19.298
245.75	3.540
246.12	16.667
246.49	13.178
246.87	9.286
247.24	19.205
247.61	20.395
247.98	16.779
248.36	21.605
248.73	14.110
249.10	18.579
249.47	25.373
249.84	24.084
250.22	23.316
250.59	17.778
250.96	19.091
251.33	16.327
251.70	18.803
252.08	21.250
252.45	25.820
252.82	18.182
253.19	17.969
253.56	20.913
253.94	16.923
254.31	17.803
254.68	21.329
255.05	18.893
255.42	15.986
255.79	20.065
256.16	19.205
256.54	17.219
256.91	20.328
257.28	19.344
257.65	15.605
258.02	15.044
258.39	15.954
258.76	21.713
259.14	22.126
259.51	18.732
259.88	16.714
260.25	20.000
260.62	20.274
260.99	20.765
261.36	21.984
261.73	18.833
262.10	16.484
262.47	22.788
262.85	21.717
263.22	16.364
263.59	19.474
263.96	19.949
264.33	18.159
264.70	21.235
265.07	18.854
265.44	22.676
265.81	18.750
266.18	19.955
266.55	19.420
266.92	18.451
267.29	19.912
267.66	20.399
268.03	19.432
268.40	19.415
268.77	17.540
269.14	17.621
269.51	18.640
269.88	20.902
270.25	17.505
270.62	19.831
270.99	22.424
271.36	20.000
271.73	20.236
272.10	20.842
272.47	21.443
272.84	20.281
273.21	19.038
273.58	20.363
273.95	18.077
274.32	16.350
274.69	17.795
275.06	19.414
275.43	17.006
275.80	21.517
276.17	19.259
276.54	18.657
276.91	19.678
277.28	17.722
277.65	18.851
278.02	18.750
278.39	19.022
278.76	18.278
279.13	20.745
279.50	19.931
279.87	18.426
280.23	16.725
280.60	18.814
280.97	17.763
281.34	17.487
281.71	19.459
282.08	18.439
282.45	17.840
282.82	19.309
283.19	16.801
283.56	18.361
283.92	17.718
284.29	18.325
284.66	20.033
285.03	17.628
285.40	17.774
285.77	19.350
286.14	17.710
286.51	18.874
286.87	18.325
287.24	17.018
287.61	17.040
287.98	18.127
288.35	17.899
288.72	16.124
289.08	19.180
289.45	17.899
289.82	17.620
290.19	17.672
290.56	17.887
290.93	16.976
291.29	17.493
291.66	18.595
292.03	15.061
292.40	16.463
292.77	15.768
293.13	17.050
293.50	14.717
293.87	15.839
294.24	17.333
294.60	15.550
294.97	17.047
295.34	15.493
295.71	14.376
296.08	15.504
296.44	14.951
296.81	15.591
297.18	15.442
297.55	14.741
297.91	13.760
298.28	13.981
298.65	14.031
299.02	14.758
299.38	16.018
299.75	15.070
300.12	14.352
300.48	15.553
300.85	13.836
301.22	14.765
301.59	13.584
301.95	15.480
302.32	15.889
302.69	13.253
303.05	14.146
303.42	15.078
303.79	14.792
304.15	13.775
304.52	13.742
304.89	14.031
305.25	13.561
305.62	14.525
305.99	13.814
306.35	15.323
306.72	13.961
307.09	13.604
307.45	14.803
307.82	14.834
308.19	12.412
308.55	15.236
308.92	14.800
309.29	15.326
309.65	13.548
310.02	13.861
310.38	13.976
310.75	14.757
311.12	14.861
311.48	13.978
311.85	14.340
312.22	13.852
312.58	15.023
312.95	13.576
313.31	14.724
313.68	16.117
314.05	15.357
314.41	15.847
314.78	14.714
315.14	16.152
315.51	15.974
315.87	15.842
316.24	16.621
316.61	15.897
316.97	15.837
317.34	15.256
317.70	16.245
318.07	16.755
318.43	17.007
318.80	18.144
319.16	17.167
319.53	15.510
319.89	17.178
320.26	15.391
320.62	16.135
320.99	18.375
321.35	17.745
321.72	17.953
322.08	17.313
322.45	18.519
322.81	17.780
323.18	17.788
323.54	18.017
323.91	18.505
324.27	18.933
324.64	19.060
325.00	17.330
325.37	19.247
325.73	19.421
326.10	18.978
326.46	19.218
326.83	19.456
327.19	18.189
327.56	20.316
327.92	18.725
328.29	20.323
328.65	20.519
329.01	19.289
329.38	20.219
329.74	20.120
330.11	19.606
330.47	19.545
330.84	21.102
331.20	21.417
331.56	20.191
331.93	21.172
332.29	19.576
332.66	20.764
333.02	20.268
333.38	20.302
333.75	20.791
334.11	21.018
334.48	20.132
334.84	21.750
335.20	20.319
335.57	21.164
335.93	22.066
336.29	21.048
336.66	20.269
337.02	20.318
337.38	21.514
337.75	20.083
338.11	21.362
338.47	20.347
338.84	19.882
339.20	19.461
339.56	19.852
339.93	21.346
340.29	19.807
340.65	20.438
341.02	20.511
341.38	21.423
341.74	20.500
342.11	20.434
342.47	19.301
342.83	21.256
343.20	20.278
343.56	21.251
343.92	21.297
344.28	20.547
344.65	21.008
345.01	19.969
345.37	21.540
345.73	20.187
346.10	20.983
346.46	19.699
346.82	20.824
347.19	20.321
347.55	22.003
347.91	20.579
348.27	20.106
348.63	20.259
349.00	19.985
349.36	21.190
349.72	20.536
350.08	20.505
350.45	19.696
350.81	20.211
351.17	20.000
351.53	21.001
351.89	20.577
352.26	19.776
352.62	20.075
352.98	20.992
353.34	19.193
353.70	20.493
354.07	21.162
354.43	20.881
354.79	20.494
355.15	20.383
355.51	20.614
355.87	19.746
356.24	21.445
356.60	19.364
356.96	19.348
357.32	20.000
357.68	20.278
358.04	19.910
358.40	20.970
358.77	20.687
359.13	19.719
359.49	19.331
359.85	21.102
360.21	20.373
360.57	19.742
360.93	20.381
361.29	20.421
361.66	20.492
362.02	20.946
362.38	20.731
362.74	20.321
363.10	21.320
363.46	20.360
363.82	20.810
364.18	20.197
364.54	21.577
364.90	20.134
365.26	19.724
365.62	21.533
365.98	20.150
366.35	20.738
366.71	21.156
367.07	20.704
367.43	21.602
367.79	21.632
368.15	21.940
368.51	20.907
368.87	20.379
369.23	20.933
369.59	21.516
369.95	20.554
370.31	21.337
370.67	21.458
371.03	20.914
371.39	20.685
371.75	20.358
372.11	21.138
372.47	20.379
372.83	21.335
373.19	22.015
373.55	20.393
373.91	20.314
374.27	21.410
374.63	21.380
374.99	21.286
375.35	21.883
375.71	21.484
376.07	20.852
376.42	21.159
376.78	20.883
377.14	21.834
377.50	21.695
377.86	21.121
378.22	21.617
378.58	21.700
378.94	21.655
379.30	21.500
379.66	21.752
380.02	22.677
380.38	22.062
380.74	22.141
381.09	21.312
381.45	21.989
381.81	22.365
382.17	22.803
382.53	21.696
382.89	22.912
383.25	22.743
383.61	22.280
383.97	22.674
384.32	22.010
384.68	21.462
385.04	22.383
385.40	23.276
385.76	22.509
386.12	23.459
386.48	22.941
386.83	23.719
387.19	22.190
387.55	21.948
387.91	23.059
388.27	23.268
388.62	23.196
388.98	22.955
389.34	23.276
389.70	23.533
390.06	23.031
390.42	22.229
390.77	23.961
391.13	22.711
391.49	23.792
391.85	23.152
392.20	23.310
392.56	23.981
392.92	22.901
393.28	23.936
393.64	23.408
393.99	24.056
394.35	24.708
394.71	24.072
395.07	23.413
395.42	24.386
395.78	25.655
396.14	24.777
396.50	23.278
396.85	23.435
397.21	24.615
397.57	24.264
397.92	24.513
398.28	23.900
398.64	24.142
399.00	23.403
399.35	24.764
399.71	23.913
400.07	24.256
400.42	24.505
400.78	25.405
401.14	25.213
401.49	25.867
401.85	25.349
402.21	24.855
402.57	25.587
402.92	25.118
403.28	24.532
403.63	24.403
403.99	25.534
404.35	24.673
404.70	25.949
405.06	24.620
405.42	25.585
405.77	25.300
406.13	24.203
406.49	25.619
406.84	25.706
407.20	25.489
407.55	25.500
407.91	26.210
408.27	25.854
408.62	25.596
408.98	25.711
409.34	25.513
409.69	25.773
410.05	27.198
410.40	26.392
410.76	25.351
411.11	26.534
411.47	26.413
411.83	25.808
412.18	27.349
412.54	25.667
412.89	25.960
413.25	26.637
413.60	26.709
413.96	26.865
414.31	26.232
414.67	26.774
415.03	26.892
415.38	26.608
415.74	26.695
416.09	27.637
416.45	26.362
416.80	26.438
417.16	27.395
417.51	27.086
417.87	27.468
418.22	27.186
418.58	26.952
418.93	28.231
419.29	27.065
419.64	27.071
420.00	27.181
420.35	27.232
420.71	26.479
421.06	27.487
421.42	27.695
421.77	27.356
422.12	27.378
422.48	28.008
422.83	28.258
423.19	27.162
423.54	28.595
423.90	27.775
424.25	29.067
424.61	27.669
424.96	27.293
425.31	27.601
425.67	27.375
426.02	28.777
426.38	28.588
426.73	28.013
427.09	28.604
427.44	27.307
427.79	27.418
428.15	27.683
428.50	28.146
428.85	28.588
429.21	28.830
429.56	28.085
429.92	26.880
430.27	28.145
430.62	28.481
430.98	28.923
431.33	28.690
431.68	27.730
432.04	29.253
432.39	28.923
432.74	29.395
433.10	28.989
433.45	28.372
433.80	28.916
434.16	28.719
434.51	29.342
434.86	28.502
435.22	29.330
435.57	30.248
435.92	29.160
436.28	29.636
436.63	29.929
436.98	29.469
437.34	29.030
437.69	29.554
438.04	29.350
438.39	28.834
438.75	28.445
439.10	30.603
439.45	29.011
439.81	29.040
440.16	29.651
440.51	29.264
440.86	28.961
441.22	29.100
441.57	30.189
441.92	29.486
442.27	30.152
442.63	29.856
442.98	29.936
443.33	30.037
443.68	30.476
444.03	30.668
444.39	30.559
444.74	30.066
445.09	29.346
445.44	29.715
445.79	30.987
446.15	29.702
446.50	29.509
446.85	29.864
447.20	30.561
447.55	30.805
447.91	30.471
448.26	29.968
448.61	30.234
448.96	30.687
449.31	30.011
449.66	29.956
450.02	29.641
450.37	30.314
450.72	29.925
451.07	31.093
451.42	30.560
451.77	30.406
452.12	30.926
452.47	29.590
452.83	30.349
453.18	30.181
453.53	30.155
453.88	30.149
454.23	30.678
454.58	30.238
454.93	30.704
455.28	31.186
455.63	30.870
455.98	30.447
456.34	30.565
456.69	30.864
457.04	30.910
457.39	30.876
457.74	31.264
458.09	30.862
458.44	30.765
458.79	29.706
459.14	29.733
459.49	30.956
459.84	30.745
460.19	29.706
460.54	30.210
460.89	31.128
461.24	30.690
461.59	31.323
461.94	30.462
462.29	31.803
462.64	30.296
462.99	31.513
463.34	32.317
463.69	30.657
464.04	31.518
464.39	31.222
464.74	30.616
465.09	30.969
465.44	30.848
465.79	31.042
466.14	30.485
466.49	31.474
466.84	30.854
467.19	31.503
467.54	30.141
467.89	30.287
468.24	31.413
468.59	30.631
468.94	30.478
469.29	30.234
469.64	30.579
469.99	30.338
470.34	31.002
470.68	31.716
471.03	32.286
471.38	31.458
471.73	30.429
472.08	31.536
472.43	31.005
472.78	30.982
473.13	30.784
473.48	31.964
473.83	31.631
474.17	30.891
474.52	32.231
474.87	29.790
475.22	30.986
475.57	31.464
475.92	31.309
476.27	30.884
476.61	30.530
476.96	30.657
477.31	31.089
477.66	32.162
478.01	30.605
478.36	31.057
478.70	30.148
479.05	31.237
479.40	30.898
479.75	30.980
480.10	31.170
480.45	31.814
480.79	31.474
481.14	30.561
481.49	31.395
481.84	32.158
482.19	31.011
482.53	31.526
482.88	30.970
483.23	32.192
483.58	30.917
483.92	30.718
484.27	31.626
484.62	31.559
484.97	30.560
485.31	31.116
485.66	29.490
486.01	29.086
486.36	29.496
486.70	30.459
487.05	31.280
487.40	31.112
487.75	31.221
488.09	31.840
488.44	31.319
488.79	31.939
489.13	31.644
489.48	30.602
489.83	30.986
490.17	30.701
490.52	31.856
490.87	30.922
491.22	31.282
491.56	31.271
491.91	31.574
492.26	30.939
492.60	31.745
492.95	31.988
493.30	30.569
493.64	31.625
493.99	31.140
494.34	31.446
494.68	31.263
495.03	32.291
495.37	31.203
495.72	31.610
496.07	31.201
496.41	31.446
496.76	31.776
497.11	30.318
497.45	31.075
497.80	30.964
498.14	30.748
498.49	31.434
498.84	32.404
499.18	31.534
499.53	30.987
499.87	31.473
500.22	31.300
500.56	31.534
500.91	32.128
501.26	32.091
501.60	30.137
501.95	31.220
502.29	30.891
502.64	31.439
502.98	30.932
503.33	30.756
503.67	30.397
504.02	30.342
504.36	31.680
504.71	31.971
505.06	30.014
505.40	31.399
505.75	31.694
506.09	31.630
506.44	31.569
506.78	30.963
507.13	31.397
507.47	31.075
507.82	30.682
508.16	31.023
508.51	30.849
508.85	30.515
509.19	30.886
509.54	32.277
509.88	31.666
510.23	31.909
510.57	31.706
510.92	31.495
511.26	31.602
511.61	30.565
511.95	30.991
512.30	31.758
512.64	30.885
512.98	31.616
513.33	32.107
513.67	30.954
514.02	31.937
514.36	30.844
514.70	32.135
515.05	31.543
515.39	31.391
515.74	32.238
516.08	31.907
516.42	32.810
516.77	32.229
517.11	31.253
517.46	32.131
517.80	32.977
518.14	31.610
518.49	31.833
518.83	31.879
519.17	30.856
519.52	31.971
519.86	31.098
520.20	31.896
520.55	31.051
520.89	32.545
521.23	31.770
521.58	31.921
521.92	31.841
522.26	30.584
522.61	31.829
522.95	32.295
523.29	31.149
523.64	31.166
523.98	32.573
524.32	32.837
524.66	31.417
525.01	31.484
525.35	30.959
525.69	32.367
526.04	30.999
526.38	31.667
526.72	31.776
527.06	32.199
527.41	32.187
527.75	32.720
528.09	31.051
528.43	31.912
528.78	31.561
529.12	30.906
529.46	31.310
529.80	31.236
530.15	32.058
530.49	31.198
530.83	31.936
531.17	31.123
531.51	30.686
531.86	32.031
532.20	31.768
532.54	31.777
532.88	31.091
533.22	31.998
533.57	31.333
533.91	31.201
534.25	30.582
534.59	31.782
534.93	30.787
535.27	31.042
535.62	31.211
535.96	32.365
536.30	30.611
536.64	31.171
536.98	32.718
537.32	30.988
537.66	31.566
538.01	30.514
538.35	30.694
538.69	30.709
539.03	31.085
539.37	30.506
539.71	30.991
540.05	30.456
540.39	31.235
540.73	30.298
541.07	30.779
541.42	29.711
541.76	30.130
542.10	30.579
542.44	29.598
542.78	31.265
543.12	30.513
543.46	31.258
543.80	29.317
544.14	30.461
544.48	30.851
544.82	30.042
545.16	30.769
545.50	30.737
545.84	29.577
546.18	31.420
546.52	30.510
546.86	30.943
547.20	31.234
547.54	30.275
547.88	29.717
548.22	29.766
548.56	30.544
548.90	30.328
549.24	30.152
549.58	30.095
549.92	30.102
550.26	30.615
550.60	30.121
550.94	30.530
551.28	29.703
551.62	32.008
551.96	29.385
552.30	31.421
552.64	28.376
552.98	29.881
553.32	29.839
553.66	30.225
554.00	30.265
554.34	29.151
554.68	29.632
555.02	29.566
555.36	31.558
555.69	29.532
556.03	29.130
556.37	30.663
556.71	30.945
557.05	29.712
557.39	29.529
557.73	30.978
558.07	30.265
558.41	30.764
558.75	30.020
559.08	28.810
559.42	30.178
559.76	30.122
560.10	29.270
560.44	29.683
560.78	30.062
561.12	28.818
561.45	29.440
561.79	29.243
562.13	30.006
562.47	27.928
562.81	29.494
563.15	29.356
563.48	29.584
563.82	28.174
564.16	28.528
564.50	28.963
564.84	29.322
565.17	28.412
565.51	28.021
565.85	29.632
566.19	28.802
566.52	28.613
566.86	28.353
567.20	27.624
567.54	28.996
567.88	28.389
568.21	28.310
568.55	28.297
568.89	28.098
569.23	28.095
569.56	28.175
569.90	27.334
570.24	27.825
570.57	26.588
570.91	27.159
571.25	26.699
571.59	26.830
571.92	26.599
572.26	27.263
572.60	26.727
572.93	26.858
573.27	26.918
573.61	26.628
573.95	26.730
574.28	26.419
574.62	25.853
574.96	25.695
575.29	25.644
575.63	26.288
575.97	26.467
576.30	25.981
576.64	26.223
576.98	26.014
577.31	25.799
577.65	26.310
577.98	25.715
578.32	25.703
578.66	25.971
578.99	26.111
579.33	26.478
579.67	25.839
580.00	25.916
580.34	26.156
580.67	26.412
581.01	25.617
581.35	25.599
581.68	25.129
582.02	25.684
582.35	25.682
582.69	25.676
583.02	25.715
583.36	25.981
583.70	26.244
584.03	26.134
584.37	26.290
584.70	25.672
585.04	25.087
585.37	25.917
585.71	25.761
586.04	25.165
586.38	25.511
586.72	25.144
587.05	25.505
587.39	25.156
587.72	25.167
588.06	25.895
588.39	25.541
588.73	25.741
589.06	26.157
589.40	25.722
589.73	25.643
590.07	26.194
590.40	26.504
590.73	26.440
591.07	26.136
591.40	25.855
591.74	26.232
592.07	25.619
592.41	26.144
592.74	26.482
593.08	25.287
593.41	25.051
593.75	25.000
594.08	25.598
594.41	25.897
594.75	25.573
595.08	25.673
595.42	24.610
595.75	26.445
596.09	26.228
596.42	26.012
596.75	25.357
597.09	25.980
597.42	25.546
597.75	25.598
598.09	25.357
598.42	26.136
598.76	24.570
599.09	24.956
599.42	23.835
599.76	25.157
600.09	25.259
600.42	25.025
600.76	24.670
601.09	24.959
601.42	24.785
601.76	24.448
602.09	24.839
602.42	24.973
602.76	24.686
603.09	25.000
603.42	25.434
603.76	24.595
604.09	25.621
604.42	25.174
604.76	24.315
605.09	25.329
605.42	24.482
605.75	24.615
606.09	24.337
606.42	24.334
606.75	24.475
607.09	24.808
607.42	24.277
607.75	24.658
608.08	24.743
608.42	24.627
608.75	25.207
609.08	24.321
609.41	24.790
609.75	25.759
610.08	25.154
610.41	24.511
610.74	24.748
611.07	24.556
611.41	25.022
611.74	24.573
612.07	24.918
612.40	24.097
612.73	25.183
613.07	24.548
613.40	25.746
613.73	25.373
614.06	24.975
614.39	24.295
614.72	24.842
615.06	23.580
615.39	24.118
615.72	24.408
616.05	24.624
616.38	25.328
616.71	25.862
617.05	24.547
617.38	25.361
617.71	24.838
618.04	24.879
618.37	25.628
618.70	25.000
619.03	24.014
619.36	25.647
619.69	25.432
620.03	24.670
620.36	24.172
620.69	25.231
621.02	25.197
621.35	25.689
621.68	25.597
622.01	24.982
622.34	24.547
622.67	25.223
623.00	24.359
623.33	25.481
623.66	24.773
623.99	25.411
624.32	26.316
624.65	24.646
624.99	24.707
625.32	24.690
625.65	25.354
625.98	24.881
626.31	24.947
626.64	25.788
626.97	24.831
627.30	24.374
627.63	24.606
627.96	25.976
628.29	25.914
628.62	25.357
628.95	25.592
629.28	25.319
629.61	25.421
629.94	24.854
630.26	24.831
630.59	24.525
630.92	25.195
631.25	25.671
631.58	26.554
631.91	24.930
632.24	24.688
632.57	25.427
632.90	24.774
633.23	28.163
633.56	26.122
633.89	25.207
