SpectraSuite Data File
++++++++++++++++++++++++++++++++++++
Date: Thu May 14 16:13:26 PDT 2015
User: schluterlab
Dark Spectrum Present: Yes
Reference Spectrum Present: Yes
Number of Sampled Component Spectra: 1
Spectrometers: USB2E3373
Integration Time (usec): 3000 (USB2E3373)
Spectra Averaged: 3 (USB2E3373)
Boxcar Smoothing: 0 (USB2E3373)
Correct for Electrical Dark: No (USB2E3373)
Strobe/Lamp Enabled: No (USB2E3373)
Correct for Detector Non-linearity: No (USB2E3373)
Correct for Stray Light: No (USB2E3373)
Number of Pixels in Processed Spectrum: 2048
>>>>>Begin Processed Spectral Data<<<<<
178.53	0.000
178.91	228.571
179.29	-1500.000
179.67	-1500.000
180.04	157.143
180.42	40.000
180.80	100.000
181.18	500.000
181.56	-200.000
181.94	425.000
182.31	-150.000
182.69	233.333
183.07	-300.000
183.45	325.000
183.83	-150.000
184.20	-33.333
184.58	-400.000
184.96	-25.000
185.34	-22.222
185.72	260.000
186.09	77.778
186.47	350.000
186.85	380.000
187.23	-66.667
187.61	-1000.000
187.98	60.000
188.36	175.000
188.74	150.000
189.12	66.667
189.49	-37.500
189.87	-112.500
190.25	0.000
190.63	-120.000
191.00	-100.000
191.38	0.000
191.76	-250.000
192.14	-50.000
192.51	400.000
192.89	83.333
193.27	0.000
193.65	28.571
194.02	-800.000
194.40	-71.429
194.78	71.429
195.15	0.000
195.53	18.182
195.91	0.000
196.29	-150.000
196.66	-53.846
197.04	-1600.000
197.42	-185.714
197.79	-550.000
198.17	-112.500
198.55	-142.857
198.92	33.333
199.30	-187.500
199.68	-27.273
200.05	0.000
200.43	-700.000
200.81	142.857
201.18	0.000
201.56	111.111
201.94	0.000
202.31	400.000
202.69	-155.556
203.07	100.000
203.44	11.111
203.82	-175.000
204.19	-41.667
204.57	-166.667
204.95	-137.500
205.32	-1100.000
205.70	375.000
206.08	-83.333
206.45	100.000
206.83	380.000
207.20	-50.000
207.58	-100.000
207.96	-50.000
208.33	250.000
208.71	91.667
209.08	16.667
209.46	0.000
209.84	66.667
210.21	250.000
210.59	150.000
210.96	366.667
211.34	-275.000
211.71	-137.500
212.09	-500.000
212.46	0.000
212.84	600.000
213.22	-300.000
213.59	-325.000
213.97	10.000
214.34	-166.667
214.72	66.667
215.09	-350.000
215.47	0.000
215.84	-42.857
216.22	400.000
216.59	-80.000
216.97	-140.000
217.34	-225.000
217.72	-62.500
218.09	-200.000
218.47	-200.000
218.84	0.000
219.22	180.000
219.59	-11.765
219.97	-35.000
220.34	550.000
220.72	-55.556
221.09	69.231
221.47	-366.667
221.84	-70.000
222.22	-200.000
222.59	0.000
222.97	12.500
223.34	-180.000
223.72	500.000
224.09	-100.000
224.46	-175.000
224.84	-20.000
225.21	-100.000
225.59	-100.000
225.96	-25.000
226.34	0.000
226.71	200.000
227.08	-100.000
227.46	6.667
227.83	-25.000
228.21	52.632
228.58	50.000
228.95	250.000
229.33	-8.333
229.70	30.000
230.08	68.421
230.45	150.000
230.82	133.333
231.20	50.000
231.57	-8.333
231.95	-45.455
232.32	45.455
232.69	25.000
233.07	-150.000
233.44	-70.588
233.81	20.000
234.19	22.222
234.56	0.000
234.93	20.690
235.31	36.842
235.68	22.222
236.05	-65.000
236.43	38.462
236.80	40.000
237.17	14.815
237.55	3.030
237.92	-40.000
238.29	12.903
238.67	2.273
239.04	13.889
239.41	14.286
239.79	13.043
240.16	7.407
240.53	4.348
240.91	1.961
241.28	24.590
241.65	10.448
242.02	21.622
242.40	4.615
242.77	21.333
243.14	24.390
243.51	13.158
243.89	14.103
244.26	24.752
244.63	30.392
245.00	19.626
245.38	21.930
245.75	10.619
246.12	26.190
246.49	19.380
246.87	22.143
247.24	25.166
247.61	17.105
247.98	21.477
248.36	23.457
248.73	15.951
249.10	21.858
249.47	31.343
249.84	24.607
250.22	18.653
250.59	24.444
250.96	20.455
251.33	17.347
251.70	23.504
252.08	22.083
252.45	25.820
252.82	18.595
253.19	16.406
253.56	21.673
253.94	19.615
254.31	24.242
254.68	27.273
255.05	23.453
255.42	23.129
255.79	18.123
256.16	24.172
256.54	19.536
256.91	22.295
257.28	22.951
257.65	21.338
258.02	21.829
258.39	21.083
258.76	29.358
259.14	26.724
259.51	25.072
259.88	17.847
260.25	21.944
260.62	23.836
260.99	22.678
261.36	24.129
261.73	21.751
262.10	20.604
262.47	22.788
262.85	24.242
263.22	22.078
263.59	19.211
263.96	25.064
264.33	22.251
264.70	21.975
265.07	24.582
265.44	27.211
265.81	20.602
266.18	22.902
266.55	24.330
266.92	23.235
267.29	25.383
267.66	23.947
268.03	22.052
268.40	22.338
268.77	23.918
269.14	18.722
269.51	24.342
269.88	23.361
270.25	23.944
270.62	24.262
270.99	23.434
271.36	22.574
271.73	21.611
272.10	26.253
272.47	22.645
272.84	20.080
273.21	23.848
273.58	25.403
273.95	23.269
274.32	23.384
274.69	20.890
275.06	22.894
275.43	22.921
275.80	23.280
276.17	21.111
276.54	19.216
276.91	23.256
277.28	23.508
277.65	23.878
278.02	20.772
278.39	22.101
278.76	22.496
279.13	21.099
279.50	22.165
279.87	23.614
280.23	18.134
280.60	20.508
280.97	24.013
281.34	23.090
281.71	23.012
282.08	21.595
282.45	20.949
282.82	19.937
283.19	19.709
283.56	21.475
283.92	21.772
284.29	24.803
284.66	21.346
285.03	21.154
285.40	22.257
285.77	23.529
286.14	21.374
286.51	23.592
286.87	22.907
287.24	21.235
287.61	20.927
287.98	18.278
288.35	22.337
288.72	21.302
289.08	20.791
289.45	18.787
289.82	19.277
290.19	22.414
290.56	22.535
290.93	18.688
291.29	20.386
291.66	20.386
292.03	18.046
292.40	21.224
292.77	18.733
293.13	19.080
293.50	18.791
293.87	17.450
294.24	20.533
294.60	18.078
294.97	16.510
295.34	20.230
295.71	18.789
296.08	18.475
296.44	17.525
296.81	19.610
297.18	17.559
297.55	17.807
297.91	17.438
298.28	16.114
298.65	17.360
299.02	17.473
299.38	17.391
299.75	17.757
300.12	17.824
300.48	18.318
300.85	17.435
301.22	17.562
301.59	16.667
301.95	16.384
302.32	18.556
302.69	17.415
303.05	17.628
303.42	17.184
303.79	16.875
304.15	17.350
304.52	16.913
304.89	15.707
305.25	16.770
305.62	17.137
305.99	17.526
306.35	15.323
306.72	17.994
307.09	16.751
307.45	16.977
307.82	15.843
308.19	16.448
308.55	17.358
308.92	16.650
309.29	16.762
309.65	17.836
310.02	17.921
310.38	15.748
310.75	17.184
311.12	17.258
311.48	16.716
311.85	16.999
312.22	16.698
312.58	16.526
312.95	16.539
313.31	17.615
313.68	17.857
314.05	18.790
314.41	16.940
314.78	17.439
315.14	16.788
315.51	18.375
315.87	16.562
316.24	18.174
316.61	17.673
316.97	16.290
317.34	17.108
317.70	18.777
318.07	18.166
318.43	18.197
318.80	18.395
319.16	17.511
319.53	16.967
319.89	18.317
320.26	17.616
320.62	17.819
320.99	17.636
321.35	19.131
321.72	20.651
322.08	19.387
322.45	18.338
322.81	20.397
323.18	19.115
323.54	20.086
323.91	20.196
324.27	19.105
324.64	20.319
325.00	18.905
325.37	20.229
325.73	19.669
326.10	21.492
326.46	20.847
326.83	21.297
327.19	20.709
327.56	20.079
327.92	19.906
328.29	18.952
328.65	20.101
329.01	21.235
329.38	21.567
329.74	21.147
330.11	20.462
330.47	20.556
330.84	19.897
331.20	21.583
331.56	20.364
331.93	20.753
332.29	21.271
332.66	21.761
333.02	19.933
333.38	20.889
333.75	20.707
334.11	20.267
334.48	19.884
334.84	19.796
335.20	19.144
335.57	21.332
335.93	21.653
336.29	19.634
336.66	20.521
337.02	19.816
337.38	20.748
337.75	20.000
338.11	20.353
338.47	21.092
338.84	19.966
339.20	19.629
339.56	19.769
339.93	19.787
340.29	20.370
340.65	20.032
341.02	20.511
341.38	20.210
341.74	19.693
342.11	20.434
342.47	19.619
342.83	21.417
343.20	21.177
343.56	19.647
343.92	19.456
344.28	20.703
344.65	20.620
345.01	20.827
345.37	19.984
345.73	18.628
346.10	19.813
346.46	19.146
346.82	19.700
347.19	19.710
347.55	19.954
347.91	20.431
348.27	20.182
348.63	20.030
349.00	19.165
349.36	19.554
349.72	19.717
350.08	19.688
350.45	19.316
350.81	19.231
351.17	18.947
351.53	20.091
351.89	20.046
352.26	20.448
352.62	19.403
352.98	18.550
353.34	18.447
353.70	20.647
354.07	19.598
354.43	20.273
354.79	20.568
355.15	19.205
355.51	21.053
355.87	19.297
356.24	20.304
356.60	20.547
356.96	18.977
357.32	19.554
357.68	19.473
358.04	19.461
358.40	19.104
358.77	19.079
359.13	19.941
359.49	18.513
359.85	18.927
360.21	19.656
360.57	19.095
360.93	19.605
361.29	20.070
361.66	19.696
362.02	19.972
362.38	19.606
362.74	19.763
363.10	20.289
363.46	20.152
363.82	19.318
364.18	20.267
364.54	20.263
364.90	19.799
365.26	19.172
365.62	20.400
365.98	20.218
366.35	19.866
366.71	20.272
367.07	20.636
367.43	20.355
367.79	21.367
368.15	19.866
368.51	19.756
368.87	19.268
369.23	20.333
369.59	20.014
369.95	19.743
370.31	20.662
370.67	20.220
371.03	20.083
371.39	18.939
371.75	20.426
372.11	20.799
372.47	20.515
372.83	20.942
373.19	20.347
373.55	20.257
373.91	19.768
374.27	20.634
374.63	20.636
374.99	20.225
375.35	21.169
375.71	20.129
376.07	20.917
376.42	20.781
376.78	20.696
377.14	20.836
377.50	20.936
377.86	20.813
378.22	20.898
378.58	21.403
378.94	21.244
379.30	19.801
379.66	20.929
380.02	21.235
380.38	21.774
380.74	21.183
381.09	22.358
381.45	21.648
381.81	21.546
382.17	22.090
382.53	21.170
382.89	21.163
383.25	21.512
383.61	21.875
383.97	21.084
384.32	21.770
384.68	21.056
385.04	22.209
385.40	22.334
385.76	22.626
386.12	21.245
386.48	22.471
386.83	23.063
387.19	21.321
387.55	22.066
387.91	21.404
388.27	22.864
388.62	21.879
388.98	22.335
389.34	23.394
389.70	22.894
390.06	22.558
390.42	21.988
390.77	22.938
391.13	23.063
391.49	23.913
391.85	23.697
392.20	22.598
392.56	22.741
392.92	23.610
393.28	23.107
393.64	22.626
393.99	23.649
394.35	23.657
394.71	23.054
395.07	23.174
395.42	21.930
395.78	24.314
396.14	24.064
396.50	24.406
396.85	23.673
397.21	23.728
397.57	23.969
397.92	24.227
398.28	22.433
398.64	23.455
399.00	23.194
399.35	23.665
399.71	23.478
400.07	24.312
400.42	24.272
400.78	23.900
401.14	24.417
401.49	24.105
401.85	24.244
402.21	24.623
402.57	25.469
402.92	24.645
403.28	24.415
403.63	24.821
403.99	25.356
404.35	24.446
404.70	24.476
405.06	23.587
405.42	24.649
405.77	24.864
406.13	24.743
406.49	25.563
406.84	24.875
407.20	25.154
407.55	24.531
407.91	25.581
408.27	24.499
408.62	25.364
408.98	25.885
409.34	24.927
409.69	26.143
410.05	26.026
410.40	27.494
410.76	25.911
411.11	26.885
411.47	26.966
411.83	26.925
412.18	26.928
412.54	26.141
412.89	27.357
413.25	25.734
413.60	25.732
413.96	26.865
414.31	27.422
414.67	27.490
415.03	28.000
415.38	28.247
415.74	27.184
416.09	27.884
416.45	27.176
416.80	27.417
417.16	27.586
417.51	26.276
417.87	26.793
418.22	27.485
418.58	27.138
418.93	28.754
419.29	28.113
419.64	27.551
420.00	28.131
420.35	28.467
420.71	27.513
421.06	28.465
421.42	27.752
421.77	27.518
422.12	28.171
422.48	28.315
422.83	28.861
423.19	28.223
423.54	29.093
423.90	28.272
424.25	29.173
424.61	28.588
424.96	28.995
425.31	28.769
425.67	29.093
426.02	28.390
426.38	29.277
426.73	29.353
427.09	30.334
427.44	29.328
427.79	28.469
428.15	29.224
428.50	29.101
428.85	29.334
429.21	29.947
429.56	30.059
429.92	30.221
430.27	29.446
430.62	29.702
430.98	29.415
431.33	29.228
431.68	29.885
432.04	31.234
432.39	30.745
432.74	30.936
433.10	30.503
433.45	30.546
433.80	30.150
434.16	30.630
434.51	31.089
434.86	32.139
435.22	31.350
435.57	32.134
435.92	31.219
436.28	31.001
436.63	31.786
436.98	31.401
437.34	31.905
437.69	31.591
438.04	31.676
438.39	32.051
438.75	31.378
439.10	32.347
439.45	31.582
439.81	30.734
440.16	31.099
440.51	32.553
440.86	30.906
441.22	32.154
441.57	32.495
441.92	31.717
442.27	33.182
442.63	32.588
442.98	32.604
443.33	32.825
443.68	32.953
444.03	32.785
444.39	32.732
444.74	33.486
445.09	32.235
445.44	33.351
445.79	33.094
446.15	32.734
446.50	32.093
446.85	33.268
447.20	33.414
447.55	33.159
447.91	32.723
448.26	32.928
448.61	33.050
448.96	33.959
449.31	32.397
449.66	33.224
450.02	33.122
450.37	33.458
450.72	33.262
451.07	32.973
451.42	33.969
451.77	33.741
452.12	33.409
452.47	33.333
452.83	34.234
453.18	33.625
453.53	32.682
453.88	32.855
454.23	33.729
454.58	33.024
454.93	33.617
455.28	34.437
455.63	33.599
455.98	33.240
456.34	33.687
456.69	33.098
457.04	34.043
457.39	32.927
457.74	34.284
458.09	33.059
458.44	33.351
458.79	33.058
459.14	33.403
459.49	33.843
459.84	33.578
460.19	33.426
460.54	34.412
460.89	35.521
461.24	33.736
461.59	33.868
461.94	32.858
462.29	34.994
462.64	33.917
462.99	34.024
463.34	34.977
463.69	33.353
464.04	34.797
464.39	33.520
464.74	33.580
465.09	33.679
465.44	33.155
465.79	33.950
466.14	33.507
466.49	33.316
466.84	34.545
467.19	34.624
467.54	34.195
467.89	34.310
468.24	33.629
468.59	32.426
468.94	32.634
469.29	34.433
469.64	33.884
469.99	33.716
470.34	32.921
470.68	34.792
471.03	34.250
471.38	34.271
471.73	33.680
472.08	34.518
472.43	34.317
472.78	34.572
473.13	33.881
473.48	34.924
473.83	33.720
474.17	33.470
474.52	33.734
474.87	33.666
475.22	34.197
475.57	33.385
475.92	34.345
476.27	33.759
476.61	33.385
476.96	33.472
477.31	34.703
477.66	35.205
478.01	34.875
478.36	33.998
478.70	33.941
479.05	34.816
479.40	34.304
479.75	34.294
480.10	34.012
480.45	33.637
480.79	34.240
481.14	34.237
481.49	34.348
481.84	34.160
482.19	33.978
482.53	34.368
482.88	34.603
483.23	34.415
483.58	34.061
483.92	32.757
484.27	34.505
484.62	33.870
484.97	33.787
485.31	33.263
485.66	32.379
486.01	32.207
486.36	32.160
486.70	33.430
487.05	33.895
487.40	34.130
487.75	34.097
488.09	34.714
488.44	34.618
488.79	34.536
489.13	34.576
489.48	33.320
489.83	33.481
490.17	34.022
490.52	33.128
490.87	33.587
491.22	33.536
491.56	33.746
491.91	33.973
492.26	34.141
492.60	33.756
492.95	34.094
493.30	33.214
493.64	33.947
493.99	33.640
494.34	33.537
494.68	33.276
495.03	34.185
495.37	34.842
495.72	33.878
496.07	33.961
496.41	33.376
496.76	34.237
497.11	33.758
497.45	34.182
497.80	34.607
498.14	33.560
498.49	34.329
498.84	34.918
499.18	33.963
499.53	34.439
499.87	34.549
500.22	33.393
500.56	33.558
500.91	34.142
501.26	34.045
501.60	33.672
501.95	33.348
502.29	33.611
502.64	34.237
502.98	33.650
503.33	33.391
503.67	33.624
504.02	33.538
504.36	35.165
504.71	33.532
505.06	33.106
505.40	33.638
505.75	33.607
506.09	34.208
506.44	34.030
506.78	34.541
507.13	34.394
507.47	33.160
507.82	34.422
508.16	34.034
508.51	33.943
508.85	34.105
509.19	33.870
509.54	33.622
509.88	34.628
510.23	34.920
510.57	34.944
510.92	34.881
511.26	34.584
511.61	34.476
511.95	33.968
512.30	34.318
512.64	33.583
512.98	34.167
513.33	34.123
513.67	34.625
514.02	35.054
514.36	35.601
514.70	34.531
515.05	35.297
515.39	34.961
515.74	35.366
516.08	34.284
516.42	35.583
516.77	34.543
517.11	34.657
517.46	35.207
517.80	35.649
518.14	35.473
518.49	34.707
518.83	34.699
519.17	33.656
519.52	34.591
519.86	35.269
520.20	34.984
520.55	34.392
520.89	35.304
521.23	34.729
521.58	36.215
521.92	35.411
522.26	35.281
522.61	36.400
522.95	35.063
523.29	35.690
523.64	34.865
523.98	35.197
524.32	36.619
524.66	35.458
525.01	34.938
525.35	34.635
525.69	35.209
526.04	34.845
526.38	35.287
526.72	35.236
527.06	34.956
527.41	35.802
527.75	36.401
528.09	35.360
528.43	36.057
528.78	33.931
529.12	36.411
529.46	34.626
529.80	36.098
530.15	35.014
530.49	35.528
530.83	35.832
531.17	34.827
531.51	35.560
531.86	35.697
532.20	36.829
532.54	35.548
532.88	35.515
533.22	34.532
533.57	34.737
533.91	35.971
534.25	35.953
534.59	36.494
534.93	35.654
535.27	35.211
535.62	35.873
535.96	35.909
536.30	35.076
536.64	35.315
536.98	35.978
537.32	36.173
537.66	35.933
538.01	34.381
538.35	36.054
538.69	35.276
539.03	35.316
539.37	34.923
539.71	33.874
540.05	35.252
540.39	35.147
540.73	34.426
541.07	35.622
541.42	33.904
541.76	35.587
542.10	34.560
542.44	34.957
542.78	36.010
543.12	35.936
543.46	34.799
543.80	35.132
544.14	34.530
544.48	35.225
544.82	35.907
545.16	34.943
545.50	35.351
545.84	34.599
546.18	35.802
546.52	35.541
546.86	35.283
547.20	36.641
547.54	34.707
547.88	34.358
548.22	34.561
548.56	35.284
548.90	34.567
549.24	35.805
549.58	35.016
549.92	34.821
550.26	35.793
550.60	34.971
550.94	36.158
551.28	34.455
551.62	35.916
551.96	34.822
552.30	34.736
552.64	34.599
552.98	36.245
553.32	36.334
553.66	34.277
554.00	34.552
554.34	34.878
554.68	34.474
555.02	34.954
555.36	35.174
555.69	34.529
556.03	34.174
556.37	34.481
556.71	35.954
557.05	34.569
557.39	34.174
557.73	35.139
558.07	34.238
558.41	35.748
558.75	35.024
559.08	34.934
559.42	34.362
559.76	34.735
560.10	33.423
560.44	34.367
560.78	34.812
561.12	34.052
561.45	34.611
561.79	34.799
562.13	34.319
562.47	34.217
562.81	33.671
563.15	35.227
563.48	35.239
563.82	33.978
564.16	33.374
564.50	32.956
564.84	34.395
565.17	33.706
565.51	33.084
565.85	34.145
566.19	33.180
566.52	33.528
566.86	33.729
567.20	32.898
567.54	33.245
567.88	33.792
568.21	33.300
568.55	33.621
568.89	33.227
569.23	33.038
569.56	32.395
569.90	32.110
570.24	31.636
570.57	32.649
570.91	32.027
571.25	30.923
571.59	31.506
571.92	31.210
572.26	31.683
572.60	31.395
572.93	31.895
573.27	31.807
573.61	31.525
573.95	31.294
574.28	31.044
574.62	30.991
574.96	30.856
575.29	30.205
575.63	30.400
575.97	31.186
576.30	31.039
576.64	31.186
576.98	30.661
577.31	31.340
577.65	30.933
577.98	30.553
578.32	30.447
578.66	29.966
578.99	30.289
579.33	31.414
579.67	30.644
580.00	30.321
580.34	31.261
580.67	30.406
581.01	30.917
581.35	30.879
581.68	30.044
582.02	30.244
582.35	30.615
582.69	30.653
583.02	30.648
583.36	30.684
583.70	31.084
584.03	30.814
584.37	31.597
584.70	31.125
585.04	30.295
585.37	30.579
585.71	29.989
586.04	30.515
586.38	30.269
586.72	30.258
587.05	30.084
587.39	30.516
587.72	30.813
588.06	30.271
588.39	30.097
588.73	29.630
589.06	30.728
589.40	31.008
589.73	30.302
590.07	30.504
590.40	31.474
590.73	30.824
591.07	31.683
591.40	30.171
591.74	30.843
592.07	30.857
592.41	30.008
592.74	30.600
593.08	29.745
593.41	30.505
593.75	30.115
594.08	30.294
594.41	30.641
594.75	30.023
595.08	30.720
595.42	29.903
595.75	29.868
596.09	30.464
596.42	30.383
596.75	30.876
597.09	30.788
597.42	30.393
597.75	30.615
598.09	30.635
598.42	31.082
598.76	30.111
599.09	29.583
599.42	29.098
599.76	29.119
600.09	30.063
600.42	29.429
600.76	30.020
601.09	29.771
601.42	29.386
601.76	29.241
602.09	30.021
602.42	29.589
602.76	29.889
603.09	29.479
603.42	30.058
603.76	29.211
604.09	29.879
604.42	29.651
604.76	29.300
605.09	29.637
605.42	30.183
605.75	29.423
606.09	29.339
606.42	28.858
606.75	28.861
607.09	28.725
607.42	28.516
607.75	29.113
608.08	29.124
608.42	28.779
608.75	29.975
609.08	28.608
609.41	29.907
609.75	29.286
610.08	30.255
610.41	28.760
610.74	28.739
611.07	29.352
611.41	29.103
611.74	29.700
612.07	29.827
612.40	29.230
612.73	29.438
613.07	29.389
613.40	29.788
613.73	28.743
614.06	29.735
614.39	29.543
614.72	28.627
615.06	29.259
615.39	28.661
615.72	28.578
616.05	29.335
616.38	29.011
616.71	29.572
617.05	28.754
617.38	28.946
617.71	29.158
618.04	29.142
618.37	29.180
618.70	29.695
619.03	29.092
619.36	29.593
619.69	29.917
620.03	28.688
620.36	28.528
620.69	28.809
621.02	28.871
621.35	29.681
621.68	29.935
622.01	30.249
622.34	28.801
622.67	29.141
623.00	28.003
623.33	29.263
623.66	28.923
623.99	28.308
624.32	28.395
624.65	28.829
624.99	29.584
625.32	29.589
625.65	28.928
625.98	28.407
626.31	28.136
626.64	29.158
626.97	28.807
627.30	28.853
627.63	29.407
627.96	29.655
628.29	30.039
628.62	29.219
628.95	28.571
629.28	29.057
629.61	30.808
629.94	27.950
630.26	28.220
630.59	27.547
630.92	28.398
631.25	29.785
631.58	29.567
631.91	29.803
632.24	30.259
632.57	29.602
632.90	29.990
633.23	30.918
633.56	27.755
