SpectraSuite Data File
++++++++++++++++++++++++++++++++++++
Date: Thu May 14 16:21:38 PDT 2015
User: schluterlab
Dark Spectrum Present: Yes
Reference Spectrum Present: Yes
Number of Sampled Component Spectra: 1
Spectrometers: USB2E3373
Integration Time (usec): 3000 (USB2E3373)
Spectra Averaged: 3 (USB2E3373)
Boxcar Smoothing: 0 (USB2E3373)
Correct for Electrical Dark: No (USB2E3373)
Strobe/Lamp Enabled: No (USB2E3373)
Correct for Detector Non-linearity: No (USB2E3373)
Correct for Stray Light: No (USB2E3373)
Number of Pixels in Processed Spectrum: 2048
>>>>>Begin Processed Spectral Data<<<<<
178.53	0.000
178.91	114.286
179.29	-1200.000
179.67	-400.000
180.04	135.714
180.42	90.000
180.80	260.000
181.18	-1300.000
181.56	-300.000
181.94	350.000
182.31	-25.000
182.69	300.000
183.07	-350.000
183.45	150.000
183.83	50.000
184.20	-266.667
184.58	600.000
184.96	-125.000
185.34	-44.444
185.72	-60.000
186.09	200.000
186.47	150.000
186.85	280.000
187.23	-11.111
187.61	-1000.000
187.98	120.000
188.36	325.000
188.74	-150.000
189.12	-200.000
189.49	0.000
189.87	-25.000
190.25	-55.556
190.63	80.000
191.00	-188.889
191.38	0.000
191.76	-50.000
192.14	-66.667
192.51	450.000
192.89	83.333
193.27	0.000
193.65	-14.286
194.02	-1400.000
194.40	-42.857
194.78	142.857
195.15	0.000
195.53	18.182
195.91	0.000
196.29	-300.000
196.66	-15.385
197.04	-700.000
197.42	0.000
197.79	0.000
198.17	-62.500
198.55	-28.571
198.92	-11.111
199.30	-50.000
199.68	18.182
200.05	57.143
200.43	-500.000
200.81	100.000
201.18	0.000
201.56	100.000
201.94	0.000
202.31	500.000
202.69	-211.111
203.07	100.000
203.44	-11.111
203.82	-200.000
204.19	-83.333
204.57	83.333
204.95	-87.500
205.32	-200.000
205.70	250.000
206.08	-133.333
206.45	-50.000
206.83	320.000
207.20	-133.333
207.58	40.000
207.96	-50.000
208.33	50.000
208.71	91.667
209.08	100.000
209.46	0.000
209.84	250.000
210.21	450.000
210.59	300.000
210.96	333.333
211.34	175.000
211.71	12.500
212.09	-1200.000
212.46	0.000
212.84	450.000
213.22	-320.000
213.59	-125.000
213.97	-30.000
214.34	66.667
214.72	150.000
215.09	-125.000
215.47	0.000
215.84	57.143
216.22	650.000
216.59	20.000
216.97	-60.000
217.34	-125.000
217.72	-12.500
218.09	-350.000
218.47	-300.000
218.84	0.000
219.22	120.000
219.59	11.765
219.97	20.000
220.34	900.000
220.72	-44.444
221.09	76.923
221.47	-200.000
221.84	-30.000
222.22	-57.143
222.59	0.000
222.97	-50.000
223.34	-260.000
223.72	-1400.000
224.09	-325.000
224.46	-225.000
224.84	-20.000
225.21	-71.429
225.59	-150.000
225.96	-200.000
226.34	26.923
226.71	216.667
227.08	-100.000
227.46	-26.667
227.83	-50.000
228.21	26.316
228.58	112.500
228.95	100.000
229.33	66.667
229.70	-60.000
230.08	26.316
230.45	20.000
230.82	66.667
231.20	-28.571
231.57	-33.333
231.95	-36.364
232.32	-18.182
232.69	30.000
233.07	-75.000
233.44	5.882
233.81	-10.000
234.19	33.333
234.56	45.455
234.93	44.828
235.31	52.632
235.68	55.556
236.05	-25.000
236.43	3.846
236.80	12.000
237.17	-7.407
237.55	15.152
237.92	-10.000
238.29	25.806
238.67	22.727
239.04	16.667
239.41	14.286
239.79	32.609
240.16	25.926
240.53	26.087
240.91	-3.922
241.28	31.148
241.65	23.881
242.02	33.784
242.40	12.308
242.77	37.333
243.14	35.366
243.51	30.263
243.89	33.333
244.26	33.663
244.63	39.216
245.00	38.318
245.38	35.965
245.75	16.814
246.12	35.714
246.49	26.357
246.87	34.286
247.24	29.801
247.61	30.921
247.98	28.859
248.36	38.889
248.73	29.448
249.10	33.880
249.47	32.338
249.84	36.649
250.22	38.342
250.59	37.222
250.96	31.818
251.33	30.612
251.70	37.607
252.08	34.167
252.45	38.525
252.82	37.190
253.19	37.109
253.56	40.684
253.94	33.077
254.31	37.121
254.68	38.462
255.05	37.134
255.42	34.694
255.79	33.333
256.16	36.424
256.54	34.437
256.91	36.393
257.28	32.787
257.65	35.350
258.02	31.268
258.39	33.903
258.76	40.367
259.14	39.368
259.51	32.565
259.88	36.827
260.25	35.278
260.62	35.890
260.99	38.525
261.36	34.853
261.73	36.605
262.10	37.363
262.47	34.584
262.85	36.364
263.22	33.247
263.59	32.105
263.96	37.340
264.33	36.573
264.70	36.049
265.07	36.754
265.44	35.601
265.81	36.111
266.18	34.921
266.55	35.491
266.92	33.030
267.29	37.856
267.66	37.694
268.03	36.463
268.40	34.029
268.77	35.991
269.14	35.903
269.51	36.404
269.88	34.631
270.25	33.400
270.62	39.030
270.99	36.970
271.36	34.455
271.73	37.328
272.10	37.475
272.47	35.271
272.84	35.743
273.21	35.671
273.58	35.282
273.95	34.231
274.32	34.791
274.69	32.302
275.06	34.066
275.43	33.272
275.80	34.568
276.17	35.000
276.54	33.955
276.91	35.599
277.28	34.720
277.65	35.907
278.02	33.088
278.39	35.688
278.76	34.622
279.13	34.397
279.50	33.849
279.87	36.315
280.23	30.810
280.60	33.898
280.97	33.717
281.34	34.635
281.71	35.364
282.08	33.056
282.45	32.733
282.82	33.124
283.19	32.633
283.56	32.623
283.92	32.583
284.29	33.965
284.66	32.020
285.03	32.532
285.40	33.230
285.77	32.198
286.14	35.267
286.51	30.898
286.87	33.649
287.24	34.337
287.61	31.091
287.98	32.628
288.35	32.988
288.72	30.325
289.08	33.089
289.45	30.325
289.82	29.367
290.19	30.172
290.56	30.000
290.93	30.813
291.29	31.405
291.66	28.926
292.03	30.393
292.40	29.660
292.77	29.380
293.13	29.093
293.50	28.909
293.87	27.785
294.24	29.867
294.60	29.330
294.97	27.248
295.34	29.193
295.71	28.121
296.08	27.649
296.44	27.819
296.81	27.649
297.18	26.152
297.55	27.241
297.91	26.572
298.28	27.844
298.65	25.684
299.02	25.620
299.38	26.888
299.75	26.285
300.12	26.389
300.48	25.691
300.85	27.559
301.22	26.398
301.59	25.685
301.95	27.119
302.32	26.667
302.69	26.506
303.05	26.768
303.42	25.721
303.79	26.771
304.15	25.131
304.52	25.370
304.89	25.550
305.25	26.501
305.62	25.392
305.99	25.464
306.35	25.302
306.72	27.715
307.09	27.411
307.45	26.501
307.82	26.135
308.19	26.741
308.55	27.001
308.92	27.264
309.29	25.670
309.65	26.121
310.02	27.624
310.38	25.492
310.75	27.087
311.12	28.284
311.48	26.393
311.85	27.066
312.22	27.324
312.58	27.512
312.95	28.011
313.31	28.004
313.68	29.029
314.05	29.088
314.41	29.690
314.78	30.427
315.14	29.310
315.51	28.994
315.87	29.343
316.24	30.868
316.61	30.995
316.97	29.864
317.34	30.688
317.70	31.965
318.07	31.217
318.43	32.483
318.80	32.943
319.16	31.845
319.53	32.219
319.89	32.165
320.26	33.096
320.62	33.245
320.99	32.225
321.35	33.919
321.72	34.512
322.08	34.175
322.45	36.043
322.81	35.650
323.18	35.221
323.54	37.500
323.91	37.900
324.27	36.919
324.64	37.699
325.00	37.313
325.37	38.411
325.73	38.512
326.10	40.308
326.46	39.332
326.83	40.833
327.19	39.921
327.56	41.423
327.92	40.834
328.29	41.048
328.65	41.709
329.01	41.794
329.38	42.291
329.74	45.120
330.11	44.606
330.47	43.387
330.84	43.842
331.20	43.750
331.56	43.328
331.93	45.356
332.29	45.593
332.66	44.850
333.02	44.221
333.38	44.463
333.75	45.539
334.11	45.288
334.48	46.040
334.84	46.219
335.20	45.340
335.57	46.037
335.93	47.355
336.29	45.175
336.66	46.510
337.02	46.405
337.38	47.874
337.75	46.777
338.11	48.612
338.47	47.064
338.84	47.124
339.20	47.599
339.56	47.776
339.93	46.716
340.29	47.182
340.65	48.418
341.02	48.284
341.38	49.070
341.74	48.265
342.11	48.109
342.47	47.260
342.83	49.275
343.20	49.469
343.56	49.639
343.92	48.519
344.28	48.516
344.65	49.922
345.01	49.610
345.37	50.000
345.73	48.636
346.10	50.312
346.46	49.921
346.82	50.187
347.19	51.490
347.55	50.683
347.91	50.446
348.27	51.138
348.63	48.591
349.00	49.963
349.36	51.747
349.72	50.223
350.08	49.926
350.45	51.863
350.81	50.679
351.17	51.729
351.53	53.525
351.89	52.012
352.26	53.060
352.62	52.015
352.98	53.359
353.34	52.651
353.70	53.775
354.07	52.310
354.43	53.531
354.79	54.076
355.15	52.833
355.51	53.582
355.87	53.179
356.24	54.829
356.60	53.659
356.96	54.559
357.32	53.234
357.68	55.198
358.04	52.844
358.40	53.582
358.77	54.386
359.13	54.431
359.49	53.903
359.85	55.983
360.21	54.878
360.57	53.410
360.93	54.584
361.29	54.877
361.66	55.177
362.02	54.489
362.38	55.587
362.74	56.494
363.10	55.502
363.46	56.025
363.82	56.818
364.18	56.439
364.54	56.086
364.90	56.455
365.26	57.655
365.62	56.400
365.98	56.569
366.35	55.705
366.71	57.415
367.07	58.660
367.43	56.993
367.79	58.062
368.15	57.458
368.51	57.240
368.87	57.348
369.23	57.000
369.59	57.514
369.95	59.364
370.31	59.284
370.67	58.184
371.03	57.756
371.39	57.287
371.75	58.872
372.11	59.146
372.47	58.497
372.83	58.508
373.19	57.171
373.55	58.740
373.91	58.964
374.27	58.150
374.63	59.405
374.99	61.008
375.35	59.675
375.71	58.710
376.07	59.587
376.42	60.390
376.78	60.224
377.14	58.328
377.50	59.709
377.86	59.360
378.22	61.317
378.58	60.820
378.94	60.211
379.30	58.817
379.66	60.553
380.02	61.281
380.38	61.924
380.74	60.732
381.09	62.137
381.45	60.511
381.81	62.705
382.17	60.748
382.53	61.170
382.89	60.553
383.25	62.192
383.61	61.748
383.97	61.425
384.32	61.603
384.68	60.383
385.04	61.943
385.40	63.995
385.76	62.368
386.12	61.939
386.48	61.471
386.83	62.277
387.19	62.399
387.55	62.324
387.91	62.386
388.27	62.644
388.62	60.767
388.98	60.406
389.34	62.994
389.70	62.929
390.06	62.285
390.42	62.771
390.77	62.492
391.13	62.559
391.49	63.043
391.85	62.909
392.20	62.337
392.56	61.252
392.92	61.450
393.28	63.129
393.64	62.737
393.99	62.754
394.35	62.734
394.71	61.916
395.07	61.257
395.42	62.821
395.78	63.193
396.14	62.686
396.50	61.995
396.85	62.552
397.21	60.947
397.57	63.486
397.92	62.486
398.28	62.520
398.64	62.357
399.00	61.099
399.35	61.990
399.71	60.761
400.07	62.605
400.42	60.710
400.78	61.632
401.14	61.867
401.49	62.422
401.85	63.198
402.21	61.587
402.57	62.559
402.92	62.411
403.28	61.534
403.63	61.277
403.99	60.748
404.35	61.455
404.70	61.813
405.06	59.946
405.42	60.890
405.77	60.414
406.13	61.372
406.49	61.374
406.84	60.720
407.20	60.537
407.55	62.871
407.91	61.408
408.27	60.306
408.62	60.733
408.98	60.186
409.34	61.232
409.69	61.372
410.05	60.141
410.40	60.325
410.76	60.292
411.11	60.959
411.47	60.749
411.83	61.670
412.18	61.747
412.54	60.344
412.89	60.070
413.25	61.456
413.60	60.023
413.96	61.364
414.31	58.640
414.67	60.525
415.03	58.277
415.38	61.349
415.74	60.232
416.09	58.976
416.45	58.547
416.80	58.996
417.16	59.898
417.51	59.776
417.87	59.289
418.22	59.521
418.58	59.789
418.93	59.255
419.29	59.309
419.64	58.944
420.00	60.000
420.35	58.226
420.71	58.874
421.06	57.964
421.42	58.888
421.77	58.104
422.12	58.985
422.48	58.884
422.83	60.350
423.19	58.621
423.54	59.458
423.90	59.194
424.25	59.307
424.61	58.439
424.96	58.265
425.31	59.236
425.67	58.508
426.02	59.546
426.38	58.783
426.73	58.147
427.09	59.400
427.44	58.056
427.79	58.264
428.15	57.648
428.50	58.258
428.85	57.176
429.21	57.979
429.56	56.515
429.92	57.199
430.27	57.446
430.62	57.401
430.98	57.944
431.33	57.283
431.68	56.130
432.04	57.237
432.39	56.776
432.74	56.678
433.10	57.220
433.45	57.135
433.80	55.955
434.16	57.025
434.51	57.914
434.86	58.686
435.22	57.811
435.57	57.901
435.92	57.819
436.28	57.964
436.63	57.673
436.98	55.770
437.34	57.384
437.69	56.687
438.04	56.214
438.39	55.830
438.75	56.890
439.10	57.981
439.45	56.680
439.81	56.384
440.16	55.925
440.51	57.023
440.86	55.809
441.22	55.734
441.57	56.499
441.92	56.353
442.27	56.313
442.63	55.936
442.98	56.937
443.33	55.287
443.68	57.780
444.03	56.256
444.39	56.403
444.74	56.815
445.09	54.232
445.44	55.954
445.79	56.705
446.15	56.218
446.50	55.401
446.85	55.204
447.20	55.416
447.55	56.224
447.91	54.764
448.26	55.233
448.61	54.835
448.96	57.403
449.31	54.295
449.66	54.303
450.02	54.958
450.37	54.928
450.72	54.575
451.07	54.385
451.42	54.073
451.77	53.696
452.12	55.192
452.47	55.140
452.83	54.899
453.18	53.240
453.53	53.992
453.88	53.065
454.23	53.672
454.58	53.860
454.93	53.155
455.28	54.485
455.63	53.269
455.98	54.413
456.34	52.415
456.69	53.616
457.04	54.137
457.39	53.936
457.74	53.188
458.09	52.389
458.44	53.125
458.79	51.006
459.14	51.180
459.49	53.424
459.84	52.938
460.19	51.527
460.54	53.549
460.89	51.932
461.24	50.690
461.59	51.909
461.94	51.911
462.29	51.792
462.64	50.996
462.99	50.847
463.34	51.201
463.69	50.996
464.04	50.139
464.39	51.177
464.74	50.741
465.09	50.000
465.44	50.858
465.79	49.974
466.14	49.088
466.49	48.947
466.84	49.862
467.19	49.422
467.54	49.060
467.89	48.678
468.24	48.920
468.59	48.871
468.94	48.776
469.29	47.750
469.64	48.570
469.99	49.713
470.34	48.267
470.68	49.419
471.03	47.937
471.38	47.482
471.73	47.009
472.08	48.287
472.43	47.200
472.78	46.851
473.13	47.598
473.48	47.492
473.83	47.243
474.17	47.655
474.52	47.324
474.87	46.401
475.22	46.085
475.57	46.262
475.92	45.396
476.27	45.367
476.61	45.846
476.96	45.673
477.31	46.337
477.66	46.013
478.01	45.247
478.36	45.065
478.70	43.941
479.05	45.501
479.40	45.163
479.75	45.245
480.10	44.244
480.45	44.394
480.79	44.036
481.14	43.704
481.49	44.298
481.84	44.909
482.19	44.172
482.53	43.288
482.88	43.731
483.23	43.842
483.58	43.100
483.92	42.465
484.27	43.395
484.62	43.234
484.97	42.574
485.31	42.626
485.66	40.967
486.01	40.720
486.36	41.436
486.70	43.385
487.05	44.097
487.40	43.487
487.75	42.952
488.09	42.209
488.44	41.739
488.79	42.293
489.13	41.419
489.48	40.699
489.83	40.483
490.17	41.110
490.52	40.599
490.87	40.398
491.22	41.551
491.56	40.572
491.91	41.169
492.26	41.064
492.60	40.621
492.95	40.412
493.30	40.520
493.64	39.816
493.99	40.351
494.34	39.634
494.68	40.600
495.03	40.132
495.37	39.991
495.72	39.365
496.07	39.614
496.41	39.468
496.76	39.366
497.11	38.429
497.45	39.836
497.80	39.138
498.14	39.501
498.49	39.798
498.84	38.483
499.18	39.361
499.53	38.296
499.87	38.330
500.22	37.979
500.56	38.237
500.91	39.176
501.26	39.136
501.60	37.826
501.95	38.602
502.29	38.219
502.64	38.172
502.98	37.403
503.33	37.970
503.67	36.808
504.02	37.566
504.36	37.444
504.71	37.391
505.06	37.153
505.40	37.340
505.75	36.384
506.09	37.707
506.44	37.140
506.78	37.431
507.13	37.298
507.47	37.707
507.82	36.742
508.16	37.046
508.51	35.115
508.85	36.845
509.19	36.855
509.54	36.744
509.88	36.717
510.23	37.640
510.57	37.941
510.92	36.236
511.26	36.316
511.61	35.683
511.95	36.310
512.30	37.026
512.64	35.632
512.98	35.568
513.33	36.139
513.67	35.747
514.02	35.156
514.36	35.601
514.70	35.729
515.05	35.662
515.39	35.433
515.74	35.366
516.08	35.552
516.42	35.165
516.77	35.752
517.11	34.193
517.46	34.783
517.80	34.580
518.14	35.854
518.49	35.249
518.83	34.007
519.17	33.818
519.52	35.115
519.86	33.897
520.20	34.132
520.55	34.064
520.89	34.178
521.23	34.171
521.58	34.915
521.92	34.504
522.26	33.047
522.61	33.796
522.95	34.083
523.29	33.793
523.64	32.904
523.98	34.170
524.32	34.728
524.66	33.409
525.01	33.182
525.35	34.061
525.69	33.875
526.04	33.352
526.38	32.529
526.72	33.737
527.06	33.196
527.41	33.411
527.75	32.838
528.09	32.763
528.43	33.215
528.78	32.081
529.12	32.856
529.46	32.771
529.80	31.922
530.15	33.391
530.49	32.859
530.83	32.527
531.17	33.094
531.51	32.671
531.86	32.812
532.20	33.415
532.54	31.418
532.88	31.636
533.22	31.821
533.57	31.391
533.91	32.379
534.25	32.222
534.59	32.471
534.93	31.692
535.27	31.831
535.62	32.405
535.96	31.551
536.30	31.962
536.64	33.393
536.98	32.534
537.32	32.037
537.66	32.252
538.01	30.937
538.35	30.512
538.69	30.709
539.03	30.779
539.37	31.095
539.71	31.111
540.05	31.655
540.39	31.846
540.73	30.055
541.07	31.760
541.42	30.242
541.76	30.902
542.10	32.268
542.44	30.877
542.78	30.961
543.12	30.751
543.46	30.647
543.80	31.175
544.14	29.803
544.48	29.905
544.82	31.239
545.16	31.366
545.50	29.718
545.84	29.822
546.18	31.049
546.52	30.064
546.86	29.245
547.20	29.644
547.54	29.526
547.88	29.476
548.22	29.766
548.56	30.193
548.90	28.836
549.24	30.395
549.58	29.653
549.92	29.273
550.26	30.291
550.60	29.994
550.94	30.401
551.28	29.307
551.62	30.526
551.96	28.673
552.30	29.509
552.64	29.932
552.98	29.070
553.32	29.904
553.66	30.418
554.00	29.887
554.34	29.987
554.68	28.470
555.02	28.515
555.36	29.520
555.69	27.995
556.03	29.760
556.37	27.847
556.71	29.550
557.05	29.968
557.39	29.197
557.73	29.326
558.07	29.205
558.41	29.103
558.75	29.682
559.08	28.740
559.42	28.669
559.76	29.647
560.10	28.332
560.44	28.562
560.78	29.750
561.12	28.017
561.45	28.710
561.79	29.792
562.13	28.589
562.47	27.867
562.81	28.608
563.15	28.977
563.48	28.589
563.82	28.779
564.16	27.317
564.50	28.963
564.84	26.962
565.17	28.412
565.51	28.193
565.85	28.741
566.19	28.111
566.52	28.145
566.86	27.844
567.20	27.569
567.54	28.518
567.88	27.982
568.21	28.557
568.55	28.729
568.89	28.779
569.23	27.672
569.56	28.449
569.90	28.546
570.24	27.892
570.57	27.806
570.91	28.047
571.25	28.290
571.59	29.112
571.92	27.719
572.26	28.242
572.60	28.064
572.93	28.110
573.27	28.013
573.61	27.528
573.95	27.701
574.28	27.774
574.62	27.513
574.96	27.834
575.29	27.495
575.63	27.743
575.97	27.569
576.30	27.757
576.64	27.941
576.98	27.335
577.31	27.354
577.65	27.796
577.98	27.786
578.32	27.726
578.66	27.516
578.99	27.319
579.33	27.479
579.67	27.267
580.00	27.467
580.34	27.618
580.67	26.853
581.01	27.456
581.35	27.060
581.68	27.116
582.02	27.476
582.35	27.770
582.69	27.968
583.02	27.920
583.36	27.911
583.70	27.698
584.03	27.358
584.37	27.845
584.70	27.506
585.04	27.180
585.37	26.690
585.71	27.033
586.04	26.464
586.38	27.089
586.72	27.200
587.05	26.963
587.39	26.951
587.72	27.536
588.06	27.128
588.39	27.035
588.73	26.111
589.06	27.370
589.40	27.320
589.73	26.350
590.07	27.387
590.40	26.572
590.73	27.077
591.07	27.215
591.40	26.516
591.74	26.431
592.07	27.649
592.41	26.380
592.74	26.447
593.08	27.197
593.41	26.363
593.75	26.695
594.08	26.447
594.41	26.571
594.75	25.971
595.08	26.514
595.42	26.688
595.75	26.736
596.09	26.364
596.42	27.517
596.75	27.480
597.09	27.030
597.42	26.261
597.75	26.343
598.09	26.786
598.42	27.061
598.76	26.099
599.09	26.237
599.42	25.914
599.76	26.114
600.09	25.792
600.42	26.193
600.76	26.189
601.09	26.087
601.42	26.090
601.76	25.724
602.09	26.412
602.42	25.627
602.76	26.052
603.09	26.065
603.42	26.337
603.76	25.969
604.09	26.544
604.42	25.688
604.76	25.799
605.09	25.888
605.42	26.396
605.75	26.231
606.09	26.017
606.42	25.429
606.75	25.825
607.09	24.923
607.42	25.703
607.75	26.534
608.08	25.691
608.42	25.836
608.75	25.498
609.08	25.594
609.41	25.937
609.75	24.911
610.08	27.089
610.41	25.573
610.74	26.008
611.07	25.844
611.41	25.695
611.74	25.681
612.07	25.760
612.40	25.523
612.73	25.721
613.07	24.988
613.40	25.650
613.73	25.855
614.06	25.761
614.39	25.510
614.72	25.328
615.06	25.024
615.39	25.665
615.72	25.592
616.05	25.546
616.38	25.479
616.71	25.705
617.05	24.814
617.38	25.254
617.71	24.622
618.04	25.418
618.37	26.776
618.70	25.509
619.03	25.090
619.36	25.586
619.69	24.728
620.03	23.792
620.36	25.583
620.69	25.848
621.02	25.591
621.35	26.851
621.68	25.524
622.01	24.484
622.34	23.222
622.67	25.567
623.00	23.887
623.33	25.083
623.66	25.097
623.99	24.951
624.32	25.536
624.65	23.745
624.99	24.837
625.32	24.951
625.65	24.612
625.98	23.797
626.31	24.947
626.64	25.055
626.97	24.681
627.30	24.222
627.63	23.556
627.96	25.601
628.29	23.813
628.62	24.349
628.95	24.189
629.28	24.979
629.61	24.495
629.94	23.933
630.26	23.983
630.59	24.698
630.92	22.771
631.25	23.614
631.58	24.765
631.91	24.274
632.24	24.592
632.57	23.814
632.90	24.072
633.23	23.673
633.56	23.469
