SpectraSuite Data File
++++++++++++++++++++++++++++++++++++
Date: Thu May 14 16:14:34 PDT 2015
User: schluterlab
Dark Spectrum Present: Yes
Reference Spectrum Present: Yes
Number of Sampled Component Spectra: 1
Spectrometers: USB2E3373
Integration Time (usec): 3000 (USB2E3373)
Spectra Averaged: 3 (USB2E3373)
Boxcar Smoothing: 0 (USB2E3373)
Correct for Electrical Dark: No (USB2E3373)
Strobe/Lamp Enabled: No (USB2E3373)
Correct for Detector Non-linearity: No (USB2E3373)
Correct for Stray Light: No (USB2E3373)
Number of Pixels in Processed Spectrum: 2048
>>>>>Begin Processed Spectral Data<<<<<
178.53	0.000
178.91	57.143
179.29	-1300.000
179.67	-800.000
180.04	114.286
180.42	20.000
180.80	160.000
181.18	0.000
181.56	-100.000
181.94	50.000
182.31	-175.000
182.69	333.333
183.07	200.000
183.45	250.000
183.83	-66.667
184.20	-200.000
184.58	500.000
184.96	-225.000
185.34	-44.444
185.72	60.000
186.09	133.333
186.47	500.000
186.85	300.000
187.23	-66.667
187.61	-100.000
187.98	60.000
188.36	175.000
188.74	-225.000
189.12	0.000
189.49	37.500
189.87	-25.000
190.25	11.111
190.63	0.000
191.00	-77.778
191.38	0.000
191.76	-175.000
192.14	-33.333
192.51	500.000
192.89	16.667
193.27	0.000
193.65	-142.857
194.02	-1800.000
194.40	42.857
194.78	185.714
195.15	0.000
195.53	18.182
195.91	0.000
196.29	-50.000
196.66	15.385
197.04	-500.000
197.42	-14.286
197.79	-100.000
198.17	50.000
198.55	-14.286
198.92	-11.111
199.30	-162.500
199.68	18.182
200.05	42.857
200.43	-600.000
200.81	214.286
201.18	0.000
201.56	144.444
201.94	0.000
202.31	433.333
202.69	11.111
203.07	400.000
203.44	-44.444
203.82	-125.000
204.19	-33.333
204.57	-66.667
204.95	-62.500
205.32	0.000
205.70	75.000
206.08	-116.667
206.45	150.000
206.83	240.000
207.20	0.000
207.58	-280.000
207.96	-133.333
208.33	66.667
208.71	66.667
209.08	66.667
209.46	0.000
209.84	116.667
210.21	150.000
210.59	-250.000
210.96	66.667
211.34	75.000
211.71	0.000
212.09	-200.000
212.46	0.000
212.84	950.000
213.22	-260.000
213.59	-50.000
213.97	40.000
214.34	-200.000
214.72	250.000
215.09	-250.000
215.47	0.000
215.84	128.571
216.22	50.000
216.59	-100.000
216.97	-140.000
217.34	0.000
217.72	-25.000
218.09	-225.000
218.47	-350.000
218.84	0.000
219.22	20.000
219.59	-35.294
219.97	-20.000
220.34	150.000
220.72	-122.222
221.09	-7.692
221.47	-333.333
221.84	70.000
222.22	-71.429
222.59	0.000
222.97	25.000
223.34	-140.000
223.72	-1400.000
224.09	-100.000
224.46	-125.000
224.84	180.000
225.21	-214.286
225.59	-100.000
225.96	-200.000
226.34	-3.846
226.71	100.000
227.08	-400.000
227.46	-33.333
227.83	-200.000
228.21	42.105
228.58	75.000
228.95	700.000
229.33	16.667
229.70	-20.000
230.08	57.895
230.45	90.000
230.82	-33.333
231.20	-28.571
231.57	25.000
231.95	-9.091
232.32	-54.545
232.69	20.000
233.07	100.000
233.44	11.765
233.81	-40.000
234.19	22.222
234.56	-4.545
234.93	0.000
235.31	47.368
235.68	16.667
236.05	-20.000
236.43	30.769
236.80	56.000
237.17	18.519
237.55	-6.061
237.92	-110.000
238.29	6.452
238.67	-2.273
239.04	19.444
239.41	0.000
239.79	15.217
240.16	-14.815
240.53	2.174
240.91	-25.490
241.28	6.557
241.65	19.403
242.02	17.568
242.40	-1.538
242.77	4.000
243.14	6.098
243.51	-2.632
243.89	-3.846
244.26	7.921
244.63	9.804
245.00	13.084
245.38	8.772
245.75	7.965
246.12	7.937
246.49	6.977
246.87	12.857
247.24	7.947
247.61	14.474
247.98	8.725
248.36	7.407
248.73	-0.613
249.10	2.732
249.47	15.423
249.84	16.754
250.22	5.181
250.59	8.333
250.96	10.909
251.33	5.102
251.70	8.974
252.08	12.500
252.45	9.016
252.82	7.851
253.19	4.687
253.56	10.646
253.94	3.462
254.31	7.576
254.68	15.035
255.05	13.681
255.42	7.823
255.79	10.680
256.16	12.914
256.54	5.298
256.91	6.557
257.28	9.508
257.65	3.822
258.02	5.900
258.39	10.541
258.76	15.291
259.14	11.494
259.51	10.951
259.88	8.499
260.25	10.556
260.62	10.685
260.99	11.749
261.36	12.869
261.73	7.427
262.10	7.692
262.47	10.188
262.85	13.131
263.22	8.571
263.59	6.842
263.96	8.696
264.33	8.951
264.70	11.111
265.07	10.263
265.44	12.245
265.81	8.102
266.18	11.338
266.55	11.384
266.92	7.289
267.29	11.160
267.66	10.200
268.03	10.262
268.40	11.482
268.77	9.112
269.14	7.930
269.51	10.965
269.88	11.270
270.25	11.670
270.62	9.705
270.99	12.121
271.36	11.683
271.73	11.002
272.10	13.026
272.47	10.220
272.84	9.438
273.21	11.022
273.58	8.468
273.95	9.808
274.32	9.316
274.69	9.671
275.06	10.989
275.43	7.948
275.80	10.406
276.17	10.556
276.54	11.754
276.91	10.733
277.28	8.861
277.65	12.029
278.02	10.294
278.39	9.239
278.76	10.896
279.13	9.574
279.50	11.512
279.87	10.733
280.23	6.866
280.60	11.017
280.97	10.362
281.34	7.980
281.71	12.352
282.08	10.963
282.45	8.838
282.82	8.006
283.19	7.108
283.56	10.164
283.92	10.060
284.29	12.638
284.66	9.524
285.03	8.173
285.40	11.283
285.77	9.907
286.14	11.756
286.51	9.437
286.87	8.215
287.24	9.337
287.61	10.015
287.98	7.402
288.35	11.095
288.72	8.284
289.08	9.078
289.45	8.876
289.82	9.036
290.19	7.184
290.56	8.732
290.93	9.130
291.29	7.713
291.66	7.576
292.03	6.377
292.40	9.524
292.77	9.299
293.13	10.284
293.50	6.833
293.87	6.980
294.24	9.867
294.60	8.850
294.97	7.919
295.34	11.140
295.71	7.440
296.08	7.881
296.44	9.926
296.81	8.404
297.18	8.593
297.55	8.608
297.91	8.304
298.28	7.464
298.65	7.491
299.02	9.327
299.38	9.039
299.75	8.879
300.12	7.870
300.48	8.756
300.85	8.549
301.22	8.389
301.59	7.192
301.95	8.249
302.32	9.000
302.69	8.105
303.05	8.923
303.42	8.093
303.79	7.917
304.15	7.992
304.52	6.554
304.89	8.168
305.25	8.903
305.62	8.777
305.99	9.175
306.35	7.560
306.72	7.756
307.09	7.919
307.45	8.696
307.82	7.770
308.19	8.375
308.55	9.354
308.92	9.153
309.29	9.195
309.65	6.920
310.02	8.515
310.38	8.465
310.75	8.641
311.12	9.012
311.48	8.798
311.85	8.262
312.22	9.867
312.58	8.357
312.95	9.465
313.31	8.853
313.68	9.432
314.05	10.117
314.41	9.563
314.78	9.809
315.14	10.436
315.51	9.695
315.87	9.901
316.24	11.598
316.61	11.634
316.97	9.593
317.34	10.406
317.70	11.878
318.07	11.023
318.43	11.650
318.80	13.127
319.16	10.386
319.53	11.054
319.89	10.167
320.26	12.456
320.62	11.082
320.99	11.911
321.35	12.384
321.72	13.302
322.08	12.083
322.45	12.105
322.81	12.635
323.18	12.212
323.54	12.155
323.91	12.900
324.27	11.962
324.64	13.014
325.00	12.189
325.37	11.876
325.73	11.736
326.10	13.950
326.46	15.065
326.83	14.492
327.19	13.858
327.56	13.123
327.92	13.533
328.29	13.952
328.65	14.573
329.01	15.059
329.38	14.743
329.74	14.640
330.11	15.411
330.47	14.069
330.84	14.556
331.20	14.333
331.56	14.645
331.93	14.728
332.29	13.729
332.66	14.535
333.02	14.070
333.38	12.919
333.75	14.310
334.11	14.262
334.48	14.521
334.84	15.803
335.20	14.610
335.57	13.828
335.93	14.793
336.29	13.228
336.66	14.802
337.02	14.381
337.38	14.541
337.75	14.711
338.11	14.886
338.47	14.227
338.84	14.382
339.20	13.142
339.56	12.768
339.93	13.629
340.29	13.768
340.65	14.517
341.02	15.164
341.38	14.875
341.74	14.366
342.11	13.757
342.47	13.185
342.83	14.493
343.20	13.900
343.56	13.713
343.92	13.371
344.28	14.297
344.65	13.953
345.01	13.729
345.37	15.319
345.73	14.030
346.10	14.821
346.46	13.924
346.82	13.708
347.19	14.439
347.55	14.264
347.91	13.596
348.27	14.340
348.63	14.623
349.00	13.945
349.36	15.167
349.72	13.765
350.08	14.636
350.45	13.308
350.81	13.348
351.17	14.662
351.53	13.343
351.89	13.895
352.26	13.433
352.62	14.627
352.98	13.740
353.34	13.518
353.70	13.020
354.07	13.711
354.43	14.199
354.79	14.585
355.15	13.834
355.51	14.108
355.87	13.613
356.24	13.308
356.60	13.008
356.96	14.085
357.32	13.978
357.68	14.129
358.04	13.698
358.40	13.731
358.77	13.450
359.13	12.925
359.49	12.862
359.85	14.068
360.21	13.917
360.57	13.496
360.93	13.893
361.29	13.754
361.66	14.193
362.02	14.266
362.38	14.898
362.74	12.919
363.10	14.718
363.46	13.504
363.82	13.423
364.18	13.582
364.54	15.007
364.90	14.114
365.26	13.793
365.62	14.267
365.98	13.887
366.35	13.490
366.71	13.537
367.07	13.735
367.43	13.986
367.79	13.935
368.15	14.582
368.51	13.938
368.87	14.892
369.23	12.933
369.59	14.959
369.95	14.266
370.31	14.720
370.67	14.374
371.03	14.404
371.39	12.895
371.75	14.993
372.11	14.295
372.47	14.760
372.83	14.463
373.19	13.476
373.55	14.837
373.91	14.656
374.27	14.360
374.63	14.141
374.99	13.329
375.35	14.805
375.71	14.710
376.07	14.267
376.42	13.917
376.78	13.984
377.14	14.785
377.50	14.421
377.86	14.963
378.22	14.371
378.58	15.220
378.94	14.202
379.30	14.001
379.66	15.168
380.02	14.887
380.38	15.035
380.74	14.873
381.09	14.634
381.45	15.625
381.81	15.457
382.17	14.964
382.53	15.205
382.89	14.729
383.25	14.185
383.61	14.062
383.97	14.664
384.32	15.431
384.68	13.805
385.04	15.674
385.40	15.085
385.76	15.416
386.12	15.021
386.48	15.353
386.83	15.137
387.19	15.527
387.55	14.437
387.91	15.811
388.27	15.069
388.62	15.349
388.98	15.228
389.34	15.616
389.70	16.270
390.06	15.512
390.42	15.843
390.77	15.834
391.13	15.845
391.49	16.304
391.85	15.515
392.20	16.370
392.56	16.716
392.92	16.303
393.28	15.920
393.64	15.754
393.99	16.502
394.35	16.121
394.71	16.527
395.07	14.910
395.42	15.420
395.78	16.514
396.14	16.756
396.50	15.796
396.85	16.696
397.21	16.095
397.57	17.197
397.92	16.380
398.28	15.644
398.64	16.190
399.00	15.969
399.35	16.230
399.71	16.793
400.07	16.732
400.42	16.647
400.78	16.609
401.14	16.278
401.49	16.543
401.85	17.616
402.21	16.918
402.57	17.547
402.92	17.080
403.28	17.037
403.63	17.303
403.99	17.102
404.35	17.055
404.70	17.507
405.06	16.033
405.42	17.213
405.77	17.666
406.13	17.018
406.49	17.905
406.84	17.285
407.20	17.049
407.55	17.141
407.91	17.788
408.27	18.080
408.62	17.801
408.98	17.237
409.34	16.774
409.69	18.109
410.05	17.702
410.40	18.039
410.76	17.779
411.11	18.352
411.47	18.796
411.83	18.401
412.18	19.036
412.54	18.494
412.89	18.976
413.25	18.510
413.60	17.978
413.96	18.648
414.31	19.377
414.67	18.366
415.03	18.338
415.38	18.916
415.74	18.082
416.09	18.692
416.45	18.723
416.80	18.972
417.16	19.540
417.51	19.116
417.87	18.148
418.22	18.503
418.58	18.154
418.93	19.732
419.29	19.544
419.64	18.607
420.00	19.407
420.35	19.203
420.71	18.840
421.06	18.976
421.42	19.610
421.77	18.525
422.12	18.975
422.48	18.996
422.83	19.332
423.19	18.568
423.54	19.358
423.90	19.326
424.25	19.627
424.61	19.001
424.96	18.781
425.31	19.851
425.67	19.377
426.02	20.089
426.38	19.575
426.73	19.475
427.09	20.761
427.44	18.788
427.79	19.127
428.15	19.749
428.50	19.494
428.85	19.288
429.21	20.213
429.56	19.200
429.92	19.509
430.27	19.663
430.62	19.980
430.98	19.331
431.33	19.746
431.68	19.780
432.04	20.010
432.39	19.497
432.74	19.692
433.10	19.849
433.45	19.621
433.80	20.923
434.16	20.816
434.51	20.349
434.86	20.413
435.22	21.148
435.57	21.462
435.92	20.979
436.28	20.478
436.63	21.791
436.98	20.558
437.34	19.617
437.69	20.418
438.04	20.148
438.39	21.252
438.75	21.029
439.10	20.825
439.45	21.353
439.81	20.621
440.16	20.429
440.51	21.237
440.86	20.233
441.22	20.525
441.57	21.226
441.92	21.242
442.27	21.263
442.63	21.361
442.98	20.384
443.33	20.936
443.68	21.259
444.03	21.778
444.39	21.590
444.74	21.848
445.09	21.135
445.44	21.444
445.79	20.929
446.15	21.583
446.50	21.034
446.85	22.082
447.20	21.712
447.55	22.385
447.91	21.571
448.26	20.877
448.61	21.254
448.96	22.639
449.31	21.580
449.66	21.242
450.02	21.677
450.37	21.737
450.72	21.798
451.07	22.039
451.42	22.068
451.77	21.178
452.12	22.799
452.47	21.034
452.83	21.678
453.18	21.424
453.53	21.827
453.88	20.652
454.23	22.542
454.58	22.345
454.93	21.541
455.28	23.179
455.63	21.717
455.98	22.626
456.34	21.908
456.69	22.105
457.04	23.050
457.39	22.672
457.74	22.036
458.09	22.021
458.44	22.522
458.79	22.073
459.14	21.972
459.49	22.467
459.84	22.403
460.19	21.599
460.54	23.225
460.89	22.816
461.24	21.782
461.59	22.634
461.94	21.848
462.29	23.460
462.64	22.752
462.99	22.159
463.34	23.491
463.69	23.095
464.04	22.568
464.39	22.646
464.74	22.178
465.09	22.607
465.44	22.532
465.79	22.581
466.14	22.147
466.49	22.158
466.84	23.196
467.19	22.717
467.54	22.150
467.89	22.644
468.24	23.213
468.59	21.540
468.94	22.611
469.29	22.735
469.64	22.950
469.99	22.180
470.34	23.020
470.68	23.718
471.03	23.641
471.38	22.760
471.73	22.822
472.08	22.525
472.43	23.841
472.78	24.433
473.13	23.072
473.48	22.961
473.83	23.796
474.17	22.860
474.52	23.391
474.87	24.640
475.22	24.225
475.57	23.780
475.92	23.743
476.27	23.749
476.61	22.741
476.96	23.358
477.31	23.317
477.66	24.134
478.01	22.827
478.36	23.679
478.70	23.695
479.05	24.438
479.40	24.432
479.75	23.439
480.10	23.164
480.45	23.610
480.79	22.494
481.14	23.529
481.49	22.899
481.84	24.500
482.19	23.398
482.53	23.874
482.88	23.350
483.23	23.433
483.58	22.620
483.92	23.848
484.27	23.836
484.62	23.350
484.97	23.950
485.31	22.985
485.66	22.495
486.01	21.404
486.36	21.812
486.70	22.704
487.05	23.296
487.40	23.915
487.75	23.486
488.09	23.500
488.44	23.058
488.79	24.216
489.13	24.077
489.48	23.146
489.83	23.260
490.17	23.329
490.52	24.343
490.87	24.027
491.22	23.830
491.56	23.933
491.91	23.986
492.26	24.145
492.60	23.918
492.95	23.607
493.30	24.473
493.64	24.398
493.99	23.816
494.34	24.608
494.68	23.983
495.03	24.009
495.37	24.279
495.72	24.717
496.07	24.365
496.41	23.681
496.76	24.270
497.11	23.864
497.45	23.781
497.80	24.123
498.14	24.354
498.49	24.311
498.84	24.360
499.18	24.381
499.53	24.574
499.87	24.132
500.22	23.553
500.56	24.471
500.91	24.668
501.26	25.682
501.60	24.348
501.95	24.490
502.29	24.704
502.64	24.923
502.98	24.418
503.33	24.017
503.67	24.160
504.02	24.825
504.36	24.397
504.71	24.162
505.06	24.284
505.40	24.223
505.75	24.727
506.09	24.448
506.44	25.348
506.78	25.275
507.13	25.173
507.47	25.154
507.82	24.858
508.16	25.143
508.51	24.613
508.85	24.658
509.19	25.201
509.54	25.841
509.88	24.769
510.23	25.983
510.57	25.713
510.92	25.254
511.26	24.772
511.61	24.771
511.95	24.890
512.30	25.603
512.64	24.638
512.98	25.813
513.33	25.655
513.67	24.783
514.02	25.498
514.36	25.985
514.70	26.198
515.05	25.652
515.39	26.404
515.74	26.458
516.08	25.674
516.42	26.269
516.77	26.130
517.11	25.580
517.46	25.822
517.80	26.350
518.14	26.714
518.49	26.030
518.83	25.918
519.17	25.687
519.52	26.939
519.86	26.294
520.20	25.985
520.55	26.068
520.89	26.408
521.23	26.689
521.58	27.062
521.92	26.912
522.26	25.888
522.61	27.083
522.95	26.355
523.29	26.897
523.64	26.682
523.98	27.439
524.32	27.851
524.66	26.807
525.01	25.991
525.35	26.077
525.69	26.392
526.04	26.349
526.38	27.471
526.72	26.355
527.06	27.683
527.41	26.939
527.75	27.138
528.09	27.037
528.43	26.643
528.78	26.994
529.12	26.663
529.46	25.632
529.80	27.460
530.15	27.072
530.49	26.335
530.83	27.627
531.17	26.822
531.51	26.775
531.86	26.983
532.20	27.561
532.54	26.990
532.88	26.909
533.22	26.400
533.57	26.717
533.91	26.319
534.25	26.795
534.59	26.667
534.93	26.259
535.27	26.141
535.62	27.345
535.96	27.310
536.30	26.910
536.64	27.868
536.98	26.937
537.32	27.654
537.66	26.887
538.01	25.861
538.35	26.066
538.69	26.863
539.03	27.161
539.37	27.385
539.71	27.387
540.05	27.458
540.39	26.161
540.73	26.412
541.07	26.732
541.42	26.816
541.76	25.919
542.10	26.236
542.44	26.248
542.78	26.825
543.12	26.579
543.46	26.252
543.80	26.199
544.14	26.152
544.48	26.655
544.82	26.691
545.16	27.132
545.50	26.183
545.84	26.822
546.18	27.531
546.52	26.688
546.86	26.101
547.20	27.163
547.54	26.092
547.88	27.486
548.22	26.257
548.56	26.097
548.90	26.746
549.24	25.957
549.58	26.498
549.92	26.467
550.26	26.796
550.60	26.165
550.94	26.455
551.28	26.931
551.62	27.358
551.96	26.214
552.30	25.940
552.64	27.505
552.98	26.513
553.32	26.688
553.66	25.531
554.00	26.103
554.34	26.898
554.68	25.823
555.02	26.084
555.36	27.876
555.69	25.945
556.03	25.095
556.37	26.345
556.71	26.506
557.05	26.709
557.39	26.410
557.73	26.156
558.07	25.960
558.41	26.578
558.75	26.302
559.08	26.792
559.42	26.475
559.76	26.526
560.10	25.720
560.44	26.583
560.78	25.875
561.12	25.924
561.45	25.487
561.79	25.702
562.13	26.371
562.47	24.908
562.81	25.000
563.15	25.947
563.48	26.165
563.82	25.877
564.16	25.197
564.50	25.149
564.84	25.546
565.17	25.176
565.51	24.338
565.85	24.466
566.19	25.403
566.52	25.336
566.86	25.297
567.20	24.307
567.54	24.588
567.88	24.975
568.21	25.099
568.55	24.412
568.89	24.376
569.23	23.616
569.56	23.290
569.90	23.557
570.24	22.867
570.57	22.418
570.91	22.505
571.25	22.303
571.59	22.627
571.92	22.122
572.26	22.340
572.60	21.867
572.93	22.488
573.27	22.731
573.61	22.843
573.95	22.433
574.28	22.378
574.62	22.033
574.96	21.394
575.29	21.304
575.63	21.830
575.97	21.461
576.30	22.181
576.64	21.809
576.98	21.253
577.31	21.463
577.65	21.626
577.98	21.103
578.32	21.236
578.66	20.543
578.99	21.278
579.33	21.765
579.67	21.306
580.00	21.533
580.34	21.204
580.67	21.602
581.01	21.354
581.35	20.962
581.68	20.657
582.02	20.505
582.35	20.585
582.69	21.245
583.02	21.061
583.36	21.134
583.70	21.450
584.03	21.646
584.37	21.698
584.70	21.320
585.04	20.949
585.37	20.879
585.71	20.755
586.04	20.630
586.38	21.448
586.72	20.832
587.05	21.259
587.39	21.167
587.72	21.292
588.06	21.784
588.39	21.409
588.73	21.323
589.06	21.388
589.40	21.451
589.73	21.080
590.07	22.049
590.40	21.738
590.73	20.785
591.07	21.966
591.40	21.384
591.74	21.264
592.07	21.965
592.41	21.215
592.74	21.477
593.08	21.497
593.41	21.493
593.75	20.776
594.08	21.236
594.41	20.737
594.75	21.123
595.08	20.323
595.42	20.779
595.75	20.923
596.09	20.807
596.42	20.889
596.75	21.227
597.09	21.657
597.42	20.938
597.75	20.463
598.09	21.944
598.42	21.793
598.76	21.246
599.09	20.506
599.42	20.617
599.76	20.568
600.09	21.088
600.42	20.153
600.76	20.509
601.09	20.013
601.42	20.494
601.76	20.517
602.09	20.372
602.42	20.320
602.76	20.664
603.09	20.228
603.42	20.303
603.76	19.944
604.09	20.937
604.42	20.844
604.76	20.928
605.09	20.862
605.42	20.455
605.75	19.769
606.09	20.007
606.42	20.029
606.75	20.765
607.09	20.315
607.42	20.308
607.75	20.594
608.08	20.126
608.42	20.113
608.75	20.522
609.08	19.992
609.41	20.865
609.75	20.313
610.08	21.064
610.41	20.476
610.74	21.176
611.07	20.027
611.41	21.480
611.74	21.617
612.07	21.692
612.40	20.913
612.73	21.222
613.07	20.636
613.40	21.463
613.73	20.847
614.06	20.608
614.39	20.408
614.72	20.961
615.06	20.356
615.39	19.816
615.72	20.711
616.05	20.398
616.38	21.393
616.71	20.533
617.05	20.554
617.38	21.295
617.71	21.490
618.04	20.076
618.37	20.328
618.70	20.871
619.03	20.848
619.36	20.592
619.69	21.397
620.03	20.716
620.36	20.613
620.69	21.592
621.02	21.850
621.35	22.279
621.68	22.632
622.01	21.210
622.34	20.642
622.67	21.306
623.00	21.255
623.33	22.031
623.66	21.595
623.99	20.606
624.32	22.872
624.65	20.463
624.99	21.391
625.32	21.097
625.65	20.566
625.98	20.949
626.31	21.332
626.64	22.637
626.97	20.705
627.30	21.033
627.63	21.155
627.96	21.547
628.29	22.879
628.62	21.411
628.95	21.823
629.28	21.155
629.61	23.232
629.94	20.669
630.26	20.085
630.59	21.416
630.92	21.645
631.25	23.345
631.58	23.635
631.91	22.493
632.24	21.998
632.57	22.676
632.90	21.464
633.23	23.776
633.56	22.245
633.89	22.934
634.22	24.220
634.55	23.278
634.88	23.377
635.20	23.789
635.53	23.164
635.86	23.510
636.19	22.694
636.52	23.523
636.85	21.348
