SpectraSuite Data File
++++++++++++++++++++++++++++++++++++
Date: Thu May 14 16:18:36 PDT 2015
User: schluterlab
Dark Spectrum Present: Yes
Reference Spectrum Present: Yes
Number of Sampled Component Spectra: 1
Spectrometers: USB2E3373
Integration Time (usec): 3000 (USB2E3373)
Spectra Averaged: 3 (USB2E3373)
Boxcar Smoothing: 0 (USB2E3373)
Correct for Electrical Dark: No (USB2E3373)
Strobe/Lamp Enabled: No (USB2E3373)
Correct for Detector Non-linearity: No (USB2E3373)
Correct for Stray Light: No (USB2E3373)
Number of Pixels in Processed Spectrum: 2048
>>>>>Begin Processed Spectral Data<<<<<
178.53	0.000
178.91	142.857
179.29	-300.000
179.67	200.000
180.04	135.714
180.42	60.000
180.80	120.000
181.18	0.000
181.56	-100.000
181.94	275.000
182.31	-150.000
182.69	-0.000
183.07	-100.000
183.45	-125.000
183.83	-83.333
184.20	-200.000
184.58	-200.000
184.96	-50.000
185.34	-22.222
185.72	120.000
186.09	44.444
186.47	150.000
186.85	280.000
187.23	-44.444
187.61	-900.000
187.98	-20.000
188.36	275.000
188.74	-225.000
189.12	66.667
189.49	31.250
189.87	-75.000
190.25	-22.222
190.63	-60.000
191.00	-144.444
191.38	0.000
191.76	-225.000
192.14	-83.333
192.51	50.000
192.89	-33.333
193.27	0.000
193.65	-100.000
194.02	-1200.000
194.40	-71.429
194.78	71.429
195.15	0.000
195.53	9.091
195.91	0.000
196.29	-275.000
196.66	-100.000
197.04	-1000.000
197.42	14.286
197.79	-50.000
198.17	-37.500
198.55	-142.857
198.92	22.222
199.30	-100.000
199.68	36.364
200.05	-21.429
200.43	0.000
200.81	157.143
201.18	0.000
201.56	166.667
201.94	0.000
202.31	500.000
202.69	-22.222
203.07	100.000
203.44	11.111
203.82	0.000
204.19	0.000
204.57	0.000
204.95	-87.500
205.32	-800.000
205.70	100.000
206.08	-50.000
206.45	33.333
206.83	280.000
207.20	-33.333
207.58	-200.000
207.96	-50.000
208.33	-133.333
208.71	41.667
209.08	50.000
209.46	0.000
209.84	150.000
210.21	450.000
210.59	550.000
210.96	333.333
211.34	-25.000
211.71	-137.500
212.09	-1700.000
212.46	0.000
212.84	100.000
213.22	-300.000
213.59	-100.000
213.97	50.000
214.34	166.667
214.72	216.667
215.09	-100.000
215.47	0.000
215.84	-14.286
216.22	200.000
216.59	-220.000
216.97	-40.000
217.34	-50.000
217.72	62.500
218.09	-275.000
218.47	-250.000
218.84	0.000
219.22	-40.000
219.59	11.765
219.97	35.000
220.34	300.000
220.72	11.111
221.09	69.231
221.47	-233.333
221.84	-30.000
222.22	-42.857
222.59	0.000
222.97	25.000
223.34	-160.000
223.72	-2100.000
224.09	-125.000
224.46	-225.000
224.84	-20.000
225.21	-171.429
225.59	-325.000
225.96	-50.000
226.34	3.846
226.71	233.333
227.08	-400.000
227.46	-13.333
227.83	-50.000
228.21	26.316
228.58	112.500
228.95	300.000
229.33	-33.333
229.70	50.000
230.08	47.368
230.45	50.000
230.82	166.667
231.20	14.286
231.57	-8.333
231.95	9.091
232.32	0.000
232.69	30.000
233.07	-75.000
233.44	0.000
233.81	-40.000
234.19	61.111
234.56	-9.091
234.93	-17.241
235.31	-26.316
235.68	0.000
236.05	-60.000
236.43	38.462
236.80	36.000
237.17	-3.704
237.55	0.000
237.92	-90.000
238.29	-6.452
238.67	11.364
239.04	11.111
239.41	0.000
239.79	10.870
240.16	1.852
240.53	4.348
240.91	11.765
241.28	14.754
241.65	22.388
242.02	21.622
242.40	20.000
242.77	1.333
243.14	10.976
243.51	17.105
243.89	0.000
244.26	13.861
244.63	13.725
245.00	15.888
245.38	14.035
245.75	1.770
246.12	10.317
246.49	13.953
246.87	12.857
247.24	19.205
247.61	19.737
247.98	14.094
248.36	9.877
248.73	13.497
249.10	18.579
249.47	16.418
249.84	27.749
250.22	14.508
250.59	14.444
250.96	22.273
251.33	12.245
251.70	17.521
252.08	18.333
252.45	21.721
252.82	17.355
253.19	12.109
253.56	20.152
253.94	16.923
254.31	19.318
254.68	24.126
255.05	21.498
255.42	15.306
255.79	12.621
256.16	17.219
256.54	18.212
256.91	20.000
257.28	16.393
257.65	12.420
258.02	16.814
258.39	19.088
258.76	21.713
259.14	20.402
259.51	16.715
259.88	20.680
260.25	18.889
260.62	17.808
260.99	20.219
261.36	16.622
261.73	16.711
262.10	15.934
262.47	17.426
262.85	18.182
263.22	15.325
263.59	15.526
263.96	15.601
264.33	17.391
264.70	18.272
265.07	20.764
265.44	19.728
265.81	18.056
266.18	19.501
266.55	18.527
266.92	16.173
267.29	17.724
267.66	17.295
268.03	17.904
268.40	17.328
268.77	17.312
269.14	16.300
269.51	17.325
269.88	17.418
270.25	17.907
270.62	16.034
270.99	17.374
271.36	19.010
271.73	17.878
272.10	17.635
272.47	18.437
272.84	18.876
273.21	16.834
273.58	16.734
273.95	15.769
274.32	15.399
274.69	14.313
275.06	16.667
275.43	16.451
275.80	18.166
276.17	16.296
276.54	16.045
276.91	13.775
277.28	17.541
277.65	15.799
278.02	18.199
278.39	16.304
278.76	17.399
279.13	17.199
279.50	17.869
279.87	17.174
280.23	15.141
280.60	16.271
280.97	16.612
281.34	14.601
281.71	18.274
282.08	16.611
282.45	14.566
282.82	15.699
283.19	14.701
283.56	12.951
283.92	16.967
284.29	16.904
284.66	17.570
285.03	13.782
285.40	16.074
285.77	15.635
286.14	17.710
286.51	14.155
286.87	15.324
287.24	14.759
287.61	14.350
287.98	15.861
288.35	16.568
288.72	16.420
289.08	16.837
289.45	13.609
289.82	15.964
290.19	15.086
290.56	14.366
290.93	15.549
291.29	14.325
291.66	15.702
292.03	15.332
292.40	16.054
292.77	13.208
293.13	14.614
293.50	14.192
293.87	13.691
294.24	16.133
294.60	15.171
294.97	12.215
295.34	14.597
295.71	15.511
296.08	13.566
296.44	13.848
296.81	13.276
297.18	13.699
297.55	14.976
297.91	13.642
298.28	13.507
298.65	13.080
299.02	13.577
299.38	13.730
299.75	15.187
300.12	13.079
300.48	13.364
300.85	13.273
301.22	12.640
301.59	13.014
301.95	14.350
302.32	14.333
302.69	12.267
303.05	14.146
303.42	14.191
303.79	13.438
304.15	14.196
304.52	11.734
304.89	12.356
305.25	13.043
305.62	12.226
305.99	13.299
306.35	13.407
306.72	14.271
307.09	12.183
307.45	12.629
307.82	12.210
308.19	12.916
308.55	13.790
308.92	13.145
309.29	13.027
309.65	13.840
310.02	12.970
310.38	13.583
310.75	12.718
311.12	14.286
311.48	13.392
311.85	13.770
312.22	13.378
312.58	13.991
312.95	14.245
313.31	14.092
313.68	14.469
314.05	15.176
314.41	14.299
314.78	15.259
315.14	14.428
315.51	14.774
315.87	15.482
316.24	15.890
316.61	15.364
316.97	13.937
317.34	15.079
317.70	15.459
318.07	14.727
318.43	15.476
318.80	15.635
319.16	15.880
319.53	14.482
319.89	14.636
320.26	15.925
320.62	15.426
320.99	15.143
321.35	15.712
321.72	17.116
322.08	15.059
322.45	16.621
322.81	17.238
323.18	17.080
323.54	17.241
323.91	17.349
324.27	16.954
324.64	18.724
325.00	16.750
325.37	18.018
325.73	17.438
326.10	17.924
326.46	19.707
326.83	19.295
327.19	17.874
327.56	18.419
327.92	18.961
328.29	18.629
328.65	19.682
329.01	20.389
329.38	19.040
329.74	19.606
330.11	19.521
330.47	19.545
330.84	19.294
331.20	19.667
331.56	19.757
331.93	20.251
332.29	19.831
332.66	20.017
333.02	20.184
333.38	19.463
333.75	20.034
334.11	19.850
334.48	20.050
334.84	20.136
335.20	19.731
335.57	20.489
335.93	20.744
336.29	18.636
336.66	20.437
337.02	20.819
337.38	21.429
337.75	19.835
338.11	18.839
338.47	20.844
338.84	20.389
339.20	19.798
339.56	19.769
339.93	19.376
340.29	20.773
340.65	20.114
341.02	21.628
341.38	20.695
341.74	19.532
342.11	20.676
342.47	18.745
342.83	19.968
343.20	19.706
343.56	19.888
343.92	20.016
344.28	20.312
344.65	20.620
345.01	20.827
345.37	21.306
345.73	19.953
346.10	20.125
346.46	19.858
346.82	19.700
347.19	20.626
347.55	20.258
347.91	19.985
348.27	20.561
348.63	21.630
349.00	19.836
349.36	20.372
349.72	19.494
350.08	20.208
350.45	18.783
350.81	19.985
351.17	20.376
351.53	21.228
351.89	21.185
352.26	18.806
352.62	19.552
352.98	20.382
353.34	19.492
353.70	20.724
354.07	20.268
354.43	20.425
354.79	20.045
355.15	19.647
355.51	20.833
355.87	19.521
356.24	20.608
356.60	20.251
356.96	20.163
357.32	20.520
357.68	20.571
358.04	21.108
358.40	19.478
358.77	20.980
359.13	20.089
359.49	19.777
359.85	21.610
360.21	19.943
360.57	20.029
360.93	21.439
361.29	21.193
361.66	20.203
362.02	21.503
362.38	21.504
362.74	20.740
363.10	21.320
363.46	21.053
363.82	21.662
364.18	21.393
364.54	20.263
364.90	22.274
365.26	21.241
365.62	21.800
365.98	20.899
366.35	21.544
366.71	22.177
367.07	21.922
367.43	21.668
367.79	21.632
368.15	21.806
368.51	21.651
368.87	21.685
369.23	21.000
369.59	22.063
369.95	21.974
370.31	21.675
370.67	21.664
371.03	22.992
371.39	20.551
371.75	22.421
372.11	21.748
372.47	21.395
372.83	22.840
373.19	22.415
373.55	22.629
373.91	21.404
374.27	21.992
374.63	22.666
374.99	22.281
375.35	22.273
375.71	21.613
376.07	22.660
376.42	22.040
376.78	22.996
377.14	21.896
377.50	22.328
377.86	22.167
378.22	22.934
378.58	23.246
378.94	23.239
379.30	22.964
379.66	23.280
380.02	24.005
380.38	23.848
380.74	22.648
381.09	23.171
381.45	23.125
381.81	24.824
382.17	23.753
382.53	23.392
382.89	24.041
383.25	23.623
383.61	24.074
383.97	23.322
384.32	23.923
384.68	23.202
385.04	24.465
385.40	24.278
385.76	24.971
386.12	23.698
386.48	24.588
386.83	25.745
387.19	24.623
387.55	23.650
387.91	24.201
388.27	25.173
388.62	24.570
388.98	24.929
389.34	25.575
389.70	24.985
390.06	25.636
390.42	24.458
390.77	25.467
391.13	25.528
391.49	25.664
391.85	25.697
392.20	24.911
392.56	26.048
392.92	25.845
393.28	25.152
393.64	26.816
393.99	26.612
394.35	26.694
394.71	25.928
395.07	25.509
395.42	25.700
395.78	26.813
396.14	27.035
396.50	25.950
396.85	25.880
397.21	25.858
397.57	26.678
397.92	27.090
398.28	25.964
398.64	25.858
399.00	25.654
399.35	27.539
399.71	25.707
400.07	27.288
400.42	27.008
400.78	27.488
401.14	26.864
401.49	26.777
401.85	28.198
402.21	27.810
402.57	28.169
402.92	27.187
403.28	27.283
403.63	26.969
403.99	27.613
404.35	27.345
404.70	27.932
405.06	28.207
405.42	28.162
405.77	28.571
406.13	29.335
406.49	28.153
406.84	28.421
407.20	28.172
407.55	28.104
407.91	28.661
408.27	28.092
408.62	29.785
408.98	28.497
409.34	28.328
409.69	29.913
410.05	29.132
410.40	30.800
410.76	29.613
411.11	29.223
411.47	30.160
411.83	29.630
412.18	30.904
412.54	30.113
412.89	29.569
413.25	29.684
413.60	29.868
413.96	31.119
414.31	29.348
414.67	30.471
415.03	30.154
415.38	30.580
415.74	31.032
416.09	32.017
416.45	29.931
416.80	31.028
417.16	31.226
417.51	30.760
417.87	31.085
418.22	30.898
418.58	30.731
418.93	30.268
419.29	31.319
419.64	31.393
420.00	31.869
420.35	30.769
420.71	31.074
421.06	31.627
421.42	32.225
421.77	30.479
422.12	31.025
422.48	31.797
422.83	32.968
423.19	32.626
423.54	31.858
423.90	31.916
424.25	31.840
424.61	31.860
424.96	33.114
425.31	33.121
425.67	31.294
426.02	32.706
426.38	32.204
426.73	32.757
427.09	33.276
427.44	32.496
427.79	32.504
428.15	31.792
428.50	32.697
428.85	32.836
429.21	33.777
429.56	32.823
429.92	33.464
430.27	32.771
430.62	33.366
430.98	33.153
431.33	33.284
431.68	33.094
432.04	33.926
432.39	33.583
432.74	32.877
433.10	33.694
433.45	33.278
433.80	32.833
434.16	33.729
434.51	34.430
434.86	34.528
435.22	34.006
435.57	34.847
435.92	34.947
436.28	33.447
436.63	35.281
436.98	33.441
437.34	34.329
437.69	33.021
438.04	34.638
438.39	34.693
438.75	34.311
439.10	34.884
439.45	34.153
439.81	34.237
440.16	34.155
440.51	35.452
440.86	34.464
441.22	35.477
441.57	34.591
441.92	34.287
442.27	35.101
442.63	35.668
442.98	35.165
443.33	34.982
443.68	35.828
444.03	36.030
444.39	35.183
444.74	35.630
445.09	35.175
445.44	35.142
445.79	36.542
446.15	35.663
446.50	35.504
446.85	36.089
447.20	35.445
447.55	36.559
447.91	35.969
448.26	35.729
448.61	36.769
448.96	37.554
449.31	35.949
449.66	35.076
450.02	35.654
450.37	36.761
450.72	36.222
451.07	36.674
451.42	35.875
451.77	36.076
452.12	36.625
452.47	36.067
452.83	36.712
453.18	35.844
453.53	37.450
453.88	36.389
454.23	36.893
454.58	36.332
454.93	35.862
455.28	36.484
455.63	37.976
455.98	36.872
456.34	36.396
456.69	36.626
457.04	37.411
457.39	37.694
457.74	36.969
458.09	37.342
458.44	37.554
458.79	36.153
459.14	36.969
459.49	38.087
459.84	37.041
460.19	36.702
460.54	36.854
460.89	37.692
461.24	37.011
461.59	37.797
461.94	36.167
462.29	37.290
462.64	37.236
462.99	37.225
463.34	37.313
463.69	36.987
464.04	38.188
464.39	37.220
464.74	37.457
465.09	37.486
465.44	37.500
465.79	37.441
466.14	37.103
466.49	37.632
466.84	37.961
467.19	37.630
467.54	36.780
467.89	38.103
468.24	37.950
468.59	37.695
468.94	36.131
469.29	37.253
469.64	38.589
469.99	38.815
470.34	38.552
470.68	39.166
471.03	39.031
471.38	38.784
471.73	38.427
472.08	40.165
472.43	38.832
472.78	39.798
473.13	39.823
473.48	38.731
473.83	39.640
474.17	38.804
474.52	39.687
474.87	38.095
475.22	39.099
475.57	38.993
475.92	38.875
476.27	39.244
476.61	38.889
476.96	38.582
477.31	39.406
477.66	40.241
478.01	40.061
478.36	38.734
478.70	39.113
479.05	40.184
479.40	38.845
479.75	39.866
480.10	39.602
480.45	39.608
480.79	39.365
481.14	39.568
481.49	39.255
481.84	39.730
482.19	40.301
482.53	39.659
482.88	40.009
483.23	39.929
483.58	39.738
483.92	39.051
484.27	39.966
484.62	38.985
484.97	39.774
485.31	39.036
485.66	37.024
486.01	36.805
486.36	37.012
486.70	38.520
487.05	38.926
487.40	39.285
487.75	40.102
488.09	39.194
488.44	39.180
488.79	39.865
489.13	38.668
489.48	39.029
489.83	39.195
490.17	38.761
490.52	39.573
490.87	39.552
491.22	40.815
491.56	39.932
491.91	39.904
492.26	39.463
492.60	39.703
492.95	40.456
493.30	40.072
493.64	39.378
493.99	40.658
494.34	40.592
494.68	39.186
495.03	40.749
495.37	41.190
495.72	40.227
496.07	40.798
496.41	40.112
496.76	40.450
497.11	39.873
497.45	40.570
497.80	40.426
498.14	40.091
498.49	40.579
498.84	40.722
499.18	40.531
499.53	40.852
499.87	40.747
500.22	40.116
500.56	40.621
500.91	41.098
501.26	41.591
501.60	40.168
501.95	41.815
502.29	41.685
502.64	41.146
502.98	41.027
503.33	39.870
503.67	41.561
504.02	40.806
504.36	41.957
504.71	41.203
505.06	41.428
505.40	41.910
505.75	42.532
506.09	41.759
506.44	42.618
506.78	42.890
507.13	42.923
507.47	43.960
507.82	43.087
508.16	42.830
508.51	42.991
508.85	43.647
509.19	43.818
509.54	43.516
509.88	43.273
510.23	43.808
510.57	43.886
510.92	43.251
511.26	44.204
511.61	43.361
511.95	43.680
512.30	45.396
512.64	44.278
512.98	44.772
513.33	45.464
513.67	44.773
514.02	46.295
514.36	45.627
514.70	46.823
515.05	45.620
515.39	47.454
515.74	46.925
516.08	46.646
516.42	46.886
516.77	47.844
517.11	45.591
517.46	47.296
517.80	47.034
518.14	47.497
518.49	47.831
518.83	47.206
519.17	47.334
519.52	47.904
519.86	48.152
520.20	46.965
520.55	48.138
520.89	48.029
521.23	48.800
521.58	48.870
521.92	48.612
522.26	48.797
522.61	49.826
522.95	49.942
523.29	51.149
523.64	50.168
523.98	50.827
524.32	50.888
524.66	49.573
525.01	50.000
525.35	49.627
525.69	49.710
526.04	49.024
526.38	50.287
526.72	50.692
527.06	51.261
527.41	51.137
527.75	50.831
528.09	51.712
528.43	51.036
528.78	50.173
529.12	51.548
529.46	49.635
529.80	50.973
530.15	51.304
530.49	51.483
530.83	51.594
531.17	50.717
531.51	51.083
531.86	51.382
532.20	52.134
532.54	51.346
532.88	52.848
533.22	51.915
533.57	51.991
533.91	50.112
534.25	51.328
534.59	52.586
534.93	51.783
535.27	51.380
535.62	51.393
535.96	53.167
536.30	51.821
536.64	52.492
536.98	52.153
537.32	52.654
537.66	54.460
538.01	50.151
538.35	51.462
538.69	51.082
539.03	52.851
539.37	51.767
539.71	52.132
540.05	51.499
540.39	51.284
540.73	52.459
541.07	52.974
541.42	51.270
541.76	52.195
542.10	51.448
542.44	51.583
542.78	51.764
543.12	51.669
543.46	52.503
543.80	50.719
544.14	52.603
544.48	52.246
544.82	51.466
545.16	52.355
545.50	52.367
545.84	51.868
546.18	52.901
546.52	51.911
546.86	51.258
547.20	52.608
547.54	52.622
547.88	51.959
548.22	51.170
548.56	51.960
548.90	51.940
549.24	51.489
549.58	52.114
549.92	52.360
550.26	53.139
550.60	53.478
550.94	53.881
551.28	52.409
551.62	53.100
551.96	52.557
552.30	52.326
552.64	52.147
552.98	52.776
553.32	53.248
553.66	51.961
554.00	51.198
554.34	53.604
554.68	51.130
555.02	51.051
555.36	52.926
555.69	51.698
556.03	51.261
556.37	51.690
556.71	51.744
557.05	51.438
557.39	52.555
557.73	53.633
558.07	51.722
558.41	53.621
558.75	52.671
559.08	53.514
559.42	53.292
559.76	52.849
560.10	52.244
560.44	52.243
560.78	52.812
561.12	51.170
561.45	52.190
561.79	51.465
562.13	51.633
562.47	51.356
562.81	52.342
563.15	52.273
563.48	52.517
563.82	51.270
564.16	51.302
564.50	51.132
564.84	50.383
565.17	51.294
565.51	50.748
565.85	50.534
566.19	50.000
566.52	51.726
566.86	50.538
567.20	49.918
567.54	50.239
567.88	51.172
568.21	50.247
568.55	49.880
568.89	49.387
569.23	49.768
569.56	48.261
569.90	47.790
570.24	47.757
570.57	46.985
570.91	46.203
571.25	46.225
571.59	46.312
571.92	45.896
572.26	46.427
572.60	46.519
572.93	46.284
573.27	45.856
573.61	45.844
573.95	45.521
574.28	45.036
574.62	44.793
574.96	44.420
575.29	44.944
575.63	44.583
575.97	45.844
576.30	45.004
576.64	45.288
576.98	44.806
577.31	45.138
577.65	45.419
577.98	44.729
578.32	43.795
578.66	44.478
578.99	44.931
579.33	44.953
579.67	44.084
580.00	44.684
580.34	44.066
580.67	44.682
581.01	44.245
581.35	44.652
581.68	43.425
582.02	43.453
582.35	43.916
582.69	44.458
583.02	44.795
583.36	44.321
583.70	44.967
584.03	44.660
584.37	44.631
584.70	44.230
585.04	43.874
585.37	43.880
585.71	43.344
586.04	43.857
586.38	44.406
586.72	44.121
587.05	44.436
587.39	44.727
587.72	44.378
588.06	44.221
588.39	43.864
588.73	44.418
589.06	44.893
589.40	45.083
589.73	44.634
590.07	44.761
590.40	45.368
590.73	45.387
591.07	45.272
591.40	45.334
591.74	45.707
592.07	45.879
592.41	44.992
592.74	43.947
593.08	44.522
593.41	44.940
593.75	44.339
594.08	44.714
594.41	44.583
594.75	44.736
595.08	44.145
595.42	44.740
595.75	44.172
596.09	44.121
596.42	44.285
596.75	45.928
597.09	44.768
597.42	44.696
597.75	44.649
598.09	44.127
598.42	45.155
598.76	44.326
599.09	42.933
599.42	42.541
599.76	43.513
600.09	42.709
600.42	43.076
600.76	43.461
601.09	43.146
601.42	42.533
601.76	43.552
602.09	42.888
602.42	43.003
602.76	43.948
603.09	43.576
603.42	44.581
603.76	43.058
604.09	44.038
604.42	43.156
604.76	43.683
605.09	43.678
605.42	43.581
605.75	43.346
606.09	43.636
606.42	42.539
606.75	42.729
607.09	42.627
607.42	42.967
607.75	43.298
608.08	43.331
608.42	43.491
608.75	43.159
609.08	42.615
609.41	42.479
609.75	43.348
610.08	44.107
610.41	43.161
610.74	43.613
611.07	43.472
611.41	44.260
611.74	43.649
612.07	43.338
612.40	43.061
612.73	44.499
613.07	43.716
613.40	44.033
613.73	43.091
614.06	43.867
614.39	43.149
614.72	42.989
615.06	43.551
615.39	43.548
615.72	43.365
616.05	43.613
616.38	42.432
616.71	42.947
617.05	42.865
617.38	43.553
617.71	44.762
618.04	44.037
618.37	43.880
618.70	45.249
619.03	44.325
619.36	45.129
619.69	44.395
620.03	44.884
620.36	44.479
620.69	44.170
621.02	44.357
621.35	47.170
621.68	45.842
622.01	45.907
622.34	44.770
622.67	45.155
623.00	43.860
623.33	44.061
623.66	45.396
623.99	43.910
624.32	44.314
624.65	43.887
624.99	45.579
625.32	45.265
625.65	44.437
625.98	43.525
626.31	44.578
626.64	44.908
626.97	43.961
627.30	44.419
627.63	43.361
627.96	44.520
628.29	45.837
628.62	43.661
628.95	47.590
629.28	45.455
629.61	44.276
629.94	44.603
630.26	45.000
630.59	46.200
630.92	44.935
631.25	46.064
631.58	47.552
631.91	46.673
632.24	47.839
632.57	47.249
632.90	45.336
633.23	46.020
633.56	46.633
633.89	46.901
