SpectraSuite Data File
++++++++++++++++++++++++++++++++++++
Date: Thu May 14 16:09:03 PDT 2015
User: schluterlab
Dark Spectrum Present: Yes
Reference Spectrum Present: Yes
Number of Sampled Component Spectra: 1
Spectrometers: USB2E3373
Integration Time (usec): 3000 (USB2E3373)
Spectra Averaged: 3 (USB2E3373)
Boxcar Smoothing: 0 (USB2E3373)
Correct for Electrical Dark: No (USB2E3373)
Strobe/Lamp Enabled: No (USB2E3373)
Correct for Detector Non-linearity: No (USB2E3373)
Correct for Stray Light: No (USB2E3373)
Number of Pixels in Processed Spectrum: 2048
>>>>>Begin Processed Spectral Data<<<<<
178.53	0.000
178.91	285.714
179.29	-1800.000
179.67	-1300.000
180.04	185.714
180.42	110.000
180.80	280.000
181.18	-1900.000
181.56	-500.000
181.94	475.000
182.31	-175.000
182.69	733.333
183.07	-500.000
183.45	250.000
183.83	-116.667
184.20	-300.000
184.58	800.000
184.96	-525.000
185.34	-100.000
185.72	-100.000
186.09	188.889
186.47	550.000
186.85	400.000
187.23	-100.000
187.61	-1300.000
187.98	160.000
188.36	425.000
188.74	-175.000
189.12	33.333
189.49	-31.250
189.87	-187.500
190.25	-133.333
190.63	-80.000
191.00	-166.667
191.38	0.000
191.76	-475.000
192.14	-250.000
192.51	600.000
192.89	-100.000
193.27	0.000
193.65	0.000
194.02	-1400.000
194.40	-142.857
194.78	271.429
195.15	0.000
195.53	-172.727
195.91	0.000
196.29	-225.000
196.66	-46.154
197.04	-900.000
197.42	-100.000
197.79	-700.000
198.17	-37.500
198.55	-71.429
198.92	-166.667
199.30	-325.000
199.68	0.000
200.05	-28.571
200.43	-850.000
200.81	371.429
201.18	0.000
201.56	311.111
201.94	0.000
202.31	766.667
202.69	-144.444
203.07	1500.000
203.44	-55.556
203.82	-350.000
204.19	-75.000
204.57	-83.333
204.95	-87.500
205.32	-1300.000
205.70	250.000
206.08	-233.333
206.45	-216.667
206.83	300.000
207.20	-183.333
207.58	-360.000
207.96	-150.000
208.33	-150.000
208.71	116.667
209.08	-66.667
209.46	0.000
209.84	316.667
210.21	700.000
210.59	850.000
210.96	466.667
211.34	-275.000
211.71	-125.000
212.09	-1100.000
212.46	0.000
212.84	1250.000
213.22	-300.000
213.59	-225.000
213.97	-60.000
214.34	-366.667
214.72	300.000
215.09	-125.000
215.47	0.000
215.84	257.143
216.22	1200.000
216.59	-260.000
216.97	-80.000
217.34	-225.000
217.72	-150.000
218.09	-350.000
218.47	-550.000
218.84	0.000
219.22	360.000
219.59	-70.588
219.97	-45.000
220.34	650.000
220.72	-111.111
221.09	-76.923
221.47	-400.000
221.84	-60.000
222.22	-200.000
222.59	0.000
222.97	12.500
223.34	-260.000
223.72	-800.000
224.09	-425.000
224.46	-200.000
224.84	-120.000
225.21	-100.000
225.59	-425.000
225.96	-450.000
226.34	-23.077
226.71	216.667
227.08	-850.000
227.46	-93.333
227.83	-250.000
228.21	26.316
228.58	50.000
228.95	950.000
229.33	-50.000
229.70	-100.000
230.08	15.789
230.45	190.000
230.82	-366.667
231.20	-100.000
231.57	-75.000
231.95	-109.091
232.32	-127.273
232.69	-50.000
233.07	-325.000
233.44	-58.824
233.81	-100.000
234.19	-11.111
234.56	-36.364
234.93	13.793
235.31	-21.053
235.68	-16.667
236.05	-45.000
236.43	-3.846
236.80	8.000
237.17	-11.111
237.55	-15.152
237.92	-110.000
238.29	9.677
238.67	11.364
239.04	19.444
239.41	7.143
239.79	2.174
240.16	-7.407
240.53	-17.391
240.91	-5.882
241.28	0.000
241.65	16.418
242.02	9.459
242.40	12.308
242.77	10.667
243.14	8.537
243.51	-6.579
243.89	-1.282
244.26	20.792
244.63	24.510
245.00	14.019
245.38	12.281
245.75	-1.770
246.12	12.698
246.49	15.504
246.87	18.571
247.24	17.881
247.61	11.842
247.98	12.752
248.36	14.815
248.73	15.951
249.10	15.847
249.47	19.900
249.84	25.131
250.22	16.580
250.59	17.778
250.96	23.636
251.33	17.857
251.70	16.239
252.08	15.833
252.45	20.902
252.82	19.835
253.19	19.141
253.56	21.293
253.94	16.154
254.31	17.803
254.68	24.126
255.05	21.498
255.42	17.007
255.79	19.741
256.16	21.192
256.54	15.232
256.91	17.705
257.28	16.721
257.65	19.108
258.02	16.519
258.39	17.949
258.76	21.101
259.14	21.839
259.51	19.308
259.88	19.263
260.25	21.667
260.62	24.384
260.99	22.404
261.36	20.375
261.73	18.302
262.10	20.604
262.47	19.035
262.85	22.222
263.22	19.221
263.59	16.842
263.96	19.949
264.33	18.670
264.70	20.000
265.07	21.241
265.44	22.222
265.81	18.287
266.18	22.449
266.55	20.536
266.92	19.134
267.29	21.663
267.66	20.177
268.03	21.397
268.40	21.503
268.77	17.312
269.14	15.419
269.51	19.298
269.88	21.107
270.25	20.322
270.62	20.253
270.99	20.606
271.36	21.782
271.73	21.415
272.10	21.443
272.47	19.038
272.84	19.277
273.21	19.439
273.58	17.339
273.95	19.038
274.32	17.681
274.69	18.762
275.06	18.498
275.43	16.266
275.80	20.459
276.17	18.148
276.54	18.097
276.91	18.426
277.28	21.157
277.65	18.312
278.02	20.588
278.39	17.572
278.76	19.684
279.13	19.681
279.50	19.416
279.87	18.426
280.23	16.901
280.60	21.356
280.97	18.421
281.34	17.997
281.71	19.797
282.08	18.771
282.45	17.185
282.82	17.582
283.19	17.286
283.56	19.016
283.92	21.471
284.29	20.695
284.66	18.555
285.03	17.308
285.40	19.629
285.77	17.492
286.14	18.779
286.51	18.113
286.87	18.799
287.24	19.127
287.61	19.283
287.98	17.976
288.35	18.047
288.72	17.604
289.08	19.619
289.45	16.420
289.82	16.566
290.19	17.816
290.56	17.746
290.93	16.548
291.29	17.906
291.66	17.218
292.03	15.739
292.40	17.551
292.77	16.307
293.13	17.456
293.50	17.477
293.87	16.510
294.24	16.667
294.60	18.710
294.97	15.168
295.34	17.414
295.71	15.511
296.08	15.116
296.44	16.422
296.81	16.809
297.18	17.061
297.55	14.623
297.91	16.014
298.28	15.758
298.65	16.766
299.02	14.758
299.38	14.989
299.75	15.070
300.12	13.079
300.48	15.783
300.85	15.298
301.22	14.094
301.59	14.726
301.95	14.915
302.32	15.111
302.69	16.210
303.05	15.343
303.42	14.412
303.79	14.792
304.15	14.406
304.52	13.848
304.89	14.555
305.25	15.114
305.62	13.898
305.99	15.052
306.35	13.810
306.72	15.202
307.09	14.518
307.45	14.596
307.82	15.237
308.19	13.824
308.55	15.622
308.92	14.314
309.29	15.230
309.65	14.522
310.02	13.762
310.38	14.961
310.75	14.272
311.12	15.436
311.48	13.978
311.85	14.530
312.22	16.034
312.58	15.681
312.95	14.054
313.31	15.899
313.68	15.476
314.05	15.718
314.41	16.667
314.78	15.350
315.14	17.151
315.51	16.343
315.87	15.752
316.24	15.799
316.61	16.163
316.97	15.656
317.34	14.727
317.70	16.245
318.07	16.049
318.43	15.816
318.80	17.224
319.16	16.052
319.53	15.767
319.89	15.074
320.26	16.993
320.62	15.160
320.99	15.420
321.35	16.081
321.72	16.558
322.08	16.592
322.45	16.079
322.81	16.245
323.18	15.664
323.54	15.948
323.91	16.637
324.27	16.007
324.64	17.212
325.00	15.672
325.37	17.445
325.73	16.777
326.10	17.437
326.46	17.834
326.83	17.214
327.19	15.827
327.56	16.443
327.92	16.286
328.29	16.774
328.65	16.164
329.01	17.259
329.38	16.007
329.74	16.952
330.11	16.353
330.47	16.681
330.84	14.987
331.20	17.500
331.56	16.638
331.93	16.402
332.29	16.864
332.66	16.694
333.02	15.829
333.38	17.198
333.75	16.667
334.11	15.847
334.48	16.914
334.84	16.822
335.20	15.365
335.57	16.863
335.93	17.521
336.29	14.809
336.66	15.812
337.02	17.057
337.38	16.752
337.75	15.124
338.11	16.905
338.47	16.873
338.84	15.482
339.20	16.091
339.56	16.392
339.93	15.846
340.29	15.459
340.65	17.113
341.02	17.797
341.38	15.926
341.74	17.272
342.11	16.251
342.47	15.727
342.83	16.586
343.20	17.089
343.56	17.001
343.92	16.653
344.28	16.250
344.65	17.752
345.01	16.693
345.37	16.174
345.73	15.900
346.10	16.381
346.46	16.377
346.82	16.704
347.19	16.348
347.55	16.692
347.91	15.453
348.27	15.402
348.63	16.603
349.00	15.436
349.36	16.431
349.72	16.295
350.08	15.750
350.45	15.285
350.81	15.535
351.17	16.090
351.53	15.466
351.89	16.856
352.26	14.701
352.62	15.821
352.98	15.344
353.34	15.534
353.70	15.639
354.07	15.872
354.43	15.718
354.79	15.258
355.15	15.232
355.51	17.032
355.87	15.632
356.24	16.426
356.60	15.299
356.96	15.715
357.32	14.349
357.68	15.739
358.04	15.419
358.40	15.597
358.77	15.789
359.13	14.919
359.49	15.019
359.85	16.099
360.21	15.352
360.57	15.865
360.93	14.528
361.29	15.439
361.66	16.075
362.02	16.493
362.38	15.531
362.74	16.131
363.10	15.750
363.46	16.274
363.82	15.696
364.18	15.060
364.54	16.805
364.90	14.783
365.26	15.172
365.62	15.800
365.98	14.908
366.35	16.040
366.71	16.395
367.07	16.035
367.43	16.021
367.79	15.660
368.15	16.455
368.51	15.562
368.87	16.590
369.23	15.200
369.59	16.530
369.95	14.537
370.31	16.205
370.67	15.406
371.03	16.136
371.39	14.842
371.75	15.887
372.11	15.583
372.47	16.046
372.83	16.099
373.19	16.144
373.55	16.599
373.91	15.951
374.27	15.977
374.63	16.373
374.99	16.446
375.35	16.948
375.71	16.258
376.07	16.914
376.42	16.940
376.78	16.221
377.14	16.095
377.50	16.572
377.86	16.502
378.22	17.066
378.58	16.528
378.94	16.256
379.30	16.169
379.66	17.166
380.02	16.330
380.38	17.281
380.74	16.732
381.09	17.189
381.45	16.023
381.81	17.623
382.17	16.924
382.53	16.550
382.89	17.099
383.25	16.882
383.61	16.262
383.97	17.079
384.32	17.285
384.68	16.125
385.04	17.409
385.40	17.207
385.76	18.113
386.12	16.936
386.48	17.647
386.83	16.806
387.19	17.961
387.55	16.843
387.91	17.123
388.27	17.263
388.62	16.609
388.98	17.033
389.34	17.914
389.70	17.316
390.06	17.466
390.42	17.289
390.77	17.821
391.13	16.960
391.49	18.056
391.85	17.152
392.20	17.734
392.56	18.252
392.92	17.557
393.28	17.966
393.64	17.654
393.99	17.955
394.35	18.575
394.71	17.964
395.07	17.365
395.42	17.933
395.78	18.464
396.14	18.419
396.50	18.646
396.85	17.889
397.21	17.041
397.57	17.727
397.92	18.041
398.28	17.599
398.64	17.677
399.00	17.435
399.35	18.796
399.71	18.152
400.07	18.192
400.42	18.044
400.78	18.229
401.14	18.441
401.49	18.647
401.85	17.500
402.21	18.540
402.57	18.369
402.92	18.676
403.28	18.560
403.63	18.377
403.99	18.884
404.35	17.453
404.70	18.924
405.06	18.478
405.42	18.501
405.77	18.648
406.13	17.828
406.49	18.694
406.84	18.393
407.20	19.173
407.55	17.989
407.91	18.165
408.27	18.316
408.62	19.197
408.98	18.862
409.34	18.651
409.69	18.850
410.05	18.757
410.40	19.548
410.76	18.676
411.11	18.878
411.47	19.595
411.83	19.577
412.18	19.337
412.54	19.265
412.89	18.743
413.25	19.244
413.60	18.553
413.96	18.765
414.31	18.584
414.67	19.439
415.03	18.831
415.38	18.285
415.74	19.426
416.09	19.371
416.45	18.785
416.80	18.972
417.16	19.540
417.51	18.742
417.87	19.191
418.22	19.042
418.58	18.773
418.93	19.849
419.29	18.681
419.64	19.268
420.00	19.881
420.35	18.978
420.71	18.265
421.06	19.034
421.42	19.151
421.77	18.578
422.12	19.503
422.48	18.945
422.83	20.263
423.19	18.196
423.54	19.248
423.90	18.664
424.25	19.147
424.61	18.599
424.96	19.385
425.31	19.533
425.67	19.216
426.02	19.480
426.38	18.772
426.73	18.638
427.09	19.435
427.44	18.460
427.79	18.961
428.15	18.094
428.50	18.933
428.85	18.944
429.21	18.989
429.56	18.608
429.92	18.870
430.27	19.084
430.62	18.759
430.98	18.692
431.33	18.866
431.68	18.966
432.04	18.182
432.39	18.961
432.74	18.836
433.10	18.226
433.45	18.450
433.80	19.045
434.16	19.163
434.51	19.168
434.86	18.730
435.22	19.341
435.57	18.337
435.92	19.199
436.28	18.999
436.63	19.061
436.98	18.894
437.34	19.335
437.69	18.382
438.04	18.667
438.39	19.242
438.75	18.926
439.10	19.397
439.45	19.285
439.81	18.644
440.16	18.391
440.51	19.231
440.86	19.622
441.22	18.542
441.57	19.444
441.92	18.186
442.27	19.091
442.63	18.728
442.98	18.570
443.33	19.043
443.68	19.277
444.03	19.802
444.39	19.325
444.74	18.989
445.09	18.601
445.44	18.651
445.79	19.205
446.15	19.733
446.50	18.605
446.85	18.628
447.20	19.052
447.55	19.090
447.91	18.272
448.26	18.816
448.61	18.863
448.96	19.421
449.31	18.558
449.66	18.192
450.02	18.513
450.37	19.766
450.72	19.214
451.07	18.622
451.42	18.949
451.77	18.844
452.12	19.131
452.47	18.419
452.83	19.369
453.18	17.630
453.53	19.070
453.88	18.829
454.23	18.927
454.58	18.630
454.93	18.143
455.28	19.386
455.63	18.533
455.98	18.771
456.34	18.492
456.69	18.812
457.04	18.913
457.39	18.847
457.74	18.680
458.09	18.671
458.44	18.912
458.79	19.134
459.14	19.088
459.49	18.223
459.84	19.098
460.19	18.268
460.54	18.966
460.89	19.111
461.24	18.276
461.59	19.480
461.94	17.798
462.29	19.205
462.64	18.045
462.99	18.519
463.34	18.494
463.69	18.581
464.04	19.233
464.39	18.946
464.74	18.871
465.09	19.031
465.44	18.884
465.79	19.143
466.14	18.291
466.49	17.684
466.84	18.623
467.19	18.960
467.54	18.801
467.89	18.161
468.24	19.114
468.59	18.471
468.94	18.182
469.29	18.296
469.64	19.135
469.99	18.611
470.34	18.131
470.68	19.002
471.03	20.170
471.38	18.313
471.73	18.140
472.08	19.353
472.43	19.205
472.78	18.640
473.13	18.142
473.48	19.879
473.83	19.733
474.17	18.992
474.52	19.122
474.87	17.996
475.22	18.817
475.57	18.224
475.92	19.014
476.27	18.956
476.61	18.951
476.96	17.935
477.31	19.158
477.66	19.622
478.01	19.065
478.36	19.143
478.70	18.030
479.05	19.121
479.40	18.657
479.75	20.173
480.10	18.948
480.45	18.323
480.79	19.138
481.14	18.474
481.49	18.991
481.84	19.365
482.19	18.667
482.53	18.889
482.88	19.451
483.23	18.542
483.58	17.686
483.92	18.484
484.27	18.586
484.62	18.482
484.97	18.429
485.31	18.374
485.66	16.878
486.01	17.304
486.36	18.307
486.70	18.449
487.05	19.017
487.40	19.132
487.75	18.575
488.09	18.400
488.44	18.064
488.79	19.393
489.13	18.646
489.48	18.757
489.83	18.511
490.17	18.023
490.52	18.103
490.87	18.909
491.22	19.151
491.56	19.027
491.91	19.058
492.26	18.607
492.60	18.977
492.95	18.692
493.30	18.736
493.64	19.141
493.99	18.816
494.34	18.946
494.68	18.415
495.03	19.075
495.37	18.464
495.72	18.866
496.07	19.632
496.41	18.361
496.76	18.682
497.11	19.151
497.45	18.774
497.80	19.147
498.14	18.866
498.49	18.704
498.84	18.967
499.18	18.489
499.53	18.610
499.87	19.297
500.22	18.744
500.56	18.219
500.91	18.352
501.26	19.091
501.60	18.869
501.95	19.019
502.29	19.219
502.64	18.714
502.98	18.507
503.33	18.920
503.67	18.142
504.02	18.651
504.36	19.258
504.71	18.925
505.06	18.963
505.40	19.561
505.75	18.989
506.09	19.061
506.44	19.684
506.78	19.128
507.13	19.456
507.47	18.854
507.82	19.129
508.16	18.547
508.51	18.190
508.85	18.611
509.19	19.185
509.54	19.549
509.88	19.330
510.23	19.330
510.57	19.333
510.92	19.448
511.26	18.422
511.61	18.155
511.95	18.448
512.30	19.547
512.64	19.540
512.98	19.560
513.33	19.808
513.67	19.429
514.02	19.622
514.36	19.898
514.70	19.896
515.05	19.864
515.39	20.052
515.74	20.679
516.08	20.021
516.42	20.670
516.77	19.401
517.11	19.752
517.46	20.042
517.80	19.989
518.14	20.076
518.49	19.848
518.83	19.904
519.17	19.978
519.52	20.283
519.86	19.852
520.20	20.021
520.55	20.865
520.89	19.764
521.23	20.882
521.58	20.339
521.92	19.830
522.26	20.275
522.61	21.065
522.95	20.415
523.29	20.057
523.64	19.731
523.98	20.936
524.32	21.089
524.66	20.831
525.01	19.932
525.35	20.218
525.69	19.258
526.04	20.608
526.38	20.345
526.72	20.588
527.06	20.587
527.41	20.175
527.75	20.784
528.09	20.071
528.43	21.137
528.78	21.676
529.12	21.158
529.46	21.192
529.80	20.881
530.15	21.159
530.49	20.581
530.83	20.897
531.17	19.833
531.51	20.878
531.86	21.815
532.20	21.768
532.54	20.347
532.88	21.455
533.22	21.214
533.57	20.889
533.91	21.268
534.25	20.577
534.59	21.264
534.93	20.374
535.27	20.732
535.62	22.229
535.96	21.325
536.30	21.445
536.64	21.982
536.98	21.402
537.32	21.543
537.66	22.208
538.01	20.906
538.35	20.524
538.69	21.154
539.03	21.459
539.37	21.496
539.71	21.862
540.05	21.882
540.39	21.394
540.73	20.704
541.07	22.440
541.42	21.500
541.76	19.692
542.10	21.773
542.44	20.280
542.78	21.350
543.12	21.037
543.46	21.184
543.80	20.743
544.14	21.185
544.48	22.104
544.82	21.544
545.16	22.123
545.50	21.150
545.84	21.678
546.18	22.407
546.52	21.146
546.86	21.572
547.20	21.565
547.54	21.973
547.88	21.881
548.22	21.287
548.56	22.177
548.90	22.149
549.24	22.553
549.58	22.650
549.92	22.449
550.26	22.654
550.60	22.655
550.94	21.928
551.28	22.244
551.62	22.709
551.96	21.553
552.30	22.498
552.64	22.962
552.98	21.834
553.32	23.215
553.66	22.572
554.00	22.573
554.34	22.008
554.68	22.466
555.02	22.142
555.36	22.945
555.69	22.229
556.03	21.942
556.37	22.716
556.71	22.701
557.05	23.387
557.39	22.362
557.73	23.580
558.07	22.914
558.41	23.854
558.75	24.138
559.08	23.869
559.42	23.320
559.76	24.084
560.10	24.113
560.44	23.153
560.78	23.500
561.12	23.645
561.45	23.358
561.79	23.199
562.13	23.722
562.47	23.058
562.81	23.228
563.15	24.053
563.48	23.617
563.82	23.700
564.16	22.714
564.50	23.540
564.84	23.186
565.17	23.059
565.51	22.900
565.85	23.515
566.19	22.926
566.52	23.581
566.86	23.486
567.20	22.403
567.54	23.420
567.88	23.955
568.21	23.715
568.55	23.837
568.89	23.423
569.23	23.616
569.56	23.212
569.90	23.200
570.24	23.440
570.57	22.739
570.91	22.321
571.25	22.621
571.59	23.184
571.92	22.601
572.26	22.313
572.60	22.877
572.93	22.321
573.27	21.804
573.61	22.525
573.95	22.336
574.28	22.471
574.62	22.328
574.96	21.901
575.29	22.053
575.63	22.245
575.97	21.940
576.30	21.860
576.64	22.190
576.98	22.437
577.31	22.449
577.65	22.348
577.98	21.950
578.32	22.100
578.66	21.881
578.99	22.015
579.33	22.299
579.67	22.167
580.00	22.544
580.34	22.164
580.67	21.867
581.01	21.701
581.35	22.092
581.68	22.112
582.02	22.134
582.35	22.246
582.69	22.545
583.02	22.108
583.36	22.612
583.70	22.268
584.03	22.030
584.37	22.093
584.70	21.711
585.04	21.669
585.37	22.028
585.71	22.050
586.04	22.039
586.38	22.447
586.72	22.186
587.05	21.694
587.39	22.039
587.72	22.416
588.06	22.510
588.39	21.957
588.73	22.460
589.06	22.432
589.40	22.741
589.73	22.815
590.07	22.546
590.40	22.650
590.73	22.446
591.07	23.529
591.40	21.967
591.74	22.496
592.07	23.143
592.41	22.279
592.74	22.790
593.08	22.420
593.41	23.476
593.75	22.414
594.08	23.326
594.41	22.660
594.75	22.185
595.08	22.779
595.42	22.597
595.75	22.215
596.09	22.670
596.42	22.465
596.75	23.196
597.09	22.909
597.42	22.447
597.75	23.481
598.09	22.778
598.42	23.241
598.76	22.965
599.09	21.680
599.42	21.991
599.76	22.351
600.09	22.956
600.42	22.656
600.76	22.622
601.09	21.905
601.42	21.902
601.76	22.276
602.09	21.801
602.42	21.556
602.76	22.435
603.09	22.283
603.42	22.796
603.76	21.952
604.09	22.250
604.42	22.422
604.76	21.842
605.09	22.497
605.42	22.049
605.75	21.692
606.09	22.172
606.42	22.072
606.75	21.964
607.09	21.582
607.42	22.389
607.75	22.509
608.08	21.981
608.42	21.886
608.75	22.222
609.08	21.732
609.41	22.276
609.75	22.143
610.08	22.647
610.41	22.090
610.74	22.227
611.07	22.602
611.41	22.242
611.74	22.910
612.07	22.627
612.40	22.148
612.73	23.130
613.07	23.032
613.40	22.618
613.73	22.388
614.06	22.522
614.39	22.546
614.72	22.368
615.06	23.051
615.39	22.426
615.72	22.844
616.05	22.584
616.38	23.108
616.71	22.414
617.05	21.619
617.38	22.632
617.71	22.516
618.04	22.720
618.37	22.295
618.70	23.473
619.03	22.820
619.36	22.996
619.69	22.165
620.03	23.164
620.36	21.963
620.69	22.455
621.02	23.622
621.35	23.948
621.68	24.223
622.01	23.203
622.34	23.013
622.67	23.230
623.00	22.200
623.33	22.495
623.66	22.244
623.99	22.712
624.32	23.522
624.65	22.458
624.99	23.732
625.32	22.796
625.65	22.185
625.98	22.305
626.31	22.821
626.64	22.930
626.97	22.056
627.30	22.323
627.63	23.256
627.96	23.198
628.29	23.113
628.62	23.510
628.95	24.890
629.28	23.704
629.61	23.232
629.94	22.678
630.26	23.136
630.59	23.057
630.92	22.944
631.25	24.419
631.58	24.011
631.91	23.336
632.24	23.439
