SpectraSuite Data File
++++++++++++++++++++++++++++++++++++
Date: Thu May 14 16:06:12 PDT 2015
User: schluterlab
Dark Spectrum Present: Yes
Reference Spectrum Present: Yes
Number of Sampled Component Spectra: 1
Spectrometers: USB2E3373
Integration Time (usec): 3000 (USB2E3373)
Spectra Averaged: 3 (USB2E3373)
Boxcar Smoothing: 0 (USB2E3373)
Correct for Electrical Dark: No (USB2E3373)
Strobe/Lamp Enabled: No (USB2E3373)
Correct for Detector Non-linearity: No (USB2E3373)
Correct for Stray Light: No (USB2E3373)
Number of Pixels in Processed Spectrum: 2048
>>>>>Begin Processed Spectral Data<<<<<
178.53	0.000
178.91	228.571
179.29	-1900.000
179.67	-2100.000
180.04	207.143
180.42	160.000
180.80	160.000
181.18	-1300.000
181.56	300.000
181.94	250.000
182.31	-550.000
182.69	500.000
183.07	-850.000
183.45	450.000
183.83	-133.333
184.20	-333.333
184.58	1400.000
184.96	-500.000
185.34	-100.000
185.72	-320.000
186.09	244.444
186.47	1200.000
186.85	440.000
187.23	-166.667
187.61	-2200.000
187.98	160.000
188.36	475.000
188.74	-275.000
189.12	-333.333
189.49	-56.250
189.87	-275.000
190.25	-55.556
190.63	-280.000
191.00	-211.111
191.38	0.000
191.76	-500.000
192.14	-366.667
192.51	600.000
192.89	-83.333
193.27	0.000
193.65	-214.286
194.02	-2100.000
194.40	-57.143
194.78	42.857
195.15	0.000
195.53	-27.273
195.91	0.000
196.29	-150.000
196.66	-53.846
197.04	-800.000
197.42	-228.571
197.79	-800.000
198.17	-75.000
198.55	-142.857
198.92	-66.667
199.30	-212.500
199.68	-118.182
200.05	0.000
200.43	-1000.000
200.81	342.857
201.18	0.000
201.56	266.667
201.94	0.000
202.31	566.667
202.69	-277.778
203.07	1300.000
203.44	-166.667
203.82	-375.000
204.19	-116.667
204.57	-350.000
204.95	-150.000
205.32	-2100.000
205.70	375.000
206.08	-183.333
206.45	-83.333
206.83	460.000
207.20	-200.000
207.58	-260.000
207.96	-366.667
208.33	-83.333
208.71	200.000
209.08	-100.000
209.46	0.000
209.84	266.667
210.21	750.000
210.59	550.000
210.96	366.667
211.34	-50.000
211.71	-112.500
212.09	-800.000
212.46	0.000
212.84	1050.000
213.22	-280.000
213.59	-275.000
213.97	-170.000
214.34	-466.667
214.72	233.333
215.09	-325.000
215.47	0.000
215.84	85.714
216.22	900.000
216.59	-140.000
216.97	-320.000
217.34	-525.000
217.72	-100.000
218.09	-100.000
218.47	-450.000
218.84	0.000
219.22	380.000
219.59	-58.824
219.97	-110.000
220.34	1200.000
220.72	-233.333
221.09	-84.615
221.47	-600.000
221.84	-170.000
222.22	-271.429
222.59	0.000
222.97	-62.500
223.34	-300.000
223.72	-1500.000
224.09	-400.000
224.46	-325.000
224.84	-80.000
225.21	-300.000
225.59	-375.000
225.96	-225.000
226.34	-30.769
226.71	350.000
227.08	-800.000
227.46	-46.667
227.83	-350.000
228.21	-78.947
228.58	150.000
228.95	950.000
229.33	-75.000
229.70	-130.000
230.08	21.053
230.45	270.000
230.82	-300.000
231.20	-42.857
231.57	-25.000
231.95	-100.000
232.32	-118.182
232.69	-50.000
233.07	-375.000
233.44	-11.765
233.81	-120.000
234.19	-27.778
234.56	-40.909
234.93	-10.345
235.31	-63.158
235.68	-44.444
236.05	-65.000
236.43	-19.231
236.80	-4.000
237.17	-14.815
237.55	0.000
237.92	0.000
238.29	-22.581
238.67	-22.727
239.04	5.556
239.41	-2.381
239.79	-2.174
240.16	-7.407
240.53	-15.217
240.91	-21.569
241.28	-1.639
241.65	20.896
242.02	1.351
242.40	-3.077
242.77	-2.667
243.14	3.659
243.51	-5.263
243.89	1.282
244.26	13.861
244.63	22.549
245.00	21.495
245.38	11.404
245.75	-0.885
246.12	22.222
246.49	12.403
246.87	20.000
247.24	15.894
247.61	19.079
247.98	24.161
248.36	19.753
248.73	16.564
249.10	14.754
249.47	18.905
249.84	27.225
250.22	14.508
250.59	21.111
250.96	24.091
251.33	14.796
251.70	21.368
252.08	20.833
252.45	18.443
252.82	23.140
253.19	16.016
253.56	22.814
253.94	16.154
254.31	21.591
254.68	27.273
255.05	22.801
255.42	19.048
255.79	22.330
256.16	20.861
256.54	20.861
256.91	22.623
257.28	20.656
257.65	20.064
258.02	17.699
258.39	22.792
258.76	23.853
259.14	20.977
259.51	21.902
259.88	21.246
260.25	23.611
260.62	23.288
260.99	25.956
261.36	24.933
261.73	20.424
262.10	22.802
262.47	20.375
262.85	26.768
263.22	23.117
263.59	19.737
263.96	23.274
264.33	21.483
264.70	24.198
265.07	26.492
265.44	26.757
265.81	23.843
266.18	24.036
266.55	20.759
266.92	20.957
267.29	23.414
267.66	24.834
268.03	23.581
268.40	21.921
268.77	20.729
269.14	20.264
269.51	23.904
269.88	25.410
270.25	23.742
270.62	24.262
270.99	23.838
271.36	25.149
271.73	24.165
272.10	24.449
272.47	25.651
272.84	22.892
273.21	21.242
273.58	22.581
273.95	20.962
274.32	21.103
274.69	21.277
275.06	21.245
275.43	20.333
275.80	21.869
276.17	20.926
276.54	22.015
276.91	20.572
277.28	21.519
277.65	24.955
278.02	22.059
278.39	21.377
278.76	22.671
279.13	22.695
279.50	23.024
279.87	22.898
280.23	21.831
280.60	24.915
280.97	23.520
281.34	21.222
281.71	24.704
282.08	21.927
282.45	21.113
282.82	22.135
283.19	21.163
283.56	20.984
283.92	22.222
284.29	23.223
284.66	21.346
285.03	21.955
285.40	24.111
285.77	21.517
286.14	23.053
286.51	21.613
286.87	21.011
287.24	23.494
287.61	21.076
287.98	21.601
288.35	22.337
288.72	21.302
289.08	20.791
289.45	19.822
289.82	19.428
290.19	21.552
290.56	23.239
290.93	20.114
291.29	19.697
291.66	19.972
292.03	20.217
292.40	21.633
292.77	19.946
293.13	19.350
293.50	18.265
293.87	17.315
294.24	20.667
294.60	18.205
294.97	19.329
295.34	17.926
295.71	16.898
296.08	18.217
296.44	18.505
296.81	18.392
297.18	17.559
297.55	17.571
297.91	18.149
298.28	16.706
298.65	16.885
299.02	16.293
299.38	16.476
299.75	17.290
300.12	16.088
300.48	17.857
300.85	16.648
301.22	17.450
301.59	16.438
301.95	16.045
302.32	17.000
302.69	17.306
303.05	18.607
303.42	16.519
303.79	16.146
304.15	19.033
304.52	15.962
304.89	17.173
305.25	16.770
305.62	16.092
305.99	16.495
306.35	17.339
306.72	17.373
307.09	17.157
307.45	16.667
307.82	17.356
308.19	16.448
308.55	17.165
308.92	16.553
309.29	18.008
309.65	17.836
310.02	15.941
310.38	17.618
310.75	17.184
311.12	17.354
311.48	17.009
311.85	16.144
312.22	15.844
312.58	17.746
312.95	17.017
313.31	17.254
313.68	18.132
314.05	18.157
314.41	17.851
314.78	18.438
315.14	18.058
315.51	18.652
315.87	17.822
316.24	18.630
316.61	19.538
316.97	18.914
317.34	19.224
317.70	20.873
318.07	21.164
318.43	19.728
318.80	21.906
319.16	20.773
319.53	19.966
319.89	21.385
320.26	20.819
320.62	21.188
320.99	21.976
321.35	21.534
321.72	24.744
322.08	22.994
322.45	23.758
322.81	25.993
323.18	24.690
323.54	25.431
323.91	27.135
324.27	26.334
324.64	27.456
325.00	26.368
325.37	26.699
325.73	27.438
326.10	28.386
326.46	29.397
326.83	28.583
327.19	28.976
327.56	30.277
327.92	30.212
328.29	29.355
328.65	29.229
329.01	30.795
329.38	31.340
329.74	32.705
330.11	33.305
330.47	32.182
330.84	32.558
331.20	33.000
331.56	32.842
331.93	33.724
332.29	33.559
332.66	33.721
333.02	33.082
333.38	32.634
333.75	34.428
334.11	34.696
334.48	34.406
334.84	33.815
335.20	33.333
335.57	35.160
335.93	34.298
336.29	34.443
336.66	35.408
337.02	34.950
337.38	35.119
337.75	33.967
338.11	36.417
338.47	35.897
338.84	34.095
339.20	34.288
339.56	35.667
339.93	34.565
340.29	34.380
340.65	36.010
341.02	37.111
341.38	36.055
341.74	34.948
342.11	35.157
342.47	35.266
342.83	35.829
343.20	36.877
343.56	35.766
343.92	35.388
344.28	34.844
344.65	36.202
345.01	35.101
345.37	36.936
345.73	35.230
346.10	37.207
346.46	36.788
346.82	36.854
347.19	37.892
347.55	37.102
347.91	36.478
348.27	36.419
348.63	35.720
349.00	35.943
349.36	37.100
349.72	35.789
350.08	36.850
350.45	35.970
350.81	35.822
351.17	36.992
351.53	37.149
351.89	36.522
352.26	37.910
352.62	37.313
352.98	37.176
353.34	37.640
353.70	37.982
354.07	37.407
354.43	37.813
354.79	37.996
355.15	37.601
355.51	38.596
355.87	37.921
356.24	37.795
356.60	37.324
356.96	38.325
357.32	38.141
357.68	38.287
358.04	37.874
358.40	37.537
358.77	38.085
359.13	38.035
359.49	37.546
359.85	38.071
360.21	38.666
360.57	38.047
360.93	39.210
361.29	40.351
361.66	39.030
362.02	39.736
362.38	39.916
362.74	39.665
363.10	40.096
363.46	40.928
363.82	39.773
364.18	39.831
364.54	40.387
364.90	40.468
365.26	39.517
365.62	40.533
365.98	40.504
366.35	40.805
366.71	41.293
367.07	40.866
367.43	40.840
367.79	41.938
368.15	42.207
368.51	41.001
368.87	41.411
369.23	39.933
369.59	43.101
369.95	42.123
370.31	42.741
370.67	41.472
371.03	41.828
371.39	41.773
371.75	43.054
372.11	42.818
372.47	42.519
372.83	41.819
373.19	42.028
373.55	43.089
373.91	42.672
374.27	43.338
374.63	42.625
374.99	42.308
375.35	42.792
375.71	43.355
376.07	42.350
376.42	43.577
376.78	44.935
377.14	42.982
377.50	44.086
377.86	44.458
378.22	42.994
378.58	44.768
378.94	43.192
379.30	43.292
379.66	44.562
380.02	44.259
380.38	45.219
380.74	44.676
381.09	44.948
381.45	43.920
381.81	44.496
382.17	44.952
382.53	44.561
382.89	44.752
383.25	45.545
383.61	45.428
383.97	44.346
384.32	45.574
384.68	44.026
385.04	45.228
385.40	46.258
385.76	46.424
386.12	44.225
386.48	45.588
386.83	45.173
387.19	44.959
387.55	45.129
387.91	44.521
388.27	44.342
388.62	44.845
388.98	45.065
389.34	44.785
389.70	46.310
390.06	45.589
390.42	44.819
390.77	45.154
391.13	45.833
391.49	45.169
391.85	45.273
392.20	45.552
392.56	45.540
392.92	45.420
393.28	45.992
393.64	44.134
393.99	45.322
394.35	45.678
394.71	45.269
395.07	45.269
395.42	45.802
395.78	45.338
396.14	45.633
396.50	44.418
396.85	46.333
397.21	44.911
397.57	44.935
397.92	45.991
398.28	45.845
398.64	44.908
399.00	44.607
399.35	45.131
399.71	44.565
400.07	46.322
400.42	44.994
400.78	44.618
401.14	44.052
401.49	45.139
401.85	45.814
402.21	45.423
402.57	45.364
402.92	44.858
403.28	45.082
403.63	44.690
403.99	43.884
404.35	43.945
404.70	44.023
405.06	43.587
405.42	43.852
405.77	44.275
406.13	43.868
406.49	44.313
406.84	44.598
407.20	44.885
407.55	43.973
407.91	43.809
408.27	43.875
408.62	42.990
408.98	43.819
409.34	42.639
409.69	44.623
410.05	42.966
410.40	44.374
410.76	42.905
411.11	44.535
411.47	42.506
411.83	44.444
412.18	43.313
412.54	43.391
412.89	44.121
413.25	44.470
413.60	43.825
413.96	43.240
414.31	42.096
414.67	43.948
415.03	43.015
415.38	42.938
415.74	42.700
416.09	43.430
416.45	42.517
416.80	43.268
417.16	42.401
417.51	42.590
417.87	42.857
418.22	42.156
418.58	42.007
418.93	43.772
419.29	41.924
419.64	42.857
420.00	43.739
420.35	42.785
420.71	41.700
421.06	42.266
421.42	43.349
421.77	42.111
422.12	41.015
422.48	42.448
422.83	43.045
423.19	42.281
423.54	43.363
423.90	41.855
424.25	42.720
424.61	41.676
424.96	43.383
425.31	42.251
425.67	42.566
426.02	42.999
426.38	40.930
426.73	41.462
427.09	42.849
427.44	41.344
427.79	41.183
428.15	41.781
428.50	42.865
428.85	41.906
429.21	41.596
429.56	41.905
429.92	42.310
430.27	41.446
430.62	41.768
430.98	42.056
431.33	42.180
431.68	40.805
432.04	42.306
432.39	42.100
432.74	42.922
433.10	42.185
433.45	41.472
433.80	41.148
434.16	41.581
434.51	42.754
434.86	42.074
435.22	42.083
435.57	42.689
435.92	42.515
436.28	42.662
436.63	43.528
436.98	41.600
437.34	42.165
437.69	42.323
438.04	42.200
438.39	42.102
438.75	42.225
439.10	42.865
439.45	42.146
439.81	42.655
440.16	42.949
440.51	42.252
440.86	42.968
441.22	42.122
441.57	42.191
441.92	41.562
442.27	41.818
442.63	41.878
442.98	42.583
443.33	42.557
443.68	42.170
444.03	43.932
444.39	42.441
444.74	42.879
445.09	41.865
445.44	43.045
445.79	42.433
446.15	42.549
446.50	42.067
446.85	43.677
447.20	42.843
447.55	42.887
447.91	41.885
448.26	42.283
448.61	41.870
448.96	43.026
449.31	41.622
449.66	41.612
450.02	42.616
450.37	42.941
450.72	42.142
451.07	42.995
451.42	43.039
451.77	41.245
452.12	44.131
452.47	41.830
452.83	43.018
453.18	41.623
453.53	42.677
453.88	41.745
454.23	41.808
454.58	42.948
454.93	40.959
455.28	42.264
455.63	42.126
455.98	43.184
456.34	41.284
456.69	42.269
457.04	42.317
457.39	42.018
457.74	42.562
458.09	41.241
458.44	42.403
458.79	41.619
459.14	41.321
459.49	41.653
459.84	41.343
460.19	41.477
460.54	42.987
460.89	41.821
461.24	41.092
461.59	41.616
461.94	40.616
462.29	42.441
462.64	43.150
462.99	41.620
463.34	41.986
463.69	41.090
464.04	41.801
464.39	42.937
464.74	40.821
465.09	41.753
465.44	42.114
465.79	41.565
466.14	40.959
466.49	42.053
466.84	42.920
467.19	42.312
467.54	40.599
467.89	41.609
468.24	41.662
468.59	41.112
468.94	41.434
469.29	40.732
469.64	42.975
469.99	42.894
470.34	42.512
470.68	43.336
471.03	42.895
471.38	41.400
471.73	42.523
472.08	42.005
472.43	41.421
472.78	41.625
473.13	41.530
473.48	41.994
473.83	42.020
474.17	41.208
474.52	42.273
474.87	41.251
475.22	42.366
475.57	41.745
475.92	41.463
476.27	42.492
476.61	41.329
476.96	41.397
477.31	41.535
477.66	42.078
478.01	41.688
478.36	41.176
478.70	42.709
479.05	43.303
479.40	42.349
479.75	41.787
480.10	42.065
480.45	41.294
480.79	42.177
481.14	40.533
481.49	42.344
481.84	41.079
482.19	41.849
482.53	42.195
482.88	41.693
483.23	41.974
483.58	41.223
483.92	40.913
484.27	41.406
484.62	40.635
484.97	41.524
485.31	40.056
485.66	37.888
486.01	36.824
486.36	37.288
486.70	39.371
487.05	41.462
487.40	41.676
487.75	42.214
488.09	42.209
488.44	41.245
488.79	41.079
489.13	41.057
489.48	40.466
489.83	40.845
490.17	40.138
490.52	40.189
490.87	40.821
491.22	40.165
491.56	40.316
491.91	41.300
492.26	40.762
492.60	40.490
492.95	40.061
493.30	40.520
493.64	40.867
493.99	40.263
494.34	40.200
494.68	40.642
495.03	40.220
495.37	41.101
495.72	40.816
496.07	40.096
496.41	39.940
496.76	39.700
497.11	40.510
497.45	39.879
497.80	40.737
498.14	40.000
498.49	40.303
498.84	41.316
499.18	39.361
499.53	40.807
499.87	40.000
500.22	39.760
500.56	39.631
500.91	40.824
501.26	40.182
501.60	39.638
501.95	39.991
502.29	40.588
502.64	41.408
502.98	40.121
503.33	40.432
503.67	40.602
504.02	40.762
504.36	41.421
504.71	41.479
505.06	40.155
505.40	40.768
505.75	40.619
506.09	41.344
506.44	41.736
506.78	41.009
507.13	41.217
507.47	42.018
507.82	41.430
508.16	41.061
508.51	40.647
508.85	41.427
509.19	40.692
509.54	40.538
509.88	41.088
510.23	43.079
510.57	41.469
510.92	41.606
511.26	40.693
511.61	40.174
511.95	41.191
512.30	40.867
512.64	40.080
512.98	42.321
513.33	42.994
513.67	41.713
514.02	41.850
514.36	41.176
514.70	40.781
515.05	42.284
515.39	43.622
515.74	42.789
516.08	42.578
516.42	42.334
516.77	42.850
517.11	42.187
517.46	43.425
517.80	43.399
518.14	43.254
518.49	44.143
518.83	41.778
519.17	41.249
519.52	43.187
519.86	42.661
520.20	42.758
520.55	41.785
520.89	43.750
521.23	43.551
521.58	44.407
521.92	42.833
522.26	44.215
522.61	43.924
522.95	43.368
523.29	44.195
523.64	43.890
523.98	43.639
524.32	43.725
524.66	44.622
525.01	42.865
525.35	43.366
525.69	43.387
526.04	43.111
526.38	43.736
526.72	43.541
527.06	43.695
527.41	43.265
527.75	44.121
528.09	43.802
528.43	42.984
528.78	42.370
529.12	43.922
529.46	42.664
529.80	42.849
530.15	43.188
530.49	42.764
530.83	44.274
531.17	43.130
531.51	43.863
531.86	44.050
532.20	43.841
532.54	43.088
532.88	43.030
533.22	41.603
533.57	43.739
533.91	43.098
534.25	42.114
534.59	43.218
534.93	42.558
535.27	42.535
535.62	42.922
535.96	42.475
536.30	43.126
536.64	43.724
536.98	42.558
537.32	44.074
537.66	42.608
538.01	41.088
538.35	42.753
538.69	41.106
539.03	43.041
539.37	41.932
539.71	42.883
540.05	41.487
540.39	41.259
540.73	41.348
541.07	42.244
541.42	40.284
541.76	40.925
542.10	41.737
542.44	41.657
542.78	42.032
543.12	41.240
543.46	41.453
543.80	40.408
544.14	40.874
544.48	40.898
544.82	42.490
545.16	42.218
545.50	42.301
545.84	40.355
546.18	41.481
546.52	41.656
546.86	41.572
547.20	41.031
547.54	41.261
547.88	41.290
548.22	41.053
548.56	39.614
548.90	41.015
549.24	39.635
549.58	40.631
549.92	40.816
550.26	40.647
550.60	42.183
550.94	41.656
551.28	40.594
551.62	41.981
551.96	40.906
552.30	41.236
552.64	41.195
552.98	40.237
553.32	40.514
553.66	40.450
554.00	40.353
554.34	41.055
554.68	39.574
555.02	40.736
555.36	41.157
555.69	39.526
556.03	39.155
556.37	39.612
556.71	40.266
557.05	40.319
557.39	39.350
557.73	40.225
558.07	40.000
558.41	40.133
558.75	40.568
559.08	41.127
559.42	39.986
559.76	40.841
560.10	39.250
560.44	39.248
560.78	39.812
561.12	39.409
561.45	39.842
561.79	39.316
562.13	39.125
562.47	39.334
562.81	38.608
563.15	38.636
563.48	38.533
563.82	40.508
564.16	36.887
564.50	38.617
564.84	38.407
565.17	38.529
565.51	37.169
565.85	38.895
566.19	38.191
566.52	37.800
566.86	38.596
567.20	37.140
567.54	37.706
567.88	37.411
568.21	37.796
568.55	37.458
568.89	36.677
569.23	36.248
569.56	35.483
569.90	35.032
570.24	35.076
570.57	34.830
570.91	34.997
571.25	34.915
571.59	34.623
571.92	34.168
572.26	34.119
572.60	34.262
572.93	34.400
573.27	34.701
573.61	34.145
573.95	34.037
574.28	33.030
574.62	33.583
574.96	32.775
575.29	32.496
575.63	32.640
575.97	33.317
576.30	33.728
576.64	32.904
576.98	33.007
577.31	32.895
577.65	33.739
577.98	32.587
578.32	32.469
578.66	32.322
578.99	32.849
579.33	33.393
579.67	33.658
580.00	33.378
580.34	32.853
580.67	32.480
581.01	32.345
581.35	32.184
581.68	32.103
582.02	31.580
582.35	31.930
582.69	32.347
583.02	32.573
583.36	33.559
583.70	33.651
584.03	33.261
584.37	33.473
584.70	32.836
585.04	32.806
585.37	31.485
585.71	31.672
586.04	31.858
586.38	32.196
586.72	32.565
587.05	32.208
587.39	32.186
587.72	32.727
588.06	31.842
588.39	31.939
588.73	32.249
589.06	33.155
589.40	33.620
589.73	32.905
590.07	32.792
590.40	33.300
590.73	32.803
591.07	33.023
591.40	33.359
591.74	32.750
592.07	33.496
592.41	33.399
592.74	32.091
593.08	32.325
593.41	31.934
593.75	31.753
594.08	31.990
594.41	32.692
594.75	32.581
595.08	32.672
595.42	32.305
595.75	32.677
596.09	32.125
596.42	32.461
596.75	33.037
597.09	34.061
597.42	32.300
597.75	31.948
598.09	32.976
598.42	33.052
598.76	31.410
599.09	30.865
599.42	30.707
599.76	31.231
600.09	31.265
600.42	31.932
600.76	31.011
601.09	30.999
601.42	31.617
601.76	31.483
602.09	31.237
602.42	31.043
602.76	31.513
603.09	31.828
603.42	31.503
603.76	31.325
604.09	32.115
604.42	31.083
604.76	31.431
605.09	31.911
605.42	31.778
605.75	31.692
606.09	30.870
606.42	30.646
606.75	30.735
607.09	30.645
607.42	30.983
607.75	30.832
608.08	30.900
608.42	30.794
608.75	31.716
609.08	30.942
609.41	31.451
609.75	31.830
610.08	31.091
610.41	31.266
610.74	31.176
611.07	31.572
611.41	31.928
611.74	31.316
612.07	31.463
612.40	31.321
612.73	32.176
613.07	31.736
613.40	32.243
613.73	31.103
614.06	31.011
614.39	30.807
614.72	31.684
615.06	31.184
615.39	30.594
615.72	30.664
616.05	31.569
616.38	30.575
616.71	31.975
617.05	31.044
617.38	31.782
617.71	31.371
618.04	31.732
618.37	32.131
618.70	32.127
619.03	30.645
619.36	32.306
619.69	32.287
620.03	32.078
620.36	31.656
620.69	31.647
621.02	32.480
621.35	34.035
621.68	33.261
622.01	32.598
622.34	30.683
622.67	31.753
623.00	31.377
623.33	31.918
623.66	31.971
623.99	31.271
624.32	31.059
624.65	31.274
624.99	31.990
625.32	31.156
625.65	32.232
625.98	31.390
626.31	31.751
626.64	31.429
626.97	31.058
627.30	32.043
627.63	31.133
627.96	32.958
628.29	32.218
628.62	33.837
628.95	33.918
629.28	32.795
629.61	32.071
629.94	31.213
630.26	31.695
630.59	31.606
630.92	31.515
631.25	32.648
631.58	32.298
631.91	32.240
