SpectraSuite Data File
++++++++++++++++++++++++++++++++++++
Date: Thu May 14 16:09:24 PDT 2015
User: schluterlab
Dark Spectrum Present: Yes
Reference Spectrum Present: Yes
Number of Sampled Component Spectra: 1
Spectrometers: USB2E3373
Integration Time (usec): 3000 (USB2E3373)
Spectra Averaged: 3 (USB2E3373)
Boxcar Smoothing: 0 (USB2E3373)
Correct for Electrical Dark: No (USB2E3373)
Strobe/Lamp Enabled: No (USB2E3373)
Correct for Detector Non-linearity: No (USB2E3373)
Correct for Stray Light: No (USB2E3373)
Number of Pixels in Processed Spectrum: 2048
>>>>>Begin Processed Spectral Data<<<<<
178.53	0.000
178.91	185.714
179.29	-2200.000
179.67	-1100.000
180.04	171.429
180.42	160.000
180.80	300.000
181.18	-1500.000
181.56	-800.000
181.94	225.000
182.31	-225.000
182.69	533.333
183.07	-450.000
183.45	325.000
183.83	-50.000
184.20	-366.667
184.58	1400.000
184.96	-325.000
185.34	-88.889
185.72	-80.000
186.09	200.000
186.47	1150.000
186.85	280.000
187.23	-200.000
187.61	-1400.000
187.98	240.000
188.36	475.000
188.74	-325.000
189.12	-366.667
189.49	-68.750
189.87	-175.000
190.25	-133.333
190.63	-200.000
191.00	-122.222
191.38	0.000
191.76	-575.000
192.14	-183.333
192.51	500.000
192.89	-83.333
193.27	0.000
193.65	-142.857
194.02	-1800.000
194.40	-214.286
194.78	185.714
195.15	0.000
195.53	-127.273
195.91	0.000
196.29	0.000
196.66	-61.538
197.04	-2000.000
197.42	-114.286
197.79	-750.000
198.17	-162.500
198.55	-300.000
198.92	-111.111
199.30	-287.500
199.68	-90.909
200.05	-42.857
200.43	-600.000
200.81	228.571
201.18	0.000
201.56	288.889
201.94	0.000
202.31	566.667
202.69	-166.667
203.07	600.000
203.44	-144.444
203.82	-400.000
204.19	-108.333
204.57	-250.000
204.95	-175.000
205.32	-1700.000
205.70	200.000
206.08	-133.333
206.45	-116.667
206.83	500.000
207.20	-83.333
207.58	-240.000
207.96	-250.000
208.33	-66.667
208.71	141.667
209.08	-216.667
209.46	0.000
209.84	400.000
210.21	900.000
210.59	350.000
210.96	666.667
211.34	-150.000
211.71	-137.500
212.09	-1700.000
212.46	0.000
212.84	1150.000
213.22	-180.000
213.59	-125.000
213.97	-100.000
214.34	-233.333
214.72	233.333
215.09	-300.000
215.47	0.000
215.84	214.286
216.22	1050.000
216.59	-220.000
216.97	-260.000
217.34	-200.000
217.72	-100.000
218.09	-325.000
218.47	-450.000
218.84	0.000
219.22	320.000
219.59	5.882
219.97	-30.000
220.34	750.000
220.72	-177.778
221.09	-61.538
221.47	-600.000
221.84	-100.000
222.22	-128.571
222.59	0.000
222.97	-62.500
223.34	-460.000
223.72	-1400.000
224.09	-275.000
224.46	-375.000
224.84	-320.000
225.21	-328.571
225.59	-375.000
225.96	-300.000
226.34	-19.231
226.71	183.333
227.08	-950.000
227.46	-60.000
227.83	-250.000
228.21	-42.105
228.58	212.500
228.95	750.000
229.33	33.333
229.70	-70.000
230.08	-15.789
230.45	180.000
230.82	-533.333
231.20	-71.429
231.57	-8.333
231.95	-145.455
232.32	-81.818
232.69	25.000
233.07	-50.000
233.44	-47.059
233.81	-140.000
234.19	-27.778
234.56	0.000
234.93	-6.897
235.31	-31.579
235.68	-50.000
236.05	-90.000
236.43	11.538
236.80	12.000
237.17	-22.222
237.55	-51.515
237.92	-140.000
238.29	-32.258
238.67	-20.455
239.04	-8.333
239.41	-16.667
239.79	-4.348
240.16	-16.667
240.53	-2.174
240.91	-33.333
241.28	-14.754
241.65	14.925
242.02	9.459
242.40	-9.231
242.77	6.667
243.14	-4.878
243.51	-13.158
243.89	-16.667
244.26	5.941
244.63	-1.961
245.00	0.000
245.38	0.000
245.75	-9.735
246.12	3.175
246.49	-2.326
246.87	5.000
247.24	9.272
247.61	1.316
247.98	2.685
248.36	-3.704
248.73	2.454
249.10	0.000
249.47	8.955
249.84	9.948
250.22	1.554
250.59	3.333
250.96	8.182
251.33	-3.061
251.70	10.684
252.08	6.667
252.45	6.557
252.82	2.479
253.19	2.344
253.56	6.084
253.94	5.769
254.31	7.955
254.68	10.490
255.05	5.537
255.42	3.741
255.79	6.796
256.16	6.291
256.54	6.623
256.91	3.934
257.28	3.934
257.65	5.732
258.02	3.835
258.39	8.262
258.76	9.174
259.14	12.356
259.51	5.187
259.88	5.099
260.25	4.444
260.62	8.767
260.99	11.749
261.36	10.188
261.73	3.183
262.10	5.769
262.47	4.826
262.85	8.333
263.22	5.974
263.59	2.368
263.96	8.440
264.33	6.650
264.70	6.173
265.07	8.115
265.44	8.163
265.81	4.861
266.18	7.483
266.55	7.366
266.92	2.733
267.29	8.096
267.66	5.987
268.03	7.424
268.40	6.054
268.77	4.556
269.14	5.066
269.51	8.114
269.88	8.197
270.25	7.042
270.62	5.696
270.99	6.667
271.36	8.119
271.73	8.841
272.10	7.816
272.47	6.012
272.84	6.225
273.21	6.413
273.58	6.855
273.95	5.000
274.32	5.703
274.69	5.416
275.06	8.425
275.43	5.545
275.80	7.055
276.17	4.259
276.54	6.530
276.91	5.725
277.28	6.510
277.65	7.361
278.02	6.985
278.39	5.254
278.76	4.921
279.13	6.206
279.50	8.419
279.87	7.513
280.23	5.106
280.60	5.593
280.97	7.072
281.34	5.772
281.71	8.460
282.08	6.977
282.45	6.383
282.82	7.064
283.19	5.331
283.56	7.049
283.92	7.658
284.29	8.689
284.66	8.046
285.03	3.686
285.40	6.801
285.77	4.644
286.14	7.023
286.51	7.915
286.87	7.267
287.24	8.283
287.61	6.726
287.98	5.287
288.35	7.249
288.72	7.396
289.08	7.174
289.45	4.586
289.82	6.325
290.19	5.747
290.56	6.479
290.93	6.705
291.29	6.612
291.66	5.096
292.03	6.106
292.40	7.483
292.77	5.660
293.13	6.901
293.50	5.782
293.87	6.174
294.24	6.533
294.60	6.953
294.97	6.711
295.34	6.530
295.71	6.053
296.08	5.426
296.44	6.985
296.81	8.039
297.18	5.479
297.55	5.542
297.91	5.694
298.28	5.332
298.65	5.945
299.02	5.903
299.38	6.522
299.75	5.958
300.12	5.440
300.48	6.221
300.85	6.074
301.22	7.718
301.59	7.078
301.95	6.667
302.32	6.556
302.69	6.572
303.05	7.399
303.42	6.430
303.79	4.792
304.15	7.150
304.52	6.977
304.89	6.178
305.25	6.832
305.62	5.852
305.99	8.557
306.35	5.544
306.72	6.515
307.09	5.482
307.45	6.832
307.82	6.660
308.19	6.761
308.55	7.136
308.92	6.426
309.29	6.609
309.65	5.848
310.02	7.426
310.38	7.283
310.75	7.573
311.12	8.917
311.48	7.625
311.85	7.882
312.22	7.306
312.58	8.732
312.95	8.317
313.31	7.949
313.68	8.608
314.05	9.575
314.41	9.107
314.78	7.993
315.14	9.891
315.51	9.880
315.87	9.361
316.24	10.046
316.61	10.924
316.97	10.498
317.34	8.642
317.70	10.655
318.07	10.317
318.43	10.374
318.80	11.288
319.16	10.815
319.53	10.368
319.89	10.342
320.26	11.210
320.62	10.638
320.99	12.188
321.35	11.275
321.72	12.279
322.08	10.280
322.45	11.924
322.81	12.274
323.18	12.832
323.54	12.155
323.91	12.811
324.27	12.823
324.64	13.014
325.00	12.521
325.37	12.531
325.73	12.727
326.10	13.950
326.46	13.518
326.83	12.410
327.19	12.598
327.56	13.992
327.92	13.847
328.29	12.661
328.65	12.898
329.01	14.129
329.38	15.080
329.74	14.812
330.11	14.041
330.47	13.142
330.84	13.695
331.20	13.667
331.56	14.125
331.93	14.812
332.29	15.169
332.66	14.535
333.02	13.400
333.38	12.836
333.75	14.226
334.11	13.678
334.48	14.026
334.84	14.444
335.20	13.602
335.57	15.261
335.93	13.802
336.29	13.478
336.66	14.634
337.02	14.298
337.38	13.776
337.75	13.802
338.11	15.307
338.47	14.806
338.84	13.367
339.20	14.575
339.56	13.509
339.93	14.943
340.29	14.010
340.65	14.112
341.02	13.807
341.38	14.470
341.74	12.833
342.11	14.240
342.47	13.344
342.83	14.573
343.20	13.818
343.56	14.675
343.92	14.331
344.28	13.828
344.65	14.651
345.01	14.041
345.37	14.541
345.73	12.627
346.10	14.665
346.46	14.003
346.82	13.633
347.19	14.744
347.55	14.492
347.91	14.487
348.27	14.340
348.63	13.938
349.00	14.094
349.36	14.126
349.72	14.509
350.08	14.562
350.45	13.080
350.81	13.348
351.17	14.361
351.53	13.798
351.89	15.034
352.26	13.955
352.62	14.328
352.98	12.824
353.34	14.190
353.70	14.792
354.07	14.531
354.43	13.212
354.79	13.089
355.15	13.613
355.51	14.547
355.87	13.239
356.24	14.601
356.60	13.895
356.96	13.491
357.32	13.978
357.68	13.177
358.04	14.296
358.40	12.836
358.77	14.839
359.13	12.482
359.49	13.383
359.85	13.488
360.21	13.343
360.57	13.927
360.93	13.399
361.29	14.386
361.66	14.337
362.02	14.196
362.38	13.633
362.74	13.547
363.10	13.961
363.46	14.197
363.82	13.423
364.18	13.723
364.54	13.831
364.90	14.649
365.26	13.793
365.62	15.133
365.98	13.887
366.35	14.497
366.71	13.878
367.07	14.411
367.43	14.380
367.79	14.599
368.15	14.381
368.51	14.073
368.87	14.566
369.23	14.200
369.59	14.617
369.95	13.387
370.31	14.315
370.67	14.580
371.03	14.127
371.39	13.633
371.75	13.205
372.11	14.905
372.47	13.879
372.83	14.071
373.19	14.209
373.55	13.821
373.91	13.770
374.27	15.265
374.63	14.276
374.99	13.660
375.35	15.000
375.71	14.065
376.07	13.880
376.42	14.484
376.78	15.103
377.14	13.911
377.50	13.978
377.86	14.840
378.22	14.192
378.58	14.685
378.94	14.378
379.30	14.353
379.66	14.815
380.02	14.945
380.38	15.150
380.74	14.592
381.09	15.041
381.45	15.511
381.81	15.515
382.17	15.024
382.53	14.386
382.89	14.786
383.25	14.420
383.61	14.410
383.97	14.723
384.32	15.132
384.68	13.979
385.04	15.038
385.40	15.380
385.76	14.947
386.12	14.542
386.48	14.941
386.83	15.316
387.19	14.832
387.55	14.085
387.91	15.011
388.27	14.781
388.62	14.490
388.98	14.100
389.34	15.262
389.70	15.166
390.06	14.624
390.42	15.060
390.77	15.172
391.13	15.082
391.49	14.795
391.85	14.303
392.20	14.947
392.56	15.062
392.92	15.104
393.28	14.373
393.64	14.860
393.99	15.107
394.35	15.829
394.71	15.689
395.07	14.251
395.42	15.077
395.78	15.296
396.14	15.508
396.50	14.549
396.85	14.729
397.21	15.148
397.57	15.430
397.92	14.548
398.28	14.503
398.64	15.217
399.00	14.660
399.35	15.026
399.71	14.674
400.07	14.823
400.42	14.552
400.78	15.046
401.14	14.969
401.49	15.122
401.85	15.058
402.21	14.832
402.57	14.613
402.92	14.657
403.28	14.227
403.63	14.081
403.99	15.321
404.35	15.520
404.70	14.788
405.06	14.620
405.42	14.813
405.77	14.667
406.13	14.263
406.49	14.809
406.84	15.180
407.20	14.477
407.55	14.597
407.91	13.765
408.27	14.429
408.62	15.183
408.98	14.393
409.34	13.900
409.69	13.659
410.05	14.947
410.40	14.211
410.76	14.246
411.11	14.378
411.47	14.066
411.83	14.932
412.18	14.819
412.54	14.049
412.89	14.203
413.25	14.391
413.60	14.015
413.96	14.103
414.31	14.674
414.67	14.073
415.03	13.969
415.38	14.124
415.74	13.867
416.09	13.880
416.45	14.089
416.80	13.280
417.16	13.218
417.51	14.072
417.87	13.489
418.22	14.790
418.58	13.073
418.93	14.377
419.29	13.440
419.64	14.286
420.00	14.184
420.35	14.037
420.71	13.555
421.06	13.456
421.42	14.622
421.77	13.947
422.12	12.949
422.48	13.825
422.83	14.458
423.19	12.838
423.54	13.164
423.90	12.921
424.25	12.907
424.61	13.433
424.96	13.180
425.31	13.747
425.67	13.366
426.02	13.171
426.38	13.662
426.73	13.114
427.09	13.725
427.44	12.725
427.79	12.991
428.15	12.614
428.50	12.697
428.85	12.457
429.21	13.511
429.56	13.228
429.92	12.727
430.27	13.012
430.62	13.092
430.98	13.527
431.33	12.463
431.68	12.308
432.04	13.205
432.39	13.498
432.74	12.614
433.10	13.467
433.45	12.263
433.80	13.036
434.16	12.862
434.51	12.436
434.86	12.758
435.22	12.380
435.57	12.854
435.92	12.910
436.28	12.628
436.63	12.725
436.98	12.453
437.34	11.781
437.69	12.108
438.04	12.374
438.39	11.717
438.75	12.396
439.10	12.791
439.45	12.186
439.81	12.090
440.16	12.225
440.51	12.988
440.86	12.229
441.22	11.951
441.57	12.212
441.92	11.736
442.27	12.323
442.63	12.270
442.98	12.380
443.33	11.888
443.68	12.884
444.03	12.465
444.39	12.991
444.74	12.404
445.09	12.266
445.44	12.276
445.79	12.596
446.15	12.950
446.50	11.990
446.85	11.722
447.20	12.621
447.55	12.291
447.91	11.675
448.26	11.734
448.61	12.062
448.96	12.232
449.31	11.612
449.66	11.765
450.02	11.867
450.37	13.159
450.72	11.356
451.07	11.959
451.42	11.612
451.77	11.840
452.12	12.133
452.47	11.705
452.83	12.275
453.18	10.917
453.53	11.545
453.88	10.768
454.23	12.090
454.58	11.840
454.93	11.408
455.28	12.703
455.63	11.597
455.98	11.564
456.34	11.661
456.69	10.935
457.04	11.170
457.39	11.419
457.74	12.025
458.09	10.983
458.44	11.853
458.79	11.294
459.14	10.593
459.49	10.526
459.84	11.333
460.19	11.216
460.54	11.528
460.89	11.488
461.24	10.805
461.59	11.677
461.94	10.610
462.29	10.974
462.64	10.863
462.99	10.797
463.34	11.486
463.69	11.313
464.04	11.673
464.39	10.426
464.74	10.262
465.09	10.265
465.44	10.622
465.79	10.788
466.14	10.839
466.49	11.211
466.84	10.689
467.19	10.231
467.54	10.458
467.89	10.402
468.24	10.028
468.59	10.828
468.94	9.965
469.29	10.078
469.64	9.663
469.99	10.453
470.34	11.015
470.68	9.843
471.03	10.740
471.38	10.072
471.73	10.533
472.08	10.343
472.43	9.874
472.78	10.705
473.13	9.861
473.48	10.695
473.83	9.518
474.17	10.258
474.52	9.381
474.87	10.520
475.22	9.577
475.57	10.748
475.92	9.557
476.27	9.744
476.61	9.398
476.96	9.333
477.31	10.050
477.66	10.126
478.01	9.964
478.36	10.419
478.70	9.655
479.05	9.918
479.40	9.724
479.75	9.510
480.10	9.664
480.45	9.708
480.79	10.113
481.14	10.156
481.49	9.314
481.84	9.835
482.19	9.677
482.53	10.101
482.88	9.304
483.23	9.560
483.58	8.821
483.92	9.220
484.27	9.526
484.62	9.282
484.97	9.914
485.31	9.468
485.66	9.506
486.01	9.141
486.36	9.353
486.70	9.698
487.05	9.964
487.40	10.193
487.75	9.618
488.09	10.059
488.44	9.772
488.79	10.051
489.13	10.101
489.48	9.204
489.83	9.618
490.17	8.829
490.52	9.113
490.87	9.137
491.22	9.055
491.56	9.172
491.91	8.766
492.26	9.736
492.60	8.570
492.95	9.039
493.30	9.368
493.64	9.155
493.99	8.684
494.34	8.754
494.68	8.737
495.03	8.767
495.37	8.921
495.72	8.934
496.07	9.422
496.41	8.966
496.76	8.882
497.11	8.832
497.45	8.891
497.80	9.196
498.14	9.206
498.49	8.594
498.84	8.638
499.18	8.457
499.53	8.700
499.87	9.187
500.22	8.326
500.56	8.187
500.91	8.375
501.26	9.273
501.60	8.440
501.95	9.119
502.29	8.381
502.64	8.876
502.98	8.585
503.33	8.078
503.67	8.112
504.02	8.757
504.36	9.071
504.71	8.406
505.06	7.776
505.40	8.821
505.75	8.698
506.09	8.656
506.44	8.449
506.78	8.624
507.13	8.806
507.47	8.290
507.82	8.523
508.16	7.744
508.51	8.345
508.85	8.503
509.19	8.432
509.54	8.021
509.88	7.576
510.23	7.819
510.57	8.507
510.92	8.031
511.26	8.658
511.61	7.533
511.95	8.102
512.30	8.223
512.64	8.196
512.98	7.854
513.33	8.468
513.67	8.108
514.02	8.533
514.36	7.417
514.70	8.646
515.05	8.238
515.39	8.399
515.74	8.537
516.08	8.241
516.42	8.268
516.77	7.624
517.11	7.427
517.46	8.431
517.80	8.391
518.14	8.542
518.49	7.646
518.83	8.462
519.17	7.862
519.52	7.547
519.86	7.709
520.20	8.094
520.55	8.160
520.89	8.559
521.23	7.873
521.58	8.023
521.92	7.649
522.26	8.133
522.61	7.986
522.95	7.382
523.29	7.529
523.64	7.848
523.98	7.986
524.32	7.851
524.66	7.911
525.01	7.644
525.35	7.582
525.69	6.961
526.04	7.405
526.38	7.759
526.72	8.189
527.06	8.035
527.41	8.163
527.75	8.432
528.09	8.264
528.43	7.519
528.78	6.879
529.12	7.282
529.46	7.364
529.80	7.265
530.15	8.406
530.49	6.821
530.83	7.379
531.17	7.587
531.51	7.461
531.86	7.873
532.20	8.415
532.54	6.463
532.88	7.333
533.22	7.720
533.57	7.559
533.91	7.856
534.25	7.575
534.59	7.126
534.93	7.131
535.27	7.042
535.62	8.471
535.96	7.960
536.30	7.109
536.64	7.207
536.98	7.934
537.32	8.086
537.66	7.923
538.01	7.855
538.35	7.674
538.69	7.632
539.03	7.664
539.37	7.833
539.71	8.168
540.05	7.914
540.39	6.968
540.73	7.286
541.07	7.357
541.42	7.915
541.76	6.702
542.10	7.539
542.44	7.125
542.78	7.421
543.12	7.688
543.46	7.875
543.80	6.415
544.14	7.600
544.48	7.092
544.82	7.540
545.16	7.931
545.50	7.490
545.84	7.655
546.18	8.457
546.52	7.070
546.86	7.736
547.20	6.934
547.54	7.553
547.88	7.354
548.22	7.778
548.56	6.846
548.90	7.284
549.24	7.538
549.58	7.760
549.92	7.207
550.26	7.443
550.60	8.041
550.94	8.279
551.28	7.591
551.62	6.941
551.96	6.796
552.30	7.266
552.64	7.156
552.98	6.925
553.32	7.074
553.66	7.588
554.00	7.755
554.34	6.821
554.68	7.553
555.02	6.570
555.36	7.824
555.69	6.342
556.03	7.377
556.37	7.071
556.71	6.912
557.05	7.157
557.39	7.034
557.73	7.001
558.07	5.828
558.41	7.375
558.75	7.302
559.08	6.611
559.42	6.104
559.76	7.395
560.10	7.234
560.44	7.454
560.78	6.875
561.12	6.527
561.45	7.360
561.79	7.448
562.13	6.778
562.47	6.597
562.81	6.962
563.15	6.818
563.48	7.023
563.82	7.255
564.16	6.844
564.50	7.628
564.84	6.667
565.17	6.706
565.51	6.904
565.85	6.591
566.19	7.200
566.52	6.846
566.86	7.244
567.20	6.634
567.54	7.010
567.88	6.983
568.21	7.559
568.55	7.242
568.89	7.308
569.23	7.774
569.56	7.151
569.90	7.591
570.24	7.285
570.57	7.344
570.91	6.767
571.25	6.827
571.59	7.654
571.92	7.276
572.26	7.597
572.60	7.535
572.93	7.542
573.27	7.249
573.61	7.544
573.95	7.453
574.28	7.405
574.62	6.958
574.96	7.322
575.29	7.314
575.63	7.461
575.97	7.593
576.30	7.451
576.64	7.206
576.98	7.335
577.31	7.468
577.65	7.615
577.98	7.398
578.32	7.299
578.66	7.143
578.99	7.352
579.33	7.492
579.67	7.253
580.00	7.530
580.34	7.526
580.67	7.370
581.01	7.529
581.35	7.500
581.68	7.524
582.02	7.541
582.35	7.711
582.69	7.441
583.02	7.662
583.36	7.681
583.70	7.430
584.03	7.679
584.37	7.726
584.70	7.457
585.04	7.254
585.37	7.137
585.71	7.573
586.04	7.618
586.38	7.916
586.72	7.320
587.05	7.061
587.39	7.230
587.72	7.392
588.06	7.616
588.39	7.394
588.73	7.381
589.06	7.477
589.40	7.099
589.73	7.359
590.07	7.759
590.40	7.404
590.73	7.246
591.07	7.856
591.40	7.271
591.74	7.512
592.07	7.471
592.41	7.334
592.74	7.029
593.08	7.229
593.41	7.378
593.75	6.925
594.08	7.210
594.41	7.083
594.75	7.307
595.08	6.965
595.42	6.883
595.75	7.556
596.09	7.048
596.42	7.309
596.75	7.256
597.09	7.879
597.42	7.112
597.75	7.134
598.09	7.024
598.42	7.157
598.76	6.725
599.09	6.978
599.42	6.604
599.76	7.164
600.09	7.241
600.42	7.508
600.76	7.232
601.09	7.136
601.42	6.934
601.76	7.138
602.09	6.683
602.42	6.616
602.76	7.601
603.09	7.342
603.42	7.153
603.76	6.801
604.09	7.630
604.42	7.193
604.76	7.002
605.09	6.861
605.42	7.337
605.75	7.346
606.09	6.980
606.42	6.822
606.75	6.709
607.09	6.567
607.42	7.514
607.75	7.268
608.08	6.709
608.42	7.094
608.75	7.131
609.08	6.749
609.41	7.322
609.75	6.830
610.08	7.212
610.41	6.415
610.74	6.933
611.07	6.794
611.41	7.489
611.74	6.790
612.07	7.106
612.40	6.464
612.73	6.406
613.07	7.286
613.40	7.122
613.73	6.789
614.06	7.066
614.39	7.240
614.72	6.647
615.06	6.545
615.39	6.283
615.72	6.967
616.05	7.188
616.38	7.215
616.71	7.106
617.05	6.656
617.38	7.437
617.71	6.965
618.04	7.232
618.37	7.104
618.70	6.278
619.03	6.093
619.36	7.152
619.69	6.406
620.03	6.717
620.36	7.362
620.69	7.033
621.02	6.562
621.35	6.967
621.68	7.231
622.01	6.121
622.34	5.509
622.67	6.735
623.00	5.398
623.33	7.299
623.66	6.226
623.99	6.122
624.32	7.407
624.65	6.435
624.99	6.892
625.32	7.773
625.65	6.541
625.98	6.034
626.31	6.662
626.64	6.960
626.97	6.452
627.30	6.454
627.63	6.302
627.96	7.508
628.29	7.704
628.62	5.626
628.95	7.099
629.28	4.673
629.61	6.734
629.94	6.360
630.26	6.186
630.59	6.131
630.92	5.195
631.25	6.619
631.58	6.026
631.91	6.467
632.24	6.532
632.57	5.882
632.90	5.216
633.23	6.224
633.56	6.327
633.89	5.992
634.22	6.861
634.55	5.532
634.88	6.385
635.20	7.212
635.53	5.198
635.86	5.959
636.19	6.787
636.52	5.907
636.85	6.027
637.18	6.029
637.51	5.376
637.83	6.755
638.16	5.645
638.49	5.634
638.82	6.201
639.15	6.300
639.48	6.005
639.81	5.543
640.13	6.832
640.46	4.727
640.79	5.392
641.12	6.832
641.45	5.019
641.77	7.189
642.10	4.462
642.43	5.186
642.76	5.149
643.09	5.068
643.41	3.782
643.74	5.379
644.07	4.552
644.40	5.941
644.73	4.790
645.05	3.084
645.38	7.050
645.71	5.718
646.04	7.604
646.36	5.109
646.69	6.902
647.02	6.269
