SpectraSuite Data File
++++++++++++++++++++++++++++++++++++
Date: Thu May 14 16:10:24 PDT 2015
User: schluterlab
Dark Spectrum Present: Yes
Reference Spectrum Present: Yes
Number of Sampled Component Spectra: 1
Spectrometers: USB2E3373
Integration Time (usec): 3000 (USB2E3373)
Spectra Averaged: 3 (USB2E3373)
Boxcar Smoothing: 0 (USB2E3373)
Correct for Electrical Dark: No (USB2E3373)
Strobe/Lamp Enabled: No (USB2E3373)
Correct for Detector Non-linearity: No (USB2E3373)
Correct for Stray Light: No (USB2E3373)
Number of Pixels in Processed Spectrum: 2048
>>>>>Begin Processed Spectral Data<<<<<
178.53	0.000
178.91	171.429
179.29	-1600.000
179.67	-900.000
180.04	164.286
180.42	60.000
180.80	400.000
181.18	-1400.000
181.56	200.000
181.94	250.000
182.31	-250.000
182.69	200.000
183.07	-400.000
183.45	100.000
183.83	-133.333
184.20	-233.333
184.58	700.000
184.96	-350.000
185.34	-133.333
185.72	40.000
186.09	188.889
186.47	1000.000
186.85	320.000
187.23	-133.333
187.61	-2200.000
187.98	120.000
188.36	425.000
188.74	-150.000
189.12	-33.333
189.49	-37.500
189.87	-187.500
190.25	0.000
190.63	-100.000
191.00	-155.556
191.38	0.000
191.76	-200.000
192.14	-183.333
192.51	400.000
192.89	-133.333
193.27	0.000
193.65	-71.429
194.02	-1200.000
194.40	-85.714
194.78	200.000
195.15	0.000
195.53	-54.545
195.91	0.000
196.29	-25.000
196.66	-30.769
197.04	-1000.000
197.42	-142.857
197.79	-500.000
198.17	-50.000
198.55	-157.143
198.92	22.222
199.30	-137.500
199.68	-36.364
200.05	-14.286
200.43	-550.000
200.81	328.571
201.18	0.000
201.56	222.222
201.94	0.000
202.31	266.667
202.69	-122.222
203.07	1000.000
203.44	-66.667
203.82	-375.000
204.19	16.667
204.57	-133.333
204.95	-200.000
205.32	-1700.000
205.70	325.000
206.08	-266.667
206.45	-216.667
206.83	380.000
207.20	-33.333
207.58	-340.000
207.96	-233.333
208.33	100.000
208.71	91.667
209.08	-66.667
209.46	0.000
209.84	416.667
210.21	150.000
210.59	-50.000
210.96	500.000
211.34	150.000
211.71	-150.000
212.09	-1800.000
212.46	0.000
212.84	850.000
213.22	-360.000
213.59	-225.000
213.97	-80.000
214.34	-33.333
214.72	250.000
215.09	-225.000
215.47	0.000
215.84	114.286
216.22	1050.000
216.59	-160.000
216.97	-120.000
217.34	-275.000
217.72	-125.000
218.09	-350.000
218.47	-225.000
218.84	0.000
219.22	120.000
219.59	0.000
219.97	-65.000
220.34	900.000
220.72	-211.111
221.09	-30.769
221.47	-133.333
221.84	-80.000
222.22	-171.429
222.59	0.000
222.97	-25.000
223.34	-340.000
223.72	-1300.000
224.09	-425.000
224.46	-400.000
224.84	-160.000
225.21	-100.000
225.59	-275.000
225.96	-475.000
226.34	0.000
226.71	350.000
227.08	-550.000
227.46	-40.000
227.83	25.000
228.21	10.526
228.58	187.500
228.95	400.000
229.33	-33.333
229.70	-120.000
230.08	63.158
230.45	190.000
230.82	-433.333
231.20	-7.143
231.57	16.667
231.95	-36.364
232.32	-9.091
232.69	-30.000
233.07	-125.000
233.44	11.765
233.81	-10.000
234.19	44.444
234.56	-31.818
234.93	-6.897
235.31	-26.316
235.68	-27.778
236.05	-80.000
236.43	19.231
236.80	20.000
237.17	14.815
237.55	15.152
237.92	40.000
238.29	-9.677
238.67	0.000
239.04	0.000
239.41	-11.905
239.79	4.348
240.16	3.704
240.53	-6.522
240.91	-21.569
241.28	0.000
241.65	14.925
242.02	24.324
242.40	6.154
242.77	-1.333
243.14	14.634
243.51	6.579
243.89	10.256
244.26	15.842
244.63	18.627
245.00	14.953
245.38	17.544
245.75	9.735
246.12	12.698
246.49	16.279
246.87	16.429
247.24	15.894
247.61	23.026
247.98	25.503
248.36	16.049
248.73	17.178
249.10	15.847
249.47	23.881
249.84	26.702
250.22	18.135
250.59	21.667
250.96	25.455
251.33	18.367
251.70	20.513
252.08	18.750
252.45	24.180
252.82	16.942
253.19	17.969
253.56	23.194
253.94	20.385
254.31	19.318
254.68	25.175
255.05	21.824
255.42	19.728
255.79	19.741
256.16	22.185
256.54	19.868
256.91	20.328
257.28	19.672
257.65	19.108
258.02	20.649
258.39	23.932
258.76	26.300
259.14	26.724
259.51	22.190
259.88	20.680
260.25	21.111
260.62	22.740
260.99	25.410
261.36	25.469
261.73	23.342
262.10	23.077
262.47	21.716
262.85	25.253
263.22	22.338
263.59	20.000
263.96	21.739
264.33	21.228
264.70	23.951
265.07	25.537
265.44	24.490
265.81	21.991
266.18	21.769
266.55	21.205
266.92	21.868
267.29	24.726
267.66	21.729
268.03	22.271
268.40	22.129
268.77	22.551
269.14	20.044
269.51	24.123
269.88	24.180
270.25	19.718
270.62	25.316
270.99	25.859
271.36	22.376
271.73	24.754
272.10	24.048
272.47	25.050
272.84	19.076
273.21	23.848
273.58	20.968
273.95	21.346
274.32	21.673
274.69	22.631
275.06	21.795
275.43	20.148
275.80	23.986
276.17	20.185
276.54	22.201
276.91	20.036
277.28	22.604
277.65	23.519
278.02	23.897
278.39	22.101
278.76	20.914
279.13	22.518
279.50	23.540
279.87	22.182
280.23	18.662
280.60	23.390
280.97	22.368
281.34	22.241
281.71	22.504
282.08	22.093
282.45	23.241
282.82	21.036
283.19	19.709
283.56	20.984
283.92	23.724
284.29	24.013
284.66	23.317
285.03	19.872
285.40	21.484
285.77	22.910
286.14	21.527
286.51	22.374
286.87	21.169
287.24	23.042
287.61	22.272
287.98	21.148
288.35	21.302
288.72	21.006
289.08	22.548
289.45	19.675
289.82	19.880
290.19	21.695
290.56	20.845
290.93	19.401
291.29	20.661
291.66	19.697
292.03	18.453
292.40	19.864
292.77	18.598
293.13	19.350
293.50	18.922
293.87	19.329
294.24	20.933
294.60	19.848
294.97	16.779
295.34	18.566
295.71	18.537
296.08	17.442
296.44	18.137
296.81	17.905
297.18	18.182
297.55	17.689
297.91	18.031
298.28	15.995
298.65	18.549
299.02	17.828
299.38	18.078
299.75	16.822
300.12	18.634
300.48	16.820
300.85	19.348
301.22	19.463
301.59	16.553
301.95	17.514
302.32	17.667
302.69	17.415
303.05	16.540
303.42	17.073
303.79	18.125
304.15	17.245
304.52	16.385
304.89	17.906
305.25	17.391
305.62	17.555
305.99	18.351
306.35	17.440
306.72	17.477
307.09	16.244
307.45	19.048
307.82	18.567
308.19	16.347
308.55	18.226
308.92	18.403
309.29	18.582
309.65	18.519
310.02	18.713
310.38	17.913
310.75	18.835
311.12	19.367
311.48	20.528
311.85	18.803
312.22	18.311
312.58	20.000
312.95	19.598
313.31	20.145
313.68	20.879
314.05	21.771
314.41	21.676
314.78	21.526
315.14	22.414
315.51	20.591
315.87	22.502
316.24	22.557
316.61	23.002
316.97	23.258
317.34	24.515
317.70	25.677
318.07	25.661
318.43	25.595
318.80	26.672
319.16	25.665
319.53	25.364
319.89	27.520
320.26	26.868
320.62	27.571
320.99	29.640
321.35	29.482
321.72	31.163
322.08	29.757
322.45	32.159
322.81	30.144
323.18	32.035
323.54	31.897
323.91	33.808
324.27	33.563
324.64	35.013
325.00	36.070
325.37	36.691
325.73	36.860
326.10	39.740
326.46	39.658
326.83	41.393
327.19	40.787
327.56	41.344
327.92	40.677
328.29	42.419
328.65	41.457
329.01	44.078
329.38	44.229
329.74	45.719
330.11	45.377
330.47	45.746
330.84	45.736
331.20	46.333
331.56	47.140
331.93	47.950
332.29	48.475
332.66	48.837
333.02	47.906
333.38	48.070
333.75	49.327
334.11	49.291
334.48	49.670
334.84	50.892
335.20	49.034
335.57	50.084
335.93	50.248
336.29	50.333
336.66	49.117
337.02	49.749
337.38	49.915
337.75	50.826
338.11	52.565
338.47	49.711
338.84	51.438
339.20	49.874
339.56	50.247
339.93	50.575
340.29	50.322
340.65	51.825
341.02	51.157
341.38	51.576
341.74	52.058
342.11	51.971
342.47	50.357
342.83	51.449
343.20	51.922
343.56	52.366
343.92	51.641
344.28	52.031
344.65	52.558
345.01	52.574
345.37	51.944
345.73	52.689
346.10	53.432
346.46	52.453
346.82	52.060
347.19	52.941
347.55	53.566
347.91	52.972
348.27	52.883
348.63	53.008
349.00	53.393
349.36	53.011
349.72	52.455
350.08	52.080
350.45	55.589
350.81	52.036
351.17	54.361
351.53	55.497
351.89	54.518
352.26	53.134
352.62	53.209
352.98	55.038
353.34	53.398
353.70	54.777
354.07	53.577
354.43	53.986
354.79	53.702
355.15	53.348
355.51	54.094
355.87	54.600
356.24	54.601
356.60	53.215
356.96	55.745
357.32	53.903
357.68	53.807
358.04	55.240
358.40	55.821
358.77	53.874
359.13	55.096
359.49	54.870
359.85	54.460
360.21	54.878
360.57	53.984
360.93	54.372
361.29	54.737
361.66	55.250
362.02	56.507
362.38	54.954
362.74	55.168
363.10	55.846
363.46	55.679
363.82	56.250
364.18	55.595
364.54	55.602
364.90	55.117
365.26	56.828
365.62	56.067
365.98	56.569
366.35	54.899
366.71	56.190
367.07	56.157
367.43	55.023
367.79	56.005
368.15	56.990
368.51	56.292
368.87	55.323
369.23	55.600
369.59	57.377
369.95	55.308
370.31	57.529
370.67	56.121
371.03	55.679
371.39	56.145
371.75	57.084
372.11	56.640
372.47	56.669
372.83	57.526
373.19	55.771
373.55	56.369
373.91	54.669
374.27	56.274
374.63	56.360
374.99	55.968
375.35	56.234
375.71	56.710
376.07	56.553
376.42	57.557
376.78	57.489
377.14	57.143
377.50	57.432
377.86	55.296
378.22	56.886
378.58	57.372
378.94	56.103
379.30	56.825
379.66	56.496
380.02	56.030
380.38	58.007
380.74	56.282
381.09	57.491
381.45	55.284
381.81	58.255
382.17	57.007
382.53	56.784
382.89	56.433
383.25	57.913
383.61	57.350
383.97	55.889
384.32	57.536
384.68	54.930
385.04	56.796
385.40	57.690
385.76	57.093
386.12	56.792
386.48	57.353
386.83	56.615
387.19	56.315
387.55	56.984
387.91	55.936
388.27	57.275
388.62	55.040
388.98	55.612
389.34	56.629
389.70	56.769
390.06	54.944
390.42	55.060
390.77	56.291
391.13	55.927
391.49	55.737
391.85	56.000
392.20	55.516
392.56	54.400
392.92	54.580
393.28	57.214
393.64	54.581
393.99	56.769
394.35	56.367
394.71	56.886
395.07	55.509
395.42	54.597
395.78	57.038
396.14	56.566
396.50	54.929
396.85	55.456
397.21	55.562
397.57	54.770
397.92	55.498
398.28	55.024
398.64	53.719
399.00	53.822
399.35	54.450
399.71	53.424
400.07	54.913
400.42	54.773
400.78	54.340
401.14	53.273
401.49	55.429
401.85	54.419
402.21	55.041
402.57	54.049
402.92	54.551
403.28	53.981
403.63	53.938
403.99	52.850
404.35	52.359
404.70	52.578
405.06	53.261
405.42	53.923
405.77	54.308
406.13	53.593
406.49	53.829
406.84	51.302
407.20	52.487
407.55	53.907
407.91	51.980
408.27	51.413
408.62	52.880
408.98	52.757
409.34	52.962
409.69	54.512
410.05	52.462
410.40	53.480
410.76	52.720
411.11	52.601
411.47	53.071
411.83	53.674
412.18	53.494
412.54	52.223
412.89	51.746
413.25	52.483
413.60	52.326
413.96	53.147
414.31	50.822
414.67	51.461
415.03	51.631
415.38	51.261
415.74	50.947
416.09	51.018
416.45	50.407
416.80	50.490
417.16	52.107
417.51	51.059
417.87	51.196
418.22	50.599
418.58	50.372
418.93	52.736
419.29	50.986
419.64	51.080
420.00	50.267
420.35	50.870
420.71	50.488
421.06	50.144
421.42	52.007
421.77	49.973
422.12	50.476
422.48	50.845
422.83	51.533
423.19	51.194
423.54	51.327
423.90	50.469
424.25	51.147
424.61	49.713
424.96	51.236
425.31	51.486
425.67	50.564
426.02	50.083
426.38	50.631
426.73	50.446
427.09	50.750
427.44	49.754
427.79	50.083
428.15	49.658
428.50	49.607
428.85	51.206
429.21	51.277
429.56	50.494
429.92	50.418
430.27	50.313
430.62	51.197
430.98	49.385
431.33	50.929
431.68	51.054
432.04	50.330
432.39	49.973
432.74	50.228
433.10	50.676
433.45	48.718
433.80	50.161
434.16	49.380
434.51	51.182
434.86	51.412
435.22	50.372
435.57	51.474
435.92	48.414
436.28	51.195
436.63	51.065
436.98	48.470
437.34	50.113
437.69	49.312
438.04	50.185
438.39	49.684
438.75	50.249
439.10	50.687
439.45	49.357
439.81	49.831
440.16	50.402
440.51	49.554
440.86	49.250
441.22	49.518
441.57	50.367
441.92	49.564
442.27	50.152
442.63	49.478
442.98	50.267
443.33	49.711
443.68	50.050
444.03	50.047
444.39	49.607
444.74	49.260
445.09	47.795
445.44	49.842
445.79	49.282
446.15	48.972
446.50	49.354
446.85	49.514
447.20	49.081
447.55	50.209
447.91	50.052
448.26	49.736
448.61	48.300
448.96	50.536
449.31	49.470
449.66	48.856
450.02	48.840
450.37	48.588
450.72	49.031
451.07	48.633
451.42	49.393
451.77	47.749
452.12	49.266
452.47	47.534
452.83	49.212
453.18	47.402
453.53	47.846
453.88	48.537
454.23	48.136
454.58	48.694
454.93	48.968
455.28	48.164
455.63	48.096
455.98	47.598
456.34	48.645
456.69	48.736
457.04	48.109
457.39	47.173
457.74	48.770
458.09	46.733
458.44	48.276
458.79	46.725
459.14	47.929
459.49	47.538
459.84	48.636
460.19	48.418
460.54	48.438
460.89	47.962
461.24	46.667
461.59	48.091
461.94	45.636
462.29	47.144
462.64	45.987
462.99	46.955
463.34	47.047
463.69	46.073
464.04	47.526
464.39	46.076
464.74	44.869
465.09	46.886
465.44	46.567
465.79	46.959
466.14	46.378
466.49	46.053
466.84	45.950
467.19	45.202
467.54	43.831
467.89	44.540
468.24	44.875
468.59	44.412
468.94	44.464
469.29	43.971
469.64	44.565
469.99	45.443
470.34	44.926
470.68	45.249
471.03	44.532
471.38	44.735
471.73	43.888
472.08	43.845
472.43	44.070
472.78	44.018
473.13	45.638
473.48	43.565
473.83	44.515
474.17	44.431
474.52	44.137
474.87	43.411
475.22	44.056
475.57	42.887
475.92	43.654
476.27	43.610
476.61	43.094
476.96	43.691
477.31	43.465
477.66	43.652
478.01	42.603
478.36	42.722
478.70	42.611
479.05	43.916
479.40	43.040
479.75	42.363
480.10	43.108
480.45	42.981
480.79	42.540
481.14	42.785
481.49	42.481
481.84	42.994
482.19	42.538
482.53	42.108
482.88	42.667
483.23	42.508
483.58	42.052
483.92	41.445
484.27	41.829
484.62	41.749
484.97	41.330
485.31	41.535
485.66	40.616
486.01	42.087
486.36	42.966
486.70	43.288
487.05	42.809
487.40	41.212
487.75	40.789
488.09	40.575
488.44	39.642
488.79	39.292
489.13	39.971
489.48	39.806
489.83	39.759
490.17	39.166
490.52	39.696
490.87	39.129
491.22	40.728
491.56	39.846
491.91	40.078
492.26	40.156
492.60	39.878
492.95	38.964
493.30	38.817
493.64	39.466
493.99	39.254
494.34	39.111
494.68	39.529
495.03	39.559
495.37	39.325
495.72	39.456
496.07	39.089
496.41	37.838
496.76	39.324
497.11	39.108
497.45	38.541
497.80	38.827
498.14	37.642
498.49	38.051
498.84	37.797
499.18	38.327
499.53	38.610
499.87	37.890
500.22	38.914
500.56	38.282
500.91	38.032
501.26	38.136
501.60	37.782
501.95	37.603
502.29	38.219
502.64	38.435
502.98	36.928
503.33	36.890
503.67	36.808
504.02	37.128
504.36	37.846
504.71	37.115
505.06	36.880
505.40	37.340
505.75	36.658
506.09	36.142
506.44	38.022
506.78	37.064
507.13	36.192
507.47	36.239
507.82	36.553
508.16	36.233
508.51	35.584
508.85	37.034
509.19	36.476
509.54	36.071
509.88	36.231
510.23	36.085
510.57	36.781
510.92	36.768
511.26	34.969
511.61	34.428
511.95	35.237
512.30	35.500
512.64	34.983
512.98	34.767
513.33	35.333
513.67	34.829
514.02	35.769
514.36	36.419
514.70	34.740
515.05	36.705
515.39	34.961
515.74	34.995
516.08	34.971
516.42	35.583
516.77	34.858
517.11	34.244
517.46	33.775
517.80	35.061
518.14	35.038
518.49	34.165
518.83	33.795
519.17	33.010
519.52	33.910
519.86	34.847
520.20	34.771
520.55	33.625
520.89	34.009
521.23	34.506
521.58	34.124
521.92	33.258
522.26	32.818
522.61	34.144
522.95	33.852
523.29	34.138
523.64	34.025
523.98	33.714
524.32	34.155
524.66	32.442
525.01	33.579
525.35	32.223
525.69	32.831
526.04	32.377
526.38	33.103
526.72	32.930
527.06	33.842
527.41	33.061
527.75	33.848
528.09	32.704
528.43	31.972
528.78	31.734
529.12	32.282
529.46	32.434
529.80	32.895
530.15	31.826
530.49	32.028
530.83	32.054
531.17	32.497
531.51	32.190
531.86	32.031
532.20	33.415
532.54	31.538
532.88	31.394
533.22	31.939
533.57	30.583
533.91	32.492
534.25	32.052
534.59	32.759
534.93	30.617
535.27	31.211
535.62	32.064
535.96	31.900
536.30	30.905
536.64	32.132
536.98	32.103
537.32	32.099
537.66	31.628
538.01	30.876
538.35	31.608
538.69	30.349
539.03	31.269
539.37	30.271
539.71	30.871
540.05	31.475
540.39	31.479
540.73	30.905
541.07	31.392
541.42	30.183
541.76	29.478
542.10	30.519
542.44	30.390
542.78	31.387
543.12	31.347
543.46	29.853
543.80	30.156
544.14	30.461
544.48	29.905
544.82	31.718
545.16	31.127
545.50	30.437
545.84	30.374
546.18	31.914
546.52	30.255
546.86	29.497
547.20	30.789
547.54	30.150
547.88	30.500
548.22	30.000
548.56	29.140
548.90	29.493
549.24	29.909
549.58	30.915
549.92	29.974
550.26	29.385
550.60	28.909
550.94	29.043
551.28	29.373
551.62	29.178
551.96	28.479
552.30	28.999
552.64	28.874
552.98	29.445
553.32	28.553
553.66	28.939
554.00	28.815
554.34	30.180
554.68	29.245
555.02	29.304
555.36	29.323
555.69	27.803
556.03	28.689
556.37	28.974
556.71	27.394
557.05	28.179
557.39	28.069
557.73	28.336
558.07	29.205
558.41	28.638
558.75	28.059
559.08	28.045
559.42	27.778
559.76	27.612
560.10	28.600
560.44	29.156
560.78	28.312
561.12	28.756
561.45	28.893
561.79	28.083
562.13	28.343
562.47	26.695
562.81	27.152
563.15	26.705
563.48	27.906
563.82	27.570
564.16	27.317
564.50	26.937
564.84	26.844
565.17	28.294
565.51	27.100
565.85	27.613
566.19	26.325
566.52	27.677
566.86	27.617
567.20	26.971
567.54	27.456
567.88	28.491
568.21	28.854
568.55	27.962
568.89	28.597
569.23	28.221
569.56	29.035
569.90	27.833
570.24	28.567
570.57	27.389
570.91	27.373
571.25	27.770
571.59	27.776
571.92	27.639
572.26	27.713
572.60	27.300
572.93	27.275
573.27	26.749
573.61	26.681
573.95	27.604
574.28	27.494
574.62	27.217
574.96	27.106
575.29	26.504
575.63	26.611
575.97	27.377
576.30	26.178
576.64	26.891
576.98	26.788
577.31	27.135
577.65	27.033
577.98	27.071
578.32	26.218
578.66	26.800
578.99	26.336
579.33	26.234
579.67	25.657
580.00	25.849
580.34	26.396
580.67	25.949
581.01	26.049
581.35	26.320
581.68	27.028
582.02	26.938
582.35	27.442
582.69	26.685
583.02	26.481
583.36	26.453
583.70	25.540
584.03	25.894
584.37	25.426
584.70	25.721
585.04	25.413
585.37	26.293
585.71	26.688
586.04	26.398
586.38	25.998
586.72	25.646
587.05	26.017
587.39	25.904
587.72	26.268
588.06	25.653
588.39	25.268
588.73	25.556
589.06	25.113
589.40	25.323
589.73	24.968
590.07	25.464
590.40	25.828
590.73	25.345
591.07	25.577
591.40	25.156
591.74	25.278
592.07	25.010
592.41	25.237
592.74	25.133
593.08	25.732
593.41	25.809
593.75	25.460
594.08	25.114
594.41	25.417
594.75	24.942
595.08	24.495
595.42	24.968
595.75	24.669
596.09	25.347
596.42	25.403
596.75	24.431
597.09	24.929
597.42	24.315
597.75	24.422
598.09	24.841
598.42	25.010
598.76	23.653
599.09	24.920
599.42	24.338
599.76	24.497
600.09	24.925
600.42	24.958
600.76	24.538
601.09	23.996
601.42	24.065
601.76	24.241
602.09	23.838
602.42	24.573
602.76	23.985
603.09	24.339
603.42	24.314
603.76	24.278
604.09	25.124
604.42	24.000
604.76	24.201
605.09	24.372
605.42	24.522
605.75	23.538
606.09	23.815
606.42	23.787
606.75	23.801
607.09	23.195
607.42	24.470
607.75	23.994
608.08	23.717
608.42	23.861
608.75	23.673
609.08	23.896
609.41	23.776
609.75	24.018
610.08	24.099
610.41	23.874
610.74	23.992
611.07	23.446
611.41	23.274
611.74	23.880
612.07	24.310
612.40	23.289
612.73	23.619
613.07	23.325
613.40	23.340
613.73	23.640
614.06	24.436
614.39	23.712
614.72	23.193
615.06	23.532
615.39	22.958
615.72	22.938
616.05	22.729
616.38	23.966
616.71	23.929
617.05	22.524
617.38	23.542
617.71	23.650
618.04	22.396
618.37	23.497
618.70	22.964
619.03	22.461
619.36	22.688
619.69	22.998
620.03	23.352
620.36	22.822
620.69	23.257
621.02	23.753
621.35	24.020
621.68	24.223
622.01	22.420
622.34	21.757
622.67	22.337
623.00	21.997
623.33	22.760
623.66	23.281
623.99	22.317
624.32	23.912
624.65	22.523
624.99	23.862
625.32	23.710
625.65	23.129
625.98	22.441
626.31	22.962
626.64	22.564
626.97	23.181
627.30	21.868
627.63	21.530
627.96	23.799
628.29	23.191
628.62	23.258
628.95	21.823
629.28	20.476
629.61	21.801
629.94	21.925
630.26	21.271
630.59	21.416
630.92	20.693
631.25	22.987
631.58	21.751
631.91	22.118
632.24	22.094
632.57	22.201
