SpectraSuite Data File
++++++++++++++++++++++++++++++++++++
Date: Thu May 14 15:50:23 PDT 2015
User: schluterlab
Dark Spectrum Present: Yes
Reference Spectrum Present: Yes
Number of Sampled Component Spectra: 1
Spectrometers: USB2E3373
Integration Time (usec): 3000 (USB2E3373)
Spectra Averaged: 3 (USB2E3373)
Boxcar Smoothing: 0 (USB2E3373)
Correct for Electrical Dark: No (USB2E3373)
Strobe/Lamp Enabled: No (USB2E3373)
Correct for Detector Non-linearity: No (USB2E3373)
Correct for Stray Light: No (USB2E3373)
Number of Pixels in Processed Spectrum: 2048
>>>>>Begin Processed Spectral Data<<<<<
178.53	0.000
178.91	714.286
179.29	-5600.000
179.67	-4000.000
180.04	428.571
180.42	470.000
180.80	920.000
181.18	-4000.000
181.56	-3100.000
181.94	1350.000
182.31	-1225.000
182.69	1533.333
183.07	-2300.000
183.45	1225.000
183.83	-816.667
184.20	-1333.333
184.58	4700.000
184.96	-1325.000
185.34	-422.222
185.72	-760.000
186.09	555.556
186.47	2400.000
186.85	1020.000
187.23	-544.444
187.61	-4400.000
187.98	880.000
188.36	1325.000
188.74	-1200.000
189.12	-1566.667
189.49	-231.250
189.87	-637.500
190.25	-433.333
190.63	-680.000
191.00	-544.444
191.38	0.000
191.76	-1300.000
192.14	-683.333
192.51	2000.000
192.89	-750.000
193.27	0.000
193.65	-457.143
194.02	-5000.000
194.40	-600.000
194.78	628.571
195.15	0.000
195.53	-290.909
195.91	0.000
196.29	-1025.000
196.66	-307.692
197.04	-4200.000
197.42	-714.286
197.79	-2800.000
198.17	-412.500
198.55	-542.857
198.92	-422.222
199.30	-525.000
199.68	-300.000
200.05	-228.571
200.43	-2150.000
200.81	714.286
201.18	0.000
201.56	644.444
201.94	0.000
202.31	1800.000
202.69	-588.889
203.07	3300.000
203.44	-433.333
203.82	-1175.000
204.19	-266.667
204.57	-616.667
204.95	-550.000
205.32	-4600.000
205.70	1125.000
206.08	-550.000
206.45	-616.667
206.83	1060.000
207.20	-583.333
207.58	-980.000
207.96	-833.333
208.33	-633.333
208.71	383.333
209.08	-500.000
209.46	0.000
209.84	750.000
210.21	2250.000
210.59	2150.000
210.96	1700.000
211.34	-850.000
211.71	-537.500
212.09	-4500.000
212.46	0.000
212.84	2350.000
213.22	-940.000
213.59	-975.000
213.97	-340.000
214.34	-1533.333
214.72	683.333
215.09	-1100.000
215.47	0.000
215.84	642.857
216.22	2050.000
216.59	-800.000
216.97	-980.000
217.34	-1125.000
217.72	-475.000
218.09	-1100.000
218.47	-1350.000
218.84	0.000
219.22	800.000
219.59	-211.765
219.97	-145.000
220.34	2300.000
220.72	-455.556
221.09	-269.231
221.47	-1533.333
221.84	-340.000
222.22	-557.143
222.59	0.000
222.97	-487.500
223.34	-1100.000
223.72	-5100.000
224.09	-950.000
224.46	-1225.000
224.84	-720.000
225.21	-671.429
225.59	-1000.000
225.96	-975.000
226.34	-134.615
226.71	750.000
227.08	-2500.000
227.46	-260.000
227.83	-1075.000
228.21	-189.474
228.58	537.500
228.95	2250.000
229.33	-300.000
229.70	-420.000
230.08	-115.789
230.45	450.000
230.82	-1333.333
231.20	-307.143
231.57	-291.667
231.95	-345.455
232.32	-309.091
232.69	-205.000
233.07	-775.000
233.44	-235.294
233.81	-370.000
234.19	-122.222
234.56	-168.182
234.93	-96.552
235.31	-157.895
235.68	-155.556
236.05	-200.000
236.43	-69.231
236.80	-96.000
237.17	-129.630
237.55	-90.909
237.92	-400.000
238.29	-103.226
238.67	-77.273
239.04	-77.778
239.41	-59.524
239.79	-52.174
240.16	-59.259
240.53	-56.522
240.91	-60.784
241.28	-22.951
241.65	-5.970
242.02	-2.703
242.40	-30.769
242.77	-1.333
243.14	-18.293
243.51	-11.842
243.89	-21.795
244.26	1.980
244.63	1.961
245.00	1.869
245.38	6.140
245.75	1.770
246.12	10.317
246.49	6.202
246.87	10.714
247.24	20.530
247.61	17.105
247.98	16.107
248.36	19.136
248.73	19.632
249.10	17.486
249.47	28.856
249.84	19.372
250.22	21.244
250.59	20.556
250.96	25.000
251.33	19.898
251.70	23.504
252.08	27.500
252.45	28.689
252.82	23.140
253.19	23.828
253.56	27.376
253.94	25.000
254.31	28.788
254.68	28.322
255.05	28.664
255.42	27.891
255.79	26.537
256.16	27.152
256.54	29.139
256.91	31.148
257.28	28.852
257.65	24.204
258.02	29.499
258.39	32.764
258.76	30.275
259.14	33.621
259.51	32.565
259.88	33.428
260.25	33.056
260.62	30.137
260.99	31.694
261.36	33.244
261.73	31.830
262.10	32.418
262.47	31.099
262.85	34.848
263.22	31.429
263.59	29.474
263.96	33.504
264.33	32.737
264.70	32.346
265.07	34.845
265.44	35.601
265.81	34.259
266.18	34.694
266.55	34.821
266.92	33.030
267.29	35.449
267.66	36.807
268.03	34.716
268.40	35.491
268.77	33.257
269.14	33.480
269.51	32.456
269.88	34.836
270.25	31.992
270.62	35.654
270.99	34.343
271.36	33.465
271.73	33.202
272.10	35.271
272.47	33.868
272.84	33.735
273.21	33.667
273.58	34.073
273.95	33.077
274.32	30.038
274.69	33.656
275.06	33.883
275.43	31.608
275.80	33.510
276.17	34.259
276.54	33.955
276.91	32.558
277.28	35.986
277.65	35.189
278.02	34.191
278.39	32.971
278.76	31.459
279.13	35.461
279.50	33.162
279.87	33.274
280.23	29.049
280.60	33.051
280.97	35.033
281.34	33.107
281.71	32.826
282.08	31.395
282.45	30.115
282.82	33.438
283.19	31.018
283.56	35.246
283.92	35.736
284.29	33.807
284.66	33.990
285.03	32.212
285.40	33.230
285.77	33.746
286.14	34.046
286.51	33.181
286.87	31.596
287.24	35.241
287.61	33.632
287.98	32.024
288.35	32.396
288.72	31.509
289.08	32.943
289.45	29.882
289.82	32.078
290.19	32.328
290.56	31.408
290.93	31.954
291.29	30.716
291.66	29.339
292.03	28.494
292.40	31.837
292.77	28.976
293.13	28.281
293.50	27.858
293.87	28.054
294.24	30.800
294.60	27.939
294.97	28.188
295.34	28.169
295.71	27.238
296.08	27.519
296.44	27.696
296.81	28.258
297.18	29.514
297.55	25.708
297.91	26.216
298.28	26.540
298.65	27.348
299.02	25.856
299.38	26.316
299.75	24.883
300.12	25.810
300.48	26.728
300.85	26.434
301.22	26.063
301.59	26.370
301.95	25.763
302.32	26.778
302.69	25.192
303.05	25.571
303.42	24.612
303.79	26.146
304.15	27.340
304.52	23.890
304.89	25.445
305.25	25.569
305.62	24.451
305.99	24.742
306.35	24.698
306.72	25.853
307.09	25.178
307.45	25.466
307.82	22.805
308.19	25.530
308.55	25.651
308.92	25.706
309.29	24.904
309.65	25.146
310.02	25.050
310.38	24.016
310.75	25.243
311.12	26.366
311.48	25.513
311.85	24.311
312.22	25.332
312.58	24.977
312.95	25.335
313.31	26.378
313.68	26.099
314.05	25.926
314.41	25.956
314.78	26.158
315.14	26.134
315.51	26.870
315.87	26.733
316.24	26.941
316.61	26.821
316.97	25.520
317.34	26.896
317.70	27.686
318.07	27.425
318.43	26.616
318.80	26.672
319.16	26.524
319.53	26.821
319.89	26.906
320.26	27.313
320.62	25.975
320.99	28.070
321.35	27.449
321.72	28.000
322.08	28.404
322.45	28.004
322.81	30.144
323.18	28.142
323.54	29.914
323.91	30.516
324.27	30.551
324.64	31.150
325.00	29.270
325.37	31.122
325.73	30.083
326.10	30.981
326.46	31.270
326.83	32.666
327.19	30.787
327.56	31.304
327.92	31.629
328.29	31.694
328.65	30.318
329.01	31.557
329.38	32.013
329.74	33.219
330.11	32.962
330.47	33.361
330.84	32.300
331.20	33.083
331.56	31.976
331.93	34.142
332.29	33.644
332.66	33.056
333.02	32.496
333.38	32.886
333.75	34.680
334.11	33.278
334.48	33.498
334.84	33.730
335.20	32.746
335.57	33.727
335.93	32.727
336.29	32.862
336.66	33.305
337.02	32.191
337.38	32.228
337.75	32.231
338.11	33.978
338.47	32.672
338.84	32.149
339.20	31.171
339.56	32.290
339.93	33.415
340.29	31.965
340.65	32.522
341.02	32.163
341.38	34.034
341.74	32.203
342.11	32.502
342.47	32.327
342.83	32.770
343.20	34.015
343.56	32.478
343.92	32.906
344.28	33.125
344.65	33.411
345.01	33.385
345.37	33.048
345.73	31.177
346.10	32.449
346.46	32.041
346.82	32.210
347.19	32.162
347.55	31.791
347.91	32.541
348.27	32.625
348.63	32.216
349.00	32.066
349.36	31.524
349.72	31.622
350.08	32.987
350.45	32.243
350.81	32.655
351.17	31.654
351.53	31.994
351.89	32.878
352.26	31.866
352.62	33.582
352.98	32.214
353.34	31.441
353.70	33.205
354.07	33.085
354.43	33.637
354.79	32.536
355.15	31.420
355.51	33.626
355.87	32.461
356.24	32.852
356.60	32.077
356.96	32.691
357.32	32.342
357.68	32.504
358.04	32.186
358.40	31.940
358.77	32.164
359.13	33.013
359.49	33.383
359.85	32.052
360.21	31.564
360.57	31.945
360.93	31.382
361.29	32.281
361.66	33.020
362.02	34.099
362.38	33.099
362.74	32.682
363.10	33.906
363.46	33.241
363.82	32.528
364.18	32.583
364.54	33.956
364.90	33.846
365.26	33.517
365.62	34.133
365.98	33.220
366.35	32.349
366.71	34.150
367.07	34.303
367.43	33.224
367.79	34.572
368.15	33.579
368.51	33.897
368.87	34.030
369.23	33.400
369.59	33.265
369.95	34.550
370.31	34.166
370.67	33.356
371.03	33.102
371.39	33.244
371.75	33.975
372.11	33.604
372.47	33.649
372.83	34.359
373.19	34.823
373.55	33.740
373.91	34.560
374.27	33.829
374.63	35.183
374.99	35.013
375.35	35.260
375.71	34.645
376.07	33.957
376.42	35.453
376.78	34.556
377.14	35.434
377.50	36.243
377.86	35.406
378.22	34.611
378.58	36.385
378.94	35.505
379.30	36.145
379.66	35.038
380.02	36.872
380.38	37.442
380.74	36.056
381.09	36.469
381.45	36.534
381.81	37.763
382.17	37.233
382.53	37.310
382.89	36.625
383.25	37.691
383.61	36.400
383.97	37.102
384.32	37.500
384.68	36.891
385.04	39.329
385.40	38.892
385.76	39.566
386.12	36.744
386.48	38.471
386.83	39.154
387.19	38.181
387.55	38.791
387.91	38.185
388.27	39.607
388.62	39.118
388.98	39.143
389.34	40.365
389.70	39.686
390.06	38.840
390.42	38.976
390.77	40.157
391.13	39.613
391.49	39.795
391.85	40.424
392.20	39.739
392.56	40.992
392.92	39.586
393.28	40.243
393.64	40.615
393.99	41.546
394.35	41.998
394.71	41.976
395.07	40.539
395.42	41.005
395.78	42.048
396.14	42.246
396.50	41.330
396.85	40.847
397.21	41.361
397.57	41.343
397.92	42.325
398.28	41.336
398.64	42.735
399.00	42.618
399.35	42.199
399.71	43.315
400.07	43.683
400.42	43.073
400.78	44.271
401.14	44.223
401.49	43.491
401.85	44.535
402.21	43.337
402.57	45.364
402.92	43.972
403.28	42.799
403.63	44.451
403.99	44.359
404.35	44.059
404.70	45.156
405.06	43.967
405.42	44.965
405.77	45.038
406.13	47.218
406.49	46.002
406.84	47.091
407.20	46.283
407.55	46.881
407.91	45.883
408.27	46.466
408.62	47.353
408.98	46.431
409.34	46.334
409.69	47.775
410.05	47.597
410.40	48.086
410.76	47.168
411.11	48.510
411.47	47.052
411.83	47.795
412.18	48.976
412.54	48.666
412.89	48.836
413.25	49.549
413.60	48.823
413.96	48.834
414.31	48.725
414.67	49.672
415.03	48.862
415.38	48.991
415.74	50.031
416.09	50.648
416.45	48.904
416.80	48.654
417.16	50.575
417.51	50.187
417.87	50.460
418.22	50.898
418.58	51.735
418.93	50.931
419.29	52.158
419.64	51.621
420.00	51.454
420.35	51.937
420.71	51.177
421.06	51.984
421.42	52.007
421.77	51.589
422.12	51.533
422.48	53.456
422.83	53.505
423.19	53.952
423.54	54.867
423.90	53.230
424.25	53.707
424.61	52.755
424.96	53.707
425.31	53.981
425.67	53.247
426.02	54.400
426.38	54.707
426.73	53.683
427.09	55.479
427.44	54.069
427.79	55.224
428.15	54.224
428.50	55.562
428.85	53.674
429.21	55.532
429.56	56.515
429.92	55.086
430.27	54.940
430.62	55.594
430.98	55.730
431.33	56.012
431.68	55.891
432.04	56.628
432.39	56.186
432.74	55.594
433.10	56.247
433.45	55.184
433.80	55.740
434.16	57.128
434.51	56.372
434.86	57.872
435.22	57.598
435.57	57.960
435.92	56.539
436.28	57.395
436.63	59.257
436.98	56.092
437.34	57.892
437.69	56.797
438.04	57.060
438.39	57.611
438.75	57.277
439.10	58.932
439.45	57.909
439.81	57.684
440.16	56.729
440.51	57.692
440.86	57.198
441.22	57.235
441.57	58.071
441.92	58.147
442.27	57.879
442.63	58.023
442.98	59.125
443.33	57.549
443.68	59.167
444.03	58.984
444.39	58.299
444.74	58.652
445.09	57.628
445.44	59.747
445.79	59.243
446.15	57.708
446.50	58.708
446.85	58.755
447.20	57.544
447.55	59.623
447.91	58.377
448.26	58.668
448.61	59.139
448.96	59.657
449.31	58.537
449.66	58.115
450.02	57.120
450.37	58.711
450.72	59.365
451.07	58.485
451.42	58.406
451.77	58.810
452.12	58.239
452.47	57.813
452.83	60.135
453.18	57.852
453.53	57.955
453.88	57.924
454.23	58.644
454.58	57.574
454.93	58.252
455.28	58.158
455.63	57.874
455.98	57.542
456.34	58.952
456.69	58.789
457.04	58.688
457.39	58.537
457.74	58.389
458.09	57.935
458.44	57.812
458.79	57.091
459.14	57.735
459.49	59.366
459.84	58.290
460.19	57.524
460.54	58.603
460.89	58.920
461.24	56.897
461.59	58.439
461.94	56.931
462.29	60.078
462.64	58.540
462.99	58.945
463.34	58.274
463.69	57.796
464.04	57.810
464.39	57.848
464.74	57.469
465.09	58.593
465.44	57.725
465.79	57.483
466.14	57.530
466.49	58.053
466.84	59.449
467.19	58.092
467.54	57.579
467.89	57.011
468.24	58.283
468.59	56.688
468.94	57.517
469.29	57.349
469.64	57.978
469.99	57.106
470.34	57.859
470.68	58.237
471.03	57.629
471.38	58.731
471.73	57.217
472.08	58.439
472.43	57.495
472.78	56.612
473.13	57.396
473.48	57.704
473.83	57.168
474.17	56.096
474.52	57.547
474.87	57.032
475.22	57.803
475.57	56.646
475.92	57.690
476.27	57.668
476.61	57.373
476.96	58.133
477.31	58.663
477.66	58.814
478.01	56.990
478.36	57.228
478.70	56.798
479.05	58.436
479.40	57.404
479.75	57.205
480.10	57.508
480.45	57.657
480.79	57.506
481.14	57.996
481.49	56.747
481.84	58.616
482.19	58.495
482.53	58.417
482.88	58.042
483.23	59.004
483.58	57.904
483.92	57.092
484.27	57.536
484.62	57.591
484.97	57.504
485.31	56.424
485.66	54.172
486.01	54.054
486.36	55.855
486.70	59.682
487.05	62.203
487.40	60.692
487.75	60.102
488.09	60.355
488.44	57.645
488.79	58.111
489.13	56.698
489.48	55.767
489.83	55.252
490.17	55.893
490.52	56.240
490.87	56.345
491.22	56.499
491.56	56.613
491.91	56.127
492.26	57.334
492.60	56.362
492.95	56.779
493.30	56.387
493.64	56.855
493.99	57.018
494.34	56.446
494.68	56.702
495.03	57.137
495.37	56.902
495.72	57.188
496.07	55.390
496.41	56.156
496.76	57.840
497.11	56.900
497.45	56.193
497.80	57.175
498.14	56.871
498.49	57.077
498.84	55.622
499.18	55.646
499.53	55.426
499.87	55.868
500.22	56.278
500.56	56.410
500.91	56.888
501.26	56.545
501.60	56.385
501.95	55.580
502.29	57.043
502.64	57.586
502.98	56.428
503.33	56.069
503.67	56.345
504.02	56.436
504.36	56.836
504.71	56.316
505.06	56.662
505.40	56.627
505.75	55.920
506.09	55.295
506.44	57.567
506.78	56.651
507.13	56.385
507.47	57.177
507.82	55.777
508.16	55.880
508.51	55.884
508.85	56.920
509.19	56.514
509.54	56.628
509.88	55.221
510.23	56.921
510.57	57.371
510.92	56.410
511.26	56.662
511.61	56.446
511.95	56.125
512.30	56.721
512.64	56.522
512.98	56.528
513.33	56.452
513.67	56.400
514.02	58.150
514.36	57.749
514.70	56.563
515.05	56.882
515.39	57.270
515.74	57.900
516.08	57.581
516.42	57.718
516.77	57.992
517.11	57.607
517.46	57.529
517.80	58.632
518.14	58.215
518.49	57.104
518.83	55.828
519.17	56.758
519.52	56.499
519.86	56.547
520.20	57.881
520.55	57.119
520.89	57.995
521.23	57.063
521.58	57.797
521.92	58.017
522.26	56.586
522.61	57.697
522.95	58.247
523.29	57.356
523.64	57.904
523.98	58.015
524.32	59.484
524.66	59.306
525.01	56.738
525.35	58.759
525.69	58.121
526.04	57.405
526.38	58.448
526.72	57.958
527.06	58.240
527.41	57.843
527.75	59.026
528.09	57.851
528.43	57.490
528.78	57.052
529.12	57.913
529.46	57.055
529.80	58.467
530.15	58.493
530.49	58.897
530.83	57.969
531.17	59.020
531.51	60.229
531.86	59.135
532.20	59.146
532.54	58.528
532.88	58.303
533.22	56.570
533.57	57.761
533.91	57.632
534.25	57.264
534.59	58.793
534.93	58.404
535.27	57.859
535.62	58.329
535.96	59.442
536.30	58.461
536.64	60.000
536.98	58.487
537.32	57.407
537.66	58.391
538.01	57.039
538.35	58.892
538.69	58.594
539.03	58.001
539.37	57.479
539.71	58.739
540.05	58.693
540.39	56.785
540.73	57.681
541.07	58.982
541.42	57.944
541.76	57.651
542.10	58.082
542.44	57.856
542.78	58.273
543.12	57.986
543.46	56.349
543.80	57.194
544.14	56.732
544.48	58.747
544.82	57.630
545.16	58.318
545.50	57.460
545.84	56.950
546.18	58.704
546.52	57.834
546.86	57.484
547.20	58.079
547.54	56.617
547.88	57.746
548.22	56.374
548.56	56.992
548.90	58.090
549.24	56.960
549.58	57.350
549.92	55.740
550.26	57.864
550.60	55.392
550.94	57.180
551.28	56.502
551.62	58.288
551.96	55.858
552.30	57.680
552.64	56.503
552.98	57.205
553.32	59.035
553.66	58.071
554.00	57.755
554.34	56.564
554.68	55.326
555.02	55.716
555.36	57.265
555.69	55.285
556.03	56.242
556.37	56.884
556.71	57.451
557.05	55.463
557.39	56.802
557.73	56.737
558.07	56.093
558.41	56.013
558.75	55.443
559.08	55.184
559.42	53.978
559.76	54.885
560.10	55.392
560.44	55.079
560.78	56.062
561.12	55.788
561.45	56.569
561.79	55.006
562.13	56.254
562.47	54.871
562.81	55.759
563.15	55.934
563.48	55.811
563.82	55.744
564.16	55.300
564.50	55.483
564.84	55.752
565.17	55.529
565.51	54.373
565.85	55.641
566.19	54.608
566.52	55.178
566.86	54.895
567.20	54.812
567.54	55.019
567.88	54.689
568.21	54.941
568.55	55.012
568.89	55.061
569.23	54.204
569.56	54.318
569.90	53.920
570.24	55.447
570.57	55.356
570.91	54.532
571.25	54.064
571.59	54.300
571.92	54.957
572.26	54.050
572.60	54.682
572.93	54.300
573.27	55.072
573.61	54.023
573.95	53.824
574.28	53.305
574.62	54.184
574.96	53.639
575.29	53.756
575.63	54.493
575.97	54.946
576.30	52.998
576.64	53.973
576.98	53.964
577.31	54.139
577.65	54.106
577.98	53.163
578.32	53.245
578.66	53.619
578.99	53.594
579.33	53.824
579.67	54.374
580.00	53.765
580.34	54.036
580.67	53.332
581.01	53.289
581.35	53.127
581.68	52.777
582.02	52.980
582.35	54.522
582.69	54.482
583.02	55.018
583.36	54.755
583.70	54.101
584.03	54.044
584.37	53.073
584.70	52.910
585.04	51.848
585.37	52.320
585.71	52.492
586.04	52.466
586.38	52.600
586.72	52.720
587.05	52.315
587.39	53.004
587.72	52.632
588.06	52.660
588.39	52.676
588.73	52.328
589.06	52.963
589.40	52.459
589.73	52.635
590.07	51.824
590.40	52.535
590.73	51.608
591.07	52.569
591.40	51.128
591.74	51.590
592.07	51.360
592.41	51.262
592.74	50.160
593.08	51.561
593.41	51.998
593.75	50.833
594.08	52.681
594.41	51.827
594.75	51.312
595.08	52.052
595.42	51.753
595.75	51.211
596.09	51.813
596.42	51.129
596.75	51.988
597.09	51.515
597.42	49.861
597.75	50.098
598.09	50.476
598.42	50.985
598.76	50.860
599.09	50.125
599.42	49.816
599.76	50.578
600.09	50.817
600.42	50.450
600.76	51.090
601.09	50.282
601.42	50.189
601.76	49.759
602.09	49.821
602.42	50.418
602.76	50.406
603.09	50.073
603.42	50.506
603.76	49.894
604.09	50.674
604.42	50.495
604.76	49.924
605.09	49.142
605.42	50.319
605.75	49.154
606.09	49.869
606.42	48.522
606.75	49.175
607.09	48.963
607.42	48.979
607.75	49.355
608.08	49.211
608.42	48.811
608.75	50.083
609.08	48.090
609.41	49.228
609.75	47.991
610.08	49.296
610.41	48.003
610.74	48.571
611.07	48.135
611.41	49.058
611.74	49.423
612.07	47.920
612.40	48.954
612.73	49.487
613.07	48.411
613.40	48.797
613.73	48.435
614.06	48.430
614.39	48.542
614.72	47.113
615.06	48.171
615.39	47.559
615.72	48.009
616.05	48.130
616.38	49.041
616.71	48.485
617.05	47.231
617.38	46.977
617.71	47.678
618.04	47.275
618.37	48.361
618.70	47.907
619.03	47.073
619.36	47.349
619.69	46.381
620.03	47.520
620.36	46.626
620.69	46.268
621.02	47.966
621.35	47.460
621.68	47.578
622.01	44.911
622.34	45.258
622.67	45.361
623.00	44.872
623.33	46.251
623.66	45.850
623.99	46.083
624.32	46.589
624.65	46.268
624.99	46.619
625.32	46.375
625.65	47.067
625.98	46.373
626.31	46.634
626.64	45.275
626.97	46.887
627.30	45.634
627.63	45.536
627.96	46.246
628.29	44.903
628.62	45.340
628.95	44.873
629.28	45.115
629.61	44.865
629.94	44.184
