SpectraSuite Data File
++++++++++++++++++++++++++++++++++++
Date: Thu May 14 16:18:43 PDT 2015
User: schluterlab
Dark Spectrum Present: Yes
Reference Spectrum Present: Yes
Number of Sampled Component Spectra: 1
Spectrometers: USB2E3373
Integration Time (usec): 3000 (USB2E3373)
Spectra Averaged: 3 (USB2E3373)
Boxcar Smoothing: 0 (USB2E3373)
Correct for Electrical Dark: No (USB2E3373)
Strobe/Lamp Enabled: No (USB2E3373)
Correct for Detector Non-linearity: No (USB2E3373)
Correct for Stray Light: No (USB2E3373)
Number of Pixels in Processed Spectrum: 2048
>>>>>Begin Processed Spectral Data<<<<<
178.53	0.000
178.91	-57.143
179.29	-1400.000
179.67	-300.000
180.04	164.286
180.42	70.000
180.80	340.000
181.18	-1800.000
181.56	-100.000
181.94	-75.000
182.31	-150.000
182.69	400.000
183.07	-300.000
183.45	250.000
183.83	-83.333
184.20	-300.000
184.58	200.000
184.96	-250.000
185.34	-33.333
185.72	-80.000
186.09	222.222
186.47	450.000
186.85	220.000
187.23	-155.556
187.61	-500.000
187.98	60.000
188.36	175.000
188.74	-150.000
189.12	-300.000
189.49	56.250
189.87	-100.000
190.25	0.000
190.63	-60.000
191.00	-66.667
191.38	0.000
191.76	-125.000
192.14	0.000
192.51	250.000
192.89	50.000
193.27	0.000
193.65	-14.286
194.02	300.000
194.40	71.429
194.78	57.143
195.15	0.000
195.53	-9.091
195.91	0.000
196.29	-225.000
196.66	-23.077
197.04	-300.000
197.42	71.429
197.79	-50.000
198.17	-12.500
198.55	-142.857
198.92	-66.667
199.30	-50.000
199.68	-54.545
200.05	0.000
200.43	-800.000
200.81	128.571
201.18	0.000
201.56	100.000
201.94	0.000
202.31	233.333
202.69	-77.778
203.07	100.000
203.44	0.000
203.82	-25.000
204.19	-8.333
204.57	33.333
204.95	-50.000
205.32	-1200.000
205.70	100.000
206.08	66.667
206.45	83.333
206.83	460.000
207.20	-133.333
207.58	-140.000
207.96	-33.333
208.33	66.667
208.71	41.667
209.08	-16.667
209.46	0.000
209.84	216.667
210.21	200.000
210.59	150.000
210.96	166.667
211.34	-50.000
211.71	62.500
212.09	-400.000
212.46	0.000
212.84	750.000
213.22	-140.000
213.59	-125.000
213.97	20.000
214.34	-233.333
214.72	133.333
215.09	-275.000
215.47	0.000
215.84	71.429
216.22	200.000
216.59	-100.000
216.97	-100.000
217.34	-50.000
217.72	25.000
218.09	25.000
218.47	-75.000
218.84	0.000
219.22	200.000
219.59	-17.647
219.97	5.000
220.34	450.000
220.72	-111.111
221.09	15.385
221.47	-100.000
221.84	-50.000
222.22	-71.429
222.59	0.000
222.97	75.000
223.34	-200.000
223.72	-500.000
224.09	-250.000
224.46	-350.000
224.84	120.000
225.21	14.286
225.59	-275.000
225.96	-50.000
226.34	0.000
226.71	183.333
227.08	-150.000
227.46	26.667
227.83	-250.000
228.21	-31.579
228.58	87.500
228.95	300.000
229.33	41.667
229.70	60.000
230.08	36.842
230.45	-10.000
230.82	200.000
231.20	7.143
231.57	-108.333
231.95	9.091
232.32	-27.273
232.69	20.000
233.07	150.000
233.44	52.941
233.81	60.000
234.19	16.667
234.56	0.000
234.93	24.138
235.31	0.000
235.68	-5.556
236.05	-40.000
236.43	46.154
236.80	28.000
237.17	22.222
237.55	3.030
237.92	-40.000
238.29	3.226
238.67	6.818
239.04	16.667
239.41	2.381
239.79	-8.696
240.16	-1.852
240.53	8.696
240.91	-7.843
241.28	11.475
241.65	28.358
242.02	18.919
242.40	10.769
242.77	5.333
243.14	-2.439
243.51	-1.316
243.89	-11.538
244.26	7.921
244.63	5.882
245.00	11.215
245.38	11.404
245.75	-3.540
246.12	11.905
246.49	5.426
246.87	10.714
247.24	16.556
247.61	11.184
247.98	14.765
248.36	9.259
248.73	0.613
249.10	10.929
249.47	12.935
249.84	20.419
250.22	9.326
250.59	13.889
250.96	13.636
251.33	6.633
251.70	12.393
252.08	12.917
252.45	8.607
252.82	11.570
253.19	9.375
253.56	11.787
253.94	7.308
254.31	11.742
254.68	17.483
255.05	14.984
255.42	10.544
255.79	11.650
256.16	11.589
256.54	11.921
256.91	13.770
257.28	10.820
257.65	8.917
258.02	12.684
258.39	12.821
258.76	16.208
259.14	14.368
259.51	12.104
259.88	10.198
260.25	14.167
260.62	13.699
260.99	15.301
261.36	13.405
261.73	9.814
262.10	10.989
262.47	15.013
262.85	14.646
263.22	11.169
263.59	8.947
263.96	15.090
264.33	10.486
264.70	11.852
265.07	15.036
265.44	15.420
265.81	13.194
266.18	13.152
266.55	9.821
266.92	10.023
267.29	15.317
267.66	15.078
268.03	11.790
268.40	11.691
268.77	8.428
269.14	12.335
269.51	13.596
269.88	14.959
270.25	12.475
270.62	12.236
270.99	14.141
271.36	12.475
271.73	13.752
272.10	15.230
272.47	13.226
272.84	12.048
273.21	11.022
273.58	12.298
273.95	12.115
274.32	11.597
274.69	12.379
275.06	16.117
275.43	11.091
275.80	16.578
276.17	12.593
276.54	12.873
276.91	13.059
277.28	12.839
277.65	14.542
278.02	13.235
278.39	13.225
278.76	10.018
279.13	11.348
279.50	12.199
279.87	15.027
280.23	10.035
280.60	13.729
280.97	14.638
281.34	11.205
281.71	12.690
282.08	12.126
282.45	12.111
282.82	13.344
283.19	11.470
283.56	12.459
283.92	13.814
284.29	13.744
284.66	13.136
285.03	11.699
285.40	13.601
285.77	11.610
286.14	12.977
286.51	13.546
286.87	14.376
287.24	14.307
287.61	11.510
287.98	13.293
288.35	12.574
288.72	13.314
289.08	14.202
289.45	11.834
289.82	11.747
290.19	12.213
290.56	11.268
290.93	10.842
291.29	13.085
291.66	11.708
292.03	11.262
292.40	14.422
292.77	10.647
293.13	12.314
293.50	11.170
293.87	10.738
294.24	14.000
294.60	11.504
294.97	10.470
295.34	12.932
295.71	10.971
296.08	10.853
296.44	10.662
296.81	11.571
297.18	11.706
297.55	10.967
297.91	9.846
298.28	10.308
298.65	10.107
299.02	10.626
299.38	11.327
299.75	11.215
300.12	10.764
300.48	10.714
300.85	11.024
301.22	11.186
301.59	10.959
301.95	10.169
302.32	12.556
302.69	10.953
303.05	12.078
303.42	10.421
303.79	10.938
304.15	10.831
304.52	9.937
304.89	12.775
305.25	10.248
305.62	10.554
305.99	11.340
306.35	11.089
306.72	11.479
307.09	11.574
307.45	12.422
307.82	10.394
308.19	11.302
308.55	11.283
308.92	11.392
309.29	10.920
309.65	12.281
310.02	11.287
310.38	12.402
310.75	13.204
311.12	13.998
311.48	12.805
311.85	12.631
312.22	13.472
312.58	14.460
312.95	13.958
313.31	14.544
313.68	14.652
314.05	14.905
314.41	15.209
314.78	13.624
315.14	15.064
315.51	16.251
315.87	16.292
316.24	17.900
316.61	16.785
316.97	17.195
317.34	16.755
317.70	17.817
318.07	17.901
318.43	17.687
318.80	19.147
319.16	19.742
319.53	18.680
319.89	18.054
320.26	19.217
320.62	19.238
320.99	19.483
321.35	20.702
321.72	22.791
322.08	22.092
322.45	23.035
322.81	24.639
323.18	24.425
323.54	24.914
323.91	26.868
324.27	26.506
324.64	26.784
325.00	27.114
325.37	28.419
325.73	28.678
326.10	29.684
326.46	30.456
326.83	32.266
327.19	31.890
327.56	32.806
327.92	33.281
328.29	33.629
328.65	33.752
329.01	33.756
329.38	35.468
329.74	35.959
330.11	36.644
330.47	36.226
330.84	37.123
331.20	37.583
331.56	39.428
331.93	37.908
332.29	38.390
332.66	38.372
333.02	37.018
333.38	38.171
333.75	39.141
334.11	38.699
334.48	39.191
334.84	39.592
335.20	39.043
335.57	38.786
335.93	39.256
336.29	38.602
336.66	40.791
337.02	39.214
337.38	39.966
337.75	38.678
338.11	40.538
338.47	40.447
338.84	40.609
339.20	40.522
339.56	41.269
339.93	40.066
340.29	40.902
340.65	40.552
341.02	40.383
341.38	41.876
341.74	41.082
342.11	42.156
342.47	40.747
342.83	41.465
343.20	42.845
343.56	41.620
343.92	41.153
344.28	40.859
344.65	41.705
345.01	41.342
345.37	41.602
345.73	42.089
346.10	41.576
346.46	42.484
346.82	42.397
347.19	41.864
347.55	42.033
347.91	41.605
348.27	42.792
348.63	42.498
349.00	41.685
349.36	41.115
349.72	41.741
350.08	42.125
350.45	42.357
350.81	42.081
351.17	43.459
351.53	43.594
351.89	44.039
352.26	43.060
352.62	42.985
352.98	42.977
353.34	42.569
353.70	43.683
354.07	43.815
354.43	42.749
354.79	43.007
355.15	42.899
355.51	43.713
355.87	44.278
356.24	44.791
356.60	44.050
356.96	44.329
357.32	43.123
357.68	43.265
358.04	43.937
358.40	43.060
358.77	44.079
359.13	45.495
359.49	43.420
359.85	43.872
360.21	44.978
360.57	44.436
360.93	44.499
361.29	45.123
361.66	44.243
362.02	44.746
362.38	45.186
362.74	44.972
363.10	45.117
363.46	45.568
363.82	44.673
364.18	45.179
364.54	46.404
364.90	45.151
365.26	45.448
365.62	46.067
365.98	45.541
366.35	45.302
366.71	47.075
367.07	46.076
367.43	46.093
367.79	46.649
368.15	47.157
368.51	47.835
368.87	46.963
369.23	46.600
369.59	47.199
369.95	46.247
370.31	48.481
370.67	46.836
371.03	46.191
371.39	45.601
371.75	46.630
372.11	48.171
372.47	47.190
372.83	47.775
373.19	47.698
373.55	47.019
373.91	47.580
374.27	47.671
374.63	48.241
374.99	47.546
375.35	47.338
375.71	47.355
376.07	47.902
376.42	48.929
376.78	47.234
377.14	47.785
377.50	48.956
377.86	47.845
378.22	47.784
378.58	48.811
378.94	48.063
379.30	48.506
379.66	49.089
380.02	47.894
380.38	48.963
380.74	48.394
381.09	47.619
381.45	48.636
381.81	49.649
382.17	49.050
382.53	48.713
382.89	48.138
383.25	50.586
383.61	49.479
383.97	48.233
384.32	49.880
384.68	47.912
385.04	50.318
385.40	50.147
385.76	50.762
386.12	49.431
386.48	48.529
386.83	49.762
387.19	48.725
387.55	49.061
387.91	48.916
388.27	49.307
388.62	47.881
388.98	48.449
389.34	48.851
389.70	50.436
390.06	50.207
390.42	50.181
390.77	49.910
391.13	49.824
391.49	49.577
391.85	48.848
392.20	48.458
392.56	49.793
392.92	49.073
393.28	48.811
393.64	48.212
393.99	49.913
394.35	50.643
394.71	49.401
395.07	49.042
395.42	49.229
395.78	49.970
396.14	49.257
396.50	49.525
396.85	48.599
397.21	49.172
397.57	48.881
397.92	50.630
398.28	47.963
398.64	48.398
399.00	47.539
399.35	47.906
399.71	48.370
400.07	48.624
400.42	49.884
400.78	48.553
401.14	48.207
401.49	49.233
401.85	49.012
402.21	49.479
402.57	49.765
402.92	48.936
403.28	48.009
403.63	47.971
403.99	48.278
404.35	47.754
404.70	48.782
405.06	47.500
405.42	48.068
405.77	48.800
406.13	47.596
406.49	47.241
406.84	48.310
407.20	47.680
407.55	47.365
407.91	48.712
408.27	46.584
408.62	47.120
408.98	47.417
409.34	46.979
409.69	48.455
410.05	47.421
410.40	48.028
410.76	47.448
411.11	47.750
411.47	47.359
411.83	47.090
412.18	47.771
412.54	46.473
412.89	47.439
413.25	47.460
413.60	45.606
413.96	46.795
414.31	46.572
414.67	46.035
415.03	46.092
415.38	47.856
415.74	45.999
416.09	46.268
416.45	46.024
416.80	45.716
417.16	47.510
417.51	46.949
417.87	47.578
418.22	46.766
418.58	46.344
418.93	46.449
419.29	47.287
419.64	46.699
420.00	46.469
420.35	46.996
420.71	45.893
421.06	45.371
421.42	45.929
421.77	45.880
422.12	46.617
422.48	46.595
422.83	47.755
423.19	47.374
423.54	46.903
423.90	47.267
424.25	46.187
424.61	45.809
424.96	46.842
425.31	47.028
425.67	46.055
426.02	47.648
426.38	48.335
426.73	46.429
427.09	47.232
427.44	46.641
427.79	46.766
428.15	47.032
428.50	47.303
428.85	47.072
429.21	47.394
429.56	46.545
429.92	47.420
430.27	46.988
430.62	46.898
430.98	47.368
431.33	46.579
431.68	46.456
432.04	47.537
432.39	48.206
432.74	47.260
433.10	47.918
433.45	45.819
433.80	47.693
434.16	46.901
434.51	47.379
434.86	48.588
435.22	48.300
435.57	47.936
435.92	47.357
436.28	47.838
436.63	49.044
436.98	47.450
437.34	49.662
437.69	48.211
438.04	48.599
438.39	48.363
438.75	47.759
439.10	49.577
439.45	47.177
439.81	47.627
440.16	47.239
440.51	48.551
440.86	47.638
441.22	47.320
441.57	48.113
441.92	47.139
442.27	48.030
442.63	48.634
442.98	48.346
443.33	48.553
443.68	47.770
444.03	48.542
444.39	47.665
444.74	48.800
445.09	48.201
445.44	49.368
445.79	48.420
446.15	48.201
446.50	47.494
446.85	48.930
447.20	48.308
447.55	48.954
447.91	48.168
448.26	48.309
448.61	47.343
448.96	48.927
449.31	47.932
449.66	47.331
450.02	48.787
450.37	48.855
450.72	48.278
451.07	48.690
451.42	48.585
451.77	48.305
452.12	48.194
452.47	48.366
452.83	49.662
453.18	47.636
453.53	47.961
453.88	48.537
454.23	48.870
454.58	48.636
454.93	49.029
455.28	49.007
455.63	47.811
455.98	48.380
456.34	48.292
456.69	48.089
457.04	48.641
457.39	48.226
457.74	48.881
458.09	48.051
458.44	47.791
458.79	47.035
459.14	48.243
459.49	48.387
459.84	48.269
460.19	47.696
460.54	47.871
460.89	48.280
461.24	48.103
461.59	48.367
461.94	46.891
462.29	48.600
462.64	47.556
462.99	48.211
463.34	48.345
463.69	47.538
464.04	48.694
464.39	48.262
464.74	46.636
465.09	46.713
465.44	48.069
465.79	46.906
466.14	47.004
466.49	46.579
466.84	48.926
467.19	46.474
467.54	46.063
467.89	47.011
468.24	47.479
468.59	46.671
468.94	46.503
469.29	46.791
469.64	46.281
469.99	48.184
470.34	46.782
470.68	47.779
471.03	48.003
471.38	48.005
471.73	47.269
472.08	47.398
472.43	45.756
472.78	47.229
473.13	47.851
473.48	46.888
473.83	47.824
474.17	45.955
474.52	47.023
474.87	46.788
475.22	46.930
475.57	46.158
475.92	46.590
476.27	46.486
476.61	46.262
476.96	45.777
477.31	46.980
477.66	46.275
478.01	46.213
478.36	46.461
478.70	46.355
479.05	47.035
479.40	46.199
479.75	46.446
480.10	45.902
480.45	45.533
480.79	46.621
481.14	45.312
481.49	45.161
481.84	44.996
482.19	46.151
482.53	45.212
482.88	45.946
483.23	46.999
483.58	45.808
483.92	44.504
484.27	45.301
484.62	44.843
484.97	45.451
485.31	44.527
485.66	42.749
486.01	41.256
486.36	42.247
486.70	43.256
487.05	45.028
487.40	44.857
487.75	44.504
488.09	44.801
488.44	44.420
488.79	44.115
489.13	44.750
489.48	44.194
489.83	43.300
490.17	43.904
490.52	44.089
490.87	44.416
491.22	44.194
491.56	44.539
491.91	44.701
492.26	45.305
492.60	45.037
492.95	44.669
493.30	44.688
493.64	44.459
493.99	45.132
494.34	44.077
494.68	43.983
495.03	44.405
495.37	44.385
495.72	43.810
496.07	44.566
496.41	44.058
496.76	44.412
497.11	44.586
497.45	44.022
497.80	43.181
498.14	44.036
498.49	43.704
498.84	44.607
499.18	43.905
499.53	44.439
499.87	43.956
500.22	42.921
500.56	43.860
500.91	43.890
501.26	44.455
501.60	44.189
501.95	44.073
502.29	43.528
502.64	43.813
502.98	42.019
503.33	43.067
503.67	42.608
504.02	42.557
504.36	43.744
504.71	43.592
505.06	43.292
505.40	42.459
505.75	42.486
506.09	43.232
506.44	43.640
506.78	43.945
507.13	42.923
507.47	43.108
507.82	42.898
508.16	42.925
508.51	42.804
508.85	42.749
509.19	42.586
509.54	44.332
509.88	42.933
510.23	43.565
510.57	43.741
510.92	43.106
511.26	41.895
511.61	42.154
511.95	42.118
512.30	42.738
512.64	41.579
512.98	42.421
513.33	43.044
513.67	43.039
514.02	42.923
514.36	43.427
514.70	42.500
515.05	43.118
515.39	43.045
515.74	43.584
516.08	42.472
516.42	43.433
516.77	41.956
517.11	41.568
517.46	43.319
517.80	42.384
518.14	42.655
518.49	42.787
518.83	42.682
519.17	41.572
519.52	41.981
519.86	42.819
520.20	42.758
520.55	42.169
520.89	41.948
521.23	42.267
521.58	43.051
521.92	42.946
522.26	41.581
522.61	41.551
522.95	42.791
523.29	41.897
523.64	41.536
523.98	42.213
524.32	43.553
524.66	43.028
525.01	40.940
525.35	41.700
525.69	42.459
526.04	41.274
526.38	41.552
526.72	40.715
527.06	40.880
527.41	41.866
527.75	42.755
528.09	42.031
528.43	41.681
528.78	40.809
529.12	41.342
529.46	39.348
529.80	41.648
530.15	41.217
530.49	40.985
530.83	41.677
531.17	40.621
531.51	41.396
531.86	41.466
532.20	41.646
532.54	40.156
532.88	40.485
533.22	40.189
533.57	40.796
533.91	40.797
534.25	41.040
534.59	40.805
534.93	38.936
535.27	39.944
535.62	41.046
535.96	39.919
536.30	38.014
536.64	40.480
536.98	39.914
537.32	39.506
537.66	39.863
538.01	39.517
538.35	39.769
538.69	39.243
539.03	39.485
539.37	38.869
539.71	38.138
540.05	39.628
540.39	39.609
540.73	38.494
541.07	39.301
541.42	38.098
541.76	38.019
542.10	39.385
542.44	38.246
542.78	38.686
543.12	38.737
543.46	38.523
543.80	37.050
544.14	38.300
544.48	38.180
544.82	38.181
545.16	37.925
545.50	38.886
545.84	38.579
546.18	38.765
546.52	37.643
546.86	38.428
547.20	39.567
547.54	38.140
547.88	36.227
548.22	38.246
548.56	37.683
548.90	37.791
549.24	37.568
549.58	37.413
549.92	38.393
550.26	37.994
550.60	37.971
550.94	37.387
551.28	38.218
551.62	39.084
551.96	37.346
552.30	37.412
552.64	37.523
552.98	36.307
553.32	38.006
553.66	37.814
554.00	37.831
554.34	36.165
554.68	36.798
555.02	37.779
555.36	37.410
555.69	35.554
556.03	36.822
556.37	37.171
556.71	37.286
557.05	36.805
557.39	38.288
557.73	36.922
558.07	37.550
558.41	37.608
558.75	36.444
559.08	37.578
559.42	36.420
559.76	36.974
560.10	37.441
560.44	36.346
560.78	36.000
561.12	36.823
561.45	36.192
561.79	36.325
562.13	36.229
562.47	35.758
562.81	36.519
563.15	35.922
563.48	36.607
563.82	34.825
564.16	35.494
564.50	35.221
564.84	34.100
565.17	34.882
565.51	34.925
565.85	36.105
566.19	35.599
566.52	34.757
566.86	34.861
567.20	34.258
567.54	34.626
567.88	33.843
568.21	34.190
568.55	33.573
568.89	33.273
569.23	33.418
569.56	31.848
569.90	32.466
570.24	31.973
570.57	31.655
570.91	30.557
571.25	31.010
571.59	30.782
571.92	30.677
572.26	31.207
572.60	30.767
572.93	31.283
573.27	30.711
573.61	30.439
573.95	29.983
574.28	30.086
574.62	29.991
574.96	29.400
575.29	29.456
575.63	29.268
575.97	29.533
576.30	29.312
576.64	29.707
576.98	29.157
577.31	29.501
577.65	29.199
577.98	29.029
578.32	28.682
578.66	28.232
578.99	29.285
579.33	29.635
579.67	29.034
580.00	29.243
580.34	29.712
580.67	28.883
581.01	28.797
581.35	28.599
581.68	28.696
582.02	28.143
582.35	28.297
582.69	28.173
583.02	28.649
583.36	28.979
583.70	29.539
584.03	29.398
584.37	28.956
584.70	28.655
585.04	28.319
585.37	28.303
585.71	28.004
586.04	28.093
586.38	28.482
586.72	28.403
587.05	28.345
587.39	28.970
587.72	28.565
588.06	28.530
588.39	28.429
588.73	28.175
589.06	29.148
589.40	28.949
589.73	29.531
590.07	29.211
590.40	29.716
590.73	28.809
591.07	29.486
591.40	29.044
591.74	30.087
592.07	29.679
592.41	28.983
592.74	28.399
593.08	28.535
593.41	29.017
593.75	28.305
594.08	28.264
594.41	28.974
594.75	29.027
595.08	29.004
595.42	28.312
595.75	28.382
596.09	28.905
596.42	29.058
596.75	29.294
597.09	29.414
597.42	28.089
597.75	28.812
598.09	29.008
598.42	29.554
598.76	27.856
599.09	27.875
599.42	27.221
599.76	27.963
600.09	28.195
600.42	27.995
600.76	27.708
601.09	27.348
601.42	27.909
601.76	27.793
602.09	27.484
602.42	27.554
602.76	27.897
603.09	28.304
603.42	28.288
603.76	27.590
604.09	28.424
604.42	28.257
604.76	27.968
605.09	27.962
605.42	27.951
605.75	27.538
606.09	27.137
606.42	27.034
606.75	26.874
607.09	26.882
607.42	27.553
607.75	27.745
608.08	27.624
608.42	27.287
608.75	27.197
609.08	27.844
609.41	28.716
609.75	27.679
610.08	27.880
610.41	27.230
610.74	27.353
611.07	27.798
611.41	27.444
611.74	28.176
612.07	27.957
612.40	28.470
612.73	28.166
613.07	27.628
613.40	28.104
613.73	27.829
614.06	28.214
614.39	28.280
614.72	28.045
615.06	28.296
615.39	27.018
615.72	26.872
616.05	27.343
616.38	28.355
616.71	27.743
617.05	27.742
617.38	27.769
617.71	28.726
618.04	29.358
618.37	27.923
618.70	28.450
619.03	28.435
619.36	28.545
619.69	28.635
620.03	28.437
620.36	27.853
620.69	28.501
621.02	28.740
621.35	29.608
621.68	30.658
622.01	28.612
622.34	28.591
622.67	29.003
623.00	28.408
623.33	28.666
623.66	29.442
623.99	28.242
624.32	29.435
624.65	28.636
624.99	28.544
625.32	29.327
625.65	29.400
625.98	28.000
626.31	28.490
626.64	29.377
626.97	28.582
627.30	29.689
627.63	29.557
627.96	30.030
628.29	29.416
628.62	29.303
628.95	30.938
629.28	30.586
629.61	30.808
629.94	29.038
630.26	29.831
630.59	28.929
630.92	29.004
631.25	32.021
631.58	30.697
631.91	30.178
632.24	31.700
632.57	30.076
632.90	31.996
633.23	30.918
633.56	30.204
633.89	30.888
634.22	30.665
