SpectraSuite Data File
++++++++++++++++++++++++++++++++++++
Date: Thu May 14 16:07:53 PDT 2015
User: schluterlab
Dark Spectrum Present: Yes
Reference Spectrum Present: Yes
Number of Sampled Component Spectra: 1
Spectrometers: USB2E3373
Integration Time (usec): 3000 (USB2E3373)
Spectra Averaged: 3 (USB2E3373)
Boxcar Smoothing: 0 (USB2E3373)
Correct for Electrical Dark: No (USB2E3373)
Strobe/Lamp Enabled: No (USB2E3373)
Correct for Detector Non-linearity: No (USB2E3373)
Correct for Stray Light: No (USB2E3373)
Number of Pixels in Processed Spectrum: 2048
>>>>>Begin Processed Spectral Data<<<<<
178.53	0.000
178.91	171.429
179.29	-1900.000
179.67	-1100.000
180.04	228.571
180.42	120.000
180.80	280.000
181.18	-1100.000
181.56	-1100.000
181.94	425.000
182.31	-450.000
182.69	533.333
183.07	-800.000
183.45	475.000
183.83	-266.667
184.20	-333.333
184.58	1100.000
184.96	-300.000
185.34	-77.778
185.72	0.000
186.09	300.000
186.47	850.000
186.85	320.000
187.23	-133.333
187.61	-1700.000
187.98	420.000
188.36	275.000
188.74	-350.000
189.12	-366.667
189.49	-43.750
189.87	-200.000
190.25	-122.222
190.63	-120.000
191.00	-166.667
191.38	0.000
191.76	-150.000
192.14	-233.333
192.51	750.000
192.89	-183.333
193.27	0.000
193.65	-85.714
194.02	-1900.000
194.40	-242.857
194.78	157.143
195.15	0.000
195.53	-72.727
195.91	0.000
196.29	-325.000
196.66	-46.154
197.04	-3200.000
197.42	-185.714
197.79	-800.000
198.17	-175.000
198.55	-185.714
198.92	-100.000
199.30	-150.000
199.68	-109.091
200.05	0.000
200.43	-750.000
200.81	157.143
201.18	0.000
201.56	344.444
201.94	0.000
202.31	900.000
202.69	-133.333
203.07	1500.000
203.44	-100.000
203.82	-475.000
204.19	-75.000
204.57	-100.000
204.95	-137.500
205.32	-1400.000
205.70	525.000
206.08	-266.667
206.45	-233.333
206.83	580.000
207.20	-266.667
207.58	-280.000
207.96	-350.000
208.33	-133.333
208.71	158.333
209.08	-150.000
209.46	0.000
209.84	383.333
210.21	950.000
210.59	650.000
210.96	666.667
211.34	-350.000
211.71	-62.500
212.09	-1500.000
212.46	0.000
212.84	1350.000
213.22	-320.000
213.59	-250.000
213.97	-170.000
214.34	-766.667
214.72	266.667
215.09	-400.000
215.47	0.000
215.84	271.429
216.22	950.000
216.59	-200.000
216.97	-220.000
217.34	-375.000
217.72	-25.000
218.09	-375.000
218.47	-475.000
218.84	0.000
219.22	360.000
219.59	-35.294
219.97	-70.000
220.34	800.000
220.72	-211.111
221.09	-30.769
221.47	-466.667
221.84	-100.000
222.22	-185.714
222.59	0.000
222.97	-87.500
223.34	-300.000
223.72	-800.000
224.09	-300.000
224.46	-575.000
224.84	-300.000
225.21	-228.571
225.59	-450.000
225.96	-575.000
226.34	-34.615
226.71	283.333
227.08	-650.000
227.46	-66.667
227.83	-275.000
228.21	-31.579
228.58	200.000
228.95	550.000
229.33	-41.667
229.70	-110.000
230.08	-10.526
230.45	230.000
230.82	-200.000
231.20	-92.857
231.57	-116.667
231.95	-136.364
232.32	-54.545
232.69	-30.000
233.07	-125.000
233.44	-94.118
233.81	-200.000
234.19	-22.222
234.56	-27.273
234.93	-10.345
235.31	-84.211
235.68	-77.778
236.05	-85.000
236.43	-3.846
236.80	12.000
237.17	-25.926
237.55	-27.273
237.92	-280.000
238.29	-58.065
238.67	-36.364
239.04	-2.778
239.41	-21.429
239.79	-34.783
240.16	-29.630
240.53	-32.609
240.91	-37.255
241.28	-4.918
241.65	4.478
242.02	-18.919
242.40	-35.385
242.77	-9.333
243.14	-17.073
243.51	-21.053
243.89	-20.513
244.26	-3.960
244.63	-10.784
245.00	-9.346
245.38	-14.035
245.75	-23.009
246.12	-12.698
246.49	-3.876
246.87	-4.286
247.24	-7.285
247.61	-8.553
247.98	-8.725
248.36	-6.173
248.73	-15.337
249.10	-6.011
249.47	5.970
249.84	-1.047
250.22	-1.554
250.59	-12.778
250.96	-1.818
251.33	-6.633
251.70	-2.137
252.08	-3.750
252.45	-0.410
252.82	-6.198
253.19	-6.641
253.56	0.000
253.94	-5.769
254.31	-0.379
254.68	0.699
255.05	-1.954
255.42	-0.680
255.79	-4.207
256.16	-2.980
256.54	-4.305
256.91	-2.623
257.28	-2.623
257.65	-5.414
258.02	-5.015
258.39	-1.140
258.76	1.529
259.14	0.000
259.51	-0.288
259.88	-5.666
260.25	-2.500
260.62	-3.288
260.99	-0.546
261.36	-0.268
261.73	-2.387
262.10	0.275
262.47	-4.290
262.85	1.768
263.22	-3.117
263.59	-6.579
263.96	-1.790
264.33	-4.859
264.70	-0.988
265.07	0.477
265.44	2.494
265.81	-1.620
266.18	-0.680
266.55	-1.563
266.92	-1.595
267.29	-0.875
267.66	-1.996
268.03	1.528
268.40	1.670
268.77	-4.100
269.14	-2.863
269.51	-1.096
269.88	-1.025
270.25	0.201
270.62	0.633
270.99	0.606
271.36	1.584
271.73	0.393
272.10	-1.202
272.47	-1.403
272.84	-0.602
273.21	0.200
273.58	-2.016
273.95	-1.731
274.32	-2.662
274.69	-0.387
275.06	0.366
275.43	0.000
275.80	0.353
276.17	-1.481
276.54	-0.746
276.91	0.179
277.28	0.000
277.65	0.180
278.02	0.184
278.39	-0.543
278.76	-0.527
279.13	-1.596
279.50	0.000
279.87	-0.179
280.23	-0.880
280.60	1.017
280.97	-0.329
281.34	-1.698
281.71	1.354
282.08	-1.495
282.45	-0.164
282.82	-0.157
283.19	-0.969
283.56	-1.639
283.92	2.252
284.29	1.106
284.66	0.328
285.03	-1.923
285.40	-0.309
285.77	-0.929
286.14	0.000
286.51	-1.674
286.87	-1.896
287.24	-0.151
287.61	-0.598
287.98	-3.172
288.35	0.000
288.72	0.592
289.08	0.732
289.45	-0.740
289.82	0.301
290.19	0.144
290.56	1.690
290.93	0.713
291.29	0.826
291.66	0.275
292.03	-2.171
292.40	0.816
292.77	-0.539
293.13	0.541
293.50	0.263
293.87	1.074
294.24	0.667
294.60	1.264
294.97	-0.940
295.34	1.408
295.71	0.126
296.08	-0.388
296.44	0.368
296.81	0.974
297.18	-0.374
297.55	0.354
297.91	-0.593
298.28	-0.711
298.65	1.665
299.02	-0.354
299.38	0.000
299.75	1.168
300.12	-0.347
300.48	-0.230
300.85	1.125
301.22	1.230
301.59	1.142
301.95	0.113
302.32	2.444
302.69	0.876
303.05	2.285
303.42	2.439
303.79	1.250
304.15	1.367
304.52	0.740
304.89	1.257
305.25	2.588
305.62	1.254
305.99	2.784
306.35	0.806
306.72	2.068
307.09	1.929
307.45	2.174
307.82	2.523
308.19	2.018
308.55	2.989
308.92	2.629
309.29	1.437
309.65	3.509
310.02	2.376
310.38	3.740
310.75	2.816
311.12	2.972
311.48	3.030
311.85	3.704
312.22	3.226
312.58	3.944
312.95	3.728
313.31	4.968
313.68	5.769
314.05	6.775
314.41	5.738
314.78	5.450
315.14	5.172
315.51	7.110
315.87	7.111
316.24	6.758
316.61	7.460
316.97	6.335
317.34	6.878
317.70	9.083
318.07	7.937
318.43	9.269
318.80	9.950
319.16	8.755
319.53	8.569
319.89	8.151
320.26	11.032
320.62	9.486
320.99	10.988
321.35	10.351
321.72	11.256
322.08	10.280
322.45	11.111
322.81	12.094
323.18	11.416
323.54	11.897
323.91	12.633
324.27	12.478
324.64	13.938
325.00	12.769
325.37	14.414
325.73	14.132
326.10	15.491
326.46	14.251
326.83	15.532
327.19	15.118
327.56	15.968
327.92	14.949
328.29	16.452
328.65	15.578
329.01	16.920
329.38	17.607
329.74	17.380
330.11	17.295
330.47	16.681
330.84	15.245
331.20	17.250
331.56	16.378
331.93	17.573
332.29	16.864
332.66	17.940
333.02	16.750
333.38	16.611
333.75	17.088
334.11	17.431
334.48	17.657
334.84	18.437
335.20	17.045
335.57	17.538
335.93	17.603
336.29	16.306
336.66	16.148
337.02	17.057
337.38	17.432
337.75	16.116
338.11	17.746
338.47	17.039
338.84	17.428
339.20	16.007
339.56	16.557
339.93	16.913
340.29	16.989
340.65	17.680
341.02	17.398
341.38	18.189
341.74	16.707
342.11	16.653
342.47	16.203
342.83	16.747
343.20	17.089
343.56	16.600
343.92	17.054
344.28	17.031
344.65	16.744
345.01	17.161
345.37	16.563
345.73	16.134
346.10	16.693
346.46	14.873
346.82	16.330
347.19	16.272
347.55	16.844
347.91	16.122
348.27	15.250
348.63	16.527
349.00	15.585
349.36	15.911
349.72	16.518
350.08	15.750
350.45	15.209
350.81	16.516
351.17	15.489
351.53	14.860
351.89	15.414
352.26	15.522
352.62	15.746
352.98	14.580
353.34	14.787
353.70	14.946
354.07	14.382
354.43	15.186
354.79	14.361
355.15	14.717
355.51	15.716
355.87	14.660
356.24	15.513
356.60	14.856
356.96	15.271
357.32	15.688
357.68	13.690
358.04	13.698
358.40	14.851
358.77	14.912
359.13	14.106
359.49	13.978
359.85	14.793
360.21	14.849
360.57	13.783
360.93	16.008
361.29	14.526
361.66	14.337
362.02	15.379
362.38	14.476
362.74	14.106
363.10	14.030
363.46	14.681
363.82	14.631
364.18	14.567
364.54	15.076
364.90	14.649
365.26	13.586
365.62	15.067
365.98	14.840
366.35	14.497
366.71	14.558
367.07	14.141
367.43	15.036
367.79	15.063
368.15	14.582
368.51	14.479
368.87	14.174
369.23	14.600
369.59	14.003
369.95	14.672
370.31	14.045
370.67	14.099
371.03	13.781
371.39	14.171
371.75	15.337
372.11	14.363
372.47	13.812
372.83	13.743
373.19	14.743
373.55	13.279
373.91	14.179
374.27	14.554
374.63	13.802
374.99	14.655
375.35	14.675
375.71	14.645
376.07	13.944
376.42	13.980
376.78	14.792
377.14	13.787
377.50	13.789
377.86	14.347
378.22	14.970
378.58	14.328
378.94	14.261
379.30	14.060
379.66	14.345
380.02	13.964
380.38	14.171
380.74	14.423
381.09	13.763
381.45	14.261
381.81	14.578
382.17	13.777
382.53	14.971
382.89	14.842
383.25	14.361
383.61	13.773
383.97	14.370
384.32	14.593
384.68	13.979
385.04	14.748
385.40	14.202
385.76	14.361
386.12	14.303
386.48	14.294
386.83	15.137
387.19	14.137
387.55	14.378
387.91	14.041
388.27	15.069
388.62	15.063
388.98	14.044
389.34	14.202
389.70	14.178
390.06	14.091
390.42	14.398
390.77	14.810
391.13	14.847
391.49	14.251
391.85	14.424
392.20	14.709
392.56	14.944
392.92	15.104
393.28	14.373
393.64	14.525
393.99	14.759
394.35	15.012
394.71	15.629
395.07	13.772
395.42	14.620
395.78	14.869
396.14	15.211
396.50	14.430
396.85	14.729
397.21	14.556
397.57	14.723
397.92	14.948
398.28	13.960
398.64	14.588
399.00	14.188
399.35	14.869
399.71	14.837
400.07	15.160
400.42	15.308
400.78	14.641
401.14	14.456
401.49	14.895
401.85	14.419
402.21	15.295
402.57	14.906
402.92	14.657
403.28	13.290
403.63	14.558
403.99	14.786
404.35	15.065
404.70	15.297
405.06	15.163
405.42	13.817
405.77	15.322
406.13	15.613
406.49	14.752
406.84	15.346
407.20	14.254
407.55	14.718
407.91	14.519
408.27	14.664
408.62	15.183
408.98	15.438
409.34	14.721
409.69	15.266
410.05	16.002
410.40	15.197
410.76	15.648
411.11	15.722
411.47	15.356
411.83	14.521
412.18	15.482
412.54	15.471
412.89	15.308
413.25	14.955
413.60	14.474
413.96	15.909
414.31	15.297
414.67	16.100
415.03	14.954
415.38	16.583
415.74	15.638
416.09	14.867
416.45	15.529
416.80	15.177
417.16	15.390
417.51	16.002
417.87	16.616
418.22	16.527
418.58	15.366
418.93	16.007
419.29	15.968
419.64	16.267
420.00	15.786
420.35	16.058
420.71	16.255
421.06	15.296
421.42	15.826
421.77	15.617
422.12	16.279
422.48	16.539
422.83	16.375
423.19	16.976
423.54	16.925
423.90	16.731
424.25	17.013
424.61	15.614
424.96	16.804
425.31	16.879
425.67	16.801
426.02	16.934
426.38	17.222
426.73	16.574
427.09	17.186
427.44	16.330
427.79	16.805
428.15	16.952
428.50	16.966
428.85	16.533
429.21	18.245
429.56	16.634
429.92	16.806
430.27	16.819
430.62	17.098
430.98	16.970
431.33	17.058
431.68	16.571
432.04	18.029
432.39	17.140
432.74	17.237
433.10	17.847
433.45	17.503
433.80	17.382
434.16	18.492
434.51	17.523
434.86	17.861
435.22	17.641
435.57	17.630
435.92	18.587
436.28	18.601
436.63	18.023
436.98	17.230
437.34	18.207
437.69	17.942
438.04	18.086
438.39	18.150
438.75	18.594
439.10	18.658
439.45	18.167
439.81	18.079
440.16	17.855
440.51	18.395
440.86	18.455
441.22	18.971
441.57	19.549
441.92	19.253
442.27	19.596
442.63	18.132
442.98	18.783
443.33	19.200
443.68	19.227
444.03	19.755
444.39	19.417
444.74	20.163
445.09	18.956
445.44	19.442
445.79	19.684
446.15	20.247
446.50	19.121
446.85	19.115
447.20	19.681
447.55	20.136
447.91	19.634
448.26	19.239
448.61	19.660
448.96	20.494
449.31	19.671
449.66	19.227
450.02	19.673
450.37	20.405
450.72	19.376
451.07	20.444
451.42	19.873
451.77	19.789
452.12	19.977
452.47	20.202
452.83	20.721
453.18	20.257
453.53	20.505
453.88	20.044
454.23	20.960
454.58	20.720
454.93	20.146
455.28	21.132
455.63	21.205
455.98	19.888
456.34	20.495
456.69	21.399
457.04	20.331
457.39	20.122
457.74	20.414
458.09	20.428
458.44	20.151
458.79	20.217
459.14	20.608
459.49	20.374
459.84	20.986
460.19	19.989
460.54	20.102
460.89	21.228
461.24	19.540
461.59	20.199
461.94	20.023
462.29	21.053
462.64	19.976
462.99	20.716
463.34	20.960
463.69	20.750
464.04	21.012
464.39	20.516
464.74	20.525
465.09	20.127
465.44	20.708
465.79	20.941
466.14	20.271
466.49	19.368
466.84	20.716
467.19	20.867
467.54	19.800
467.89	20.000
468.24	20.886
468.59	19.108
468.94	19.930
469.29	20.276
469.64	20.343
469.99	20.905
470.34	19.493
470.68	20.916
471.03	19.908
471.38	20.405
471.73	19.961
472.08	20.685
472.43	20.891
472.78	20.529
473.13	20.101
473.48	20.060
473.83	20.952
474.17	20.633
474.52	20.746
474.87	19.878
475.22	20.169
475.57	19.470
475.92	20.060
476.27	19.808
476.61	19.107
476.96	19.239
477.31	20.297
477.66	20.304
478.01	20.793
478.36	19.641
478.70	19.015
479.05	20.859
479.40	20.286
479.75	20.221
480.10	20.417
480.45	19.371
480.79	20.771
481.14	20.083
481.49	20.127
481.84	20.279
482.19	19.785
482.53	20.289
482.88	20.691
483.23	19.920
483.58	19.389
483.92	19.637
484.27	20.025
484.62	19.142
484.97	19.323
485.31	20.063
485.66	19.066
486.01	18.504
486.36	19.271
486.70	19.878
487.05	19.929
487.40	20.084
487.75	20.153
488.09	19.414
488.44	19.605
488.79	19.865
489.13	19.913
489.48	19.262
489.83	19.034
490.17	19.198
490.52	19.007
490.87	19.036
491.22	19.367
491.56	18.686
491.91	19.625
492.26	19.039
492.60	19.720
492.95	18.605
493.30	19.543
493.64	19.360
493.99	19.737
494.34	18.772
494.68	18.630
495.03	19.559
495.37	18.819
495.72	19.048
496.07	19.413
496.41	18.104
496.76	19.141
497.11	18.811
497.45	18.688
497.80	19.369
498.14	18.821
498.49	19.164
498.84	18.647
499.18	18.848
499.53	18.924
499.87	18.813
500.22	17.720
500.56	18.354
500.91	18.581
501.26	19.591
501.60	18.736
501.95	18.020
502.29	18.210
502.64	18.540
502.98	18.076
503.33	17.754
503.67	18.142
504.02	18.389
504.36	18.811
504.71	18.879
505.06	18.145
505.40	17.733
505.75	17.623
506.09	18.738
506.44	18.477
506.78	18.670
507.13	17.566
507.47	18.238
507.82	17.898
508.16	17.591
508.51	17.159
508.85	17.997
509.19	17.575
509.54	18.540
509.88	17.727
510.23	17.484
510.57	18.076
510.92	17.707
511.26	17.557
511.61	17.383
511.95	17.960
512.30	17.873
512.64	17.541
512.98	17.409
513.33	17.137
513.67	17.134
514.02	17.833
514.36	17.494
514.70	17.344
515.05	17.101
515.39	17.533
515.74	18.346
516.08	16.852
516.42	17.949
516.77	17.981
517.11	16.968
517.46	17.391
517.80	17.584
518.14	17.084
518.49	17.299
518.83	17.616
519.17	16.747
519.52	17.243
519.86	17.793
520.20	16.613
520.55	16.484
520.89	16.948
521.23	16.695
521.58	16.497
521.92	16.657
522.26	16.094
522.61	17.130
522.95	16.205
523.29	16.092
523.64	15.695
523.98	16.828
524.32	17.249
524.66	16.392
525.01	16.251
525.35	15.853
525.69	16.067
526.04	15.385
526.38	16.494
526.72	16.609
527.06	16.129
527.41	16.268
527.75	16.449
528.09	16.883
528.43	15.749
528.78	15.723
529.12	16.170
529.46	16.189
529.80	15.675
530.15	15.594
530.49	16.607
530.83	15.762
531.17	16.069
531.51	15.283
531.86	15.264
532.20	15.793
532.54	14.542
532.88	16.000
533.22	15.380
533.57	15.349
533.91	15.600
534.25	15.489
534.59	15.632
534.93	14.714
535.27	14.592
535.62	15.861
535.96	15.224
536.30	14.982
536.64	15.015
536.98	15.006
537.32	14.938
537.66	15.034
538.01	14.924
538.35	13.886
538.69	14.183
539.03	15.389
539.37	14.605
539.71	14.354
540.05	14.808
540.39	14.242
540.73	14.268
541.07	14.654
541.42	13.585
541.76	13.879
542.10	15.199
542.44	13.581
542.78	14.599
543.12	13.528
543.46	13.675
543.80	13.429
544.14	13.824
544.48	13.889
544.82	13.944
545.16	14.132
545.50	14.320
545.84	14.329
546.18	14.198
546.52	13.758
546.86	13.396
547.20	14.567
547.54	13.795
547.88	13.382
548.22	12.924
548.56	12.756
548.90	13.731
549.24	13.009
549.58	12.555
549.92	12.564
550.26	13.333
550.60	13.720
550.94	13.131
551.28	13.201
551.62	13.208
551.96	12.751
552.30	13.576
552.64	13.192
552.98	12.913
553.32	12.926
553.66	12.862
554.00	12.926
554.34	13.320
554.68	12.718
555.02	12.418
555.36	13.215
555.69	12.172
556.03	11.602
556.37	13.016
556.71	11.731
557.05	12.652
557.39	11.347
557.73	12.417
558.07	11.722
558.41	11.694
558.75	12.508
559.08	12.387
559.42	12.071
559.76	12.619
560.10	12.458
560.44	11.741
560.78	13.125
561.12	11.576
561.45	12.105
561.79	12.027
562.13	11.707
562.47	10.727
562.81	12.215
563.15	12.058
563.48	12.244
563.82	11.669
564.16	11.448
564.50	11.263
564.84	11.622
565.17	11.471
565.51	11.623
565.85	11.342
566.19	11.118
566.52	11.703
566.86	10.866
567.20	11.256
567.54	10.940
567.88	10.958
568.21	11.413
568.55	10.983
568.89	10.940
569.23	11.153
569.56	11.059
569.90	10.691
570.24	10.624
570.57	10.327
570.91	9.829
571.25	10.443
571.59	10.604
571.92	10.688
572.26	10.402
572.60	10.265
572.93	10.326
573.27	10.171
573.61	10.482
573.95	10.464
574.28	9.951
574.62	9.936
574.96	10.013
575.29	10.134
575.63	9.771
575.97	9.796
576.30	9.672
576.64	10.021
576.98	9.704
577.31	10.074
577.65	9.884
577.98	9.639
578.32	9.542
578.66	9.744
578.99	9.748
579.33	9.671
579.67	10.018
580.00	9.395
580.34	9.948
580.67	9.532
581.01	9.325
581.35	9.605
581.68	9.476
582.02	9.397
582.35	9.421
582.69	9.357
583.02	9.344
583.36	9.406
583.70	9.225
584.03	9.263
584.37	9.479
584.70	9.144
585.04	9.161
585.37	9.147
585.71	9.169
586.04	9.247
586.38	9.192
586.72	9.050
587.05	8.954
587.39	9.274
587.72	9.091
588.06	9.091
588.39	9.086
588.73	9.180
589.06	9.199
589.40	9.004
589.73	9.158
590.07	8.919
590.40	9.432
590.73	9.191
591.07	9.568
591.40	8.670
591.74	9.102
592.07	9.582
592.41	8.557
592.74	8.378
593.08	9.172
593.41	9.041
593.75	8.879
594.08	8.422
594.41	8.750
594.75	8.336
595.08	8.277
595.42	8.766
595.75	8.686
596.09	8.844
596.42	8.062
596.75	9.031
597.09	9.172
597.42	8.462
597.75	8.506
598.09	9.008
598.42	8.565
598.76	8.292
599.09	8.295
599.42	8.146
599.76	8.386
600.09	8.509
600.42	8.141
600.76	8.355
601.09	8.098
601.42	8.170
601.76	8.138
602.09	8.363
602.42	7.852
602.76	8.266
603.09	8.150
603.42	8.165
603.76	7.822
604.09	8.623
604.42	8.550
604.76	7.953
605.09	7.978
605.42	8.014
605.75	7.538
606.09	7.913
606.42	8.026
606.75	7.459
607.09	7.565
607.42	8.401
607.75	7.737
608.08	7.735
608.42	7.336
608.75	7.546
609.08	7.343
609.41	7.543
609.75	7.723
610.08	8.047
610.41	7.392
610.74	7.731
611.07	7.726
611.41	8.117
611.74	7.436
612.07	7.620
612.40	7.462
612.73	7.824
613.07	7.971
613.40	8.181
613.73	7.559
614.06	7.704
614.39	7.191
614.72	7.132
615.06	6.785
615.39	7.395
615.72	7.393
616.05	7.722
616.38	7.064
616.71	7.158
617.05	8.040
617.38	7.919
617.71	7.775
618.04	7.717
618.37	7.432
618.70	7.749
619.03	7.228
619.36	6.720
619.69	7.687
620.03	6.842
620.36	6.687
620.69	6.848
621.02	7.021
621.35	8.055
621.68	7.664
622.01	8.043
622.34	6.346
622.67	6.529
623.00	6.073
623.33	7.498
623.66	7.523
623.99	6.452
624.32	8.512
624.65	6.950
624.99	7.607
625.32	7.838
625.65	7.620
625.98	6.644
626.31	6.733
626.64	7.766
626.97	7.127
627.30	6.074
627.63	6.227
627.96	8.183
628.29	6.848
628.62	7.053
628.95	6.573
629.28	6.372
629.61	7.492
629.94	5.941
630.26	6.102
630.59	5.959
630.92	6.494
631.25	6.440
631.58	7.627
631.91	6.279
632.24	6.340
632.57	6.926
632.90	6.018
633.23	6.327
633.56	6.224
633.89	5.062
634.22	7.173
634.55	5.846
634.88	6.169
635.20	6.997
635.53	5.763
635.86	7.367
636.19	7.953
636.52	7.806
636.85	7.048
637.18	6.861
637.51	6.667
637.83	6.866
