SpectraSuite Data File
++++++++++++++++++++++++++++++++++++
Date: Thu May 14 16:10:31 PDT 2015
User: schluterlab
Dark Spectrum Present: Yes
Reference Spectrum Present: Yes
Number of Sampled Component Spectra: 1
Spectrometers: USB2E3373
Integration Time (usec): 3000 (USB2E3373)
Spectra Averaged: 3 (USB2E3373)
Boxcar Smoothing: 0 (USB2E3373)
Correct for Electrical Dark: No (USB2E3373)
Strobe/Lamp Enabled: No (USB2E3373)
Correct for Detector Non-linearity: No (USB2E3373)
Correct for Stray Light: No (USB2E3373)
Number of Pixels in Processed Spectrum: 2048
>>>>>Begin Processed Spectral Data<<<<<
178.53	0.000
178.91	157.143
179.29	-1600.000
179.67	-1700.000
180.04	157.143
180.42	110.000
180.80	420.000
181.18	-1500.000
181.56	-900.000
181.94	225.000
182.31	-175.000
182.69	200.000
183.07	-650.000
183.45	325.000
183.83	-166.667
184.20	-366.667
184.58	600.000
184.96	-200.000
185.34	-33.333
185.72	-80.000
186.09	166.667
186.47	800.000
186.85	300.000
187.23	-144.444
187.61	-1700.000
187.98	200.000
188.36	125.000
188.74	-50.000
189.12	-100.000
189.49	-43.750
189.87	-100.000
190.25	-33.333
190.63	-280.000
191.00	-166.667
191.38	0.000
191.76	-525.000
192.14	-66.667
192.51	700.000
192.89	-50.000
193.27	0.000
193.65	-57.143
194.02	-1800.000
194.40	-14.286
194.78	257.143
195.15	0.000
195.53	-9.091
195.91	0.000
196.29	-50.000
196.66	-76.923
197.04	-1400.000
197.42	-185.714
197.79	-650.000
198.17	-262.500
198.55	-242.857
198.92	-100.000
199.30	-87.500
199.68	9.091
200.05	42.857
200.43	-550.000
200.81	157.143
201.18	0.000
201.56	166.667
201.94	0.000
202.31	400.000
202.69	-122.222
203.07	600.000
203.44	-133.333
203.82	-425.000
204.19	-50.000
204.57	-283.333
204.95	-62.500
205.32	-800.000
205.70	250.000
206.08	-200.000
206.45	16.667
206.83	440.000
207.20	-216.667
207.58	-180.000
207.96	-300.000
208.33	-283.333
208.71	158.333
209.08	50.000
209.46	0.000
209.84	283.333
210.21	850.000
210.59	250.000
210.96	566.667
211.34	-25.000
211.71	-62.500
212.09	-1100.000
212.46	0.000
212.84	1150.000
213.22	-300.000
213.59	-225.000
213.97	-80.000
214.34	-166.667
214.72	150.000
215.09	-600.000
215.47	0.000
215.84	42.857
216.22	1200.000
216.59	-200.000
216.97	-220.000
217.34	-125.000
217.72	-75.000
218.09	-375.000
218.47	-525.000
218.84	0.000
219.22	240.000
219.59	-35.294
219.97	5.000
220.34	350.000
220.72	-88.889
221.09	-7.692
221.47	-400.000
221.84	-100.000
222.22	-42.857
222.59	0.000
222.97	87.500
223.34	-300.000
223.72	-2100.000
224.09	-50.000
224.46	-225.000
224.84	120.000
225.21	-142.857
225.59	-325.000
225.96	-325.000
226.34	15.385
226.71	316.667
227.08	-1050.000
227.46	-33.333
227.83	-500.000
228.21	-10.526
228.58	175.000
228.95	550.000
229.33	8.333
229.70	-30.000
230.08	31.579
230.45	160.000
230.82	-300.000
231.20	-21.429
231.57	8.333
231.95	-63.636
232.32	-72.727
232.69	-20.000
233.07	-250.000
233.44	-11.765
233.81	-140.000
234.19	-22.222
234.56	-22.727
234.93	10.345
235.31	-36.842
235.68	-94.444
236.05	-85.000
236.43	3.846
236.80	16.000
237.17	-33.333
237.55	3.030
237.92	-180.000
238.29	-19.355
238.67	-20.455
239.04	-22.222
239.41	4.762
239.79	-10.870
240.16	-11.111
240.53	-32.609
240.91	-33.333
241.28	-24.590
241.65	-11.940
242.02	8.108
242.40	-7.692
242.77	-8.000
243.14	-7.317
243.51	-15.789
243.89	-15.385
244.26	0.000
244.63	2.941
245.00	-1.869
245.38	-4.386
245.75	-12.389
246.12	4.762
246.49	-4.651
246.87	3.571
247.24	2.649
247.61	2.632
247.98	5.369
248.36	0.000
248.73	-4.294
249.10	-0.546
249.47	9.950
249.84	5.759
250.22	3.109
250.59	2.778
250.96	6.818
251.33	-3.061
251.70	3.846
252.08	5.000
252.45	4.098
252.82	2.479
253.19	3.906
253.56	5.323
253.94	2.692
254.31	3.409
254.68	6.993
255.05	4.886
255.42	4.422
255.79	0.000
256.16	6.623
256.54	5.629
256.91	7.213
257.28	0.656
257.65	0.637
258.02	3.835
258.39	2.279
258.76	7.339
259.14	2.299
259.51	6.916
259.88	3.399
260.25	3.889
260.62	3.014
260.99	5.464
261.36	6.702
261.73	0.000
262.10	2.198
262.47	5.362
262.85	5.051
263.22	4.416
263.59	1.053
263.96	5.115
264.33	1.023
264.70	4.198
265.07	7.399
265.44	9.297
265.81	5.556
266.18	6.576
266.55	5.357
266.92	4.556
267.29	6.346
267.66	6.430
268.03	6.769
268.40	5.846
268.77	3.872
269.14	3.304
269.51	6.360
269.88	5.533
270.25	5.835
270.62	6.329
270.99	8.889
271.36	5.545
271.73	6.287
272.10	7.816
272.47	4.208
272.84	4.217
273.21	5.010
273.58	6.855
273.95	4.038
274.32	3.802
274.69	5.222
275.06	4.579
275.43	6.100
275.80	5.115
276.17	3.704
276.54	4.291
276.91	5.546
277.28	3.978
277.65	6.643
278.02	6.801
278.39	3.986
278.76	4.394
279.13	4.965
279.50	5.670
279.87	6.798
280.23	4.225
280.60	5.593
280.97	5.757
281.34	4.075
281.71	7.107
282.08	5.482
282.45	5.074
282.82	5.808
283.19	3.069
283.56	4.426
283.92	6.607
284.29	7.109
284.66	6.732
285.03	3.205
285.40	4.791
285.77	5.418
286.14	6.718
286.51	4.110
286.87	5.371
287.24	6.325
287.61	4.933
287.98	2.870
288.35	3.254
288.72	5.917
289.08	5.710
289.45	3.107
289.82	3.765
290.19	3.592
290.56	5.211
290.93	4.850
291.29	6.061
291.66	4.545
292.03	2.849
292.40	5.850
292.77	4.313
293.13	5.819
293.50	4.468
293.87	4.966
294.24	5.867
294.60	5.689
294.97	4.161
295.34	5.890
295.71	4.540
296.08	4.651
296.44	4.534
296.81	4.385
297.18	4.234
297.55	3.656
297.91	4.152
298.28	4.384
298.65	3.686
299.02	3.660
299.38	5.721
299.75	3.621
300.12	4.398
300.48	4.032
300.85	5.512
301.22	3.356
301.59	3.196
301.95	5.311
302.32	4.667
302.69	5.257
303.05	4.244
303.42	5.211
303.79	4.375
304.15	5.783
304.52	4.545
304.89	3.770
305.25	3.313
305.62	3.448
305.99	4.433
306.35	2.923
306.72	3.930
307.09	4.162
307.45	4.762
307.82	3.532
308.19	3.532
308.55	4.629
308.92	4.966
309.29	4.598
309.65	3.801
310.02	3.861
310.38	4.232
310.75	4.660
311.12	4.986
311.48	3.617
311.85	4.653
312.22	4.459
312.58	4.225
312.95	3.824
313.31	5.330
313.68	5.678
314.05	6.233
314.41	6.375
314.78	5.904
315.14	6.261
315.51	5.725
315.87	6.841
316.24	7.397
316.61	7.105
316.97	5.701
317.34	7.055
317.70	6.987
318.07	7.143
318.43	8.333
318.80	8.779
319.16	8.584
319.53	7.626
319.89	8.764
320.26	8.630
320.62	8.511
320.99	9.603
321.35	9.242
321.72	10.605
322.08	10.009
322.45	10.208
322.81	10.469
323.18	10.796
323.54	12.328
323.91	12.011
324.27	11.532
324.64	13.602
325.00	12.106
325.37	13.923
325.73	13.636
326.10	13.950
326.46	15.228
326.83	15.452
327.19	13.701
327.56	15.652
327.92	15.421
328.29	16.129
328.65	15.578
329.01	16.159
329.38	16.681
329.74	16.866
330.11	17.209
330.47	17.186
330.84	16.365
331.20	17.083
331.56	17.331
331.93	17.824
332.29	18.559
332.66	18.355
333.02	18.007
333.38	17.869
333.75	17.677
334.11	17.681
334.48	18.729
334.84	19.201
335.20	17.632
335.57	18.718
335.93	18.926
336.29	17.388
336.66	18.167
337.02	19.983
337.38	19.133
337.75	19.174
338.11	18.587
338.47	17.618
338.84	18.528
339.20	16.933
339.56	18.287
339.93	19.540
340.29	17.794
340.65	18.654
341.02	18.915
341.38	20.614
341.74	19.209
342.11	19.308
342.47	18.427
342.83	19.565
343.20	19.379
343.56	19.246
343.92	18.575
344.28	19.844
344.65	18.527
345.01	18.799
345.37	19.984
345.73	17.927
346.10	20.125
346.46	18.592
346.82	18.352
347.19	18.869
347.55	20.106
347.91	19.316
348.27	18.589
348.63	19.421
349.00	19.538
349.36	19.331
349.72	19.048
350.08	18.425
350.45	19.544
350.81	19.683
351.17	19.398
351.53	19.333
351.89	19.514
352.26	20.000
352.62	20.075
352.98	19.771
353.34	20.836
353.70	19.877
354.07	19.151
354.43	19.970
354.79	19.297
355.15	20.898
355.51	21.857
355.87	19.820
356.24	20.837
356.60	19.586
356.96	21.423
357.32	20.967
357.68	20.351
358.04	20.210
358.40	20.522
358.77	20.906
359.13	20.384
359.49	19.554
359.85	22.117
360.21	20.301
360.57	21.608
360.93	21.650
361.29	22.386
361.66	20.927
362.02	21.990
362.38	22.980
362.74	21.648
363.10	23.177
363.46	23.199
363.82	22.088
364.18	22.308
364.54	23.029
364.90	23.144
365.26	21.724
365.62	22.400
365.98	21.375
366.35	23.557
366.71	23.537
367.07	23.275
367.43	22.324
367.79	23.026
368.15	23.612
368.51	24.019
368.87	24.428
369.23	23.933
369.59	24.112
369.95	23.529
370.31	23.970
370.67	24.278
371.03	23.476
371.39	23.573
371.75	24.484
372.11	24.390
372.47	24.171
372.83	25.131
373.19	24.016
373.55	24.593
373.91	24.540
374.27	26.455
374.63	25.981
374.99	25.464
375.35	26.299
375.71	25.935
376.07	25.952
376.42	25.756
376.78	25.917
377.14	26.263
377.50	26.312
377.86	27.032
378.22	27.246
378.58	26.694
378.94	26.526
379.30	27.124
379.66	27.278
380.02	27.351
380.38	28.744
380.74	26.310
381.09	27.468
381.45	28.125
381.81	29.625
382.17	28.385
382.53	28.187
382.89	27.483
383.25	29.426
383.61	28.299
383.97	28.033
384.32	29.545
384.68	28.190
385.04	29.555
385.40	30.466
385.76	29.719
386.12	29.623
386.48	29.471
386.83	29.857
387.19	29.085
387.55	29.754
387.91	30.365
388.27	29.908
388.62	30.928
388.98	30.457
389.34	31.408
389.70	30.506
390.06	31.557
390.42	31.325
390.77	31.668
391.13	30.692
391.49	32.005
391.85	31.333
392.20	31.791
392.56	31.542
392.92	32.279
393.28	31.841
393.64	31.564
393.99	32.481
394.35	32.593
394.71	32.994
395.07	31.796
395.42	31.354
395.78	33.516
396.14	32.858
396.50	33.076
396.85	33.154
397.21	33.077
397.57	32.509
397.92	32.932
398.28	32.537
398.64	31.922
399.00	32.880
399.35	32.775
399.71	32.826
400.07	32.959
400.42	33.527
400.78	33.391
401.14	33.751
401.49	33.940
401.85	34.593
402.21	34.415
402.57	34.214
402.92	33.806
403.28	34.133
403.63	35.143
403.99	34.323
404.35	33.997
404.70	33.994
405.06	34.620
405.42	34.543
405.77	35.823
406.13	34.738
406.49	34.122
406.84	35.125
407.20	33.538
407.55	34.282
407.91	35.512
408.27	35.041
408.62	36.009
408.98	35.229
409.34	35.249
409.69	36.279
410.05	35.053
410.40	35.905
410.76	35.390
411.11	36.411
411.47	35.995
411.83	35.273
412.18	36.687
412.54	35.270
412.89	36.554
413.25	35.609
413.60	35.784
413.96	36.131
414.31	34.561
414.67	36.852
415.03	36.062
415.38	36.192
415.74	35.064
416.09	36.027
416.45	34.377
416.80	35.679
417.16	36.909
417.51	37.173
417.87	37.155
418.22	35.689
418.58	36.431
418.93	36.845
419.29	36.128
419.64	36.735
420.00	36.083
420.35	36.103
420.71	37.277
421.06	36.055
421.42	37.041
421.77	36.834
422.12	36.522
422.48	36.201
422.83	36.747
423.19	37.454
423.54	37.445
423.90	37.051
424.25	36.587
424.61	37.199
424.96	37.068
425.31	36.624
425.67	36.500
426.02	36.967
426.38	36.452
426.73	36.049
427.09	37.140
427.44	36.920
427.79	36.926
428.15	37.272
428.50	37.640
428.85	37.199
429.21	37.394
429.56	36.821
429.92	37.641
430.27	37.108
430.62	37.372
430.98	37.236
431.33	36.070
431.68	35.872
432.04	38.294
432.39	36.529
432.74	38.299
433.10	37.858
433.45	36.957
433.80	36.052
434.16	36.674
434.51	37.513
434.86	38.491
435.22	37.938
435.57	37.618
435.92	37.730
436.28	37.884
436.63	39.050
436.98	37.198
437.34	36.866
437.69	37.369
438.04	36.436
438.39	37.450
438.75	37.133
439.10	37.844
439.45	36.389
439.81	37.062
440.16	36.783
440.51	36.845
440.86	37.465
441.22	36.602
441.57	38.260
441.92	36.615
442.27	37.727
442.63	37.059
442.98	37.193
443.33	37.559
443.68	38.107
444.03	37.347
444.39	38.234
444.74	36.958
445.09	36.189
445.44	36.565
445.79	37.787
446.15	37.770
446.50	36.382
446.85	37.549
447.20	37.524
447.55	36.506
447.91	36.178
448.26	35.941
448.61	36.929
448.96	37.876
449.31	37.752
449.66	35.784
450.02	36.445
450.37	37.240
450.72	36.814
451.07	35.706
451.42	36.511
451.77	36.965
452.12	36.682
452.47	36.304
452.83	36.768
453.18	36.427
453.53	35.497
453.88	35.560
454.23	36.271
454.58	36.042
454.93	36.408
455.28	36.424
455.63	35.816
455.98	35.475
456.34	36.219
456.69	35.391
457.04	35.816
457.39	34.701
457.74	36.465
458.09	35.585
458.44	35.453
458.79	35.688
459.14	36.182
459.49	35.654
459.84	35.992
460.19	35.425
460.54	36.343
460.89	35.521
461.24	34.138
461.59	35.529
461.94	34.797
462.29	35.666
462.64	35.607
462.99	35.279
463.34	34.393
463.69	34.760
464.04	35.520
464.39	33.857
464.74	34.436
465.09	35.063
465.44	34.818
465.79	34.426
466.14	33.715
466.49	34.684
466.84	34.545
467.19	34.104
467.54	32.491
467.89	33.908
468.24	33.518
468.59	33.179
468.94	32.925
469.29	33.533
469.64	32.867
469.99	33.525
470.34	33.601
470.68	33.014
471.03	33.661
471.38	33.028
471.73	33.290
472.08	33.693
472.43	33.594
472.78	33.123
473.13	32.807
473.48	33.897
473.83	33.256
474.17	32.298
474.52	32.952
474.87	32.890
475.22	33.408
475.57	32.139
475.92	31.608
476.27	32.588
476.61	31.672
476.96	30.605
477.31	31.386
477.66	32.739
478.01	32.384
478.36	31.057
478.70	31.872
479.05	32.720
479.40	31.441
479.75	31.892
480.10	31.217
480.45	31.404
480.79	31.655
481.14	30.790
481.49	31.259
481.84	31.070
482.19	30.882
482.53	30.870
482.88	31.369
483.23	30.591
483.58	30.917
483.92	30.142
484.27	30.271
484.62	30.074
484.97	30.521
485.31	29.461
485.66	28.922
486.01	28.089
486.36	29.083
486.70	30.347
487.05	30.507
487.40	29.649
487.75	29.949
488.09	29.417
488.44	28.637
488.79	29.646
489.13	29.037
489.48	28.466
489.83	27.887
490.17	28.028
490.52	29.269
490.87	28.342
491.22	28.769
491.56	28.584
491.91	28.434
492.26	28.213
492.60	27.853
492.95	28.565
493.30	27.745
493.64	28.208
493.99	28.333
494.34	28.005
494.68	28.137
495.03	28.194
495.37	28.140
495.72	27.574
496.07	27.125
496.41	27.370
496.76	27.898
497.11	28.025
497.45	26.413
497.80	27.232
498.14	26.213
498.49	26.838
498.84	26.554
499.18	26.766
499.53	27.309
499.87	26.813
500.22	25.200
500.56	26.631
500.91	26.453
501.26	26.545
501.60	25.586
501.95	26.227
502.29	26.152
502.64	26.148
502.98	26.057
503.33	25.227
503.67	24.684
504.02	24.562
504.36	26.050
504.71	25.586
505.06	24.602
505.40	25.731
505.75	25.182
506.09	25.691
506.44	25.070
506.78	25.183
507.13	24.712
507.47	25.486
507.82	25.758
508.16	24.809
508.51	23.910
508.85	24.563
509.19	25.154
509.54	24.880
509.88	25.352
510.23	25.352
510.57	24.215
510.92	24.625
511.26	24.146
511.61	23.708
511.95	23.865
512.30	23.831
512.64	23.888
512.98	23.662
513.33	24.446
513.67	23.610
514.02	24.630
514.36	24.041
514.70	23.646
515.05	22.993
515.39	24.357
515.74	23.966
516.08	22.821
516.42	23.496
516.77	23.975
517.11	22.383
517.46	23.913
517.80	23.463
518.14	23.993
518.49	23.590
518.83	22.725
519.17	22.402
519.52	22.746
519.86	22.492
520.20	22.790
520.55	22.508
520.89	22.128
521.23	22.669
521.58	22.260
521.92	22.436
522.26	21.879
522.61	22.280
522.95	21.972
523.29	22.471
523.64	21.973
523.98	23.388
524.32	22.120
524.66	22.425
525.01	21.518
525.35	21.252
525.69	21.578
526.04	20.781
526.38	21.667
526.72	21.799
527.06	21.935
527.41	21.983
527.75	21.971
528.09	22.432
528.43	20.722
528.78	20.289
529.12	20.700
529.46	21.192
529.80	22.197
530.15	21.217
530.49	21.115
530.83	20.838
531.17	20.251
531.51	21.179
531.86	21.454
532.20	21.402
532.54	20.946
532.88	21.455
533.22	20.860
533.57	21.004
533.91	20.483
534.25	20.859
534.59	20.517
534.93	20.147
535.27	21.070
535.62	20.637
535.96	21.092
536.30	20.270
536.64	20.781
536.98	20.664
537.32	21.358
537.66	20.586
538.01	19.335
538.35	20.524
538.69	20.132
539.03	20.233
539.37	20.671
539.71	20.601
540.05	20.144
540.39	20.110
540.73	19.854
541.07	20.356
541.42	19.728
541.76	19.276
542.10	19.602
542.44	18.636
542.78	19.526
543.12	18.355
543.46	18.987
543.80	18.645
544.14	18.552
544.48	19.504
544.82	19.270
545.16	19.141
545.50	17.975
545.84	19.167
546.18	18.704
546.52	19.363
546.86	18.994
547.20	18.766
547.54	18.539
547.88	18.927
548.22	18.421
548.56	18.900
548.90	18.209
549.24	19.453
549.58	18.675
549.92	17.411
550.26	18.447
550.60	18.826
550.94	18.047
551.28	18.944
551.62	19.003
551.96	17.540
552.30	19.184
552.64	18.917
552.98	18.528
553.32	18.842
553.66	17.685
554.00	18.979
554.34	17.568
554.68	18.141
555.02	17.543
555.36	18.080
555.69	17.553
556.03	17.402
556.37	17.647
556.71	17.755
557.05	17.827
557.39	16.921
557.73	17.371
558.07	18.079
558.41	17.807
558.75	18.256
559.08	17.119
559.42	17.833
559.76	17.639
560.10	18.285
560.44	16.953
560.78	17.500
561.12	17.241
561.45	17.457
561.79	17.277
562.13	17.498
562.47	17.078
562.81	17.532
563.15	16.919
563.48	17.651
563.82	16.687
564.16	15.930
564.50	15.316
564.84	17.876
565.17	17.529
565.51	16.226
565.85	15.914
566.19	16.417
566.52	16.969
566.86	16.865
567.20	16.041
567.54	16.144
567.88	16.361
568.21	16.453
568.55	16.403
568.89	16.704
569.23	16.688
569.56	16.178
569.90	15.609
570.24	15.379
570.57	15.715
570.91	15.187
571.25	15.418
571.59	15.753
571.92	15.805
572.26	15.458
572.60	15.233
572.93	15.586
573.27	15.847
573.61	15.273
573.95	15.174
574.28	14.926
574.62	14.984
574.96	14.998
575.29	14.805
575.63	14.900
575.97	15.234
576.30	14.977
576.64	15.056
576.98	14.692
577.31	15.155
577.65	14.589
577.98	14.665
578.32	14.470
578.66	14.776
578.99	14.745
579.33	14.362
579.67	14.778
580.00	15.037
580.34	14.921
580.67	14.144
581.01	14.518
581.35	14.378
581.68	14.836
582.02	14.397
582.35	14.864
582.69	14.574
583.02	14.633
583.36	14.562
583.70	14.201
584.03	14.279
584.37	14.638
584.70	14.156
585.04	13.997
585.37	14.295
585.71	14.434
586.04	13.959
586.38	14.624
586.72	13.963
587.05	14.070
587.39	14.186
587.72	14.402
588.06	14.168
588.39	14.314
588.73	14.153
589.06	14.419
589.40	14.505
589.73	14.492
590.07	14.523
590.40	14.638
590.73	14.387
591.07	14.296
591.40	14.463
591.74	13.831
592.07	14.332
592.41	14.156
592.74	14.306
593.08	14.236
593.41	14.173
593.75	13.391
594.08	13.935
594.41	13.942
594.75	14.082
595.08	14.300
595.42	13.929
595.75	14.175
596.09	14.029
596.42	14.439
596.75	13.933
597.09	13.939
597.42	14.104
597.75	14.151
598.09	14.087
598.42	14.073
598.76	13.374
599.09	13.742
599.42	13.577
599.76	13.503
600.09	13.881
600.42	13.280
600.76	13.474
601.09	13.840
601.42	12.976
601.76	13.345
602.09	13.367
602.42	13.450
602.76	14.096
603.09	13.289
603.42	13.656
603.76	13.672
604.09	13.556
604.42	13.688
604.76	13.394
605.09	13.801
605.42	13.437
605.75	13.385
606.09	12.990
606.42	13.316
606.75	12.969
607.09	12.673
607.42	13.333
607.75	13.013
608.08	13.575
608.42	12.898
608.75	13.184
609.08	13.115
609.41	13.410
609.75	13.125
610.08	13.105
610.41	12.659
610.74	12.983
611.07	13.144
611.41	13.408
611.74	13.303
612.07	14.072
612.40	13.118
612.73	12.763
613.07	12.714
613.40	13.523
613.73	13.288
614.06	12.807
614.39	13.120
614.72	13.100
615.06	13.138
615.39	12.180
615.72	12.607
616.05	13.405
616.38	13.572
616.71	13.427
617.05	13.046
617.38	13.483
617.71	13.013
618.04	13.222
618.37	12.951
618.70	13.348
619.03	13.023
619.36	12.700
619.69	13.069
620.03	12.869
620.36	12.761
620.69	13.202
621.02	13.451
621.35	13.643
621.68	13.521
622.01	12.598
622.34	12.552
622.67	13.333
623.00	11.808
623.33	12.807
623.66	12.257
623.99	13.101
624.32	13.710
624.65	13.192
624.99	13.004
625.32	13.259
625.65	13.149
625.98	12.678
626.31	13.182
626.64	13.553
626.97	13.503
627.30	12.149
627.63	13.803
627.96	13.589
628.29	13.307
628.62	13.518
628.95	12.883
629.28	13.424
629.61	13.552
629.94	12.134
630.26	13.390
630.59	12.953
630.92	13.160
631.25	13.864
631.58	13.936
631.91	12.371
632.24	13.353
632.57	12.524
632.90	14.243
633.23	13.265
633.56	13.673
633.89	12.603
634.22	13.306
634.55	12.630
634.88	11.797
635.20	14.424
635.53	12.881
635.86	13.001
636.19	13.892
636.52	13.080
636.85	12.257
