SpectraSuite Data File
++++++++++++++++++++++++++++++++++++
Date: Thu May 14 16:09:09 PDT 2015
User: schluterlab
Dark Spectrum Present: Yes
Reference Spectrum Present: Yes
Number of Sampled Component Spectra: 1
Spectrometers: USB2E3373
Integration Time (usec): 3000 (USB2E3373)
Spectra Averaged: 3 (USB2E3373)
Boxcar Smoothing: 0 (USB2E3373)
Correct for Electrical Dark: No (USB2E3373)
Strobe/Lamp Enabled: No (USB2E3373)
Correct for Detector Non-linearity: No (USB2E3373)
Correct for Stray Light: No (USB2E3373)
Number of Pixels in Processed Spectrum: 2048
>>>>>Begin Processed Spectral Data<<<<<
178.53	0.000
178.91	57.143
179.29	-2100.000
179.67	-1900.000
180.04	192.857
180.42	130.000
180.80	400.000
181.18	-1200.000
181.56	-900.000
181.94	175.000
182.31	-300.000
182.69	333.333
183.07	-650.000
183.45	375.000
183.83	-183.333
184.20	-366.667
184.58	900.000
184.96	-475.000
185.34	-200.000
185.72	-160.000
186.09	277.778
186.47	700.000
186.85	480.000
187.23	-266.667
187.61	-1400.000
187.98	140.000
188.36	325.000
188.74	-300.000
189.12	-300.000
189.49	-18.750
189.87	-250.000
190.25	-100.000
190.63	-200.000
191.00	-288.889
191.38	0.000
191.76	-200.000
192.14	-316.667
192.51	700.000
192.89	-50.000
193.27	0.000
193.65	-85.714
194.02	-2300.000
194.40	-100.000
194.78	71.429
195.15	0.000
195.53	-54.545
195.91	0.000
196.29	-200.000
196.66	-146.154
197.04	-2100.000
197.42	-114.286
197.79	-850.000
198.17	-200.000
198.55	-185.714
198.92	-77.778
199.30	-212.500
199.68	-72.727
200.05	-42.857
200.43	-1000.000
200.81	328.571
201.18	0.000
201.56	233.333
201.94	0.000
202.31	666.667
202.69	-166.667
203.07	900.000
203.44	-100.000
203.82	-425.000
204.19	-125.000
204.57	-283.333
204.95	-87.500
205.32	-1700.000
205.70	275.000
206.08	-200.000
206.45	-233.333
206.83	520.000
207.20	-400.000
207.58	-400.000
207.96	-300.000
208.33	-150.000
208.71	141.667
209.08	-66.667
209.46	0.000
209.84	350.000
210.21	550.000
210.59	800.000
210.96	800.000
211.34	25.000
211.71	-200.000
212.09	-1600.000
212.46	0.000
212.84	1150.000
213.22	-420.000
213.59	-175.000
213.97	-40.000
214.34	-300.000
214.72	216.667
215.09	-200.000
215.47	0.000
215.84	228.571
216.22	900.000
216.59	-80.000
216.97	-400.000
217.34	-100.000
217.72	0.000
218.09	-325.000
218.47	-350.000
218.84	0.000
219.22	440.000
219.59	-41.176
219.97	5.000
220.34	600.000
220.72	-144.444
221.09	-76.923
221.47	-433.333
221.84	-120.000
222.22	-371.429
222.59	0.000
222.97	-50.000
223.34	-420.000
223.72	-1500.000
224.09	-375.000
224.46	-300.000
224.84	-180.000
225.21	-242.857
225.59	-300.000
225.96	-475.000
226.34	-23.077
226.71	333.333
227.08	-800.000
227.46	-46.667
227.83	-350.000
228.21	-21.053
228.58	150.000
228.95	800.000
229.33	-16.667
229.70	0.000
230.08	26.316
230.45	150.000
230.82	-200.000
231.20	-107.143
231.57	-91.667
231.95	-118.182
232.32	-136.364
232.69	40.000
233.07	-350.000
233.44	-29.412
233.81	-80.000
234.19	-22.222
234.56	-50.000
234.93	-13.793
235.31	-42.105
235.68	-50.000
236.05	-90.000
236.43	3.846
236.80	-16.000
237.17	-55.556
237.55	-24.242
237.92	-230.000
238.29	-19.355
238.67	-20.455
239.04	-27.778
239.41	-21.429
239.79	-13.043
240.16	-14.815
240.53	-26.087
240.91	-27.451
241.28	-9.836
241.65	-2.985
242.02	-6.757
242.40	-23.077
242.77	-5.333
243.14	-4.878
243.51	-17.105
243.89	-25.641
244.26	-3.960
244.63	-1.961
245.00	-3.738
245.38	-2.632
245.75	-10.619
246.12	3.968
246.49	-2.326
246.87	5.000
247.24	1.325
247.61	-0.658
247.98	0.671
248.36	1.852
248.73	-6.748
249.10	-4.918
249.47	2.985
249.84	5.759
250.22	3.627
250.59	0.000
250.96	8.182
251.33	1.531
251.70	7.265
252.08	2.083
252.45	2.049
252.82	2.066
253.19	0.391
253.56	4.183
253.94	0.769
254.31	3.030
254.68	1.049
255.05	9.121
255.42	5.102
255.79	1.618
256.16	2.980
256.54	5.298
256.91	3.934
257.28	-0.984
257.65	1.911
258.02	1.475
258.39	5.413
258.76	5.810
259.14	5.172
259.51	5.476
259.88	4.816
260.25	2.222
260.62	7.123
260.99	6.557
261.36	6.702
261.73	1.326
262.10	6.593
262.47	4.021
262.85	6.566
263.22	0.519
263.59	-0.526
263.96	2.813
264.33	2.813
264.70	4.691
265.07	5.728
265.44	7.483
265.81	4.167
266.18	3.628
266.55	4.688
266.92	2.050
267.29	5.689
267.66	5.987
268.03	6.114
268.40	6.681
268.77	3.645
269.14	3.084
269.51	3.947
269.88	5.328
270.25	4.829
270.62	6.540
270.99	6.667
271.36	6.733
271.73	6.090
272.10	6.212
272.47	4.008
272.84	5.823
273.21	5.411
273.58	4.637
273.95	4.615
274.32	3.232
274.69	3.288
275.06	5.128
275.43	2.033
275.80	5.820
276.17	2.593
276.54	4.291
276.91	3.578
277.28	5.606
277.65	3.052
278.02	5.515
278.39	5.072
278.76	5.624
279.13	5.319
279.50	5.842
279.87	6.798
280.23	2.465
280.60	6.271
280.97	5.263
281.34	3.226
281.71	6.599
282.08	5.316
282.45	3.928
282.82	3.925
283.19	3.231
283.56	4.098
283.92	6.607
284.29	6.003
284.66	4.762
285.03	3.045
285.40	5.255
285.77	4.489
286.14	5.954
286.51	4.566
286.87	4.107
287.24	5.572
287.61	4.185
287.98	4.683
288.35	4.882
288.72	5.325
289.08	5.564
289.45	4.586
289.82	5.271
290.19	5.172
290.56	5.493
290.93	4.993
291.29	4.270
291.66	5.647
292.03	4.071
292.40	5.442
292.77	5.526
293.13	5.277
293.50	4.468
293.87	5.638
294.24	6.133
294.60	6.448
294.97	3.758
295.34	6.786
295.71	3.531
296.08	3.618
296.44	5.515
296.81	4.019
297.18	3.736
297.55	4.835
297.91	6.406
298.28	4.621
298.65	5.470
299.02	3.896
299.38	6.751
299.75	5.374
300.12	4.398
300.48	5.184
300.85	4.837
301.22	4.922
301.59	4.338
301.95	3.729
302.32	6.000
302.69	5.148
303.05	5.441
303.42	4.656
303.79	5.625
304.15	5.783
304.52	4.968
304.89	5.340
305.25	5.901
305.62	5.434
305.99	6.082
306.35	5.544
306.72	5.067
307.09	6.091
307.45	6.108
307.82	4.036
308.19	5.954
308.55	5.786
308.92	5.161
309.29	6.513
309.65	5.556
310.02	5.347
310.38	6.398
310.75	6.990
311.12	7.095
311.48	6.745
311.85	7.028
312.22	6.546
312.58	6.197
312.95	6.405
313.31	6.956
313.68	8.974
314.05	7.588
314.41	8.561
314.78	6.994
315.14	8.167
315.51	8.218
315.87	8.551
316.24	8.767
316.61	9.414
316.97	7.783
317.34	7.848
317.70	9.432
318.07	9.347
318.43	9.694
318.80	10.452
319.16	9.099
319.53	8.912
319.89	9.115
320.26	9.075
320.62	9.574
320.99	10.896
321.35	10.813
321.72	12.000
322.08	10.370
322.45	11.382
322.81	11.191
323.18	9.735
323.54	10.431
323.91	11.388
324.27	10.585
324.64	12.007
325.00	10.945
325.37	12.285
325.73	11.240
326.10	12.490
326.46	12.948
326.83	12.090
327.19	13.071
327.56	12.806
327.92	11.802
328.29	12.339
328.65	13.233
329.01	12.606
329.38	12.553
329.74	12.671
330.11	13.613
330.47	12.300
330.84	12.575
331.20	12.417
331.56	12.218
331.93	12.469
332.29	12.288
332.66	12.957
333.02	11.893
333.38	11.913
333.75	12.374
334.11	13.595
334.48	13.531
334.84	12.999
335.20	12.175
335.57	13.575
335.93	11.983
336.29	11.980
336.66	11.522
337.02	12.291
337.38	12.670
337.75	11.818
338.11	13.036
338.47	12.242
338.84	11.929
339.20	11.794
339.56	11.944
339.93	11.987
340.29	10.789
340.65	10.949
341.02	12.849
341.38	12.126
341.74	10.573
342.11	12.148
342.47	11.835
342.83	12.963
343.20	11.774
343.56	12.269
343.92	12.010
344.28	12.422
344.65	13.256
345.01	12.324
345.37	11.431
345.73	10.678
346.10	12.559
346.46	10.997
346.82	11.386
347.19	11.612
347.55	12.064
347.91	11.293
348.27	11.077
348.63	12.186
349.00	11.111
349.36	11.524
349.72	11.384
350.08	12.184
350.45	10.342
350.81	10.558
351.17	10.376
351.53	11.524
351.89	11.693
352.26	10.672
352.62	11.119
352.98	11.679
353.34	10.381
353.70	11.941
354.07	10.879
354.43	10.326
354.79	11.369
355.15	10.081
355.51	11.257
355.87	10.546
356.24	11.407
356.60	9.682
356.96	10.082
357.32	10.632
357.68	10.176
358.04	10.254
358.40	10.149
358.77	11.257
359.13	10.044
359.49	8.178
359.85	10.152
360.21	9.971
360.57	10.266
360.93	9.873
361.29	10.246
361.66	9.848
362.02	10.578
362.38	10.119
362.74	10.196
363.10	10.523
363.46	9.903
363.82	9.943
364.18	9.641
364.54	9.820
364.90	10.167
365.26	8.897
365.62	9.867
365.98	9.803
366.35	9.732
366.71	10.272
367.07	10.217
367.43	10.571
367.79	9.821
368.15	11.104
368.51	10.014
368.87	9.340
369.23	9.800
369.59	9.495
369.95	10.074
370.31	10.533
370.67	9.010
371.03	8.864
371.39	8.261
371.75	8.597
372.11	9.079
372.47	9.546
372.83	10.079
373.19	9.606
373.55	8.672
373.91	9.611
374.27	9.314
374.63	9.337
374.99	8.886
375.35	9.221
375.71	8.516
376.07	9.813
376.42	9.698
376.78	9.944
377.14	9.295
377.50	8.982
377.86	10.345
378.22	9.940
378.58	9.453
378.94	9.624
379.30	8.846
379.66	9.877
380.02	9.752
380.38	9.793
380.74	8.789
381.09	8.362
381.45	9.375
381.81	9.719
382.17	9.501
382.53	9.591
382.89	9.594
383.25	8.734
383.61	7.697
383.97	9.187
384.32	9.151
384.68	8.469
385.04	9.659
385.40	9.428
385.76	9.496
386.12	8.977
386.48	9.353
386.83	9.893
387.19	8.691
387.55	8.275
387.91	8.276
388.27	8.430
388.62	8.992
388.98	8.686
389.34	8.780
389.70	8.019
390.06	8.881
390.42	9.518
390.77	9.272
391.13	7.981
391.49	9.360
391.85	7.636
392.20	8.126
392.56	9.096
392.92	8.670
393.28	8.513
393.64	8.659
393.99	8.077
394.35	9.287
394.71	9.341
395.07	8.503
395.42	8.395
395.78	9.202
396.14	9.210
396.50	8.373
396.85	8.587
397.21	8.876
397.57	8.245
397.92	8.763
398.28	8.039
398.64	8.638
399.00	7.801
399.35	8.691
399.71	8.750
400.07	8.871
400.42	7.742
400.78	8.681
401.14	8.025
401.49	8.073
401.85	8.547
402.21	8.517
402.57	7.981
402.92	8.452
403.28	7.845
403.63	7.637
403.99	8.135
404.35	8.300
404.70	8.215
405.06	7.826
405.42	8.314
405.77	7.961
406.13	7.834
406.49	8.221
406.84	7.978
407.20	8.217
407.55	7.935
407.91	7.102
408.27	8.127
408.62	7.795
408.98	8.183
409.34	7.625
409.69	7.478
410.05	8.206
410.40	8.411
410.76	8.245
411.11	8.942
411.47	8.292
411.83	7.525
412.18	8.072
412.54	7.884
412.89	7.974
413.25	7.788
413.60	7.410
413.96	8.508
414.31	7.875
414.67	7.990
415.03	6.954
415.38	7.945
415.74	7.697
416.09	7.711
416.45	7.138
416.80	6.977
417.16	7.663
417.51	8.157
417.87	7.664
418.22	7.904
418.58	7.497
418.93	7.858
419.29	7.275
419.64	6.483
420.00	6.350
420.35	7.748
420.71	6.893
421.06	7.476
421.42	7.741
421.77	6.624
422.12	7.400
422.48	7.885
422.83	7.667
423.19	7.798
423.54	7.577
423.90	7.234
424.25	7.787
424.61	7.118
424.96	7.743
425.31	7.803
425.67	6.817
426.02	6.807
426.38	7.692
426.73	6.641
427.09	7.555
427.44	6.772
427.79	7.518
428.15	7.648
428.50	7.191
428.85	7.118
429.21	7.926
429.56	7.206
429.92	6.978
430.27	7.373
430.62	7.084
430.98	6.886
431.33	7.380
431.68	6.849
432.04	6.958
432.39	6.695
432.74	7.648
433.10	7.463
433.45	7.191
433.80	7.886
434.16	6.921
434.51	7.400
434.86	6.460
435.22	7.705
435.57	7.311
435.92	6.900
436.28	7.850
436.63	6.608
436.98	8.266
437.34	7.441
437.69	6.329
438.04	7.139
438.39	7.007
438.75	6.862
439.10	7.558
439.45	7.211
439.81	6.780
440.16	7.024
440.51	7.358
440.86	7.004
441.22	7.503
441.57	7.128
441.92	7.468
442.27	7.374
442.63	7.004
442.98	7.524
443.33	7.259
443.68	7.978
444.03	7.385
444.39	8.137
444.74	7.249
445.09	6.792
445.44	7.640
445.79	7.232
446.15	7.297
446.50	7.390
446.85	7.831
447.20	7.592
447.55	7.270
447.91	6.859
448.26	7.241
448.61	7.120
448.96	7.511
449.31	7.317
449.66	6.645
450.02	7.331
450.37	7.299
450.72	7.212
451.07	7.574
451.42	6.875
451.77	6.726
452.12	7.562
452.47	7.130
452.83	7.207
453.18	7.122
453.53	6.376
453.88	7.510
454.23	7.571
454.58	7.661
454.93	6.857
455.28	8.007
455.63	7.220
455.98	7.821
456.34	7.008
456.69	6.937
457.04	6.738
457.39	6.818
457.74	7.998
458.09	7.359
458.44	7.759
458.79	6.962
459.14	6.869
459.49	6.621
459.84	6.663
460.19	6.885
460.54	6.417
460.89	6.458
461.24	6.322
461.59	7.582
461.94	6.845
462.29	6.943
462.64	7.242
462.99	7.219
463.34	7.073
463.69	7.679
464.04	7.560
464.39	6.222
464.74	7.412
465.09	6.747
465.44	7.082
465.79	7.879
466.14	7.243
466.49	7.368
466.84	6.612
467.19	6.705
467.54	6.933
467.89	6.494
468.24	7.812
468.59	6.138
468.94	6.760
469.29	6.839
469.64	6.739
469.99	6.055
470.34	7.054
470.68	6.562
471.03	7.138
471.38	6.802
471.73	6.957
472.08	6.789
472.43	7.044
472.78	7.305
473.13	6.700
473.48	7.190
473.83	7.197
474.17	7.327
474.52	5.833
474.87	7.198
475.22	7.155
475.57	6.750
475.92	6.969
476.27	5.857
476.61	7.061
476.96	6.361
477.31	7.376
477.66	7.240
478.01	7.219
478.36	7.129
478.70	6.798
479.05	6.902
479.40	7.009
479.75	7.493
480.10	6.774
480.45	7.201
480.79	7.256
481.14	6.985
481.49	6.861
481.84	7.180
482.19	7.097
482.53	7.258
482.88	7.178
483.23	6.847
483.58	6.594
483.92	6.782
484.27	6.901
484.62	7.261
484.97	7.154
485.31	7.040
485.66	6.454
486.01	7.018
486.36	7.179
486.70	7.354
487.05	7.032
487.40	7.290
487.75	6.590
488.09	7.185
488.44	6.874
488.79	6.745
489.13	6.843
489.48	6.369
489.83	6.922
490.17	6.926
490.52	6.568
490.87	6.726
491.22	6.326
491.56	6.997
491.91	6.454
492.26	6.923
492.60	6.821
492.95	7.196
493.30	6.813
493.64	7.008
493.99	6.228
494.34	6.577
494.68	6.338
495.03	7.225
495.37	6.613
495.72	6.122
496.07	6.924
496.41	6.349
496.76	6.964
497.11	6.794
497.45	6.042
497.80	7.152
498.14	6.395
498.49	5.882
498.84	7.221
499.18	6.613
499.53	6.951
499.87	6.725
500.22	5.788
500.56	6.433
500.91	6.499
501.26	6.864
501.60	6.010
501.95	6.730
502.29	6.757
502.64	6.865
502.98	6.644
503.33	6.220
503.67	6.193
504.02	7.137
504.36	6.836
504.71	6.063
505.06	6.048
505.40	6.947
505.75	6.694
506.09	6.998
506.44	7.010
506.78	6.422
507.13	6.455
507.47	6.348
507.82	6.155
508.16	7.027
508.51	6.188
508.85	6.424
509.19	6.395
509.54	7.157
509.88	6.217
510.23	6.265
510.57	6.863
510.92	6.144
511.26	6.109
511.61	5.649
511.95	6.101
512.30	6.992
512.64	6.047
512.98	5.903
513.33	6.653
513.67	5.558
514.02	6.336
514.36	6.854
514.70	6.094
515.05	6.309
515.39	5.669
515.74	6.734
516.08	6.022
516.42	6.593
516.77	6.309
517.11	6.137
517.46	6.575
517.80	6.734
518.14	6.366
518.49	6.399
518.83	6.493
519.17	6.354
519.52	6.080
519.86	6.230
520.20	6.124
520.55	6.681
520.89	6.588
521.23	5.695
521.58	5.763
521.92	6.686
522.26	5.727
522.61	6.424
522.95	6.171
523.29	6.322
523.64	6.054
523.98	6.731
524.32	6.877
524.66	6.375
525.01	5.776
525.35	5.974
525.69	5.684
526.04	6.315
526.38	6.897
526.72	6.171
527.06	6.100
527.41	6.239
527.75	6.591
528.09	6.257
528.43	5.861
528.78	5.434
529.12	5.734
529.46	5.509
529.80	6.236
530.15	5.681
530.49	5.516
530.83	5.962
531.17	5.854
531.51	5.596
531.86	6.550
532.20	7.439
532.54	5.925
532.88	5.879
533.22	5.834
533.57	6.290
533.91	6.678
534.25	6.105
534.59	6.092
534.93	5.999
535.27	6.141
535.62	6.652
535.96	6.392
536.30	6.052
536.64	6.006
536.98	6.827
537.32	6.111
537.66	6.987
538.01	5.921
538.35	6.638
538.69	5.769
539.03	6.315
539.37	6.890
539.71	6.126
540.05	6.775
540.39	5.501
540.73	5.282
541.07	5.702
541.42	5.611
541.76	5.813
542.10	6.212
542.44	5.847
542.78	6.873
543.12	6.079
543.46	6.532
543.80	5.995
544.14	5.925
544.48	6.265
544.82	6.463
545.16	6.202
545.50	5.812
545.84	5.573
546.18	6.975
546.52	5.924
546.86	5.346
547.20	6.043
547.54	6.242
547.88	5.666
548.22	5.789
548.56	5.617
548.90	5.433
549.24	6.322
549.58	6.120
549.92	5.485
550.26	6.278
550.60	5.743
550.94	6.792
551.28	5.809
551.62	6.671
551.96	6.084
552.30	6.756
552.64	5.974
552.98	5.677
553.32	6.045
553.66	5.273
554.00	6.305
554.34	5.534
554.68	5.552
555.02	6.045
555.36	5.786
555.69	4.933
556.03	5.675
556.37	5.194
556.71	5.770
557.05	6.837
557.39	5.043
557.73	6.605
558.07	5.430
558.41	6.179
558.75	5.477
559.08	5.637
559.42	5.487
559.76	6.309
560.10	5.760
560.44	5.607
560.78	6.688
561.12	5.542
561.45	5.839
561.79	5.189
562.13	5.792
562.47	5.672
562.81	5.759
563.15	6.818
563.48	5.594
563.82	5.925
564.16	5.148
564.50	6.198
564.84	5.664
565.17	6.235
565.51	6.099
565.85	5.285
566.19	5.127
566.52	6.027
566.86	5.942
567.20	4.894
567.54	5.470
567.88	5.810
568.21	5.978
568.55	5.180
568.89	5.674
569.23	6.506
569.56	5.862
569.90	6.130
570.24	6.172
570.57	5.388
570.91	5.664
571.25	5.901
571.59	6.095
571.92	5.784
572.26	5.797
572.60	6.061
572.93	6.067
573.27	5.760
573.61	6.247
573.95	5.997
574.28	6.260
574.62	5.935
574.96	5.779
575.29	6.059
575.63	6.029
575.97	6.204
576.30	6.045
576.64	6.228
576.98	5.854
577.31	5.848
577.65	6.005
577.98	6.099
578.32	5.994
578.66	6.182
578.99	5.939
579.33	6.025
579.67	5.848
580.00	6.316
580.34	6.239
580.67	5.627
581.01	5.495
581.35	6.039
581.68	6.069
582.02	6.450
582.35	5.985
582.69	5.987
583.02	6.130
583.36	6.264
583.70	5.817
584.03	6.072
584.37	6.097
584.70	5.892
585.04	5.836
585.37	5.722
585.71	5.825
586.04	5.967
586.38	6.035
586.72	5.540
587.05	5.449
587.39	5.684
587.72	5.957
588.06	5.875
588.39	6.049
588.73	5.873
589.06	5.756
589.40	5.562
589.73	6.041
590.07	5.670
590.40	6.119
590.73	5.868
591.07	6.329
591.40	5.443
591.74	5.525
592.07	5.765
592.41	5.797
592.74	6.283
593.08	5.987
593.41	6.212
593.75	6.178
594.08	5.847
594.41	6.122
594.75	5.646
595.08	5.384
595.42	5.552
595.75	5.780
596.09	5.998
596.42	5.554
596.75	6.175
597.09	5.939
597.42	5.840
597.75	6.272
598.09	6.230
598.42	6.152
598.76	5.617
599.09	6.016
599.42	5.665
599.76	5.943
600.09	5.572
600.42	5.806
600.76	6.209
601.09	5.775
601.42	5.355
601.76	5.655
602.09	5.540
602.42	5.852
602.76	5.941
603.09	6.167
603.42	5.130
603.76	5.109
604.09	6.494
604.42	5.982
604.76	5.670
605.09	5.425
605.42	5.861
605.75	6.269
606.09	5.189
606.42	5.472
606.75	5.510
607.09	5.146
607.42	5.819
607.75	5.823
608.08	5.209
608.42	5.643
608.75	6.095
609.08	6.070
609.41	5.470
609.75	5.625
610.08	5.409
610.41	5.820
610.74	5.924
611.07	5.551
611.41	6.009
611.74	6.005
612.07	5.517
612.40	5.751
612.73	5.526
613.07	5.623
613.40	5.919
613.73	5.729
614.06	5.888
614.39	5.879
614.72	5.143
615.06	5.630
615.39	5.365
615.72	5.592
616.05	5.148
616.38	5.348
616.71	5.434
617.05	5.591
617.38	5.671
617.71	5.562
618.04	5.990
618.37	6.230
618.70	5.656
619.03	5.376
619.36	5.117
619.69	5.253
620.03	5.461
620.36	5.153
620.69	5.614
621.02	5.774
621.35	6.313
621.68	5.568
622.01	5.125
622.34	5.021
622.67	5.704
623.00	4.184
623.33	5.375
623.66	5.447
623.99	4.016
624.32	5.848
624.65	5.277
624.99	5.852
625.32	5.487
625.65	5.664
625.98	4.475
626.31	5.032
626.64	5.641
626.97	5.476
627.30	4.556
627.63	4.801
627.96	6.156
628.29	5.837
628.62	4.198
628.95	4.382
629.28	4.673
629.61	5.471
629.94	5.690
630.26	4.492
630.59	4.318
630.92	5.195
631.25	5.277
631.58	5.085
631.91	4.405
632.24	4.515
632.57	4.839
632.90	3.811
633.23	5.000
633.56	3.980
633.89	4.029
634.22	4.782
634.55	4.071
634.88	4.545
635.20	5.813
635.53	4.859
635.86	5.200
636.19	5.408
636.52	4.325
636.85	4.597
637.18	6.133
637.51	5.269
637.83	6.312
638.16	2.880
638.49	3.404
638.82	5.073
639.15	4.238
639.48	5.889
639.81	4.850
640.13	5.536
640.46	4.121
640.79	4.412
641.12	6.460
641.45	4.141
641.77	7.060
642.10	4.593
642.43	5.585
642.76	4.607
643.09	5.753
643.41	4.062
643.74	4.000
644.07	4.138
644.40	3.678
644.73	3.628
645.05	4.405
645.38	4.460
645.71	4.252
646.04	4.304
646.36	3.358
646.69	3.988
647.02	5.505
647.35	5.191
647.67	3.382
648.00	4.777
648.33	4.505
648.66	4.137
648.98	4.490
649.31	4.736
649.64	5.445
649.96	4.509
650.29	2.643
650.62	4.243
650.94	4.505
651.27	2.844
651.60	5.263
651.92	3.495
652.25	4.486
652.58	3.989
652.90	1.599
653.23	4.789
653.56	4.137
653.88	5.758
654.21	4.789
654.54	3.902
