SpectraSuite Data File
++++++++++++++++++++++++++++++++++++
Date: Thu May 14 16:08:01 PDT 2015
User: schluterlab
Dark Spectrum Present: Yes
Reference Spectrum Present: Yes
Number of Sampled Component Spectra: 1
Spectrometers: USB2E3373
Integration Time (usec): 3000 (USB2E3373)
Spectra Averaged: 3 (USB2E3373)
Boxcar Smoothing: 0 (USB2E3373)
Correct for Electrical Dark: No (USB2E3373)
Strobe/Lamp Enabled: No (USB2E3373)
Correct for Detector Non-linearity: No (USB2E3373)
Correct for Stray Light: No (USB2E3373)
Number of Pixels in Processed Spectrum: 2048
>>>>>Begin Processed Spectral Data<<<<<
178.53	0.000
178.91	171.429
179.29	-2400.000
179.67	-1700.000
180.04	207.143
180.42	80.000
180.80	280.000
181.18	-800.000
181.56	-800.000
181.94	425.000
182.31	-425.000
182.69	400.000
183.07	-700.000
183.45	525.000
183.83	-283.333
184.20	-166.667
184.58	1200.000
184.96	-325.000
185.34	-144.444
185.72	-20.000
186.09	355.556
186.47	950.000
186.85	560.000
187.23	-155.556
187.61	-1300.000
187.98	220.000
188.36	325.000
188.74	-350.000
189.12	-500.000
189.49	-25.000
189.87	-187.500
190.25	-100.000
190.63	-180.000
191.00	-122.222
191.38	0.000
191.76	-375.000
192.14	-333.333
192.51	750.000
192.89	-166.667
193.27	0.000
193.65	-128.571
194.02	-1400.000
194.40	-114.286
194.78	185.714
195.15	0.000
195.53	-27.273
195.91	0.000
196.29	-250.000
196.66	-69.231
197.04	-1600.000
197.42	-257.143
197.79	-1050.000
198.17	-62.500
198.55	-285.714
198.92	-66.667
199.30	-200.000
199.68	-100.000
200.05	7.143
200.43	-900.000
200.81	257.143
201.18	0.000
201.56	177.778
201.94	0.000
202.31	533.333
202.69	-244.444
203.07	600.000
203.44	-44.444
203.82	-325.000
204.19	-8.333
204.57	-300.000
204.95	-187.500
205.32	-1900.000
205.70	450.000
206.08	-183.333
206.45	-250.000
206.83	400.000
207.20	-200.000
207.58	-180.000
207.96	-250.000
208.33	-100.000
208.71	200.000
209.08	-33.333
209.46	0.000
209.84	250.000
210.21	650.000
210.59	800.000
210.96	533.333
211.34	-150.000
211.71	-212.500
212.09	-800.000
212.46	0.000
212.84	950.000
213.22	-360.000
213.59	-175.000
213.97	-100.000
214.34	-100.000
214.72	433.333
215.09	-225.000
215.47	0.000
215.84	171.429
216.22	1250.000
216.59	-120.000
216.97	-260.000
217.34	-375.000
217.72	-50.000
218.09	-600.000
218.47	-400.000
218.84	0.000
219.22	320.000
219.59	-41.176
219.97	-20.000
220.34	1100.000
220.72	-44.444
221.09	-46.154
221.47	-400.000
221.84	-160.000
222.22	-214.286
222.59	0.000
222.97	-162.500
223.34	-660.000
223.72	-2000.000
224.09	-400.000
224.46	-325.000
224.84	-300.000
225.21	-228.571
225.59	-575.000
225.96	-325.000
226.34	-11.538
226.71	366.667
227.08	-1100.000
227.46	-60.000
227.83	-575.000
228.21	-15.789
228.58	212.500
228.95	700.000
229.33	-8.333
229.70	-90.000
230.08	0.000
230.45	200.000
230.82	-400.000
231.20	-71.429
231.57	-83.333
231.95	-109.091
232.32	-154.545
232.69	-35.000
233.07	-450.000
233.44	-47.059
233.81	-180.000
234.19	-55.556
234.56	-50.000
234.93	3.448
235.31	-89.474
235.68	-66.667
236.05	-85.000
236.43	-34.615
236.80	20.000
237.17	-18.519
237.55	-39.394
237.92	-130.000
238.29	-32.258
238.67	-18.182
239.04	-36.111
239.41	-23.810
239.79	-10.870
240.16	-16.667
240.53	-28.261
240.91	-23.529
241.28	-27.869
241.65	-5.970
242.02	-9.459
242.40	-15.385
242.77	-14.667
243.14	-18.293
243.51	-31.579
243.89	-26.923
244.26	-2.970
244.63	1.961
245.00	-15.888
245.38	-13.158
245.75	-22.124
246.12	-6.349
246.49	-11.628
246.87	-10.000
247.24	-2.649
247.61	-5.263
247.98	-11.409
248.36	-12.963
248.73	-11.656
249.10	-10.929
249.47	-1.493
249.84	0.524
250.22	-3.109
250.59	-9.444
250.96	-1.818
251.33	-13.265
251.70	-1.709
252.08	-2.917
252.45	-1.230
252.82	-7.025
253.19	-3.516
253.56	-5.323
253.94	-10.385
254.31	-3.030
254.68	0.699
255.05	-0.651
255.42	-2.721
255.79	-4.207
256.16	-5.629
256.54	-7.285
256.91	-1.639
257.28	-3.607
257.65	-6.369
258.02	-5.310
258.39	-3.704
258.76	-3.058
259.14	-3.736
259.51	-0.865
259.88	-4.533
260.25	-6.389
260.62	-3.562
260.99	-1.639
261.36	0.536
261.73	-4.775
262.10	-3.846
262.47	-0.536
262.85	0.758
263.22	-5.195
263.59	-6.053
263.96	-1.279
264.33	-1.279
264.70	-2.716
265.07	-0.955
265.44	0.454
265.81	-4.167
266.18	-0.907
266.55	-0.893
266.92	-5.239
267.29	-2.407
267.66	-0.222
268.03	-1.528
268.40	-1.461
268.77	-2.506
269.14	-4.405
269.51	-1.754
269.88	-1.434
270.25	-0.201
270.62	-0.633
270.99	1.414
271.36	-0.594
271.73	-1.572
272.10	-2.405
272.47	-2.605
272.84	-1.807
273.21	-2.405
273.58	-1.210
273.95	-3.269
274.32	-3.042
274.69	-3.095
275.06	-1.282
275.43	-3.882
275.80	0.176
276.17	-5.185
276.54	0.000
276.91	-3.399
277.28	-1.447
277.65	-0.718
278.02	-0.919
278.39	-1.449
278.76	-1.582
279.13	-1.241
279.50	0.687
279.87	-0.358
280.23	-2.817
280.60	-0.508
280.97	-1.316
281.34	-0.849
281.71	-0.677
282.08	-0.997
282.45	-1.637
282.82	-0.157
283.19	-1.777
283.56	-2.623
283.92	1.201
284.29	0.948
284.66	-0.821
285.03	-2.564
285.40	0.464
285.77	-2.012
286.14	0.305
286.51	-1.979
286.87	-2.528
287.24	-1.054
287.61	-1.196
287.98	-1.511
288.35	0.740
288.72	-1.479
289.08	-0.146
289.45	-1.775
289.82	-1.958
290.19	-1.149
290.56	-1.127
290.93	-0.999
291.29	-0.551
291.66	-1.377
292.03	-0.814
292.40	-0.680
292.77	-0.539
293.13	0.541
293.50	-1.971
293.87	0.403
294.24	0.800
294.60	-0.506
294.97	-2.013
295.34	0.768
295.71	-0.504
296.08	-1.680
296.44	-0.245
296.81	0.122
297.18	-1.121
297.55	-0.590
297.91	0.237
298.28	-1.777
298.65	0.000
299.02	-0.118
299.38	-0.572
299.75	-0.234
300.12	-1.157
300.48	-0.806
300.85	0.337
301.22	0.336
301.59	-0.571
301.95	-0.113
302.32	0.556
302.69	-0.548
303.05	-0.762
303.42	-0.333
303.79	-0.208
304.15	0.526
304.52	0.211
304.89	0.314
305.25	0.518
305.62	-0.209
305.99	0.412
306.35	0.202
306.72	-0.310
307.09	-0.609
307.45	0.621
307.82	0.000
308.19	0.908
308.55	1.254
308.92	0.195
309.29	1.628
309.65	0.097
310.02	0.099
310.38	0.886
310.75	0.291
311.12	1.822
311.48	0.293
311.85	1.425
312.22	0.949
312.58	1.315
312.95	0.860
313.31	1.807
313.68	2.106
314.05	2.439
314.41	2.641
314.78	1.998
315.14	3.267
315.51	2.770
315.87	3.060
316.24	3.105
316.61	4.618
316.97	2.534
317.34	1.940
317.70	3.231
318.07	3.968
318.43	5.102
318.80	4.599
319.16	4.206
319.53	4.284
319.89	4.207
320.26	6.495
320.62	3.989
320.99	4.801
321.35	5.083
321.72	7.256
322.08	4.869
322.45	5.601
322.81	6.769
323.18	6.106
323.54	5.517
323.91	7.473
324.27	7.401
324.64	7.221
325.00	6.799
325.37	7.944
325.73	7.603
326.10	8.029
326.46	9.528
326.83	8.567
327.19	8.189
327.56	8.379
327.92	8.655
328.29	8.790
328.65	7.956
329.01	8.460
329.38	9.688
329.74	8.562
330.11	9.932
330.47	8.509
330.84	8.527
331.20	9.417
331.56	8.925
331.93	9.791
332.29	8.983
332.66	9.053
333.02	9.799
333.38	8.725
333.75	8.333
334.11	9.675
334.48	8.828
334.84	11.470
335.20	9.488
335.57	9.949
335.93	8.926
336.29	8.902
336.66	9.251
337.02	9.615
337.38	10.034
337.75	8.843
338.11	9.504
338.47	8.437
338.84	9.475
339.20	8.172
339.56	9.555
339.93	9.606
340.29	9.742
340.65	9.651
341.02	10.295
341.38	10.833
341.74	10.169
342.11	8.608
342.47	9.055
342.83	10.628
343.20	10.384
343.56	9.142
343.92	10.008
344.28	9.219
344.65	10.310
345.01	9.204
345.37	9.642
345.73	9.587
346.10	9.438
346.46	9.731
346.82	10.337
347.19	9.931
347.55	9.939
347.91	10.030
348.27	9.256
348.63	10.358
349.00	9.620
349.36	10.037
349.72	10.119
350.08	10.178
350.45	9.506
350.81	9.276
351.17	9.474
351.53	10.083
351.89	9.795
352.26	10.821
352.62	9.776
352.98	9.771
353.34	8.364
353.70	9.553
354.07	9.314
354.43	9.339
354.79	8.975
355.15	10.302
355.51	10.015
355.87	10.097
356.24	11.331
356.60	9.165
356.96	8.747
357.32	9.442
357.68	9.370
358.04	9.431
358.40	9.776
358.77	9.357
359.13	9.158
359.49	8.625
359.85	10.080
360.21	10.258
360.57	9.835
360.93	9.803
361.29	10.386
361.66	10.138
362.02	10.995
362.38	10.190
362.74	10.265
363.10	10.041
363.46	10.042
363.82	11.293
364.18	9.993
364.54	10.512
364.90	10.903
365.26	10.000
365.62	10.867
365.98	10.619
366.35	11.007
366.71	10.748
367.07	11.908
367.43	11.031
367.79	11.413
368.15	12.508
368.51	10.352
368.87	11.430
369.23	11.400
369.59	10.383
369.95	11.359
370.31	11.411
370.67	11.210
371.03	12.119
371.39	10.947
371.75	11.623
372.11	11.518
372.47	11.036
372.83	11.715
373.19	12.608
373.55	11.653
373.91	11.656
374.27	11.902
374.63	13.194
374.99	10.809
375.35	12.857
375.71	12.903
376.07	12.460
376.42	12.406
376.78	12.617
377.14	11.666
377.50	11.512
377.86	12.993
378.22	13.114
378.58	12.366
378.94	12.676
379.30	12.537
379.66	12.522
380.02	13.503
380.38	13.134
380.74	13.521
381.09	12.892
381.45	12.727
381.81	13.232
382.17	12.648
382.53	12.865
382.89	13.093
383.25	13.306
383.61	12.500
383.97	13.074
384.32	13.577
384.68	13.399
385.04	14.054
385.40	14.378
385.76	14.302
386.12	13.465
386.48	13.824
386.83	14.243
387.19	13.441
387.55	13.263
387.91	13.984
388.27	14.607
388.62	14.089
388.98	14.044
389.34	14.496
389.70	14.120
390.06	14.150
390.42	13.976
390.77	14.208
391.13	14.085
391.49	14.070
391.85	14.242
392.20	14.353
392.56	14.885
392.92	14.449
393.28	14.704
393.64	14.469
393.99	15.340
394.35	13.843
394.71	14.551
395.07	13.713
395.42	13.935
395.78	15.478
396.14	14.736
396.50	14.014
396.85	13.775
397.21	15.207
397.57	14.488
397.92	15.808
398.28	14.557
398.64	14.588
399.00	14.346
399.35	14.869
399.71	14.620
400.07	15.048
400.42	14.144
400.78	15.104
401.14	14.741
401.49	14.781
401.85	15.640
402.21	15.411
402.57	15.493
402.92	14.775
403.28	14.403
403.63	14.976
403.99	14.964
404.35	15.122
404.70	15.637
405.06	14.783
405.42	15.925
405.77	15.213
406.13	15.883
406.49	15.822
406.84	15.845
407.20	15.204
407.55	14.779
407.91	14.519
408.27	14.664
408.62	15.009
408.98	15.206
409.34	13.842
409.69	15.389
410.05	15.885
410.40	14.965
410.76	15.199
411.11	15.663
411.47	15.111
411.83	15.755
412.18	15.723
412.54	15.471
412.89	15.716
413.25	15.237
413.60	15.393
413.96	16.026
414.31	14.448
414.67	16.160
415.03	14.769
415.38	14.943
415.74	15.638
416.09	15.546
416.45	15.028
416.80	15.177
417.16	15.517
417.51	14.944
417.87	15.144
418.22	15.150
418.58	15.489
418.93	15.832
419.29	15.166
419.64	15.066
420.00	15.964
420.35	15.665
420.71	14.877
421.06	15.181
421.42	15.654
421.77	14.917
422.12	15.539
422.48	15.822
422.83	15.717
423.19	15.650
423.54	15.653
423.90	14.964
424.25	16.533
424.61	14.868
424.96	15.815
425.31	16.561
425.67	14.815
426.02	15.385
426.38	15.672
426.73	15.234
427.09	16.321
427.44	14.910
427.79	15.976
428.15	15.183
428.50	15.393
428.85	16.016
429.21	15.957
429.56	15.795
429.92	16.265
430.27	16.000
430.62	15.926
430.98	15.740
431.33	15.787
431.68	15.374
432.04	15.541
432.39	15.694
432.74	15.811
433.10	15.143
433.45	15.162
433.80	16.899
434.16	15.496
434.51	15.982
434.86	15.961
435.22	16.206
435.57	16.392
435.92	16.082
436.28	16.098
436.63	16.548
436.98	15.405
437.34	15.727
437.69	15.080
438.04	15.389
438.39	16.370
438.75	15.053
439.10	16.332
439.45	15.595
439.81	15.989
440.16	15.550
440.51	15.496
440.86	14.953
441.22	15.434
441.57	16.457
441.92	15.907
442.27	16.010
442.63	15.251
442.98	16.009
443.33	15.781
443.68	16.749
444.03	16.322
444.39	16.181
444.74	16.539
445.09	15.611
445.44	16.175
445.79	15.613
446.15	15.365
446.50	16.072
446.85	15.467
447.20	16.151
447.55	16.684
447.91	15.079
448.26	15.328
448.61	16.100
448.96	16.524
449.31	15.270
449.66	14.924
450.02	15.348
450.37	15.770
450.72	15.447
451.07	16.287
451.42	15.309
451.77	15.620
452.12	15.293
452.47	14.676
452.83	15.203
453.18	15.470
453.53	15.393
453.88	14.964
454.23	15.876
454.58	14.626
454.93	15.170
455.28	15.172
455.63	14.952
455.98	15.196
456.34	14.782
456.69	15.226
457.04	14.835
457.39	15.133
457.74	15.660
458.09	15.376
458.44	15.409
458.79	14.750
459.14	15.155
459.49	15.110
459.84	15.373
460.19	15.158
460.54	15.162
460.89	15.140
461.24	14.885
461.59	14.721
461.94	14.718
462.29	15.006
462.64	14.062
462.99	14.124
463.34	15.315
463.69	15.592
464.04	15.231
464.39	14.238
464.74	14.025
465.09	14.072
465.44	14.109
465.79	14.543
466.14	14.747
466.49	14.684
466.84	14.050
467.19	14.798
467.54	14.160
467.89	13.678
468.24	14.017
468.59	13.781
468.94	14.103
469.29	13.557
469.64	13.414
469.99	13.257
470.34	14.233
470.68	13.739
471.03	14.604
471.38	12.688
471.73	13.134
472.08	14.340
472.43	13.606
472.78	14.484
473.13	14.223
473.48	13.595
473.83	13.871
474.17	12.954
474.52	13.710
474.87	13.234
475.22	13.577
475.57	13.188
475.92	13.788
476.27	13.525
476.61	13.499
476.96	13.034
477.31	12.673
477.66	13.536
478.01	13.320
478.36	13.509
478.70	12.463
479.05	13.292
479.40	13.129
479.75	13.016
480.10	12.648
480.45	13.355
480.79	12.653
481.14	12.822
481.49	12.313
481.84	13.446
482.19	13.075
482.53	13.249
482.88	12.938
483.23	12.850
483.58	12.533
483.92	12.323
484.27	12.743
484.62	12.252
484.97	12.519
485.31	12.214
485.66	12.260
486.01	12.465
486.36	12.536
486.70	13.198
487.05	13.193
487.40	12.840
487.75	12.443
488.09	11.919
488.44	11.714
488.79	12.445
489.13	11.984
489.48	11.767
489.83	12.072
490.17	11.341
490.52	11.494
490.87	11.760
491.22	11.568
491.56	11.604
491.91	11.731
492.26	11.424
492.60	11.806
492.95	11.935
493.30	11.251
493.64	11.476
493.99	11.096
494.34	11.106
494.68	10.792
495.03	11.322
495.37	11.229
495.72	11.338
496.07	11.613
496.41	11.111
496.76	11.093
497.11	10.658
497.45	10.747
497.80	10.840
498.14	10.431
498.49	10.524
498.84	10.740
499.18	10.481
499.53	11.076
499.87	10.901
500.22	10.374
500.56	9.897
500.91	10.389
501.26	10.591
501.60	10.252
501.95	10.508
502.29	10.706
502.64	10.407
502.98	10.267
503.33	9.546
503.67	9.987
504.02	9.764
504.36	10.232
504.71	9.738
505.06	9.368
505.40	9.689
505.75	9.472
506.09	9.484
506.44	9.610
506.78	10.229
507.13	9.544
507.47	9.332
507.82	9.564
508.16	8.843
508.51	9.048
508.85	9.306
509.19	9.569
509.54	9.174
509.88	8.936
510.23	9.665
510.57	9.328
510.92	9.482
511.26	8.995
511.61	8.547
511.95	8.882
512.30	9.503
512.64	8.696
512.98	8.904
513.33	9.375
513.67	9.179
514.02	8.942
514.36	8.900
514.70	8.385
515.05	8.394
515.39	8.714
515.74	9.173
516.08	8.769
516.42	9.471
516.77	8.517
517.11	9.077
517.46	8.961
517.80	9.033
518.14	9.032
518.49	8.134
518.83	8.356
519.17	8.724
519.52	7.966
519.86	8.501
520.20	8.679
520.55	7.338
520.89	7.264
521.23	8.431
521.58	8.644
521.92	8.329
522.26	7.961
522.61	7.870
522.95	8.189
523.29	8.276
523.64	7.511
523.98	7.758
524.32	8.309
524.66	8.139
525.01	7.984
525.35	7.295
525.69	7.831
526.04	8.037
526.38	8.161
526.72	7.093
527.06	7.801
527.41	7.813
527.75	8.195
528.09	7.792
528.43	7.519
528.78	6.994
529.12	6.995
529.46	7.476
529.80	7.323
530.15	7.014
530.49	6.346
530.83	7.497
531.17	6.870
531.51	7.521
531.86	7.572
532.20	7.805
532.54	7.062
532.88	6.848
533.22	7.425
533.57	7.271
533.91	8.025
534.25	7.349
534.59	7.299
534.93	6.961
535.27	6.704
535.62	7.561
535.96	7.147
536.30	6.757
536.64	7.087
536.98	6.950
537.32	7.469
537.66	7.361
538.01	7.553
538.35	6.090
538.69	6.851
539.03	6.744
539.37	6.714
539.71	7.508
540.05	7.074
540.39	6.174
540.73	6.740
541.07	6.806
541.42	6.793
541.76	6.228
542.10	6.514
542.44	6.212
542.78	6.691
543.12	6.913
543.46	6.471
543.80	6.055
544.14	6.044
544.48	6.678
544.82	6.703
545.16	6.559
545.50	6.291
545.84	5.818
546.18	7.407
546.52	6.178
546.86	5.472
547.20	5.852
547.54	6.617
547.88	5.847
548.22	5.965
548.56	5.851
548.90	5.731
549.24	5.653
549.58	5.678
549.92	5.867
550.26	5.825
550.60	6.190
550.94	5.757
551.28	6.403
551.62	5.660
551.96	5.761
552.30	6.437
552.64	5.600
552.98	5.552
553.32	6.045
553.66	6.045
554.00	5.422
554.34	5.534
554.68	5.423
555.02	5.848
555.36	6.180
555.69	5.125
556.03	5.485
556.37	6.571
556.71	5.644
557.05	5.751
557.39	5.176
557.73	5.746
558.07	4.967
558.41	6.113
558.75	5.477
559.08	5.150
559.42	5.624
559.76	5.563
560.10	6.229
560.44	4.815
560.78	6.063
561.12	5.234
561.45	6.022
561.79	5.372
562.13	6.346
562.47	4.932
562.81	4.747
563.15	5.682
563.48	5.407
563.82	4.897
564.16	5.270
564.50	5.662
564.84	5.428
565.17	6.353
565.51	5.293
565.85	5.107
566.19	4.954
566.52	5.149
566.86	5.207
567.20	4.241
567.54	5.045
567.88	5.505
568.21	5.336
568.55	5.707
568.89	4.766
569.23	5.746
569.56	5.197
569.90	5.417
570.24	4.924
570.57	5.164
570.91	4.960
571.25	5.756
571.59	5.483
571.92	5.490
572.26	5.188
572.60	4.887
572.93	5.511
573.27	5.142
573.61	5.797
573.95	5.414
574.28	5.583
574.62	5.207
574.96	5.007
575.29	5.155
575.63	5.105
575.97	5.389
576.30	5.329
576.64	5.225
576.98	5.080
577.31	5.497
577.65	5.200
577.98	5.535
578.32	5.038
578.66	5.107
578.99	5.427
579.33	5.091
579.67	5.122
580.00	5.012
580.34	5.366
580.67	4.832
581.01	5.019
581.35	5.260
581.68	5.253
582.02	5.261
582.35	5.327
582.69	4.892
583.02	4.952
583.36	5.073
583.70	4.885
584.03	4.776
584.37	4.962
584.70	4.621
585.04	4.906
585.37	4.883
585.71	5.178
586.04	4.844
586.38	5.060
586.72	4.738
587.05	4.426
587.39	4.587
587.72	4.689
588.06	5.222
588.39	4.879
588.73	4.392
589.06	4.656
589.40	4.333
589.73	4.692
590.07	4.708
590.40	4.733
590.73	4.949
591.07	4.952
591.40	4.355
591.74	4.690
592.07	5.319
592.41	4.180
592.74	5.254
593.08	4.968
593.41	5.220
593.75	4.828
594.08	4.938
594.41	5.128
594.75	4.318
595.08	4.475
595.42	4.708
595.75	4.908
596.09	4.846
596.42	4.622
596.75	4.979
597.09	5.091
597.42	4.370
597.75	4.626
598.09	4.722
598.42	4.664
598.76	4.547
599.09	4.486
599.42	4.693
599.76	4.226
600.09	4.805
600.42	4.838
600.76	4.326
601.09	4.713
601.42	4.394
601.76	4.759
602.09	4.575
602.42	4.326
602.76	4.280
603.09	4.332
603.42	4.516
603.76	4.369
604.09	5.075
604.42	4.954
604.76	4.414
605.09	4.587
605.42	4.864
605.75	4.577
606.09	4.517
606.42	4.414
606.75	3.748
607.09	4.263
607.42	5.010
607.75	4.767
608.08	4.183
608.42	4.232
608.75	5.017
609.08	4.287
609.41	4.323
609.75	3.929
610.08	4.354
610.41	4.460
610.74	4.706
611.07	4.263
611.41	4.484
611.74	4.434
612.07	4.441
612.40	4.183
612.73	3.863
613.07	4.645
613.40	4.764
613.73	4.189
614.06	4.318
614.39	4.713
614.72	4.367
615.06	4.379
615.39	3.722
615.72	4.550
616.05	4.517
616.38	3.986
616.71	4.650
617.05	3.568
617.38	4.441
617.71	4.374
618.04	3.778
618.37	4.426
618.70	4.299
619.03	3.106
619.36	3.083
619.69	3.972
620.03	3.766
620.36	3.865
620.69	3.886
621.02	3.478
621.35	3.991
621.68	4.555
622.01	3.559
622.34	2.999
622.67	3.230
623.00	2.834
623.33	4.114
623.66	4.345
623.99	3.884
624.32	4.418
624.65	3.861
624.99	4.031
625.32	4.376
625.65	3.641
625.98	3.864
626.31	4.323
626.64	3.810
626.97	2.926
627.30	3.569
627.63	3.001
627.96	4.505
628.29	3.268
628.62	2.267
628.95	2.717
629.28	3.314
629.61	3.283
629.94	3.431
630.26	3.475
630.59	3.022
630.92	2.511
631.25	4.114
631.58	3.578
631.91	3.187
632.24	3.266
632.57	2.277
632.90	2.106
633.23	2.755
633.56	3.878
633.89	2.996
634.22	3.015
634.55	3.132
634.88	2.056
635.20	3.660
635.53	3.390
635.86	3.142
636.19	4.136
636.52	3.586
636.85	3.371
637.18	2.599
637.51	2.688
637.83	3.876
638.16	3.111
638.49	2.465
638.82	2.480
639.15	1.375
639.48	4.042
639.81	3.002
640.13	3.298
640.46	1.212
640.79	2.819
641.12	4.099
641.45	2.008
641.77	3.723
642.10	1.969
642.43	2.660
642.76	2.033
643.09	2.329
643.41	1.541
643.74	1.517
