SpectraSuite Data File
++++++++++++++++++++++++++++++++++++
Date: Thu May 14 16:06:06 PDT 2015
User: schluterlab
Dark Spectrum Present: Yes
Reference Spectrum Present: Yes
Number of Sampled Component Spectra: 1
Spectrometers: USB2E3373
Integration Time (usec): 3000 (USB2E3373)
Spectra Averaged: 3 (USB2E3373)
Boxcar Smoothing: 0 (USB2E3373)
Correct for Electrical Dark: No (USB2E3373)
Strobe/Lamp Enabled: No (USB2E3373)
Correct for Detector Non-linearity: No (USB2E3373)
Correct for Stray Light: No (USB2E3373)
Number of Pixels in Processed Spectrum: 2048
>>>>>Begin Processed Spectral Data<<<<<
178.53	0.000
178.91	185.714
179.29	-2200.000
179.67	-1300.000
180.04	178.571
180.42	120.000
180.80	260.000
181.18	-1200.000
181.56	-500.000
181.94	325.000
182.31	-100.000
182.69	233.333
183.07	-750.000
183.45	450.000
183.83	-266.667
184.20	-266.667
184.58	300.000
184.96	-500.000
185.34	-66.667
185.72	-80.000
186.09	288.889
186.47	700.000
186.85	520.000
187.23	-211.111
187.61	-2100.000
187.98	480.000
188.36	600.000
188.74	-325.000
189.12	-566.667
189.49	-87.500
189.87	-87.500
190.25	-111.111
190.63	-200.000
191.00	-77.778
191.38	0.000
191.76	-475.000
192.14	-150.000
192.51	300.000
192.89	-116.667
193.27	0.000
193.65	-100.000
194.02	-2500.000
194.40	-314.286
194.78	214.286
195.15	0.000
195.53	-127.273
195.91	0.000
196.29	-350.000
196.66	-23.077
197.04	-1300.000
197.42	-142.857
197.79	-450.000
198.17	-150.000
198.55	-300.000
198.92	-22.222
199.30	-175.000
199.68	-54.545
200.05	-92.857
200.43	-1000.000
200.81	242.857
201.18	0.000
201.56	288.889
201.94	0.000
202.31	900.000
202.69	-244.444
203.07	1400.000
203.44	-77.778
203.82	-325.000
204.19	-33.333
204.57	-200.000
204.95	-125.000
205.32	-400.000
205.70	450.000
206.08	-233.333
206.45	-233.333
206.83	460.000
207.20	-216.667
207.58	-220.000
207.96	-316.667
208.33	-116.667
208.71	158.333
209.08	-50.000
209.46	0.000
209.84	266.667
210.21	450.000
210.59	800.000
210.96	700.000
211.34	-150.000
211.71	-150.000
212.09	-1600.000
212.46	0.000
212.84	1100.000
213.22	-280.000
213.59	-225.000
213.97	-110.000
214.34	-333.333
214.72	333.333
215.09	-250.000
215.47	0.000
215.84	171.429
216.22	1350.000
216.59	-120.000
216.97	-120.000
217.34	-275.000
217.72	-162.500
218.09	-400.000
218.47	-325.000
218.84	0.000
219.22	240.000
219.59	-58.824
219.97	-40.000
220.34	1000.000
220.72	-133.333
221.09	-53.846
221.47	-233.333
221.84	-120.000
222.22	-314.286
222.59	0.000
222.97	-100.000
223.34	-460.000
223.72	-2500.000
224.09	-400.000
224.46	-375.000
224.84	-140.000
225.21	-300.000
225.59	-550.000
225.96	-350.000
226.34	-30.769
226.71	200.000
227.08	-500.000
227.46	-40.000
227.83	-250.000
228.21	-31.579
228.58	175.000
228.95	800.000
229.33	-125.000
229.70	-120.000
230.08	31.579
230.45	70.000
230.82	-433.333
231.20	-57.143
231.57	-16.667
231.95	-90.909
232.32	-172.727
232.69	-25.000
233.07	-450.000
233.44	-35.294
233.81	-140.000
234.19	-11.111
234.56	-50.000
234.93	0.000
235.31	-68.421
235.68	-111.111
236.05	-85.000
236.43	0.000
236.80	4.000
237.17	-33.333
237.55	-45.455
237.92	-160.000
238.29	-29.032
238.67	-38.636
239.04	-38.889
239.41	-26.190
239.79	-30.435
240.16	-3.704
240.53	-8.696
240.91	-19.608
241.28	-27.869
241.65	1.493
242.02	-2.703
242.40	0.000
242.77	4.000
243.14	-14.634
243.51	-17.105
243.89	-6.410
244.26	10.891
244.63	3.922
245.00	4.673
245.38	0.000
245.75	-0.885
246.12	13.492
246.49	3.101
246.87	8.571
247.24	9.272
247.61	0.658
247.98	6.711
248.36	2.469
248.73	4.294
249.10	8.197
249.47	8.458
249.84	9.948
250.22	6.736
250.59	6.111
250.96	8.182
251.33	2.041
251.70	9.829
252.08	10.000
252.45	7.377
252.82	7.851
253.19	5.078
253.56	8.745
253.94	3.846
254.31	6.061
254.68	9.091
255.05	11.075
255.42	8.503
255.79	5.178
256.16	6.623
256.54	6.954
256.91	9.508
257.28	8.525
257.65	5.096
258.02	5.900
258.39	9.402
258.76	14.373
259.14	12.069
259.51	12.680
259.88	8.499
260.25	10.833
260.62	10.137
260.99	10.109
261.36	12.869
261.73	9.284
262.10	8.516
262.47	9.920
262.85	15.152
263.22	6.494
263.59	7.632
263.96	12.276
264.33	9.719
264.70	9.630
265.07	12.411
265.44	13.605
265.81	10.417
266.18	12.472
266.55	12.500
266.92	9.339
267.29	12.473
267.66	9.756
268.03	11.354
268.40	10.856
268.77	10.478
269.14	7.269
269.51	11.404
269.88	12.090
270.25	9.658
270.62	11.392
270.99	13.131
271.36	11.287
271.73	11.198
272.10	11.222
272.47	9.419
272.84	10.643
273.21	11.222
273.58	9.879
273.95	10.192
274.32	8.745
274.69	8.897
275.06	12.271
275.43	10.166
275.80	11.111
276.17	10.000
276.54	11.194
276.91	10.376
277.28	11.212
277.65	10.772
278.02	11.765
278.39	11.232
278.76	9.490
279.13	10.461
279.50	10.653
279.87	10.733
280.23	8.099
280.60	11.864
280.97	11.678
281.34	7.980
281.71	11.337
282.08	10.299
282.45	9.820
282.82	10.361
283.19	10.985
283.56	8.852
283.92	11.862
284.29	12.322
284.66	11.987
285.03	9.615
285.40	9.274
285.77	8.669
286.14	13.282
286.51	9.285
286.87	8.847
287.24	8.735
287.61	11.360
287.98	8.308
288.35	9.320
288.72	10.207
289.08	11.713
289.45	9.172
289.82	8.283
290.19	10.345
290.56	10.845
290.93	11.127
291.29	11.157
291.66	8.264
292.03	8.684
292.40	9.932
292.77	9.299
293.13	9.066
293.50	8.016
293.87	9.262
294.24	11.600
294.60	10.240
294.97	9.128
295.34	10.243
295.71	9.206
296.08	8.915
296.44	10.539
296.81	9.501
297.18	9.589
297.55	8.019
297.91	9.134
298.28	8.057
298.65	8.680
299.02	8.973
299.38	9.382
299.75	8.879
300.12	8.333
300.48	8.756
300.85	8.999
301.22	8.613
301.59	7.534
301.95	7.797
302.32	8.333
302.69	7.229
303.05	9.467
303.42	8.537
303.79	9.375
304.15	8.097
304.52	8.351
304.89	7.853
305.25	8.178
305.62	9.300
305.99	9.485
306.35	8.266
306.72	7.859
307.09	8.832
307.45	9.420
307.82	8.375
308.19	8.274
308.55	8.582
308.92	8.666
309.29	8.333
309.65	8.285
310.02	9.208
310.38	9.350
310.75	10.097
311.12	9.204
311.48	8.602
311.85	9.212
312.22	9.488
312.58	9.953
312.95	8.604
313.31	9.033
313.68	9.799
314.05	11.201
314.41	10.018
314.78	10.536
315.14	10.073
315.51	10.434
315.87	11.701
316.24	10.959
316.61	11.012
316.97	10.860
317.34	11.287
317.70	10.306
318.07	11.464
318.43	12.075
318.80	12.542
319.16	12.017
319.53	10.711
319.89	11.218
320.26	13.256
320.62	12.677
320.99	13.389
321.35	12.662
321.72	13.674
322.08	12.714
322.45	12.827
322.81	13.177
323.18	13.186
323.54	14.224
323.91	15.036
324.27	13.425
324.64	14.610
325.00	13.682
325.37	14.988
325.73	15.372
326.10	14.923
326.46	15.554
326.83	15.853
327.19	15.827
327.56	15.889
327.92	15.500
328.29	15.000
328.65	15.745
329.01	15.736
329.38	16.765
329.74	17.894
330.11	16.524
330.47	16.596
330.84	17.227
331.20	17.583
331.56	16.551
331.93	16.987
332.29	17.203
332.66	17.857
333.02	16.332
333.38	16.862
333.75	16.498
334.11	17.765
334.48	16.584
334.84	18.267
335.20	17.800
335.57	17.875
335.93	17.355
336.29	15.973
336.66	17.578
337.02	18.562
337.38	18.707
337.75	17.686
338.11	18.503
338.47	18.610
338.84	17.343
339.20	16.175
339.56	17.628
339.93	17.734
340.29	17.472
340.65	16.383
341.02	17.797
341.38	18.189
341.74	18.321
342.11	17.216
342.47	17.236
342.83	18.116
343.20	17.661
343.56	17.322
343.92	18.175
344.28	18.984
344.65	18.605
345.01	17.941
345.37	18.429
345.73	17.849
346.10	18.643
346.46	17.089
346.82	19.101
347.19	17.800
347.55	18.665
347.91	17.831
348.27	18.361
348.63	19.040
349.00	18.345
349.36	18.662
349.72	18.452
350.08	18.574
350.45	18.403
350.81	18.250
351.17	17.669
351.53	18.575
351.89	19.590
352.26	19.104
352.62	19.254
352.98	18.702
353.34	17.849
353.70	19.800
354.07	19.151
354.43	18.299
354.79	18.325
355.15	18.985
355.51	20.833
355.87	18.250
356.24	19.544
356.60	19.586
356.96	19.570
357.32	19.851
357.68	19.400
358.04	19.611
358.40	19.925
358.77	20.468
359.13	19.793
359.49	19.703
359.85	20.667
360.21	20.588
360.57	19.167
360.93	19.605
361.29	19.789
361.66	21.361
362.02	22.617
362.38	21.082
362.74	21.089
363.10	20.770
363.46	21.330
363.82	20.739
364.18	20.971
364.54	21.093
364.90	21.940
365.26	22.621
365.62	21.867
365.98	21.375
366.35	21.946
366.71	21.769
367.07	23.275
367.43	21.930
367.79	22.296
368.15	23.144
368.51	21.651
368.87	22.534
369.23	22.467
369.59	22.541
369.95	22.380
370.31	22.890
370.67	23.384
371.03	22.992
371.39	23.237
371.75	23.040
372.11	23.306
372.47	23.223
372.83	24.476
373.19	23.215
373.55	23.509
373.91	23.722
374.27	23.480
374.63	23.681
374.99	24.072
375.35	24.675
375.71	23.935
376.07	23.628
376.42	24.055
376.78	25.171
377.14	23.082
377.50	24.794
377.86	24.692
378.22	25.749
378.58	25.386
378.94	24.883
379.30	24.253
379.66	25.220
380.02	25.101
380.38	25.691
380.74	25.690
381.09	26.132
381.45	25.739
381.81	26.288
382.17	25.891
382.53	26.082
382.89	25.451
383.25	26.084
383.61	25.984
383.97	26.207
384.32	27.512
384.68	26.218
385.04	27.299
385.40	27.519
385.76	27.081
386.12	26.930
386.48	26.588
386.83	27.116
387.19	27.115
387.55	26.937
387.91	27.112
388.27	28.118
388.62	26.747
388.98	26.960
389.34	27.342
389.70	27.542
390.06	27.649
390.42	27.530
390.77	28.417
391.13	27.582
391.49	28.019
391.85	26.848
392.20	27.877
392.56	28.293
392.92	28.081
393.28	28.248
393.64	28.771
393.99	28.472
394.35	28.972
394.71	29.222
395.07	27.665
395.42	28.726
395.78	29.250
396.14	28.342
396.50	27.732
396.85	27.490
397.21	28.935
397.57	28.740
397.92	28.981
398.28	28.300
398.64	28.375
399.00	28.796
399.35	28.639
399.71	28.043
400.07	29.422
400.42	28.172
400.78	28.993
401.14	29.368
401.49	29.733
401.85	28.372
402.21	29.954
402.57	29.577
402.92	29.374
403.28	29.274
403.63	29.356
403.99	29.038
404.35	28.709
404.70	29.405
405.06	28.804
405.42	29.274
405.77	29.008
406.13	29.876
406.49	28.266
406.84	29.474
407.20	30.129
407.55	28.710
407.91	29.478
408.27	29.623
408.62	29.727
408.98	29.774
409.34	28.094
409.69	29.913
410.05	29.543
410.40	29.988
410.76	28.772
411.11	30.625
411.47	29.545
411.83	29.394
412.18	28.976
412.54	30.172
412.89	30.093
413.25	30.023
413.60	30.040
413.96	30.594
414.31	30.255
414.67	29.696
415.03	28.554
415.38	30.328
415.74	30.483
416.09	29.796
416.45	28.679
416.80	28.397
417.16	29.693
417.51	30.448
417.87	30.043
418.22	29.820
418.58	29.988
418.93	30.442
419.29	30.210
419.64	29.892
420.00	29.436
420.35	29.085
420.71	29.523
421.06	29.500
421.42	29.587
421.77	28.918
422.12	29.070
422.48	29.852
422.83	30.011
423.19	29.496
423.54	30.918
423.90	29.707
424.25	30.240
424.61	30.769
424.96	29.160
425.31	30.945
425.67	30.005
426.02	31.433
426.38	30.425
426.73	29.855
427.09	31.719
427.44	29.383
427.79	29.464
428.15	28.995
428.50	29.607
428.85	29.564
429.21	30.266
429.56	29.763
429.92	29.582
430.27	29.446
430.62	29.311
430.98	29.120
431.33	29.814
431.68	28.544
432.04	30.168
432.39	29.084
432.74	28.482
433.10	30.124
433.45	29.543
433.80	28.970
434.16	29.236
434.51	30.319
434.86	30.510
435.22	30.234
435.57	29.363
435.92	29.772
436.28	29.750
436.63	29.656
436.98	29.737
437.34	30.271
437.69	30.105
438.04	29.508
438.39	30.557
438.75	30.271
439.10	30.338
439.45	29.681
439.81	29.379
440.16	28.901
440.51	30.435
440.86	28.683
441.22	29.528
441.57	28.669
441.92	29.922
442.27	30.455
442.63	29.856
442.98	30.096
443.33	30.458
443.68	30.674
444.03	30.339
444.39	30.282
444.74	29.556
445.09	29.498
445.44	29.979
445.79	29.023
446.15	28.880
446.50	29.922
446.85	29.912
447.20	29.497
447.55	29.446
447.91	30.052
448.26	29.334
448.61	28.959
448.96	30.258
449.31	29.162
449.66	29.031
450.02	29.378
450.37	30.048
450.72	28.471
451.07	28.929
451.42	29.001
451.77	28.683
452.12	29.515
452.47	28.936
452.83	29.899
453.18	28.780
453.53	29.121
453.88	29.542
454.23	30.000
454.58	29.483
454.93	28.944
455.28	30.042
455.63	29.847
455.98	28.883
456.34	28.386
456.69	29.336
457.04	29.787
457.39	29.324
457.74	29.251
458.09	29.379
458.44	29.041
458.79	28.623
459.14	28.631
459.49	28.806
459.84	29.696
460.19	29.039
460.54	28.450
460.89	30.281
461.24	28.908
461.59	28.998
461.94	28.351
462.29	28.723
462.64	29.089
462.99	29.316
463.34	29.656
463.69	27.843
464.04	29.850
464.39	29.092
464.74	29.247
465.09	28.893
465.44	28.594
465.79	29.297
466.14	28.296
466.49	28.474
466.84	28.209
467.19	27.399
467.54	27.497
467.89	28.391
468.24	28.366
468.59	28.083
468.94	27.739
469.29	28.674
469.64	28.163
469.99	29.127
470.34	28.032
470.68	28.708
471.03	29.404
471.38	28.842
471.73	28.088
472.08	28.299
472.43	29.199
472.78	29.093
473.13	28.571
473.48	28.459
473.83	28.613
474.17	28.019
474.52	28.803
474.87	28.682
475.22	28.789
475.57	28.557
475.92	27.924
476.27	28.328
476.61	28.193
476.96	27.633
477.31	28.663
477.66	29.066
478.01	29.029
478.36	28.564
478.70	28.571
479.05	28.272
479.40	28.480
479.75	28.626
480.10	27.901
480.45	28.168
480.79	27.800
481.14	27.574
481.49	27.896
481.84	28.068
482.19	27.742
482.53	27.328
482.88	28.401
483.23	28.235
483.58	28.472
483.92	27.261
484.27	27.392
484.62	27.682
484.97	27.255
485.31	27.103
485.66	24.899
486.01	24.931
486.36	25.134
486.70	25.771
487.05	26.169
487.40	25.772
487.75	25.751
488.09	25.585
488.44	25.031
488.79	26.745
489.13	26.611
489.48	26.136
489.83	26.881
490.17	26.043
490.52	26.437
490.87	27.623
491.22	26.646
491.56	26.706
491.91	27.039
492.26	27.088
492.60	27.066
492.95	27.468
493.30	26.804
493.64	26.807
493.99	26.579
494.34	26.089
494.68	26.296
495.03	26.388
495.37	26.365
495.72	27.029
496.07	27.257
496.41	26.469
496.76	26.606
497.11	26.454
497.45	26.327
497.80	26.966
498.14	26.213
498.49	26.792
498.84	26.508
499.18	26.586
499.53	26.368
499.87	27.077
500.22	25.200
500.56	25.641
500.91	26.499
501.26	26.500
501.60	26.381
501.95	25.923
502.29	25.713
502.64	25.929
502.98	25.626
503.33	25.313
503.67	25.730
504.02	26.313
504.36	26.452
504.71	25.769
505.06	26.103
505.40	25.777
505.75	25.774
506.09	25.875
506.44	26.323
506.78	26.376
507.13	25.957
507.47	26.007
507.82	25.189
508.16	26.195
508.51	25.223
508.85	25.838
509.19	26.291
509.54	26.225
509.88	26.081
510.23	26.809
510.57	28.130
510.92	26.415
511.26	26.551
511.61	25.205
511.95	26.306
512.30	26.440
512.64	25.937
512.98	25.413
513.33	26.361
513.67	25.905
514.02	26.878
514.36	27.161
514.70	26.927
515.05	27.112
515.39	27.087
515.74	27.359
516.08	26.202
516.42	27.577
516.77	26.709
517.11	26.405
517.46	26.935
517.80	27.418
518.14	28.400
518.49	26.518
518.83	26.770
519.17	26.010
519.52	26.520
519.86	27.086
520.20	26.784
520.55	26.670
520.89	27.984
521.23	27.415
521.58	27.288
521.92	26.459
522.26	26.403
522.61	27.836
522.95	28.201
523.29	27.184
523.64	27.298
523.98	27.325
524.32	28.309
524.66	27.376
525.01	26.557
525.35	27.111
525.69	27.552
526.04	27.038
526.38	28.391
526.72	28.143
527.06	27.742
527.41	27.172
527.75	27.791
528.09	27.273
528.43	27.827
528.78	26.879
529.12	26.892
529.46	27.656
529.80	27.803
530.15	27.304
530.49	27.699
530.83	28.040
531.17	27.061
531.51	28.339
531.86	27.584
532.20	27.744
532.54	26.990
532.88	27.212
533.22	26.812
533.57	25.909
533.91	26.599
534.25	27.191
534.59	27.471
534.93	26.146
535.27	26.592
535.62	27.061
535.96	28.123
536.30	26.616
536.64	27.988
536.98	26.753
537.32	27.284
537.66	27.698
538.01	26.586
538.35	26.979
538.69	26.683
539.03	27.100
539.37	26.148
539.71	26.486
540.05	27.458
540.39	26.100
540.73	26.108
541.07	27.284
541.42	25.930
541.76	25.563
542.10	26.719
542.44	25.457
542.78	26.217
543.12	26.281
543.46	26.252
543.80	24.760
544.14	26.451
544.48	26.005
544.82	26.332
545.16	25.462
545.50	25.464
545.84	25.658
546.18	27.037
546.52	26.306
546.86	25.597
547.20	26.463
547.54	26.030
547.88	25.196
548.22	24.971
548.56	25.512
548.90	25.075
549.24	26.201
549.58	25.615
549.92	25.000
550.26	26.019
550.60	25.654
550.94	26.003
551.28	26.073
551.62	25.270
551.96	24.466
552.30	25.876
552.64	25.264
552.98	25.140
553.32	25.788
553.66	25.338
554.00	25.725
554.34	26.448
554.68	24.919
555.02	25.164
555.36	25.312
555.69	25.625
556.03	24.905
556.37	25.907
556.71	24.794
557.05	24.920
557.39	24.751
557.73	25.760
558.07	24.901
558.41	24.983
558.75	24.611
559.08	26.026
559.42	25.103
559.76	25.780
560.10	25.318
560.44	24.340
560.78	24.625
561.12	25.308
561.45	25.122
561.79	24.542
562.13	24.461
562.47	24.599
562.81	24.810
563.15	24.747
563.48	24.177
563.82	23.942
564.16	23.743
564.50	24.017
564.84	24.071
565.17	23.824
565.51	23.130
565.85	23.575
566.19	23.387
566.52	23.054
566.86	23.543
567.20	22.675
567.54	23.261
567.88	23.445
568.21	22.036
568.55	22.638
568.89	22.742
569.23	22.180
569.56	22.274
569.90	20.991
570.24	21.821
570.57	20.975
570.91	21.004
571.25	20.741
571.59	20.818
571.92	20.629
572.26	19.931
572.60	20.339
572.93	20.735
573.27	20.596
573.61	20.328
573.95	20.102
574.28	20.182
574.62	19.668
574.96	19.585
575.29	19.696
575.63	19.496
575.97	19.617
576.30	19.887
576.64	19.709
576.98	19.613
577.31	19.623
577.65	19.232
577.98	19.597
578.32	18.790
578.66	19.186
578.99	19.312
579.33	19.120
579.67	19.175
580.00	19.240
580.34	18.695
580.67	19.373
581.01	18.953
581.35	19.053
581.68	18.846
582.02	18.713
582.35	18.810
582.69	18.953
583.02	19.267
583.36	19.183
583.70	19.450
584.03	19.222
584.37	19.575
584.70	18.998
585.04	18.926
585.37	19.156
585.71	18.770
586.04	19.044
586.38	19.243
586.72	18.300
587.05	18.470
587.39	18.649
587.72	19.378
588.06	18.956
588.39	19.044
588.73	18.519
589.06	19.272
589.40	19.730
589.73	19.120
590.07	19.264
590.40	19.608
590.73	19.088
591.07	20.067
591.40	20.023
591.74	19.396
592.07	19.935
592.41	19.282
592.74	19.134
593.08	19.745
593.41	19.452
593.75	19.253
594.08	19.540
594.41	18.750
594.75	19.030
595.08	19.011
595.42	18.961
595.75	18.889
596.09	19.349
596.42	19.491
596.75	19.761
597.09	19.758
597.42	19.269
597.75	19.169
598.09	19.841
598.42	19.542
598.76	19.526
599.09	18.690
599.42	18.337
599.76	18.785
600.09	18.685
600.42	18.619
600.76	18.428
601.09	18.586
601.42	18.332
601.76	18.310
602.09	19.049
602.42	18.430
602.76	18.229
603.09	18.686
603.42	18.533
603.76	18.217
604.09	19.446
604.42	18.532
604.76	18.493
605.09	18.827
605.42	18.341
605.75	18.577
606.09	18.253
606.42	18.096
606.75	17.991
607.09	17.934
607.42	17.842
607.75	18.367
608.08	18.863
608.42	18.420
608.75	18.740
609.08	18.803
609.41	19.321
609.75	18.750
610.08	19.393
610.41	19.074
610.74	18.445
611.07	18.961
611.41	18.744
611.74	19.353
612.07	19.168
612.40	18.441
612.73	19.071
613.07	18.631
613.40	19.394
613.73	18.825
614.06	18.989
614.39	18.562
614.72	19.262
615.06	18.527
615.39	18.028
615.72	19.147
616.05	19.087
616.38	19.021
616.71	19.958
617.05	18.051
617.38	19.583
617.71	19.600
618.04	19.590
618.37	19.180
618.70	19.457
619.03	19.355
619.36	19.174
619.69	20.436
620.03	18.770
620.36	19.632
620.69	19.062
621.02	19.685
621.35	21.045
621.68	20.535
622.01	20.854
622.34	19.665
622.67	18.900
623.00	18.691
623.33	18.845
623.66	19.909
623.99	19.947
624.32	20.533
624.65	19.949
624.99	20.156
625.32	19.334
625.65	20.229
625.98	18.712
626.31	19.986
626.64	20.220
626.97	19.730
627.30	19.818
627.63	19.655
627.96	21.246
628.29	20.700
628.62	19.312
628.95	20.070
629.28	20.731
629.61	21.212
629.94	20.669
630.26	20.000
630.59	20.984
630.92	20.952
631.25	19.767
631.58	22.787
631.91	20.337
632.24	20.749
632.57	21.537
632.90	21.464
633.23	22.653
633.56	20.918
633.89	21.591
634.22	21.622
