SpectraSuite Data File
++++++++++++++++++++++++++++++++++++
Date: Thu May 14 16:07:41 PDT 2015
User: schluterlab
Dark Spectrum Present: Yes
Reference Spectrum Present: Yes
Number of Sampled Component Spectra: 1
Spectrometers: USB2E3373
Integration Time (usec): 3000 (USB2E3373)
Spectra Averaged: 3 (USB2E3373)
Boxcar Smoothing: 0 (USB2E3373)
Correct for Electrical Dark: No (USB2E3373)
Strobe/Lamp Enabled: No (USB2E3373)
Correct for Detector Non-linearity: No (USB2E3373)
Correct for Stray Light: No (USB2E3373)
Number of Pixels in Processed Spectrum: 2048
>>>>>Begin Processed Spectral Data<<<<<
178.53	0.000
178.91	128.571
179.29	-2600.000
179.67	-1900.000
180.04	164.286
180.42	110.000
180.80	340.000
181.18	-1500.000
181.56	-700.000
181.94	525.000
182.31	-250.000
182.69	533.333
183.07	-250.000
183.45	525.000
183.83	-116.667
184.20	-600.000
184.58	1300.000
184.96	-325.000
185.34	-188.889
185.72	-220.000
186.09	233.333
186.47	700.000
186.85	460.000
187.23	-288.889
187.61	-1700.000
187.98	220.000
188.36	350.000
188.74	-300.000
189.12	-400.000
189.49	-37.500
189.87	-112.500
190.25	-166.667
190.63	-300.000
191.00	-122.222
191.38	0.000
191.76	-375.000
192.14	-200.000
192.51	400.000
192.89	-216.667
193.27	0.000
193.65	-85.714
194.02	-2000.000
194.40	-142.857
194.78	57.143
195.15	0.000
195.53	-109.091
195.91	0.000
196.29	-75.000
196.66	-100.000
197.04	-3100.000
197.42	-228.571
197.79	-650.000
198.17	-237.500
198.55	-142.857
198.92	-155.556
199.30	-225.000
199.68	-154.545
200.05	-92.857
200.43	-750.000
200.81	357.143
201.18	0.000
201.56	200.000
201.94	0.000
202.31	500.000
202.69	-111.111
203.07	300.000
203.44	-44.444
203.82	-225.000
204.19	-141.667
204.57	-200.000
204.95	-100.000
205.32	-1200.000
205.70	525.000
206.08	-116.667
206.45	-33.333
206.83	420.000
207.20	-33.333
207.58	-120.000
207.96	-283.333
208.33	-116.667
208.71	116.667
209.08	50.000
209.46	0.000
209.84	316.667
210.21	500.000
210.59	300.000
210.96	533.333
211.34	-75.000
211.71	-100.000
212.09	-600.000
212.46	0.000
212.84	900.000
213.22	-400.000
213.59	-400.000
213.97	-60.000
214.34	-433.333
214.72	266.667
215.09	-300.000
215.47	0.000
215.84	85.714
216.22	1000.000
216.59	-260.000
216.97	-260.000
217.34	-275.000
217.72	-112.500
218.09	-225.000
218.47	-450.000
218.84	0.000
219.22	440.000
219.59	-76.471
219.97	-30.000
220.34	850.000
220.72	-88.889
221.09	-23.077
221.47	-400.000
221.84	-140.000
222.22	-214.286
222.59	0.000
222.97	-112.500
223.34	-220.000
223.72	-600.000
224.09	-150.000
224.46	-350.000
224.84	-80.000
225.21	-128.571
225.59	-425.000
225.96	-350.000
226.34	0.000
226.71	216.667
227.08	-800.000
227.46	-86.667
227.83	-550.000
228.21	-10.526
228.58	225.000
228.95	350.000
229.33	-50.000
229.70	-110.000
230.08	0.000
230.45	120.000
230.82	-233.333
231.20	-121.429
231.57	-33.333
231.95	-118.182
232.32	-127.273
232.69	-35.000
233.07	-225.000
233.44	-29.412
233.81	-110.000
234.19	-5.556
234.56	-31.818
234.93	-10.345
235.31	0.000
235.68	-22.222
236.05	-30.000
236.43	7.692
236.80	40.000
237.17	11.111
237.55	6.061
237.92	-60.000
238.29	6.452
238.67	25.000
239.04	11.111
239.41	-9.524
239.79	10.870
240.16	1.852
240.53	15.217
240.91	9.804
241.28	13.115
241.65	23.881
242.02	13.514
242.40	18.462
242.77	17.333
243.14	19.512
243.51	10.526
243.89	28.205
244.26	25.743
244.63	31.373
245.00	24.299
245.38	19.298
245.75	19.469
246.12	27.778
246.49	20.930
246.87	26.429
247.24	27.152
247.61	30.921
247.98	30.201
248.36	38.889
248.73	28.221
249.10	37.705
249.47	44.776
249.84	46.073
250.22	31.088
250.59	35.556
250.96	38.182
251.33	34.694
251.70	35.043
252.08	39.583
252.45	36.885
252.82	33.058
253.19	35.937
253.56	33.460
253.94	36.154
254.31	35.985
254.68	37.413
255.05	38.436
255.42	35.034
255.79	36.893
256.16	35.430
256.54	37.748
256.91	35.738
257.28	32.459
257.65	35.669
258.02	40.118
258.39	34.188
258.76	39.144
259.14	42.241
259.51	39.769
259.88	37.394
260.25	35.556
260.62	38.082
260.99	38.525
261.36	37.534
261.73	42.706
262.10	40.934
262.47	38.338
262.85	39.646
263.22	34.286
263.59	31.579
263.96	39.130
264.33	35.294
264.70	39.506
265.07	41.527
265.44	42.630
265.81	37.963
266.18	36.054
266.55	37.723
266.92	38.497
267.29	40.044
267.66	36.364
268.03	38.865
268.40	37.996
268.77	39.180
269.14	36.564
269.51	39.693
269.88	39.754
270.25	36.620
270.62	40.928
270.99	42.424
271.36	40.396
271.73	40.079
272.10	38.878
272.47	38.076
272.84	40.964
273.21	38.277
273.58	38.911
273.95	35.385
274.32	37.262
274.69	37.911
275.06	36.996
275.43	34.935
275.80	38.624
276.17	34.259
276.54	34.888
276.91	36.673
277.28	36.890
277.65	38.241
278.02	36.949
278.39	36.413
278.76	35.501
279.13	38.475
279.50	38.488
279.87	36.136
280.23	34.331
280.60	37.458
280.97	36.349
281.34	37.012
281.71	35.871
282.08	36.545
282.45	37.807
282.82	37.206
283.19	36.187
283.56	36.393
283.92	37.387
284.29	39.021
284.66	39.080
285.03	36.058
285.40	36.012
285.77	37.461
286.14	36.183
286.51	34.399
286.87	35.861
287.24	36.446
287.61	36.323
287.98	35.952
288.35	34.763
288.72	33.580
289.08	36.750
289.45	35.059
289.82	32.380
290.19	34.052
290.56	36.620
290.93	33.951
291.29	33.471
291.66	32.369
292.03	32.700
292.40	33.333
292.77	33.288
293.13	31.394
293.50	31.800
293.87	32.752
294.24	32.000
294.60	30.973
294.97	29.396
295.34	30.602
295.71	28.499
296.08	29.716
296.44	29.044
296.81	29.111
297.18	30.012
297.55	28.656
297.91	29.656
298.28	28.555
298.65	28.894
299.02	26.800
299.38	28.833
299.75	29.556
300.12	27.778
300.48	28.802
300.85	28.234
301.22	28.300
301.59	28.767
301.95	26.893
302.32	27.778
302.69	28.697
303.05	28.183
303.42	28.603
303.79	26.667
304.15	27.655
304.52	27.484
304.89	27.330
305.25	27.122
305.62	27.377
305.99	25.773
306.35	27.319
306.72	28.025
307.09	27.513
307.45	27.329
307.82	26.337
308.19	26.741
308.55	26.712
308.92	26.680
309.29	26.724
309.65	26.803
310.02	27.327
310.38	27.559
310.75	28.252
311.12	27.804
311.48	27.273
311.85	27.920
312.22	27.135
312.58	27.793
312.95	27.533
313.31	26.016
313.68	27.839
314.05	27.913
314.41	28.597
314.78	27.430
315.14	29.401
315.51	28.809
315.87	28.623
316.24	29.041
316.61	27.975
316.97	29.412
317.34	29.806
317.70	30.044
318.07	29.453
318.43	29.252
318.80	30.351
319.16	29.871
319.53	28.535
319.89	29.535
320.26	30.071
320.62	30.142
320.99	31.025
321.35	31.238
321.72	31.442
322.08	31.740
322.45	33.062
322.81	31.588
323.18	32.478
323.54	33.017
323.91	33.630
324.27	32.272
324.64	33.333
325.00	31.675
325.37	33.251
325.73	34.380
326.10	33.658
326.46	34.283
326.83	35.148
327.19	34.488
327.56	35.731
327.92	34.776
328.29	35.000
328.65	34.255
329.01	34.602
329.38	35.889
329.74	36.473
330.11	35.702
330.47	36.057
330.84	35.228
331.20	35.250
331.56	37.175
331.93	35.314
332.29	36.695
332.66	35.465
333.02	35.260
333.38	34.564
333.75	36.364
334.11	34.696
334.48	35.231
334.84	36.958
335.20	35.936
335.57	35.497
335.93	36.198
336.29	34.859
336.66	35.828
337.02	35.535
337.38	36.395
337.75	35.041
338.11	36.249
338.47	35.567
338.84	35.110
339.20	35.299
339.56	34.267
339.93	33.826
340.29	34.622
340.65	34.874
341.02	35.515
341.38	35.408
341.74	34.705
342.11	33.870
342.47	34.790
342.83	35.749
343.20	36.386
343.56	35.766
343.92	34.988
344.28	34.219
344.65	34.186
345.01	34.477
345.37	34.370
345.73	33.125
346.10	35.023
346.46	35.206
346.82	34.831
347.19	34.148
347.55	34.674
347.91	33.952
348.27	34.370
348.63	34.120
349.00	34.079
349.36	34.126
349.72	34.003
350.08	34.175
350.45	35.057
350.81	33.409
351.17	33.835
351.53	33.965
351.89	34.017
352.26	33.433
352.62	33.806
352.98	33.511
353.34	32.786
353.70	34.900
354.07	34.352
354.43	34.548
354.79	34.106
355.15	34.143
355.51	33.991
355.87	32.760
356.24	35.209
356.60	33.777
356.96	33.877
357.32	33.978
357.68	33.382
358.04	33.084
358.40	33.507
358.77	33.553
359.13	33.383
359.49	33.383
359.85	33.793
360.21	33.931
360.57	33.238
360.93	33.357
361.29	34.316
361.66	34.033
362.02	34.934
362.38	33.099
362.74	33.939
363.10	33.012
363.46	35.042
363.82	34.091
364.18	33.568
364.54	33.610
364.90	34.515
365.26	33.517
365.62	34.267
365.98	34.445
366.35	34.228
366.71	34.898
367.07	35.250
367.43	33.749
367.79	35.103
368.15	34.983
368.51	34.844
368.87	33.573
369.23	34.200
369.59	33.538
369.95	35.362
370.31	33.896
370.67	34.869
371.03	34.903
371.39	32.908
371.75	34.663
372.11	35.298
372.47	34.259
372.83	34.948
373.19	35.223
373.55	35.027
373.91	35.174
374.27	34.476
374.63	35.792
374.99	34.682
375.35	35.909
375.71	35.871
376.07	34.990
376.42	34.257
376.78	35.923
377.14	34.934
377.50	36.369
377.86	35.899
378.22	36.287
378.58	36.326
378.94	36.326
379.30	36.380
379.66	36.038
380.02	36.180
380.38	37.500
380.74	36.620
381.09	36.353
381.45	35.795
381.81	37.646
382.17	37.827
382.53	36.140
382.89	36.682
383.25	36.401
383.61	37.037
383.97	36.808
384.32	37.679
384.68	35.499
385.04	37.825
385.40	36.889
385.76	38.101
386.12	38.121
386.48	38.706
386.83	37.604
387.19	38.355
387.55	38.146
387.91	39.555
388.27	38.510
388.62	38.202
388.98	39.425
389.34	39.423
389.70	39.977
390.06	38.840
390.42	39.578
390.77	39.314
391.13	39.554
391.49	39.553
391.85	40.303
392.20	40.214
392.56	39.220
392.92	40.458
393.28	40.962
393.64	40.391
393.99	40.383
394.35	41.589
394.71	42.096
395.07	40.778
395.42	41.633
395.78	41.133
396.14	42.246
396.50	42.637
396.85	41.682
397.21	42.426
397.57	42.815
397.92	43.471
398.28	41.825
398.64	42.220
399.00	42.251
399.35	42.932
399.71	42.717
400.07	44.806
400.42	43.073
400.78	43.866
401.14	44.223
401.49	44.798
401.85	45.349
402.21	44.032
402.57	44.836
402.92	44.917
403.28	44.087
403.63	45.286
403.99	45.190
404.35	44.457
404.70	45.439
405.06	45.054
405.42	45.843
405.77	46.674
406.13	45.975
406.49	46.847
406.84	46.260
407.20	46.395
407.55	47.002
407.91	46.135
408.27	47.644
408.62	47.295
408.98	47.591
409.34	46.862
409.69	47.590
410.05	49.179
410.40	48.898
410.76	49.019
411.11	49.503
411.47	49.324
411.83	50.441
412.18	50.602
412.54	49.378
412.89	49.418
413.25	50.226
413.60	50.258
413.96	50.758
414.31	50.368
414.67	50.328
415.03	50.462
415.38	51.828
415.74	50.397
416.09	51.511
416.45	49.969
416.80	50.367
417.16	53.065
417.51	52.740
417.87	51.870
418.22	51.497
418.58	51.673
418.93	53.143
419.29	52.713
419.64	53.061
420.00	52.819
420.35	53.734
420.71	54.049
421.06	52.041
421.42	52.695
421.77	52.019
422.12	52.854
422.48	53.610
422.83	55.422
423.19	53.793
423.54	54.923
423.90	53.562
424.25	54.453
424.61	54.535
424.96	54.750
425.31	55.096
425.67	53.784
426.02	55.230
426.38	55.339
426.73	54.353
427.09	55.709
427.44	53.687
427.79	54.892
428.15	53.767
428.50	55.000
428.85	53.502
429.21	55.160
429.56	55.775
429.92	54.251
430.27	55.566
430.62	54.861
430.98	56.124
431.33	55.474
431.68	54.406
432.04	56.780
432.39	55.597
432.74	56.564
433.10	56.409
433.45	55.407
433.80	55.848
434.16	56.457
434.51	57.091
434.86	57.329
435.22	57.970
435.57	57.252
435.92	57.318
436.28	57.565
436.63	59.257
436.98	56.092
437.34	57.159
437.69	57.237
438.04	56.795
438.39	57.323
438.75	57.499
439.10	58.140
439.45	56.512
439.81	57.571
440.16	57.587
440.51	58.027
440.86	56.921
441.22	57.771
441.57	57.652
441.92	58.438
442.27	59.141
442.63	57.526
442.98	58.164
443.33	57.706
443.68	58.375
444.03	58.184
444.39	58.622
444.74	58.754
445.09	57.324
445.44	59.378
445.79	59.722
446.15	57.708
446.50	57.261
446.85	58.512
447.20	58.366
447.55	59.519
447.91	58.743
448.26	59.091
448.61	59.299
448.96	59.227
449.31	58.059
449.66	57.516
450.02	59.283
450.37	58.604
450.72	58.127
451.07	59.282
451.42	59.908
451.77	58.755
452.12	59.707
452.47	57.219
452.83	60.360
453.18	57.968
453.53	58.989
453.88	57.924
454.23	58.814
454.58	57.574
454.93	57.888
455.28	59.121
455.63	58.613
455.98	59.274
456.34	57.892
456.69	59.553
457.04	58.747
457.39	59.146
457.74	57.998
458.09	58.484
458.44	59.321
458.79	58.329
459.14	58.626
459.49	58.687
459.84	57.870
460.19	57.301
460.54	59.057
460.89	59.132
461.24	59.598
461.59	59.602
461.94	57.501
462.29	59.239
462.64	58.721
462.99	57.376
463.34	58.404
463.69	58.148
464.04	58.255
464.39	58.408
464.74	56.956
465.09	57.901
465.44	57.886
465.79	58.593
466.14	57.999
466.49	59.105
466.84	58.733
467.19	58.035
467.54	57.286
467.89	57.414
468.24	57.119
468.59	57.556
468.94	58.159
469.29	57.528
469.64	58.042
469.99	58.509
470.34	58.230
470.68	59.740
471.03	58.415
471.38	57.358
471.73	58.583
472.08	57.741
472.43	58.820
472.78	57.872
473.13	58.850
473.48	58.369
473.83	57.864
474.17	57.210
474.52	58.208
474.87	58.472
475.22	58.028
475.57	57.840
475.92	58.188
476.27	58.200
476.61	57.165
476.96	57.925
477.31	57.921
477.66	58.080
478.01	58.312
478.36	57.777
478.70	56.995
479.05	58.027
479.40	58.490
479.75	58.069
480.10	57.319
480.45	57.976
480.79	57.687
481.14	58.824
481.49	58.019
481.84	57.789
482.19	58.108
482.53	58.461
482.88	58.219
483.23	58.026
483.58	56.943
483.92	57.004
484.27	57.578
484.62	57.219
484.97	57.193
485.31	57.339
485.66	54.415
486.01	53.647
486.36	55.549
486.70	57.611
487.05	59.707
487.40	59.020
487.75	58.372
488.09	59.566
488.44	58.046
488.79	58.381
489.13	58.979
489.48	57.320
489.83	57.907
490.17	57.513
490.52	55.952
490.87	57.022
491.22	56.456
491.56	57.892
491.91	56.694
492.26	57.075
492.60	56.581
492.95	56.955
493.30	56.611
493.64	57.994
493.99	56.711
494.34	55.836
494.68	56.745
495.03	56.828
495.37	56.680
495.72	56.825
496.07	56.705
496.41	56.542
496.76	57.506
497.11	56.900
497.45	57.359
497.80	56.641
498.14	57.687
498.49	57.215
498.84	57.084
499.18	55.870
499.53	57.085
499.87	56.791
500.22	55.922
500.56	56.680
500.91	57.117
501.26	57.864
501.60	55.722
501.95	58.011
502.29	57.043
502.64	57.368
502.98	56.040
503.33	56.717
503.67	56.520
504.02	56.217
504.36	56.926
504.71	58.107
505.06	56.617
505.40	56.307
505.75	57.878
506.09	56.262
506.44	57.242
506.78	57.339
507.13	57.815
507.47	57.650
507.82	56.581
508.16	56.549
508.51	55.415
508.85	57.865
509.19	56.940
509.54	57.397
509.88	56.289
510.23	57.407
510.57	58.337
510.92	56.555
511.26	55.988
511.61	56.156
511.95	57.101
512.30	57.607
512.64	56.522
512.98	56.778
513.33	57.460
513.67	57.471
514.02	57.435
514.36	57.187
514.70	58.229
515.05	57.925
515.39	57.953
515.74	58.271
516.08	56.894
516.42	57.405
516.77	57.939
517.11	56.988
517.46	57.582
517.80	58.044
518.14	58.814
518.49	58.514
518.83	57.424
519.17	57.566
519.52	56.761
519.86	57.709
520.20	58.733
520.55	57.174
520.89	58.502
521.23	56.449
521.58	58.701
521.92	57.960
522.26	58.877
522.61	57.118
522.95	58.708
523.29	57.989
523.64	58.520
523.98	59.612
524.32	60.057
524.66	58.509
525.01	57.758
525.35	58.587
525.69	59.223
526.04	58.209
526.38	59.885
526.72	58.939
527.06	61.056
527.41	58.367
527.75	58.907
528.09	59.563
528.43	59.562
528.78	58.555
529.12	57.913
529.46	59.584
529.80	59.668
530.15	60.000
530.49	59.015
530.83	59.504
531.17	59.618
531.51	59.386
531.86	59.255
532.20	58.293
532.54	58.887
532.88	58.909
533.22	59.340
533.57	59.031
533.91	58.418
534.25	58.621
534.59	59.598
534.93	59.649
535.27	59.831
535.62	59.750
535.96	60.779
536.30	59.871
536.64	59.580
536.98	60.209
537.32	58.889
537.66	59.950
538.01	59.456
538.35	59.379
538.69	59.375
539.03	59.779
539.37	59.011
539.71	58.859
540.05	59.952
540.39	58.863
540.73	59.927
541.07	59.411
541.42	58.712
541.76	58.600
542.10	58.323
542.44	58.709
542.78	59.246
543.12	59.774
543.46	58.974
543.80	58.573
544.14	58.648
544.48	58.983
544.82	59.366
545.16	59.094
545.50	60.156
545.84	58.971
546.18	59.938
546.52	59.809
546.86	58.176
547.20	58.715
547.54	56.554
547.88	58.891
548.22	58.363
548.56	58.280
548.90	59.164
549.24	59.331
549.58	58.170
549.92	59.247
550.26	60.194
550.60	58.902
550.94	59.508
551.28	57.624
551.62	58.962
551.96	57.735
552.30	59.018
552.64	59.241
552.98	58.827
553.32	59.936
553.66	59.293
554.00	59.079
554.34	59.395
554.68	57.715
555.02	59.593
555.36	59.698
555.69	58.680
556.03	58.323
556.37	58.010
556.71	59.036
557.05	57.891
557.39	59.323
557.73	57.596
558.07	58.742
558.41	57.276
558.75	57.606
559.08	58.594
559.42	58.642
559.76	57.938
560.10	59.076
560.44	57.256
560.78	58.750
561.12	58.929
561.45	57.847
561.79	59.341
562.13	58.657
562.47	56.597
562.81	57.848
563.15	58.081
563.48	57.862
563.82	57.316
564.16	57.480
564.50	58.641
564.84	57.463
565.17	57.765
565.51	56.674
565.85	57.304
566.19	56.797
566.52	58.046
566.86	57.725
567.20	56.716
567.54	56.930
567.88	57.543
568.21	57.708
568.55	57.218
568.89	56.968
569.23	56.738
569.56	57.210
569.90	56.664
570.24	57.268
570.57	57.280
570.91	55.695
571.25	56.118
571.59	56.332
571.92	56.050
572.26	56.670
572.60	56.566
572.93	56.387
573.27	56.477
573.61	55.664
573.95	55.766
574.28	55.688
574.62	55.298
574.96	54.918
575.29	54.594
575.63	56.041
575.97	55.808
576.30	54.972
576.64	54.880
576.98	55.718
577.31	56.220
577.65	56.418
577.98	54.989
578.32	54.918
578.66	55.126
578.99	55.683
579.33	55.825
579.67	55.009
580.00	55.473
580.34	55.279
580.67	55.428
581.01	55.019
581.35	54.744
581.68	54.321
582.02	54.495
582.35	55.492
582.69	55.662
583.02	56.326
583.36	56.192
583.70	56.964
584.03	56.587
584.37	55.863
584.70	55.770
585.04	54.313
585.37	54.817
585.71	54.239
586.04	54.646
586.38	54.573
586.72	54.349
587.05	55.334
587.39	55.273
587.72	55.048
588.06	55.633
588.39	54.070
588.73	54.974
589.06	54.797
589.40	55.870
589.73	54.595
590.07	54.178
590.40	54.801
590.73	54.507
591.07	55.473
591.40	54.355
591.74	54.650
592.07	54.892
592.41	52.918
592.74	53.994
593.08	53.885
593.41	53.602
593.75	53.822
594.08	54.711
594.41	54.840
594.75	54.102
595.08	54.307
595.42	54.156
595.75	54.343
596.09	54.388
596.42	54.640
596.75	53.995
597.09	54.505
597.42	52.920
597.75	52.960
598.09	53.810
598.42	54.363
598.76	52.541
599.09	52.581
599.42	52.162
599.76	51.535
600.09	53.687
600.42	53.220
600.76	53.435
601.09	52.008
601.42	52.111
601.76	53.103
602.09	53.288
602.42	53.072
602.76	52.841
603.09	53.451
603.42	52.999
603.76	53.594
604.09	53.300
604.42	52.440
604.76	51.903
605.09	52.453
605.42	52.313
605.75	52.462
606.09	52.034
606.42	50.565
606.75	51.424
607.09	51.306
607.42	52.216
607.75	52.481
608.08	51.263
608.42	52.076
608.75	52.653
609.08	52.250
609.41	51.875
609.75	52.232
610.08	51.759
610.41	51.572
610.74	51.345
611.07	50.666
611.41	52.242
611.74	52.656
612.07	51.800
612.40	52.757
612.73	51.932
613.07	51.394
613.40	51.925
613.73	51.757
614.06	52.012
614.39	51.118
614.72	50.849
615.06	51.011
615.39	50.846
615.72	51.280
616.05	51.530
616.38	51.766
616.71	51.045
617.05	50.905
617.38	51.792
617.71	51.350
618.04	51.700
618.37	51.366
618.70	51.527
619.03	50.239
619.36	51.480
619.69	51.505
620.03	51.161
620.36	50.184
620.69	51.141
621.02	51.772
621.35	53.338
621.68	51.121
622.01	49.751
622.34	48.954
622.67	50.515
623.00	51.012
623.33	50.697
623.66	50.649
623.99	49.835
624.32	51.267
624.65	50.772
624.99	51.170
625.32	50.947
625.65	50.438
625.98	50.034
626.31	49.681
626.64	50.183
626.97	51.013
627.30	48.368
627.63	49.212
627.96	50.375
628.29	50.428
628.62	49.958
628.95	49.781
629.28	49.363
629.61	49.663
629.94	50.293
630.26	49.661
630.59	50.259
630.92	50.476
631.25	49.732
631.58	51.977
631.91	50.234
