SpectraSuite Data File
++++++++++++++++++++++++++++++++++++
Date: Thu May 14 16:07:44 PDT 2015
User: schluterlab
Dark Spectrum Present: Yes
Reference Spectrum Present: Yes
Number of Sampled Component Spectra: 1
Spectrometers: USB2E3373
Integration Time (usec): 3000 (USB2E3373)
Spectra Averaged: 3 (USB2E3373)
Boxcar Smoothing: 0 (USB2E3373)
Correct for Electrical Dark: No (USB2E3373)
Strobe/Lamp Enabled: No (USB2E3373)
Correct for Detector Non-linearity: No (USB2E3373)
Correct for Stray Light: No (USB2E3373)
Number of Pixels in Processed Spectrum: 2048
>>>>>Begin Processed Spectral Data<<<<<
178.53	0.000
178.91	171.429
179.29	-1800.000
179.67	-1700.000
180.04	200.000
180.42	160.000
180.80	320.000
181.18	-1300.000
181.56	-600.000
181.94	450.000
182.31	-375.000
182.69	566.667
183.07	-600.000
183.45	600.000
183.83	-16.667
184.20	-266.667
184.58	1900.000
184.96	-725.000
185.34	-200.000
185.72	-200.000
186.09	233.333
186.47	1000.000
186.85	380.000
187.23	-155.556
187.61	-1400.000
187.98	380.000
188.36	450.000
188.74	-500.000
189.12	-500.000
189.49	-25.000
189.87	-150.000
190.25	-144.444
190.63	-380.000
191.00	-233.333
191.38	0.000
191.76	-200.000
192.14	-66.667
192.51	600.000
192.89	-16.667
193.27	0.000
193.65	-200.000
194.02	-2300.000
194.40	-71.429
194.78	214.286
195.15	0.000
195.53	18.182
195.91	0.000
196.29	-325.000
196.66	-69.231
197.04	-900.000
197.42	-257.143
197.79	-500.000
198.17	-125.000
198.55	-228.571
198.92	-133.333
199.30	-125.000
199.68	-54.545
200.05	-100.000
200.43	-1100.000
200.81	228.571
201.18	0.000
201.56	222.222
201.94	0.000
202.31	566.667
202.69	-211.111
203.07	800.000
203.44	-55.556
203.82	-250.000
204.19	-133.333
204.57	-300.000
204.95	-162.500
205.32	-2200.000
205.70	275.000
206.08	-216.667
206.45	-183.333
206.83	420.000
207.20	-216.667
207.58	-360.000
207.96	-83.333
208.33	-50.000
208.71	200.000
209.08	16.667
209.46	0.000
209.84	350.000
210.21	750.000
210.59	800.000
210.96	566.667
211.34	-400.000
211.71	-175.000
212.09	-1600.000
212.46	0.000
212.84	900.000
213.22	-360.000
213.59	-350.000
213.97	-100.000
214.34	-500.000
214.72	483.333
215.09	-375.000
215.47	0.000
215.84	157.143
216.22	1050.000
216.59	-220.000
216.97	-220.000
217.34	-525.000
217.72	-112.500
218.09	-500.000
218.47	-450.000
218.84	0.000
219.22	300.000
219.59	-100.000
219.97	-60.000
220.34	450.000
220.72	-177.778
221.09	-61.538
221.47	-400.000
221.84	-100.000
222.22	-142.857
222.59	0.000
222.97	-25.000
223.34	-300.000
223.72	-1800.000
224.09	-250.000
224.46	-300.000
224.84	40.000
225.21	-185.714
225.59	-400.000
225.96	-325.000
226.34	-15.385
226.71	416.667
227.08	-650.000
227.46	-53.333
227.83	-200.000
228.21	-31.579
228.58	125.000
228.95	650.000
229.33	-58.333
229.70	-60.000
230.08	47.368
230.45	110.000
230.82	-100.000
231.20	-14.286
231.57	-33.333
231.95	-127.273
232.32	-54.545
232.69	-20.000
233.07	-275.000
233.44	11.765
233.81	-50.000
234.19	-16.667
234.56	27.273
234.93	-6.897
235.31	-52.632
235.68	-27.778
236.05	-105.000
236.43	23.077
236.80	-4.000
237.17	-14.815
237.55	3.030
237.92	-140.000
238.29	-25.806
238.67	2.273
239.04	11.111
239.41	19.048
239.79	-10.870
240.16	22.222
240.53	15.217
240.91	-7.843
241.28	3.279
241.65	28.358
242.02	9.459
242.40	16.923
242.77	9.333
243.14	13.415
243.51	-2.632
243.89	20.513
244.26	25.743
244.63	27.451
245.00	27.103
245.38	22.807
245.75	6.195
246.12	25.397
246.49	20.930
246.87	25.714
247.24	27.815
247.61	28.289
247.98	26.174
248.36	25.926
248.73	24.540
249.10	27.322
249.47	26.866
249.84	31.414
250.22	22.798
250.59	29.444
250.96	29.091
251.33	20.918
251.70	26.496
252.08	27.917
252.45	29.918
252.82	27.686
253.19	26.562
253.56	28.517
253.94	25.769
254.31	28.409
254.68	31.119
255.05	31.596
255.42	26.871
255.79	27.832
256.16	27.483
256.54	24.172
256.91	32.131
257.28	32.459
257.65	26.115
258.02	25.959
258.39	27.635
258.76	33.028
259.14	29.885
259.51	28.242
259.88	29.462
260.25	27.778
260.62	32.055
260.99	33.607
261.36	31.635
261.73	24.934
262.10	31.868
262.47	29.759
262.85	33.081
263.22	27.792
263.59	25.789
263.96	28.645
264.33	27.877
264.70	33.827
265.07	31.504
265.44	32.426
265.81	30.093
266.18	34.467
266.55	28.571
266.92	28.474
267.29	31.947
267.66	30.155
268.03	28.821
268.40	28.601
268.77	27.335
269.14	29.515
269.51	30.702
269.88	29.918
270.25	30.584
270.62	30.380
270.99	30.505
271.36	30.495
271.73	29.862
272.10	30.661
272.47	29.058
272.84	28.916
273.21	29.459
273.58	32.863
273.95	27.308
274.32	27.757
274.69	28.046
275.06	31.502
275.43	27.911
275.80	29.806
276.17	29.074
276.54	28.358
276.91	30.411
277.28	29.837
277.65	29.264
278.02	28.125
278.39	28.261
278.76	29.525
279.13	30.674
279.50	28.694
279.87	30.054
280.23	26.761
280.60	28.983
280.97	29.934
281.34	28.862
281.71	29.272
282.08	28.904
282.45	27.332
282.82	28.414
283.19	28.433
283.56	27.869
283.92	28.228
284.29	31.754
284.66	30.870
285.03	26.122
285.40	27.821
285.77	28.947
286.14	28.092
286.51	28.463
286.87	30.964
287.24	28.012
287.61	26.906
287.98	25.982
288.35	29.586
288.72	27.219
289.08	28.404
289.45	26.775
289.82	25.904
290.19	27.011
290.56	26.056
290.93	26.534
291.29	26.033
291.66	26.860
292.03	24.695
292.40	28.027
292.77	25.337
293.13	24.899
293.50	22.865
293.87	25.369
294.24	27.333
294.60	26.043
294.97	23.893
295.34	25.992
295.71	23.203
296.08	23.514
296.44	23.529
296.81	24.726
297.18	23.288
297.55	22.759
297.91	21.352
298.28	21.919
298.65	23.543
299.02	24.321
299.38	23.112
299.75	22.430
300.12	20.833
300.48	22.120
300.85	22.610
301.22	21.477
301.59	20.548
301.95	22.147
302.32	22.667
302.69	22.015
303.05	20.457
303.42	21.175
303.79	22.604
304.15	21.241
304.52	20.930
304.89	21.571
305.25	21.843
305.62	21.317
305.99	21.856
306.35	20.867
306.72	22.130
307.09	19.391
307.45	21.739
307.82	21.594
308.19	20.283
308.55	21.697
308.92	22.395
309.29	21.648
309.65	21.150
310.02	19.307
310.38	21.358
310.75	21.553
311.12	22.915
311.48	21.994
311.85	21.652
312.22	21.727
312.58	22.254
312.95	20.172
313.31	22.222
313.68	22.711
314.05	23.216
314.41	23.133
314.78	21.708
315.14	23.140
315.51	23.915
315.87	23.852
316.24	25.114
316.61	23.535
316.97	23.258
317.34	24.250
317.70	24.454
318.07	25.044
318.43	24.660
318.80	25.084
319.16	23.691
319.53	22.708
319.89	25.153
320.26	26.335
320.62	24.291
320.99	25.669
321.35	24.399
321.72	27.349
322.08	25.879
322.45	28.636
322.81	27.437
323.18	26.460
323.54	27.414
323.91	28.648
324.27	28.485
324.64	29.135
325.00	28.607
325.37	28.501
325.73	30.248
326.10	29.846
326.46	30.375
326.83	31.545
327.19	30.945
327.56	31.225
327.92	31.471
328.29	30.323
328.65	31.240
329.01	31.303
329.38	31.676
329.74	31.935
330.11	31.421
330.47	31.171
330.84	31.955
331.20	33.500
331.56	31.716
331.93	32.720
332.29	32.373
332.66	32.641
333.02	31.575
333.38	32.215
333.75	33.418
334.11	31.860
334.48	31.683
334.84	32.795
335.20	31.822
335.57	31.450
335.93	33.058
336.29	31.281
336.66	31.287
337.02	32.441
337.38	32.398
337.75	31.157
338.11	31.623
338.47	32.258
338.84	31.557
339.20	31.592
339.56	31.466
339.93	32.348
340.29	32.206
340.65	31.711
341.02	31.764
341.38	34.357
341.74	31.638
342.11	32.985
342.47	31.295
342.83	33.253
343.20	31.480
343.56	32.077
343.92	32.106
344.28	31.953
344.65	32.481
345.01	31.903
345.37	31.726
345.73	31.099
346.10	31.669
346.46	31.013
346.82	31.835
347.19	32.009
347.55	32.398
347.91	31.278
348.27	31.487
348.63	31.835
349.00	31.171
349.36	31.896
349.72	30.729
350.08	31.204
350.45	30.798
350.81	32.956
351.17	31.955
351.53	31.084
351.89	31.511
352.26	31.493
352.62	31.791
352.98	30.534
353.34	31.292
353.70	31.433
354.07	30.775
354.43	32.118
354.79	30.890
355.15	30.905
355.51	32.018
355.87	30.591
356.24	31.179
356.60	30.673
356.96	31.579
357.32	30.558
357.68	30.161
358.04	29.266
358.40	30.149
358.77	31.360
359.13	31.019
359.49	30.335
359.85	31.400
360.21	30.488
360.57	31.299
360.93	32.017
361.29	31.579
361.66	31.282
362.02	31.733
362.38	31.694
362.74	32.402
363.10	32.462
363.46	31.717
363.82	31.179
364.18	32.512
364.54	32.573
364.90	31.639
365.26	32.069
365.62	32.000
365.98	30.837
366.35	32.215
366.71	32.449
367.07	32.070
367.43	30.794
367.79	32.183
368.15	32.441
368.51	32.206
368.87	32.201
369.23	31.867
369.59	32.445
369.95	32.116
370.31	33.018
370.67	32.806
371.03	32.064
371.39	31.699
371.75	33.287
372.11	33.943
372.47	32.905
372.83	32.853
373.19	32.088
373.55	33.062
373.91	32.379
374.27	32.600
374.63	33.085
374.99	32.891
375.35	33.377
375.71	32.774
376.07	33.893
376.42	32.872
376.78	33.561
377.14	33.500
377.50	34.535
377.86	34.298
378.22	34.491
378.58	34.423
378.94	33.862
379.30	33.685
379.66	34.274
380.02	33.987
380.38	35.426
380.74	34.535
381.09	34.843
381.45	34.886
381.81	36.124
382.17	34.739
382.53	34.971
382.89	35.666
383.25	35.698
383.61	36.053
383.97	35.630
384.32	35.526
384.68	35.557
385.04	36.379
385.40	37.183
385.76	37.691
386.12	36.086
386.48	36.765
386.83	37.604
387.19	37.022
387.55	36.150
387.91	36.929
388.27	37.413
388.62	36.598
388.98	37.112
389.34	38.067
389.70	38.524
390.06	38.129
390.42	37.711
390.77	38.892
391.13	37.911
391.49	37.681
391.85	38.667
392.20	38.968
392.56	39.220
392.92	39.586
393.28	38.751
393.64	39.050
393.99	40.906
394.35	40.129
394.71	39.880
395.07	39.401
395.42	40.377
395.78	41.012
396.14	41.176
396.50	41.152
396.85	40.966
397.21	41.124
397.57	42.049
397.92	42.153
398.28	42.531
398.64	41.934
399.00	41.728
399.35	41.571
399.71	42.228
400.07	43.122
400.42	43.597
400.78	44.271
401.14	43.312
401.49	44.457
401.85	44.884
402.21	44.902
402.57	45.599
402.92	44.326
403.28	43.970
403.63	45.107
403.99	46.140
404.35	44.514
404.70	44.646
405.06	45.326
405.42	45.902
405.77	46.619
406.13	46.786
406.49	46.059
406.84	47.202
407.20	47.401
407.55	47.971
407.91	48.272
408.27	47.114
408.62	47.935
408.98	47.301
409.34	48.152
409.69	49.135
410.05	48.593
410.40	50.464
410.76	48.794
411.11	49.795
411.47	50.860
411.83	49.971
412.18	51.928
412.54	50.030
412.89	51.281
413.25	50.226
413.60	49.627
413.96	51.399
414.31	51.161
414.67	51.163
415.03	51.877
415.38	52.711
415.74	51.924
416.09	52.252
416.45	51.722
416.80	52.203
417.16	52.427
417.51	53.425
417.87	54.384
418.22	53.653
418.58	53.222
418.93	53.551
419.29	54.316
419.64	53.782
420.00	55.252
420.35	55.362
420.71	55.141
421.06	55.607
421.42	55.677
421.77	53.473
422.12	55.920
422.48	54.890
422.83	56.900
423.19	56.393
423.54	56.803
423.90	55.991
424.25	57.600
424.61	56.659
424.96	56.727
425.31	56.900
425.67	56.575
426.02	57.333
426.38	57.520
426.73	56.864
427.09	58.016
427.44	56.745
427.79	58.264
428.15	55.993
428.50	58.034
428.85	57.118
429.21	58.245
429.56	57.700
429.92	56.806
430.27	58.024
430.62	58.671
430.98	58.288
431.33	57.820
431.68	57.423
432.04	59.015
432.39	58.543
432.74	57.934
433.10	59.600
433.45	58.974
433.80	59.174
434.16	59.039
434.51	60.277
434.86	60.749
435.22	61.424
435.57	61.439
435.92	60.601
436.28	60.410
436.63	61.442
436.98	59.474
437.34	60.541
437.69	61.695
438.04	60.391
438.39	60.942
438.75	60.210
439.10	61.205
439.45	59.475
439.81	60.734
440.16	60.161
440.51	60.870
440.86	60.645
441.22	60.236
441.57	61.688
441.92	60.960
442.27	62.273
442.63	60.904
442.98	60.832
443.33	61.810
443.68	60.505
444.03	62.324
444.39	62.043
444.74	61.970
445.09	60.314
445.44	62.013
445.79	61.973
446.15	61.973
446.50	61.860
446.85	62.111
447.20	62.234
447.55	61.872
447.91	61.361
448.26	62.632
448.61	62.168
448.96	63.090
449.31	60.764
449.66	61.111
450.02	62.131
450.37	61.161
450.72	62.863
451.07	61.333
451.42	61.236
451.77	61.479
452.12	63.318
452.47	62.210
452.83	63.682
453.18	61.880
453.53	62.033
453.88	61.679
454.23	61.525
454.58	61.927
454.93	62.075
455.28	63.396
455.63	62.138
455.98	62.570
456.34	62.662
456.69	61.493
457.04	62.530
457.39	62.084
457.74	62.864
458.09	61.560
458.44	62.177
458.79	61.269
459.14	60.829
459.49	62.026
459.84	62.120
460.19	61.966
460.54	63.998
460.89	62.837
461.24	62.356
461.59	62.922
461.94	61.038
462.29	62.430
462.64	62.040
462.99	62.586
463.34	62.816
463.69	61.020
464.04	61.145
464.39	61.547
464.74	60.661
465.09	62.630
465.44	62.393
465.79	61.925
466.14	60.865
466.49	62.053
466.84	62.369
467.19	62.081
467.54	60.870
467.89	60.460
468.24	62.216
468.59	61.089
468.94	60.956
469.29	60.648
469.64	62.238
469.99	62.205
470.34	61.943
470.68	62.201
471.03	62.541
471.38	62.067
471.73	61.769
472.08	61.104
472.43	60.566
472.78	60.894
473.13	59.355
473.48	61.450
473.83	61.869
474.17	61.137
474.52	63.740
474.87	61.351
475.22	62.197
475.57	61.319
475.92	61.175
476.27	60.277
476.61	61.215
476.96	60.688
477.31	62.178
477.66	62.644
478.01	61.769
478.36	59.821
478.70	60.443
479.05	61.963
479.40	62.043
479.75	62.392
480.10	61.345
480.45	61.349
480.79	61.134
481.14	61.029
481.49	61.881
481.84	61.793
482.19	61.763
482.53	62.396
482.88	61.365
483.23	61.583
483.58	61.441
483.92	60.461
484.27	60.711
484.62	60.767
484.97	60.342
485.31	60.084
485.66	58.142
486.01	58.190
486.36	59.697
486.70	61.448
487.05	62.441
487.40	62.433
487.75	61.527
488.09	61.482
488.44	60.974
488.79	61.754
489.13	60.319
489.48	60.777
489.83	60.724
490.17	59.822
490.52	59.072
490.87	60.364
491.22	61.005
491.56	61.305
491.91	60.358
492.26	60.363
492.60	61.216
492.95	61.123
493.30	60.332
493.64	60.315
493.99	61.316
494.34	59.669
494.68	60.300
495.03	60.264
495.37	61.518
495.72	60.952
496.07	61.306
496.41	60.789
496.76	61.426
497.11	61.062
497.45	61.459
497.80	60.773
498.14	60.454
498.49	60.892
498.84	60.695
499.18	60.999
499.53	61.256
499.87	60.703
500.22	60.641
500.56	60.549
500.91	61.739
501.26	62.500
501.60	59.876
501.95	60.660
502.29	60.333
502.64	61.740
502.98	60.656
503.33	59.784
503.67	59.747
504.02	60.289
504.36	61.171
504.71	61.828
505.06	61.164
505.40	60.786
505.75	60.200
506.09	62.385
506.44	62.163
506.78	61.055
507.13	62.333
507.47	61.961
507.82	61.553
508.16	60.468
508.51	60.713
508.85	62.872
509.19	61.677
509.54	62.392
509.88	61.098
510.23	62.409
510.57	62.494
510.92	61.587
511.26	60.366
511.61	62.144
511.95	62.030
512.30	62.186
512.64	61.169
512.98	61.781
513.33	63.155
513.67	61.805
514.02	63.056
514.36	62.609
514.70	63.698
515.05	64.390
515.39	62.625
515.74	63.256
516.08	61.490
516.42	63.213
516.77	62.618
517.11	61.681
517.46	62.884
517.80	63.709
518.14	64.037
518.49	63.720
518.83	63.065
519.17	63.597
519.52	63.155
519.86	63.305
520.20	64.537
520.55	63.746
520.89	64.245
521.23	63.540
521.58	64.011
521.92	63.853
522.26	64.089
522.61	64.410
522.95	64.014
523.29	65.805
523.64	65.359
523.98	65.203
524.32	66.476
524.66	65.282
525.01	63.250
525.35	63.929
525.69	64.211
526.04	64.983
526.38	64.655
526.72	64.706
527.06	65.630
527.41	64.373
527.75	66.746
528.09	65.643
528.43	64.417
528.78	65.665
529.12	65.367
529.46	64.924
529.80	66.133
530.15	66.377
530.49	66.133
530.83	65.230
531.17	65.651
531.51	66.245
531.86	65.505
532.20	67.256
532.54	65.410
532.88	66.545
533.22	64.761
533.57	64.974
533.91	65.208
534.25	66.365
534.59	67.299
534.93	66.780
535.27	67.099
535.62	66.288
535.96	66.705
536.30	67.391
536.64	67.688
536.98	67.343
537.32	67.407
537.66	67.623
538.01	65.982
538.35	66.565
538.69	66.827
539.03	68.915
539.37	65.018
539.71	65.766
540.05	67.266
540.39	65.403
540.73	66.606
541.07	67.934
541.42	65.682
541.76	65.302
542.10	66.104
542.44	65.773
542.78	67.640
543.12	66.448
543.46	66.239
543.80	65.468
544.14	66.727
544.48	68.794
544.82	67.564
545.16	67.084
545.50	66.806
545.84	66.626
546.18	68.148
546.52	66.306
546.86	66.667
547.20	68.257
547.54	66.542
547.88	66.064
548.22	66.608
548.56	67.759
548.90	66.507
549.24	66.991
549.58	67.950
549.92	67.347
550.26	66.731
550.60	65.284
550.94	66.559
551.28	66.931
551.62	68.464
551.96	64.854
552.30	66.348
552.64	65.152
552.98	66.500
553.32	67.267
553.66	67.331
554.00	66.961
554.34	66.088
554.68	64.816
555.02	67.674
555.36	67.784
555.69	66.240
556.03	66.772
556.37	67.146
556.71	66.202
557.05	66.581
557.39	67.087
557.73	65.588
558.07	66.093
558.41	67.110
558.75	67.208
559.08	67.711
559.42	64.746
559.76	66.079
560.10	65.774
560.44	66.623
560.78	65.625
561.12	67.241
561.45	66.667
561.79	66.056
562.13	67.406
562.47	64.242
562.81	65.316
563.15	67.045
563.48	65.507
563.82	64.692
564.16	66.445
564.50	65.375
564.84	65.369
565.17	65.588
565.51	64.614
565.85	66.746
566.19	65.438
566.52	65.243
566.86	65.422
567.20	63.893
567.54	66.012
567.88	66.157
568.21	65.958
568.55	66.091
568.89	67.045
569.23	64.935
569.56	65.690
569.90	64.754
570.24	65.093
570.57	66.325
570.91	64.574
571.25	64.044
571.59	64.514
571.92	64.472
572.26	64.055
572.60	64.783
572.93	64.347
573.27	64.428
573.61	64.214
573.95	63.729
574.28	63.747
574.62	63.893
574.96	63.255
575.29	63.230
575.63	63.363
575.97	63.234
576.30	63.015
576.64	63.517
576.98	63.212
577.31	63.601
577.65	64.239
577.98	63.498
578.32	63.302
578.66	62.985
578.99	63.383
579.33	63.695
579.67	63.803
580.00	62.846
580.34	63.285
580.67	62.798
581.01	63.263
581.35	62.537
581.68	62.875
582.02	63.176
582.35	63.861
582.69	63.702
583.02	63.315
583.36	63.565
583.70	63.236
584.03	63.331
584.37	63.318
584.70	62.738
585.04	63.078
585.37	62.947
585.71	62.546
586.04	62.417
586.38	62.279
586.72	62.522
587.05	62.471
587.39	62.902
587.72	63.349
588.06	62.838
588.39	62.659
588.73	62.011
589.06	62.585
589.40	63.614
589.73	62.147
590.07	62.401
590.40	62.238
590.73	63.167
591.07	63.142
591.40	61.509
591.74	61.844
592.07	62.241
592.41	62.263
592.74	60.703
593.08	62.389
593.41	62.526
593.75	62.759
594.08	62.648
594.41	62.917
594.75	61.309
595.08	62.315
595.42	62.857
595.75	62.544
596.09	62.758
596.42	62.522
596.75	62.331
597.09	61.697
597.42	61.979
597.75	60.329
598.09	61.905
598.42	62.766
598.76	60.145
599.09	61.730
599.42	60.208
599.76	60.911
600.09	60.727
600.42	60.160
600.76	60.898
601.09	59.774
601.42	60.899
601.76	60.517
602.09	60.436
602.42	60.596
602.76	60.554
603.09	61.564
603.42	61.380
603.76	61.593
604.09	61.888
604.42	61.872
604.76	61.073
605.09	61.947
605.42	60.885
605.75	60.154
606.09	61.142
606.42	60.233
606.75	60.082
607.09	59.101
607.42	60.539
607.75	60.219
608.08	60.418
608.42	60.177
608.75	60.282
609.08	59.465
609.41	61.006
609.75	60.179
610.08	61.390
610.41	59.856
610.74	59.160
611.07	59.991
611.41	61.121
611.74	60.693
612.07	59.654
612.40	58.840
612.73	60.342
613.07	61.809
613.40	60.298
613.73	59.124
614.06	60.206
614.39	59.086
614.72	59.340
615.06	58.133
615.39	59.014
615.72	59.194
616.05	59.446
616.38	60.091
616.71	59.143
617.05	59.318
617.38	59.283
617.71	60.367
618.04	58.770
618.37	59.781
618.70	59.785
619.03	57.109
619.36	59.125
619.69	60.218
620.03	59.259
620.36	58.466
620.69	59.840
621.02	59.646
621.35	62.482
621.68	60.304
622.01	59.146
622.34	59.066
622.67	57.869
623.00	59.582
623.33	59.589
623.66	58.690
623.99	59.513
624.32	58.869
624.65	59.588
624.99	59.948
625.32	60.222
625.65	59.407
625.98	59.051
626.31	59.816
626.64	58.315
626.97	57.539
627.30	59.453
627.63	56.939
627.96	59.685
628.29	58.677
628.62	58.774
628.95	58.633
629.28	59.473
629.61	59.343
629.94	58.326
630.26	57.373
630.59	59.326
630.92	55.844
631.25	59.750
631.58	59.228
631.91	57.919
