SpectraSuite Data File
++++++++++++++++++++++++++++++++++++
Date: Thu May 14 16:38:20 PDT 2015
User: schluterlab
Dark Spectrum Present: Yes
Reference Spectrum Present: Yes
Number of Sampled Component Spectra: 1
Spectrometers: USB2E3373
Integration Time (usec): 3000 (USB2E3373)
Spectra Averaged: 3 (USB2E3373)
Boxcar Smoothing: 0 (USB2E3373)
Correct for Electrical Dark: No (USB2E3373)
Strobe/Lamp Enabled: No (USB2E3373)
Correct for Detector Non-linearity: No (USB2E3373)
Correct for Stray Light: No (USB2E3373)
Number of Pixels in Processed Spectrum: 2048
>>>>>Begin Processed Spectral Data<<<<<
178.53	0.000
178.91	185.714
179.29	-1100.000
179.67	-900.000
180.04	107.143
180.42	20.000
180.80	180.000
181.18	-200.000
181.56	400.000
181.94	50.000
182.31	25.000
182.69	33.333
183.07	-50.000
183.45	175.000
183.83	-16.667
184.20	33.333
184.58	-200.000
184.96	-150.000
185.34	-44.444
185.72	-20.000
186.09	133.333
186.47	450.000
186.85	380.000
187.23	-66.667
187.61	-1000.000
187.98	60.000
188.36	250.000
188.74	-250.000
189.12	-133.333
189.49	-25.000
189.87	-12.500
190.25	77.778
190.63	40.000
191.00	-100.000
191.38	0.000
191.76	-125.000
192.14	-66.667
192.51	550.000
192.89	50.000
193.27	0.000
193.65	-71.429
194.02	-1400.000
194.40	-71.429
194.78	14.286
195.15	0.000
195.53	36.364
195.91	0.000
196.29	175.000
196.66	-92.308
197.04	-1200.000
197.42	-57.143
197.79	-200.000
198.17	0.000
198.55	-142.857
198.92	-44.444
199.30	-125.000
199.68	-54.545
200.05	0.000
200.43	-750.000
200.81	-0.000
201.18	0.000
201.56	166.667
201.94	0.000
202.31	533.333
202.69	0.000
203.07	100.000
203.44	-55.556
203.82	-175.000
204.19	8.333
204.57	-100.000
204.95	-50.000
205.32	-500.000
205.70	-100.000
206.08	-50.000
206.45	-83.333
206.83	340.000
207.20	183.333
207.58	-180.000
207.96	-116.667
208.33	33.333
208.71	58.333
209.08	166.667
209.46	0.000
209.84	316.667
210.21	150.000
210.59	250.000
210.96	333.333
211.34	50.000
211.71	-25.000
212.09	-600.000
212.46	0.000
212.84	650.000
213.22	-160.000
213.59	50.000
213.97	-50.000
214.34	-133.333
214.72	233.333
215.09	-400.000
215.47	0.000
215.84	-57.143
216.22	350.000
216.59	-60.000
216.97	-40.000
217.34	-25.000
217.72	-75.000
218.09	-100.000
218.47	-75.000
218.84	0.000
219.22	280.000
219.59	-17.647
219.97	0.000
220.34	150.000
220.72	-111.111
221.09	53.846
221.47	-100.000
221.84	-10.000
222.22	-128.571
222.59	0.000
222.97	-12.500
223.34	-220.000
223.72	-1600.000
224.09	-175.000
224.46	-325.000
224.84	20.000
225.21	-214.286
225.59	-250.000
225.96	-450.000
226.34	-30.769
226.71	150.000
227.08	-550.000
227.46	26.667
227.83	-300.000
228.21	36.842
228.58	162.500
228.95	450.000
229.33	-50.000
229.70	30.000
230.08	5.263
230.45	80.000
230.82	-266.667
231.20	-42.857
231.57	-58.333
231.95	-18.182
232.32	45.455
232.69	25.000
233.07	-200.000
233.44	-29.412
233.81	-30.000
234.19	5.556
234.56	-31.818
234.93	-13.793
235.31	5.263
235.68	-22.222
236.05	-45.000
236.43	15.385
236.80	4.000
237.17	-7.407
237.55	-6.061
237.92	-120.000
238.29	-25.806
238.67	-22.727
239.04	-11.111
239.41	-14.286
239.79	-17.391
240.16	-1.852
240.53	-13.043
240.91	-9.804
241.28	3.279
241.65	4.478
242.02	0.000
242.40	0.000
242.77	-5.333
243.14	-13.415
243.51	-19.737
243.89	-1.282
244.26	2.970
244.63	2.941
245.00	4.673
245.38	-1.754
245.75	-17.699
246.12	-0.794
246.49	-7.752
246.87	-7.143
247.24	-0.662
247.61	-2.632
247.98	2.013
248.36	-8.025
248.73	-9.202
249.10	-4.372
249.47	1.990
249.84	6.806
250.22	2.591
250.59	0.000
250.96	-2.727
251.33	-2.551
251.70	-0.855
252.08	-1.667
252.45	-1.230
252.82	-2.479
253.19	-5.078
253.56	-1.901
253.94	-4.615
254.31	-0.758
254.68	3.497
255.05	0.326
255.42	0.340
255.79	-3.236
256.16	-1.987
256.54	-3.642
256.91	-0.328
257.28	-2.623
257.65	-4.777
258.02	-3.835
258.39	-0.285
258.76	2.141
259.14	2.299
259.51	-2.594
259.88	-0.283
260.25	1.667
260.62	0.274
260.99	1.093
261.36	1.072
261.73	-0.531
262.10	-1.648
262.47	-0.804
262.85	1.515
263.22	-3.636
263.59	-5.000
263.96	-0.512
264.33	0.000
264.70	-1.975
265.07	1.432
265.44	3.855
265.81	-1.389
266.18	0.454
266.55	0.223
266.92	-3.417
267.29	0.656
267.66	-1.552
268.03	-0.655
268.40	0.209
268.77	-4.784
269.14	-2.203
269.51	-1.754
269.88	1.434
270.25	0.201
270.62	0.000
270.99	1.818
271.36	2.376
271.73	0.589
272.10	-0.200
272.47	-1.002
272.84	-1.807
273.21	-0.200
273.58	-0.202
273.95	0.769
274.32	-1.901
274.69	-2.321
275.06	-2.381
275.43	0.000
275.80	0.882
276.17	-1.296
276.54	-0.746
276.91	-0.537
277.28	0.181
277.65	-0.180
278.02	-0.551
278.39	-1.993
278.76	0.351
279.13	0.532
279.50	0.172
279.87	1.252
280.23	-2.641
280.60	0.169
280.97	-0.164
281.34	-1.188
281.71	0.677
282.08	-0.664
282.45	-1.146
282.82	0.000
283.19	-2.100
283.56	-1.475
283.92	1.351
284.29	2.212
284.66	2.135
285.03	-2.083
285.40	0.000
285.77	-1.084
286.14	1.221
286.51	-0.152
286.87	-0.948
287.24	-1.054
287.61	0.149
287.98	-1.057
288.35	-1.036
288.72	0.148
289.08	0.439
289.45	-0.296
289.82	0.000
290.19	0.000
290.56	-0.141
290.93	-0.285
291.29	0.413
291.66	-0.826
292.03	0.000
292.40	1.633
292.77	-0.135
293.13	0.947
293.50	-1.183
293.87	-0.671
294.24	0.933
294.60	0.632
294.97	-1.342
295.34	0.896
295.71	0.883
296.08	-0.388
296.44	0.123
296.81	0.487
297.18	0.996
297.55	-0.118
297.91	-0.237
298.28	-0.474
298.65	0.595
299.02	0.118
299.38	0.572
299.75	0.117
300.12	0.116
300.48	1.613
300.85	1.350
301.22	1.007
301.59	-0.913
301.95	0.113
302.32	1.333
302.69	-0.657
303.05	1.415
303.42	1.109
303.79	0.625
304.15	0.841
304.52	0.529
304.89	0.209
305.25	0.828
305.62	0.104
305.99	1.649
306.35	1.310
306.72	0.827
307.09	-0.305
307.45	0.000
307.82	0.807
308.19	0.706
308.55	0.868
308.92	0.974
309.29	1.149
309.65	0.487
310.02	0.495
310.38	1.575
310.75	0.777
311.12	1.438
311.48	0.000
311.85	0.950
312.22	0.759
312.58	0.939
312.95	0.382
313.31	2.349
313.68	2.198
314.05	1.897
314.41	1.913
314.78	1.907
315.14	1.270
315.51	2.308
315.87	2.160
316.24	1.918
316.61	3.020
316.97	1.176
317.34	2.028
317.70	2.620
318.07	2.998
318.43	2.551
318.80	4.097
319.16	2.918
319.53	1.542
319.89	2.805
320.26	3.915
320.62	2.748
320.99	2.401
321.35	3.142
321.72	4.093
322.08	2.615
322.45	3.433
322.81	3.700
323.18	4.602
323.54	4.569
323.91	5.338
324.27	5.164
324.64	6.633
325.00	4.229
325.37	5.487
325.73	6.198
326.10	6.569
326.46	6.352
326.83	6.565
327.19	6.614
327.56	7.352
327.92	5.665
328.29	5.565
328.65	6.700
329.01	7.191
329.38	7.498
329.74	8.048
330.11	7.620
330.47	8.003
330.84	7.924
331.20	8.667
331.56	7.799
331.93	9.038
332.29	9.153
332.66	8.804
333.02	7.873
333.38	8.473
333.75	8.502
334.11	8.090
334.48	9.158
334.84	9.431
335.20	8.984
335.57	8.600
335.93	8.760
336.29	8.652
336.66	7.738
337.02	8.110
337.38	8.673
337.75	8.264
338.11	9.420
338.47	8.602
338.84	8.460
339.20	7.414
339.56	8.731
339.93	8.703
340.29	8.776
340.65	8.354
341.02	9.577
341.38	8.812
341.74	8.313
342.11	8.206
342.47	7.069
342.83	8.615
343.20	9.076
343.56	8.581
343.92	8.887
344.28	9.141
344.65	8.450
345.01	8.580
345.37	8.942
345.73	7.794
346.10	8.970
346.46	8.149
346.82	8.764
347.19	8.709
347.55	8.422
347.91	8.544
348.27	7.739
348.63	8.606
349.00	7.233
349.36	8.253
349.72	8.557
350.08	8.470
350.45	7.224
350.81	7.466
351.17	8.647
351.53	8.870
351.89	7.669
352.26	7.537
352.62	7.313
352.98	6.947
353.34	7.468
353.70	7.088
354.07	7.973
354.43	7.973
354.79	8.153
355.15	7.432
355.51	8.553
355.87	7.704
356.24	7.833
356.60	7.908
356.96	6.894
357.32	7.361
357.68	7.174
358.04	6.961
358.40	7.015
358.77	7.164
359.13	7.090
359.49	6.245
359.85	7.759
360.21	6.958
360.57	6.748
360.93	7.264
361.29	7.439
361.66	7.314
362.02	9.116
362.38	7.238
362.74	7.263
363.10	7.840
363.46	7.964
363.82	6.676
364.18	7.178
364.54	7.400
364.90	6.555
365.26	6.966
365.62	8.200
365.98	7.284
366.35	7.248
366.71	7.279
367.07	6.563
367.43	6.829
367.79	7.233
368.15	7.692
368.51	6.969
368.87	6.074
369.23	7.067
369.59	6.557
369.95	7.370
370.31	7.562
370.67	6.190
371.03	6.787
371.39	6.850
371.75	6.671
372.11	6.978
372.47	6.432
372.83	7.134
373.19	7.205
373.55	6.775
373.91	6.271
374.27	6.986
374.63	6.292
374.99	6.764
375.35	7.662
375.71	6.839
376.07	6.520
376.42	7.431
376.78	6.464
377.14	6.925
377.50	6.831
377.86	7.759
378.22	7.006
378.58	6.005
378.94	6.397
379.30	6.620
379.66	6.349
380.02	6.694
380.38	6.970
380.74	6.704
381.09	5.981
381.45	6.420
381.81	6.909
382.17	6.591
382.53	7.193
382.89	7.111
383.25	6.506
383.61	5.324
383.97	6.184
384.32	6.699
384.68	5.742
385.04	6.767
385.40	6.953
385.76	6.741
386.12	6.403
386.48	6.529
386.83	6.794
387.19	7.010
387.55	5.516
387.91	5.765
388.27	6.697
388.62	6.701
388.98	6.091
389.34	6.718
389.70	6.275
390.06	6.335
390.42	5.602
390.77	6.382
391.13	5.986
391.49	5.918
391.85	5.515
392.20	6.346
392.56	6.734
392.92	6.107
393.28	6.633
393.64	5.866
393.99	6.101
394.35	6.250
394.71	6.347
395.07	5.030
395.42	6.111
395.78	5.911
396.14	6.298
396.50	5.582
396.85	5.903
397.21	5.148
397.57	5.300
397.92	5.899
398.28	4.943
398.64	4.920
399.00	5.602
399.35	6.073
399.71	5.870
400.07	5.166
400.42	6.054
400.78	4.398
401.14	5.521
401.49	5.344
401.85	6.105
402.21	5.678
402.57	5.340
402.92	5.319
403.28	4.918
403.63	4.773
403.99	4.810
404.35	6.140
404.70	5.836
405.06	5.109
405.42	5.504
405.77	5.562
406.13	5.132
406.49	5.800
406.84	6.537
407.20	4.639
407.55	4.603
407.91	5.091
408.27	4.653
408.62	5.468
408.98	5.746
409.34	4.223
409.69	4.944
410.05	5.451
410.40	5.568
410.76	4.823
411.11	4.676
411.47	4.668
411.83	5.056
412.18	4.639
412.54	4.801
412.89	5.413
413.25	4.176
413.60	4.365
413.96	5.653
414.31	5.496
414.67	5.546
415.03	4.431
415.38	5.170
415.74	4.887
416.09	4.688
416.45	4.070
416.80	5.018
417.16	4.470
417.51	4.545
417.87	5.028
418.22	4.192
418.58	4.213
418.93	5.471
419.29	4.501
419.64	5.342
420.00	3.917
420.35	5.109
420.71	4.882
421.06	4.370
421.42	4.587
421.77	4.146
422.12	4.810
422.48	4.967
422.83	4.710
423.19	4.987
423.54	4.259
423.90	4.473
424.25	4.800
424.61	4.535
424.96	4.942
425.31	5.255
425.67	3.865
426.02	4.317
426.38	5.281
426.73	4.688
427.09	6.401
427.44	3.932
427.79	4.367
428.15	3.653
428.50	4.270
428.85	4.478
429.21	4.628
429.56	4.344
429.92	4.472
430.27	4.627
430.62	4.250
430.98	4.329
431.33	4.350
431.68	4.215
432.04	4.876
432.39	4.553
432.74	4.338
433.10	4.435
433.45	3.902
433.80	4.828
434.16	4.545
434.51	5.190
434.86	4.886
435.22	4.516
435.57	4.599
435.92	4.174
436.28	4.551
436.63	4.642
436.98	4.455
437.34	4.679
437.69	3.908
438.04	3.649
438.39	4.882
438.75	4.538
439.10	5.021
439.45	5.366
439.81	4.463
440.16	4.182
440.51	4.459
440.86	4.336
441.22	5.466
441.57	4.507
441.92	4.801
442.27	4.747
442.63	4.918
442.98	5.870
443.33	4.787
443.68	5.203
444.03	5.409
444.39	5.132
444.74	5.462
445.09	5.525
445.44	5.005
445.79	5.939
446.15	5.293
446.50	4.651
446.85	5.496
447.20	4.981
447.55	5.649
447.91	4.817
448.26	5.233
448.61	4.676
448.96	5.579
449.31	5.196
449.66	4.412
450.02	5.749
450.37	5.914
450.72	4.413
451.07	5.125
451.42	5.026
451.77	5.336
452.12	5.361
452.47	4.694
452.83	5.462
453.18	5.604
453.53	5.284
453.88	5.467
454.23	6.102
454.58	5.223
454.93	4.612
455.28	6.020
455.63	5.003
455.98	5.642
456.34	5.654
456.69	5.820
457.04	4.196
457.39	4.933
457.74	6.152
458.09	5.272
458.44	5.496
458.79	5.106
459.14	5.401
459.49	5.659
459.84	5.247
460.19	5.552
460.54	5.395
460.89	5.241
461.24	4.885
461.59	5.755
461.94	4.507
462.29	5.375
462.64	4.828
462.99	6.089
463.34	5.386
463.69	5.334
464.04	5.781
464.39	5.269
464.74	5.017
465.09	5.421
465.44	5.418
465.79	5.605
466.14	5.472
466.49	5.526
466.84	5.510
467.19	5.087
467.54	5.464
467.89	5.230
468.24	5.596
468.59	5.038
468.94	4.604
469.29	5.279
469.64	5.467
469.99	4.398
470.34	4.950
470.68	5.263
471.03	4.781
471.38	5.167
471.73	4.161
472.08	5.140
472.43	4.877
472.78	5.416
473.13	5.183
473.48	5.378
473.83	5.165
474.17	4.865
474.52	5.171
474.87	6.091
475.22	5.014
475.57	5.763
475.92	4.978
476.27	5.112
476.61	5.452
476.96	4.067
477.31	5.693
477.66	5.299
478.01	5.999
478.36	5.284
478.70	5.271
479.05	5.828
479.40	4.936
479.75	5.716
480.10	5.116
480.45	5.424
480.79	5.215
481.14	5.423
481.49	4.952
481.84	5.265
482.19	5.118
482.53	5.247
482.88	5.228
483.23	5.158
483.58	4.847
483.92	4.699
484.27	5.038
484.62	4.744
484.97	5.327
485.31	5.104
485.66	5.050
486.01	5.005
486.36	4.914
486.70	5.363
487.05	5.250
487.40	5.363
487.75	5.318
488.09	5.128
488.44	5.302
488.79	5.531
489.13	5.141
489.48	4.893
489.83	5.151
490.17	4.658
490.52	5.131
490.87	5.076
491.22	4.766
491.56	4.778
491.91	5.321
492.26	5.755
492.60	5.028
492.95	5.002
493.30	4.975
493.64	4.687
493.99	4.868
494.34	4.530
494.68	4.711
495.03	5.286
495.37	5.326
495.72	4.943
496.07	4.952
496.41	4.419
496.76	4.962
497.11	4.374
497.45	4.704
497.80	5.153
498.14	4.807
498.49	4.779
498.84	4.753
499.18	5.488
499.53	5.157
499.87	5.099
500.22	4.052
500.56	4.543
500.91	4.622
501.26	5.091
501.60	4.993
501.95	5.254
502.29	5.222
502.64	4.766
502.98	5.306
503.33	4.449
503.67	4.797
504.02	4.247
504.36	4.558
504.71	4.548
505.06	5.002
505.40	4.570
505.75	4.281
506.09	4.834
506.44	4.596
506.78	4.908
507.13	4.610
507.47	4.642
507.82	4.593
508.16	4.015
508.51	3.985
508.85	4.629
509.19	4.642
509.54	5.572
509.88	4.468
510.23	4.080
510.57	5.462
510.92	4.983
511.26	4.521
511.61	4.394
511.95	4.685
512.30	4.924
512.64	4.498
512.98	4.102
513.33	5.091
513.67	4.437
514.02	4.139
514.36	4.859
514.70	4.062
515.05	4.119
515.39	4.462
515.74	4.507
516.08	5.177
516.42	5.181
516.77	4.837
517.11	4.177
517.46	4.878
517.80	4.917
518.14	4.788
518.49	4.230
518.83	4.417
519.17	4.254
519.52	4.822
519.86	4.752
520.20	4.899
520.55	4.436
520.89	4.336
521.23	4.858
521.58	4.463
521.92	4.023
522.26	4.696
522.61	4.514
522.95	4.614
523.29	4.770
523.64	4.260
523.98	4.906
524.32	5.330
524.66	3.870
525.01	4.134
525.35	4.250
525.69	4.176
526.04	4.191
526.38	4.425
526.72	4.498
527.06	4.047
527.41	3.907
527.75	5.226
528.09	4.782
528.43	4.381
528.78	4.104
529.12	3.956
529.46	4.384
529.80	3.432
530.15	4.058
530.49	4.093
530.83	4.368
531.17	4.958
531.51	4.753
531.86	4.026
532.20	4.451
532.54	4.369
532.88	4.485
533.22	4.243
533.57	4.328
533.91	4.770
534.25	4.579
534.59	4.425
534.93	3.792
535.27	4.282
535.62	5.173
535.96	4.416
536.30	3.995
536.64	4.024
536.98	4.551
537.32	4.012
537.66	4.492
538.01	4.169
538.35	3.837
538.69	3.846
539.03	4.231
539.37	4.947
539.71	4.505
540.05	4.317
540.39	4.279
540.73	4.250
541.07	4.537
541.42	4.312
541.76	4.033
542.10	4.403
542.44	3.776
542.78	4.745
543.12	3.933
543.46	3.968
543.80	3.597
544.14	3.770
544.48	4.787
544.82	4.249
545.16	4.055
545.50	4.614
545.84	4.287
546.18	5.617
546.52	3.631
546.86	3.208
547.20	4.580
547.54	4.370
547.88	4.099
548.22	3.509
548.56	4.213
548.90	4.239
549.24	4.377
549.58	3.849
549.92	3.253
550.26	3.819
550.60	4.786
550.94	4.463
551.28	3.366
551.62	4.582
551.96	4.466
552.30	5.035
552.64	5.040
552.98	4.429
553.32	4.180
553.66	4.566
554.00	3.783
554.34	3.668
554.68	3.292
555.02	3.942
555.36	4.339
555.69	3.395
556.03	3.972
556.37	4.068
556.71	4.058
557.05	4.217
557.39	3.384
557.73	3.963
558.07	3.775
558.41	4.518
558.75	3.922
559.08	4.036
559.42	4.733
559.76	4.613
560.10	4.153
560.44	4.024
560.78	4.625
561.12	3.633
561.45	4.745
561.79	3.663
562.13	3.758
562.47	3.329
562.81	3.544
563.15	4.230
563.48	4.537
563.82	4.051
564.16	3.634
564.50	4.529
564.84	3.304
565.17	4.118
565.51	3.797
565.85	3.919
566.19	4.090
566.52	3.569
566.86	4.358
567.20	3.806
567.54	3.877
567.88	4.077
568.21	4.101
568.55	4.173
568.89	4.312
569.23	3.929
569.56	4.181
569.90	4.348
570.24	3.845
570.57	3.752
570.91	3.307
571.25	4.252
571.59	4.036
571.92	3.891
572.26	3.388
572.60	4.013
572.93	4.286
573.27	3.512
573.61	4.235
573.95	4.443
574.28	4.064
574.62	3.956
574.96	3.970
575.29	4.186
575.63	3.973
575.97	3.928
576.30	4.145
576.64	3.651
576.98	3.804
577.31	3.876
577.65	4.065
577.98	3.878
578.32	3.696
578.66	4.071
578.99	4.280
579.33	3.713
579.67	3.989
580.00	4.113
580.34	4.210
580.67	3.972
581.01	4.089
581.35	4.130
581.68	3.780
582.02	4.088
582.35	3.765
582.69	3.866
583.02	3.999
583.36	4.046
583.70	4.045
584.03	3.792
584.37	3.851
584.70	4.083
585.04	3.604
585.37	3.867
585.71	4.164
586.04	4.007
586.38	3.830
586.72	3.836
587.05	3.633
587.39	3.914
587.72	3.947
588.06	4.207
588.39	4.058
588.73	3.624
589.06	4.176
589.40	4.087
589.73	3.856
590.07	3.846
590.40	4.023
590.73	3.641
591.07	4.319
591.40	3.694
591.74	3.895
592.07	4.222
592.41	3.509
592.74	3.905
593.08	4.045
593.41	4.258
593.75	3.937
594.08	3.847
594.41	3.814
594.75	3.720
595.08	3.836
595.42	3.766
595.75	3.778
596.09	3.931
596.42	3.798
596.75	3.744
597.09	4.040
597.42	4.013
597.75	4.038
598.09	4.246
598.42	4.503
598.76	3.515
599.09	4.094
599.42	3.855
599.76	4.259
600.09	4.037
600.42	3.704
600.76	4.590
601.09	3.352
601.42	3.845
601.76	3.690
602.09	3.860
602.42	3.599
602.76	3.838
603.09	4.001
603.42	3.757
603.76	3.101
604.09	4.400
604.42	3.743
604.76	3.387
605.09	3.470
605.42	4.067
605.75	4.115
606.09	3.882
606.42	3.539
606.75	3.523
607.09	3.955
607.42	3.391
607.75	3.322
608.08	3.354
608.42	4.152
608.75	4.022
609.08	3.862
609.41	3.485
609.75	3.482
610.08	4.046
610.41	3.908
610.74	3.950
611.07	3.419
611.41	4.305
611.74	4.203
612.07	3.834
612.40	3.470
612.73	2.983
613.07	4.303
613.40	3.946
613.73	3.659
614.06	3.925
614.39	3.401
614.72	3.493
615.06	3.609
615.39	3.480
615.72	3.791
616.05	3.497
616.38	4.238
616.71	4.232
617.05	3.568
617.38	3.799
617.71	3.942
618.04	4.533
618.37	4.481
618.70	4.412
619.03	3.345
619.36	3.453
619.69	3.844
620.03	3.327
620.36	3.374
620.69	3.208
621.02	3.740
621.35	3.846
621.68	4.411
622.01	4.270
622.34	2.999
622.67	3.849
623.00	2.564
623.33	3.583
623.66	3.632
623.99	3.226
624.32	5.263
624.65	3.732
624.99	4.421
625.32	4.180
625.65	3.911
625.98	3.390
626.31	3.118
626.64	3.736
626.97	2.626
627.30	2.809
627.63	3.076
627.96	4.279
628.29	3.969
628.62	3.526
628.95	2.805
629.28	2.719
629.61	3.956
629.94	2.427
630.26	3.559
630.59	3.022
630.92	3.463
631.25	4.741
631.58	4.426
631.91	3.280
632.24	3.939
632.57	3.321
632.90	3.210
633.23	2.857
633.56	2.347
633.89	3.409
634.22	4.782
634.55	4.175
634.88	3.680
635.20	4.090
635.53	3.503
635.86	3.359
636.19	4.030
636.52	4.958
636.85	3.064
637.18	3.015
637.51	2.903
637.83	3.987
638.16	4.378
638.49	2.700
638.82	3.720
639.15	2.520
639.48	3.464
639.81	4.157
640.13	4.358
640.46	2.182
640.79	3.064
641.12	4.969
641.45	3.388
641.77	4.365
642.10	2.756
642.43	4.388
642.76	4.607
643.09	2.466
643.41	2.661
643.74	1.655
644.07	4.276
644.40	2.687
644.73	3.048
645.05	2.790
645.38	3.741
645.71	4.985
646.04	5.022
646.36	3.942
646.69	4.448
647.02	3.823
647.35	3.511
647.67	2.093
648.00	3.503
648.33	4.955
648.66	3.994
648.98	4.218
649.31	3.789
649.64	4.914
649.96	4.244
650.29	1.808
650.62	4.526
650.94	2.252
651.27	3.293
651.60	2.632
651.92	3.495
652.25	4.631
652.58	3.714
652.90	1.163
653.23	4.930
653.56	3.281
653.88	5.197
654.21	3.521
654.54	4.191
654.86	4.816
655.19	3.137
655.52	3.831
655.84	4.009
656.17	4.453
656.49	6.494
656.82	7.067
657.15	5.424
