SpectraSuite Data File
++++++++++++++++++++++++++++++++++++
Date: Thu May 14 16:30:36 PDT 2015
User: schluterlab
Dark Spectrum Present: Yes
Reference Spectrum Present: Yes
Number of Sampled Component Spectra: 1
Spectrometers: USB2E3373
Integration Time (usec): 3000 (USB2E3373)
Spectra Averaged: 3 (USB2E3373)
Boxcar Smoothing: 0 (USB2E3373)
Correct for Electrical Dark: No (USB2E3373)
Strobe/Lamp Enabled: No (USB2E3373)
Correct for Detector Non-linearity: No (USB2E3373)
Correct for Stray Light: No (USB2E3373)
Number of Pixels in Processed Spectrum: 2048
>>>>>Begin Processed Spectral Data<<<<<
178.53	0.000
178.91	28.571
179.29	-1100.000
179.67	-600.000
180.04	92.857
180.42	70.000
180.80	140.000
181.18	200.000
181.56	-500.000
181.94	-75.000
182.31	-50.000
182.69	133.333
183.07	-150.000
183.45	350.000
183.83	-116.667
184.20	-33.333
184.58	400.000
184.96	-100.000
185.34	111.111
185.72	0.000
186.09	44.444
186.47	350.000
186.85	240.000
187.23	-66.667
187.61	-800.000
187.98	80.000
188.36	25.000
188.74	25.000
189.12	166.667
189.49	18.750
189.87	-50.000
190.25	-66.667
190.63	0.000
191.00	-77.778
191.38	0.000
191.76	-175.000
192.14	83.333
192.51	500.000
192.89	150.000
193.27	0.000
193.65	14.286
194.02	-500.000
194.40	14.286
194.78	-0.000
195.15	0.000
195.53	63.636
195.91	0.000
196.29	75.000
196.66	23.077
197.04	-400.000
197.42	14.286
197.79	-50.000
198.17	-87.500
198.55	85.714
198.92	66.667
199.30	-25.000
199.68	-18.182
200.05	57.143
200.43	-450.000
200.81	14.286
201.18	0.000
201.56	188.889
201.94	0.000
202.31	333.333
202.69	55.556
203.07	-800.000
203.44	88.889
203.82	-125.000
204.19	-33.333
204.57	66.667
204.95	-75.000
205.32	-500.000
205.70	75.000
206.08	-83.333
206.45	116.667
206.83	340.000
207.20	100.000
207.58	-200.000
207.96	-233.333
208.33	16.667
208.71	66.667
209.08	116.667
209.46	0.000
209.84	100.000
210.21	-0.000
210.59	150.000
210.96	166.667
211.34	75.000
211.71	-87.500
212.09	-500.000
212.46	0.000
212.84	650.000
213.22	-440.000
213.59	-50.000
213.97	110.000
214.34	33.333
214.72	116.667
215.09	50.000
215.47	0.000
215.84	14.286
216.22	350.000
216.59	20.000
216.97	80.000
217.34	-150.000
217.72	-62.500
218.09	-275.000
218.47	-200.000
218.84	0.000
219.22	-120.000
219.59	47.059
219.97	60.000
220.34	400.000
220.72	-33.333
221.09	84.615
221.47	-33.333
221.84	-50.000
222.22	-114.286
222.59	0.000
222.97	62.500
223.34	-140.000
223.72	-200.000
224.09	150.000
224.46	-125.000
224.84	-80.000
225.21	-100.000
225.59	-275.000
225.96	150.000
226.34	11.538
226.71	133.333
227.08	200.000
227.46	46.667
227.83	-175.000
228.21	-10.526
228.58	12.500
228.95	250.000
229.33	50.000
229.70	-20.000
230.08	47.368
230.45	50.000
230.82	0.000
231.20	14.286
231.57	50.000
231.95	0.000
232.32	45.455
232.69	25.000
233.07	-25.000
233.44	-23.529
233.81	-50.000
234.19	5.556
234.56	9.091
234.93	37.931
235.31	-5.263
235.68	27.778
236.05	-15.000
236.43	26.923
236.80	28.000
237.17	-7.407
237.55	0.000
237.92	-30.000
238.29	-9.677
238.67	18.182
239.04	-8.333
239.41	-4.762
239.79	8.696
240.16	0.000
240.53	-2.174
240.91	-3.922
241.28	8.197
241.65	5.970
242.02	-9.459
242.40	-12.308
242.77	2.667
243.14	-8.537
243.51	-6.579
243.89	3.846
244.26	0.990
244.63	1.961
245.00	3.738
245.38	-3.509
245.75	-5.310
246.12	7.143
246.49	0.775
246.87	7.857
247.24	0.000
247.61	5.921
247.98	2.685
248.36	0.617
248.73	-4.908
249.10	-3.279
249.47	3.980
249.84	6.283
250.22	0.000
250.59	-3.889
250.96	3.182
251.33	-1.020
251.70	2.564
252.08	3.333
252.45	1.639
252.82	-0.826
253.19	0.000
253.56	1.521
253.94	-1.923
254.31	2.273
254.68	0.000
255.05	5.537
255.42	2.381
255.79	0.647
256.16	-1.656
256.54	-1.987
256.91	3.607
257.28	-2.951
257.65	0.318
258.02	-0.590
258.39	1.425
258.76	5.505
259.14	5.172
259.51	3.458
259.88	0.567
260.25	0.833
260.62	3.562
260.99	5.191
261.36	1.072
261.73	-0.531
262.10	0.275
262.47	2.681
262.85	5.303
263.22	-2.338
263.59	-2.632
263.96	0.256
264.33	-1.023
264.70	3.704
265.07	2.387
265.44	4.762
265.81	-0.694
266.18	0.680
266.55	1.562
266.92	-1.367
267.29	3.720
267.66	0.887
268.03	0.873
268.40	1.670
268.77	-2.733
269.14	-2.863
269.51	1.096
269.88	2.869
270.25	3.018
270.62	2.321
270.99	3.030
271.36	2.574
271.73	0.982
272.10	2.204
272.47	0.200
272.84	1.406
273.21	1.002
273.58	1.008
273.95	0.385
274.32	-0.760
274.69	1.354
275.06	2.015
275.43	2.033
275.80	2.646
276.17	0.185
276.54	-0.560
276.91	2.326
277.28	0.904
277.65	1.616
278.02	3.493
278.39	0.181
278.76	1.054
279.13	1.773
279.50	2.405
279.87	3.399
280.23	-0.352
280.60	1.186
280.97	1.316
281.34	-0.170
281.71	3.215
282.08	1.993
282.45	-0.164
282.82	1.256
283.19	-0.808
283.56	0.164
283.92	4.204
284.29	3.476
284.66	2.463
285.03	1.282
285.40	1.700
285.77	0.155
286.14	0.153
286.51	1.979
286.87	-0.158
287.24	1.807
287.61	1.345
287.98	0.755
288.35	1.627
288.72	1.183
289.08	2.489
289.45	1.331
289.82	2.560
290.19	1.868
290.56	0.845
290.93	-0.143
291.29	0.275
291.66	0.138
292.03	2.035
292.40	2.177
292.77	1.617
293.13	0.947
293.50	1.314
293.87	2.013
294.24	3.333
294.60	2.023
294.97	1.611
295.34	3.585
295.71	0.252
296.08	-0.129
296.44	1.103
296.81	0.609
297.18	2.740
297.55	2.358
297.91	1.305
298.28	1.185
298.65	2.021
299.02	0.945
299.38	1.259
299.75	1.636
300.12	1.273
300.48	0.922
300.85	2.475
301.22	2.013
301.59	1.941
301.95	1.243
302.32	1.222
302.69	2.519
303.05	1.415
303.42	1.552
303.79	1.875
304.15	2.208
304.52	1.797
304.89	1.571
305.25	1.760
305.62	2.403
305.99	2.680
306.35	2.923
306.72	1.655
307.09	0.914
307.45	1.863
307.82	2.422
308.19	2.119
308.55	2.122
308.92	2.045
309.29	1.916
309.65	1.852
310.02	2.376
310.38	2.264
310.75	2.330
311.12	2.780
311.48	2.151
311.85	3.229
312.22	2.467
312.58	2.160
312.95	2.581
313.31	3.162
313.68	4.304
314.05	4.065
314.41	3.552
314.78	3.542
315.14	4.174
315.51	3.601
315.87	3.240
316.24	4.018
316.61	4.796
316.97	2.353
317.34	2.822
317.70	4.105
318.07	4.586
318.43	4.422
318.80	4.599
319.16	3.777
319.53	3.856
319.89	4.294
320.26	4.626
320.62	4.699
320.99	4.063
321.35	4.621
321.72	5.488
322.08	4.959
322.45	4.878
322.81	5.144
323.18	4.425
323.54	5.431
323.91	6.050
324.27	5.336
324.64	5.793
325.00	5.058
325.37	6.143
325.73	6.364
326.10	6.164
326.46	5.863
326.83	6.245
327.19	5.512
327.56	5.692
327.92	5.822
328.29	5.161
328.65	5.695
329.01	5.668
329.38	6.655
329.74	6.336
330.11	6.421
330.47	7.077
330.84	6.632
331.20	7.083
331.56	5.979
331.93	7.113
332.29	6.610
332.66	6.478
333.02	6.365
333.38	6.460
333.75	5.219
334.11	6.756
334.48	6.683
334.84	6.542
335.20	7.221
335.57	6.998
335.93	6.612
336.29	6.656
336.66	5.887
337.02	7.274
337.38	6.293
337.75	6.281
338.11	6.056
338.47	6.782
338.84	5.245
339.20	5.729
339.56	5.766
339.93	6.486
340.29	6.602
340.65	6.407
341.02	7.103
341.38	7.276
341.74	5.730
342.11	6.436
342.47	5.163
342.83	6.522
343.20	6.541
343.56	6.095
343.92	5.604
344.28	6.250
344.65	6.744
345.01	6.552
345.37	6.143
345.73	5.066
346.10	6.786
346.46	5.617
346.82	6.217
347.19	6.035
347.55	6.829
347.91	5.201
348.27	6.449
348.63	6.550
349.00	5.891
349.36	6.840
349.72	5.432
350.08	5.721
350.45	5.399
350.81	5.958
351.17	6.090
351.53	5.838
351.89	5.391
352.26	5.597
352.62	5.672
352.98	5.267
353.34	4.705
353.70	4.854
354.07	5.738
354.43	4.935
354.79	6.058
355.15	5.298
355.51	6.652
355.87	5.086
356.24	5.703
356.60	6.061
356.96	5.411
357.32	4.907
357.68	5.198
358.04	5.240
358.40	5.672
358.77	6.287
359.13	4.579
359.49	4.610
359.85	5.221
360.21	5.308
360.57	4.882
360.93	5.078
361.29	4.982
361.66	5.069
362.02	6.054
362.38	5.692
362.74	4.609
363.10	5.640
363.46	5.194
363.82	4.830
364.18	5.630
364.54	5.118
364.90	5.084
365.26	4.759
365.62	5.533
365.98	4.629
366.35	4.497
366.71	4.966
367.07	4.736
367.43	5.712
367.79	4.977
368.15	5.686
368.51	4.533
368.87	5.095
369.23	4.933
369.59	5.396
369.95	5.003
370.31	5.469
370.67	5.021
371.03	4.709
371.39	4.298
371.75	4.952
372.11	4.675
372.47	5.146
372.83	5.563
373.19	5.203
373.55	5.014
373.91	4.090
374.27	5.045
374.63	5.548
374.99	5.172
375.35	5.390
375.71	5.097
376.07	5.423
376.42	5.038
376.78	4.972
377.14	5.240
377.50	4.681
377.86	5.850
378.22	4.671
378.58	4.816
378.94	4.812
379.30	5.155
379.66	4.644
380.02	4.674
380.38	4.435
380.74	5.014
381.09	4.413
381.45	4.602
381.81	5.211
382.17	5.166
382.53	5.088
382.89	5.079
383.25	4.572
383.61	3.993
383.97	4.653
384.32	4.665
384.68	4.408
385.04	4.338
385.40	4.891
385.76	4.748
386.12	4.668
386.48	4.588
386.83	4.589
387.19	4.229
387.55	3.932
387.91	4.167
388.27	4.503
388.62	4.066
388.98	4.399
389.34	4.891
389.70	4.648
390.06	4.973
390.42	4.337
390.77	4.756
391.13	4.930
391.49	5.374
391.85	3.455
392.20	4.567
392.56	4.312
392.92	5.125
393.28	4.699
393.64	4.190
393.99	4.590
394.35	4.498
394.71	4.970
395.07	4.012
395.42	4.512
395.78	5.241
396.14	4.753
396.50	4.572
396.85	4.114
397.21	4.379
397.57	4.181
397.92	4.811
398.28	4.128
398.64	3.661
399.00	3.874
399.35	4.293
399.71	4.130
400.07	3.762
400.42	3.900
400.78	4.167
401.14	4.212
401.49	4.605
401.85	4.244
402.21	4.287
402.57	5.106
402.92	4.196
403.28	3.337
403.63	3.580
403.99	3.741
404.35	3.752
404.70	4.023
405.06	3.859
405.42	4.157
405.77	4.580
406.13	3.728
406.49	3.941
406.84	3.601
407.20	4.192
407.55	3.452
407.91	3.834
408.27	4.299
408.62	4.363
408.98	3.714
409.34	3.578
409.69	3.028
410.05	4.631
410.40	4.060
410.76	3.702
411.11	4.617
411.47	4.300
411.83	4.350
412.18	4.639
412.54	4.149
412.89	3.842
413.25	4.120
413.60	3.217
413.96	3.497
414.31	4.306
414.67	3.936
415.03	4.062
415.38	3.909
415.74	3.726
416.09	4.503
416.45	3.444
416.80	3.978
417.16	4.278
417.51	3.985
417.87	3.924
418.22	4.371
418.58	3.532
418.93	4.948
419.29	3.391
419.64	3.902
420.00	3.561
420.35	4.155
420.71	3.504
421.06	3.565
421.42	4.300
421.77	3.177
422.12	4.175
422.48	4.096
422.83	3.669
423.19	3.873
423.54	4.093
423.90	3.313
424.25	4.213
424.61	3.100
424.96	4.119
425.31	4.246
425.67	3.489
426.02	3.597
426.38	3.617
426.73	3.404
427.09	5.133
427.44	3.332
427.79	3.870
428.15	3.482
428.50	4.157
428.85	4.018
429.21	4.681
429.56	3.110
429.92	3.833
430.27	4.000
430.62	4.201
430.98	3.788
431.33	3.666
431.68	3.257
432.04	4.012
432.39	3.214
432.74	3.824
433.10	3.894
433.45	3.456
433.80	3.541
434.16	4.184
434.51	3.649
434.86	4.017
435.22	3.507
435.57	3.950
435.92	4.118
436.28	4.266
436.63	3.823
436.98	3.596
437.34	3.833
437.69	3.467
438.04	3.279
438.39	3.848
438.75	3.486
439.10	3.964
439.45	4.472
439.81	3.898
440.16	3.164
440.51	3.679
440.86	3.168
441.22	3.698
441.57	3.512
441.92	4.316
442.27	4.091
442.63	3.626
442.98	4.109
443.33	4.840
443.68	4.361
444.03	3.622
444.39	4.207
444.74	4.237
445.09	4.004
445.44	3.583
445.79	3.831
446.15	4.162
446.50	3.928
446.85	4.718
447.20	4.207
447.55	4.132
447.91	4.084
448.26	4.017
448.61	3.613
448.96	4.667
449.31	4.030
449.66	3.268
450.02	4.061
450.37	4.049
450.72	3.983
451.07	3.702
451.42	4.044
451.77	4.225
452.12	4.458
452.47	3.803
452.83	3.998
453.18	4.086
453.53	4.308
453.88	4.197
454.23	4.181
454.58	3.250
454.93	3.883
455.28	3.853
455.63	4.093
455.98	4.302
456.34	4.417
456.69	4.703
457.04	3.960
457.39	4.324
457.74	4.362
458.09	4.283
458.44	4.149
458.79	3.971
459.14	4.457
459.49	4.131
459.84	4.512
460.19	3.554
460.54	4.429
460.89	4.076
461.24	3.793
461.59	4.317
461.94	3.480
462.29	4.143
462.64	3.742
462.99	3.829
463.34	3.569
463.69	4.045
464.04	4.225
464.39	4.428
464.74	4.390
465.09	4.325
465.44	4.453
465.79	4.125
466.14	4.117
466.49	3.684
466.84	3.636
467.19	4.682
467.54	4.289
467.89	3.793
468.24	4.211
468.59	3.532
468.94	4.021
469.29	3.959
469.64	3.497
469.99	3.378
470.34	4.022
470.68	4.238
471.03	4.257
471.38	4.186
471.73	3.706
472.08	3.934
472.43	3.672
472.78	3.715
473.13	3.161
473.48	3.807
473.83	4.469
474.17	4.513
474.52	3.067
474.87	4.097
475.22	4.451
475.57	3.115
475.92	4.131
476.27	3.727
476.61	3.634
476.96	3.024
477.31	3.416
477.66	4.250
478.01	3.559
478.36	4.088
478.70	3.596
479.05	4.039
479.40	3.406
479.75	4.611
480.10	3.742
480.45	4.148
480.79	4.444
481.14	3.401
481.49	3.498
481.84	3.960
482.19	3.183
482.53	3.804
482.88	3.855
483.23	3.468
483.58	3.319
483.92	3.457
484.27	3.895
484.62	3.672
484.97	3.927
485.31	3.872
485.66	3.700
486.01	3.527
486.36	3.505
486.70	3.757
487.05	3.685
487.40	3.808
487.75	4.071
488.09	4.029
488.44	3.884
488.79	4.115
489.13	3.621
489.48	3.573
489.83	3.501
490.17	3.524
490.52	3.982
490.87	4.272
491.22	3.466
491.56	3.968
491.91	3.969
492.26	4.111
492.60	3.892
492.95	3.510
493.30	3.317
493.64	3.811
493.99	3.421
494.34	3.615
494.68	3.255
495.03	3.260
495.37	3.285
495.72	3.537
496.07	4.119
496.41	3.303
496.76	3.169
497.11	3.482
497.45	3.323
497.80	4.220
498.14	3.129
498.49	3.493
498.84	3.336
499.18	3.869
499.53	3.722
499.87	4.044
500.22	2.671
500.56	3.419
500.91	3.478
501.26	4.045
501.60	2.828
501.95	3.343
502.29	3.072
502.64	3.760
502.98	3.494
503.33	3.110
503.67	2.747
504.02	3.240
504.36	3.753
504.71	3.491
505.06	2.865
505.40	3.839
505.75	3.506
506.09	3.545
506.44	3.900
506.78	3.578
507.13	3.227
507.47	3.316
507.82	3.504
508.16	3.346
508.51	3.844
508.85	2.834
509.19	3.126
509.54	3.458
509.88	2.963
510.23	3.400
510.57	4.205
510.92	3.290
511.26	2.934
511.61	2.945
511.95	2.831
512.30	3.791
512.64	3.848
512.98	3.252
513.33	3.579
513.67	3.213
514.02	3.526
514.36	3.529
514.70	3.125
515.05	2.763
515.39	3.727
515.74	3.552
516.08	4.226
516.42	3.977
516.77	2.576
517.11	2.888
517.46	3.287
517.80	3.581
518.14	3.972
518.49	3.145
518.83	3.566
519.17	3.016
519.52	3.669
519.86	3.010
520.20	3.514
520.55	3.067
520.89	3.716
521.23	3.462
521.58	3.503
521.92	3.513
522.26	2.806
522.61	3.472
522.95	3.345
523.29	3.621
523.64	2.747
523.98	3.080
524.32	3.954
524.66	3.586
525.01	2.831
525.35	3.504
525.69	3.422
526.04	3.042
526.38	3.103
526.72	3.172
527.06	3.167
527.41	3.032
527.75	3.266
528.09	2.834
528.43	3.375
528.78	2.948
529.12	3.612
529.46	3.260
529.80	2.918
530.15	2.725
530.49	2.491
530.83	3.247
531.17	3.524
531.51	3.670
531.86	3.005
532.20	3.476
532.54	2.992
532.88	3.394
533.22	2.652
533.57	3.520
533.91	3.704
534.25	3.787
534.59	3.333
534.93	2.207
535.27	3.493
535.62	3.525
535.96	3.544
536.30	3.290
536.64	3.123
536.98	3.260
537.32	3.704
537.66	2.495
538.01	2.961
538.35	3.289
538.69	3.125
539.03	3.127
539.37	3.180
539.71	2.883
540.05	3.537
540.39	2.506
540.73	2.732
541.07	2.943
541.42	3.012
541.76	2.550
542.10	2.654
542.44	2.375
542.78	3.589
543.12	3.278
543.46	3.602
543.80	1.918
544.14	2.992
544.48	3.369
544.82	3.351
545.16	2.922
545.50	2.397
545.84	3.001
546.18	3.395
546.52	3.439
546.86	3.459
547.20	2.735
547.54	2.934
547.88	3.195
548.22	2.924
548.56	3.101
548.90	2.507
549.24	3.465
549.58	3.028
549.92	3.380
550.26	2.848
550.60	2.999
550.94	2.652
551.28	3.102
551.62	3.437
551.96	3.560
552.30	3.250
552.64	3.049
552.98	2.870
553.32	3.087
553.66	2.894
554.00	3.279
554.34	2.703
554.68	2.582
555.02	2.628
555.36	3.287
555.69	2.498
556.03	2.081
556.37	3.004
556.71	3.107
557.05	3.387
557.39	2.654
557.73	2.576
558.07	2.583
558.41	2.990
558.75	2.637
559.08	2.644
559.42	3.018
559.76	3.867
560.10	3.014
560.44	2.573
560.78	2.563
561.12	2.771
561.45	3.406
561.79	2.625
562.13	3.142
562.47	2.219
562.81	2.405
563.15	2.715
563.48	3.108
563.82	3.083
564.16	2.544
564.50	2.980
564.84	3.363
565.17	3.000
565.51	3.107
565.85	2.969
566.19	2.074
566.52	2.867
566.86	2.943
567.20	2.882
567.54	2.443
567.88	2.294
568.21	1.927
568.55	2.350
568.89	2.587
569.23	2.915
569.56	2.306
569.90	2.887
570.24	2.192
570.57	2.502
570.91	2.327
571.25	2.719
571.59	3.034
571.92	2.585
572.26	2.700
572.60	2.539
572.93	2.588
573.27	2.585
573.61	2.938
573.95	2.840
574.28	2.733
574.62	2.547
574.96	2.536
575.29	2.754
575.63	2.703
575.97	3.090
576.30	2.837
576.64	2.529
576.98	2.597
577.31	2.825
577.65	2.868
577.98	2.692
578.32	2.519
578.66	2.601
578.99	2.724
579.33	2.912
579.67	2.743
580.00	2.675
580.34	3.032
580.67	2.383
581.01	2.445
581.35	2.786
581.68	2.715
582.02	2.655
582.35	2.565
582.69	2.617
583.02	2.691
583.36	2.752
583.70	2.840
584.03	2.904
584.37	2.765
584.70	2.469
585.04	2.674
585.37	2.585
585.71	2.805
586.04	2.598
586.38	2.739
586.72	2.231
587.05	2.609
587.39	2.493
587.72	2.536
588.06	2.635
588.39	2.689
588.73	2.302
589.06	2.681
589.40	2.581
589.73	3.117
590.07	2.918
590.40	2.941
590.73	2.686
591.07	2.829
591.40	2.527
591.74	2.464
592.07	2.923
592.41	2.721
592.74	2.698
593.08	2.866
593.41	2.887
593.75	2.586
594.08	2.969
594.41	2.436
594.75	2.458
595.08	2.288
595.42	2.695
595.75	2.293
596.09	3.118
596.42	2.365
596.75	2.740
597.09	3.071
597.42	2.821
597.75	2.822
598.09	2.619
598.42	2.734
598.76	2.063
599.09	2.634
599.42	2.548
599.76	2.575
600.09	2.636
600.42	2.503
600.76	2.345
601.09	2.323
601.42	2.849
601.76	2.552
602.09	2.466
602.42	2.254
602.76	2.620
603.09	2.533
603.42	2.565
603.76	2.502
604.09	2.874
604.42	2.275
604.76	2.588
605.09	2.912
605.42	2.871
605.75	2.308
606.09	2.128
606.42	2.408
606.75	2.174
607.09	2.304
607.42	2.813
607.75	2.384
608.08	2.723
608.42	2.620
608.75	3.151
609.08	2.462
609.41	2.735
609.75	2.411
610.08	3.078
610.41	2.379
610.74	2.101
611.07	2.309
611.41	2.646
611.74	2.910
612.07	2.758
612.40	2.614
612.73	2.689
613.07	2.592
613.40	3.080
613.73	2.407
614.06	2.601
614.39	2.138
614.72	2.280
615.06	2.069
615.39	2.610
615.72	2.370
616.05	2.720
616.38	2.926
616.71	3.187
617.05	1.970
617.38	2.675
617.71	2.538
618.04	2.375
618.37	2.732
618.70	2.658
619.03	2.151
619.36	2.281
619.69	2.178
620.03	2.197
620.36	2.393
620.69	1.789
621.02	3.478
621.35	2.177
621.68	2.820
622.01	2.989
622.34	1.604
622.67	2.680
623.00	1.957
623.33	2.986
623.66	2.075
623.99	2.502
624.32	3.509
624.65	2.252
624.99	2.991
625.32	3.396
625.65	3.034
625.98	2.305
626.31	2.126
626.64	2.711
626.97	2.251
627.30	1.595
627.63	2.476
627.96	2.778
628.29	3.191
628.62	1.343
628.95	1.665
629.28	2.039
629.61	2.104
629.94	1.339
630.26	1.949
630.59	2.763
630.92	2.424
631.25	3.578
631.58	2.919
631.91	1.593
632.24	2.305
632.57	2.751
632.90	1.003
633.23	3.061
633.56	2.755
633.89	1.446
634.22	2.599
634.55	2.296
634.88	1.407
635.20	3.767
635.53	2.034
635.86	3.142
636.19	4.454
636.52	3.481
636.85	1.736
637.18	3.430
637.51	2.151
637.83	3.544
638.16	3.111
638.49	1.056
638.82	2.480
639.15	1.489
639.48	2.656
639.81	2.540
640.13	2.709
640.46	0.121
640.79	1.103
641.12	4.099
641.45	1.757
641.77	3.081
642.10	1.706
642.43	3.324
642.76	2.575
643.09	1.507
643.41	2.101
643.74	1.931
644.07	3.586
644.40	0.849
644.73	1.597
645.05	1.468
645.38	2.158
645.71	2.053
646.04	3.730
646.36	2.628
646.69	3.221
647.02	2.752
647.35	4.427
647.67	2.093
648.00	1.274
648.33	2.402
648.66	1.854
648.98	1.361
649.31	2.842
649.64	4.250
649.96	2.653
650.29	1.669
650.62	3.395
650.94	0.901
651.27	0.749
651.60	2.632
651.92	1.824
652.25	2.171
652.58	2.476
652.90	1.017
653.23	3.944
653.56	2.710
653.88	4.775
654.21	2.535
654.54	1.590
654.86	3.258
655.19	1.631
655.52	2.713
655.84	2.087
656.17	2.562
656.49	3.641
656.82	4.055
657.15	3.319
657.47	2.672
657.80	2.019
658.13	1.586
658.45	2.195
658.78	2.637
659.10	2.529
659.43	2.723
659.75	2.270
