SpectraSuite Data File
++++++++++++++++++++++++++++++++++++
Date: Thu May 14 16:28:39 PDT 2015
User: schluterlab
Dark Spectrum Present: Yes
Reference Spectrum Present: Yes
Number of Sampled Component Spectra: 1
Spectrometers: USB2E3373
Integration Time (usec): 3000 (USB2E3373)
Spectra Averaged: 3 (USB2E3373)
Boxcar Smoothing: 0 (USB2E3373)
Correct for Electrical Dark: No (USB2E3373)
Strobe/Lamp Enabled: No (USB2E3373)
Correct for Detector Non-linearity: No (USB2E3373)
Correct for Stray Light: No (USB2E3373)
Number of Pixels in Processed Spectrum: 2048
>>>>>Begin Processed Spectral Data<<<<<
178.53	0.000
178.91	-42.857
179.29	-1100.000
179.67	-500.000
180.04	107.143
180.42	100.000
180.80	120.000
181.18	600.000
181.56	400.000
181.94	-50.000
182.31	-25.000
182.69	300.000
183.07	-250.000
183.45	-50.000
183.83	-16.667
184.20	-33.333
184.58	-100.000
184.96	-225.000
185.34	-44.444
185.72	-20.000
186.09	100.000
186.47	300.000
186.85	120.000
187.23	-77.778
187.61	-100.000
187.98	-60.000
188.36	225.000
188.74	100.000
189.12	-100.000
189.49	43.750
189.87	12.500
190.25	111.111
190.63	-40.000
191.00	-11.111
191.38	0.000
191.76	-125.000
192.14	0.000
192.51	100.000
192.89	50.000
193.27	0.000
193.65	28.571
194.02	-600.000
194.40	14.286
194.78	85.714
195.15	0.000
195.53	0.000
195.91	0.000
196.29	-175.000
196.66	23.077
197.04	-1200.000
197.42	-71.429
197.79	200.000
198.17	-50.000
198.55	0.000
198.92	66.667
199.30	-25.000
199.68	27.273
200.05	57.143
200.43	-100.000
200.81	142.857
201.18	0.000
201.56	88.889
201.94	0.000
202.31	200.000
202.69	-77.778
203.07	-300.000
203.44	77.778
203.82	200.000
204.19	-8.333
204.57	16.667
204.95	-37.500
205.32	-1200.000
205.70	-25.000
206.08	16.667
206.45	0.000
206.83	180.000
207.20	-133.333
207.58	-100.000
207.96	-83.333
208.33	200.000
208.71	-0.000
209.08	66.667
209.46	0.000
209.84	116.667
210.21	-350.000
210.59	-250.000
210.96	233.333
211.34	25.000
211.71	-87.500
212.09	-900.000
212.46	0.000
212.84	550.000
213.22	0.000
213.59	150.000
213.97	50.000
214.34	-200.000
214.72	116.667
215.09	-125.000
215.47	0.000
215.84	128.571
216.22	-150.000
216.59	20.000
216.97	-20.000
217.34	50.000
217.72	-25.000
218.09	-25.000
218.47	-300.000
218.84	0.000
219.22	60.000
219.59	23.529
219.97	25.000
220.34	150.000
220.72	77.778
221.09	100.000
221.47	-66.667
221.84	-20.000
222.22	-114.286
222.59	0.000
222.97	12.500
223.34	-100.000
223.72	-300.000
224.09	175.000
224.46	-150.000
224.84	180.000
225.21	0.000
225.59	-150.000
225.96	-75.000
226.34	15.385
226.71	83.333
227.08	150.000
227.46	66.667
227.83	25.000
228.21	-10.526
228.58	25.000
228.95	250.000
229.33	8.333
229.70	20.000
230.08	31.579
230.45	70.000
230.82	0.000
231.20	-21.429
231.57	16.667
231.95	54.545
232.32	0.000
232.69	0.000
233.07	50.000
233.44	58.824
233.81	-20.000
234.19	22.222
234.56	40.909
234.93	34.483
235.31	57.895
235.68	50.000
236.05	-15.000
236.43	65.385
236.80	88.000
237.17	33.333
237.55	42.424
237.92	-50.000
238.29	41.935
238.67	25.000
239.04	36.111
239.41	52.381
239.79	21.739
240.16	40.741
240.53	32.609
240.91	13.725
241.28	29.508
241.65	46.269
242.02	40.541
242.40	27.692
242.77	30.667
243.14	37.805
243.51	34.211
243.89	30.769
244.26	46.535
244.63	56.863
245.00	42.056
245.38	41.228
245.75	23.894
246.12	37.302
246.49	33.333
246.87	40.000
247.24	31.126
247.61	38.816
247.98	39.597
248.36	30.247
248.73	33.742
249.10	43.169
249.47	38.308
249.84	49.738
250.22	34.197
250.59	38.889
250.96	45.909
251.33	39.286
251.70	34.615
252.08	37.500
252.45	43.033
252.82	38.843
253.19	34.375
253.56	41.065
253.94	35.385
254.31	43.939
254.68	38.462
255.05	41.368
255.42	34.694
255.79	41.100
256.16	38.079
256.54	37.086
256.91	40.328
257.28	41.311
257.65	38.217
258.02	36.283
258.39	39.031
258.76	40.979
259.14	41.379
259.51	40.058
259.88	41.643
260.25	40.278
260.62	39.726
260.99	45.628
261.36	39.946
261.73	39.523
262.10	44.505
262.47	41.287
262.85	40.404
263.22	37.403
263.59	37.895
263.96	41.688
264.33	40.921
264.70	40.000
265.07	41.527
265.44	41.950
265.81	42.593
266.18	43.084
266.55	37.946
266.92	38.041
267.29	42.013
267.66	42.129
268.03	39.738
268.40	39.457
268.77	38.952
269.14	37.004
269.51	40.132
269.88	39.549
270.25	39.437
270.62	43.882
270.99	42.424
271.36	39.010
271.73	41.847
272.10	41.283
272.47	41.683
272.84	37.751
273.21	40.681
273.58	40.323
273.95	37.500
274.32	36.882
274.69	39.652
275.06	37.729
275.43	36.414
275.80	38.448
276.17	38.519
276.54	34.328
276.91	38.819
277.28	36.709
277.65	35.548
278.02	38.235
278.39	40.942
278.76	36.731
279.13	40.248
279.50	39.347
279.87	38.462
280.23	38.732
280.60	38.136
280.97	37.336
281.34	37.691
281.71	38.071
282.08	35.714
282.45	36.825
282.82	37.991
283.19	38.288
283.56	36.721
283.92	37.838
284.29	36.651
284.66	39.737
285.03	36.859
285.40	36.940
285.77	36.842
286.14	37.099
286.51	37.443
286.87	35.545
287.24	36.747
287.61	36.622
287.98	35.045
288.35	36.538
288.72	36.834
289.08	36.457
289.45	33.728
289.82	33.584
290.19	35.201
290.56	33.944
290.93	34.237
291.29	34.022
291.66	33.058
292.03	31.479
292.40	34.014
292.77	32.615
293.13	32.070
293.50	30.355
293.87	31.812
294.24	33.600
294.60	29.962
294.97	30.738
295.34	31.242
295.71	29.760
296.08	29.070
296.44	30.392
296.81	30.207
297.18	29.265
297.55	29.599
297.91	30.249
298.28	28.673
298.65	28.300
299.02	30.224
299.38	28.833
299.75	28.154
300.12	27.778
300.48	28.571
300.85	27.222
301.22	28.076
301.59	27.511
301.95	28.249
302.32	28.556
302.69	27.601
303.05	28.727
303.42	28.492
303.79	27.396
304.15	26.709
304.52	27.061
304.89	27.225
305.25	27.743
305.62	27.273
305.99	26.186
306.35	26.815
306.72	26.060
307.09	26.396
307.45	27.329
307.82	27.548
308.19	26.236
308.55	26.615
308.92	28.043
309.29	26.245
309.65	27.096
310.02	25.545
310.38	25.295
310.75	27.184
311.12	28.188
311.48	26.979
311.85	26.686
312.22	26.755
312.58	25.634
312.95	26.482
313.31	25.384
313.68	26.832
314.05	26.197
314.41	26.958
314.78	25.795
315.14	25.227
315.51	27.516
315.87	26.463
316.24	26.393
316.61	26.110
316.97	24.434
317.34	25.573
317.70	27.162
318.07	25.661
318.43	27.381
318.80	26.505
319.16	24.807
319.53	24.250
319.89	25.241
320.26	25.801
320.62	25.798
320.99	24.654
321.35	24.769
321.72	27.256
322.08	26.060
322.45	24.390
322.81	26.173
323.18	25.664
323.54	24.569
323.91	26.157
324.27	24.785
324.64	26.364
325.00	24.959
325.37	25.307
325.73	26.198
326.10	26.521
326.46	24.430
326.83	25.540
327.19	24.724
327.56	26.482
327.92	25.256
328.29	24.435
328.65	25.712
329.01	24.365
329.38	24.937
329.74	26.113
330.11	24.486
330.47	25.105
330.84	25.409
331.20	26.417
331.56	24.523
331.93	25.523
332.29	25.508
332.66	24.668
333.02	24.539
333.38	24.664
333.75	26.094
334.11	25.688
334.48	24.917
334.84	25.828
335.20	25.189
335.57	24.452
335.93	25.124
336.29	24.210
336.66	24.054
337.02	23.495
337.38	24.490
337.75	24.132
338.11	24.727
338.47	24.648
338.84	24.450
339.20	22.999
339.56	24.053
339.93	24.138
340.29	23.994
340.65	23.195
341.02	25.299
341.38	24.818
341.74	23.971
342.11	25.181
342.47	23.114
342.83	25.201
343.20	24.448
343.56	23.817
343.92	23.939
344.28	24.531
344.65	23.488
345.01	23.947
345.37	24.650
345.73	22.915
346.10	22.309
346.46	23.655
346.82	24.719
347.19	23.453
347.55	24.279
347.91	22.957
348.27	23.596
348.63	24.067
349.00	23.490
349.36	23.048
349.72	23.884
350.08	24.146
350.45	22.738
350.81	23.906
351.17	23.233
351.53	23.124
351.89	24.222
352.26	22.985
352.62	23.955
352.98	23.511
353.34	23.674
353.70	23.344
354.07	22.653
354.43	22.855
354.79	21.765
355.15	23.915
355.51	22.807
355.87	22.812
356.24	23.270
356.60	21.803
356.96	23.425
357.32	22.454
357.68	23.060
358.04	22.006
358.40	21.716
358.77	22.807
359.13	22.230
359.49	22.379
359.85	23.350
360.21	22.812
360.57	22.254
360.93	22.355
361.29	22.737
361.66	22.303
362.02	23.243
362.38	22.699
362.74	21.858
363.10	22.421
363.46	22.438
363.82	22.301
364.18	22.942
364.54	22.407
364.90	22.676
365.26	22.828
365.62	23.133
365.98	22.056
366.35	21.946
366.71	21.633
367.07	21.583
367.43	22.259
367.79	22.760
368.15	23.077
368.51	22.666
368.87	21.620
369.23	22.067
369.59	22.336
369.95	22.177
370.31	22.215
370.67	20.839
371.03	22.161
371.39	21.155
371.75	21.664
372.11	22.358
372.47	21.733
372.83	22.186
373.19	22.348
373.55	21.341
373.91	21.541
374.27	21.604
374.63	21.786
374.99	21.485
375.35	21.948
375.71	21.355
376.07	20.917
376.42	21.599
376.78	21.815
377.14	20.087
377.50	21.379
377.86	20.690
378.22	21.796
378.58	20.630
378.94	20.775
379.30	21.207
379.66	21.752
380.02	21.466
380.38	22.005
380.74	22.085
381.09	21.429
381.45	21.193
381.81	21.897
382.17	22.268
382.53	21.520
382.89	21.332
383.25	21.981
383.61	20.139
383.97	20.671
384.32	20.873
384.68	19.954
385.04	21.805
385.40	20.801
385.76	21.395
386.12	21.305
386.48	22.294
386.83	21.514
387.19	20.568
387.55	20.188
387.91	20.719
388.27	21.594
388.62	21.019
388.98	21.320
389.34	22.039
389.70	20.628
390.06	20.841
390.42	20.602
390.77	21.975
391.13	21.244
391.49	21.014
391.85	20.909
392.20	20.759
392.56	21.500
392.92	21.101
393.28	21.448
393.64	20.782
393.99	21.150
394.35	21.554
394.71	21.617
395.07	20.120
395.42	20.274
395.78	22.486
396.14	20.321
396.50	21.378
396.85	20.572
397.21	20.592
397.57	20.789
397.92	21.936
398.28	20.261
398.64	21.053
399.00	19.843
399.35	20.942
399.71	20.761
400.07	20.719
400.42	20.023
400.78	20.197
401.14	20.774
401.49	21.603
401.85	20.407
402.21	21.205
402.57	21.009
402.92	20.922
403.28	20.199
403.63	19.988
403.99	20.428
404.35	20.068
404.70	21.756
405.06	20.598
405.42	19.379
405.77	21.101
406.13	20.854
406.49	20.721
406.84	20.554
407.20	20.738
407.55	20.775
407.91	20.176
408.27	20.200
408.62	20.477
408.98	19.965
409.34	20.587
409.69	20.705
410.05	21.688
410.40	20.998
410.76	20.247
411.11	21.274
411.47	20.577
411.83	21.340
412.18	20.602
412.54	21.517
412.89	21.362
413.25	20.542
413.60	20.333
413.96	20.688
414.31	20.453
414.67	20.692
415.03	20.431
415.38	20.933
415.74	19.976
416.09	21.160
416.45	20.163
416.80	20.869
417.16	20.115
417.51	20.610
417.87	20.233
418.22	21.078
418.58	19.888
418.93	21.071
419.29	20.654
419.64	20.528
420.00	20.890
420.35	20.494
420.71	20.505
421.06	20.472
421.42	20.470
421.77	20.248
422.12	20.085
422.48	20.635
422.83	21.084
423.19	19.947
423.54	20.796
423.90	20.375
424.25	21.440
424.61	20.666
424.96	20.373
425.31	20.382
425.67	20.075
426.02	20.033
426.38	20.321
426.73	20.201
427.09	21.511
427.44	19.934
427.79	20.509
428.15	20.263
428.50	20.112
428.85	20.207
429.21	21.383
429.56	19.743
429.92	19.951
430.27	20.627
430.62	20.713
430.98	20.512
431.33	20.088
431.68	20.307
432.04	21.229
432.39	20.407
432.74	20.320
433.10	21.363
433.45	19.788
433.80	20.869
434.16	20.713
434.51	20.658
434.86	20.575
435.22	20.298
435.57	21.167
435.92	20.312
436.28	20.023
436.63	20.262
436.98	20.290
437.34	20.688
437.69	20.528
438.04	19.619
438.39	20.276
438.75	19.535
439.10	20.243
439.45	20.291
439.81	19.887
440.16	20.214
440.51	20.680
440.86	19.844
441.22	19.507
441.57	20.545
441.92	20.175
442.27	20.404
442.63	20.070
442.98	19.691
443.33	20.410
443.68	21.358
444.03	20.461
444.39	20.250
444.74	21.286
445.09	20.426
445.44	20.601
445.79	20.881
446.15	20.812
446.50	20.052
446.85	21.060
447.20	20.841
447.55	20.554
447.91	20.524
448.26	19.027
448.61	20.244
448.96	20.976
449.31	19.883
449.66	19.281
450.02	20.570
450.37	20.671
450.72	19.860
451.07	20.558
451.42	20.277
451.77	20.345
452.12	19.413
452.47	19.905
452.83	20.383
453.18	20.140
453.53	20.276
453.88	19.658
454.23	20.791
454.58	20.488
454.93	19.539
455.28	21.252
455.63	20.352
455.98	21.061
456.34	20.966
456.69	20.870
457.04	19.917
457.39	20.122
457.74	20.917
458.09	20.373
458.44	20.636
458.79	19.856
459.14	21.028
459.49	20.317
459.84	20.934
460.19	20.044
460.54	21.011
460.89	20.275
461.24	19.713
461.59	20.365
461.94	20.137
462.29	19.765
462.64	19.614
462.99	21.218
463.34	21.025
463.69	20.047
464.04	20.567
464.39	19.843
464.74	21.209
465.09	20.415
465.44	20.494
465.79	20.836
466.14	20.532
466.49	20.474
466.84	19.669
467.19	20.405
467.54	20.094
467.89	20.230
468.24	20.332
468.59	19.803
468.94	19.347
469.29	19.976
469.64	20.407
469.99	18.993
470.34	20.421
470.68	19.891
471.03	19.974
471.38	19.424
471.73	18.661
472.08	19.797
472.43	19.205
472.78	20.277
473.13	20.101
473.48	20.181
473.83	20.662
474.17	19.637
474.52	19.904
474.87	20.432
475.22	19.662
475.57	19.678
475.92	20.806
476.27	19.915
476.61	20.197
476.96	19.812
477.31	20.000
477.66	20.672
478.01	20.183
478.36	19.541
478.70	18.916
479.05	20.297
479.40	20.286
479.75	20.557
480.10	19.612
480.45	20.921
480.79	20.317
481.14	21.002
481.49	19.400
481.84	20.583
482.19	20.000
482.53	20.289
482.88	20.160
483.23	19.920
483.58	19.432
483.92	19.548
484.27	20.322
484.62	19.678
484.97	20.101
485.31	19.923
485.66	19.903
486.01	20.572
486.36	21.215
486.70	21.644
487.05	21.395
487.40	20.989
487.75	20.051
488.09	20.147
488.44	19.605
488.79	19.258
489.13	19.479
489.48	19.301
489.83	19.235
490.17	18.793
490.52	19.335
490.87	20.051
491.22	19.021
491.56	20.009
491.91	20.017
492.26	20.208
492.60	19.458
492.95	19.351
493.30	19.408
493.64	19.317
493.99	19.386
494.34	19.382
494.68	18.844
495.03	20.088
495.37	19.707
495.72	19.728
496.07	20.202
496.41	19.991
496.76	20.559
497.11	19.618
497.45	19.206
497.80	19.280
498.14	19.184
498.49	19.485
498.84	19.607
499.18	19.298
499.53	20.090
499.87	19.956
500.22	19.368
500.56	19.073
500.91	19.588
501.26	19.909
501.60	19.090
501.95	19.409
502.29	20.491
502.64	20.114
502.98	20.060
503.33	19.179
503.67	19.581
504.02	18.870
504.36	19.839
504.71	18.925
505.06	19.691
505.40	19.698
505.75	19.353
506.09	19.291
506.44	19.220
506.78	19.541
507.13	20.470
507.47	19.422
507.82	19.413
508.16	18.547
508.51	19.737
508.85	19.462
509.19	19.422
509.54	19.116
509.88	19.233
510.23	18.601
510.57	19.913
510.92	18.481
511.26	19.288
511.61	19.363
511.95	19.717
512.30	19.449
512.64	18.341
512.98	19.160
513.33	19.254
513.67	19.735
514.02	19.469
514.36	19.284
514.70	19.062
515.05	19.291
515.39	18.425
515.74	19.406
516.08	18.384
516.42	19.885
516.77	19.769
517.11	18.412
517.46	19.883
517.80	19.348
518.14	19.369
518.49	18.980
518.83	18.467
519.17	19.117
519.52	18.501
519.86	18.585
520.20	19.702
520.55	18.894
520.89	18.806
521.23	18.816
521.58	19.379
521.92	18.357
522.26	19.301
522.61	19.329
522.95	18.627
523.29	18.736
523.64	18.834
523.98	19.624
524.32	19.656
524.66	18.441
525.01	19.309
525.35	18.323
525.69	18.794
526.04	18.886
526.38	18.966
526.72	18.512
527.06	19.238
527.41	18.367
527.75	19.834
528.09	18.772
528.43	18.709
528.78	18.439
529.12	18.807
529.46	19.056
529.80	19.279
530.15	20.290
530.49	19.098
530.83	20.484
531.17	19.056
531.51	18.231
531.86	18.870
532.20	19.573
532.54	18.671
532.88	19.333
533.22	19.093
533.57	19.100
533.91	19.360
534.25	19.559
534.59	19.310
534.93	18.789
535.27	18.986
535.62	19.841
535.96	19.465
536.30	18.801
536.64	19.640
536.98	20.111
537.32	18.519
537.66	18.902
538.01	19.033
538.35	18.636
538.69	18.870
539.03	19.436
539.37	19.435
539.71	19.099
540.05	19.544
540.39	18.460
540.73	18.458
541.07	19.007
541.42	19.492
541.76	18.446
542.10	17.793
542.44	18.392
542.78	18.917
543.12	18.772
543.46	18.559
543.80	18.465
544.14	19.270
544.48	19.917
544.82	19.210
545.16	19.559
545.50	18.993
545.84	20.698
546.18	19.630
546.52	18.025
546.86	19.874
547.20	17.748
547.54	19.039
547.88	19.289
548.22	19.883
548.56	19.544
548.90	19.164
549.24	19.453
549.58	18.486
549.92	18.814
550.26	18.900
550.60	19.145
550.94	19.534
551.28	18.746
551.62	20.620
551.96	19.094
552.30	20.204
552.64	20.224
552.98	19.713
553.32	21.158
553.66	18.585
554.00	19.672
554.34	19.627
554.68	18.205
555.02	19.448
555.36	19.855
555.69	18.258
556.03	18.979
556.37	19.524
556.71	19.467
557.05	19.744
557.39	18.978
557.73	19.287
558.07	19.404
558.41	19.934
558.75	18.999
559.08	18.928
559.42	18.656
559.76	19.810
560.10	19.424
560.44	20.251
560.78	20.438
561.12	19.027
561.45	20.620
561.79	19.780
562.13	19.470
562.47	18.681
562.81	19.367
563.15	19.634
563.48	20.012
563.82	19.649
564.16	19.927
564.50	19.190
564.84	19.823
565.17	20.118
565.51	18.987
565.85	19.359
566.19	18.779
566.52	19.895
566.86	19.015
567.20	19.141
567.54	19.862
567.88	20.489
568.21	19.862
568.55	19.856
568.89	20.472
569.23	20.575
569.56	20.164
569.90	20.741
570.24	21.046
570.57	20.366
570.91	20.637
571.25	20.596
571.59	21.152
571.92	21.162
572.26	20.831
572.60	20.229
572.93	20.568
573.27	20.371
573.61	20.461
573.95	20.903
574.28	20.790
574.62	20.850
574.96	20.820
575.29	20.489
575.63	20.813
575.97	20.551
576.30	20.257
576.64	20.830
576.98	20.979
577.31	21.353
577.65	21.585
577.98	20.971
578.32	21.107
578.66	20.599
578.99	20.868
579.33	20.298
579.67	20.399
580.00	20.139
580.34	20.812
580.67	20.146
581.01	20.987
581.35	21.001
581.68	21.065
582.02	21.254
582.35	21.523
582.69	20.989
583.02	21.192
583.36	20.990
583.70	20.564
584.03	20.110
584.37	20.760
584.70	20.367
585.04	20.437
585.37	20.504
585.71	21.057
586.04	21.092
586.38	20.265
586.72	20.206
587.05	20.747
587.39	21.017
587.72	21.316
588.06	20.793
588.39	20.961
588.73	20.873
589.06	20.824
589.40	19.975
589.73	20.212
590.07	20.424
590.40	20.521
590.73	19.512
591.07	20.179
591.40	19.323
591.74	20.270
592.07	20.422
592.41	19.913
592.74	20.554
593.08	21.178
593.41	21.814
593.75	21.034
594.08	20.812
594.41	21.122
594.75	19.927
595.08	20.390
595.42	20.422
595.75	21.020
596.09	20.942
596.42	20.459
596.75	20.069
597.09	20.525
597.42	20.580
597.75	20.619
598.09	20.635
598.42	20.507
598.76	19.947
599.09	20.363
599.42	20.382
599.76	20.865
600.09	20.821
600.42	20.587
600.76	20.641
601.09	20.113
601.42	20.254
601.76	20.345
602.09	20.443
602.42	20.102
602.76	20.148
603.09	20.007
603.42	20.303
603.76	19.979
604.09	20.582
604.42	20.587
604.76	20.015
605.09	20.263
605.42	20.455
605.75	20.423
606.09	20.642
606.42	20.175
606.75	19.940
607.09	20.200
607.42	20.771
607.75	20.516
608.08	19.613
608.42	20.073
608.75	21.061
609.08	19.992
609.41	20.247
609.75	19.911
610.08	20.405
610.41	20.263
610.74	19.958
611.07	20.293
611.41	21.256
611.74	20.370
612.07	20.290
612.40	19.962
612.73	20.440
613.07	20.685
613.40	19.538
613.73	19.933
614.06	20.510
614.39	19.728
614.72	19.893
615.06	19.249
615.39	20.155
615.72	20.095
616.05	20.690
616.38	19.929
616.71	19.540
617.05	19.808
617.38	20.760
617.71	19.600
618.04	19.104
618.37	20.383
618.70	20.475
619.03	19.833
619.36	19.852
619.69	19.795
620.03	19.774
620.36	19.325
620.69	19.371
621.02	20.210
621.35	19.739
621.68	20.680
622.01	19.715
622.34	18.828
622.67	20.137
623.00	18.489
623.33	20.040
623.66	20.104
623.99	18.565
624.32	20.793
624.65	18.597
624.99	19.376
625.32	20.640
625.65	19.555
625.98	19.593
626.31	19.206
626.64	19.487
626.97	18.755
627.30	18.603
627.63	19.205
627.96	20.045
628.29	19.455
628.62	18.388
628.95	18.668
629.28	18.437
629.61	19.360
629.94	18.745
630.26	18.814
630.59	18.998
630.92	18.268
631.25	19.589
631.58	19.868
631.91	19.025
632.24	19.597
632.57	19.260
632.90	17.252
633.23	18.163
633.56	17.551
633.89	18.285
634.22	19.647
