SpectraSuite Data File
++++++++++++++++++++++++++++++++++++
Date: Thu May 14 16:34:40 PDT 2015
User: schluterlab
Dark Spectrum Present: Yes
Reference Spectrum Present: Yes
Number of Sampled Component Spectra: 1
Spectrometers: USB2E3373
Integration Time (usec): 3000 (USB2E3373)
Spectra Averaged: 3 (USB2E3373)
Boxcar Smoothing: 0 (USB2E3373)
Correct for Electrical Dark: No (USB2E3373)
Strobe/Lamp Enabled: No (USB2E3373)
Correct for Detector Non-linearity: No (USB2E3373)
Correct for Stray Light: No (USB2E3373)
Number of Pixels in Processed Spectrum: 2048
>>>>>Begin Processed Spectral Data<<<<<
178.53	0.000
178.91	157.143
179.29	-300.000
179.67	-100.000
180.04	85.714
180.42	20.000
180.80	-80.000
181.18	-700.000
181.56	200.000
181.94	-50.000
182.31	50.000
182.69	166.667
183.07	-100.000
183.45	200.000
183.83	-116.667
184.20	-233.333
184.58	800.000
184.96	-150.000
185.34	33.333
185.72	60.000
186.09	33.333
186.47	-150.000
186.85	240.000
187.23	-244.444
187.61	-1100.000
187.98	100.000
188.36	225.000
188.74	-75.000
189.12	-66.667
189.49	37.500
189.87	-37.500
190.25	66.667
190.63	-80.000
191.00	-77.778
191.38	0.000
191.76	-275.000
192.14	-50.000
192.51	150.000
192.89	33.333
193.27	0.000
193.65	-85.714
194.02	-800.000
194.40	-114.286
194.78	185.714
195.15	0.000
195.53	0.000
195.91	0.000
196.29	-50.000
196.66	61.538
197.04	-800.000
197.42	57.143
197.79	100.000
198.17	-37.500
198.55	-142.857
198.92	33.333
199.30	-137.500
199.68	-9.091
200.05	-78.571
200.43	-700.000
200.81	157.143
201.18	0.000
201.56	177.778
201.94	0.000
202.31	300.000
202.69	-44.444
203.07	200.000
203.44	11.111
203.82	-150.000
204.19	-41.667
204.57	-116.667
204.95	-162.500
205.32	-800.000
205.70	50.000
206.08	-100.000
206.45	-83.333
206.83	380.000
207.20	-16.667
207.58	-160.000
207.96	-116.667
208.33	-133.333
208.71	125.000
209.08	-33.333
209.46	0.000
209.84	216.667
210.21	100.000
210.59	-150.000
210.96	333.333
211.34	-200.000
211.71	-37.500
212.09	-700.000
212.46	0.000
212.84	1000.000
213.22	-300.000
213.59	-25.000
213.97	90.000
214.34	66.667
214.72	183.333
215.09	-225.000
215.47	0.000
215.84	100.000
216.22	1050.000
216.59	80.000
216.97	40.000
217.34	-250.000
217.72	-100.000
218.09	-300.000
218.47	-175.000
218.84	0.000
219.22	120.000
219.59	0.000
219.97	45.000
220.34	950.000
220.72	-22.222
221.09	-23.077
221.47	-266.667
221.84	-30.000
222.22	42.857
222.59	0.000
222.97	-25.000
223.34	-220.000
223.72	0.000
224.09	-275.000
224.46	-350.000
224.84	-60.000
225.21	-85.714
225.59	-175.000
225.96	-125.000
226.34	38.462
226.71	33.333
227.08	-650.000
227.46	-33.333
227.83	-50.000
228.21	89.474
228.58	125.000
228.95	300.000
229.33	16.667
229.70	-70.000
230.08	36.842
230.45	30.000
230.82	-166.667
231.20	7.143
231.57	25.000
231.95	27.273
232.32	18.182
232.69	0.000
233.07	-150.000
233.44	-23.529
233.81	-180.000
234.19	27.778
234.56	-77.273
234.93	6.897
235.31	0.000
235.68	0.000
236.05	-30.000
236.43	34.615
236.80	12.000
237.17	-11.111
237.55	-6.061
237.92	-70.000
238.29	3.226
238.67	-4.545
239.04	30.556
239.41	-19.048
239.79	2.174
240.16	-7.407
240.53	-6.522
240.91	-13.725
241.28	-6.557
241.65	13.433
242.02	13.514
242.40	-10.769
242.77	-13.333
243.14	-10.976
243.51	-11.842
243.89	-6.410
244.26	-2.970
244.63	-3.922
245.00	1.869
245.38	1.754
245.75	-10.619
246.12	-3.968
246.49	-10.853
246.87	-4.286
247.24	-3.311
247.61	10.526
247.98	-4.027
248.36	-5.556
248.73	-6.748
249.10	1.093
249.47	3.483
249.84	5.236
250.22	-2.073
250.59	-0.556
250.96	0.455
251.33	-7.143
251.70	2.991
252.08	-1.667
252.45	2.459
252.82	-3.306
253.19	-5.859
253.56	-4.183
253.94	-2.308
254.31	2.652
254.68	0.699
255.05	-0.651
255.42	-3.061
255.79	-2.589
256.16	1.325
256.54	-3.642
256.91	0.656
257.28	-2.623
257.65	-4.140
258.02	-3.540
258.39	2.564
258.76	2.141
259.14	0.575
259.51	-0.288
259.88	-3.116
260.25	-1.667
260.62	-2.192
260.99	0.546
261.36	-0.268
261.73	-0.265
262.10	-3.297
262.47	-4.021
262.85	1.515
263.22	-1.039
263.59	-3.947
263.96	-0.512
264.33	-2.046
264.70	-1.728
265.07	2.148
265.44	3.175
265.81	0.000
266.18	1.134
266.55	1.562
266.92	-0.456
267.29	1.532
267.66	-0.443
268.03	-0.437
268.40	0.418
268.77	-4.100
269.14	-3.304
269.51	-1.096
269.88	0.410
270.25	0.805
270.62	0.422
270.99	-0.404
271.36	0.594
271.73	-1.572
272.10	1.202
272.47	0.000
272.84	-1.406
273.21	0.401
273.58	-1.411
273.95	-1.923
274.32	-1.521
274.69	0.000
275.06	-1.099
275.43	-0.555
275.80	2.293
276.17	-0.556
276.54	-0.746
276.91	-0.716
277.28	-1.447
277.65	1.257
278.02	-0.919
278.39	0.725
278.76	-1.054
279.13	-1.950
279.50	1.546
279.87	-1.610
280.23	-2.817
280.60	0.169
280.97	1.151
281.34	-1.019
281.71	0.677
282.08	0.000
282.45	-1.309
282.82	0.785
283.19	-0.969
283.56	-1.311
283.92	0.601
284.29	1.106
284.66	0.328
285.03	-1.282
285.40	0.773
285.77	-0.155
286.14	0.763
286.51	-0.913
286.87	-1.422
287.24	-0.452
287.61	0.000
287.98	-1.208
288.35	-0.296
288.72	-0.888
289.08	0.000
289.45	-0.148
289.82	0.151
290.19	-0.287
290.56	1.408
290.93	0.143
291.29	1.240
291.66	-0.275
292.03	-0.950
292.40	0.408
292.77	-0.404
293.13	-0.406
293.50	-1.971
293.87	-1.208
294.24	2.267
294.60	0.759
294.97	-1.477
295.34	1.921
295.71	0.757
296.08	-0.129
296.44	0.368
296.81	0.000
297.18	0.996
297.55	0.236
297.91	-0.356
298.28	-1.659
298.65	0.476
299.02	-0.708
299.38	0.458
299.75	0.117
300.12	-1.273
300.48	0.346
300.85	1.575
301.22	-0.112
301.59	-1.256
301.95	-0.452
302.32	0.111
302.69	-0.329
303.05	-0.653
303.42	0.443
303.79	-0.104
304.15	0.105
304.52	-0.634
304.89	0.314
305.25	0.311
305.62	-0.313
305.99	0.619
306.35	-0.605
306.72	0.724
307.09	-0.305
307.45	0.621
307.82	0.807
308.19	0.202
308.55	0.771
308.92	-0.195
309.29	0.958
309.65	-0.975
310.02	0.792
310.38	-0.394
310.75	0.291
311.12	0.959
311.48	-0.880
311.85	0.380
312.22	0.380
312.58	-0.939
312.95	-0.478
313.31	0.090
313.68	0.916
314.05	1.626
314.41	1.457
314.78	0.999
315.14	1.452
315.51	1.108
315.87	1.710
316.24	1.187
316.61	2.131
316.97	0.995
317.34	0.705
317.70	1.747
318.07	1.675
318.43	2.551
318.80	3.094
319.16	2.403
319.53	0.600
319.89	1.578
320.26	2.847
320.62	1.950
320.99	3.139
321.35	1.848
321.72	4.186
322.08	3.066
322.45	3.252
322.81	3.971
323.18	3.009
323.54	3.448
323.91	4.626
324.27	4.475
324.64	4.198
325.00	4.312
325.37	5.405
325.73	4.545
326.10	4.623
326.46	6.352
326.83	6.085
327.19	6.220
327.56	6.324
327.92	6.373
328.29	5.645
328.65	5.611
329.01	5.499
329.38	6.655
329.74	7.277
330.11	7.791
330.47	7.835
330.84	7.580
331.20	7.667
331.56	7.972
331.93	7.950
332.29	7.881
332.66	7.558
333.02	7.705
333.38	7.299
333.75	7.912
334.11	7.840
334.48	8.498
334.84	9.261
335.20	6.465
335.57	8.432
335.93	7.521
336.29	7.903
336.66	7.317
337.02	8.528
337.38	8.248
337.75	7.851
338.11	8.999
338.47	9.098
338.84	7.445
339.20	7.161
339.56	8.896
339.93	8.785
340.29	8.535
340.65	8.516
341.02	8.460
341.38	8.569
341.74	7.990
342.11	8.769
342.47	7.387
342.83	8.696
343.20	7.686
343.56	8.661
343.92	9.047
344.28	7.891
344.65	9.302
345.01	8.346
345.37	7.698
345.73	7.716
346.10	9.438
346.46	8.228
346.82	9.288
347.19	8.251
347.55	9.105
347.91	8.544
348.27	7.208
348.63	9.139
349.00	7.532
349.36	8.030
349.72	7.292
350.08	9.212
350.45	7.909
350.81	8.597
351.17	7.895
351.53	8.036
351.89	8.656
352.26	8.209
352.62	6.791
352.98	7.939
353.34	7.991
353.70	8.166
354.07	8.420
354.43	7.289
354.79	7.853
355.15	7.506
355.51	8.553
355.87	8.153
356.24	7.833
356.60	7.613
356.96	8.006
357.32	8.401
357.68	7.687
358.04	7.859
358.40	7.985
358.77	8.626
359.13	7.681
359.49	6.766
359.85	7.759
360.21	7.532
360.57	7.251
360.93	7.264
361.29	8.772
361.66	7.458
362.02	8.281
362.38	7.730
362.74	7.821
363.10	7.084
363.46	7.618
363.82	7.244
364.18	7.952
364.54	7.469
364.90	7.759
365.26	6.828
365.62	8.000
365.98	7.760
366.35	7.919
366.71	8.231
367.07	7.984
367.43	7.879
367.79	8.228
368.15	7.157
368.51	7.375
368.87	7.969
369.23	8.133
369.59	6.899
369.95	8.249
370.31	8.305
370.67	7.565
371.03	7.756
371.39	6.783
371.75	7.290
372.11	7.588
372.47	7.515
372.83	7.592
373.19	7.605
373.55	6.707
373.91	6.612
374.27	7.568
374.63	7.375
374.99	7.427
375.35	7.403
375.71	6.645
376.07	7.682
376.42	7.872
376.78	7.955
377.14	7.548
377.50	6.641
377.86	8.436
378.22	7.485
378.58	7.551
378.94	7.218
379.30	7.264
379.66	7.525
380.02	7.790
380.38	6.970
380.74	7.324
381.09	7.143
381.45	7.102
381.81	7.377
382.17	7.423
382.53	7.427
382.89	7.223
383.25	6.741
383.61	6.481
383.97	6.478
384.32	7.297
384.68	6.613
385.04	7.287
385.40	8.250
385.76	7.151
386.12	7.241
386.48	7.176
386.83	7.569
387.19	7.010
387.55	6.925
387.91	6.735
388.27	7.044
388.62	7.789
388.98	7.501
389.34	7.071
389.70	7.554
390.06	7.223
390.42	6.867
390.77	7.706
391.13	6.866
391.49	7.911
391.85	7.273
392.20	7.117
392.56	7.501
392.92	6.652
393.28	7.463
393.64	7.207
393.99	7.379
394.35	7.360
394.71	7.725
395.07	6.108
395.42	6.225
395.78	7.069
396.14	7.071
396.50	7.542
396.85	7.454
397.21	7.337
397.57	6.714
397.92	7.045
398.28	6.573
398.64	6.293
399.00	6.702
399.35	7.382
399.71	7.011
400.07	6.738
400.42	6.868
400.78	6.308
401.14	6.944
401.49	7.163
401.85	6.221
402.21	6.779
402.57	7.042
402.92	7.033
403.28	6.323
403.63	5.310
403.99	6.888
404.35	6.538
404.70	6.912
405.06	6.359
405.42	5.738
405.77	6.870
406.13	6.699
406.49	6.588
406.84	6.759
407.20	6.931
407.55	6.602
407.91	6.285
408.27	6.596
408.62	6.690
408.98	6.732
409.34	5.103
409.69	6.675
410.05	6.624
410.40	6.961
410.76	6.113
411.11	7.013
411.47	6.818
411.83	6.526
412.18	6.566
412.54	6.935
412.89	7.101
413.25	6.151
413.60	6.261
413.96	6.061
414.31	6.856
414.67	6.559
415.03	6.646
415.38	6.116
415.74	7.025
416.09	6.477
416.45	5.573
416.80	7.099
417.16	6.003
417.51	6.725
417.87	6.683
418.22	5.928
418.58	6.506
418.93	6.927
419.29	5.549
419.64	6.122
420.00	5.875
420.35	6.457
420.71	6.318
421.06	6.268
421.42	6.651
421.77	6.300
422.12	6.660
422.48	5.940
422.83	6.627
423.19	6.154
423.54	6.084
423.90	6.405
424.25	6.507
424.61	6.085
424.96	6.150
425.31	6.529
425.67	5.529
426.02	5.700
426.38	6.372
426.73	6.808
427.09	6.344
427.44	5.789
427.79	5.638
428.15	5.194
428.50	5.899
428.85	6.372
429.21	7.500
429.56	6.170
429.92	6.388
430.27	6.410
430.62	6.106
430.98	6.001
431.33	5.816
431.68	6.130
432.04	6.653
432.39	6.320
432.74	6.107
433.10	5.949
433.45	5.909
433.80	6.330
434.16	6.043
434.51	5.755
434.86	5.537
435.22	6.111
435.57	6.368
435.92	6.288
436.28	5.973
436.63	5.953
436.98	6.710
437.34	5.862
437.69	5.944
438.04	6.610
438.39	6.778
438.75	5.091
439.10	6.342
439.45	6.819
439.81	6.158
440.16	6.005
440.51	6.410
440.86	6.392
441.22	5.681
441.57	6.866
441.92	6.450
442.27	6.717
442.63	6.110
442.98	6.937
443.33	5.786
443.68	7.384
444.03	6.914
444.39	6.426
444.74	5.717
445.09	6.538
445.44	5.954
445.79	6.513
446.15	6.732
446.50	6.357
446.85	5.885
447.20	7.060
447.55	6.276
447.91	6.178
448.26	5.708
448.61	5.951
448.96	6.170
449.31	6.204
449.66	5.664
450.02	6.382
450.37	6.873
450.72	5.920
451.07	6.378
451.42	5.950
451.77	5.670
452.12	5.926
452.47	5.585
452.83	7.038
453.18	6.597
453.53	5.744
453.88	6.350
454.23	6.328
454.58	7.139
454.93	5.279
455.28	6.442
455.63	6.538
455.98	7.095
456.34	6.478
456.69	6.055
457.04	5.792
457.39	5.322
457.74	6.264
458.09	5.986
458.44	6.519
458.79	5.776
459.14	5.978
459.49	6.112
459.84	6.348
460.19	5.886
460.54	6.190
460.89	6.564
461.24	5.920
461.59	6.696
461.94	5.362
462.29	5.655
462.64	6.518
462.99	5.775
463.34	5.711
463.69	6.272
464.04	7.171
464.39	5.605
464.74	6.670
465.09	5.536
465.44	6.170
465.79	7.139
466.14	5.680
466.49	6.474
466.84	5.510
467.19	5.838
467.54	5.640
467.89	5.805
468.24	5.817
468.59	5.096
468.94	5.070
469.29	6.179
469.64	5.785
469.99	4.971
470.34	6.126
470.68	5.537
471.03	5.632
471.38	5.821
471.73	5.137
472.08	5.647
472.43	6.201
472.78	6.234
473.13	6.258
473.48	6.284
473.83	5.630
474.17	6.096
474.52	5.953
474.87	6.035
475.22	6.085
475.57	5.711
475.92	5.724
476.27	5.644
476.61	6.179
476.96	5.370
477.31	5.941
477.66	5.771
478.01	6.050
478.36	5.882
478.70	5.714
479.05	5.624
479.40	5.972
479.75	6.340
480.10	5.495
480.45	6.335
480.79	6.032
481.14	5.836
481.49	5.952
481.84	6.005
482.19	6.108
482.53	5.553
482.88	5.804
483.23	5.558
483.58	5.764
483.92	5.541
484.27	5.800
484.62	5.116
484.97	5.521
485.31	6.054
485.66	5.374
486.01	5.448
486.36	5.541
486.70	5.812
487.05	5.765
487.40	5.851
487.75	5.776
488.09	5.720
488.44	5.610
488.79	5.632
489.13	5.974
489.48	5.320
489.83	5.714
490.17	5.225
490.52	5.419
490.87	5.795
491.22	5.329
491.56	5.930
491.91	5.451
492.26	5.669
492.60	5.641
492.95	5.792
493.30	5.244
493.64	5.563
493.99	5.570
494.34	5.488
494.68	5.054
495.03	5.727
495.37	5.593
495.72	5.215
496.07	5.565
496.41	5.534
496.76	5.713
497.11	5.265
497.45	5.611
497.80	5.731
498.14	5.714
498.49	5.239
498.84	5.210
499.18	5.218
499.53	5.785
499.87	5.582
500.22	4.541
500.56	4.993
500.91	5.172
501.26	5.273
501.60	5.789
501.95	5.341
502.29	5.397
502.64	5.509
502.98	5.306
503.33	5.356
503.67	4.797
504.02	5.035
504.36	5.273
504.71	5.191
505.06	4.729
505.40	4.753
505.75	5.419
506.09	5.617
506.44	5.385
506.78	5.413
507.13	5.025
507.47	5.211
507.82	5.114
508.16	4.732
508.51	4.829
508.85	4.535
509.19	5.353
509.54	5.331
509.88	4.614
510.23	4.662
510.57	5.268
510.92	5.418
511.26	5.580
511.61	4.877
511.95	5.466
512.30	5.219
512.64	5.047
512.98	4.952
513.33	5.141
513.67	4.640
514.02	4.548
514.36	5.524
514.70	5.052
515.05	5.214
515.39	5.144
515.74	6.045
516.08	5.018
516.42	5.547
516.77	4.784
517.11	5.106
517.46	5.037
517.80	5.719
518.14	5.713
518.49	5.315
518.83	4.790
519.17	4.631
519.52	4.665
519.86	5.702
520.20	5.272
520.55	4.819
520.89	5.518
521.23	4.578
521.58	5.480
521.92	5.099
522.26	4.181
522.61	4.572
522.95	4.614
523.29	5.172
523.64	4.989
523.98	5.362
524.32	5.501
524.66	5.464
525.01	4.813
525.35	4.710
525.69	5.046
526.04	5.052
526.38	4.080
526.72	4.960
527.06	5.044
527.41	5.306
527.75	4.929
528.09	5.313
528.43	4.796
528.78	4.682
529.12	4.530
529.46	4.778
529.80	4.691
530.15	4.522
530.49	3.262
530.83	4.841
531.17	4.122
531.51	4.633
531.86	5.048
532.20	5.549
532.54	4.428
532.88	4.970
533.22	4.420
533.57	5.020
533.91	4.602
534.25	4.975
534.59	4.540
534.93	4.075
535.27	4.676
535.62	4.946
535.96	4.126
536.30	4.994
536.64	4.985
536.98	4.859
537.32	5.185
537.66	4.741
538.01	4.230
538.35	4.750
538.69	4.928
539.03	5.089
539.37	4.653
539.71	4.865
540.05	5.516
540.39	4.584
540.73	4.614
541.07	4.782
541.42	4.725
541.76	4.567
542.10	4.704
542.44	3.959
542.78	4.562
543.12	4.708
543.46	4.762
543.80	4.436
544.14	4.369
544.48	4.669
544.82	3.950
545.16	4.592
545.50	4.434
545.84	4.287
546.18	5.988
546.52	4.968
546.86	4.591
547.20	5.280
547.54	4.370
547.88	3.737
548.22	4.327
548.56	4.272
548.90	4.119
549.24	4.559
549.58	3.975
549.92	4.209
550.26	4.401
550.60	4.340
550.94	4.722
551.28	4.554
551.62	3.908
551.96	4.272
552.30	4.398
552.64	4.231
552.98	4.055
553.32	4.823
553.66	4.759
554.00	5.485
554.34	4.505
554.68	3.615
555.02	4.139
555.36	5.391
555.69	4.164
556.03	4.603
556.37	4.568
556.71	4.883
557.05	5.048
557.39	4.048
557.73	3.831
558.07	3.576
558.41	4.518
558.75	4.598
559.08	4.175
559.42	4.252
559.76	5.224
560.10	4.555
560.44	4.354
560.78	4.813
561.12	4.372
561.45	4.501
561.79	4.823
562.13	5.237
562.47	4.624
562.81	4.557
563.15	3.977
563.48	4.351
563.82	4.655
564.16	3.695
564.50	3.695
564.84	4.602
565.17	4.529
565.51	4.085
565.85	3.682
566.19	4.435
566.52	3.862
566.86	4.924
567.20	3.426
567.54	4.727
567.88	4.281
568.21	4.348
568.55	4.748
568.89	4.267
569.23	4.056
569.56	4.181
569.90	4.241
570.24	4.081
570.57	4.041
570.91	4.011
571.25	4.137
571.59	4.008
571.92	4.291
572.26	4.023
572.60	4.204
572.93	4.091
573.27	4.158
573.61	4.050
573.95	4.297
574.28	4.368
574.62	3.956
574.96	4.036
575.29	3.988
575.63	4.366
575.97	4.120
576.30	4.293
576.64	4.152
576.98	4.077
577.31	3.942
577.65	3.962
577.98	3.916
578.32	3.916
578.66	4.203
578.99	3.973
579.33	3.846
579.67	3.989
580.00	4.113
580.34	4.298
580.67	4.170
581.01	3.938
581.35	4.305
581.68	3.833
582.02	4.104
582.35	4.028
582.69	4.037
583.02	3.719
583.36	4.169
583.70	3.795
584.03	3.888
584.37	4.073
584.70	3.619
585.04	3.720
585.37	3.955
585.71	3.948
586.04	3.611
586.38	3.853
586.72	3.886
587.05	3.402
587.39	3.914
587.72	3.852
588.06	3.965
588.39	4.381
588.73	3.783
589.06	3.950
589.40	3.903
589.73	3.920
590.07	4.012
590.40	4.057
590.73	3.959
591.07	4.133
591.40	4.082
591.74	3.498
592.07	4.019
592.41	3.588
592.74	3.727
593.08	3.917
593.41	4.258
593.75	3.966
594.08	3.908
594.41	4.006
594.75	3.952
595.08	3.802
595.42	4.481
595.75	3.810
596.09	4.100
596.42	4.120
596.75	4.014
597.09	4.000
597.42	4.013
597.75	4.077
598.09	4.048
598.42	4.182
598.76	3.821
599.09	3.845
599.42	3.956
599.76	3.731
600.09	3.871
600.42	3.637
600.76	3.831
601.09	3.883
601.42	4.016
601.76	3.897
602.09	3.681
602.42	3.381
602.76	3.948
603.09	3.267
603.42	3.793
603.76	3.982
604.09	4.187
604.42	4.073
604.76	3.501
605.09	3.470
605.42	4.226
605.75	3.846
606.09	3.733
606.42	3.648
606.75	3.823
607.09	3.610
607.42	3.815
607.75	3.751
608.08	4.183
608.42	3.587
608.75	4.022
609.08	3.353
609.41	3.705
609.75	3.571
610.08	4.354
610.41	3.611
610.74	3.487
611.07	3.908
611.41	4.260
611.74	3.695
612.07	3.647
612.40	4.183
612.73	3.667
613.07	3.667
613.40	3.946
613.73	3.370
614.06	3.876
614.39	3.790
614.72	3.639
615.06	3.898
615.39	3.722
615.72	3.555
616.05	2.963
616.38	3.885
616.71	3.553
617.05	3.568
617.38	3.371
617.71	3.510
618.04	3.292
618.37	4.372
618.70	4.072
619.03	2.389
619.36	3.391
619.69	4.100
620.03	3.076
620.36	3.926
620.69	3.393
621.02	4.068
621.35	3.701
621.68	4.483
622.01	4.199
622.34	2.789
622.67	3.505
623.00	2.969
623.33	4.247
623.66	3.956
623.99	3.094
624.32	4.483
624.65	3.153
624.99	4.031
625.32	4.050
625.65	3.034
625.98	3.390
626.31	3.614
626.64	4.249
626.97	4.051
627.30	3.493
627.63	3.901
627.96	3.904
628.29	3.891
628.62	3.359
628.95	2.542
629.28	2.889
629.61	4.125
629.94	2.678
630.26	2.373
630.59	3.627
630.92	3.810
631.25	4.919
631.58	3.672
631.91	2.343
632.24	2.690
632.57	4.554
632.90	3.811
633.23	3.367
633.56	2.959
633.89	3.099
634.22	3.638
634.55	3.236
634.88	3.355
635.20	4.629
635.53	2.825
635.86	3.792
636.19	4.984
636.52	4.536
636.85	2.860
637.18	4.262
637.51	3.011
637.83	3.876
638.16	3.226
638.49	2.817
638.82	3.608
639.15	2.520
639.48	5.543
639.81	3.695
640.13	4.594
640.46	3.394
640.79	3.676
641.12	4.348
641.45	2.133
641.77	4.750
642.10	3.018
642.43	5.053
642.76	2.846
643.09	3.425
643.41	2.801
643.74	3.310
644.07	5.379
644.40	2.405
644.73	2.177
645.05	3.084
645.38	4.748
645.71	2.053
646.04	4.304
646.36	2.628
646.69	3.374
647.02	3.823
647.35	5.191
647.67	3.060
648.00	3.185
648.33	3.904
648.66	3.424
648.98	2.993
649.31	4.330
649.64	4.117
649.96	3.050
650.29	1.530
650.62	3.536
650.94	3.003
651.27	1.796
651.60	2.778
651.92	1.672
652.25	3.618
652.58	4.539
652.90	2.471
653.23	3.803
653.56	3.424
653.88	6.320
654.21	3.521
654.54	4.191
654.86	4.108
655.19	3.513
655.52	2.793
655.84	3.664
656.17	4.148
656.49	5.916
656.82	6.499
