SpectraSuite Data File
++++++++++++++++++++++++++++++++++++
Date: Thu May 14 16:34:43 PDT 2015
User: schluterlab
Dark Spectrum Present: Yes
Reference Spectrum Present: Yes
Number of Sampled Component Spectra: 1
Spectrometers: USB2E3373
Integration Time (usec): 3000 (USB2E3373)
Spectra Averaged: 3 (USB2E3373)
Boxcar Smoothing: 0 (USB2E3373)
Correct for Electrical Dark: No (USB2E3373)
Strobe/Lamp Enabled: No (USB2E3373)
Correct for Detector Non-linearity: No (USB2E3373)
Correct for Stray Light: No (USB2E3373)
Number of Pixels in Processed Spectrum: 2048
>>>>>Begin Processed Spectral Data<<<<<
178.53	0.000
178.91	-100.000
179.29	-600.000
179.67	-200.000
180.04	114.286
180.42	30.000
180.80	180.000
181.18	-300.000
181.56	1300.000
181.94	-75.000
182.31	0.000
182.69	333.333
183.07	150.000
183.45	100.000
183.83	-83.333
184.20	-100.000
184.58	300.000
184.96	-200.000
185.34	-11.111
185.72	-60.000
186.09	144.444
186.47	-0.000
186.85	20.000
187.23	-133.333
187.61	-100.000
187.98	120.000
188.36	375.000
188.74	125.000
189.12	-66.667
189.49	31.250
189.87	-50.000
190.25	-22.222
190.63	-20.000
191.00	-166.667
191.38	0.000
191.76	-75.000
192.14	-100.000
192.51	400.000
192.89	-16.667
193.27	0.000
193.65	-71.429
194.02	-1500.000
194.40	0.000
194.78	114.286
195.15	0.000
195.53	27.273
195.91	0.000
196.29	175.000
196.66	38.462
197.04	-800.000
197.42	-114.286
197.79	-600.000
198.17	-137.500
198.55	57.143
198.92	55.556
199.30	-112.500
199.68	45.455
200.05	-21.429
200.43	-600.000
200.81	100.000
201.18	0.000
201.56	277.778
201.94	0.000
202.31	366.667
202.69	-111.111
203.07	400.000
203.44	0.000
203.82	-225.000
204.19	-75.000
204.57	-183.333
204.95	-50.000
205.32	-100.000
205.70	75.000
206.08	0.000
206.45	-33.333
206.83	280.000
207.20	-183.333
207.58	-140.000
207.96	-133.333
208.33	83.333
208.71	100.000
209.08	-16.667
209.46	0.000
209.84	166.667
210.21	250.000
210.59	550.000
210.96	266.667
211.34	25.000
211.71	-75.000
212.09	-700.000
212.46	0.000
212.84	550.000
213.22	-260.000
213.59	100.000
213.97	-50.000
214.34	-100.000
214.72	183.333
215.09	-75.000
215.47	0.000
215.84	-0.000
216.22	400.000
216.59	-120.000
216.97	-200.000
217.34	75.000
217.72	-12.500
218.09	-250.000
218.47	-75.000
218.84	0.000
219.22	180.000
219.59	-17.647
219.97	10.000
220.34	600.000
220.72	-144.444
221.09	30.769
221.47	-200.000
221.84	0.000
222.22	-42.857
222.59	0.000
222.97	-25.000
223.34	-20.000
223.72	-500.000
224.09	-200.000
224.46	-275.000
224.84	-40.000
225.21	28.571
225.59	-200.000
225.96	-225.000
226.34	23.077
226.71	366.667
227.08	-50.000
227.46	-33.333
227.83	-300.000
228.21	-10.526
228.58	87.500
228.95	700.000
229.33	-8.333
229.70	-70.000
230.08	21.053
230.45	80.000
230.82	33.333
231.20	-28.571
231.57	33.333
231.95	-45.455
232.32	-9.091
232.69	30.000
233.07	175.000
233.44	29.412
233.81	-100.000
234.19	33.333
234.56	9.091
234.93	17.241
235.31	0.000
235.68	33.333
236.05	-35.000
236.43	23.077
236.80	64.000
237.17	0.000
237.55	-6.061
237.92	-160.000
238.29	-12.903
238.67	11.364
239.04	-27.778
239.41	-30.952
239.79	-8.696
240.16	-7.407
240.53	-6.522
240.91	-15.686
241.28	-16.393
241.65	8.955
242.02	-1.351
242.40	-7.692
242.77	-6.667
243.14	-1.220
243.51	-9.211
243.89	-8.974
244.26	-3.960
244.63	6.863
245.00	1.869
245.38	-2.632
245.75	-15.044
246.12	3.175
246.49	1.550
246.87	2.143
247.24	-5.298
247.61	-1.316
247.98	-4.027
248.36	0.617
248.73	-4.294
249.10	-4.372
249.47	3.980
249.84	5.236
250.22	-6.736
250.59	-2.778
250.96	4.545
251.33	-5.102
251.70	1.282
252.08	3.333
252.45	2.459
252.82	-2.066
253.19	-0.391
253.56	-1.521
253.94	-2.692
254.31	0.758
254.68	5.944
255.05	3.909
255.42	0.000
255.79	-5.178
256.16	-1.656
256.54	-2.980
256.91	-1.311
257.28	-1.639
257.65	-2.548
258.02	-3.245
258.39	-1.140
258.76	-1.223
259.14	4.023
259.51	-0.288
259.88	-2.833
260.25	-1.944
260.62	1.096
260.99	1.913
261.36	3.217
261.73	-0.531
262.10	-1.099
262.47	-0.804
262.85	2.525
263.22	-3.117
263.59	-3.421
263.96	0.256
264.33	-0.767
264.70	-0.494
265.07	2.625
265.44	4.082
265.81	-1.157
266.18	0.000
266.55	-1.116
266.92	-2.506
267.29	1.751
267.66	1.109
268.03	0.437
268.40	-1.253
268.77	-2.050
269.14	-0.441
269.51	-1.316
269.88	2.459
270.25	1.408
270.62	0.000
270.99	2.424
271.36	2.772
271.73	1.572
272.10	1.403
272.47	0.000
272.84	-0.803
273.21	1.202
273.58	-0.202
273.95	0.192
274.32	-1.521
274.69	-1.547
275.06	0.733
275.43	-0.370
275.80	0.705
276.17	0.926
276.54	-1.119
276.91	-0.716
277.28	-0.542
277.65	0.898
278.02	0.184
278.39	0.000
278.76	-1.582
279.13	-0.355
279.50	0.859
279.87	0.894
280.23	-2.113
280.60	1.017
280.97	0.493
281.34	-0.170
281.71	1.861
282.08	0.997
282.45	-0.491
282.82	0.785
283.19	-2.262
283.56	-1.639
283.92	2.553
284.29	2.528
284.66	1.642
285.03	-1.442
285.40	0.773
285.77	0.000
286.14	1.069
286.51	0.609
286.87	0.474
287.24	0.151
287.61	-0.149
287.98	0.151
288.35	0.000
288.72	-0.296
289.08	2.489
289.45	-0.444
289.82	-1.657
290.19	-1.006
290.56	1.408
290.93	-0.428
291.29	0.138
291.66	0.964
292.03	0.271
292.40	2.313
292.77	1.213
293.13	0.812
293.50	-0.657
293.87	-1.208
294.24	1.467
294.60	0.632
294.97	-0.268
295.34	1.536
295.71	-0.504
296.08	0.904
296.44	0.245
296.81	0.487
297.18	0.249
297.55	0.354
297.91	0.474
298.28	-0.711
298.65	0.951
299.02	0.354
299.38	0.915
299.75	0.117
300.12	-1.389
300.48	-1.498
300.85	0.787
301.22	0.447
301.59	-0.114
301.95	-0.452
302.32	1.222
302.69	0.986
303.05	0.871
303.42	-0.333
303.79	0.104
304.15	-0.105
304.52	-0.529
304.89	0.628
305.25	1.035
305.62	0.940
305.99	1.134
306.35	1.310
306.72	1.448
307.09	-0.609
307.45	0.000
307.82	2.018
308.19	0.505
308.55	1.639
308.92	0.584
309.29	2.203
309.65	-0.585
310.02	1.287
310.38	1.772
310.75	1.262
311.12	1.342
311.48	1.173
311.85	0.665
312.22	0.285
312.58	1.315
312.95	0.669
313.31	1.807
313.68	1.557
314.05	3.433
314.41	2.914
314.78	2.271
315.14	2.359
315.51	3.047
315.87	2.430
316.24	2.648
316.61	2.664
316.97	1.991
317.34	2.822
317.70	3.057
318.07	2.822
318.43	3.656
318.80	4.599
319.16	3.605
319.53	3.685
319.89	3.243
320.26	4.270
320.62	3.457
320.99	3.416
321.35	3.882
321.72	4.651
322.08	3.156
322.45	4.697
322.81	4.603
323.18	5.044
323.54	5.431
323.91	6.673
324.27	6.196
324.64	6.213
325.00	6.053
325.37	6.552
325.73	6.364
326.10	6.650
326.46	6.189
326.83	6.805
327.19	7.638
327.56	7.194
327.92	7.396
328.29	7.581
328.65	7.956
329.01	7.530
329.38	8.088
329.74	8.647
330.11	8.390
330.47	8.172
330.84	7.407
331.20	8.417
331.56	8.059
331.93	8.285
332.29	8.051
332.66	8.804
333.02	9.380
333.38	8.054
333.75	9.007
334.11	8.674
334.48	8.828
334.84	9.601
335.20	9.068
335.57	9.781
335.93	8.760
336.29	8.902
336.66	8.158
337.02	8.445
337.38	9.609
337.75	9.587
338.11	9.504
338.47	9.016
338.84	8.460
339.20	7.498
339.56	9.308
339.93	9.031
340.29	8.052
340.65	8.678
341.02	8.300
341.38	9.701
341.74	8.717
342.11	8.608
342.47	8.578
342.83	8.776
343.20	9.321
343.56	9.142
343.92	9.528
344.28	10.000
344.65	9.225
345.01	8.190
345.37	9.487
345.73	7.872
346.10	8.814
346.46	9.098
346.82	9.513
347.19	8.633
347.55	9.256
347.91	7.875
348.27	9.408
348.63	8.759
349.00	8.799
349.36	9.145
349.72	7.217
350.08	9.658
350.45	7.909
350.81	8.069
351.17	9.173
351.53	8.643
351.89	9.112
352.26	8.358
352.62	7.836
352.98	7.557
353.34	8.439
353.70	8.783
354.07	8.420
354.43	7.517
354.79	8.003
355.15	7.432
355.51	8.626
355.87	7.629
356.24	8.365
356.60	7.834
356.96	7.784
357.32	8.401
357.68	7.833
358.04	7.934
358.40	7.015
358.77	8.553
359.13	6.647
359.49	6.840
359.85	6.744
360.21	7.891
360.57	7.322
360.93	8.181
361.29	7.509
361.66	7.676
362.02	8.559
362.38	7.590
362.74	7.682
363.10	7.703
363.46	8.033
363.82	7.599
364.18	8.023
364.54	7.884
364.90	8.027
365.26	7.241
365.62	8.000
365.98	7.352
366.35	7.584
366.71	7.959
367.07	7.713
367.43	7.748
367.79	7.764
368.15	8.094
368.51	7.713
368.87	6.793
369.23	7.667
369.59	6.626
369.95	7.437
370.31	7.630
370.67	6.396
371.03	7.064
371.39	6.313
371.75	6.671
372.11	6.843
372.47	7.718
372.83	6.675
373.19	7.272
373.55	6.775
373.91	6.203
374.27	6.856
374.63	7.104
374.99	6.565
375.35	7.338
375.71	7.484
376.07	6.843
376.42	6.360
376.78	7.955
377.14	7.424
377.50	6.388
377.86	6.835
378.22	6.467
378.58	7.075
378.94	6.338
379.30	6.854
379.66	6.643
380.02	7.328
380.38	6.855
380.74	6.648
381.09	6.678
381.45	6.591
381.81	7.260
382.17	6.948
382.53	6.316
382.89	7.167
383.25	6.741
383.61	5.903
383.97	6.478
384.32	6.998
384.68	6.090
385.04	6.651
385.40	6.777
385.76	6.917
386.12	6.942
386.48	6.941
386.83	7.271
387.19	6.431
387.55	5.927
387.91	6.050
388.27	6.582
388.62	6.816
388.98	6.881
389.34	7.189
389.70	6.566
390.06	6.394
390.42	5.602
390.77	7.044
391.13	6.397
391.49	6.643
391.85	5.697
392.20	6.940
392.56	6.793
392.92	6.434
393.28	6.523
393.64	6.648
393.99	6.217
394.35	6.484
394.71	7.305
395.07	5.449
395.42	6.168
395.78	7.252
396.14	6.179
396.50	5.523
396.85	5.725
397.21	5.858
397.57	5.595
397.92	6.186
398.28	5.540
398.64	5.950
399.00	5.550
399.35	5.864
399.71	5.924
400.07	5.839
400.42	5.763
400.78	5.903
401.14	6.204
401.49	5.685
401.85	5.640
402.21	6.083
402.57	5.634
402.92	5.615
403.28	5.738
403.63	4.177
403.99	5.879
404.35	5.230
404.70	5.836
405.06	6.522
405.42	5.504
405.77	5.180
406.13	5.889
406.49	5.349
406.84	5.485
407.20	5.757
407.55	4.361
407.91	4.840
408.27	5.477
408.62	4.828
408.98	5.340
409.34	4.985
409.69	4.883
410.05	5.334
410.40	5.916
410.76	4.992
411.11	5.786
411.47	5.037
411.83	5.350
412.18	5.783
412.54	5.750
412.89	5.122
413.25	4.966
413.60	4.882
413.96	5.070
414.31	4.703
414.67	5.844
415.03	4.923
415.38	5.296
415.74	5.254
416.09	5.429
416.45	4.759
416.80	5.263
417.16	5.428
417.51	5.355
417.87	4.476
418.22	5.749
418.58	4.523
418.93	5.704
419.29	4.932
419.64	4.682
420.00	4.748
420.35	5.503
420.71	5.169
421.06	4.773
421.42	5.218
421.77	4.523
422.12	4.281
422.48	4.147
422.83	4.929
423.19	4.456
423.54	4.978
423.90	4.638
424.25	5.173
424.61	3.789
424.96	4.723
425.31	5.573
425.67	4.509
426.02	5.313
426.38	4.478
426.73	4.464
427.09	5.767
427.44	4.151
427.79	5.196
428.15	4.509
428.50	4.045
428.85	3.904
429.21	5.479
429.56	4.640
429.92	4.619
430.27	5.060
430.62	4.836
430.98	4.673
431.33	5.181
431.68	4.693
432.04	4.926
432.39	4.713
432.74	4.795
433.10	4.867
433.45	4.292
433.80	4.506
434.16	4.959
434.51	4.625
434.86	4.777
435.22	4.942
435.57	4.835
435.92	5.342
436.28	5.063
436.63	4.806
436.98	5.099
437.34	4.679
437.69	4.898
438.04	4.336
438.39	4.997
438.75	3.708
439.10	5.285
439.45	5.422
439.81	4.689
440.16	5.147
440.51	4.627
440.86	4.947
441.22	5.091
441.57	4.927
441.92	5.092
442.27	4.747
442.63	4.620
442.98	5.176
443.33	5.892
443.68	4.955
444.03	6.021
444.39	5.409
444.74	5.360
445.09	5.170
445.44	5.374
445.79	5.172
446.15	5.190
446.50	4.548
446.85	5.447
447.20	5.658
447.55	5.649
447.91	4.241
448.26	4.968
448.61	5.526
448.96	6.062
449.31	5.196
449.66	4.793
450.02	5.749
450.37	5.647
450.72	5.167
451.07	5.296
451.42	5.257
451.77	4.947
452.12	5.700
452.47	5.288
452.83	4.786
453.18	5.020
453.53	5.342
453.88	5.798
454.23	5.932
454.58	5.281
454.93	4.794
455.28	4.997
455.63	5.799
455.98	5.642
456.34	5.183
456.69	4.586
457.04	5.674
457.39	5.654
457.74	5.928
458.09	4.997
458.44	5.334
458.79	5.260
459.14	5.663
459.49	4.358
459.84	5.561
460.19	5.053
460.54	5.565
460.89	4.923
461.24	4.483
461.59	5.921
461.94	4.735
462.29	5.263
462.64	5.069
462.99	5.210
463.34	4.543
463.69	4.924
464.04	5.948
464.39	5.549
464.74	5.473
465.09	5.594
465.44	5.097
465.79	6.293
466.14	4.690
466.49	6.263
466.84	5.675
467.19	5.491
467.54	4.759
467.89	4.943
468.24	5.983
468.59	4.169
468.94	4.953
469.29	4.679
469.64	4.768
469.99	4.207
470.34	4.827
470.68	5.400
471.03	5.435
471.38	4.513
471.73	4.291
472.08	4.949
472.43	4.816
472.78	5.982
473.13	5.626
473.48	5.438
473.83	4.875
474.17	5.686
474.52	4.991
474.87	5.150
475.22	5.634
475.57	5.296
475.92	5.077
476.27	5.751
476.61	4.933
476.96	4.797
477.31	5.495
477.66	5.876
478.01	5.643
478.36	5.184
478.70	5.271
479.05	5.164
479.40	4.985
479.75	5.668
480.10	4.784
480.45	5.150
480.79	5.215
481.14	4.688
481.49	5.134
481.84	5.657
482.19	5.634
482.53	5.203
482.88	5.627
483.23	5.247
483.58	4.629
483.92	5.009
484.27	5.334
484.62	5.033
484.97	5.638
485.31	4.752
485.66	5.185
486.01	4.949
486.36	5.113
486.70	5.459
487.05	5.507
487.40	4.969
487.75	5.344
488.09	5.185
488.44	5.025
488.79	5.363
489.13	5.503
489.48	4.699
489.83	5.070
490.17	4.658
490.52	5.090
490.87	5.541
491.22	4.809
491.56	4.949
491.91	5.495
492.26	4.933
492.60	4.854
492.95	5.046
493.30	4.796
493.64	4.993
493.99	4.912
494.34	4.704
494.68	5.011
495.03	5.198
495.37	4.749
495.72	4.853
496.07	5.127
496.41	4.590
496.76	5.254
497.11	4.628
497.45	4.920
497.80	5.198
498.14	4.943
498.49	4.182
498.84	5.073
499.18	4.813
499.53	5.067
499.87	5.275
500.22	4.408
500.56	5.038
500.91	5.034
501.26	5.545
501.60	4.551
501.95	5.254
502.29	4.651
502.64	4.766
502.98	5.004
503.33	4.622
503.67	4.361
504.02	4.772
504.36	4.781
504.71	4.869
505.06	4.593
505.40	4.250
505.75	4.554
506.09	4.880
506.44	5.014
506.78	5.138
507.13	5.118
507.47	5.069
507.82	4.924
508.16	4.254
508.51	4.266
508.85	4.582
509.19	4.548
509.54	5.139
509.88	4.420
510.23	4.808
510.57	5.172
510.92	4.596
511.26	5.243
511.61	4.539
511.95	4.539
512.30	4.874
512.64	4.898
512.98	4.352
513.33	4.738
513.67	4.029
514.02	4.701
514.36	4.757
514.70	4.271
515.05	4.797
515.39	4.882
515.74	5.355
516.08	4.966
516.42	4.710
516.77	4.522
517.11	4.074
517.46	5.037
517.80	4.864
518.14	5.386
518.49	4.772
518.83	5.109
519.17	3.985
519.52	4.560
519.86	4.805
520.20	5.485
520.55	4.272
520.89	5.293
521.23	5.137
521.58	4.689
521.92	4.533
522.26	4.639
522.61	5.382
522.95	4.844
523.29	4.253
523.64	4.877
523.98	4.792
524.32	5.215
524.66	4.439
525.01	4.813
525.35	4.250
525.69	4.350
526.04	4.822
526.38	5.115
526.72	4.960
527.06	4.633
527.41	5.073
527.75	5.285
528.09	4.782
528.43	4.322
528.78	4.509
529.12	4.186
529.46	4.103
529.80	4.863
530.15	4.232
530.49	4.448
530.83	4.545
531.17	4.719
531.51	4.753
531.86	4.748
532.20	5.366
532.54	4.847
532.88	4.303
533.22	4.184
533.57	5.020
533.91	4.658
534.25	4.635
534.59	3.621
534.93	4.358
535.27	5.070
535.62	4.434
535.96	4.823
536.30	3.349
536.64	5.465
536.98	4.674
537.32	5.000
537.66	5.178
538.01	4.048
538.35	4.141
538.69	4.147
539.03	4.353
539.37	5.065
539.71	4.685
540.05	4.556
540.39	4.340
540.73	3.764
541.07	3.924
541.42	5.434
541.76	3.677
542.10	4.584
542.44	4.324
542.78	4.258
543.12	4.350
543.46	4.884
543.80	4.077
544.14	4.548
544.48	4.965
544.82	4.847
545.16	4.890
545.50	5.093
545.84	4.225
546.18	5.062
546.52	4.522
546.86	4.277
547.20	4.580
547.54	4.370
547.88	3.737
548.22	4.152
548.56	4.213
548.90	4.179
549.24	4.498
549.58	4.164
549.92	4.145
550.26	4.531
550.60	4.978
550.94	5.045
551.28	4.620
551.62	4.178
551.96	4.207
552.30	4.525
552.64	4.045
552.98	4.055
553.32	4.051
553.66	4.180
554.00	4.288
554.34	3.990
554.68	4.584
555.02	4.402
555.36	4.471
555.69	3.459
556.03	3.909
556.37	4.693
556.71	4.249
557.05	4.665
557.39	4.114
557.73	3.897
558.07	3.775
558.41	3.721
558.75	4.124
559.08	4.871
559.42	3.567
559.76	4.138
560.10	4.555
560.44	4.024
560.78	4.875
561.12	4.680
561.45	4.136
561.79	4.701
562.13	4.005
562.47	4.624
562.81	4.177
563.15	4.040
563.48	3.915
563.82	3.809
564.16	4.300
564.50	4.470
564.84	3.599
565.17	4.000
565.51	4.258
565.85	3.682
566.19	3.687
566.52	3.394
566.86	4.018
567.20	4.078
567.54	4.249
567.88	3.874
568.21	4.397
568.55	4.652
568.89	4.948
569.23	4.605
569.56	4.025
569.90	3.813
570.24	3.946
570.57	3.913
570.91	4.195
571.25	4.108
571.59	4.453
571.92	4.078
572.26	4.314
572.60	4.150
572.93	4.175
573.27	4.130
573.61	4.156
573.95	4.443
574.28	4.111
574.62	4.161
574.96	4.213
575.29	4.450
575.63	3.904
575.97	4.431
576.30	4.244
576.64	4.032
576.98	4.282
577.31	4.161
577.65	4.148
577.98	4.311
578.32	3.843
578.66	3.995
578.99	4.219
579.33	4.291
579.67	3.740
580.00	4.316
580.34	4.167
580.67	3.972
581.01	4.068
581.35	4.169
581.68	4.028
582.02	4.479
582.35	4.193
582.69	4.242
583.02	4.111
583.36	3.984
583.70	4.135
584.03	4.080
584.37	4.147
584.70	4.181
585.04	4.046
585.37	4.375
585.71	4.315
586.04	4.227
586.38	4.201
586.72	4.061
587.05	3.658
587.39	4.064
587.72	4.354
588.06	4.304
588.39	4.356
588.73	3.915
589.06	4.317
589.40	3.811
589.73	3.760
590.07	3.747
590.40	4.361
590.73	3.888
591.07	4.244
591.40	3.771
591.74	3.975
592.07	4.791
592.41	3.983
592.74	4.082
593.08	4.459
593.41	4.112
593.75	4.167
594.08	4.090
594.41	4.167
594.75	3.952
595.08	3.701
595.42	4.513
595.75	4.424
596.09	4.236
596.42	4.013
596.75	4.091
597.09	4.283
597.42	4.172
597.75	4.390
598.09	3.810
598.42	3.940
598.76	3.592
599.09	3.880
599.42	4.023
599.76	3.896
600.09	4.204
600.42	4.304
600.76	3.666
601.09	4.016
601.42	4.394
601.76	4.069
602.09	4.074
602.42	4.180
602.76	3.875
603.09	4.001
603.42	4.046
603.76	3.347
604.09	4.649
604.42	4.477
604.76	3.653
605.09	3.430
605.42	4.226
605.75	4.154
606.09	3.770
606.42	4.305
606.75	3.898
607.09	3.879
607.42	3.969
607.75	3.791
608.08	4.025
608.42	4.031
608.75	4.353
609.08	3.778
609.41	4.058
609.75	4.330
610.08	4.222
610.41	4.078
610.74	3.782
611.07	4.130
611.41	3.991
611.74	4.249
612.07	4.161
612.40	3.945
612.73	4.352
613.07	3.863
613.40	4.427
613.73	4.092
614.06	3.778
614.39	3.499
614.72	4.173
615.06	3.898
615.39	4.495
615.72	4.171
616.05	3.740
616.38	4.390
616.71	4.075
617.05	3.461
617.38	4.173
617.71	4.752
618.04	4.317
618.37	4.426
618.70	4.242
619.03	3.644
619.36	3.761
619.69	3.652
620.03	4.143
620.36	4.049
620.69	3.825
621.02	3.609
621.35	3.774
621.68	4.338
622.01	3.915
622.34	3.835
622.67	3.918
623.00	2.564
623.33	3.849
623.66	4.150
623.99	4.147
624.32	5.068
624.65	3.282
624.99	3.966
625.32	4.376
625.65	4.113
625.98	3.322
626.31	3.827
626.64	3.663
626.97	3.001
627.30	2.961
627.63	2.926
627.96	4.580
628.29	4.358
628.62	3.275
628.95	4.032
629.28	3.483
629.61	3.872
629.94	3.515
630.26	4.492
630.59	3.972
630.92	3.636
631.25	4.293
631.58	4.237
631.91	3.843
632.24	3.170
632.57	3.890
632.90	3.109
633.23	4.490
633.56	4.184
633.89	2.479
634.22	4.678
634.55	3.549
634.88	3.139
635.20	4.198
635.53	3.616
635.86	4.442
636.19	6.151
636.52	4.114
636.85	5.005
637.18	4.054
637.51	3.011
637.83	4.097
638.16	3.456
638.49	3.521
638.82	3.044
639.15	2.864
639.48	3.695
639.81	3.464
640.13	4.711
640.46	3.030
640.79	1.471
641.12	3.727
641.45	3.764
641.77	5.648
642.10	3.018
642.43	5.053
642.76	4.201
643.09	3.562
643.41	2.521
643.74	2.759
644.07	5.517
644.40	2.546
644.73	2.612
645.05	2.643
645.38	4.460
645.71	3.666
646.04	4.735
646.36	2.774
646.69	3.374
647.02	4.128
647.35	3.359
647.67	4.348
648.00	3.503
648.33	5.405
648.66	2.853
648.98	4.354
649.31	4.060
649.64	5.312
649.96	3.846
650.29	3.755
650.62	4.526
650.94	4.354
651.27	2.395
651.60	4.386
651.92	3.040
652.25	3.039
652.58	4.677
652.90	2.326
653.23	3.521
653.56	3.138
653.88	5.478
654.21	3.944
654.54	4.624
654.86	4.391
655.19	4.141
655.52	4.230
655.84	4.009
656.17	4.547
656.49	6.561
656.82	7.126
657.15	5.347
657.47	4.232
657.80	3.130
