SpectraSuite Data File
++++++++++++++++++++++++++++++++++++
Date: Thu May 14 16:36:43 PDT 2015
User: schluterlab
Dark Spectrum Present: Yes
Reference Spectrum Present: Yes
Number of Sampled Component Spectra: 1
Spectrometers: USB2E3373
Integration Time (usec): 3000 (USB2E3373)
Spectra Averaged: 3 (USB2E3373)
Boxcar Smoothing: 0 (USB2E3373)
Correct for Electrical Dark: No (USB2E3373)
Strobe/Lamp Enabled: No (USB2E3373)
Correct for Detector Non-linearity: No (USB2E3373)
Correct for Stray Light: No (USB2E3373)
Number of Pixels in Processed Spectrum: 2048
>>>>>Begin Processed Spectral Data<<<<<
178.53	0.000
178.91	42.857
179.29	-1300.000
179.67	-400.000
180.04	157.143
180.42	30.000
180.80	220.000
181.18	-1100.000
181.56	200.000
181.94	100.000
182.31	-75.000
182.69	66.667
183.07	-50.000
183.45	175.000
183.83	-100.000
184.20	-66.667
184.58	-100.000
184.96	-200.000
185.34	-22.222
185.72	-40.000
186.09	188.889
186.47	450.000
186.85	140.000
187.23	-44.444
187.61	-400.000
187.98	80.000
188.36	125.000
188.74	50.000
189.12	33.333
189.49	18.750
189.87	12.500
190.25	33.333
190.63	-160.000
191.00	-100.000
191.38	0.000
191.76	-250.000
192.14	-133.333
192.51	-0.000
192.89	33.333
193.27	0.000
193.65	-57.143
194.02	-1200.000
194.40	-42.857
194.78	57.143
195.15	0.000
195.53	9.091
195.91	0.000
196.29	-150.000
196.66	-30.769
197.04	-1400.000
197.42	-71.429
197.79	250.000
198.17	-100.000
198.55	-171.429
198.92	-22.222
199.30	-50.000
199.68	0.000
200.05	7.143
200.43	-500.000
200.81	185.714
201.18	0.000
201.56	266.667
201.94	0.000
202.31	433.333
202.69	-144.444
203.07	-500.000
203.44	55.556
203.82	-250.000
204.19	-41.667
204.57	-216.667
204.95	-125.000
205.32	-400.000
205.70	175.000
206.08	0.000
206.45	33.333
206.83	160.000
207.20	-116.667
207.58	-60.000
207.96	-50.000
208.33	0.000
208.71	50.000
209.08	216.667
209.46	0.000
209.84	66.667
210.21	-300.000
210.59	50.000
210.96	500.000
211.34	-25.000
211.71	-175.000
212.09	-1700.000
212.46	0.000
212.84	800.000
213.22	-320.000
213.59	-175.000
213.97	80.000
214.34	-166.667
214.72	166.667
215.09	0.000
215.47	0.000
215.84	-0.000
216.22	250.000
216.59	-80.000
216.97	-100.000
217.34	-225.000
217.72	-12.500
218.09	-100.000
218.47	-100.000
218.84	0.000
219.22	140.000
219.59	11.765
219.97	45.000
220.34	800.000
220.72	-122.222
221.09	-30.769
221.47	-66.667
221.84	-110.000
222.22	-42.857
222.59	0.000
222.97	50.000
223.34	-40.000
223.72	-1400.000
224.09	-100.000
224.46	-275.000
224.84	-40.000
225.21	-214.286
225.59	-275.000
225.96	-125.000
226.34	-15.385
226.71	216.667
227.08	-500.000
227.46	-26.667
227.83	-300.000
228.21	-21.053
228.58	137.500
228.95	-50.000
229.33	83.333
229.70	10.000
230.08	63.158
230.45	150.000
230.82	-200.000
231.20	-28.571
231.57	-25.000
231.95	-100.000
232.32	36.364
232.69	25.000
233.07	-75.000
233.44	-5.882
233.81	-50.000
234.19	5.556
234.56	-31.818
234.93	-27.586
235.31	-21.053
235.68	5.556
236.05	-5.000
236.43	19.231
236.80	16.000
237.17	7.407
237.55	0.000
237.92	0.000
238.29	-19.355
238.67	-27.273
239.04	8.333
239.41	-4.762
239.79	0.000
240.16	3.704
240.53	2.174
240.91	-11.765
241.28	-11.475
241.65	10.448
242.02	14.865
242.40	-13.846
242.77	-5.333
243.14	-6.098
243.51	-13.158
243.89	-14.103
244.26	10.891
244.63	0.000
245.00	8.411
245.38	-0.877
245.75	-15.929
246.12	7.937
246.49	0.775
246.87	1.429
247.24	7.947
247.61	5.263
247.98	-7.383
248.36	-1.235
248.73	0.000
249.10	1.093
249.47	4.478
249.84	9.424
250.22	4.663
250.59	0.000
250.96	5.455
251.33	-3.061
251.70	4.274
252.08	5.833
252.45	0.410
252.82	3.719
253.19	0.781
253.56	4.943
253.94	0.769
254.31	3.409
254.68	4.545
255.05	3.909
255.42	3.401
255.79	0.324
256.16	1.987
256.54	-0.331
256.91	5.246
257.28	-1.311
257.65	0.955
258.02	0.000
258.39	4.843
258.76	4.893
259.14	6.897
259.51	1.153
259.88	0.850
260.25	3.333
260.62	7.397
260.99	4.918
261.36	4.021
261.73	1.592
262.10	2.747
262.47	2.145
262.85	5.556
263.22	0.260
263.59	-0.789
263.96	2.046
264.33	1.023
264.70	3.210
265.07	6.205
265.44	7.256
265.81	1.852
266.18	4.308
266.55	2.679
266.92	1.367
267.29	2.407
267.66	3.326
268.03	3.712
268.40	3.758
268.77	1.139
269.14	0.661
269.51	0.658
269.88	4.508
270.25	2.414
270.62	5.485
270.99	4.444
271.36	5.545
271.73	2.750
272.10	2.405
272.47	4.409
272.84	3.213
273.21	3.206
273.58	4.032
273.95	3.269
274.32	1.901
274.69	-0.193
275.06	4.212
275.43	1.848
275.80	4.762
276.17	1.296
276.54	2.799
276.91	1.431
277.28	3.797
277.65	2.513
278.02	4.228
278.39	2.355
278.76	0.527
279.13	2.837
279.50	3.608
279.87	3.041
280.23	-0.176
280.60	3.051
280.97	3.783
281.34	1.698
281.71	4.230
282.08	2.658
282.45	1.964
282.82	2.826
283.19	1.131
283.56	1.803
283.92	4.955
284.29	5.055
284.66	4.105
285.03	0.962
285.40	4.328
285.77	2.941
286.14	4.885
286.51	1.826
286.87	2.212
287.24	3.614
287.61	2.242
287.98	-0.151
288.35	2.071
288.72	3.402
289.08	3.367
289.45	2.219
289.82	1.355
290.19	2.730
290.56	3.944
290.93	1.997
291.29	3.306
291.66	2.617
292.03	2.171
292.40	6.122
292.77	1.752
293.13	2.706
293.50	2.365
293.87	3.490
294.24	5.333
294.60	3.919
294.97	0.134
295.34	3.201
295.71	2.774
296.08	2.196
296.44	3.676
296.81	2.192
297.18	2.117
297.55	2.358
297.91	2.135
298.28	1.540
298.65	3.567
299.02	2.361
299.38	3.547
299.75	2.687
300.12	1.852
300.48	2.304
300.85	2.587
301.22	2.796
301.59	2.626
301.95	3.729
302.32	3.889
302.69	3.067
303.05	3.047
303.42	2.328
303.79	2.396
304.15	2.208
304.52	1.586
304.89	2.513
305.25	2.795
305.62	2.717
305.99	3.093
306.35	3.528
306.72	1.965
307.09	2.335
307.45	2.174
307.82	2.926
308.19	2.825
308.55	3.279
308.92	2.434
309.29	2.682
309.65	2.827
310.02	2.475
310.38	2.559
310.75	2.913
311.12	4.123
311.48	2.639
311.85	2.849
312.22	4.269
312.58	3.005
312.95	3.346
313.31	4.065
313.68	4.396
314.05	3.794
314.41	4.463
314.78	3.906
315.14	4.628
315.51	4.340
315.87	5.941
316.24	4.566
316.61	6.750
316.97	4.796
317.34	3.704
317.70	5.066
318.07	5.556
318.43	6.718
318.80	6.773
319.16	6.438
319.53	5.484
319.89	6.223
320.26	7.028
320.62	7.181
320.99	7.018
321.35	6.932
321.72	8.558
322.08	7.033
322.45	8.672
322.81	9.296
323.18	7.611
323.54	9.828
323.91	9.786
324.27	9.380
324.64	10.160
325.00	8.789
325.37	11.712
325.73	11.157
326.10	11.436
326.46	12.052
326.83	11.689
327.19	12.205
327.56	12.648
327.92	12.274
328.29	12.016
328.65	13.652
329.01	14.552
329.38	13.227
329.74	15.753
330.11	14.469
330.47	15.417
330.84	14.212
331.20	15.667
331.56	16.638
331.93	16.067
332.29	15.678
332.66	16.860
333.02	15.327
333.38	15.436
333.75	15.741
334.11	15.430
334.48	16.337
334.84	17.502
335.20	15.449
335.57	15.852
335.93	17.934
336.29	15.391
336.66	17.410
337.02	16.137
337.38	16.922
337.75	16.860
338.11	16.821
338.47	16.956
338.84	17.766
339.20	16.007
339.56	16.227
339.93	16.338
340.29	16.345
340.65	16.626
341.02	16.520
341.38	16.815
341.74	16.626
342.11	16.975
342.47	15.727
342.83	16.908
343.20	17.007
343.56	15.958
343.92	16.974
344.28	16.719
344.65	18.062
345.01	16.537
345.37	16.719
345.73	15.355
346.10	16.771
346.46	16.772
346.82	17.453
347.19	16.501
347.55	17.223
347.91	16.493
348.27	16.844
348.63	17.593
349.00	16.555
349.36	17.175
349.72	16.295
350.08	16.865
350.45	16.426
350.81	16.591
351.17	16.541
351.53	17.892
351.89	16.781
352.26	16.716
352.62	16.716
352.98	16.412
353.34	15.833
353.70	16.795
354.07	17.288
354.43	16.401
354.79	16.305
355.15	16.924
355.51	18.056
355.87	16.829
356.24	17.490
356.60	16.925
356.96	16.976
357.32	17.175
357.68	16.545
358.04	17.141
358.40	16.940
358.77	18.567
359.13	16.913
359.49	16.803
359.85	17.114
360.21	17.073
360.57	16.439
360.93	17.489
361.29	18.105
361.66	17.451
362.02	17.815
362.38	16.866
362.74	16.341
363.10	18.569
363.46	17.036
363.82	17.614
364.18	16.749
364.54	17.566
364.90	17.793
365.26	17.034
365.62	18.200
365.98	18.244
366.35	17.651
366.71	17.687
367.07	17.456
367.43	18.319
367.79	18.248
368.15	17.793
368.51	17.794
368.87	18.158
369.23	17.733
369.59	18.648
369.95	18.526
370.31	18.298
370.67	17.950
371.03	17.244
371.39	16.991
371.75	17.607
372.11	18.699
372.47	18.957
372.83	19.110
373.19	18.012
373.55	18.293
373.91	18.200
374.27	18.241
374.63	18.606
374.99	18.369
375.35	18.052
375.71	17.935
376.07	17.689
376.42	18.892
376.78	18.459
377.14	17.842
377.50	18.786
377.86	18.658
378.22	18.623
378.58	19.025
378.94	18.721
379.30	18.219
379.66	18.989
380.02	18.523
380.38	20.104
380.74	18.930
381.09	19.222
381.45	19.489
381.81	19.028
382.17	19.834
382.53	19.181
382.89	19.187
383.25	19.519
383.61	19.097
383.97	18.139
384.32	19.139
384.68	17.923
385.04	19.260
385.40	19.210
385.76	20.047
386.12	19.090
386.48	19.588
386.83	20.262
387.19	19.409
387.55	18.662
387.91	19.635
388.27	19.630
388.62	20.275
388.98	19.064
389.34	20.801
389.70	20.163
390.06	19.005
390.42	19.639
390.77	20.650
391.13	19.366
391.49	20.109
391.85	20.182
392.20	19.988
392.56	20.555
392.92	21.101
393.28	19.735
393.64	19.385
393.99	20.395
394.35	20.853
394.71	21.018
395.07	20.060
395.42	20.503
395.78	21.207
396.14	20.974
396.50	20.784
396.85	19.678
397.21	20.178
397.57	20.200
397.92	20.275
398.28	19.392
398.64	19.966
399.00	20.262
399.35	20.524
399.71	20.870
400.07	20.775
400.42	21.304
400.78	20.081
401.14	19.522
401.49	20.466
401.85	20.174
402.21	21.321
402.57	20.716
402.92	21.217
403.28	20.258
403.63	20.286
403.99	20.428
404.35	20.352
404.70	21.813
405.06	20.707
405.42	20.609
405.77	20.992
406.13	20.367
406.49	20.495
406.84	20.665
407.20	19.788
407.55	19.988
407.91	21.182
408.27	20.318
408.62	21.815
408.98	21.184
409.34	19.648
409.69	20.272
410.05	21.630
410.40	22.390
410.76	21.425
411.11	21.917
411.47	21.069
411.83	21.399
412.18	21.386
412.54	21.458
412.89	21.013
413.25	21.163
413.60	20.793
413.96	20.804
414.31	20.737
414.67	21.467
415.03	20.738
415.38	21.375
415.74	20.403
416.09	22.085
416.45	21.603
416.80	20.685
417.16	21.839
417.51	21.295
417.87	22.011
418.22	21.856
418.58	22.057
418.93	22.119
419.29	21.517
419.64	21.188
420.00	21.424
420.35	21.842
420.71	20.908
421.06	21.392
421.42	21.502
421.77	20.679
422.12	22.463
422.48	21.045
422.83	21.851
423.19	21.592
423.54	21.958
423.90	20.762
424.25	22.080
424.61	21.986
424.96	21.307
425.31	21.709
425.67	21.310
426.02	21.361
426.38	21.240
426.73	22.098
427.09	22.145
427.44	21.901
427.79	21.504
428.15	21.461
428.50	22.022
428.85	21.757
429.21	22.234
429.56	21.471
429.92	21.867
430.27	22.265
430.62	21.935
430.98	22.184
431.33	22.043
431.68	22.126
432.04	22.092
432.39	22.282
432.74	22.546
433.10	22.823
433.45	20.680
433.80	22.532
434.16	22.159
434.51	22.816
434.86	23.073
435.22	21.838
435.57	22.877
435.92	22.927
436.28	22.924
436.63	22.884
436.98	22.705
437.34	23.224
437.69	22.620
438.04	22.475
438.39	23.377
438.75	22.690
439.10	23.520
439.45	23.197
439.81	22.316
440.16	22.842
440.51	23.523
440.86	22.679
441.22	23.741
441.57	22.904
441.92	22.551
442.27	23.283
442.63	22.653
442.98	23.106
443.33	23.251
443.68	23.687
444.03	23.895
444.39	23.255
444.74	23.481
445.09	23.619
445.44	22.655
445.79	23.228
446.15	22.919
446.50	23.618
446.85	23.298
447.20	23.162
447.55	23.326
447.91	22.618
448.26	23.044
448.61	23.539
448.96	23.981
449.31	23.224
449.66	22.222
450.02	23.787
450.37	23.442
450.72	23.897
451.07	24.089
451.42	23.570
451.77	23.013
452.12	23.984
452.47	22.579
452.83	23.930
453.18	23.993
453.53	23.607
453.88	23.744
454.23	23.955
454.58	24.318
454.93	22.937
455.28	24.082
455.63	23.707
455.98	23.520
456.34	24.382
456.69	23.810
457.04	24.054
457.39	24.113
457.74	24.776
458.09	24.163
458.44	22.953
458.79	23.724
459.14	24.594
459.49	23.713
459.84	23.505
460.19	22.599
460.54	24.588
460.89	24.775
461.24	23.736
461.59	23.962
461.94	23.331
462.29	23.628
462.64	24.381
462.99	23.854
463.34	23.686
463.69	23.212
464.04	24.347
464.39	23.879
464.74	23.261
465.09	23.010
465.44	22.961
465.79	23.427
466.14	23.554
466.49	23.579
466.84	23.691
467.19	23.410
467.54	23.267
467.89	23.103
468.24	23.213
468.59	23.046
468.94	23.893
469.29	23.095
469.64	23.077
469.99	24.602
470.34	22.649
470.68	23.855
471.03	24.623
471.38	23.545
471.73	23.537
472.08	23.096
472.43	23.781
472.78	23.992
473.13	22.566
473.48	23.686
473.83	23.854
474.17	23.857
474.52	23.572
474.87	23.588
475.22	23.831
475.57	23.157
475.92	22.847
476.27	22.950
476.61	23.105
476.96	22.680
477.31	23.267
477.66	23.715
478.01	23.132
478.36	23.031
478.70	23.202
479.05	23.875
479.40	23.840
479.75	23.727
480.10	22.643
480.45	22.881
480.79	23.401
481.14	23.483
481.49	22.717
481.84	22.933
482.19	22.581
482.53	22.956
482.88	23.350
483.23	23.077
483.58	22.533
483.92	23.449
484.27	22.862
484.62	22.236
484.97	22.551
485.31	21.612
485.66	21.604
486.01	20.499
486.36	21.491
486.70	21.724
487.05	22.603
487.40	23.102
487.75	22.723
488.09	23.105
488.44	22.781
488.79	23.035
489.13	22.411
489.48	22.524
489.83	21.932
490.17	22.236
490.52	22.947
490.87	22.293
491.22	22.444
491.56	22.611
491.91	22.503
492.26	22.588
492.60	22.650
492.95	22.685
493.30	22.053
493.64	22.733
493.99	23.026
494.34	22.517
494.68	21.970
495.03	21.938
495.37	22.459
495.72	22.540
496.07	21.823
496.41	22.179
496.76	22.352
497.11	21.826
497.45	22.011
497.80	22.346
498.14	22.222
498.49	21.553
498.84	21.846
499.18	21.772
499.53	21.749
499.87	21.187
500.22	21.817
500.56	21.502
500.91	21.739
501.26	22.045
501.60	21.211
501.95	22.015
502.29	21.852
502.64	21.863
502.98	21.657
503.33	21.037
503.67	21.326
504.02	22.067
504.36	22.118
504.71	21.268
505.06	21.555
505.40	21.252
505.75	21.721
506.09	21.639
506.44	20.706
506.78	20.963
507.13	22.130
507.47	21.364
507.82	20.644
508.16	20.698
508.51	19.409
508.85	20.217
509.19	20.701
509.54	21.758
509.88	21.855
510.23	20.932
510.57	21.991
510.92	21.045
511.26	20.683
511.61	20.377
511.95	21.425
512.30	20.827
512.64	20.340
512.98	20.710
513.33	21.018
513.67	20.857
514.02	20.235
514.36	20.665
514.70	19.948
515.05	21.376
515.39	21.050
515.74	20.997
516.08	21.078
516.42	20.670
516.77	19.979
517.11	20.423
517.46	21.103
517.80	20.844
518.14	20.729
518.49	21.312
518.83	20.117
519.17	19.548
519.52	20.597
519.86	20.539
520.20	20.501
520.55	20.591
520.89	19.595
521.23	19.933
521.58	19.831
521.92	20.510
522.26	20.332
522.61	20.023
522.95	19.839
523.29	19.713
523.64	19.675
523.98	21.335
524.32	21.032
524.66	20.660
525.01	20.272
525.35	19.816
525.69	19.780
526.04	19.920
526.38	20.057
526.72	19.550
527.06	19.120
527.41	20.408
527.75	19.893
528.09	20.012
528.43	19.893
528.78	19.364
529.12	19.209
529.46	19.674
529.80	19.108
530.15	19.362
530.49	19.098
530.83	19.362
531.17	19.295
531.51	19.254
531.86	19.772
532.20	20.305
532.54	19.689
532.88	18.606
533.22	18.798
533.57	19.561
533.91	18.519
534.25	18.824
534.59	19.080
534.93	18.223
535.27	18.704
535.62	20.011
535.96	18.303
536.30	18.038
536.64	19.459
536.98	19.434
537.32	18.889
537.66	19.963
538.01	17.583
538.35	18.453
538.69	18.510
539.03	19.068
539.37	18.021
539.71	18.859
540.05	18.106
540.39	18.460
540.73	18.033
541.07	17.719
541.42	17.779
541.76	18.090
542.10	18.697
542.44	17.418
542.78	18.552
543.12	18.176
543.46	18.010
543.80	17.206
544.14	17.475
544.48	19.031
544.82	18.372
545.16	17.352
545.50	17.196
545.84	17.453
546.18	18.457
546.52	17.771
546.86	17.987
547.20	16.603
547.54	16.355
547.88	17.300
548.22	17.193
548.56	16.969
548.90	17.373
549.24	17.933
549.58	16.782
549.92	17.092
550.26	18.382
550.60	17.358
550.94	17.335
551.28	16.370
551.62	16.779
551.96	16.828
552.30	16.316
552.64	17.362
552.98	16.719
553.32	16.977
553.66	16.399
554.00	16.835
554.34	17.889
554.68	16.269
555.02	16.491
555.36	17.620
555.69	15.311
556.03	16.961
556.37	16.521
556.71	16.614
557.05	16.613
557.39	16.987
557.73	15.984
558.07	15.430
558.41	16.877
558.75	16.565
559.08	16.145
559.42	15.638
559.76	16.079
560.10	15.874
560.44	16.029
560.78	16.688
561.12	15.702
561.45	16.727
561.79	16.911
562.13	17.375
562.47	15.783
562.81	16.582
563.15	16.288
563.48	15.475
563.82	15.417
564.16	14.961
564.50	15.197
564.84	15.280
565.17	15.471
565.51	15.362
565.85	15.439
566.19	15.899
566.52	15.974
566.86	14.997
567.20	14.736
567.54	14.657
567.88	14.730
568.21	15.464
568.55	15.348
568.89	15.116
569.23	15.632
569.56	13.873
569.90	14.184
570.24	14.570
570.57	14.368
570.91	13.962
571.25	14.203
571.59	14.222
571.92	13.886
572.26	14.055
572.60	14.333
572.93	14.417
573.27	14.386
573.61	13.817
573.95	14.008
574.28	13.758
574.62	13.915
574.96	13.410
575.29	13.417
575.63	13.860
575.97	14.060
576.30	13.669
576.64	13.481
576.98	13.531
577.31	13.820
577.65	13.743
577.98	13.460
578.32	13.440
578.66	13.193
578.99	13.271
579.33	13.539
579.67	13.033
580.00	13.127
580.34	13.438
580.67	13.107
581.01	13.349
581.35	13.326
581.68	12.848
582.02	13.078
582.35	12.956
582.69	13.171
583.02	13.287
583.36	13.288
583.70	13.406
584.03	13.151
584.37	13.379
584.70	12.836
585.04	13.067
585.37	12.749
585.71	12.988
586.04	12.946
586.38	13.208
586.72	12.585
587.05	12.484
587.39	13.313
587.72	13.014
588.06	13.080
588.39	12.995
588.73	12.804
589.06	12.867
589.40	13.030
589.73	13.111
590.07	12.898
590.40	13.151
590.73	12.655
591.07	12.584
591.40	13.103
591.74	12.719
592.07	12.870
592.41	12.224
592.74	12.815
593.08	12.771
593.41	12.803
593.75	12.931
594.08	12.663
594.41	12.660
594.75	12.687
595.08	12.685
595.42	13.182
595.75	13.045
596.09	13.250
596.42	12.469
596.75	13.277
597.09	13.374
597.42	12.674
597.75	12.623
598.09	12.540
598.42	12.907
598.76	12.342
599.09	11.784
599.42	12.001
599.76	12.149
600.09	12.379
600.42	11.912
600.76	11.889
601.09	12.147
601.42	12.599
601.76	11.931
602.09	12.616
602.42	12.468
602.76	12.509
603.09	11.711
603.42	12.066
603.76	11.945
604.09	12.101
604.42	12.000
604.76	12.062
605.09	12.804
605.42	11.762
605.75	11.500
606.09	12.169
606.42	11.565
606.75	12.106
607.09	11.521
607.42	11.830
607.75	11.880
608.08	11.918
608.42	11.810
608.75	12.313
609.08	11.969
609.41	12.042
609.75	12.098
610.08	11.478
610.41	11.640
610.74	12.101
611.07	11.812
611.41	11.928
611.74	11.732
612.07	11.547
612.40	11.740
612.73	11.932
613.07	12.323
613.40	11.983
613.73	11.170
614.06	12.022
614.39	11.565
614.72	11.742
615.06	11.550
615.39	11.600
615.72	11.706
616.05	11.948
616.38	12.059
616.71	11.651
617.05	11.768
617.38	12.146
617.71	11.555
618.04	11.549
618.37	11.803
618.70	11.482
619.03	12.007
619.36	10.974
619.69	12.236
620.03	11.739
620.36	11.779
620.69	12.030
621.02	11.877
621.35	12.264
621.68	11.931
622.01	11.886
622.34	11.925
622.67	11.615
623.00	10.796
623.33	11.679
623.66	12.322
623.99	10.731
624.32	12.216
624.65	11.390
624.99	10.793
625.32	11.822
625.65	12.340
625.98	11.186
626.31	12.119
626.64	11.282
626.97	11.703
627.30	10.099
627.63	11.553
627.96	12.087
628.29	11.284
628.62	11.167
628.95	11.481
629.28	11.555
629.61	11.700
629.94	10.711
630.26	10.254
630.59	11.572
630.92	11.255
631.25	10.912
631.58	12.241
631.91	11.340
632.24	11.431
632.57	12.334
632.90	10.933
633.23	11.122
633.56	12.347
633.89	10.434
634.22	12.682
634.55	10.960
634.88	11.147
635.20	12.487
635.53	11.977
635.86	11.484
636.19	13.043
636.52	10.127
636.85	10.419
637.18	11.123
637.51	12.366
637.83	11.849
