SpectraSuite Data File
++++++++++++++++++++++++++++++++++++
Date: Thu May 14 16:23:47 PDT 2015
User: schluterlab
Dark Spectrum Present: Yes
Reference Spectrum Present: Yes
Number of Sampled Component Spectra: 1
Spectrometers: USB2E3373
Integration Time (usec): 3000 (USB2E3373)
Spectra Averaged: 3 (USB2E3373)
Boxcar Smoothing: 0 (USB2E3373)
Correct for Electrical Dark: No (USB2E3373)
Strobe/Lamp Enabled: No (USB2E3373)
Correct for Detector Non-linearity: No (USB2E3373)
Correct for Stray Light: No (USB2E3373)
Number of Pixels in Processed Spectrum: 2048
>>>>>Begin Processed Spectral Data<<<<<
178.53	0.000
178.91	71.429
179.29	-1200.000
179.67	-200.000
180.04	207.143
180.42	170.000
180.80	240.000
181.18	-400.000
181.56	600.000
181.94	50.000
182.31	-25.000
182.69	200.000
183.07	-300.000
183.45	300.000
183.83	-150.000
184.20	33.333
184.58	300.000
184.96	-150.000
185.34	-122.222
185.72	-80.000
186.09	166.667
186.47	-0.000
186.85	120.000
187.23	-77.778
187.61	-1200.000
187.98	120.000
188.36	200.000
188.74	-75.000
189.12	133.333
189.49	-6.250
189.87	-137.500
190.25	-33.333
190.63	20.000
191.00	-33.333
191.38	0.000
191.76	-150.000
192.14	-50.000
192.51	300.000
192.89	83.333
193.27	0.000
193.65	-14.286
194.02	-1300.000
194.40	-14.286
194.78	57.143
195.15	0.000
195.53	-72.727
195.91	0.000
196.29	25.000
196.66	-7.692
197.04	-600.000
197.42	-185.714
197.79	-50.000
198.17	-37.500
198.55	-142.857
198.92	-22.222
199.30	-112.500
199.68	0.000
200.05	-21.429
200.43	-100.000
200.81	142.857
201.18	0.000
201.56	188.889
201.94	0.000
202.31	300.000
202.69	-66.667
203.07	-0.000
203.44	-44.444
203.82	-75.000
204.19	-8.333
204.57	-200.000
204.95	-137.500
205.32	-600.000
205.70	225.000
206.08	-16.667
206.45	33.333
206.83	320.000
207.20	0.000
207.58	-320.000
207.96	-66.667
208.33	33.333
208.71	116.667
209.08	-16.667
209.46	0.000
209.84	183.333
210.21	550.000
210.59	500.000
210.96	233.333
211.34	25.000
211.71	-162.500
212.09	-1700.000
212.46	0.000
212.84	850.000
213.22	-160.000
213.59	0.000
213.97	0.000
214.34	-233.333
214.72	133.333
215.09	-300.000
215.47	0.000
215.84	142.857
216.22	350.000
216.59	0.000
216.97	-80.000
217.34	-125.000
217.72	12.500
218.09	-350.000
218.47	-300.000
218.84	0.000
219.22	180.000
219.59	11.765
219.97	-45.000
220.34	350.000
220.72	66.667
221.09	0.000
221.47	200.000
221.84	-60.000
222.22	-128.571
222.59	0.000
222.97	-162.500
223.34	-240.000
223.72	-800.000
224.09	-125.000
224.46	-350.000
224.84	-80.000
225.21	-114.286
225.59	-475.000
225.96	-250.000
226.34	-7.692
226.71	250.000
227.08	-250.000
227.46	-33.333
227.83	-300.000
228.21	0.000
228.58	87.500
228.95	150.000
229.33	0.000
229.70	-20.000
230.08	63.158
230.45	120.000
230.82	-33.333
231.20	-14.286
231.57	-33.333
231.95	36.364
232.32	0.000
232.69	30.000
233.07	-325.000
233.44	-29.412
233.81	-140.000
234.19	-5.556
234.56	-27.273
234.93	17.241
235.31	-31.579
235.68	-50.000
236.05	-50.000
236.43	-7.692
236.80	8.000
237.17	-11.111
237.55	3.030
237.92	-70.000
238.29	6.452
238.67	-4.545
239.04	2.778
239.41	-4.762
239.79	13.043
240.16	11.111
240.53	-21.739
240.91	-13.725
241.28	11.475
241.65	16.418
242.02	8.108
242.40	-15.385
242.77	-5.333
243.14	-4.878
243.51	-2.632
243.89	2.564
244.26	8.911
244.63	4.902
245.00	5.607
245.38	-2.632
245.75	-6.195
246.12	2.381
246.49	3.876
246.87	2.857
247.24	5.960
247.61	3.289
247.98	3.356
248.36	-0.617
248.73	4.908
249.10	-2.186
249.47	4.975
249.84	8.377
250.22	-0.518
250.59	4.444
250.96	7.273
251.33	1.531
251.70	8.974
252.08	4.167
252.45	5.328
252.82	0.000
253.19	-1.953
253.56	8.365
253.94	3.077
254.31	2.652
254.68	5.245
255.05	7.166
255.42	3.061
255.79	1.942
256.16	4.967
256.54	0.662
256.91	6.557
257.28	4.262
257.65	4.459
258.02	2.360
258.39	4.558
258.76	7.951
259.14	6.609
259.51	4.899
259.88	2.833
260.25	4.444
260.62	6.575
260.99	7.104
261.36	6.434
261.73	0.000
262.10	4.396
262.47	4.826
262.85	10.101
263.22	2.338
263.59	2.368
263.96	6.650
264.33	1.023
264.70	5.926
265.07	7.637
265.44	8.390
265.81	4.630
266.18	5.669
266.55	7.143
266.92	2.961
267.29	4.595
267.66	4.656
268.03	5.677
268.40	5.846
268.77	4.328
269.14	5.066
269.51	3.070
269.88	4.713
270.25	5.433
270.62	5.274
270.99	6.667
271.36	6.733
271.73	4.715
272.10	7.014
272.47	5.210
272.84	5.422
273.21	6.413
273.58	4.032
273.95	5.000
274.32	5.513
274.69	4.642
275.06	5.311
275.43	4.251
275.80	7.055
276.17	5.556
276.54	5.037
276.91	5.188
277.28	4.702
277.65	5.925
278.02	4.963
278.39	2.717
278.76	3.515
279.13	3.901
279.50	5.670
279.87	5.546
280.23	4.401
280.60	5.763
280.97	6.250
281.34	2.547
281.71	6.091
282.08	4.983
282.45	3.601
282.82	4.867
283.19	2.908
283.56	3.443
283.92	4.354
284.29	6.161
284.66	4.598
285.03	3.526
285.40	5.719
285.77	4.799
286.14	4.275
286.51	3.957
286.87	5.371
287.24	4.066
287.61	4.185
287.98	4.079
288.35	4.290
288.72	3.994
289.08	3.953
289.45	5.178
289.82	3.313
290.19	3.017
290.56	4.930
290.93	3.994
291.29	4.270
291.66	4.132
292.03	3.256
292.40	5.170
292.77	2.695
293.13	2.977
293.50	2.891
293.87	4.161
294.24	4.800
294.60	3.413
294.97	4.430
295.34	4.609
295.71	1.765
296.08	4.134
296.44	3.799
296.81	3.654
297.18	3.487
297.55	4.009
297.91	3.440
298.28	3.673
298.65	4.400
299.02	4.132
299.38	4.462
299.75	3.271
300.12	2.894
300.48	3.226
300.85	4.499
301.22	4.586
301.59	2.283
301.95	4.520
302.32	3.778
302.69	4.162
303.05	3.264
303.42	3.104
303.79	3.750
304.15	3.365
304.52	3.066
304.89	3.560
305.25	4.037
305.62	3.553
305.99	4.845
306.35	4.133
306.72	3.102
307.09	2.944
307.45	3.002
307.82	4.036
308.19	3.835
308.55	4.436
308.92	4.382
309.29	3.927
309.65	3.801
310.02	2.673
310.38	3.346
310.75	4.272
311.12	4.698
311.48	2.933
311.85	3.419
312.22	4.269
312.58	3.756
312.95	4.111
313.31	4.246
313.68	4.487
314.05	4.065
314.41	4.645
314.78	3.633
315.14	4.809
315.51	4.801
315.87	5.581
316.24	4.932
316.61	5.329
316.97	3.529
317.34	4.850
317.70	5.066
318.07	4.938
318.43	5.357
318.80	6.020
319.16	4.807
319.53	3.770
319.89	4.645
320.26	5.694
320.62	5.674
320.99	5.910
321.35	5.545
321.72	5.767
322.08	5.140
322.45	5.781
322.81	5.776
323.18	4.867
323.54	6.207
323.91	6.050
324.27	5.852
324.64	6.633
325.00	5.970
325.37	5.651
325.73	7.025
326.10	5.434
326.46	6.840
326.83	6.405
327.19	6.142
327.56	6.561
327.92	6.452
328.29	5.726
328.65	5.946
329.01	6.514
329.38	6.824
329.74	7.021
330.11	7.534
330.47	6.403
330.84	5.254
331.20	7.500
331.56	7.019
331.93	7.448
332.29	6.356
332.66	6.645
333.02	6.533
333.38	5.872
333.75	5.976
334.11	6.339
334.48	6.766
334.84	6.797
335.20	6.129
335.57	6.914
335.93	7.686
336.29	5.907
336.66	6.140
337.02	6.438
337.38	7.228
337.75	6.281
338.11	7.233
338.47	7.279
338.84	5.922
339.20	5.897
339.56	5.848
339.93	7.143
340.29	7.407
340.65	7.624
341.02	7.023
341.38	6.548
341.74	6.134
342.11	6.516
342.47	5.401
342.83	6.763
343.20	6.950
343.56	6.415
343.92	6.405
344.28	6.016
344.65	7.674
345.01	6.162
345.37	7.309
345.73	4.754
346.10	6.864
346.46	4.905
346.82	6.667
347.19	6.799
347.55	7.436
347.91	6.538
348.27	6.070
348.63	6.855
349.00	6.488
349.36	6.989
349.72	6.101
350.08	7.207
350.45	5.399
350.81	6.033
351.17	6.842
351.53	5.914
351.89	6.682
352.26	6.418
352.62	6.194
352.98	5.649
353.34	6.124
353.70	6.626
354.07	7.079
354.43	5.543
354.79	5.834
355.15	5.592
355.51	7.237
355.87	6.358
356.24	6.844
356.60	6.874
356.96	6.227
357.32	5.056
357.68	4.905
358.04	6.138
358.40	6.493
358.77	6.798
359.13	5.613
359.49	4.833
359.85	6.091
360.21	5.882
360.57	5.887
360.93	5.642
361.29	6.316
361.66	5.793
362.02	6.611
362.38	6.184
362.74	6.355
363.10	6.121
363.46	6.163
363.82	4.759
364.18	6.122
364.54	6.086
364.90	5.886
365.26	5.448
365.62	6.333
365.98	6.535
366.35	5.235
366.71	6.939
367.07	6.225
367.43	6.172
367.79	6.437
368.15	6.890
368.51	5.886
368.87	6.270
369.23	6.667
369.59	5.601
369.95	5.680
370.31	6.415
370.67	5.433
371.03	6.025
371.39	5.037
371.75	6.740
372.11	6.165
372.47	5.619
372.83	7.395
373.19	6.137
373.55	5.894
373.91	5.658
374.27	6.274
374.63	5.548
374.99	6.366
375.35	6.948
375.71	6.065
376.07	6.391
376.42	6.738
376.78	6.401
377.14	5.926
377.50	5.123
377.86	6.958
378.22	5.988
378.58	5.886
378.94	5.869
379.30	5.331
379.66	5.703
380.02	6.520
380.38	6.048
380.74	5.746
381.09	6.039
381.45	6.193
381.81	5.913
382.17	5.760
382.53	5.906
382.89	6.546
383.25	6.096
383.61	5.208
383.97	5.536
384.32	5.801
384.68	5.394
385.04	6.709
385.40	5.775
385.76	6.624
386.12	5.745
386.48	6.647
386.83	6.436
387.19	5.678
387.55	5.106
387.91	5.822
388.27	5.889
388.62	6.300
388.98	6.373
389.34	5.893
389.70	6.043
390.06	6.039
390.42	6.506
390.77	6.442
391.13	6.397
391.49	5.857
391.85	5.879
392.20	6.524
392.56	6.320
392.92	6.761
393.28	5.915
393.64	5.698
393.99	6.450
394.35	5.666
394.71	6.048
395.07	5.389
395.42	5.368
395.78	7.252
396.14	6.120
396.50	5.582
396.85	5.367
397.21	6.095
397.57	5.948
397.92	6.357
398.28	4.889
398.64	5.435
399.00	5.916
399.35	5.759
399.71	5.870
400.07	6.008
400.42	5.879
400.78	6.250
401.14	6.261
401.49	5.514
401.85	5.407
402.21	6.257
402.57	6.279
402.92	5.260
403.28	5.504
403.63	4.654
403.99	5.879
404.35	5.912
404.70	5.949
405.06	5.978
405.42	5.738
405.77	6.434
406.13	5.457
406.49	5.405
406.84	5.651
407.20	5.757
407.55	5.633
407.91	5.908
408.27	5.771
408.62	5.352
408.98	5.804
409.34	4.340
409.69	5.871
410.05	6.038
410.40	6.206
410.76	5.889
411.11	5.903
411.47	5.958
411.83	5.820
412.18	5.422
412.54	5.572
412.89	5.879
413.25	5.756
413.60	5.801
413.96	6.119
414.31	5.382
414.67	6.023
415.03	5.723
415.38	5.801
415.74	5.559
416.09	6.107
416.45	5.761
416.80	5.508
417.16	5.300
417.51	6.413
417.87	5.457
418.22	5.569
418.58	5.514
418.93	5.821
419.29	5.364
419.64	4.682
420.00	5.816
420.35	5.783
420.71	5.514
421.06	5.290
421.42	5.619
421.77	5.439
422.12	5.391
422.48	5.376
422.83	6.079
423.19	5.146
423.54	5.365
423.90	5.853
424.25	5.973
424.61	5.224
424.96	5.821
425.31	6.157
425.67	5.368
426.02	4.704
426.38	4.707
426.73	5.525
427.09	6.113
427.44	5.134
427.79	5.030
428.15	4.623
428.50	5.169
428.85	5.052
429.21	6.223
429.56	5.775
429.92	5.111
430.27	5.494
430.62	4.983
430.98	5.214
431.33	4.594
431.68	5.316
432.04	4.571
432.39	5.785
432.74	5.422
433.10	5.246
433.45	4.905
433.80	5.472
434.16	5.837
434.51	5.550
434.86	4.723
435.22	5.739
435.57	5.425
435.92	5.175
436.28	6.030
436.63	5.735
436.98	5.582
437.34	4.679
437.69	5.173
438.04	4.918
438.39	5.686
438.75	4.759
439.10	6.395
439.45	5.757
439.81	5.424
440.16	5.684
440.51	5.741
440.86	5.003
441.22	5.520
441.57	5.084
441.92	5.480
442.27	5.101
442.63	6.061
442.98	5.923
443.33	5.786
443.68	6.492
444.03	6.256
444.39	5.733
444.74	5.309
445.09	5.220
445.44	5.216
445.79	5.987
446.15	6.012
446.50	4.858
446.85	6.274
447.20	5.464
447.55	5.492
447.91	5.183
448.26	4.863
448.61	5.526
448.96	5.740
449.31	5.567
449.66	5.283
450.02	5.116
450.37	5.860
450.72	5.490
451.07	5.524
451.42	5.604
451.77	5.559
452.12	5.418
452.47	4.932
452.83	5.856
453.18	5.721
453.53	5.169
453.88	5.191
454.23	5.424
454.58	5.398
454.93	5.158
455.28	5.780
455.63	5.287
455.98	5.419
456.34	5.536
456.69	5.467
457.04	5.496
457.39	5.044
457.74	6.152
458.09	5.272
458.44	5.927
458.79	6.292
459.14	5.768
459.49	5.772
459.84	5.352
460.19	5.775
460.54	5.963
460.89	5.347
461.24	4.655
461.59	6.143
461.94	5.077
462.29	5.767
462.64	4.888
462.99	5.148
463.34	5.321
463.69	5.744
464.04	5.559
464.39	5.157
464.74	5.587
465.09	4.844
465.44	5.633
465.79	5.764
466.14	5.419
466.49	5.053
466.84	5.675
467.19	5.434
467.54	4.642
467.89	5.402
468.24	5.485
468.59	4.922
468.94	5.245
469.29	5.339
469.64	5.213
469.99	5.354
470.34	4.950
470.68	4.716
471.03	4.715
471.38	4.513
471.73	4.941
472.08	4.949
472.43	5.117
472.78	5.730
473.13	5.563
473.48	5.438
473.83	5.572
474.17	6.038
474.52	4.991
474.87	5.759
475.22	5.014
475.57	5.348
475.92	5.625
476.27	5.751
476.61	5.711
476.96	4.745
477.31	5.693
477.66	5.614
478.01	6.050
478.36	5.234
478.70	5.025
479.05	5.317
479.40	5.133
479.75	5.716
480.10	5.353
480.45	5.196
480.79	5.533
481.14	5.285
481.49	5.452
481.84	5.875
482.19	5.634
482.53	5.378
482.88	5.007
483.23	4.936
483.58	5.109
483.92	5.142
484.27	5.165
484.62	4.950
484.97	5.404
485.31	5.808
485.66	5.023
486.01	5.374
486.36	5.143
486.70	5.379
487.05	5.388
487.40	5.178
487.75	5.598
488.09	5.072
488.44	5.271
488.79	6.206
489.13	5.395
489.48	4.971
489.83	5.111
490.17	5.225
490.52	5.049
490.87	4.695
491.22	4.809
491.56	5.631
491.91	5.495
492.26	4.846
492.60	5.466
492.95	5.485
493.30	5.737
493.64	5.212
493.99	5.570
494.34	4.747
494.68	4.754
495.03	5.242
495.37	4.794
495.72	4.762
496.07	5.171
496.41	4.676
496.76	5.379
497.11	4.671
497.45	5.006
497.80	5.686
498.14	4.989
498.49	4.642
498.84	5.302
499.18	5.263
499.53	4.888
499.87	5.011
500.22	4.853
500.56	4.498
500.91	4.439
501.26	4.818
501.60	5.568
501.95	5.428
502.29	4.739
502.64	4.854
502.98	5.134
503.33	4.708
503.67	5.233
504.02	4.860
504.36	5.585
504.71	4.869
505.06	5.048
505.40	5.256
505.75	5.692
506.09	5.663
506.44	5.200
506.78	5.046
507.13	5.486
507.47	5.590
507.82	5.303
508.16	4.780
508.51	5.485
508.85	4.865
509.19	5.353
509.54	5.283
509.88	5.051
510.23	5.100
510.57	5.752
510.92	4.790
511.26	4.762
511.61	4.297
511.95	4.880
512.30	5.318
512.64	4.448
512.98	5.653
513.33	5.494
513.67	4.895
514.02	5.263
514.36	5.166
514.70	4.948
515.05	5.162
515.39	4.987
515.74	5.885
516.08	4.702
516.42	5.547
516.77	5.100
517.11	5.054
517.46	4.825
517.80	5.505
518.14	5.604
518.49	4.989
518.83	5.375
519.17	4.523
519.52	5.189
519.86	5.280
520.20	5.698
520.55	5.696
520.89	4.842
521.23	5.081
521.58	4.972
521.92	5.326
522.26	4.639
522.61	4.977
522.95	4.556
523.29	4.598
523.64	4.652
523.98	5.020
524.32	5.215
524.66	5.009
525.01	5.040
525.35	4.652
525.69	5.046
526.04	4.650
526.38	5.575
526.72	5.133
527.06	4.809
527.41	5.131
527.75	5.404
528.09	4.368
528.43	5.210
528.78	4.740
529.12	4.931
529.46	5.059
529.80	5.092
530.15	4.232
530.49	4.093
530.83	4.959
531.17	4.540
531.51	5.415
531.86	4.567
532.20	5.854
532.54	4.788
532.88	4.606
533.22	5.952
533.57	6.059
533.91	5.556
534.25	4.635
534.59	4.540
534.93	5.716
535.27	5.014
535.62	6.424
535.96	5.578
536.30	5.053
536.64	5.045
536.98	5.412
537.32	5.617
537.66	4.866
538.01	5.015
538.35	4.568
538.69	4.808
539.03	5.334
539.37	5.006
539.71	5.526
540.05	5.396
540.39	4.829
540.73	4.372
541.07	5.334
541.42	5.198
541.76	4.745
542.10	4.946
542.44	3.898
542.78	5.231
543.12	4.887
543.46	5.433
543.80	4.856
544.14	5.087
544.48	5.615
544.82	5.027
545.16	5.307
545.50	4.913
545.84	3.858
546.18	6.296
546.52	4.968
546.86	5.094
547.20	4.326
547.54	4.619
547.88	5.063
548.22	5.029
548.56	4.740
548.90	4.657
549.24	5.046
549.58	4.984
549.92	4.656
550.26	5.049
550.60	4.850
550.94	5.433
551.28	5.215
551.62	4.987
551.96	5.696
552.30	5.927
552.64	4.543
552.98	4.492
553.32	5.338
553.66	5.080
554.00	4.666
554.34	4.311
554.68	4.906
555.02	4.731
555.36	5.260
555.69	4.612
556.03	3.909
556.37	5.757
556.71	5.010
557.05	5.367
557.39	5.176
557.73	5.086
558.07	4.636
558.41	4.983
558.75	4.665
559.08	4.941
559.42	4.870
559.76	5.020
560.10	4.220
560.44	5.475
560.78	5.125
561.12	4.064
561.45	4.745
561.79	4.274
562.13	4.929
562.47	4.624
562.81	4.114
563.15	4.545
563.48	4.599
563.82	5.079
564.16	4.603
564.50	4.827
564.84	5.369
565.17	4.882
565.51	4.833
565.85	4.335
566.19	4.320
566.52	4.857
566.86	4.867
567.20	4.187
567.54	3.930
567.88	4.689
568.21	4.644
568.55	5.228
568.89	5.220
569.23	4.689
569.56	4.611
569.90	5.025
570.24	4.654
570.57	4.811
570.91	4.562
571.25	4.657
571.59	5.316
571.92	4.691
572.26	4.659
572.60	5.023
572.93	5.344
573.27	4.664
573.61	4.764
573.95	4.904
574.28	5.092
574.62	4.957
574.96	4.676
575.29	4.605
575.63	4.943
575.97	5.054
576.30	4.959
576.64	4.605
576.98	4.670
577.31	4.862
577.65	5.056
577.98	4.951
578.32	4.872
578.66	4.957
578.99	4.792
579.33	4.869
579.67	4.760
580.00	4.900
580.34	4.996
580.67	4.766
581.01	4.890
581.35	4.812
581.68	4.862
582.02	4.935
582.35	5.048
582.69	4.824
583.02	4.952
583.36	5.032
583.70	4.817
584.03	4.824
584.37	4.814
584.70	4.866
585.04	4.836
585.37	4.927
585.71	4.962
586.04	4.778
586.38	4.782
586.72	4.888
587.05	4.682
587.39	4.812
587.72	4.713
588.06	4.763
588.39	4.979
588.73	4.841
589.06	4.938
589.40	4.856
589.73	4.852
590.07	5.007
590.40	5.206
590.73	5.055
591.07	5.101
591.40	4.860
591.74	4.889
592.07	5.278
592.41	4.890
592.74	4.863
593.08	5.032
593.41	4.987
593.75	4.914
594.08	4.877
594.41	4.776
594.75	4.949
595.08	5.013
595.42	4.935
595.75	4.714
596.09	5.083
596.42	5.088
596.75	4.670
597.09	4.687
597.42	4.768
597.75	4.900
598.09	5.119
598.42	5.308
598.76	4.585
599.09	4.735
599.42	4.693
599.76	5.084
600.09	5.105
600.42	4.905
600.76	4.822
601.09	5.111
601.42	4.772
601.76	4.793
602.09	4.861
602.42	4.580
602.76	5.424
603.09	4.295
603.42	4.588
603.76	4.933
604.09	5.181
604.42	4.514
604.76	5.213
605.09	4.707
605.42	5.223
605.75	5.077
606.09	4.591
606.42	4.670
606.75	4.498
607.09	4.570
607.42	4.817
607.75	4.885
608.08	4.893
608.42	5.159
608.75	4.892
609.08	4.287
609.41	4.279
609.75	4.554
610.08	5.365
610.41	4.673
610.74	4.622
611.07	4.796
611.41	4.933
611.74	5.404
612.07	5.189
612.40	4.515
612.73	4.694
613.07	5.037
613.40	4.812
613.73	5.007
614.06	4.809
614.39	4.859
614.72	5.386
615.06	4.764
615.39	4.592
615.72	4.929
616.05	4.420
616.38	4.692
616.71	4.545
617.05	4.633
617.38	5.778
617.71	4.806
618.04	5.073
618.37	5.628
618.70	5.486
619.03	5.137
619.36	4.686
619.69	3.908
620.03	4.708
620.36	4.969
620.69	4.874
621.02	5.577
621.35	4.282
621.68	5.568
622.01	4.911
622.34	4.045
622.67	4.192
623.00	3.239
623.33	4.910
623.66	5.123
623.99	3.292
624.32	5.133
624.65	4.054
624.99	4.681
625.32	5.160
625.65	5.664
625.98	4.203
626.31	4.748
626.64	4.615
626.97	3.676
627.30	3.948
627.63	4.126
627.96	5.706
628.29	4.514
628.62	2.939
628.95	3.681
629.28	4.758
629.61	5.051
629.94	4.351
630.26	4.576
630.59	3.972
630.92	4.329
631.25	4.472
631.58	4.802
631.91	3.843
632.24	4.131
632.57	3.510
632.90	3.511
633.23	4.388
633.56	4.592
633.89	3.926
634.22	3.534
634.55	4.593
634.88	4.004
635.20	5.597
635.53	3.955
635.86	5.309
636.19	6.681
636.52	5.274
636.85	5.005
637.18	4.158
637.51	4.301
637.83	5.980
638.16	4.378
638.49	3.521
638.82	5.186
639.15	4.696
639.48	5.312
639.81	4.273
640.13	4.947
640.46	3.394
640.79	2.206
641.12	4.845
641.45	3.262
641.77	5.263
642.10	4.856
642.43	5.319
642.76	5.149
643.09	3.562
643.41	4.482
643.74	3.172
644.07	4.276
644.40	3.395
644.73	3.628
645.05	3.965
645.38	3.741
645.71	3.079
646.04	6.026
646.36	2.482
646.69	3.528
647.02	5.352
647.35	4.275
647.67	4.509
648.00	2.389
648.33	4.054
648.66	4.137
648.98	2.993
649.31	4.465
649.64	4.914
649.96	3.979
650.29	2.225
650.62	4.668
650.94	4.054
651.27	4.042
651.60	4.094
651.92	3.647
652.25	3.039
652.58	4.952
652.90	2.471
653.23	5.070
653.56	4.993
653.88	5.758
654.21	4.225
654.54	2.746
654.86	3.399
655.19	4.266
655.52	4.868
655.84	5.061
656.17	5.692
656.49	7.996
656.82	8.984
657.15	6.968
657.47	5.462
657.80	4.139
658.13	3.189
658.45	4.294
658.78	5.235
659.10	5.410
659.43	6.014
