SpectraSuite Data File
++++++++++++++++++++++++++++++++++++
Date: Thu May 14 16:30:30 PDT 2015
User: schluterlab
Dark Spectrum Present: Yes
Reference Spectrum Present: Yes
Number of Sampled Component Spectra: 1
Spectrometers: USB2E3373
Integration Time (usec): 3000 (USB2E3373)
Spectra Averaged: 3 (USB2E3373)
Boxcar Smoothing: 0 (USB2E3373)
Correct for Electrical Dark: No (USB2E3373)
Strobe/Lamp Enabled: No (USB2E3373)
Correct for Detector Non-linearity: No (USB2E3373)
Correct for Stray Light: No (USB2E3373)
Number of Pixels in Processed Spectrum: 2048
>>>>>Begin Processed Spectral Data<<<<<
178.53	0.000
178.91	28.571
179.29	-1100.000
179.67	-800.000
180.04	107.143
180.42	-100.000
180.80	140.000
181.18	-1000.000
181.56	1000.000
181.94	-100.000
182.31	125.000
182.69	166.667
183.07	-150.000
183.45	-0.000
183.83	-33.333
184.20	33.333
184.58	400.000
184.96	50.000
185.34	-100.000
185.72	20.000
186.09	177.778
186.47	350.000
186.85	180.000
187.23	-100.000
187.61	-1000.000
187.98	140.000
188.36	250.000
188.74	50.000
189.12	-100.000
189.49	-37.500
189.87	-125.000
190.25	77.778
190.63	-80.000
191.00	-111.111
191.38	0.000
191.76	-225.000
192.14	-50.000
192.51	100.000
192.89	66.667
193.27	0.000
193.65	14.286
194.02	-900.000
194.40	-57.143
194.78	114.286
195.15	0.000
195.53	-9.091
195.91	0.000
196.29	125.000
196.66	30.769
197.04	500.000
197.42	42.857
197.79	-350.000
198.17	-50.000
198.55	-42.857
198.92	-22.222
199.30	-162.500
199.68	-9.091
200.05	21.429
200.43	-750.000
200.81	228.571
201.18	0.000
201.56	55.556
201.94	0.000
202.31	100.000
202.69	22.222
203.07	-400.000
203.44	33.333
203.82	-225.000
204.19	0.000
204.57	-33.333
204.95	37.500
205.32	0.000
205.70	150.000
206.08	-116.667
206.45	0.000
206.83	20.000
207.20	100.000
207.58	-280.000
207.96	-166.667
208.33	116.667
208.71	-8.333
209.08	83.333
209.46	0.000
209.84	66.667
210.21	-50.000
210.59	-150.000
210.96	-0.000
211.34	125.000
211.71	-12.500
212.09	200.000
212.46	0.000
212.84	550.000
213.22	-20.000
213.59	0.000
213.97	0.000
214.34	-300.000
214.72	-33.333
215.09	-150.000
215.47	0.000
215.84	28.571
216.22	300.000
216.59	-20.000
216.97	-60.000
217.34	0.000
217.72	87.500
218.09	50.000
218.47	-100.000
218.84	0.000
219.22	-0.000
219.59	-11.765
219.97	50.000
220.34	-0.000
220.72	11.111
221.09	53.846
221.47	400.000
221.84	-20.000
222.22	-71.429
222.59	0.000
222.97	-62.500
223.34	-140.000
223.72	100.000
224.09	-175.000
224.46	100.000
224.84	100.000
225.21	-157.143
225.59	-250.000
225.96	50.000
226.34	38.462
226.71	100.000
227.08	-350.000
227.46	-13.333
227.83	50.000
228.21	36.842
228.58	75.000
228.95	300.000
229.33	-16.667
229.70	50.000
230.08	89.474
230.45	50.000
230.82	-133.333
231.20	42.857
231.57	100.000
231.95	0.000
232.32	27.273
232.69	30.000
233.07	100.000
233.44	17.647
233.81	50.000
234.19	50.000
234.56	31.818
234.93	48.276
235.31	-15.789
235.68	0.000
236.05	-25.000
236.43	30.769
236.80	56.000
237.17	29.630
237.55	30.303
237.92	70.000
238.29	22.581
238.67	34.091
239.04	38.889
239.41	33.333
239.79	39.130
240.16	33.333
240.53	47.826
240.91	25.490
241.28	45.902
241.65	40.299
242.02	48.649
242.40	27.692
242.77	42.667
243.14	30.488
243.51	32.895
243.89	41.026
244.26	58.416
244.63	48.039
245.00	39.252
245.38	42.982
245.75	25.664
246.12	39.683
246.49	32.558
246.87	45.000
247.24	42.384
247.61	45.395
247.98	39.597
248.36	40.741
248.73	37.423
249.10	42.077
249.47	41.294
249.84	40.838
250.22	36.269
250.59	46.111
250.96	40.455
251.33	40.816
251.70	38.889
252.08	40.000
252.45	43.033
252.82	39.669
253.19	37.891
253.56	38.023
253.94	37.308
254.31	42.803
254.68	39.860
255.05	41.694
255.42	41.837
255.79	41.100
256.16	42.053
256.54	37.748
256.91	41.967
257.28	40.984
257.65	41.720
258.02	37.168
258.39	40.456
258.76	43.731
259.14	40.517
259.51	36.599
259.88	37.960
260.25	40.556
260.62	37.260
260.99	42.077
261.36	39.142
261.73	39.257
262.10	42.033
262.47	42.359
262.85	39.141
263.22	40.519
263.59	40.263
263.96	37.852
264.33	38.107
264.70	36.543
265.07	44.630
265.44	40.590
265.81	37.500
266.18	40.816
266.55	41.295
266.92	39.180
267.29	41.357
267.66	40.798
268.03	41.921
268.40	38.205
268.77	41.002
269.14	35.903
269.51	41.009
269.88	41.393
270.25	38.028
270.62	40.506
270.99	39.798
271.36	40.000
271.73	38.900
272.10	38.477
272.47	38.076
272.84	36.546
273.21	36.072
273.58	40.524
273.95	37.500
274.32	34.791
274.69	36.750
275.06	35.897
275.43	36.044
275.80	36.508
276.17	38.333
276.54	36.194
276.91	37.030
277.28	38.156
277.65	38.779
278.02	41.544
278.39	38.406
278.76	39.192
279.13	35.284
279.50	39.691
279.87	36.315
280.23	35.211
280.60	36.780
280.97	36.184
281.34	35.993
281.71	39.763
282.08	36.877
282.45	36.170
282.82	34.694
283.19	34.087
283.56	34.426
283.92	34.384
284.29	35.071
284.66	35.961
285.03	34.776
285.40	34.003
285.77	35.759
286.14	36.947
286.51	36.986
286.87	34.281
287.24	34.337
287.61	34.679
287.98	35.952
288.35	32.249
288.72	33.432
289.08	32.211
289.45	32.692
289.82	32.229
290.19	34.339
290.56	34.648
290.93	32.953
291.29	34.022
291.66	32.507
292.03	31.615
292.40	32.109
292.77	32.075
293.13	32.476
293.50	30.749
293.87	31.141
294.24	33.067
294.60	30.973
294.97	29.664
295.34	32.266
295.71	30.139
296.08	29.974
296.44	30.270
296.81	31.060
297.18	29.639
297.55	29.835
297.91	29.063
298.28	28.318
298.65	28.775
299.02	29.516
299.38	29.405
299.75	28.154
300.12	28.356
300.48	28.341
300.85	28.459
301.22	28.859
301.59	26.712
301.95	29.718
302.32	28.889
302.69	29.244
303.05	27.095
303.42	28.714
303.79	28.333
304.15	29.232
304.52	27.061
304.89	28.796
305.25	28.054
305.62	27.691
305.99	28.866
306.35	28.831
306.72	29.576
307.09	26.904
307.45	28.571
307.82	27.851
308.19	27.245
308.55	28.544
308.92	29.406
309.29	27.682
309.65	28.752
310.02	26.634
310.38	29.134
310.75	29.612
311.12	30.489
311.48	28.837
311.85	29.915
312.22	29.412
312.58	28.920
312.95	30.402
313.31	28.004
313.68	28.663
314.05	29.810
314.41	28.689
314.78	29.428
315.14	29.855
315.51	30.656
315.87	29.973
316.24	31.142
316.61	31.439
316.97	30.226
317.34	30.600
317.70	32.664
318.07	31.922
318.43	30.697
318.80	31.020
319.16	30.472
319.53	29.734
319.89	30.237
320.26	31.495
320.62	31.294
320.99	30.656
321.35	31.978
321.72	32.372
322.08	32.642
322.45	34.146
322.81	33.574
323.18	33.274
323.54	34.483
323.91	35.053
324.27	33.305
324.64	34.761
325.00	34.909
325.37	35.299
325.73	34.876
326.10	36.010
326.46	34.691
326.83	36.509
327.19	35.591
327.56	36.522
327.92	35.563
328.29	35.161
328.65	36.265
329.01	38.156
329.38	36.731
329.74	37.671
330.11	37.329
330.47	37.489
330.84	36.520
331.20	37.417
331.56	37.435
331.93	36.987
332.29	37.797
332.66	36.130
333.02	35.678
333.38	35.990
333.75	36.195
334.11	36.781
334.48	37.046
334.84	37.638
335.20	36.440
335.57	36.172
335.93	36.198
336.29	35.191
336.66	37.090
337.02	37.291
337.38	35.714
337.75	34.959
338.11	37.426
338.47	36.890
338.84	36.379
339.20	36.647
339.56	36.656
339.93	35.961
340.29	34.058
340.65	35.766
341.02	35.674
341.38	37.025
341.74	36.481
342.11	36.042
342.47	34.790
342.83	35.588
343.20	35.323
343.56	36.167
343.92	35.548
344.28	35.078
344.65	35.814
345.01	35.803
345.37	34.914
345.73	35.230
346.10	36.193
346.46	34.889
346.82	35.356
347.19	35.065
347.55	36.343
347.91	35.215
348.27	35.964
348.63	34.425
349.00	33.706
349.36	35.316
349.72	33.705
350.08	34.324
350.45	34.525
350.81	35.143
351.17	34.812
351.53	34.647
351.89	35.232
352.26	35.672
352.62	33.881
352.98	35.420
353.34	34.130
353.70	35.516
354.07	35.320
354.43	34.852
354.79	34.256
355.15	33.554
355.51	34.357
355.87	34.405
356.24	35.665
356.60	34.590
356.96	35.137
357.32	33.086
357.68	34.334
358.04	34.431
358.40	34.851
358.77	34.284
359.13	34.712
359.49	34.944
359.85	34.373
360.21	34.935
360.57	34.602
360.93	34.344
361.29	34.737
361.66	34.468
362.02	35.560
362.38	34.926
362.74	33.799
363.10	34.869
363.46	34.003
363.82	34.801
364.18	34.764
364.54	34.993
364.90	33.846
365.26	33.931
365.62	34.867
365.98	34.445
366.35	35.436
366.71	35.170
367.07	34.777
367.43	33.618
367.79	35.169
368.15	34.716
368.51	34.574
368.87	34.553
369.23	34.933
369.59	35.587
369.95	34.077
370.31	34.909
370.67	34.594
371.03	35.526
371.39	34.587
371.75	34.250
372.11	34.485
372.47	33.446
372.83	35.079
373.19	33.823
373.55	34.485
373.91	34.015
374.27	34.217
374.63	35.115
374.99	33.488
375.35	34.935
375.71	34.516
376.07	34.668
376.42	35.076
376.78	34.618
377.14	35.434
377.50	34.978
377.86	35.653
378.22	35.210
378.58	35.375
378.94	34.977
379.30	34.564
379.66	35.979
380.02	34.911
380.38	36.233
380.74	34.817
381.09	35.250
381.45	35.341
381.81	35.304
382.17	35.867
382.53	34.737
382.89	34.819
383.25	35.346
383.61	34.838
383.97	34.452
384.32	35.706
384.68	34.571
385.04	35.917
385.40	36.889
385.76	36.811
386.12	34.710
386.48	35.765
386.83	35.936
387.19	35.805
387.55	35.681
387.91	35.845
388.27	37.356
388.62	35.452
388.98	35.928
389.34	36.535
389.70	37.071
390.06	36.649
390.42	36.687
390.77	37.026
391.13	35.798
391.49	35.870
391.85	35.758
392.20	35.647
392.56	36.680
392.92	36.205
393.28	37.645
393.64	36.480
393.99	37.013
394.35	37.383
394.71	36.766
395.07	35.689
395.42	35.237
395.78	37.172
396.14	37.730
396.50	36.639
396.85	35.540
397.21	36.686
397.57	37.691
397.92	37.514
398.28	37.099
398.64	37.071
399.00	36.806
399.35	37.173
399.71	37.554
400.07	37.170
400.42	37.602
400.78	37.500
401.14	37.678
401.49	38.260
401.85	37.733
402.21	38.297
402.57	39.437
402.92	38.121
403.28	37.998
403.63	37.172
403.99	38.124
404.35	36.555
404.70	37.677
405.06	37.826
405.42	37.529
405.77	39.531
406.13	37.817
406.49	38.795
406.84	38.061
407.20	39.407
407.55	38.764
407.91	38.655
408.27	38.163
408.62	38.976
408.98	39.060
409.34	38.065
409.69	40.420
410.05	39.918
410.40	40.081
410.76	38.531
411.11	39.100
411.47	40.848
411.83	40.682
412.18	40.602
412.54	40.486
412.89	39.697
413.25	40.801
413.60	39.575
413.96	41.200
414.31	38.980
414.67	39.893
415.03	40.123
415.38	40.731
415.74	40.440
416.09	41.579
416.45	40.388
416.80	40.942
417.16	41.635
417.51	39.415
417.87	41.876
418.22	40.958
418.58	39.839
418.93	41.618
419.29	41.245
419.64	40.936
420.00	41.721
420.35	41.662
420.71	41.470
421.06	41.173
421.42	42.087
421.77	40.926
422.12	41.596
422.48	40.758
422.83	42.497
423.19	42.493
423.54	42.035
423.90	41.745
424.25	42.560
424.61	42.250
424.96	43.053
425.31	42.304
425.67	42.083
426.02	41.671
426.38	42.710
426.73	42.243
427.09	42.561
427.44	43.037
427.79	42.344
428.15	42.808
428.50	42.135
428.85	42.423
429.21	43.191
429.56	43.139
429.92	40.983
430.27	42.988
430.62	42.794
430.98	43.237
431.33	42.326
431.68	42.625
432.04	43.525
432.39	42.742
432.74	41.610
433.10	43.158
433.45	42.085
433.80	43.509
434.16	43.130
434.51	43.371
434.86	43.105
435.22	43.464
435.57	44.045
435.92	44.352
436.28	44.539
436.63	44.511
436.98	42.995
437.34	42.841
437.69	42.873
438.04	43.469
438.39	43.711
438.75	42.501
439.10	44.133
439.45	43.600
439.81	43.842
440.16	43.003
440.51	43.534
440.86	43.469
441.22	43.676
441.57	43.711
441.92	44.035
442.27	43.687
442.63	43.865
442.98	43.757
443.33	43.714
443.68	44.400
444.03	44.779
444.39	44.198
444.74	43.492
445.09	44.045
445.44	44.942
445.79	44.349
446.15	44.450
446.50	44.651
446.85	44.601
447.20	44.004
447.55	44.508
447.91	43.037
448.26	43.975
448.61	44.899
448.96	44.528
449.31	43.902
449.66	43.519
450.02	43.196
450.37	44.646
450.72	43.864
451.07	44.761
451.42	43.616
451.77	43.747
452.12	44.187
452.47	43.791
452.83	44.932
453.18	44.367
453.53	44.630
453.88	44.064
454.23	44.802
454.58	44.515
454.93	43.689
455.28	43.769
455.63	44.059
455.98	44.525
456.34	44.641
456.69	45.385
457.04	44.740
457.39	43.237
457.74	45.134
458.09	43.602
458.44	44.127
458.79	43.785
459.14	42.632
459.49	44.086
459.84	44.596
460.19	43.531
460.54	44.804
460.89	45.633
461.24	43.563
461.59	44.328
461.94	43.012
462.29	45.073
462.64	43.452
462.99	44.382
463.34	44.257
463.69	42.438
464.04	43.969
464.39	44.114
464.74	43.330
465.09	44.983
465.44	44.689
465.79	43.681
466.14	43.825
466.49	43.263
466.84	44.298
467.19	43.699
467.54	44.066
467.89	44.310
468.24	44.155
468.59	43.486
468.94	43.065
469.29	44.271
469.64	43.547
469.99	44.041
470.34	42.884
470.68	44.429
471.03	44.466
471.38	44.016
471.73	43.823
472.08	43.274
472.43	44.070
472.78	45.025
473.13	43.742
473.48	44.350
473.83	44.806
474.17	44.959
474.52	44.558
474.87	44.408
475.22	45.465
475.57	44.081
475.92	43.803
476.27	44.728
476.61	43.354
476.96	43.900
477.31	44.257
477.66	44.753
478.01	43.162
478.36	44.068
478.70	44.532
479.05	45.603
479.40	44.521
479.75	45.005
480.10	44.529
480.45	44.713
480.79	44.172
481.14	43.888
481.49	44.980
481.84	44.560
482.19	44.344
482.53	44.250
482.88	44.572
483.23	44.375
483.58	43.188
483.92	43.218
484.27	44.327
484.62	43.688
484.97	44.635
485.31	44.069
485.66	42.020
486.01	41.477
486.36	42.813
486.70	44.493
487.05	45.444
487.40	45.554
487.75	45.776
488.09	45.618
488.44	44.544
488.79	44.755
489.13	44.316
489.48	42.796
489.83	43.742
490.17	43.459
490.52	43.555
490.87	43.909
491.22	44.627
491.56	44.241
491.91	44.265
492.26	44.180
492.60	43.244
492.95	44.186
493.30	43.837
493.64	44.240
493.99	44.386
494.34	42.683
494.68	43.555
495.03	44.802
495.37	44.119
495.72	44.218
496.07	43.953
496.41	43.930
496.76	45.121
497.11	44.161
497.45	43.505
497.80	44.469
498.14	43.628
498.49	43.980
498.84	43.190
499.18	44.354
499.53	44.709
499.87	44.352
500.22	43.589
500.56	43.860
500.91	43.982
501.26	44.682
501.60	43.615
501.95	43.639
502.29	44.362
502.64	44.687
502.98	44.176
503.33	43.067
503.67	43.873
504.02	43.345
504.36	44.727
504.71	44.097
505.06	42.974
505.40	43.739
505.75	44.536
506.09	44.291
506.44	44.522
506.78	44.954
507.13	44.675
507.47	44.292
507.82	44.792
508.16	44.264
508.51	44.257
508.85	44.119
509.19	44.008
509.54	44.909
509.88	44.828
510.23	44.633
510.57	44.611
510.92	43.783
511.26	43.386
511.61	43.457
511.95	44.510
512.30	44.953
512.64	43.928
512.98	44.672
513.33	45.413
513.67	44.059
514.02	45.069
514.36	45.831
514.70	45.208
515.05	45.099
515.39	45.407
515.74	46.129
516.08	44.585
516.42	45.369
516.77	45.110
517.11	44.146
517.46	44.963
517.80	46.179
518.14	45.919
518.49	45.933
518.83	45.184
519.17	43.996
519.52	44.864
519.86	44.984
520.20	44.782
520.55	45.071
520.89	45.552
521.23	45.840
521.58	45.593
521.92	45.949
522.26	45.246
522.61	44.734
522.95	44.983
523.29	45.747
523.64	45.067
523.98	46.834
524.32	46.476
524.66	44.963
525.01	45.187
525.35	46.123
525.69	43.968
526.04	45.293
526.38	45.402
526.72	46.078
527.06	46.510
527.41	45.889
527.75	47.209
528.09	46.045
528.43	46.477
528.78	45.549
529.12	45.986
529.46	45.756
529.80	46.396
530.15	45.913
530.49	45.789
530.83	46.694
531.17	46.177
531.51	46.209
531.86	46.214
532.20	47.256
532.54	47.098
532.88	46.485
533.22	46.494
533.57	46.220
533.91	45.455
534.25	45.676
534.59	45.977
534.93	45.897
535.27	46.535
535.62	45.935
535.96	46.426
536.30	46.592
536.64	46.847
536.98	48.155
537.32	46.543
537.66	46.725
538.01	44.169
538.35	45.859
538.69	45.673
539.03	46.352
539.37	45.819
539.71	46.306
540.05	45.444
540.39	45.049
540.73	44.869
541.07	45.371
541.42	44.182
541.76	45.077
542.10	44.813
542.44	46.163
542.78	45.438
543.12	44.815
543.46	46.703
543.80	44.904
544.14	45.242
544.48	46.336
544.82	45.183
545.16	46.333
545.50	46.016
545.84	46.601
546.18	46.605
546.52	45.987
546.86	44.717
547.20	46.247
547.54	44.944
547.88	46.775
548.22	45.439
548.56	46.284
548.90	45.672
549.24	45.593
549.58	43.785
549.92	44.133
550.26	46.019
550.60	46.522
550.94	45.666
551.28	45.743
551.62	46.833
551.96	45.955
552.30	45.188
552.64	46.609
552.98	45.228
553.32	46.174
553.66	46.559
554.00	45.271
554.34	45.946
554.68	45.190
555.02	45.138
555.36	46.022
555.69	45.227
556.03	45.334
556.37	44.806
556.71	44.895
557.05	45.751
557.39	47.445
557.73	45.641
558.07	43.907
558.41	45.648
558.75	45.301
559.08	45.790
559.42	46.022
559.76	44.980
560.10	44.608
560.44	44.195
560.78	45.125
561.12	45.382
561.45	45.560
561.79	44.872
562.13	46.888
562.47	44.081
562.81	44.557
563.15	44.823
563.48	45.867
563.82	44.982
564.16	45.790
564.50	45.530
564.84	45.133
565.17	45.353
565.51	43.786
565.85	45.487
566.19	44.528
566.52	44.880
566.86	45.105
567.20	43.502
567.54	45.141
567.88	44.393
568.21	44.664
568.55	45.132
568.89	43.940
569.23	43.980
569.56	43.415
569.90	43.407
570.24	43.879
570.57	42.880
570.91	43.080
571.25	43.130
571.59	43.724
571.92	42.884
572.26	43.330
572.60	43.571
572.93	43.390
573.27	43.720
573.61	43.250
573.95	43.287
574.28	42.233
574.62	42.542
574.96	42.236
575.29	42.124
575.63	42.319
575.97	43.090
576.30	42.734
576.64	43.045
576.98	42.392
577.31	42.597
577.65	42.819
577.98	42.150
578.32	41.533
578.66	41.915
578.99	42.044
579.33	43.019
579.67	42.747
580.00	42.324
580.34	42.081
580.67	42.365
581.01	41.995
581.35	41.964
581.68	41.562
582.02	41.987
582.35	42.420
582.69	42.439
583.02	42.908
583.36	43.274
583.70	43.172
584.03	43.029
584.37	43.693
584.70	42.274
585.04	42.316
585.37	42.267
585.71	41.553
586.04	42.008
586.38	42.456
586.72	41.765
587.05	42.313
587.39	42.084
587.72	42.656
588.06	41.779
588.39	42.221
588.73	41.905
589.06	42.156
589.40	43.546
589.73	41.645
590.07	42.507
590.40	43.002
590.73	42.736
591.07	42.331
591.40	42.224
591.74	42.369
592.07	42.509
592.41	41.838
592.74	41.001
593.08	41.624
593.41	41.820
593.75	41.494
594.08	41.533
594.41	41.699
594.75	42.079
595.08	41.689
595.42	41.981
595.75	41.912
596.09	42.087
596.42	42.207
596.75	42.686
597.09	42.667
597.42	41.955
597.75	41.866
598.09	41.548
598.42	42.220
598.76	41.039
599.09	41.296
599.42	40.630
599.76	40.872
600.09	41.275
600.42	41.341
600.76	41.380
601.09	41.321
601.42	40.817
601.76	41.138
602.09	41.029
602.42	40.785
602.76	40.775
603.09	41.703
603.42	41.727
603.76	40.698
604.09	41.022
604.42	41.358
604.76	40.868
605.09	41.883
605.42	40.789
605.75	40.923
606.09	40.239
606.42	40.095
606.75	40.592
607.09	39.555
607.42	40.925
607.75	41.110
608.08	40.371
608.42	40.951
608.75	41.252
609.08	39.092
609.41	40.626
609.75	40.402
610.08	42.128
610.41	40.697
610.74	40.210
611.07	40.675
611.41	40.717
611.74	41.570
612.07	40.813
612.40	40.399
612.73	41.369
613.07	41.222
613.40	41.578
613.73	40.250
614.06	40.334
614.39	40.282
614.72	40.563
615.06	40.616
615.39	39.488
615.72	40.284
616.05	40.214
616.38	41.423
616.71	40.334
617.05	40.575
617.38	40.342
617.71	40.389
618.04	41.446
618.37	41.038
618.70	40.441
619.03	40.323
619.36	40.691
619.69	41.320
620.03	39.674
620.36	40.859
620.69	40.160
621.02	39.633
621.35	42.380
621.68	41.721
622.01	40.569
622.34	38.773
622.67	40.962
623.00	39.204
623.33	41.009
623.66	39.883
623.99	39.500
624.32	40.481
624.65	39.640
624.99	40.377
625.32	40.758
625.65	41.065
625.98	40.949
626.31	39.830
626.64	40.220
626.97	41.410
627.30	38.345
627.63	39.685
627.96	40.315
628.29	40.000
628.62	40.722
628.95	40.754
629.28	39.677
629.61	39.983
629.94	38.828
630.26	39.915
630.59	39.983
630.92	39.221
631.25	41.055
631.58	40.301
631.91	40.394
632.24	39.385
632.57	40.323
632.90	42.227
633.23	40.204
633.56	39.796
633.89	38.326
634.22	39.605
