SpectraSuite Data File
++++++++++++++++++++++++++++++++++++
Date: Thu May 14 16:26:30 PDT 2015
User: schluterlab
Dark Spectrum Present: Yes
Reference Spectrum Present: Yes
Number of Sampled Component Spectra: 1
Spectrometers: USB2E3373
Integration Time (usec): 3000 (USB2E3373)
Spectra Averaged: 3 (USB2E3373)
Boxcar Smoothing: 0 (USB2E3373)
Correct for Electrical Dark: No (USB2E3373)
Strobe/Lamp Enabled: No (USB2E3373)
Correct for Detector Non-linearity: No (USB2E3373)
Correct for Stray Light: No (USB2E3373)
Number of Pixels in Processed Spectrum: 2048
>>>>>Begin Processed Spectral Data<<<<<
178.53	0.000
178.91	42.857
179.29	-1700.000
179.67	-1700.000
180.04	85.714
180.42	-0.000
180.80	80.000
181.18	-100.000
181.56	400.000
181.94	175.000
182.31	0.000
182.69	66.667
183.07	-150.000
183.45	175.000
183.83	-100.000
184.20	233.333
184.58	500.000
184.96	-300.000
185.34	88.889
185.72	160.000
186.09	33.333
186.47	-350.000
186.85	220.000
187.23	-200.000
187.61	-800.000
187.98	40.000
188.36	-0.000
188.74	50.000
189.12	0.000
189.49	18.750
189.87	-87.500
190.25	-44.444
190.63	80.000
191.00	44.444
191.38	0.000
191.76	-275.000
192.14	-183.333
192.51	350.000
192.89	-33.333
193.27	0.000
193.65	-14.286
194.02	-700.000
194.40	-100.000
194.78	85.714
195.15	0.000
195.53	36.364
195.91	0.000
196.29	-50.000
196.66	0.000
197.04	-100.000
197.42	-14.286
197.79	0.000
198.17	-12.500
198.55	-14.286
198.92	77.778
199.30	-87.500
199.68	54.545
200.05	-21.429
200.43	-300.000
200.81	171.429
201.18	0.000
201.56	22.222
201.94	0.000
202.31	-0.000
202.69	-100.000
203.07	100.000
203.44	22.222
203.82	25.000
204.19	-50.000
204.57	-33.333
204.95	12.500
205.32	-600.000
205.70	75.000
206.08	0.000
206.45	83.333
206.83	200.000
207.20	50.000
207.58	-200.000
207.96	-100.000
208.33	116.667
208.71	83.333
209.08	50.000
209.46	0.000
209.84	133.333
210.21	250.000
210.59	100.000
210.96	200.000
211.34	0.000
211.71	-50.000
212.09	-1200.000
212.46	0.000
212.84	150.000
213.22	-80.000
213.59	-50.000
213.97	0.000
214.34	0.000
214.72	16.667
215.09	-200.000
215.47	0.000
215.84	-0.000
216.22	150.000
216.59	-120.000
216.97	-60.000
217.34	-100.000
217.72	37.500
218.09	-100.000
218.47	-25.000
218.84	0.000
219.22	20.000
219.59	29.412
219.97	0.000
220.34	200.000
220.72	-88.889
221.09	53.846
221.47	-366.667
221.84	70.000
222.22	-114.286
222.59	0.000
222.97	50.000
223.34	-220.000
223.72	-800.000
224.09	-275.000
224.46	-275.000
224.84	220.000
225.21	-57.143
225.59	-175.000
225.96	-175.000
226.34	-3.846
226.71	116.667
227.08	-350.000
227.46	86.667
227.83	50.000
228.21	36.842
228.58	-12.500
228.95	200.000
229.33	8.333
229.70	20.000
230.08	15.789
230.45	20.000
230.82	33.333
231.20	-28.571
231.57	41.667
231.95	-72.727
232.32	9.091
232.69	0.000
233.07	-25.000
233.44	23.529
233.81	-30.000
234.19	27.778
234.56	0.000
234.93	34.483
235.31	-5.263
235.68	27.778
236.05	-20.000
236.43	38.462
236.80	84.000
237.17	18.519
237.55	33.333
237.92	-50.000
238.29	-16.129
238.67	13.636
239.04	8.333
239.41	21.429
239.79	10.870
240.16	7.407
240.53	17.391
240.91	11.765
241.28	14.754
241.65	13.433
242.02	21.622
242.40	15.385
242.77	13.333
243.14	9.756
243.51	-5.263
243.89	-3.846
244.26	13.861
244.63	13.725
245.00	14.953
245.38	5.263
245.75	-4.425
246.12	16.667
246.49	6.202
246.87	12.143
247.24	11.921
247.61	13.158
247.98	11.409
248.36	14.198
248.73	1.840
249.10	10.383
249.47	11.443
249.84	17.277
250.22	13.472
250.59	11.111
250.96	11.818
251.33	10.204
251.70	10.256
252.08	11.667
252.45	13.525
252.82	9.504
253.19	9.766
253.56	9.125
253.94	11.923
254.31	13.636
254.68	14.336
255.05	10.749
255.42	13.946
255.79	13.269
256.16	10.596
256.54	10.265
256.91	13.115
257.28	9.508
257.65	10.510
258.02	7.375
258.39	9.402
258.76	13.761
259.14	13.793
259.51	9.510
259.88	11.048
260.25	11.389
260.62	13.973
260.99	15.027
261.36	14.209
261.73	10.080
262.10	9.890
262.47	10.188
262.85	16.667
263.22	10.649
263.59	8.158
263.96	13.555
264.33	11.253
264.70	11.111
265.07	14.558
265.44	12.925
265.81	11.574
266.18	10.431
266.55	12.723
266.92	11.617
267.29	15.536
267.66	12.639
268.03	12.009
268.40	9.812
268.77	9.567
269.14	9.912
269.51	10.088
269.88	13.115
270.25	15.895
270.62	13.080
270.99	13.131
271.36	11.881
271.73	14.342
272.10	11.222
272.47	12.625
272.84	11.847
273.21	12.224
273.58	11.895
273.95	10.962
274.32	11.787
274.69	11.412
275.06	11.172
275.43	9.982
275.80	13.757
276.17	10.185
276.54	12.313
276.91	10.912
277.28	13.382
277.65	13.645
278.02	11.949
278.39	11.775
278.76	11.775
279.13	11.879
279.50	12.543
279.87	13.238
280.23	9.507
280.60	12.373
280.97	13.487
281.34	12.903
281.71	13.875
282.08	11.296
282.45	11.948
282.82	9.890
283.19	11.147
283.56	11.475
283.92	13.363
284.29	12.480
284.66	13.136
285.03	9.135
285.40	11.747
285.77	11.300
286.14	11.756
286.51	12.329
286.87	12.796
287.24	10.693
287.61	11.360
287.98	11.480
288.35	11.391
288.72	11.391
289.08	12.006
289.45	10.059
289.82	10.542
290.19	10.920
290.56	10.986
290.93	13.124
291.29	11.019
291.66	9.642
292.03	10.448
292.40	11.020
292.77	10.108
293.13	12.179
293.50	9.987
293.87	9.396
294.24	11.067
294.60	9.608
294.97	8.456
295.34	10.499
295.71	9.584
296.08	8.786
296.44	8.701
296.81	9.866
297.18	9.091
297.55	9.670
297.91	8.304
298.28	8.886
298.65	9.512
299.02	9.209
299.38	9.840
299.75	8.995
300.12	8.333
300.48	10.023
300.85	9.111
301.22	9.732
301.59	8.562
301.95	8.814
302.32	8.778
302.69	8.981
303.05	10.120
303.42	9.091
303.79	9.688
304.15	8.623
304.52	9.302
304.89	10.262
305.25	9.006
305.62	9.300
305.99	10.309
306.35	8.266
306.72	8.893
307.09	9.239
307.45	8.903
307.82	8.375
308.19	8.981
308.55	9.643
308.92	9.056
309.29	10.345
309.65	7.992
310.02	9.604
310.38	9.055
310.75	9.029
311.12	11.122
311.48	9.482
311.85	10.161
312.22	9.867
312.58	8.732
312.95	9.273
313.31	10.117
313.68	11.172
314.05	10.388
314.41	11.293
314.78	11.807
315.14	12.160
315.51	12.373
315.87	11.701
316.24	10.685
316.61	12.078
316.97	11.131
317.34	11.905
317.70	11.790
318.07	12.169
318.43	12.840
318.80	13.378
319.16	12.704
319.53	12.596
319.89	12.358
320.26	13.256
320.62	13.387
320.99	14.035
321.35	15.065
321.72	14.884
322.08	14.968
322.45	15.176
322.81	15.072
323.18	16.195
323.54	16.810
323.91	16.815
324.27	16.179
324.64	18.304
325.00	17.081
325.37	17.117
325.73	19.256
326.10	18.816
326.46	18.404
326.83	20.256
327.19	18.031
327.56	20.553
327.92	19.670
328.29	19.355
328.65	20.938
329.01	20.474
329.38	21.735
329.74	23.202
330.11	22.432
330.47	22.409
330.84	21.447
331.20	22.583
331.56	23.050
331.93	22.594
332.29	23.136
332.66	24.336
333.02	22.864
333.38	23.154
333.75	22.811
334.11	22.269
334.48	24.835
334.84	22.940
335.20	23.762
335.57	23.609
335.93	23.471
336.29	23.544
336.66	24.979
337.02	24.666
337.38	24.575
337.75	23.636
338.11	24.558
338.47	24.566
338.84	25.888
339.20	23.757
339.56	24.382
339.93	23.153
340.29	23.510
340.65	24.331
341.02	24.421
341.38	25.061
341.74	24.778
342.11	25.181
342.47	25.417
342.83	25.362
343.20	25.593
343.56	24.940
343.92	25.140
344.28	25.312
344.65	26.512
345.01	25.741
345.37	26.128
345.73	25.175
346.10	25.819
346.46	26.028
346.82	25.693
347.19	25.668
347.55	26.480
347.91	25.632
348.27	26.404
348.63	26.352
349.00	26.995
349.36	26.840
349.72	25.893
350.08	26.895
350.45	26.616
350.81	27.149
351.17	26.316
351.53	27.672
351.89	27.790
352.26	27.090
352.62	27.910
352.98	27.252
353.34	26.662
353.70	26.579
354.07	27.645
354.43	27.563
354.79	27.375
355.15	27.447
355.51	28.143
355.87	27.375
356.24	28.061
356.60	27.347
356.96	28.614
357.32	27.658
357.68	27.599
358.04	27.994
358.40	28.507
358.77	29.459
359.13	28.213
359.49	27.732
359.85	28.064
360.21	28.479
360.57	27.566
360.93	29.690
361.29	29.965
361.66	29.689
362.02	29.715
362.38	28.602
362.74	29.330
363.10	28.955
363.46	30.194
363.82	29.048
364.18	30.471
364.54	29.322
364.90	30.569
365.26	29.793
365.62	30.667
365.98	30.565
366.35	30.805
366.71	30.816
367.07	30.853
367.43	32.108
367.79	30.723
368.15	30.569
368.51	30.853
368.87	31.221
369.23	30.867
369.59	30.669
369.95	31.170
370.31	32.275
370.67	31.018
371.03	32.271
371.39	31.565
371.75	32.531
372.11	31.233
372.47	31.550
372.83	32.330
373.19	30.754
373.55	31.640
373.91	31.629
374.27	31.436
374.63	32.815
374.99	31.499
375.35	33.117
375.71	32.194
376.07	32.795
376.42	31.864
376.78	33.313
377.14	31.815
377.50	33.144
377.86	33.436
378.22	32.874
378.58	34.245
378.94	33.568
379.30	32.982
379.66	32.804
380.02	33.526
380.38	33.525
380.74	32.676
381.09	33.740
381.45	33.068
381.81	34.719
382.17	33.729
382.53	33.977
382.89	34.086
383.25	34.642
383.61	34.144
383.97	34.335
384.32	33.911
384.68	34.339
385.04	34.760
385.40	35.887
385.76	35.698
386.12	34.710
386.48	34.941
386.83	35.638
387.19	34.820
387.55	34.742
387.91	35.103
388.27	35.681
388.62	34.536
388.98	35.025
389.34	35.474
389.70	36.607
390.06	34.813
390.42	34.940
390.77	35.581
391.13	35.681
391.49	37.017
391.85	36.485
392.20	35.884
392.56	35.794
392.92	35.224
393.28	35.931
393.64	35.810
393.99	35.967
394.35	36.040
394.71	36.108
395.07	35.269
395.42	35.066
395.78	36.502
396.14	36.720
396.50	34.976
396.85	35.659
397.21	36.568
397.57	35.571
397.92	36.426
398.28	35.090
398.64	34.325
399.00	35.026
399.35	36.073
399.71	35.815
400.07	37.451
400.42	35.914
400.78	36.169
401.14	36.653
401.49	36.555
401.85	35.407
402.21	35.168
402.57	37.089
402.92	36.170
403.28	35.948
403.63	37.232
403.99	35.392
404.35	35.134
404.70	35.411
405.06	35.815
405.42	36.593
405.77	35.605
406.13	35.224
406.49	34.966
406.84	35.125
407.20	36.836
407.55	35.736
407.91	35.764
408.27	35.689
408.62	36.591
408.98	36.854
409.34	36.129
409.69	36.712
410.05	36.108
410.40	36.427
410.76	35.951
411.11	36.879
411.47	36.548
411.83	36.214
412.18	36.084
412.54	35.566
412.89	35.797
413.25	35.666
413.60	35.554
413.96	35.606
414.31	35.184
414.67	34.764
415.03	35.385
415.38	36.003
415.74	35.797
416.09	35.780
416.45	34.753
416.80	36.353
417.16	34.547
417.51	35.679
417.87	35.071
418.22	35.150
418.58	35.192
418.93	35.565
419.29	35.943
419.64	35.714
420.00	36.024
420.35	35.710
420.71	35.497
421.06	34.215
421.42	34.748
421.77	34.464
422.12	34.831
422.48	35.535
422.83	35.652
423.19	35.862
423.54	35.509
423.90	34.346
424.25	35.733
424.61	35.649
424.96	35.255
425.31	35.563
425.67	35.373
426.02	35.916
426.38	34.041
426.73	35.100
427.09	35.006
427.44	35.281
427.79	34.660
428.15	35.046
428.50	33.652
428.85	34.328
429.21	34.521
429.56	34.798
429.92	34.742
430.27	34.554
430.62	34.294
430.98	34.284
431.33	33.675
431.68	33.190
432.04	35.399
432.39	34.869
432.74	34.418
433.10	34.559
433.45	34.783
433.80	34.120
434.16	34.194
434.51	34.635
434.86	35.233
435.22	34.325
435.57	34.316
435.92	34.836
436.28	34.812
436.63	34.571
436.98	34.461
437.34	34.667
437.69	34.342
438.04	34.056
438.39	32.625
438.75	33.315
439.10	34.302
439.45	33.371
439.81	32.712
440.16	33.405
440.51	33.779
440.86	33.519
441.22	34.137
441.57	35.115
441.92	33.560
442.27	33.737
442.63	32.986
442.98	33.671
443.33	33.614
443.68	33.350
444.03	33.584
444.39	34.027
444.74	33.078
445.09	32.387
445.44	33.562
445.79	33.046
446.15	33.916
446.50	33.230
446.85	32.928
447.20	33.897
447.55	33.159
447.91	32.094
448.26	33.034
448.61	33.050
448.96	33.798
449.31	32.344
449.66	32.734
450.02	32.120
450.37	33.298
450.72	32.831
451.07	32.688
451.42	31.774
451.77	32.740
452.12	33.521
452.47	32.442
452.83	33.446
453.18	31.699
453.53	32.108
453.88	32.082
454.23	32.486
454.58	34.068
454.93	32.282
455.28	32.330
455.63	31.950
455.98	31.844
456.34	31.508
456.69	31.981
457.04	32.033
457.39	31.375
457.74	32.942
458.09	30.917
458.44	31.681
458.79	30.583
459.14	31.201
459.49	31.466
459.84	31.427
460.19	30.705
460.54	31.516
460.89	30.916
461.24	30.575
461.59	30.769
461.94	30.462
462.29	31.131
462.64	31.020
462.99	31.450
463.34	31.473
463.69	29.953
464.04	31.073
464.39	30.830
464.74	30.559
465.09	30.161
465.44	30.901
465.79	29.878
466.14	29.234
466.49	29.526
466.84	30.744
467.19	29.942
467.54	29.201
467.89	28.218
468.24	29.917
468.59	29.357
468.94	29.138
469.29	28.974
469.64	28.926
469.99	29.509
470.34	29.394
470.68	29.665
471.03	29.928
471.38	29.693
471.73	28.804
472.08	29.442
472.43	29.862
472.78	28.967
473.13	28.192
473.48	28.157
473.83	29.541
474.17	29.777
474.52	29.104
474.87	28.571
475.22	28.958
475.57	28.349
475.92	28.571
476.27	28.168
476.61	27.830
476.96	27.842
477.31	28.564
477.66	28.594
478.01	28.216
478.36	27.468
478.70	27.980
479.05	27.607
479.40	27.690
479.75	28.050
480.10	26.859
480.45	27.165
480.79	26.939
481.14	27.022
481.49	26.988
481.84	27.415
482.19	26.409
482.53	26.585
482.88	27.514
483.23	26.234
483.58	26.201
483.92	26.152
484.27	25.953
484.62	25.990
484.97	25.933
485.31	25.836
485.66	24.332
486.01	23.601
486.36	23.726
486.70	24.647
487.05	24.980
487.40	24.983
487.75	25.369
488.09	25.387
488.44	24.538
488.79	25.295
489.13	24.801
489.48	25.359
489.83	25.513
490.17	25.030
490.52	24.959
490.87	24.873
491.22	24.957
491.56	25.384
491.91	24.945
492.26	25.444
492.60	25.317
492.95	25.362
493.30	24.832
493.64	24.836
493.99	25.000
494.34	24.172
494.68	24.497
495.03	24.229
495.37	25.122
495.72	24.354
496.07	24.540
496.41	23.938
496.76	24.687
497.11	24.331
497.45	24.212
497.80	25.011
498.14	23.764
498.49	24.586
498.84	24.269
499.18	24.112
499.53	23.722
499.87	23.780
500.22	23.108
500.56	22.717
500.91	23.890
501.26	23.591
501.60	23.155
501.95	24.056
502.29	22.861
502.64	23.612
502.98	22.821
503.33	22.203
503.67	22.460
504.02	23.380
504.36	22.922
504.71	22.692
505.06	22.510
505.40	23.355
505.75	22.723
506.09	22.238
506.44	22.841
506.78	22.936
507.13	22.361
507.47	23.117
507.82	22.680
508.16	22.419
508.51	21.660
508.85	22.674
509.19	22.596
509.54	22.526
509.88	22.632
510.23	22.778
510.57	22.523
510.92	22.351
511.26	22.222
511.61	21.294
511.95	21.962
512.30	22.403
512.64	21.439
512.98	22.111
513.33	21.220
513.67	21.163
514.02	22.330
514.36	21.381
514.70	21.875
515.05	22.054
515.39	21.522
515.74	22.163
516.08	21.712
516.42	22.606
516.77	21.819
517.11	21.248
517.46	21.527
517.80	22.181
518.14	22.144
518.49	21.692
518.83	21.714
519.17	21.271
519.52	21.069
519.86	21.119
520.20	21.778
520.55	20.920
520.89	20.721
521.23	21.608
521.58	22.373
521.92	21.586
522.26	19.759
522.61	20.486
522.95	21.280
523.29	21.322
523.64	20.908
523.98	20.936
524.32	21.662
524.66	21.628
525.01	20.668
525.35	20.965
525.69	20.128
526.04	20.723
526.38	21.839
526.72	21.050
527.06	20.938
527.41	20.758
527.75	21.081
528.09	20.779
528.43	20.545
528.78	19.942
529.12	20.642
529.46	19.786
529.80	20.938
530.15	20.638
530.49	20.403
530.83	20.307
531.17	20.311
531.51	21.300
531.86	21.094
532.20	20.610
532.54	19.390
532.88	20.061
533.22	20.389
533.57	19.388
533.91	20.090
534.25	19.842
534.59	20.460
534.93	19.072
535.27	19.155
535.62	19.670
535.96	19.117
536.30	19.683
536.64	20.541
536.98	20.357
537.32	20.741
537.66	19.900
538.01	19.094
538.35	18.331
538.69	18.750
539.03	19.804
539.37	18.905
539.71	19.520
540.05	19.604
540.39	18.826
540.73	18.883
541.07	19.375
541.42	18.606
541.76	17.912
542.10	19.783
542.44	18.088
542.78	19.221
543.12	19.368
543.46	18.803
543.80	19.185
544.14	18.552
544.48	18.144
544.82	19.509
545.16	18.605
545.50	18.454
545.84	18.126
546.18	20.062
546.52	18.599
546.86	18.994
547.20	19.020
547.54	18.165
547.88	17.963
548.22	18.187
548.56	18.256
548.90	17.313
549.24	18.723
549.58	18.297
549.92	17.730
550.26	18.382
550.60	18.315
550.94	18.176
551.28	17.624
551.62	19.205
551.96	17.476
552.30	18.164
552.64	18.046
552.98	17.342
553.32	19.164
553.66	18.199
554.00	17.907
554.34	18.726
554.68	17.301
555.02	18.068
555.36	19.001
555.69	16.848
556.03	17.465
556.37	18.210
556.71	17.819
557.05	17.508
557.39	17.651
557.73	17.834
558.07	17.417
558.41	18.272
558.75	17.782
559.08	18.024
559.42	17.147
559.76	17.164
560.10	17.749
560.44	17.414
560.78	17.813
561.12	16.687
561.45	17.640
561.79	17.155
562.13	17.375
562.47	16.769
562.81	16.962
563.15	16.982
563.48	17.526
563.82	17.231
564.16	16.778
564.50	16.687
564.84	17.345
565.17	17.824
565.51	16.456
565.85	17.874
566.19	16.475
566.52	16.618
566.86	17.091
567.20	16.313
567.54	16.091
567.88	16.361
568.21	17.342
568.55	15.923
568.89	15.797
569.23	16.139
569.56	15.475
569.90	15.217
570.24	15.143
570.57	14.561
570.91	14.666
571.25	14.984
571.59	15.001
571.92	14.925
572.26	14.770
572.60	14.879
572.93	14.695
573.27	14.414
573.61	14.558
573.95	14.470
574.28	14.389
574.62	13.734
574.96	13.476
575.29	14.166
575.63	14.230
575.97	14.563
576.30	14.212
576.64	13.744
576.98	14.032
577.31	14.148
577.65	14.259
577.98	13.742
578.32	13.697
578.66	13.475
578.99	13.926
579.33	14.006
579.67	14.098
580.00	13.913
580.34	14.005
580.67	14.011
581.01	13.998
581.35	13.735
581.68	13.611
582.02	13.664
582.35	13.515
582.69	13.667
583.02	13.941
583.36	13.843
583.70	13.656
584.03	13.799
584.37	13.848
584.70	13.667
585.04	13.578
585.37	13.389
585.71	13.635
586.04	13.298
586.38	13.626
586.72	13.537
587.05	13.661
587.39	13.837
587.72	13.756
588.06	13.515
588.39	13.916
588.73	13.836
589.06	13.826
589.40	13.798
589.73	14.075
590.07	13.893
590.40	14.841
590.73	13.963
591.07	14.669
591.40	13.919
591.74	14.388
592.07	13.845
592.41	13.841
592.74	13.667
593.08	13.790
593.41	14.027
593.75	13.764
594.08	13.814
594.41	13.846
594.75	13.982
595.08	13.795
595.42	13.961
595.75	14.078
596.09	14.232
596.42	13.830
596.75	13.856
597.09	14.949
597.42	14.144
597.75	14.151
598.09	13.849
598.42	14.998
598.76	13.565
599.09	13.208
599.42	13.141
599.76	13.437
600.09	13.714
600.42	13.714
600.76	13.573
601.09	13.209
601.42	13.526
601.76	13.897
602.09	13.831
602.42	13.704
602.76	13.247
603.09	13.767
603.42	13.584
603.76	13.249
604.09	14.053
604.42	13.688
604.76	13.280
605.09	13.921
605.42	13.876
605.75	13.692
606.09	13.624
606.42	13.353
606.75	13.793
607.09	13.134
607.42	14.027
607.75	14.224
608.08	13.654
608.42	13.220
608.75	14.096
609.08	13.328
609.41	13.233
609.75	13.527
610.08	13.588
610.41	12.872
610.74	13.655
611.07	13.943
611.41	13.946
611.74	14.134
612.07	13.698
612.40	14.259
612.73	13.741
613.07	13.447
613.40	13.378
613.73	14.444
614.06	13.543
614.39	13.703
614.72	14.605
615.06	13.041
615.39	13.581
615.72	13.555
616.05	14.230
616.38	13.219
616.71	13.845
617.05	13.525
617.38	14.714
617.71	14.903
618.04	14.085
618.37	14.536
618.70	14.367
619.03	13.501
619.36	14.673
619.69	14.222
620.03	14.564
620.36	14.663
620.69	13.942
621.02	14.436
621.35	15.312
621.68	16.052
622.01	15.445
622.34	13.459
622.67	14.570
623.00	14.035
623.33	14.665
623.66	14.591
623.99	14.088
624.32	15.270
624.65	13.964
624.99	15.410
625.32	14.762
625.65	14.498
625.98	15.119
626.31	14.033
626.64	15.238
626.97	13.578
627.30	14.123
627.63	13.653
627.96	14.790
628.29	15.331
628.62	15.029
628.95	14.110
629.28	15.803
629.61	14.646
629.94	13.724
630.26	14.407
630.59	14.076
630.92	13.939
631.25	15.385
631.58	15.348
631.91	14.995
632.24	16.138
632.57	16.034
632.90	16.249
633.23	16.429
633.56	15.714
633.89	15.289
634.22	15.281
634.55	15.971
634.88	15.152
635.20	17.653
635.53	14.802
635.86	16.793
