SpectraSuite Data File
++++++++++++++++++++++++++++++++++++
Date: Thu May 14 16:24:53 PDT 2015
User: schluterlab
Dark Spectrum Present: Yes
Reference Spectrum Present: Yes
Number of Sampled Component Spectra: 1
Spectrometers: USB2E3373
Integration Time (usec): 3000 (USB2E3373)
Spectra Averaged: 3 (USB2E3373)
Boxcar Smoothing: 0 (USB2E3373)
Correct for Electrical Dark: No (USB2E3373)
Strobe/Lamp Enabled: No (USB2E3373)
Correct for Detector Non-linearity: No (USB2E3373)
Correct for Stray Light: No (USB2E3373)
Number of Pixels in Processed Spectrum: 2048
>>>>>Begin Processed Spectral Data<<<<<
178.53	0.000
178.91	57.143
179.29	-1400.000
179.67	-1200.000
180.04	121.429
180.42	-40.000
180.80	100.000
181.18	-800.000
181.56	600.000
181.94	200.000
182.31	-200.000
182.69	233.333
183.07	-400.000
183.45	200.000
183.83	-16.667
184.20	-333.333
184.58	100.000
184.96	-100.000
185.34	88.889
185.72	80.000
186.09	66.667
186.47	200.000
186.85	380.000
187.23	-11.111
187.61	-600.000
187.98	280.000
188.36	225.000
188.74	-75.000
189.12	-33.333
189.49	18.750
189.87	-62.500
190.25	88.889
190.63	-20.000
191.00	-88.889
191.38	0.000
191.76	-150.000
192.14	-50.000
192.51	300.000
192.89	50.000
193.27	0.000
193.65	-28.571
194.02	-1400.000
194.40	-57.143
194.78	71.429
195.15	0.000
195.53	-9.091
195.91	0.000
196.29	100.000
196.66	38.462
197.04	-400.000
197.42	-128.571
197.79	-250.000
198.17	-50.000
198.55	28.571
198.92	-22.222
199.30	-112.500
199.68	45.455
200.05	28.571
200.43	-550.000
200.81	257.143
201.18	0.000
201.56	255.556
201.94	0.000
202.31	366.667
202.69	-77.778
203.07	300.000
203.44	44.444
203.82	-175.000
204.19	33.333
204.57	-50.000
204.95	-100.000
205.32	-1000.000
205.70	75.000
206.08	0.000
206.45	-33.333
206.83	260.000
207.20	-133.333
207.58	-200.000
207.96	-116.667
208.33	16.667
208.71	41.667
209.08	33.333
209.46	0.000
209.84	216.667
210.21	100.000
210.59	150.000
210.96	166.667
211.34	100.000
211.71	-62.500
212.09	-900.000
212.46	0.000
212.84	950.000
213.22	-40.000
213.59	-300.000
213.97	40.000
214.34	-200.000
214.72	183.333
215.09	-250.000
215.47	0.000
215.84	14.286
216.22	250.000
216.59	-20.000
216.97	-60.000
217.34	50.000
217.72	-12.500
218.09	-50.000
218.47	-175.000
218.84	0.000
219.22	-0.000
219.59	29.412
219.97	-45.000
220.34	450.000
220.72	33.333
221.09	130.769
221.47	100.000
221.84	-60.000
222.22	-100.000
222.59	0.000
222.97	-50.000
223.34	-180.000
223.72	-400.000
224.09	-225.000
224.46	-225.000
224.84	120.000
225.21	-114.286
225.59	-50.000
225.96	-250.000
226.34	15.385
226.71	83.333
227.08	-550.000
227.46	-6.667
227.83	-25.000
228.21	26.316
228.58	187.500
228.95	550.000
229.33	-16.667
229.70	-60.000
230.08	52.632
230.45	40.000
230.82	100.000
231.20	35.714
231.57	25.000
231.95	-54.545
232.32	-18.182
232.69	-40.000
233.07	-175.000
233.44	-5.882
233.81	-20.000
234.19	55.556
234.56	27.273
234.93	17.241
235.31	21.053
235.68	16.667
236.05	-5.000
236.43	23.077
236.80	16.000
237.17	11.111
237.55	-27.273
237.92	-10.000
238.29	-19.355
238.67	-4.545
239.04	33.333
239.41	-16.667
239.79	10.870
240.16	12.963
240.53	10.870
240.91	11.765
241.28	11.475
241.65	14.925
242.02	16.216
242.40	4.615
242.77	5.333
243.14	9.756
243.51	13.158
243.89	3.846
244.26	21.782
244.63	11.765
245.00	10.280
245.38	19.298
245.75	0.885
246.12	17.460
246.49	10.853
246.87	18.571
247.24	9.934
247.61	10.526
247.98	11.409
248.36	12.963
248.73	11.656
249.10	8.743
249.47	16.915
249.84	20.942
250.22	13.990
250.59	12.778
250.96	19.545
251.33	11.224
251.70	15.812
252.08	14.583
252.45	17.213
252.82	9.917
253.19	13.281
253.56	14.829
253.94	8.077
254.31	11.742
254.68	14.336
255.05	14.007
255.42	13.265
255.79	8.414
256.16	11.589
256.54	11.258
256.91	13.115
257.28	11.148
257.65	9.554
258.02	7.670
258.39	12.251
258.76	11.927
259.14	14.368
259.51	8.357
259.88	11.331
260.25	14.444
260.62	14.247
260.99	14.208
261.36	14.209
261.73	10.875
262.10	10.989
262.47	9.651
262.85	16.667
263.22	9.091
263.59	7.105
263.96	11.509
264.33	8.951
264.70	13.827
265.07	14.081
265.44	14.512
265.81	10.417
266.18	11.791
266.55	13.170
266.92	9.567
267.29	13.129
267.66	10.865
268.03	11.790
268.40	12.944
268.77	9.795
269.14	8.150
269.51	11.184
269.88	12.500
270.25	12.072
270.62	12.658
270.99	12.727
271.36	11.485
271.73	12.181
272.10	12.625
272.47	11.423
272.84	10.643
273.21	10.621
273.58	9.073
273.95	10.769
274.32	7.605
274.69	8.704
275.06	11.355
275.43	9.427
275.80	11.640
276.17	10.185
276.54	9.515
276.91	8.766
277.28	11.031
277.65	10.772
278.02	10.478
278.39	11.232
278.76	11.072
279.13	12.943
279.50	10.653
279.87	12.701
280.23	8.803
280.60	12.712
280.97	11.020
281.34	10.696
281.71	11.844
282.08	9.635
282.45	10.147
282.82	10.989
283.19	8.885
283.56	9.016
283.92	10.661
284.29	11.848
284.66	12.151
285.03	9.295
285.40	11.747
285.77	10.991
286.14	12.977
286.51	9.589
286.87	11.374
287.24	13.102
287.61	11.061
287.98	10.574
288.35	11.391
288.72	10.651
289.08	14.202
289.45	11.834
289.82	10.843
290.19	10.201
290.56	11.972
290.93	11.983
291.29	13.223
291.66	11.708
292.03	11.262
292.40	14.286
292.77	11.590
293.13	11.637
293.50	11.958
293.87	12.886
294.24	12.400
294.60	12.010
294.97	12.215
295.34	12.420
295.71	12.610
296.08	12.016
296.44	11.642
296.81	11.571
297.18	12.827
297.55	10.849
297.91	12.218
298.28	11.374
298.65	11.891
299.02	10.508
299.38	11.327
299.75	12.033
300.12	12.037
300.48	10.714
300.85	11.811
301.22	12.752
301.59	12.329
301.95	11.412
302.32	12.111
302.69	13.472
303.05	13.275
303.42	13.193
303.79	13.021
304.15	12.408
304.52	12.262
304.89	12.565
305.25	12.940
305.62	12.121
305.99	11.649
306.35	10.585
306.72	12.616
307.09	13.401
307.45	13.872
307.82	13.320
308.19	11.403
308.55	12.536
308.92	12.171
309.29	12.835
309.65	12.671
310.02	13.168
310.38	12.598
310.75	12.233
311.12	13.327
311.48	13.099
311.85	11.776
312.22	12.524
312.58	12.676
312.95	12.046
313.31	12.647
313.68	12.271
314.05	13.369
314.41	13.206
314.78	12.352
315.14	13.975
315.51	12.835
315.87	12.421
316.24	12.603
316.61	13.321
316.97	12.398
317.34	12.257
317.70	13.624
318.07	13.139
318.43	12.245
318.80	14.130
319.16	13.734
319.53	12.082
319.89	12.796
320.26	13.078
320.62	13.387
320.99	14.127
321.35	13.124
321.72	16.372
322.08	13.436
322.45	13.369
322.81	14.982
323.18	14.248
323.54	13.448
323.91	15.480
324.27	14.372
324.64	14.945
325.00	14.760
325.37	14.333
325.73	15.124
326.10	15.247
326.46	14.739
326.83	15.773
327.19	14.724
327.56	15.494
327.92	15.185
328.29	13.548
328.65	14.908
329.01	14.975
329.38	14.659
329.74	17.380
330.11	15.497
330.47	16.344
330.84	15.418
331.20	14.500
331.56	14.558
331.93	16.904
332.29	16.017
332.66	15.615
333.02	15.829
333.38	15.520
333.75	14.478
334.11	14.429
334.48	15.264
334.84	15.633
335.20	14.945
335.57	14.671
335.93	15.207
336.29	14.393
336.66	15.728
337.02	14.967
337.38	14.796
337.75	15.289
338.11	14.718
338.47	14.806
338.84	13.959
339.20	14.322
339.56	14.580
339.93	13.793
340.29	15.056
340.65	15.247
341.02	14.445
341.38	16.249
341.74	14.447
342.11	15.447
342.47	13.741
342.83	14.895
343.20	14.718
343.56	13.953
343.92	15.292
344.28	15.391
344.65	15.039
345.01	14.821
345.37	15.241
345.73	14.575
346.10	15.289
346.46	14.399
346.82	14.682
347.19	15.661
347.55	15.781
347.91	15.602
348.27	15.326
348.63	15.232
349.00	14.541
349.36	14.052
349.72	16.146
350.08	15.082
350.45	15.209
350.81	14.178
351.17	15.489
351.53	14.936
351.89	15.793
352.26	14.254
352.62	15.224
352.98	14.962
353.34	14.339
353.70	15.100
354.07	15.276
354.43	14.047
354.79	14.510
355.15	14.128
355.51	14.839
355.87	13.089
356.24	14.981
356.60	14.560
356.96	14.455
357.32	15.093
357.68	14.495
358.04	14.596
358.40	15.448
358.77	14.620
359.13	15.140
359.49	14.201
359.85	15.373
360.21	14.562
360.57	14.286
360.93	15.162
361.29	16.140
361.66	14.555
362.02	16.145
362.38	15.320
362.74	15.433
363.10	15.475
363.46	15.374
363.82	15.412
364.18	15.341
364.54	14.869
364.90	14.983
365.26	14.621
365.62	15.333
365.98	15.861
366.35	14.765
366.71	15.850
367.07	15.088
367.43	15.167
367.79	15.859
368.15	15.786
368.51	15.426
368.87	15.676
369.23	15.733
369.59	15.847
369.95	15.686
370.31	17.151
370.67	15.887
371.03	15.789
371.39	16.051
371.75	15.543
372.11	16.192
372.47	16.046
372.83	16.230
373.19	15.744
373.55	16.192
373.91	15.883
374.27	16.818
374.63	16.915
374.99	16.512
375.35	16.753
375.71	16.065
376.07	16.656
376.42	16.373
376.78	16.470
377.14	15.970
377.50	17.331
377.86	17.672
378.22	17.305
378.58	17.955
378.94	16.373
379.30	16.872
379.66	16.814
380.02	17.196
380.38	17.339
380.74	17.127
381.09	17.131
381.45	17.557
381.81	17.740
382.17	17.755
382.53	17.193
382.89	17.381
383.25	17.995
383.61	17.708
383.97	18.257
384.32	17.285
384.68	16.995
385.04	17.293
385.40	18.032
385.76	17.995
386.12	16.936
386.48	17.706
386.83	18.832
387.19	17.671
387.55	17.606
387.91	17.466
388.27	17.494
388.62	17.526
388.98	18.387
389.34	18.150
389.70	17.955
390.06	18.058
390.42	18.373
390.77	18.302
391.13	17.840
391.49	18.478
391.85	17.576
392.20	17.912
392.56	19.374
392.92	18.811
393.28	18.574
393.64	18.603
393.99	19.117
394.35	19.159
394.71	19.521
395.07	17.844
395.42	19.132
395.78	19.439
396.14	18.598
396.50	18.527
396.85	18.485
397.21	18.284
397.57	17.962
397.92	18.671
398.28	17.599
398.64	18.593
399.00	18.168
399.35	18.796
399.71	18.696
400.07	18.529
400.42	18.102
400.78	18.866
401.14	18.725
401.49	18.931
401.85	18.372
402.21	19.467
402.57	19.718
402.92	19.267
403.28	18.033
403.63	17.780
403.99	18.230
404.35	18.647
404.70	18.924
405.06	17.989
405.42	18.326
405.77	18.539
406.13	19.449
406.49	18.975
406.84	19.391
407.20	18.502
407.55	18.655
407.91	18.793
408.27	18.610
408.62	19.372
408.98	19.501
409.34	19.296
409.69	19.592
410.05	19.637
410.40	20.302
410.76	19.125
411.11	19.638
411.47	19.287
411.83	19.400
412.18	19.398
412.54	19.146
412.89	19.267
413.25	19.413
413.60	19.184
413.96	20.047
414.31	18.074
414.67	19.439
415.03	19.815
415.38	19.168
415.74	19.304
416.09	19.432
416.45	19.537
416.80	19.584
417.16	19.349
417.51	18.929
417.87	19.497
418.22	19.281
418.58	19.207
418.93	19.849
419.29	18.681
419.64	18.487
420.00	19.228
420.35	19.820
420.71	19.012
421.06	19.264
421.42	19.495
421.77	19.009
422.12	19.556
422.48	19.099
422.83	19.551
423.19	19.629
423.54	19.469
423.90	19.492
424.25	19.520
424.61	18.485
424.96	19.001
425.31	19.480
425.67	18.733
426.02	19.480
426.38	19.460
426.73	19.029
427.09	19.377
427.44	18.078
427.79	18.574
428.15	18.721
428.50	18.034
428.85	18.312
429.21	19.309
429.56	18.657
429.92	18.231
430.27	18.892
430.62	19.003
430.98	18.298
431.33	18.377
431.68	18.247
432.04	18.588
432.39	18.640
432.74	19.121
433.10	18.605
433.45	18.562
433.80	18.455
434.16	18.130
434.51	18.243
434.86	18.404
435.22	19.075
435.57	19.045
435.92	19.199
436.28	18.828
436.63	18.842
436.98	18.089
437.34	17.982
437.69	18.217
438.04	17.715
438.39	18.093
438.75	18.705
439.10	19.239
439.45	17.496
439.81	18.249
440.16	18.177
440.51	18.004
440.86	18.621
441.22	18.060
441.57	18.134
441.92	18.914
442.27	17.980
442.63	18.182
442.98	17.930
443.33	18.096
443.68	19.177
444.03	18.297
444.39	18.493
444.74	18.070
445.09	17.689
445.44	18.072
445.79	18.822
446.15	18.397
446.50	18.346
446.85	18.726
447.20	18.230
447.55	18.462
447.91	17.801
448.26	17.812
448.61	17.375
448.96	18.777
449.31	17.709
449.66	17.810
450.02	18.091
450.37	18.700
450.72	17.976
451.07	18.280
451.42	17.447
451.77	17.232
452.12	17.777
452.47	17.112
452.83	18.187
453.18	17.104
453.53	18.150
453.88	17.835
454.23	17.684
454.58	18.282
454.93	17.415
455.28	18.182
455.63	17.965
455.98	17.654
456.34	17.432
456.69	17.813
457.04	16.903
457.39	18.016
457.74	17.338
458.09	17.408
458.44	17.726
458.79	17.844
459.14	17.567
459.49	17.374
459.84	17.366
460.19	17.268
460.54	17.604
460.89	17.258
461.24	16.839
461.59	17.266
461.94	16.657
462.29	16.797
462.64	16.898
462.99	16.761
463.34	17.586
463.69	16.471
464.04	18.288
464.39	16.816
464.74	17.218
465.09	16.321
465.44	17.006
465.79	17.398
466.14	16.832
466.49	16.842
466.84	16.474
467.19	17.746
467.54	16.216
467.89	15.632
468.24	16.288
468.59	16.734
468.94	16.783
469.29	15.897
469.64	16.211
469.99	16.444
470.34	16.337
470.68	17.088
471.03	16.765
471.38	16.154
471.73	16.450
472.08	16.180
472.43	16.496
472.78	17.128
473.13	17.130
473.48	16.616
473.83	17.063
474.17	16.295
474.52	15.935
474.87	16.611
475.22	17.352
475.57	16.303
475.92	16.625
476.27	16.720
476.61	16.407
476.96	16.111
477.31	16.287
477.66	16.264
478.01	16.065
478.36	16.451
478.70	16.256
479.05	16.616
479.40	15.992
479.75	16.427
480.10	16.059
480.45	16.408
480.79	16.599
481.14	16.544
481.49	16.038
481.84	15.840
482.19	16.645
482.53	15.566
482.88	15.995
483.23	15.740
483.58	15.459
483.92	15.559
484.27	15.961
484.62	15.718
484.97	16.096
485.31	14.960
485.66	15.042
486.01	15.254
486.36	15.399
486.70	15.992
487.05	15.808
487.40	15.858
487.75	15.929
488.09	15.216
488.44	14.735
488.79	15.346
489.13	15.062
489.48	15.068
489.83	15.252
490.17	14.459
490.52	15.189
490.87	15.271
491.22	14.948
491.56	15.358
491.91	15.089
492.26	15.015
492.60	15.129
492.95	15.007
493.30	14.612
493.64	15.506
493.99	14.737
494.34	14.808
494.68	14.989
495.03	14.846
495.37	14.692
495.72	15.193
496.07	14.636
496.41	13.685
496.76	14.804
497.11	14.225
497.45	14.458
497.80	14.527
498.14	15.011
498.49	14.200
498.84	14.808
499.18	14.215
499.53	14.484
499.87	14.549
500.22	13.758
500.56	14.305
500.91	14.508
501.26	14.818
501.60	14.450
501.95	13.982
502.29	14.524
502.64	14.254
502.98	13.805
503.33	13.780
503.67	13.825
504.02	13.967
504.36	13.584
504.71	14.286
505.06	13.597
505.40	13.711
505.75	13.570
506.09	13.996
506.44	13.603
506.78	14.220
507.13	14.385
507.47	13.643
507.82	13.873
508.16	13.241
508.51	13.643
508.85	14.077
509.19	14.306
509.54	14.505
509.88	13.502
510.23	13.745
510.57	13.678
510.92	14.369
511.26	13.660
511.61	13.037
511.95	14.202
512.30	14.032
512.64	13.343
512.98	14.057
513.33	14.365
513.67	13.565
514.02	13.848
514.36	13.453
514.70	13.177
515.05	13.921
515.39	14.173
515.74	13.521
516.08	13.576
516.42	13.867
516.77	13.828
517.11	13.306
517.46	13.998
517.80	14.324
518.14	13.874
518.49	13.666
518.83	13.411
519.17	12.870
519.52	13.627
519.86	12.830
520.20	13.951
520.55	13.253
520.89	13.288
521.23	13.289
521.58	13.785
521.92	13.994
522.26	12.715
522.61	13.310
522.95	13.899
523.29	13.333
523.64	12.724
523.98	14.147
524.32	13.811
524.66	13.204
525.01	13.024
525.35	13.383
525.69	12.761
526.04	13.088
526.38	13.161
526.72	13.033
527.06	13.724
527.41	13.003
527.75	13.539
528.09	13.282
528.43	12.611
528.78	12.717
529.12	12.959
529.46	12.929
529.80	12.700
530.15	12.870
530.49	11.981
530.83	13.400
531.17	12.545
531.51	13.177
531.86	13.582
532.20	13.110
532.54	12.807
532.88	12.485
533.22	12.905
533.57	13.099
533.91	12.907
534.25	12.945
534.59	12.701
534.93	12.054
535.27	13.070
535.62	13.076
535.96	12.841
536.30	12.573
536.64	12.492
536.98	13.100
537.32	13.210
537.66	12.726
538.01	12.628
538.35	11.876
538.69	12.620
539.03	12.876
539.37	12.309
539.71	11.772
540.05	13.189
540.39	12.775
540.73	12.447
541.07	12.508
541.42	11.991
541.76	11.922
542.10	12.364
542.44	12.058
542.78	13.260
543.12	12.396
543.46	11.477
543.80	11.511
544.14	12.448
544.48	12.293
544.82	12.268
545.16	11.747
545.50	11.504
545.84	12.186
546.18	12.160
546.52	11.465
546.86	11.321
547.20	12.150
547.54	11.423
547.88	12.236
548.22	12.632
548.56	10.884
548.90	11.284
549.24	12.097
549.58	11.735
549.92	11.224
550.26	11.909
550.60	11.295
550.94	11.643
551.28	11.353
551.62	11.456
551.96	11.003
552.30	11.918
552.64	11.201
552.98	11.104
553.32	12.412
553.66	12.347
554.00	11.665
554.34	11.647
554.68	11.039
555.02	11.104
555.36	11.571
555.69	11.083
556.03	10.593
556.37	11.640
556.71	10.843
557.05	11.502
557.39	11.148
557.73	11.030
558.07	10.464
558.41	10.698
558.75	10.548
559.08	10.717
559.42	11.454
559.76	11.601
560.10	11.119
560.44	11.016
560.78	11.000
561.12	11.084
561.45	11.496
561.79	11.416
562.13	11.091
562.47	10.727
562.81	11.139
563.15	11.111
563.48	11.187
563.82	11.185
564.16	10.115
564.50	10.548
564.84	10.324
565.17	11.118
565.51	10.932
565.85	10.273
566.19	10.599
566.52	10.357
566.86	10.753
567.20	10.984
567.54	10.515
567.88	11.060
568.21	11.166
568.55	10.264
568.89	10.803
569.23	11.027
569.56	10.590
569.90	10.620
570.24	10.084
570.57	10.840
570.91	10.196
571.25	10.385
571.59	11.049
571.92	10.394
572.26	10.508
572.60	10.128
572.93	10.353
573.27	10.424
573.61	10.535
573.95	10.221
574.28	9.951
574.62	9.959
574.96	9.903
575.29	10.134
575.63	9.933
575.97	10.419
576.30	9.771
576.64	10.165
576.98	10.137
577.31	10.031
577.65	10.132
577.98	9.940
578.32	9.781
578.66	9.593
578.99	9.932
579.33	9.560
579.67	9.633
580.00	10.025
580.34	9.926
580.67	9.885
581.01	9.714
581.35	9.975
581.68	9.920
582.02	9.707
582.35	9.701
582.69	9.990
583.02	9.774
583.36	10.105
583.70	9.657
584.03	9.383
584.37	9.874
584.70	9.609
585.04	9.602
585.37	9.545
585.71	9.773
586.04	9.621
586.38	9.424
586.72	9.401
587.05	9.568
587.39	9.599
587.72	9.641
588.06	9.623
588.39	9.360
588.73	9.312
589.06	9.622
589.40	9.404
589.73	9.608
590.07	9.715
590.40	9.736
590.73	9.261
591.07	9.792
591.40	9.331
591.74	9.102
592.07	9.460
592.41	9.503
592.74	9.904
593.08	9.459
593.41	9.740
593.75	9.368
594.08	9.664
594.41	9.519
594.75	9.067
595.08	9.253
595.42	9.351
595.75	9.267
596.09	9.556
596.42	9.172
596.75	9.031
597.09	9.535
597.42	9.337
597.75	9.643
598.09	9.405
598.42	9.570
598.76	9.133
599.09	9.114
599.42	9.219
599.76	9.079
600.09	9.109
600.42	9.243
600.76	9.181
601.09	8.729
601.42	8.685
601.76	9.207
602.09	8.935
602.42	8.760
602.76	9.188
603.09	8.921
603.42	8.707
603.76	8.809
604.09	9.794
604.42	8.550
604.76	8.980
605.09	8.935
605.42	9.091
605.75	9.115
606.09	8.660
606.42	9.157
606.75	8.471
607.09	8.295
607.42	8.671
607.75	9.027
608.08	8.682
608.42	8.988
608.75	8.831
609.08	8.871
609.41	8.778
609.75	9.241
610.08	9.059
610.41	8.879
610.74	7.941
611.07	8.748
611.41	9.103
611.74	9.145
612.07	9.116
612.40	8.508
612.73	8.557
613.07	8.509
613.40	8.807
613.73	8.763
614.06	9.028
614.39	8.844
614.72	8.443
615.06	8.277
615.39	8.023
615.72	8.389
616.05	8.111
616.38	9.183
616.71	8.621
617.05	8.413
617.38	9.149
617.71	8.585
618.04	8.365
618.37	9.126
618.70	8.258
619.03	8.065
619.36	8.816
619.69	9.289
620.03	8.851
620.36	8.528
620.69	8.575
621.02	9.186
621.35	8.200
621.68	9.183
622.01	8.826
622.34	8.020
622.67	7.973
623.00	7.085
623.33	8.759
623.66	8.885
623.99	7.768
624.32	9.617
624.65	7.658
624.99	8.257
625.32	8.818
625.65	8.699
625.98	8.068
626.31	7.938
626.64	8.571
626.97	8.852
627.30	6.834
627.63	8.027
627.96	9.985
628.29	8.638
628.62	7.305
628.95	7.537
629.28	7.816
629.61	8.586
629.94	8.452
630.26	7.966
630.59	7.513
630.92	7.965
631.25	9.034
631.58	8.286
631.91	7.123
632.24	7.493
632.57	9.298
632.90	7.422
633.23	7.653
633.56	7.449
633.89	7.335
634.22	8.212
634.55	8.038
634.88	7.035
635.20	8.719
635.53	8.136
635.86	8.017
636.19	9.226
636.52	8.544
636.85	8.274
637.18	8.524
637.51	8.710
637.83	8.084
638.16	7.373
638.49	7.629
