SpectraSuite Data File
++++++++++++++++++++++++++++++++++++
Date: Thu May 14 16:23:52 PDT 2015
User: schluterlab
Dark Spectrum Present: Yes
Reference Spectrum Present: Yes
Number of Sampled Component Spectra: 1
Spectrometers: USB2E3373
Integration Time (usec): 3000 (USB2E3373)
Spectra Averaged: 3 (USB2E3373)
Boxcar Smoothing: 0 (USB2E3373)
Correct for Electrical Dark: No (USB2E3373)
Strobe/Lamp Enabled: No (USB2E3373)
Correct for Detector Non-linearity: No (USB2E3373)
Correct for Stray Light: No (USB2E3373)
Number of Pixels in Processed Spectrum: 2048
>>>>>Begin Processed Spectral Data<<<<<
178.53	0.000
178.91	-0.000
179.29	-700.000
179.67	-800.000
180.04	135.714
180.42	10.000
180.80	120.000
181.18	-900.000
181.56	700.000
181.94	175.000
182.31	-25.000
182.69	200.000
183.07	-250.000
183.45	350.000
183.83	-66.667
184.20	-200.000
184.58	-100.000
184.96	-225.000
185.34	-11.111
185.72	120.000
186.09	133.333
186.47	300.000
186.85	320.000
187.23	-77.778
187.61	-700.000
187.98	100.000
188.36	300.000
188.74	-200.000
189.12	-33.333
189.49	-18.750
189.87	0.000
190.25	66.667
190.63	-60.000
191.00	-55.556
191.38	0.000
191.76	-125.000
192.14	-116.667
192.51	400.000
192.89	33.333
193.27	0.000
193.65	0.000
194.02	-1200.000
194.40	28.571
194.78	171.429
195.15	0.000
195.53	-72.727
195.91	0.000
196.29	-100.000
196.66	38.462
197.04	-1300.000
197.42	-128.571
197.79	-250.000
198.17	-87.500
198.55	-57.143
198.92	33.333
199.30	-100.000
199.68	18.182
200.05	71.429
200.43	-200.000
200.81	171.429
201.18	0.000
201.56	255.556
201.94	0.000
202.31	166.667
202.69	0.000
203.07	-600.000
203.44	44.444
203.82	-225.000
204.19	50.000
204.57	-16.667
204.95	-75.000
205.32	-1000.000
205.70	200.000
206.08	-83.333
206.45	83.333
206.83	200.000
207.20	-150.000
207.58	-420.000
207.96	-100.000
208.33	33.333
208.71	50.000
209.08	33.333
209.46	0.000
209.84	333.333
210.21	300.000
210.59	400.000
210.96	100.000
211.34	75.000
211.71	12.500
212.09	-500.000
212.46	0.000
212.84	700.000
213.22	-40.000
213.59	100.000
213.97	20.000
214.34	-300.000
214.72	150.000
215.09	-275.000
215.47	0.000
215.84	85.714
216.22	650.000
216.59	80.000
216.97	-60.000
217.34	150.000
217.72	-25.000
218.09	-250.000
218.47	-100.000
218.84	0.000
219.22	-0.000
219.59	-11.765
219.97	-15.000
220.34	800.000
220.72	-11.111
221.09	7.692
221.47	-100.000
221.84	-30.000
222.22	-142.857
222.59	0.000
222.97	-37.500
223.34	-200.000
223.72	-700.000
224.09	-125.000
224.46	50.000
224.84	-160.000
225.21	-185.714
225.59	-200.000
225.96	-325.000
226.34	3.846
226.71	233.333
227.08	-300.000
227.46	-60.000
227.83	-200.000
228.21	42.105
228.58	87.500
228.95	-50.000
229.33	-33.333
229.70	30.000
230.08	63.158
230.45	100.000
230.82	-300.000
231.20	0.000
231.57	-25.000
231.95	-45.455
232.32	-18.182
232.69	20.000
233.07	75.000
233.44	-17.647
233.81	-70.000
234.19	27.778
234.56	9.091
234.93	20.690
235.31	0.000
235.68	-22.222
236.05	-60.000
236.43	38.462
236.80	60.000
237.17	-7.407
237.55	-3.030
237.92	-90.000
238.29	9.677
238.67	2.273
239.04	-5.556
239.41	4.762
239.79	6.522
240.16	16.667
240.53	0.000
240.91	-3.922
241.28	1.639
241.65	7.463
242.02	25.676
242.40	4.615
242.77	20.000
243.14	9.756
243.51	5.263
243.89	2.564
244.26	22.772
244.63	13.725
245.00	13.084
245.38	10.526
245.75	6.195
246.12	19.841
246.49	10.853
246.87	18.571
247.24	19.868
247.61	15.789
247.98	11.409
248.36	19.753
248.73	13.497
249.10	18.033
249.47	19.403
249.84	23.037
250.22	11.399
250.59	16.111
250.96	19.545
251.33	12.755
251.70	20.513
252.08	15.833
252.45	16.803
252.82	16.116
253.19	14.453
253.56	18.251
253.94	15.385
254.31	13.636
254.68	20.979
255.05	17.264
255.42	17.347
255.79	14.239
256.16	15.563
256.54	14.570
256.91	16.066
257.28	16.393
257.65	11.783
258.02	17.404
258.39	14.815
258.76	20.489
259.14	19.253
259.51	17.579
259.88	12.181
260.25	16.111
260.62	14.795
260.99	16.667
261.36	16.086
261.73	14.589
262.10	18.407
262.47	17.426
262.85	18.939
263.22	16.104
263.59	11.842
263.96	16.113
264.33	14.834
264.70	16.049
265.07	19.093
265.44	19.955
265.81	14.120
266.18	16.100
266.55	16.741
266.92	15.945
267.29	17.287
267.66	14.634
268.03	18.777
268.40	16.075
268.77	16.173
269.14	14.758
269.51	15.351
269.88	16.189
270.25	17.304
270.62	16.456
270.99	17.778
271.36	16.040
271.73	16.896
272.10	18.236
272.47	14.629
272.84	16.064
273.21	16.032
273.58	17.137
273.95	16.154
274.32	15.019
274.69	14.313
275.06	16.300
275.43	15.527
275.80	17.813
276.17	15.741
276.54	14.925
276.91	15.564
277.28	16.456
277.65	16.697
278.02	16.912
278.39	14.493
278.76	16.872
279.13	16.312
279.50	18.213
279.87	15.742
280.23	13.556
280.60	16.102
280.97	15.296
281.34	15.450
281.71	17.766
282.08	17.276
282.45	15.057
282.82	15.542
283.19	14.216
283.56	14.098
283.92	16.066
284.29	18.167
284.66	17.077
285.03	14.263
285.40	17.774
285.77	16.099
286.14	17.557
286.51	16.743
286.87	14.692
287.24	17.018
287.61	15.396
287.98	13.293
288.35	16.864
288.72	15.237
289.08	15.520
289.45	13.462
289.82	14.157
290.19	14.943
290.56	14.648
290.93	14.408
291.29	13.912
291.66	14.050
292.03	14.518
292.40	16.599
292.77	13.477
293.13	13.532
293.50	13.535
293.87	14.228
294.24	13.867
294.60	15.424
294.97	13.020
295.34	15.237
295.71	14.124
296.08	13.824
296.44	14.093
296.81	15.469
297.18	13.574
297.55	12.736
297.91	13.760
298.28	13.626
298.65	14.507
299.02	14.404
299.38	13.387
299.75	12.734
300.12	12.847
300.48	12.788
300.85	14.623
301.22	14.877
301.59	14.954
301.95	13.785
302.32	15.444
302.69	12.705
303.05	12.949
303.42	13.415
303.79	13.333
304.15	14.721
304.52	13.214
304.89	14.346
305.25	15.114
305.62	13.271
305.99	14.124
306.35	14.315
306.72	14.891
307.09	13.503
307.45	14.493
307.82	14.127
308.19	14.329
308.55	14.947
308.92	14.119
309.29	16.092
309.65	14.035
310.02	13.762
310.38	14.173
310.75	15.728
311.12	14.765
311.48	15.445
311.85	15.290
312.22	14.611
312.58	16.338
312.95	14.818
313.31	15.357
313.68	16.667
314.05	17.344
314.41	17.486
314.78	15.350
315.14	16.969
315.51	17.636
315.87	17.732
316.24	16.347
316.61	17.673
316.97	17.557
317.34	17.901
317.70	18.603
318.07	17.196
318.43	18.963
318.80	19.816
319.16	18.798
319.53	17.738
319.89	18.668
320.26	19.039
320.62	19.238
320.99	19.391
321.35	20.518
321.72	20.000
322.08	18.936
322.45	21.409
322.81	20.939
323.18	21.239
323.54	21.466
323.91	22.331
324.27	22.289
324.64	22.082
325.00	21.808
325.37	23.915
325.73	22.810
326.10	23.925
326.46	24.837
326.83	24.900
327.19	23.543
327.56	24.506
327.92	23.603
328.29	24.435
328.65	23.953
329.01	24.535
329.38	24.937
329.74	26.627
330.11	24.229
330.47	25.779
330.84	25.754
331.20	26.000
331.56	25.563
331.93	27.197
332.29	26.356
332.66	26.578
333.02	26.131
333.38	26.342
333.75	26.768
334.11	26.939
334.48	26.980
334.84	27.273
335.20	26.029
335.57	26.054
335.93	27.851
336.29	26.040
336.66	26.325
337.02	26.756
337.38	26.871
337.75	26.529
338.11	27.923
338.47	27.378
338.84	26.734
339.20	26.285
339.56	27.100
339.93	27.422
340.29	26.731
340.65	27.656
341.02	27.694
341.38	27.971
341.74	27.038
342.11	27.916
342.47	28.118
342.83	27.536
343.20	27.964
343.56	27.987
343.92	28.263
344.28	27.734
344.65	28.295
345.01	27.769
345.37	28.305
345.73	28.293
346.10	29.095
346.46	27.848
346.82	28.464
347.19	29.106
347.55	29.135
347.91	27.563
348.27	28.300
348.63	27.951
349.00	27.815
349.36	28.699
349.72	29.464
350.08	28.900
350.45	29.430
350.81	28.884
351.17	29.248
351.53	29.795
351.89	29.841
352.26	28.507
352.62	30.597
352.98	29.695
353.34	28.977
353.70	30.277
354.07	29.434
354.43	30.372
354.79	29.245
355.15	30.684
355.51	31.213
355.87	30.067
356.24	30.494
356.60	29.860
356.96	29.726
357.32	30.186
357.68	29.722
358.04	31.063
358.40	30.821
358.77	31.287
359.13	31.388
359.49	32.119
359.85	31.472
360.21	30.631
360.57	31.299
360.93	30.606
361.29	31.789
361.66	31.933
362.02	32.289
362.38	31.413
362.74	31.844
363.10	32.669
363.46	32.548
363.82	31.889
364.18	32.864
364.54	32.158
364.90	32.910
365.26	32.138
365.62	31.733
365.98	34.581
366.35	32.148
366.71	33.061
367.07	33.694
367.43	34.143
367.79	33.643
368.15	34.247
368.51	32.815
368.87	34.226
369.23	33.800
369.59	35.041
369.95	33.469
370.31	34.504
370.67	33.356
371.03	34.418
371.39	33.647
371.75	34.388
372.11	34.621
372.47	34.462
372.83	35.144
373.19	34.223
373.55	34.959
373.91	34.288
374.27	34.411
374.63	35.792
374.99	34.748
375.35	36.753
375.71	35.226
376.07	34.861
376.42	35.327
376.78	35.550
377.14	35.371
377.50	37.255
377.86	36.392
378.22	36.587
378.58	36.326
378.94	36.268
379.30	35.911
379.66	36.978
380.02	36.526
380.38	37.270
380.74	36.676
381.09	37.166
381.45	35.795
381.81	36.651
382.17	36.758
382.53	37.193
382.89	37.359
383.25	38.394
383.61	37.037
383.97	37.044
384.32	39.414
384.68	36.891
385.04	38.404
385.40	38.126
385.76	38.746
386.12	37.403
386.48	38.529
386.83	39.094
387.19	38.181
387.55	38.028
387.91	38.185
388.27	37.991
388.62	38.431
388.98	38.240
389.34	38.774
389.70	39.861
390.06	39.432
390.42	38.554
390.77	38.411
391.13	38.087
391.49	39.553
391.85	37.636
392.20	39.858
392.56	39.929
392.92	38.931
393.28	39.469
393.64	39.050
393.99	39.977
394.35	38.259
394.71	40.060
395.07	38.922
395.42	39.063
395.78	40.951
396.14	40.048
396.50	38.955
396.85	38.819
397.21	39.882
397.57	39.694
397.92	40.779
398.28	40.033
398.64	39.016
399.00	39.529
399.35	39.424
399.71	38.804
400.07	39.472
400.42	39.756
400.78	39.815
401.14	40.410
401.49	39.966
401.85	40.174
402.21	39.571
402.57	40.962
402.92	39.480
403.28	39.696
403.63	39.499
403.99	39.489
404.35	39.227
404.70	38.867
405.06	38.587
405.42	40.574
405.77	40.731
406.13	40.573
406.49	39.133
406.84	39.224
407.20	39.966
407.55	38.340
407.91	39.723
408.27	39.458
408.62	40.081
408.98	38.828
409.34	38.710
409.69	39.555
410.05	38.746
410.40	38.747
410.76	39.540
411.11	39.100
411.47	39.742
411.83	39.683
412.18	39.699
412.54	40.190
412.89	39.523
413.25	40.293
413.60	39.345
413.96	39.394
414.31	39.377
414.67	39.714
415.03	38.831
415.38	39.660
415.74	39.340
416.09	39.050
416.45	38.322
416.80	38.311
417.16	39.783
417.51	38.667
417.87	40.466
418.22	39.222
418.58	38.538
418.93	39.348
419.29	38.594
419.64	38.776
420.00	38.991
420.35	39.865
420.71	39.058
421.06	38.413
421.42	39.908
421.77	38.018
422.12	37.844
422.48	39.478
422.83	39.923
423.19	37.878
423.54	39.381
423.90	38.321
424.25	38.293
424.61	38.289
424.96	38.331
425.31	38.057
425.67	37.789
426.02	38.462
426.38	38.002
426.73	38.002
427.09	39.562
427.44	37.848
427.79	38.474
428.15	37.900
428.50	38.371
428.85	37.830
429.21	39.096
429.56	38.845
429.92	37.445
430.27	38.651
430.62	38.349
430.98	36.793
431.33	37.732
431.68	37.548
432.04	38.192
432.39	37.868
432.74	38.584
433.10	38.670
433.45	36.957
433.80	36.642
434.16	37.448
434.51	38.232
434.86	38.762
435.22	38.257
435.57	38.738
435.92	37.507
436.28	38.396
436.63	37.794
436.98	37.091
437.34	38.050
437.69	36.984
438.04	37.705
438.39	36.703
438.75	37.299
439.10	37.844
439.45	37.507
439.81	36.554
440.16	36.997
440.51	37.570
440.86	36.743
441.22	36.924
441.57	36.635
441.92	37.245
442.27	37.323
442.63	37.308
442.98	36.980
443.33	37.454
443.68	37.562
444.03	36.971
444.39	37.587
444.74	36.498
445.09	36.645
445.44	36.828
445.79	36.686
446.15	36.331
446.50	36.227
446.85	36.527
447.20	36.654
447.55	36.297
447.91	36.597
448.26	35.994
448.61	36.397
448.96	36.749
449.31	36.638
449.66	35.512
450.02	35.970
450.37	35.482
450.72	35.899
451.07	36.162
451.42	35.124
451.77	35.131
452.12	34.876
452.47	34.997
452.83	35.473
453.18	35.085
453.53	34.808
453.88	34.732
454.23	35.311
454.58	36.042
454.93	33.859
455.28	35.521
455.63	34.451
455.98	34.358
456.34	35.748
456.69	34.803
457.04	35.461
457.39	34.091
457.74	35.459
458.09	34.651
458.44	34.052
458.79	33.626
459.14	33.718
459.49	34.126
459.84	34.732
460.19	34.481
460.54	33.731
460.89	33.933
461.24	33.161
461.59	34.256
461.94	32.345
462.29	34.267
462.64	34.339
462.99	33.522
463.34	34.588
463.69	33.236
464.04	33.741
464.39	32.679
464.74	33.523
465.09	32.987
465.44	32.350
465.79	33.897
466.14	33.351
466.49	32.158
466.84	32.948
467.19	33.410
467.54	31.316
467.89	31.609
468.24	32.133
468.59	32.079
468.94	30.944
469.29	32.454
469.64	31.977
469.99	31.995
470.34	32.673
470.68	32.946
471.03	32.286
471.38	31.066
471.73	32.380
472.08	31.345
472.43	30.945
472.78	32.305
473.13	31.732
473.48	32.810
473.83	32.269
474.17	31.067
474.52	31.690
474.87	30.952
475.22	31.775
475.57	31.412
475.92	31.259
476.27	31.736
476.61	30.789
476.96	31.126
477.31	30.347
477.66	31.689
478.01	30.198
478.36	30.658
478.70	30.542
479.05	30.982
479.40	30.158
479.75	30.259
480.10	31.265
480.45	30.310
480.79	29.887
481.14	30.147
481.49	29.532
481.84	30.418
482.19	30.624
482.53	30.258
482.88	30.439
483.23	29.524
483.58	30.262
483.92	29.433
484.27	29.551
484.62	29.208
484.97	29.432
485.31	28.476
485.66	27.977
486.01	28.199
486.36	28.792
486.70	29.255
487.05	28.982
487.40	28.814
487.75	28.855
488.09	28.571
488.44	28.329
488.79	28.938
489.13	28.277
489.48	27.534
489.83	28.692
490.17	28.028
490.52	27.053
490.87	27.750
491.22	27.600
491.56	27.986
491.91	26.952
492.26	27.521
492.60	27.809
492.95	27.600
493.30	27.701
493.64	27.989
493.99	27.807
494.34	27.962
494.68	26.767
495.03	27.489
495.37	26.764
495.72	26.122
496.07	26.994
496.41	27.542
496.76	26.731
497.11	27.049
497.45	26.413
497.80	27.632
498.14	26.349
498.49	26.011
498.84	26.234
499.18	26.676
499.53	26.502
499.87	26.110
500.22	25.378
500.56	25.461
500.91	26.178
501.26	26.455
501.60	26.381
501.95	26.096
502.29	26.283
502.64	26.454
502.98	25.108
503.33	25.011
503.67	25.076
504.02	25.131
504.36	26.408
504.71	25.080
505.06	25.239
505.40	25.640
505.75	25.455
506.09	26.105
506.44	25.116
506.78	25.367
507.13	25.450
507.47	24.822
507.82	25.616
508.16	24.952
508.51	24.379
508.85	24.799
509.19	25.107
509.54	25.552
509.88	24.769
510.23	25.255
510.57	25.665
510.92	25.254
511.26	24.002
511.61	24.577
511.95	24.695
512.30	24.914
512.64	24.388
512.98	24.662
513.33	24.899
513.67	24.936
514.02	24.425
514.36	24.604
514.70	23.698
515.05	24.557
515.39	24.409
515.74	25.292
516.08	24.511
516.42	25.222
516.77	24.553
517.11	23.156
517.46	23.701
517.80	24.746
518.14	24.646
518.49	23.373
518.83	23.683
519.17	23.371
519.52	24.109
519.86	24.340
520.20	24.175
520.55	24.315
520.89	24.043
521.23	23.953
521.58	23.842
521.92	24.136
522.26	23.425
522.61	24.132
522.95	23.760
523.29	23.448
523.64	23.655
523.98	23.617
524.32	24.011
524.66	23.620
525.01	22.310
525.35	23.033
525.69	21.752
526.04	23.134
526.38	22.299
526.72	23.183
527.06	23.871
527.41	23.557
527.75	23.456
528.09	23.790
528.43	23.327
528.78	23.295
529.12	23.165
529.46	22.990
529.80	23.284
530.15	23.014
530.49	21.827
530.83	22.314
531.17	22.879
531.51	23.285
531.86	23.197
532.20	22.988
532.54	23.040
532.88	22.000
533.22	22.569
533.57	21.927
533.91	22.054
534.25	22.159
534.59	21.437
534.93	21.788
535.27	21.634
535.62	21.944
535.96	22.661
536.30	21.857
536.64	21.862
536.98	22.755
537.32	21.790
537.66	21.896
538.01	21.208
538.35	21.376
538.69	21.815
539.03	22.318
539.37	20.966
539.71	21.441
540.05	21.403
540.39	20.844
540.73	20.765
541.07	21.459
541.42	20.791
541.76	20.700
542.10	21.170
542.44	20.463
542.78	20.560
543.12	20.918
543.46	21.429
543.80	20.444
544.14	21.065
544.48	21.099
544.82	21.305
545.16	21.467
545.50	20.911
545.84	20.086
546.18	20.988
546.52	20.955
546.86	20.881
547.20	20.420
547.54	19.975
547.88	20.313
548.22	19.532
548.56	20.129
548.90	20.478
549.24	20.304
549.58	20.379
549.92	20.472
550.26	20.194
550.60	20.357
550.94	20.052
551.28	19.274
551.62	20.283
551.96	20.583
552.30	20.586
552.64	19.913
552.98	20.586
553.32	19.614
553.66	19.678
554.00	20.113
554.34	20.463
554.68	19.238
555.02	19.317
555.36	20.842
555.69	18.770
556.03	19.861
556.37	19.212
556.71	19.658
557.05	20.319
557.39	18.779
557.73	19.683
558.07	19.073
558.41	19.070
558.75	20.622
559.08	19.972
559.42	18.999
559.76	19.471
560.10	19.290
560.44	18.931
560.78	18.875
561.12	19.335
561.45	19.708
561.79	18.681
562.13	19.778
562.47	18.187
562.81	19.494
563.15	19.255
563.48	20.447
563.82	19.831
564.16	18.292
564.50	18.653
564.84	18.171
565.17	19.353
565.51	18.354
565.85	19.359
566.19	18.376
566.52	19.134
566.86	18.449
567.20	18.216
567.54	19.012
567.88	18.960
568.21	18.182
568.55	18.849
568.89	18.883
569.23	18.166
569.56	18.406
569.90	18.603
570.24	18.246
570.57	18.281
570.91	17.667
571.25	18.079
571.59	17.896
571.92	17.591
572.26	17.602
572.60	17.745
572.93	17.757
573.27	17.589
573.61	17.840
573.95	17.796
574.28	17.449
574.62	17.758
574.96	17.071
575.29	17.206
575.63	17.256
575.97	17.341
576.30	17.469
576.64	16.989
576.98	17.426
577.31	17.477
577.65	17.520
577.98	16.905
578.32	17.227
578.66	17.301
578.99	17.387
579.33	17.119
579.67	17.407
580.00	16.970
580.34	17.190
580.67	16.527
581.01	16.659
581.35	17.027
581.68	16.877
582.02	16.954
582.35	17.083
582.69	17.448
583.02	17.025
583.36	16.923
583.70	16.587
584.03	16.799
584.37	16.885
584.70	16.553
585.04	16.461
585.37	16.726
585.71	16.677
586.04	16.513
586.38	16.643
586.72	16.596
587.05	16.731
587.39	16.505
587.72	17.033
588.06	16.876
588.39	16.455
588.73	16.640
589.06	16.112
589.40	16.933
589.73	17.320
590.07	16.744
590.40	17.208
590.73	16.189
591.07	16.605
591.40	16.757
591.74	16.733
592.07	16.890
592.41	16.207
592.74	16.329
593.08	16.561
593.41	16.331
593.75	16.667
594.08	16.783
594.41	16.378
594.75	16.240
595.08	16.117
595.42	16.331
595.75	16.597
596.09	16.571
596.42	16.338
596.75	16.171
597.09	16.566
597.42	16.448
597.75	16.386
598.09	16.706
598.42	17.049
598.76	16.164
599.09	16.305
599.42	15.756
599.76	16.210
600.09	16.517
600.42	15.749
600.76	16.546
601.09	16.031
601.42	15.654
601.76	16.172
602.09	15.761
602.42	15.485
602.76	16.310
603.09	15.786
603.42	16.908
603.76	16.032
604.09	16.395
604.42	15.853
604.76	16.172
605.09	16.235
605.42	16.228
605.75	15.846
606.09	15.491
606.42	15.213
606.75	15.780
607.09	15.899
607.42	15.992
607.75	15.826
608.08	15.785
608.42	15.921
608.75	16.086
609.08	15.535
609.41	16.012
609.75	15.714
610.08	15.831
610.41	15.633
610.74	15.126
611.07	15.764
611.41	16.009
611.74	15.704
612.07	16.410
612.40	14.781
612.73	16.039
613.07	15.941
613.40	16.073
613.73	15.070
614.06	15.604
614.39	15.063
614.72	14.944
615.06	15.496
615.39	15.466
615.72	15.687
616.05	15.590
616.38	15.742
616.71	16.196
617.05	15.016
617.38	15.356
617.71	15.767
618.04	15.650
618.37	16.393
618.70	16.290
619.03	14.695
619.36	15.166
619.69	14.990
620.03	16.133
620.36	15.828
620.69	15.423
621.02	15.354
621.35	15.675
621.68	15.112
622.01	15.943
622.34	14.714
622.67	15.464
623.00	13.765
623.33	16.125
623.66	15.953
623.99	15.471
624.32	16.569
624.65	15.701
624.99	15.475
625.32	16.068
625.65	15.577
625.98	14.373
626.31	15.592
626.64	15.604
626.97	15.304
627.30	14.123
627.63	15.754
627.96	17.192
628.29	14.630
628.62	15.113
628.95	14.724
629.28	14.698
629.61	15.993
629.94	14.561
630.26	14.576
630.59	15.371
630.92	14.892
631.25	16.011
631.58	14.972
631.91	14.339
632.24	14.025
632.57	15.655
632.90	14.343
633.23	16.224
633.56	15.918
633.89	13.843
