SpectraSuite Data File
++++++++++++++++++++++++++++++++++++
Date: Thu May 14 16:26:28 PDT 2015
User: schluterlab
Dark Spectrum Present: Yes
Reference Spectrum Present: Yes
Number of Sampled Component Spectra: 1
Spectrometers: USB2E3373
Integration Time (usec): 3000 (USB2E3373)
Spectra Averaged: 3 (USB2E3373)
Boxcar Smoothing: 0 (USB2E3373)
Correct for Electrical Dark: No (USB2E3373)
Strobe/Lamp Enabled: No (USB2E3373)
Correct for Detector Non-linearity: No (USB2E3373)
Correct for Stray Light: No (USB2E3373)
Number of Pixels in Processed Spectrum: 2048
>>>>>Begin Processed Spectral Data<<<<<
178.53	0.000
178.91	-42.857
179.29	-1300.000
179.67	-400.000
180.04	157.143
180.42	20.000
180.80	20.000
181.18	0.000
181.56	200.000
181.94	275.000
182.31	150.000
182.69	-233.333
183.07	-100.000
183.45	250.000
183.83	-183.333
184.20	266.667
184.58	-200.000
184.96	-125.000
185.34	11.111
185.72	0.000
186.09	133.333
186.47	500.000
186.85	180.000
187.23	22.222
187.61	100.000
187.98	200.000
188.36	150.000
188.74	200.000
189.12	-66.667
189.49	6.250
189.87	-50.000
190.25	-44.444
190.63	20.000
191.00	-122.222
191.38	0.000
191.76	0.000
192.14	-50.000
192.51	500.000
192.89	166.667
193.27	0.000
193.65	42.857
194.02	-100.000
194.40	-14.286
194.78	14.286
195.15	0.000
195.53	54.545
195.91	0.000
196.29	25.000
196.66	-30.769
197.04	-300.000
197.42	42.857
197.79	-250.000
198.17	-62.500
198.55	14.286
198.92	100.000
199.30	-25.000
199.68	45.455
200.05	50.000
200.43	-750.000
200.81	128.571
201.18	0.000
201.56	177.778
201.94	0.000
202.31	66.667
202.69	-55.556
203.07	-0.000
203.44	-44.444
203.82	-175.000
204.19	0.000
204.57	16.667
204.95	-37.500
205.32	200.000
205.70	-50.000
206.08	-66.667
206.45	100.000
206.83	180.000
207.20	116.667
207.58	-60.000
207.96	-133.333
208.33	83.333
208.71	8.333
209.08	66.667
209.46	0.000
209.84	183.333
210.21	250.000
210.59	150.000
210.96	233.333
211.34	0.000
211.71	-37.500
212.09	-100.000
212.46	0.000
212.84	700.000
213.22	-100.000
213.59	75.000
213.97	20.000
214.34	-66.667
214.72	50.000
215.09	75.000
215.47	0.000
215.84	14.286
216.22	700.000
216.59	-120.000
216.97	-140.000
217.34	-100.000
217.72	137.500
218.09	-200.000
218.47	-100.000
218.84	0.000
219.22	-40.000
219.59	11.765
219.97	30.000
220.34	500.000
220.72	-77.778
221.09	38.462
221.47	100.000
221.84	20.000
222.22	-142.857
222.59	0.000
222.97	-12.500
223.34	-120.000
223.72	-300.000
224.09	-50.000
224.46	-50.000
224.84	120.000
225.21	-114.286
225.59	-175.000
225.96	-225.000
226.34	3.846
226.71	83.333
227.08	100.000
227.46	33.333
227.83	-175.000
228.21	26.316
228.58	37.500
228.95	-100.000
229.33	41.667
229.70	0.000
230.08	21.053
230.45	-40.000
230.82	33.333
231.20	-42.857
231.57	50.000
231.95	9.091
232.32	0.000
232.69	35.000
233.07	-100.000
233.44	41.176
233.81	-70.000
234.19	38.889
234.56	18.182
234.93	51.724
235.31	0.000
235.68	55.556
236.05	-45.000
236.43	50.000
236.80	52.000
237.17	-3.704
237.55	21.212
237.92	20.000
238.29	22.581
238.67	34.091
239.04	38.889
239.41	21.429
239.79	32.609
240.16	38.889
240.53	28.261
240.91	23.529
241.28	26.230
241.65	44.776
242.02	43.243
242.40	27.692
242.77	16.000
243.14	18.293
243.51	19.737
243.89	21.795
244.26	27.723
244.63	30.392
245.00	27.103
245.38	38.596
245.75	23.009
246.12	34.127
246.49	34.884
246.87	33.571
247.24	34.437
247.61	34.868
247.98	34.899
248.36	31.481
248.73	26.994
249.10	36.612
249.47	36.318
249.84	37.696
250.22	34.715
250.59	31.111
250.96	31.818
251.33	31.633
251.70	32.479
252.08	31.667
252.45	30.738
252.82	32.231
253.19	26.562
253.56	34.221
253.94	28.846
254.31	32.955
254.68	40.559
255.05	35.179
255.42	31.633
255.79	32.039
256.16	35.099
256.54	34.106
256.91	38.361
257.28	30.492
257.65	31.529
258.02	31.858
258.39	32.479
258.76	37.003
259.14	36.782
259.51	34.870
259.88	34.278
260.25	34.722
260.62	34.521
260.99	37.432
261.36	35.925
261.73	33.687
262.10	31.593
262.47	37.534
262.85	37.879
263.22	33.766
263.59	28.421
263.96	34.015
264.33	32.737
264.70	37.284
265.07	34.129
265.44	37.415
265.81	32.639
266.18	36.961
266.55	33.705
266.92	33.485
267.29	35.667
267.66	35.477
268.03	34.279
268.40	33.820
268.77	33.941
269.14	34.141
269.51	34.649
269.88	34.836
270.25	32.596
270.62	33.333
270.99	35.960
271.36	33.069
271.73	31.827
272.10	34.870
272.47	32.465
272.84	31.124
273.21	33.066
273.58	32.863
273.95	31.346
274.32	33.080
274.69	35.010
275.06	32.784
275.43	29.945
275.80	32.275
276.17	30.000
276.54	32.836
276.91	32.200
277.28	33.454
277.65	33.034
278.02	32.169
278.39	34.601
278.76	31.810
279.13	33.865
279.50	32.302
279.87	32.558
280.23	30.810
280.60	32.712
280.97	33.224
281.34	32.767
281.71	33.672
282.08	31.063
282.45	32.242
282.82	31.083
283.19	30.372
283.56	31.639
283.92	32.432
284.29	33.017
284.66	34.319
285.03	29.968
285.40	31.066
285.77	29.876
286.14	31.756
286.51	29.985
286.87	33.491
287.24	31.024
287.61	29.895
287.98	28.701
288.35	30.621
288.72	28.994
289.08	31.772
289.45	29.734
289.82	29.217
290.19	30.603
290.56	30.704
290.93	29.101
291.29	29.201
291.66	29.477
292.03	27.680
292.40	29.524
292.77	28.706
293.13	27.470
293.50	27.858
293.87	26.443
294.24	27.200
294.60	27.939
294.97	25.235
295.34	26.889
295.71	25.599
296.08	26.615
296.44	25.613
296.81	26.431
297.18	24.533
297.55	24.764
297.91	25.386
298.28	24.289
298.65	26.040
299.02	25.266
299.38	26.201
299.75	24.766
300.12	24.653
300.48	24.770
300.85	25.534
301.22	25.391
301.59	22.717
301.95	23.955
302.32	24.222
302.69	22.344
303.05	23.830
303.42	24.390
303.79	22.812
304.15	24.711
304.52	23.044
304.89	23.979
305.25	25.052
305.62	23.615
305.99	24.433
306.35	23.185
306.72	24.302
307.09	23.452
307.45	23.499
307.82	23.108
308.19	22.402
308.55	25.072
308.92	23.272
309.29	23.084
309.65	23.977
310.02	23.564
310.38	23.425
310.75	24.466
311.12	24.545
311.48	23.167
311.85	24.217
312.22	24.004
312.58	23.286
312.95	22.562
313.31	23.035
313.68	23.535
314.05	23.758
314.41	24.408
314.78	24.523
315.14	26.044
315.51	22.807
315.87	24.122
316.24	24.292
316.61	24.867
316.97	24.977
317.34	24.956
317.70	24.629
318.07	25.220
318.43	25.595
318.80	26.254
319.16	25.751
319.53	25.878
319.89	24.277
320.26	26.601
320.62	25.621
320.99	26.870
321.35	28.466
321.72	27.721
322.08	27.502
322.45	27.191
322.81	27.798
323.18	28.319
323.54	29.138
323.91	29.804
324.27	28.657
324.64	29.219
325.00	28.939
325.37	28.256
325.73	30.496
326.10	30.333
326.46	31.515
326.83	31.305
327.19	32.598
327.56	31.779
327.92	31.314
328.29	30.968
328.65	31.575
329.01	32.149
329.38	32.098
329.74	32.363
330.11	32.705
330.47	32.687
330.84	31.697
331.20	32.750
331.56	33.449
331.93	33.389
332.29	33.814
332.66	34.967
333.02	33.668
333.38	33.054
333.75	34.428
334.11	33.945
334.48	33.581
334.84	34.070
335.20	33.249
335.57	33.980
335.93	33.388
336.29	33.611
336.66	34.062
337.02	33.027
337.38	34.184
337.75	32.727
338.11	34.062
338.47	34.326
338.84	33.503
339.20	32.940
339.56	32.949
339.93	34.483
340.29	34.622
340.65	32.279
341.02	34.318
341.38	34.762
341.74	34.302
342.11	33.950
342.47	33.678
342.83	33.897
343.20	34.424
343.56	34.483
343.92	33.707
344.28	35.547
344.65	34.186
345.01	34.945
345.37	34.837
345.73	32.424
346.10	34.243
346.46	34.573
346.82	34.682
347.19	36.287
347.55	34.067
347.91	33.507
348.27	32.777
348.63	34.806
349.00	33.259
349.36	36.357
349.72	35.342
350.08	34.398
350.45	35.513
350.81	34.389
351.17	35.113
351.53	34.117
351.89	35.915
352.26	35.000
352.62	35.746
352.98	33.588
353.34	33.383
353.70	35.824
354.07	34.128
354.43	34.852
354.79	35.153
355.15	34.143
355.51	35.453
355.87	34.630
356.24	36.426
356.60	35.329
356.96	35.878
357.32	33.160
357.68	35.359
358.04	34.656
358.40	35.149
358.77	35.526
359.13	34.269
359.49	35.465
359.85	35.751
360.21	35.222
360.57	35.750
360.93	35.190
361.29	36.211
361.66	35.988
362.02	35.978
362.38	36.613
362.74	36.522
363.10	35.901
363.46	37.465
363.82	36.080
364.18	36.031
364.54	36.791
364.90	36.054
365.26	36.069
365.62	36.267
365.98	36.283
366.35	36.376
366.71	37.551
367.07	36.265
367.43	35.719
367.79	38.089
368.15	37.659
368.51	36.333
368.87	36.643
369.23	36.400
369.59	37.158
369.95	37.796
370.31	37.475
370.67	36.864
371.03	36.773
371.39	35.997
371.75	37.208
372.11	38.144
372.47	37.373
372.83	37.238
373.19	36.825
373.55	36.585
373.91	36.878
374.27	36.869
374.63	38.092
374.99	37.467
375.35	38.442
375.71	37.742
376.07	36.217
376.42	37.846
376.78	39.341
377.14	37.555
377.50	38.140
377.86	37.993
378.22	37.725
378.58	38.644
378.94	39.143
379.30	37.786
379.66	37.684
380.02	37.161
380.38	38.882
380.74	38.535
381.09	39.431
381.45	38.807
381.81	39.578
382.17	38.955
382.53	38.655
382.89	38.826
383.25	39.801
383.61	39.062
383.97	38.457
384.32	40.311
384.68	38.109
385.04	39.387
385.40	39.481
385.76	41.266
386.12	39.198
386.48	39.882
386.83	39.750
387.19	39.282
387.55	38.732
387.91	40.068
388.27	39.088
388.62	39.576
388.98	39.199
389.34	40.071
389.70	40.674
390.06	39.668
390.42	39.940
390.77	40.819
391.13	39.965
391.49	40.338
391.85	38.909
392.20	39.680
392.56	39.634
392.92	40.294
393.28	40.907
393.64	39.665
393.99	42.069
394.35	41.297
394.71	40.659
395.07	39.641
395.42	40.091
395.78	41.682
396.14	41.355
396.50	40.974
396.85	40.966
397.21	40.533
397.57	40.754
397.92	40.893
398.28	40.576
398.64	40.103
399.00	38.901
399.35	40.419
399.71	39.891
400.07	41.213
400.42	41.211
400.78	40.394
401.14	41.093
401.49	40.478
401.85	41.512
402.21	41.947
402.57	41.373
402.92	40.544
403.28	41.393
403.63	41.766
403.99	41.033
404.35	39.170
404.70	41.303
405.06	40.380
405.42	41.920
405.77	41.112
406.13	41.005
406.49	41.723
406.84	42.216
407.20	41.029
407.55	42.035
407.91	41.735
408.27	40.165
408.62	40.780
408.98	40.917
409.34	40.997
409.69	41.904
410.05	41.501
410.40	41.299
410.76	40.662
411.11	42.314
411.47	42.015
411.83	41.681
412.18	42.048
412.54	41.553
412.89	40.570
413.25	41.084
413.60	41.356
413.96	41.375
414.31	39.773
414.67	41.622
415.03	40.923
415.38	41.110
415.74	42.150
416.09	43.122
416.45	40.639
416.80	40.942
417.16	41.826
417.51	41.158
417.87	40.895
418.22	41.856
418.58	41.574
418.93	42.200
419.29	41.492
419.64	40.996
420.00	41.009
420.35	41.999
420.71	40.896
421.06	41.346
421.42	42.087
421.77	40.118
422.12	40.486
422.48	41.270
422.83	42.004
423.19	41.061
423.54	41.648
423.90	41.137
424.25	42.293
424.61	41.217
424.96	40.967
425.31	41.879
425.67	40.419
426.02	41.561
426.38	41.274
426.73	41.071
427.09	41.522
427.44	40.743
427.79	40.741
428.15	40.240
428.50	40.955
428.85	40.471
429.21	40.957
429.56	40.721
429.92	40.197
430.27	40.627
430.62	41.231
430.98	40.531
431.33	40.274
431.68	40.326
432.04	40.731
432.39	40.921
432.74	40.240
433.10	41.049
433.45	40.524
433.80	41.309
434.16	40.961
434.51	41.418
434.86	41.477
435.22	41.445
435.57	41.509
435.92	41.013
436.28	41.013
436.63	42.381
436.98	40.365
437.34	40.755
437.69	41.002
438.04	40.402
438.39	39.690
438.75	40.232
439.10	40.909
439.45	40.581
439.81	41.130
440.16	39.678
440.51	41.081
440.86	39.855
441.22	40.139
441.57	40.042
441.92	39.816
442.27	42.121
442.63	39.593
442.98	40.448
443.33	39.979
443.68	40.287
444.03	41.345
444.39	40.915
444.74	41.092
445.09	39.787
445.44	40.885
445.79	40.805
446.15	39.928
446.50	40.362
446.85	40.564
447.20	39.749
447.55	39.906
447.91	39.424
448.26	40.592
448.61	39.851
448.96	40.987
449.31	39.555
449.66	39.978
450.02	40.506
450.37	39.265
450.72	39.989
451.07	39.806
451.42	40.035
451.77	39.633
452.12	40.688
452.47	40.048
452.83	40.541
453.18	40.397
453.53	39.632
453.88	39.923
454.23	39.774
454.58	39.814
454.93	39.502
455.28	39.976
455.63	38.886
455.98	39.609
456.34	39.812
456.69	39.859
457.04	38.948
457.39	39.080
457.74	40.045
458.09	38.495
458.44	39.440
458.79	37.700
459.14	38.018
459.49	38.936
459.84	39.454
460.19	38.257
460.54	39.409
460.89	39.756
461.24	37.759
461.59	39.458
461.94	38.962
462.29	38.970
462.64	38.262
462.99	39.925
463.34	39.260
463.69	38.804
464.04	39.077
464.39	38.285
464.74	38.826
465.09	38.754
465.44	38.144
465.79	38.287
466.14	38.145
466.49	38.211
466.84	39.174
467.19	38.324
467.54	37.603
467.89	37.471
468.24	38.116
468.59	37.348
468.94	38.462
469.29	36.533
469.64	37.254
469.99	37.540
470.34	37.933
470.68	38.893
471.03	38.769
471.38	38.326
471.73	38.947
472.08	38.579
472.43	38.411
472.78	37.909
473.13	38.432
473.48	37.523
473.83	37.957
474.17	37.515
474.52	37.222
474.87	38.427
475.22	38.197
475.57	35.981
475.92	37.133
476.27	36.475
476.61	37.539
476.96	36.757
477.31	36.980
477.66	37.303
478.01	36.756
478.36	36.640
478.70	37.685
479.05	37.270
479.40	38.351
479.75	37.368
480.10	36.191
480.45	36.418
480.79	35.873
481.14	37.040
481.49	36.393
481.84	36.684
482.19	36.473
482.53	36.773
482.88	36.730
483.23	36.060
483.58	35.546
483.92	35.727
484.27	35.690
484.62	35.850
484.97	35.653
485.31	35.058
485.66	33.081
486.01	32.798
486.36	33.599
486.70	34.008
487.05	34.390
487.40	34.479
487.75	33.511
488.09	33.418
488.44	33.076
488.79	34.030
489.13	34.395
489.48	34.796
489.83	35.171
490.17	35.156
490.52	34.278
490.87	35.279
491.22	35.485
491.56	35.367
491.91	35.935
492.26	35.785
492.60	35.374
492.95	35.015
493.30	34.783
493.64	35.304
493.99	34.737
494.34	34.843
494.68	34.176
495.03	35.154
495.37	35.153
495.72	35.238
496.07	35.145
496.41	35.006
496.76	34.737
497.11	34.437
497.45	34.268
497.80	34.340
498.14	34.921
498.49	35.248
498.84	34.369
499.18	34.008
499.53	34.664
499.87	34.154
500.22	34.417
500.56	34.008
500.91	35.332
501.26	34.773
501.60	33.584
501.95	33.825
502.29	34.928
502.64	34.499
502.98	33.865
503.33	33.693
503.67	33.929
504.02	33.450
504.36	33.914
504.71	34.084
505.06	33.470
505.40	34.186
505.75	33.880
506.09	33.794
506.44	34.726
506.78	34.083
507.13	34.394
507.47	34.060
507.82	33.949
508.16	32.935
508.51	32.818
508.85	34.436
509.19	33.254
509.54	34.198
509.88	33.949
510.23	34.046
510.57	34.268
510.92	33.382
511.26	33.574
511.61	32.979
511.95	34.017
512.30	34.613
512.64	33.533
512.98	33.617
513.33	33.821
513.67	33.809
514.02	33.929
514.36	34.271
514.70	33.698
515.05	34.411
515.39	34.383
515.74	34.571
516.08	34.231
516.42	34.485
516.77	34.805
517.11	33.522
517.46	34.146
517.80	34.099
518.14	34.276
518.49	33.677
518.83	34.007
519.17	34.303
519.52	33.700
519.86	33.949
520.20	33.280
520.55	34.009
520.89	34.403
521.23	33.501
521.58	34.068
521.92	34.391
522.26	33.677
522.61	33.681
522.95	34.256
523.29	35.287
523.64	33.857
523.98	34.398
524.32	36.103
524.66	34.832
525.01	32.616
525.35	33.659
525.69	33.121
526.04	33.525
526.38	34.540
526.72	34.371
527.06	33.431
527.41	34.169
527.75	34.264
528.09	33.412
528.43	33.985
528.78	34.277
529.12	34.002
529.46	33.895
529.80	33.867
530.15	33.333
530.49	33.393
530.83	33.707
531.17	34.170
531.51	33.514
531.86	33.714
532.20	34.512
532.54	32.675
532.88	32.667
533.22	33.353
533.57	33.641
533.91	33.502
534.25	33.296
534.59	32.644
534.93	32.088
535.27	32.338
535.62	32.803
535.96	32.074
536.30	32.726
536.64	33.994
536.98	33.641
537.32	33.395
537.66	33.437
538.01	32.266
538.35	33.191
538.69	32.272
539.03	33.170
539.37	32.391
539.71	32.553
540.05	32.554
540.39	31.418
540.73	31.998
541.07	32.189
541.42	31.778
541.76	31.435
542.10	32.087
542.44	31.547
542.78	32.238
543.12	32.420
543.46	32.173
543.80	31.954
544.14	32.615
544.48	32.033
544.82	32.496
545.16	32.558
545.50	32.115
545.84	31.843
546.18	33.457
546.52	31.911
546.86	31.509
547.20	32.824
547.54	31.648
547.88	31.163
548.22	30.702
548.56	31.890
548.90	31.582
549.24	31.976
549.58	31.987
549.92	30.421
550.26	32.751
550.60	32.802
550.94	32.277
551.28	32.673
551.62	32.075
551.96	31.909
552.30	32.186
552.64	31.176
552.98	32.065
553.32	31.897
553.66	31.318
554.00	31.778
554.34	31.725
554.68	32.085
555.02	32.063
555.36	32.347
555.69	31.326
556.03	32.093
556.37	31.477
556.71	31.262
557.05	31.885
557.39	32.581
557.73	31.770
558.07	32.980
558.41	31.429
558.75	31.846
559.08	32.150
559.42	31.413
559.76	32.564
560.10	31.882
560.44	31.728
560.78	31.437
561.12	31.281
561.45	31.752
561.79	31.013
562.13	31.608
562.47	30.148
562.81	30.759
563.15	32.134
563.48	31.013
563.82	31.197
564.16	29.921
564.50	30.810
564.84	30.383
565.17	30.235
565.51	29.862
565.85	30.998
566.19	30.357
566.52	30.661
566.86	30.560
567.20	29.744
567.54	29.634
567.88	30.479
568.21	29.743
568.55	28.969
568.89	29.142
569.23	28.686
569.56	27.706
569.90	27.334
570.24	27.960
570.57	27.293
570.91	27.036
571.25	26.150
571.59	26.635
571.92	25.880
572.26	26.310
572.60	26.399
572.93	26.106
573.27	26.271
573.61	26.046
573.95	26.244
574.28	25.461
574.62	25.580
574.96	25.320
575.29	24.983
575.63	25.918
575.97	25.509
576.30	24.969
576.64	24.982
576.98	24.875
577.31	25.099
577.65	25.361
577.98	25.056
578.32	24.894
578.66	24.614
578.99	24.534
579.33	24.944
579.67	24.728
580.00	24.972
580.34	24.716
580.67	24.470
581.01	24.924
581.35	24.898
581.68	24.898
582.02	24.739
582.35	24.581
582.69	24.530
583.02	24.369
583.36	24.194
583.70	24.335
584.03	24.190
584.37	24.463
584.70	24.083
585.04	24.180
585.37	24.724
585.71	24.919
586.04	24.527
586.38	24.838
586.72	24.668
587.05	24.124
587.39	25.006
587.72	24.617
588.06	24.662
588.39	24.620
588.73	24.841
589.06	25.254
589.40	25.323
589.73	25.129
590.07	25.962
590.40	25.963
590.73	25.981
591.07	25.763
591.40	25.778
591.74	26.153
592.07	26.634
592.41	26.459
592.74	24.885
593.08	26.051
593.41	25.926
593.75	24.856
594.08	25.083
594.41	25.545
594.75	24.975
595.08	25.067
595.42	25.357
595.75	24.992
596.09	25.042
596.42	25.726
596.75	25.782
597.09	25.980
597.42	26.301
597.75	25.794
598.09	25.833
598.42	26.176
598.76	25.525
599.09	25.810
599.42	25.142
599.76	24.860
600.09	25.626
600.42	25.225
600.76	24.769
601.09	24.892
601.42	24.476
601.76	24.966
602.09	25.482
602.42	25.045
602.76	25.683
603.09	25.037
603.42	25.145
603.76	24.383
604.09	25.727
604.42	25.284
604.76	25.152
605.09	25.329
605.42	25.837
605.75	25.423
606.09	25.532
606.42	24.334
606.75	24.250
607.09	24.501
607.42	25.279
607.75	25.909
608.08	25.217
608.42	24.990
608.75	25.788
609.08	24.576
609.41	25.540
609.75	26.652
610.08	25.682
610.41	25.106
610.74	25.504
611.07	26.465
611.41	26.547
611.74	26.236
612.07	25.993
612.40	25.618
612.73	26.504
613.07	26.210
613.40	26.612
613.73	26.288
614.06	26.006
614.39	25.559
614.72	26.055
615.06	25.698
615.39	26.245
615.72	26.445
616.05	25.789
616.38	26.791
616.71	26.123
617.05	26.038
617.38	26.859
617.71	27.430
618.04	26.228
618.37	26.776
618.70	27.093
619.03	27.180
619.36	27.497
619.69	26.265
620.03	27.809
620.36	27.362
620.69	27.452
621.02	28.084
621.35	28.882
621.68	28.055
622.01	27.544
622.34	27.824
622.67	27.216
623.00	27.733
623.33	28.135
623.66	27.886
623.99	27.716
624.32	28.850
624.65	27.284
624.99	28.414
625.32	28.086
625.65	27.714
625.98	28.339
626.31	28.561
626.64	28.205
626.97	28.507
627.30	27.563
627.63	29.407
627.96	29.429
628.29	30.272
628.62	29.555
628.95	29.623
629.28	29.227
629.61	30.556
629.94	29.121
630.26	28.136
630.59	29.706
630.92	29.177
631.25	31.306
631.58	30.603
631.91	30.834
632.24	31.796
632.57	30.740
632.90	29.689
633.23	31.122
633.56	31.735
633.89	31.302
634.22	32.121
