SpectraSuite Data File
++++++++++++++++++++++++++++++++++++
Date: Thu May 14 16:34:28 PDT 2015
User: schluterlab
Dark Spectrum Present: Yes
Reference Spectrum Present: Yes
Number of Sampled Component Spectra: 1
Spectrometers: USB2E3373
Integration Time (usec): 3000 (USB2E3373)
Spectra Averaged: 3 (USB2E3373)
Boxcar Smoothing: 0 (USB2E3373)
Correct for Electrical Dark: No (USB2E3373)
Strobe/Lamp Enabled: No (USB2E3373)
Correct for Detector Non-linearity: No (USB2E3373)
Correct for Stray Light: No (USB2E3373)
Number of Pixels in Processed Spectrum: 2048
>>>>>Begin Processed Spectral Data<<<<<
178.53	0.000
178.91	71.429
179.29	-500.000
179.67	-900.000
180.04	142.857
180.42	100.000
180.80	260.000
181.18	-800.000
181.56	200.000
181.94	50.000
182.31	-150.000
182.69	200.000
183.07	-350.000
183.45	325.000
183.83	-100.000
184.20	-233.333
184.58	500.000
184.96	-150.000
185.34	-55.556
185.72	0.000
186.09	166.667
186.47	-150.000
186.85	300.000
187.23	-44.444
187.61	-500.000
187.98	160.000
188.36	200.000
188.74	-225.000
189.12	-33.333
189.49	-6.250
189.87	0.000
190.25	66.667
190.63	100.000
191.00	-33.333
191.38	0.000
191.76	-250.000
192.14	16.667
192.51	150.000
192.89	116.667
193.27	0.000
193.65	0.000
194.02	-1100.000
194.40	-42.857
194.78	85.714
195.15	0.000
195.53	-90.909
195.91	0.000
196.29	-50.000
196.66	-92.308
197.04	-1500.000
197.42	-71.429
197.79	-150.000
198.17	0.000
198.55	142.857
198.92	55.556
199.30	-150.000
199.68	-54.545
200.05	14.286
200.43	50.000
200.81	185.714
201.18	0.000
201.56	44.444
201.94	0.000
202.31	33.333
202.69	-55.556
203.07	800.000
203.44	-44.444
203.82	-175.000
204.19	0.000
204.57	-50.000
204.95	-12.500
205.32	-900.000
205.70	100.000
206.08	50.000
206.45	100.000
206.83	200.000
207.20	-233.333
207.58	-300.000
207.96	-16.667
208.33	50.000
208.71	66.667
209.08	100.000
209.46	0.000
209.84	116.667
210.21	150.000
210.59	50.000
210.96	66.667
211.34	125.000
211.71	-50.000
212.09	-1000.000
212.46	0.000
212.84	800.000
213.22	-300.000
213.59	50.000
213.97	100.000
214.34	-166.667
214.72	-0.000
215.09	-175.000
215.47	0.000
215.84	214.286
216.22	650.000
216.59	-20.000
216.97	120.000
217.34	-125.000
217.72	-25.000
218.09	-350.000
218.47	-225.000
218.84	0.000
219.22	-80.000
219.59	29.412
219.97	0.000
220.34	50.000
220.72	-33.333
221.09	53.846
221.47	-133.333
221.84	60.000
222.22	-28.571
222.59	0.000
222.97	-37.500
223.34	-100.000
223.72	0.000
224.09	-300.000
224.46	-200.000
224.84	-80.000
225.21	-57.143
225.59	-150.000
225.96	-275.000
226.34	-26.923
226.71	166.667
227.08	250.000
227.46	-33.333
227.83	-350.000
228.21	57.895
228.58	112.500
228.95	300.000
229.33	8.333
229.70	-70.000
230.08	42.105
230.45	80.000
230.82	133.333
231.20	50.000
231.57	-8.333
231.95	27.273
232.32	9.091
232.69	45.000
233.07	25.000
233.44	-23.529
233.81	-10.000
234.19	38.889
234.56	27.273
234.93	10.345
235.31	57.895
235.68	16.667
236.05	-30.000
236.43	23.077
236.80	28.000
237.17	-3.704
237.55	21.212
237.92	-60.000
238.29	9.677
238.67	2.273
239.04	13.889
239.41	4.762
239.79	6.522
240.16	11.111
240.53	-6.522
240.91	-17.647
241.28	-6.557
241.65	7.463
242.02	29.730
242.40	1.538
242.77	4.000
243.14	-3.659
243.51	1.316
243.89	-1.282
244.26	13.861
244.63	9.804
245.00	3.738
245.38	2.632
245.75	-4.425
246.12	8.730
246.49	3.876
246.87	12.143
247.24	6.623
247.61	11.842
247.98	10.738
248.36	6.790
248.73	3.067
249.10	10.383
249.47	12.438
249.84	9.948
250.22	5.181
250.59	8.889
250.96	10.455
251.33	9.184
251.70	10.256
252.08	12.083
252.45	9.016
252.82	4.132
253.19	8.984
253.56	10.266
253.94	7.308
254.31	9.848
254.68	13.636
255.05	12.052
255.42	9.524
255.79	8.414
256.16	9.272
256.54	6.954
256.91	12.131
257.28	7.213
257.65	7.325
258.02	4.720
258.39	11.111
258.76	11.009
259.14	11.494
259.51	7.781
259.88	9.632
260.25	12.500
260.62	10.137
260.99	10.383
261.36	9.115
261.73	10.610
262.10	8.791
262.47	9.115
262.85	9.848
263.22	7.273
263.59	10.263
263.96	12.020
264.33	5.371
264.70	11.852
265.07	9.308
265.44	10.884
265.81	10.185
266.18	10.884
266.55	10.045
266.92	7.973
267.29	10.284
267.66	8.869
268.03	10.480
268.40	11.691
268.77	10.023
269.14	7.930
269.51	11.404
269.88	8.402
270.25	9.256
270.62	9.072
270.99	11.313
271.36	9.901
271.73	11.002
272.10	10.020
272.47	8.417
272.84	9.237
273.21	10.822
273.58	10.081
273.95	6.538
274.32	9.506
274.69	9.478
275.06	10.806
275.43	8.318
275.80	10.582
276.17	7.407
276.54	8.582
276.91	7.692
277.28	10.850
277.65	9.874
278.02	9.743
278.39	9.420
278.76	9.842
279.13	9.929
279.50	11.340
279.87	9.481
280.23	7.042
280.60	11.017
280.97	9.539
281.34	9.508
281.71	11.506
282.08	10.465
282.45	9.493
282.82	9.105
283.19	7.916
283.56	8.525
283.92	10.210
284.29	10.427
284.66	10.509
285.03	7.212
285.40	10.201
285.77	8.669
286.14	9.160
286.51	8.980
286.87	7.583
287.24	9.187
287.61	8.072
287.98	7.402
288.35	9.467
288.72	7.396
289.08	8.785
289.45	10.207
289.82	8.283
290.19	8.764
290.56	8.732
290.93	7.846
291.29	7.713
291.66	8.402
292.03	6.920
292.40	8.299
292.77	6.873
293.13	9.066
293.50	8.279
293.87	6.711
294.24	9.467
294.60	8.976
294.97	7.785
295.34	9.475
295.71	6.936
296.08	7.752
296.44	7.721
296.81	8.404
297.18	7.970
297.55	7.311
297.91	7.473
298.28	6.161
298.65	7.610
299.02	6.966
299.38	7.437
299.75	7.477
300.12	6.944
300.48	7.028
300.85	7.312
301.22	7.494
301.59	8.219
301.95	6.667
302.32	7.222
302.69	7.448
303.05	8.487
303.42	7.761
303.79	8.125
304.15	7.886
304.52	6.871
304.89	7.225
305.25	8.075
305.62	6.897
305.99	6.392
306.35	6.552
306.72	7.963
307.09	6.802
307.45	6.418
307.82	6.862
308.19	7.265
308.55	7.907
308.92	7.303
309.29	8.908
309.65	6.628
310.02	7.129
310.38	6.693
310.75	7.476
311.12	8.245
311.48	7.038
311.85	7.312
312.22	6.641
312.58	7.230
312.95	8.126
313.31	7.588
313.68	8.974
314.05	8.762
314.41	9.381
314.78	7.448
315.14	8.711
315.51	8.772
315.87	9.991
316.24	9.315
316.61	9.325
316.97	8.959
317.34	9.436
317.70	9.869
318.07	10.494
318.43	9.779
318.80	11.706
319.16	9.957
319.53	9.512
319.89	9.290
320.26	10.943
320.62	10.372
320.99	10.526
321.35	10.351
321.72	12.000
322.08	11.903
322.45	12.466
322.81	13.177
323.18	11.770
323.54	13.448
323.91	14.146
324.27	13.339
324.64	14.274
325.00	13.184
325.37	13.268
325.73	15.207
326.10	15.004
326.46	15.309
326.83	15.693
327.19	15.906
327.56	15.573
327.92	15.421
328.29	15.968
328.65	15.745
329.01	16.413
329.38	17.270
329.74	17.808
330.11	18.322
330.47	17.776
330.84	17.571
331.20	18.250
331.56	19.844
331.93	17.824
332.29	18.220
332.66	19.020
333.02	18.007
333.38	18.708
333.75	19.108
334.11	18.515
334.48	19.224
334.84	19.456
335.20	19.479
335.57	19.899
335.93	19.752
336.29	18.885
336.66	19.680
337.02	20.234
337.38	18.878
337.75	19.669
338.11	19.680
338.47	20.430
338.84	19.374
339.20	18.703
339.56	18.781
339.93	18.966
340.29	18.519
340.65	19.465
341.02	19.792
341.38	20.453
341.74	18.160
342.11	20.595
342.47	19.301
342.83	19.887
343.20	21.014
343.56	20.529
343.92	19.536
344.28	19.062
344.65	20.620
345.01	19.891
345.37	19.984
345.73	19.252
346.10	20.203
346.46	18.987
346.82	20.375
347.19	20.244
347.55	20.182
347.91	20.654
348.27	21.093
348.63	20.030
349.00	20.209
349.36	19.851
349.72	20.164
350.08	21.248
350.45	19.468
350.81	19.910
351.17	21.203
351.53	18.878
351.89	19.970
352.26	20.522
352.62	19.776
352.98	20.382
353.34	20.314
353.70	19.954
354.07	20.045
354.43	20.046
354.79	21.316
355.15	20.603
355.51	21.053
355.87	21.466
356.24	20.076
356.60	20.916
356.96	20.979
357.32	21.338
357.68	20.132
358.04	19.686
358.40	20.746
358.77	21.345
359.13	20.458
359.49	20.074
359.85	21.755
360.21	21.377
360.57	21.393
360.93	21.298
361.29	21.614
361.66	22.375
362.02	22.269
362.38	21.363
362.74	21.299
363.10	22.146
363.46	21.537
363.82	21.662
364.18	20.901
364.54	20.885
364.90	21.538
365.26	21.793
365.62	23.333
365.98	21.715
366.35	22.349
366.71	22.857
367.07	22.598
367.43	22.784
367.79	23.159
368.15	23.211
368.51	21.922
368.87	22.730
369.23	22.933
369.59	23.019
369.95	22.650
370.31	23.025
370.67	23.177
371.03	22.922
371.39	22.230
371.75	23.040
372.11	23.713
372.47	22.884
372.83	23.495
373.19	23.949
373.55	23.306
373.91	23.245
374.27	23.739
374.63	24.019
374.99	23.740
375.35	24.221
375.71	23.677
376.07	23.499
376.42	24.811
376.78	24.798
377.14	23.955
377.50	24.225
377.86	24.569
378.22	25.090
378.58	24.197
378.94	25.059
379.30	24.780
379.66	24.750
380.02	24.755
380.38	26.325
380.74	25.521
381.09	24.797
381.45	25.568
381.81	26.230
382.17	25.238
382.53	25.088
382.89	26.242
383.25	25.967
383.61	25.058
383.97	25.559
384.32	26.316
384.68	25.522
385.04	26.489
385.40	26.341
385.76	26.495
386.12	26.152
386.48	25.471
386.83	26.758
387.19	25.492
387.55	26.350
387.91	26.027
388.27	27.079
388.62	26.231
388.98	25.719
389.34	26.341
389.70	26.148
390.06	26.465
390.42	26.386
390.77	26.972
391.13	25.822
391.49	26.510
391.85	26.061
392.20	27.046
392.56	25.989
392.92	26.936
393.28	27.197
393.64	27.039
393.99	27.775
394.35	27.687
394.71	28.802
395.07	26.886
395.42	27.356
395.78	28.702
396.14	27.451
396.50	27.316
396.85	27.490
397.21	27.101
397.57	27.267
397.92	27.491
398.28	26.616
398.64	26.316
399.00	26.649
399.35	27.173
399.71	27.391
400.07	27.793
400.42	28.463
400.78	27.083
401.14	28.401
401.49	27.516
401.85	27.442
402.21	27.578
402.57	27.582
402.92	27.246
403.28	27.166
403.63	27.267
403.99	27.553
404.35	27.004
404.70	27.705
405.06	27.283
405.42	27.225
405.77	27.644
406.13	27.715
406.49	27.815
406.84	27.978
407.20	27.110
407.55	28.468
407.91	28.347
408.27	27.856
408.62	27.749
408.98	27.916
409.34	27.155
409.69	28.492
410.05	28.077
410.40	29.060
410.76	27.706
411.11	29.047
411.47	28.194
411.83	27.925
412.18	29.036
412.54	28.571
412.89	27.765
413.25	28.160
413.60	28.145
413.96	27.972
414.31	28.725
414.67	28.801
415.03	27.385
415.38	28.625
415.74	27.795
416.09	28.501
416.45	27.802
416.80	28.764
417.16	28.416
417.51	27.771
417.87	28.265
418.22	28.802
418.58	28.129
418.93	28.522
419.29	28.915
419.64	28.031
420.00	28.783
420.35	29.366
420.71	29.064
421.06	29.385
421.42	29.243
421.77	27.571
422.12	28.858
422.48	29.083
422.83	30.285
423.19	29.284
423.54	29.701
423.90	28.327
424.25	29.493
424.61	28.530
424.96	30.423
425.31	28.662
425.67	29.039
426.02	29.441
426.38	29.966
426.73	29.074
427.09	29.931
427.44	28.564
427.79	29.187
428.15	29.224
428.50	29.045
428.85	28.703
429.21	29.255
429.56	28.233
429.92	28.796
430.27	28.530
430.62	28.725
430.98	28.529
431.33	29.130
431.68	28.209
432.04	29.253
432.39	29.727
432.74	29.680
433.10	29.475
433.45	28.930
433.80	29.614
434.16	29.390
434.51	30.164
434.86	29.913
435.22	30.818
435.57	30.837
435.92	28.993
436.28	30.489
436.63	29.984
436.98	29.147
437.34	29.651
437.69	30.490
438.04	29.244
438.39	29.868
438.75	29.164
439.10	30.550
439.45	30.408
439.81	30.169
440.16	30.134
440.51	29.877
440.86	30.573
441.22	30.064
441.57	29.822
441.92	29.922
442.27	30.455
442.63	30.204
442.98	30.149
443.33	30.826
443.68	31.467
444.03	31.185
444.39	29.635
444.74	29.709
445.09	29.549
445.44	30.242
445.79	31.130
446.15	29.702
446.50	30.594
446.85	30.399
447.20	30.996
447.55	30.230
447.91	30.105
448.26	30.867
448.61	30.712
448.96	31.974
449.31	30.859
449.66	30.447
450.02	30.327
450.37	30.954
450.72	30.732
451.07	30.923
451.42	30.272
451.77	30.962
452.12	31.377
452.47	31.610
452.83	31.813
453.18	30.823
453.53	31.074
453.88	31.695
454.23	31.582
454.58	31.225
454.93	31.311
455.28	32.330
455.63	31.268
455.98	31.397
456.34	32.686
456.69	31.452
457.04	31.856
457.39	31.208
457.74	31.879
458.09	31.137
458.44	31.250
458.79	30.686
459.14	30.939
459.49	31.862
459.84	31.060
460.19	30.261
460.54	31.800
460.89	31.498
461.24	31.207
461.59	30.769
461.94	30.576
462.29	31.523
462.64	31.201
462.99	31.638
463.34	31.668
463.69	31.887
464.04	31.851
464.39	31.502
464.74	31.129
465.09	32.295
465.44	30.794
465.79	31.782
466.14	31.892
466.49	31.579
466.84	31.846
467.19	32.486
467.54	31.257
467.89	31.207
468.24	31.247
468.59	31.558
468.94	31.177
469.29	31.794
469.64	31.024
469.99	31.804
470.34	32.550
470.68	33.424
471.03	33.202
471.38	33.290
471.73	32.445
472.08	32.424
472.43	32.390
472.78	32.872
473.13	32.996
473.48	33.656
473.83	33.198
474.17	32.708
474.52	33.193
474.87	32.337
475.22	33.239
475.57	32.243
475.92	32.802
476.27	32.588
476.61	31.880
476.96	32.847
477.31	32.822
477.66	33.316
478.01	32.893
478.36	33.051
478.70	32.315
479.05	33.691
479.40	32.527
479.75	33.670
480.10	32.070
480.45	33.455
480.79	32.834
481.14	32.629
481.49	32.894
481.84	32.507
482.19	33.806
482.53	32.794
482.88	32.920
483.23	33.482
483.58	33.144
483.92	32.624
484.27	32.472
484.62	32.261
484.97	32.659
485.31	31.644
485.66	29.571
486.01	27.793
486.36	28.471
486.70	29.367
487.05	30.368
487.40	30.485
487.75	30.916
488.09	30.572
488.44	31.073
488.79	31.433
489.13	32.114
489.48	31.029
489.83	32.354
490.17	31.875
490.52	32.594
490.87	32.064
491.22	32.929
491.56	32.935
491.91	32.577
492.26	33.103
492.60	33.188
492.95	33.392
493.30	33.572
493.64	33.421
493.99	33.684
494.34	32.578
494.68	32.848
495.03	33.040
495.37	32.934
495.72	32.744
496.07	33.348
496.41	32.604
496.76	33.570
497.11	32.696
497.45	33.621
497.80	34.829
498.14	33.243
498.49	33.824
498.84	33.547
499.18	33.063
499.53	33.901
499.87	33.451
500.22	32.769
500.56	33.153
500.91	34.050
501.26	33.955
501.60	33.760
501.95	33.087
502.29	34.094
502.64	34.281
502.98	33.865
503.33	33.261
503.67	33.144
504.02	33.757
504.36	34.897
504.71	34.267
505.06	34.152
505.40	33.592
505.75	34.745
506.09	34.761
506.44	35.794
506.78	34.679
507.13	35.085
507.47	36.381
507.82	35.038
508.16	35.373
508.51	34.693
508.85	35.475
509.19	35.528
509.54	36.263
509.88	35.308
510.23	35.794
510.57	36.201
510.92	34.881
511.26	35.305
511.61	35.104
511.95	36.750
512.30	35.992
512.64	35.882
512.98	35.768
513.33	36.593
513.67	37.430
514.02	37.098
514.36	37.289
514.70	37.552
515.05	37.122
515.39	37.060
515.74	38.282
516.08	37.718
516.42	38.619
516.77	38.696
517.11	37.184
517.46	37.487
517.80	38.001
518.14	39.173
518.49	37.961
518.83	37.733
519.17	38.611
519.52	38.312
519.86	38.384
520.20	38.126
520.55	39.759
520.89	39.471
521.23	38.191
521.58	39.661
521.92	39.377
522.26	39.233
522.61	40.451
522.95	38.581
523.29	39.310
523.64	39.630
523.98	39.989
524.32	40.802
524.66	40.182
525.01	39.921
525.35	39.632
525.69	40.081
526.04	39.552
526.38	39.368
526.72	40.196
527.06	40.000
527.41	39.475
527.75	39.430
528.09	40.437
528.43	39.076
528.78	40.173
529.12	39.851
529.46	39.348
529.80	39.817
530.15	40.116
530.49	40.747
530.83	40.024
531.17	40.024
531.51	40.554
531.86	39.844
532.20	40.793
532.54	40.395
532.88	39.697
533.22	40.483
533.57	38.777
533.91	39.169
534.25	39.457
534.59	40.000
534.93	38.031
535.27	39.493
535.62	38.999
535.96	39.861
536.30	39.307
536.64	39.339
536.98	40.406
537.32	40.123
537.66	39.800
538.01	39.033
538.35	39.160
538.69	39.063
539.03	39.485
539.37	39.046
539.71	39.399
540.05	40.228
540.39	39.853
540.73	38.980
541.07	38.872
541.42	38.393
541.76	38.316
542.10	38.842
542.44	39.342
542.78	39.051
543.12	39.035
543.46	39.072
543.80	38.909
544.14	38.300
544.48	38.712
544.82	38.899
545.16	38.462
545.50	38.945
545.84	38.947
546.18	39.877
546.52	38.662
546.86	38.931
547.20	40.076
547.54	37.703
547.88	37.312
548.22	38.129
548.56	38.678
548.90	37.493
549.24	38.541
549.58	38.297
549.92	39.349
550.26	39.935
550.60	38.928
550.94	40.103
551.28	38.548
551.62	39.757
551.96	38.706
552.30	38.368
552.64	37.834
552.98	37.430
553.32	40.386
553.66	38.199
554.00	38.335
554.34	38.095
554.68	37.573
555.02	38.633
555.36	39.316
555.69	37.924
556.03	37.642
556.37	37.985
556.71	38.554
557.05	38.530
557.39	38.952
557.73	38.705
558.07	38.411
558.41	38.538
558.75	38.404
559.08	39.666
559.42	38.546
559.76	38.738
560.10	38.178
560.44	37.533
560.78	37.437
561.12	37.562
561.45	37.956
561.79	37.424
562.13	38.324
562.47	36.745
562.81	37.215
563.15	36.995
563.48	38.222
563.82	37.727
564.16	36.402
564.50	36.412
564.84	36.696
565.17	36.412
565.51	36.018
565.85	36.401
566.19	36.982
566.52	36.981
566.86	35.371
567.20	36.270
567.54	34.997
567.88	35.219
568.21	34.634
568.55	35.204
568.89	34.226
569.23	33.418
569.56	32.708
569.90	32.787
570.24	32.040
570.57	31.655
570.91	30.863
571.25	30.836
571.59	30.532
571.92	30.437
572.26	30.334
572.60	30.112
572.93	30.086
573.27	29.671
573.61	29.963
573.95	29.522
574.28	28.662
574.62	28.672
574.96	28.386
575.29	28.486
575.63	28.621
575.97	29.269
576.30	28.793
576.64	28.657
576.98	28.884
577.31	28.340
577.65	28.622
577.98	27.974
578.32	27.542
578.66	27.818
578.99	27.708
579.33	28.880
579.67	28.422
580.00	28.321
580.34	27.727
580.67	27.692
581.01	28.299
581.35	27.508
581.68	27.755
582.02	27.052
582.35	27.606
582.69	27.352
583.02	27.322
583.36	27.891
583.70	28.175
584.03	27.958
584.37	28.265
584.70	27.824
585.04	27.598
585.37	27.662
585.71	27.400
586.04	27.587
586.38	27.646
586.72	27.450
587.05	27.680
587.39	27.749
587.72	28.206
588.06	28.506
588.39	27.931
588.73	28.069
589.06	28.866
589.40	28.396
589.73	28.856
590.07	29.973
590.40	29.378
590.73	29.799
591.07	30.491
591.40	30.171
591.74	29.452
592.07	30.248
592.41	29.929
592.74	29.251
593.08	29.108
593.41	28.376
593.75	27.989
594.08	28.204
594.41	28.750
594.75	28.329
595.08	28.533
595.42	28.604
595.75	28.673
596.09	29.278
596.42	29.273
596.75	29.371
597.09	30.101
597.42	29.122
597.75	29.871
598.09	29.444
598.42	29.674
598.76	28.544
599.09	28.729
599.42	27.623
599.76	27.897
600.09	28.428
600.42	28.228
600.76	27.510
601.09	27.282
601.42	27.978
601.76	27.759
602.09	28.270
602.42	27.699
602.76	28.450
603.09	27.863
603.42	28.143
603.76	27.519
604.09	28.282
604.42	28.697
604.76	27.930
605.09	28.081
605.42	28.987
605.75	28.346
606.09	28.257
606.42	27.691
606.75	26.724
607.09	27.458
607.42	28.478
607.75	28.019
608.08	28.848
608.42	28.094
608.75	28.773
609.08	27.716
609.41	28.849
609.75	28.036
610.08	29.024
610.41	28.420
610.74	28.151
611.07	27.842
611.41	28.744
611.74	28.961
612.07	28.471
612.40	27.994
612.73	28.509
613.07	29.487
613.40	29.066
613.73	28.310
614.06	29.097
614.39	28.086
614.72	28.287
615.06	28.056
615.39	28.275
615.72	29.384
616.05	28.558
616.38	29.162
616.71	28.840
617.05	28.062
617.38	30.230
617.71	29.644
618.04	29.196
618.37	29.126
618.70	29.808
619.03	29.211
619.36	30.703
619.69	29.532
620.03	29.881
620.36	29.018
620.69	29.550
621.02	30.709
621.35	32.729
621.68	31.887
622.01	31.103
622.34	30.683
622.67	30.722
623.00	29.420
623.33	30.922
623.66	31.128
623.99	30.876
624.32	31.059
624.65	29.537
624.99	30.559
625.32	30.634
625.65	29.535
625.98	30.373
626.31	29.979
626.64	31.355
626.97	31.658
627.30	30.296
627.63	32.033
627.96	31.907
628.29	31.984
628.62	31.654
628.95	33.655
629.28	32.965
629.61	32.912
629.94	30.377
630.26	32.119
630.59	31.520
630.92	32.381
631.25	34.079
631.58	34.840
631.91	32.990
632.24	33.333
632.57	34.630
632.90	34.102
633.23	35.918
633.56	34.694
633.89	34.298
634.22	34.096
634.55	35.073
634.88	34.307
635.20	35.630
635.53	36.045
635.86	34.453
636.19	35.631
636.52	33.333
636.85	35.342
637.18	33.680
637.51	33.548
