SpectraSuite Data File
++++++++++++++++++++++++++++++++++++
Date: Thu May 14 16:34:21 PDT 2015
User: schluterlab
Dark Spectrum Present: Yes
Reference Spectrum Present: Yes
Number of Sampled Component Spectra: 1
Spectrometers: USB2E3373
Integration Time (usec): 3000 (USB2E3373)
Spectra Averaged: 3 (USB2E3373)
Boxcar Smoothing: 0 (USB2E3373)
Correct for Electrical Dark: No (USB2E3373)
Strobe/Lamp Enabled: No (USB2E3373)
Correct for Detector Non-linearity: No (USB2E3373)
Correct for Stray Light: No (USB2E3373)
Number of Pixels in Processed Spectrum: 2048
>>>>>Begin Processed Spectral Data<<<<<
178.53	0.000
178.91	42.857
179.29	-1300.000
179.67	-800.000
180.04	142.857
180.42	20.000
180.80	260.000
181.18	-600.000
181.56	500.000
181.94	-150.000
182.31	-75.000
182.69	333.333
183.07	-50.000
183.45	200.000
183.83	33.333
184.20	133.333
184.58	-1300.000
184.96	-275.000
185.34	-100.000
185.72	20.000
186.09	144.444
186.47	100.000
186.85	460.000
187.23	-33.333
187.61	-600.000
187.98	-0.000
188.36	175.000
188.74	-300.000
189.12	-233.333
189.49	-12.500
189.87	-150.000
190.25	44.444
190.63	20.000
191.00	-111.111
191.38	0.000
191.76	25.000
192.14	16.667
192.51	50.000
192.89	66.667
193.27	0.000
193.65	-57.143
194.02	-1400.000
194.40	-85.714
194.78	100.000
195.15	0.000
195.53	18.182
195.91	0.000
196.29	-50.000
196.66	-30.769
197.04	-900.000
197.42	-14.286
197.79	-100.000
198.17	-37.500
198.55	14.286
198.92	100.000
199.30	-87.500
199.68	45.455
200.05	57.143
200.43	-400.000
200.81	57.143
201.18	0.000
201.56	166.667
201.94	0.000
202.31	466.667
202.69	-133.333
203.07	-200.000
203.44	44.444
203.82	-200.000
204.19	-33.333
204.57	0.000
204.95	-75.000
205.32	-700.000
205.70	-75.000
206.08	83.333
206.45	83.333
206.83	300.000
207.20	-33.333
207.58	-60.000
207.96	-100.000
208.33	116.667
208.71	-25.000
209.08	33.333
209.46	0.000
209.84	150.000
210.21	250.000
210.59	250.000
210.96	400.000
211.34	-300.000
211.71	-12.500
212.09	-200.000
212.46	0.000
212.84	1050.000
213.22	-320.000
213.59	-100.000
213.97	0.000
214.34	-300.000
214.72	100.000
215.09	-150.000
215.47	0.000
215.84	128.571
216.22	200.000
216.59	-80.000
216.97	-100.000
217.34	-200.000
217.72	-25.000
218.09	50.000
218.47	-200.000
218.84	0.000
219.22	-40.000
219.59	-11.765
219.97	40.000
220.34	750.000
220.72	-44.444
221.09	69.231
221.47	-66.667
221.84	-10.000
222.22	-228.571
222.59	0.000
222.97	50.000
223.34	-160.000
223.72	-400.000
224.09	-75.000
224.46	-50.000
224.84	100.000
225.21	-57.143
225.59	-250.000
225.96	-50.000
226.34	34.615
226.71	266.667
227.08	50.000
227.46	13.333
227.83	-275.000
228.21	15.789
228.58	25.000
228.95	250.000
229.33	50.000
229.70	30.000
230.08	31.579
230.45	100.000
230.82	-300.000
231.20	28.571
231.57	-33.333
231.95	-27.273
232.32	-72.727
232.69	-20.000
233.07	175.000
233.44	-5.882
233.81	-10.000
234.19	61.111
234.56	36.364
234.93	41.379
235.31	42.105
235.68	-5.556
236.05	45.000
236.43	50.000
236.80	44.000
237.17	22.222
237.55	24.242
237.92	-60.000
238.29	9.677
238.67	6.818
239.04	27.778
239.41	19.048
239.79	28.261
240.16	27.778
240.53	45.652
240.91	27.451
241.28	19.672
241.65	47.761
242.02	51.351
242.40	26.154
242.77	28.000
243.14	23.171
243.51	23.684
243.89	30.769
244.26	42.574
244.63	38.235
245.00	30.841
245.38	34.211
245.75	23.894
246.12	29.365
246.49	31.008
246.87	33.571
247.24	23.841
247.61	38.816
247.98	36.242
248.36	46.296
248.73	34.969
249.10	30.601
249.47	44.776
249.84	42.408
250.22	32.642
250.59	36.111
250.96	33.182
251.33	30.102
251.70	37.607
252.08	36.250
252.45	36.066
252.82	32.231
253.19	30.469
253.56	39.544
253.94	35.000
254.31	39.773
254.68	39.510
255.05	36.482
255.42	36.395
255.79	35.275
256.16	36.755
256.54	37.748
256.91	34.098
257.28	35.738
257.65	35.350
258.02	35.398
258.39	35.613
258.76	37.920
259.14	37.644
259.51	38.905
259.88	35.127
260.25	31.667
260.62	38.356
260.99	37.978
261.36	37.534
261.73	39.257
262.10	38.736
262.47	37.534
262.85	39.394
263.22	36.104
263.59	32.632
263.96	36.061
264.33	35.550
264.70	38.765
265.07	40.811
265.44	37.415
265.81	36.806
266.18	35.147
266.55	35.491
266.92	36.219
267.29	36.543
267.66	38.581
268.03	36.026
268.40	36.743
268.77	35.308
269.14	37.225
269.51	35.965
269.88	36.680
270.25	36.016
270.62	40.717
270.99	37.778
271.36	37.030
271.73	36.149
272.10	36.874
272.47	35.070
272.84	37.550
273.21	35.070
273.58	36.492
273.95	35.769
274.32	35.551
274.69	31.721
275.06	37.912
275.43	33.457
275.80	32.981
276.17	34.444
276.54	36.007
276.91	34.884
277.28	34.720
277.65	34.470
278.02	37.500
278.39	33.514
278.76	33.392
279.13	35.106
279.50	35.739
279.87	34.884
280.23	32.218
280.60	33.729
280.97	34.704
281.34	35.654
281.71	34.349
282.08	35.880
282.45	32.570
282.82	33.595
283.19	33.118
283.56	33.443
283.92	35.435
284.29	34.597
284.66	34.647
285.03	33.173
285.40	34.467
285.77	33.437
286.14	33.435
286.51	32.572
286.87	33.649
287.24	32.530
287.61	31.689
287.98	30.665
288.35	32.544
288.72	32.988
289.08	31.186
289.45	31.509
289.82	28.765
290.19	31.322
290.56	31.268
290.93	31.384
291.29	31.818
291.66	30.165
292.03	28.630
292.40	32.381
292.77	29.380
293.13	28.146
293.50	28.778
293.87	27.785
294.24	29.600
294.60	28.571
294.97	26.980
295.34	28.809
295.71	27.491
296.08	28.553
296.44	27.083
296.81	26.675
297.18	27.522
297.55	25.472
297.91	25.504
298.28	24.408
298.65	27.111
299.02	25.738
299.38	26.659
299.75	25.234
300.12	24.537
300.48	25.922
300.85	25.534
301.22	24.609
301.59	25.000
301.95	24.859
302.32	24.667
302.69	25.082
303.05	24.810
303.42	24.279
303.79	25.521
304.15	24.501
304.52	23.150
304.89	22.618
305.25	23.913
305.62	25.287
305.99	25.361
306.35	23.992
306.72	24.405
307.09	22.843
307.45	23.810
307.82	23.512
308.19	24.016
308.55	24.301
308.92	23.856
309.29	24.042
309.65	24.269
310.02	24.257
310.38	23.622
310.75	23.495
311.12	23.969
311.48	23.265
311.85	23.457
312.22	23.814
312.58	23.662
312.95	23.518
313.31	23.126
313.68	23.352
314.05	24.029
314.41	24.135
314.78	22.434
315.14	23.140
315.51	22.807
315.87	23.582
316.24	23.470
316.61	22.025
316.97	23.167
317.34	23.721
317.70	21.572
318.07	22.840
318.43	22.619
318.80	23.411
319.16	22.747
319.53	21.165
319.89	21.998
320.26	22.776
320.62	21.720
320.99	22.161
321.35	22.089
321.72	23.256
322.08	21.731
322.45	22.493
322.81	22.112
323.18	21.327
323.54	21.552
323.91	22.776
324.27	21.687
324.64	22.082
325.00	20.978
325.37	22.031
325.73	21.818
326.10	22.222
326.46	23.371
326.83	22.818
327.19	21.181
327.56	22.846
327.92	21.322
328.29	22.500
328.65	21.524
329.01	22.081
329.38	22.578
329.74	22.175
330.11	23.545
330.47	21.398
330.84	21.447
331.20	21.417
331.56	21.750
331.93	21.925
332.29	22.203
332.66	21.844
333.02	21.441
333.38	21.477
333.75	20.202
334.11	22.018
334.48	21.535
334.84	22.685
335.20	20.991
335.57	21.248
335.93	21.983
336.29	21.048
336.66	21.278
337.02	21.656
337.38	20.918
337.75	20.909
338.11	22.708
338.47	21.671
338.84	20.389
339.20	21.061
339.56	21.005
339.93	21.182
340.29	21.176
340.65	21.168
341.02	21.548
341.38	21.827
341.74	20.823
342.11	21.480
342.47	21.446
342.83	21.337
343.20	21.586
343.56	21.331
343.92	19.936
344.28	21.406
344.65	22.403
345.01	20.593
345.37	21.384
345.73	19.953
346.10	21.529
346.46	19.778
346.82	20.524
347.19	21.008
347.55	19.727
347.91	19.837
348.27	19.727
348.63	20.564
349.00	20.582
349.36	20.223
349.72	19.643
350.08	19.539
350.45	19.544
350.81	19.608
351.17	20.301
351.53	20.470
351.89	20.273
352.26	20.299
352.62	20.522
352.98	20.611
353.34	19.567
353.70	20.647
354.07	19.821
354.43	20.046
354.79	19.521
355.15	19.794
355.51	19.737
355.87	18.848
356.24	20.684
356.60	18.625
356.96	20.608
357.32	19.033
357.68	19.985
358.04	20.509
358.40	19.403
358.77	20.833
359.13	19.055
359.49	18.364
359.85	18.854
360.21	18.938
360.57	19.598
360.93	20.028
361.29	19.860
361.66	19.551
362.02	19.694
362.38	19.115
362.74	19.344
363.10	20.426
363.46	19.114
363.82	19.602
364.18	19.353
364.54	19.433
364.90	20.067
365.26	19.172
365.62	20.000
365.98	19.537
366.35	18.456
366.71	20.340
367.07	20.365
367.43	19.895
367.79	19.244
368.15	20.000
368.51	19.147
368.87	19.660
369.23	19.533
369.59	18.716
369.95	18.999
370.31	19.041
370.67	18.982
371.03	19.044
371.39	18.469
371.75	19.326
372.11	18.902
372.47	19.499
372.83	19.175
373.19	19.413
373.55	19.512
373.91	18.064
374.27	18.499
374.63	19.486
374.99	18.103
375.35	19.935
375.71	18.581
376.07	19.238
376.42	19.207
376.78	19.515
377.14	18.528
377.50	19.545
377.86	19.335
378.22	19.341
378.58	19.263
378.94	19.014
379.30	18.278
379.66	18.342
380.02	18.523
380.38	19.009
380.74	19.155
381.09	18.409
381.45	18.807
381.81	19.087
382.17	19.596
382.53	19.415
382.89	18.623
383.25	19.343
383.61	17.940
383.97	18.257
384.32	19.139
384.68	18.329
385.04	19.318
385.40	18.739
385.76	18.757
386.12	18.372
386.48	18.235
386.83	19.070
387.19	17.787
387.55	18.310
387.91	18.379
388.27	19.169
388.62	18.442
388.98	18.669
389.34	19.093
389.70	18.594
390.06	18.295
390.42	18.614
390.77	19.205
391.13	18.721
391.49	18.961
391.85	18.182
392.20	18.802
392.56	19.492
392.92	19.029
393.28	18.574
393.64	17.709
393.99	18.478
394.35	18.633
394.71	19.162
395.07	18.084
395.42	18.561
395.78	18.282
396.14	18.301
396.50	18.409
396.85	18.605
397.21	18.994
397.57	18.257
397.92	19.301
398.28	18.197
398.64	17.963
399.00	17.539
399.35	19.005
399.71	18.261
400.07	18.697
400.42	18.510
400.78	18.171
401.14	18.896
401.49	19.045
401.85	19.070
402.21	18.656
402.57	18.310
402.92	17.612
403.28	17.857
403.63	18.079
403.99	17.518
404.35	18.988
404.70	19.263
405.06	17.500
405.42	19.087
405.77	17.666
406.13	17.504
406.49	18.300
406.84	18.560
407.20	17.440
407.55	17.383
407.91	18.542
408.27	17.903
408.62	18.325
408.98	18.050
409.34	17.126
409.69	18.294
410.05	19.168
410.40	19.026
410.76	18.396
411.11	19.170
411.47	18.182
411.83	18.460
412.18	18.373
412.54	18.909
412.89	18.219
413.25	18.002
413.60	18.553
413.96	18.298
414.31	18.300
414.67	18.366
415.03	18.092
415.38	18.474
415.74	18.204
416.09	18.754
416.45	17.470
416.80	18.115
417.16	18.199
417.51	17.435
417.87	17.167
418.22	17.964
418.58	17.782
418.93	18.626
419.29	18.002
419.64	18.007
420.00	18.101
420.35	17.911
420.71	17.806
421.06	18.171
421.42	17.775
421.77	17.609
422.12	17.389
422.48	18.024
422.83	18.784
423.19	17.719
423.54	18.861
423.90	18.056
424.25	18.027
424.61	17.623
424.96	18.177
425.31	18.737
425.67	17.606
426.02	17.709
426.38	17.623
426.73	18.638
427.09	18.627
427.44	18.023
427.79	18.242
428.15	18.037
428.50	17.809
428.85	17.968
429.21	18.457
429.56	18.460
429.92	18.133
430.27	18.843
430.62	18.075
430.98	17.905
431.33	17.644
431.68	17.816
432.04	18.131
432.39	17.729
432.74	17.580
433.10	18.226
433.45	17.949
433.80	18.133
434.16	17.769
434.51	18.705
434.86	18.512
435.22	19.129
435.57	18.337
435.92	18.531
436.28	18.146
436.63	18.187
436.98	18.304
437.34	18.264
437.69	17.777
438.04	18.350
438.39	17.576
438.75	17.377
439.10	18.129
439.45	18.614
439.81	17.684
440.16	17.212
440.51	18.339
440.86	18.010
441.22	17.953
441.57	18.606
441.92	17.701
442.27	18.535
442.63	17.834
442.98	18.730
443.33	17.622
443.68	18.583
444.03	19.567
444.39	18.215
444.74	18.734
445.09	17.993
445.44	17.650
445.79	18.391
446.15	18.294
446.50	18.140
446.85	18.920
447.20	18.279
447.55	18.096
447.91	18.377
448.26	17.706
448.61	18.810
448.96	19.206
449.31	18.346
449.66	18.246
450.02	19.409
450.37	18.221
450.72	18.138
451.07	18.565
451.42	18.255
451.77	18.566
452.12	18.623
452.47	18.063
452.83	18.750
453.18	18.914
453.53	18.553
453.88	18.609
454.23	18.362
454.58	18.514
454.93	18.204
455.28	18.483
455.63	19.329
455.98	18.547
456.34	18.139
456.69	17.872
457.04	18.203
457.39	18.570
457.74	18.960
458.09	18.177
458.44	18.373
458.79	18.051
459.14	18.353
459.49	18.393
459.84	18.888
460.19	17.990
460.54	19.250
460.89	17.840
461.24	18.563
461.59	19.203
461.94	17.798
462.29	19.373
462.64	19.010
462.99	19.272
463.34	18.819
463.69	18.347
464.04	19.511
464.39	18.554
464.74	18.016
465.09	18.397
465.44	18.884
465.79	18.826
466.14	18.499
466.49	18.158
466.84	18.292
467.19	19.306
467.54	19.448
467.89	18.046
468.24	18.227
468.59	18.124
468.94	18.706
469.29	17.756
469.64	18.500
469.99	18.419
470.34	18.564
470.68	18.729
471.03	18.533
471.38	19.163
471.73	18.596
472.08	18.655
472.43	19.085
472.78	19.458
473.13	18.963
473.48	19.819
473.83	18.979
474.17	19.754
474.52	18.701
474.87	19.103
475.22	18.592
475.57	18.744
475.92	18.815
476.27	18.158
476.61	19.055
476.96	18.092
477.31	19.752
477.66	19.570
478.01	18.709
478.36	19.492
478.70	18.670
479.05	18.712
479.40	19.250
479.75	19.597
480.10	18.285
480.45	18.642
480.79	19.138
481.14	18.888
481.49	18.900
481.84	19.582
482.19	19.355
482.53	19.458
482.88	19.096
483.23	19.031
483.58	18.384
483.92	18.528
484.27	18.628
484.62	18.936
484.97	19.362
485.31	18.691
485.66	17.607
486.01	17.138
486.36	17.649
486.70	18.240
487.05	18.780
487.40	18.319
487.75	18.957
488.09	18.822
488.44	18.064
488.79	19.258
489.13	19.225
489.48	18.757
489.83	18.712
490.17	18.712
490.52	18.719
490.87	19.120
491.22	19.021
491.56	19.326
491.91	19.581
492.26	19.472
492.60	18.977
492.95	19.043
493.30	19.274
493.64	19.623
493.99	19.430
494.34	18.772
494.68	19.186
495.03	19.383
495.37	19.219
495.72	19.773
496.07	20.070
496.41	18.662
496.76	19.391
497.11	18.769
497.45	19.292
497.80	19.680
498.14	19.320
498.49	19.807
498.84	19.607
499.18	19.163
499.53	19.910
499.87	19.473
500.22	18.210
500.56	19.073
500.91	19.314
501.26	19.773
501.60	18.825
501.95	19.453
502.29	19.482
502.64	19.851
502.98	19.543
503.33	19.006
503.67	18.622
504.02	19.308
504.36	19.794
504.71	19.293
505.06	19.509
505.40	19.516
505.75	19.536
506.09	19.521
506.44	19.638
506.78	20.000
507.13	19.594
507.47	20.654
507.82	19.555
508.16	19.359
508.51	19.691
508.85	19.414
509.19	19.517
509.54	20.413
509.88	20.447
510.23	20.010
510.57	20.155
510.92	20.174
511.26	20.298
511.61	18.928
511.95	19.863
512.30	20.778
512.64	19.890
512.98	20.210
513.33	20.766
513.67	20.398
514.02	21.155
514.36	21.074
514.70	20.208
515.05	20.021
515.39	20.367
515.74	20.520
516.08	20.180
516.42	20.513
516.77	20.925
517.11	20.113
517.46	21.262
517.80	20.791
518.14	20.947
518.49	21.041
518.83	20.862
519.17	20.625
519.52	21.122
519.86	21.119
520.20	21.299
520.55	21.030
520.89	20.890
521.23	20.882
521.58	21.130
521.92	20.850
522.26	21.420
522.61	20.602
522.95	20.704
523.29	20.747
523.64	20.404
523.98	21.848
524.32	21.777
524.66	20.888
525.01	21.348
525.35	21.310
525.69	21.288
526.04	20.321
526.38	21.724
526.72	21.223
527.06	21.290
527.41	21.691
527.75	21.496
528.09	20.602
528.43	21.374
528.78	20.462
529.12	21.674
529.46	20.630
529.80	21.739
530.15	21.043
530.49	20.937
530.83	21.488
531.17	20.848
531.51	21.420
531.86	21.755
532.20	21.524
532.54	21.125
532.88	21.697
533.22	21.273
533.57	20.427
533.91	21.549
534.25	20.859
534.59	20.920
534.93	20.374
535.27	21.127
535.62	21.205
535.96	21.267
536.30	21.093
536.64	21.742
536.98	22.079
537.32	22.778
537.66	22.271
538.01	22.115
538.35	20.950
538.69	20.733
539.03	20.723
539.37	20.848
539.71	20.781
540.05	21.463
540.39	20.660
540.73	21.129
541.07	21.704
541.42	21.028
541.76	20.581
542.10	20.326
542.44	20.950
542.78	22.506
543.12	21.097
543.46	22.039
543.80	20.683
544.14	21.364
544.48	21.690
544.82	21.604
545.16	21.646
545.50	20.551
545.84	21.433
546.18	22.593
546.52	21.783
546.86	21.572
547.20	21.565
547.54	21.161
547.88	20.976
548.22	21.345
548.56	20.714
548.90	20.358
549.24	21.094
549.58	21.830
549.92	21.046
550.26	21.618
550.60	21.442
550.94	21.928
551.28	22.640
551.62	22.237
551.96	22.136
552.30	21.542
552.64	21.904
552.98	21.834
553.32	22.315
553.66	22.122
554.00	22.194
554.34	21.364
554.68	20.852
555.02	21.551
555.36	21.499
555.69	20.628
556.03	21.753
556.37	22.215
556.71	21.814
557.05	21.725
557.39	21.301
557.73	21.532
558.07	21.391
558.41	21.728
558.75	21.907
559.08	22.895
559.42	21.948
559.76	22.185
560.10	23.175
560.44	21.702
560.78	22.375
561.12	21.552
561.45	21.655
561.79	21.856
562.13	22.120
562.47	20.037
562.81	21.203
563.15	21.654
563.48	21.815
563.82	21.524
564.16	21.018
564.50	20.918
564.84	21.475
565.17	21.118
565.51	21.059
565.85	21.140
566.19	20.910
566.52	21.592
566.86	21.279
567.20	20.772
567.54	21.561
567.88	20.387
568.21	21.690
568.55	21.247
568.89	20.517
569.23	20.321
569.56	20.242
569.90	19.672
570.24	19.460
570.57	19.275
570.91	19.106
571.25	19.092
571.59	19.733
571.92	19.296
572.26	18.899
572.60	19.465
572.93	19.343
573.27	19.050
573.61	19.190
573.95	19.204
574.28	18.991
574.62	18.668
574.96	18.593
575.29	18.506
575.63	18.734
575.97	19.138
576.30	19.097
576.64	19.112
576.98	18.702
577.31	19.317
577.65	18.861
577.98	18.769
578.32	18.459
578.66	18.507
578.99	18.841
579.33	19.031
579.67	18.744
580.00	18.926
580.34	18.848
580.67	18.667
581.01	19.104
581.35	18.605
581.68	18.190
582.02	18.404
582.35	18.711
582.69	18.560
583.02	18.296
583.36	19.018
583.70	18.791
584.03	18.838
584.37	19.353
584.70	18.998
585.04	18.810
585.37	18.780
585.71	18.490
586.04	18.736
586.38	18.895
586.72	18.651
587.05	18.598
587.39	19.048
587.72	19.354
588.06	19.125
588.39	19.144
588.73	19.101
589.06	19.357
589.40	19.453
589.73	19.794
590.07	20.259
590.40	20.014
590.73	19.724
591.07	19.360
591.40	19.751
591.74	19.674
592.07	19.488
592.41	19.401
592.74	19.773
593.08	19.204
593.41	19.306
593.75	19.023
594.08	18.994
594.41	18.942
594.75	19.495
595.08	19.448
595.42	19.578
595.75	19.341
596.09	19.112
596.42	19.097
596.75	19.606
597.09	20.121
597.42	19.666
597.75	19.287
598.09	20.119
598.42	19.944
598.76	19.450
599.09	18.939
599.42	19.410
599.76	19.280
600.09	19.620
600.42	19.353
600.76	19.386
601.09	19.018
601.42	19.361
601.76	19.138
602.09	19.478
602.42	20.102
602.76	19.483
603.09	19.493
603.42	19.400
603.76	19.133
604.09	19.624
604.42	19.376
604.76	19.254
605.09	19.824
605.42	20.255
605.75	19.577
606.09	19.485
606.42	19.482
606.75	18.853
607.09	19.432
607.42	19.499
607.75	19.695
608.08	19.376
608.42	18.501
608.75	19.818
609.08	19.312
609.41	19.585
609.75	19.420
610.08	19.833
610.41	19.796
610.74	19.874
611.07	19.893
611.41	20.045
611.74	20.462
612.07	20.337
612.40	19.724
612.73	20.391
613.07	20.196
613.40	20.115
613.73	20.558
614.06	19.872
614.39	19.388
614.72	20.087
615.06	20.212
615.39	19.720
615.72	20.142
616.05	19.961
616.38	20.383
616.71	19.958
617.05	19.702
617.38	20.439
617.71	20.464
618.04	21.047
618.37	20.546
618.70	20.814
619.03	20.550
619.36	19.729
619.69	21.653
620.03	21.218
620.36	20.491
620.69	20.605
621.02	21.325
621.35	21.190
621.68	22.198
622.01	22.278
622.34	20.572
622.67	21.306
623.00	20.648
623.33	21.566
623.66	22.374
623.99	20.211
624.32	21.767
624.65	20.721
624.99	21.131
625.32	21.163
625.65	21.713
625.98	20.610
626.31	21.474
626.64	21.392
626.97	20.855
627.30	20.881
627.63	21.155
627.96	21.471
628.29	22.802
628.62	21.662
628.95	21.735
629.28	23.280
629.61	21.296
629.94	21.423
630.26	21.441
630.59	21.503
630.92	21.385
631.25	23.524
631.58	21.281
631.91	22.774
632.24	22.094
632.57	23.055
632.90	22.568
633.23	22.449
633.56	22.245
633.89	22.934
