SpectraSuite Data File
++++++++++++++++++++++++++++++++++++
Date: Thu May 14 16:27:13 PDT 2015
User: schluterlab
Dark Spectrum Present: Yes
Reference Spectrum Present: Yes
Number of Sampled Component Spectra: 1
Spectrometers: USB2E3373
Integration Time (usec): 3000 (USB2E3373)
Spectra Averaged: 3 (USB2E3373)
Boxcar Smoothing: 0 (USB2E3373)
Correct for Electrical Dark: No (USB2E3373)
Strobe/Lamp Enabled: No (USB2E3373)
Correct for Detector Non-linearity: No (USB2E3373)
Correct for Stray Light: No (USB2E3373)
Number of Pixels in Processed Spectrum: 2048
>>>>>Begin Processed Spectral Data<<<<<
178.53	0.000
178.91	142.857
179.29	-600.000
179.67	-300.000
180.04	100.000
180.42	100.000
180.80	140.000
181.18	-500.000
181.56	1000.000
181.94	-0.000
182.31	275.000
182.69	100.000
183.07	-100.000
183.45	225.000
183.83	116.667
184.20	0.000
184.58	-500.000
184.96	-75.000
185.34	22.222
185.72	160.000
186.09	100.000
186.47	50.000
186.85	200.000
187.23	-66.667
187.61	-100.000
187.98	20.000
188.36	75.000
188.74	25.000
189.12	-33.333
189.49	100.000
189.87	-75.000
190.25	-11.111
190.63	-160.000
191.00	-88.889
191.38	0.000
191.76	-150.000
192.14	-66.667
192.51	150.000
192.89	116.667
193.27	0.000
193.65	100.000
194.02	-1000.000
194.40	-42.857
194.78	157.143
195.15	0.000
195.53	9.091
195.91	0.000
196.29	225.000
196.66	23.077
197.04	-1000.000
197.42	-14.286
197.79	-100.000
198.17	87.500
198.55	-42.857
198.92	122.222
199.30	-25.000
199.68	36.364
200.05	7.143
200.43	-300.000
200.81	114.286
201.18	0.000
201.56	111.111
201.94	0.000
202.31	366.667
202.69	-33.333
203.07	-100.000
203.44	55.556
203.82	-75.000
204.19	25.000
204.57	33.333
204.95	100.000
205.32	200.000
205.70	100.000
206.08	0.000
206.45	100.000
206.83	160.000
207.20	0.000
207.58	0.000
207.96	-116.667
208.33	16.667
208.71	91.667
209.08	66.667
209.46	0.000
209.84	83.333
210.21	200.000
210.59	-350.000
210.96	366.667
211.34	-250.000
211.71	-12.500
212.09	-900.000
212.46	0.000
212.84	550.000
213.22	-100.000
213.59	25.000
213.97	-40.000
214.34	0.000
214.72	133.333
215.09	25.000
215.47	0.000
215.84	71.429
216.22	-200.000
216.59	20.000
216.97	-140.000
217.34	225.000
217.72	112.500
218.09	-100.000
218.47	0.000
218.84	0.000
219.22	-0.000
219.59	-29.412
219.97	30.000
220.34	100.000
220.72	0.000
221.09	61.538
221.47	100.000
221.84	-30.000
222.22	-71.429
222.59	0.000
222.97	100.000
223.34	-80.000
223.72	-600.000
224.09	-100.000
224.46	-50.000
224.84	-160.000
225.21	-100.000
225.59	-150.000
225.96	-200.000
226.34	11.538
226.71	-16.667
227.08	150.000
227.46	80.000
227.83	-100.000
228.21	52.632
228.58	12.500
228.95	100.000
229.33	50.000
229.70	90.000
230.08	47.368
230.45	60.000
230.82	233.333
231.20	-21.429
231.57	25.000
231.95	36.364
232.32	18.182
232.69	-35.000
233.07	-25.000
233.44	17.647
233.81	-110.000
234.19	50.000
234.56	4.545
234.93	44.828
235.31	84.211
235.68	11.111
236.05	5.000
236.43	61.538
236.80	132.000
237.17	92.593
237.55	48.485
237.92	10.000
238.29	29.032
238.67	9.091
239.04	38.889
239.41	40.476
239.79	4.348
240.16	22.222
240.53	28.261
240.91	37.255
241.28	49.180
241.65	47.761
242.02	47.297
242.40	20.000
242.77	49.333
243.14	28.049
243.51	27.632
243.89	39.744
244.26	23.762
244.63	48.039
245.00	34.579
245.38	35.965
245.75	23.009
246.12	39.683
246.49	38.760
246.87	43.571
247.24	29.139
247.61	36.184
247.98	38.255
248.36	44.444
248.73	31.902
249.10	32.787
249.47	38.308
249.84	40.314
250.22	36.269
250.59	35.000
250.96	42.273
251.33	35.204
251.70	33.761
252.08	40.417
252.45	35.656
252.82	35.950
253.19	35.547
253.56	39.544
253.94	33.462
254.31	37.879
254.68	38.112
255.05	39.088
255.42	36.054
255.79	35.275
256.16	38.742
256.54	36.755
256.91	38.033
257.28	35.410
257.65	36.306
258.02	31.858
258.39	34.758
258.76	38.532
259.14	39.943
259.51	35.735
259.88	38.810
260.25	38.056
260.62	37.808
260.99	38.251
261.36	35.657
261.73	36.340
262.10	40.110
262.47	41.287
262.85	36.869
263.22	35.844
263.59	34.737
263.96	39.642
264.33	39.130
264.70	37.778
265.07	39.857
265.44	38.322
265.81	35.880
266.18	39.909
266.55	38.393
266.92	35.991
267.29	40.044
267.66	36.807
268.03	37.991
268.40	38.622
268.77	34.396
269.14	38.987
269.51	36.404
269.88	37.705
270.25	37.626
270.62	37.553
270.99	38.586
271.36	37.426
271.73	37.132
272.10	37.074
272.47	37.876
272.84	37.349
273.21	38.277
273.58	38.306
273.95	34.423
274.32	34.030
274.69	35.783
275.06	35.897
275.43	34.381
275.80	34.568
276.17	33.519
276.54	35.448
276.91	34.884
277.28	37.251
277.65	35.727
278.02	37.316
278.39	37.138
278.76	35.149
279.13	35.284
279.50	37.457
279.87	35.242
280.23	30.810
280.60	34.746
280.97	37.007
281.34	34.635
281.71	37.225
282.08	34.551
282.45	34.043
282.82	37.363
283.19	33.764
283.56	35.082
283.92	35.135
284.29	36.493
284.66	35.140
285.03	30.929
285.40	33.849
285.77	34.830
286.14	32.977
286.51	33.029
286.87	33.491
287.24	35.241
287.61	33.632
287.98	34.592
288.35	34.615
288.72	32.988
289.08	34.407
289.45	33.136
289.82	32.078
290.19	34.052
290.56	32.113
290.93	30.670
291.29	32.094
291.66	31.267
292.03	29.715
292.40	31.565
292.77	29.784
293.13	32.206
293.50	30.223
293.87	29.799
294.24	31.200
294.60	29.583
294.97	28.993
295.34	28.809
295.71	27.617
296.08	28.941
296.44	28.309
296.81	28.989
297.18	28.643
297.55	27.712
297.91	27.758
298.28	27.133
298.65	27.348
299.02	26.919
299.38	24.943
299.75	27.570
300.12	25.926
300.48	26.152
300.85	26.659
301.22	25.727
301.59	25.342
301.95	25.989
302.32	26.333
302.69	25.630
303.05	25.680
303.42	25.610
303.79	25.729
304.15	25.447
304.52	25.264
304.89	25.236
305.25	25.673
305.62	25.601
305.99	25.155
306.35	25.202
306.72	25.336
307.09	26.193
307.45	25.362
307.82	24.319
308.19	25.832
308.55	25.265
308.92	23.272
309.29	24.425
309.65	25.049
310.02	25.050
310.38	25.000
310.75	24.951
311.12	24.832
311.48	23.949
311.85	24.122
312.22	25.237
312.58	24.225
312.95	23.805
313.31	24.119
313.68	24.725
314.05	24.661
314.41	24.681
314.78	23.524
315.14	24.955
315.51	25.392
315.87	24.392
316.24	24.110
316.61	23.979
316.97	23.620
317.34	23.986
317.70	24.105
318.07	24.868
318.43	23.129
318.80	23.161
319.16	23.863
319.53	22.965
319.89	22.086
320.26	24.021
320.62	23.227
320.99	23.453
321.35	23.290
321.72	24.465
322.08	22.994
322.45	23.668
322.81	24.458
323.18	23.805
323.54	23.448
323.91	24.466
324.27	22.806
324.64	24.265
325.00	23.715
325.37	24.898
325.73	24.463
326.10	24.169
326.46	23.860
326.83	24.420
327.19	23.150
327.56	24.111
327.92	23.525
328.29	23.548
328.65	23.032
329.01	24.112
329.38	23.842
329.74	24.058
330.11	24.401
330.47	23.252
330.84	24.548
331.20	24.583
331.56	24.177
331.93	23.598
332.29	23.644
332.66	24.668
333.02	22.781
333.38	23.406
333.75	23.569
334.11	23.520
334.48	22.937
334.84	23.110
335.20	22.922
335.57	22.934
335.93	22.893
336.29	22.629
336.66	22.708
337.02	22.408
337.38	24.150
337.75	22.727
338.11	24.054
338.47	23.325
338.84	23.689
339.20	21.230
339.56	22.982
339.93	22.250
340.29	21.417
340.65	22.222
341.02	22.905
341.38	23.201
341.74	22.518
342.11	21.963
342.47	22.081
342.83	22.222
343.20	21.750
343.56	21.973
343.92	21.697
344.28	22.891
344.65	21.783
345.01	22.231
345.37	22.162
345.73	22.214
346.10	23.011
346.46	22.073
346.82	21.948
347.19	21.161
347.55	22.989
347.91	21.768
348.27	22.307
348.63	22.163
349.00	21.700
349.36	22.900
349.72	22.173
350.08	23.031
350.45	21.369
350.81	21.342
351.17	21.729
351.53	21.759
351.89	21.564
352.26	21.343
352.62	22.612
352.98	21.603
353.34	21.285
353.70	21.957
354.07	21.759
354.43	20.349
354.79	21.316
355.15	20.898
355.51	21.711
355.87	21.391
356.24	21.673
356.60	20.769
356.96	21.349
357.32	20.595
357.68	21.010
358.04	21.482
358.40	21.194
358.77	21.272
359.13	21.049
359.49	20.149
359.85	21.682
360.21	20.230
360.57	21.393
360.93	20.451
361.29	21.825
361.66	20.999
362.02	21.155
362.38	21.434
362.74	20.740
363.10	21.114
363.46	20.776
363.82	20.952
364.18	21.112
364.54	20.954
364.90	20.936
365.26	19.931
365.62	21.200
365.98	20.490
366.35	21.208
366.71	20.952
367.07	20.433
367.43	21.602
367.79	20.438
368.15	20.736
368.51	21.516
368.87	20.509
369.23	21.267
369.59	19.945
369.95	20.892
370.31	21.810
370.67	21.114
371.03	21.537
371.39	19.610
371.75	20.426
372.11	19.986
372.47	20.650
372.83	19.895
373.19	20.213
373.55	20.867
373.91	20.314
374.27	20.569
374.63	20.027
374.99	19.761
375.35	20.325
375.71	20.516
376.07	20.013
376.42	19.458
376.78	19.888
377.14	19.963
377.50	19.608
377.86	19.889
378.22	19.760
378.58	19.976
378.94	19.601
379.30	19.742
379.66	20.106
380.02	19.388
380.38	19.931
380.74	19.944
381.09	19.512
381.45	19.716
381.81	21.370
382.17	19.596
382.53	19.415
382.89	19.582
383.25	19.754
383.61	18.981
383.97	20.200
384.32	20.036
384.68	18.677
385.04	19.607
385.40	19.505
385.76	19.812
386.12	19.689
386.48	20.706
386.83	20.679
387.19	19.061
387.55	19.014
387.91	19.349
388.27	19.861
388.62	19.702
388.98	18.782
389.34	19.918
389.70	19.698
390.06	20.545
390.42	18.675
390.77	20.891
391.13	19.953
391.49	19.143
391.85	19.636
392.20	19.692
392.56	19.965
392.92	20.393
393.28	19.182
393.64	19.330
393.99	19.872
394.35	19.568
394.71	20.060
395.07	19.461
395.42	18.504
395.78	20.353
396.14	19.846
396.50	19.537
396.85	19.738
397.21	20.178
397.57	19.081
397.92	18.843
398.28	18.631
398.64	18.535
399.00	18.534
399.35	19.162
399.71	18.424
400.07	18.922
400.42	19.150
400.78	19.329
401.14	19.294
401.49	19.102
401.85	18.663
402.21	19.641
402.57	20.188
402.92	19.976
403.28	18.794
403.63	18.496
403.99	19.181
404.35	19.102
404.70	19.037
405.06	19.239
405.42	19.087
405.77	19.793
406.13	19.611
406.49	19.651
406.84	18.837
407.20	18.502
407.55	19.140
407.91	18.793
408.27	19.258
408.62	19.546
408.98	18.050
409.34	18.299
409.69	18.912
410.05	20.106
410.40	19.084
410.76	19.574
411.11	19.287
411.47	19.902
411.83	19.518
412.18	20.120
412.54	18.969
412.89	20.023
413.25	19.357
413.60	18.782
413.96	19.347
414.31	19.433
414.67	19.141
415.03	19.754
415.38	19.231
415.74	19.914
416.09	19.371
416.45	18.410
416.80	19.400
417.16	18.455
417.51	18.867
417.87	19.681
418.22	19.341
418.58	19.269
418.93	19.965
419.29	18.866
419.64	18.667
420.00	19.525
420.35	19.090
420.71	18.782
421.06	18.976
421.42	19.381
421.77	18.578
422.12	19.239
422.48	19.355
422.83	19.441
423.19	19.310
423.54	19.082
423.90	19.768
424.25	19.840
424.61	19.231
424.96	19.769
425.31	20.170
425.67	19.002
426.02	18.982
426.38	19.460
426.73	18.862
427.09	19.262
427.44	18.351
427.79	19.624
428.15	18.493
428.50	19.888
428.85	18.542
429.21	19.787
429.56	18.115
429.92	18.919
430.27	19.133
430.62	19.199
430.98	19.134
431.33	18.524
431.68	18.966
432.04	18.994
432.39	19.389
432.74	19.007
433.10	19.524
433.45	18.116
433.80	19.152
434.16	19.370
434.51	19.527
434.86	18.730
435.22	19.022
435.57	19.870
435.92	19.143
436.28	19.738
436.63	19.279
436.98	18.465
437.34	19.278
437.69	19.207
438.04	18.614
438.39	19.644
438.75	19.148
439.10	19.239
439.45	18.893
439.81	19.040
440.16	18.552
440.51	19.454
440.86	18.344
441.22	18.810
441.57	19.287
441.92	18.962
442.27	18.636
442.63	19.374
442.98	18.943
443.33	18.727
443.68	19.475
444.03	20.132
444.39	18.909
444.74	19.704
445.09	19.311
445.44	19.968
445.79	19.301
446.15	19.990
446.50	18.605
446.85	19.407
447.20	19.487
447.55	19.142
447.91	19.267
448.26	18.816
448.61	19.182
448.96	20.279
449.31	18.558
449.66	19.118
450.02	18.618
450.37	19.872
450.72	17.869
451.07	19.590
451.42	18.140
451.77	19.177
452.12	19.582
452.47	19.489
452.83	19.932
453.18	19.673
453.53	18.438
453.88	18.719
454.23	19.605
454.58	19.211
454.93	19.235
455.28	18.964
455.63	19.727
455.98	19.441
456.34	19.376
456.69	19.342
457.04	19.267
457.39	19.290
457.74	19.575
458.09	19.605
458.44	20.420
458.79	18.412
459.14	19.612
459.49	19.015
459.84	19.203
460.19	19.767
460.54	19.648
460.89	19.111
461.24	18.678
461.59	20.199
461.94	18.825
462.29	19.149
462.64	19.252
462.99	18.770
463.34	20.052
463.69	18.171
464.04	20.122
464.39	19.395
464.74	19.669
465.09	18.973
465.44	19.152
465.79	19.461
466.14	19.229
466.49	19.211
466.84	18.898
467.19	18.671
467.54	18.978
467.89	18.793
468.24	19.557
468.59	18.761
468.94	19.231
469.29	17.996
469.64	19.263
469.99	19.503
470.34	19.554
470.68	19.891
471.03	19.712
471.38	19.032
471.73	19.181
472.08	19.099
472.43	18.362
472.78	20.214
473.13	18.394
473.48	19.456
473.83	18.572
474.17	19.578
474.52	18.641
474.87	19.601
475.22	19.493
475.57	18.744
475.92	19.014
476.27	19.276
476.61	18.744
476.96	18.822
477.31	20.149
477.66	19.570
478.01	19.929
478.36	19.143
478.70	19.064
479.05	19.274
479.40	19.250
479.75	18.924
480.10	18.759
480.45	18.323
480.79	19.002
481.14	19.210
481.49	19.219
481.84	19.843
482.19	19.140
482.53	19.370
482.88	19.451
483.23	19.031
483.58	18.952
483.92	19.193
484.27	19.052
484.62	18.688
484.97	19.246
485.31	19.043
485.66	18.309
486.01	18.116
486.36	18.567
486.70	19.364
487.05	19.592
487.40	19.503
487.75	19.822
488.09	19.752
488.44	19.390
488.79	19.966
489.13	19.008
489.48	18.214
489.83	19.396
490.17	18.388
490.52	18.678
490.87	19.036
491.22	19.021
491.56	19.753
491.91	19.145
492.26	18.650
492.60	18.758
492.95	18.649
493.30	19.095
493.64	19.185
493.99	19.211
494.34	18.510
494.68	18.672
495.03	19.119
495.37	19.086
495.72	19.592
496.07	19.194
496.41	18.361
496.76	19.224
497.11	18.726
497.45	18.645
497.80	18.969
498.14	18.141
498.49	18.428
498.84	19.424
499.18	18.938
499.53	19.731
499.87	19.385
500.22	18.166
500.56	18.578
500.91	18.810
501.26	19.273
501.60	17.941
501.95	19.019
502.29	18.912
502.64	18.933
502.98	18.464
503.33	17.797
503.67	18.666
504.02	18.520
504.36	19.124
504.71	18.420
505.06	18.508
505.40	18.693
505.75	18.898
506.09	19.337
506.44	19.174
506.78	19.495
507.13	18.857
507.47	19.233
507.82	18.797
508.16	18.690
508.51	18.143
508.85	19.225
509.19	19.233
509.54	19.212
509.88	18.941
510.23	18.893
510.57	18.946
510.92	19.158
511.26	19.144
511.61	18.252
511.95	18.985
512.30	19.104
512.64	18.541
512.98	18.609
513.33	19.405
513.67	19.072
514.02	19.111
514.36	18.977
514.70	18.437
515.05	18.978
515.39	18.740
515.74	19.565
516.08	19.334
516.42	18.943
516.77	19.138
517.11	18.412
517.46	18.876
517.80	19.294
518.14	19.314
518.49	20.119
518.83	18.787
519.17	18.094
519.52	19.340
519.86	18.743
520.20	19.010
520.55	18.565
520.89	18.637
521.23	19.263
521.58	18.983
521.92	18.527
522.26	18.156
522.61	19.444
522.95	19.319
523.29	19.138
523.64	19.226
523.98	19.167
524.32	19.771
524.66	18.725
525.01	18.177
525.35	18.840
525.69	18.910
526.04	17.566
526.38	18.851
526.72	19.031
527.06	18.710
527.41	19.125
527.75	19.893
528.09	18.831
528.43	17.703
528.78	19.249
529.12	18.521
529.46	18.550
529.80	19.336
530.15	18.377
530.49	19.098
530.83	19.362
531.17	19.594
531.51	18.953
531.86	19.111
532.20	19.390
532.54	19.569
532.88	19.212
533.22	19.859
533.57	18.580
533.91	18.967
534.25	18.881
534.59	19.080
534.93	18.563
535.27	19.380
535.62	19.443
535.96	19.001
536.30	19.624
536.64	18.799
536.98	19.926
537.32	18.580
537.66	19.152
538.01	19.517
538.35	18.697
538.69	18.209
539.03	19.252
539.37	19.435
539.71	20.120
540.05	19.185
540.39	18.765
540.73	18.579
541.07	19.007
541.42	18.842
541.76	18.446
542.10	18.637
542.44	18.819
542.78	19.526
543.12	19.666
543.46	18.742
543.80	18.885
544.14	18.851
544.48	18.617
544.82	19.569
545.16	19.559
545.50	19.293
545.84	18.983
546.18	19.877
546.52	17.962
546.86	19.308
547.20	19.656
547.54	18.602
547.88	18.746
548.22	18.830
548.56	19.544
548.90	18.925
549.24	19.453
549.58	19.558
549.92	19.834
550.26	19.547
550.60	19.974
550.94	20.246
551.28	19.142
551.62	19.474
551.96	19.223
552.30	20.140
552.64	19.540
552.98	20.087
553.32	18.971
553.66	19.421
554.00	19.483
554.34	19.369
554.68	19.303
555.02	19.974
555.36	19.329
555.69	18.770
556.03	19.294
556.37	20.275
556.71	18.516
557.05	18.466
557.39	19.044
557.73	20.938
558.07	19.073
558.41	20.399
558.75	19.067
559.08	18.720
559.42	19.067
559.76	19.810
560.10	18.687
560.44	19.855
560.78	19.188
561.12	18.842
561.45	19.465
561.79	19.231
562.13	19.162
562.47	18.989
562.81	20.190
563.15	20.076
563.48	19.267
563.82	19.468
564.16	18.353
564.50	18.713
564.84	19.292
565.17	20.294
565.51	18.700
565.85	19.002
566.19	19.182
566.52	19.310
566.86	19.185
567.20	18.760
567.54	19.490
567.88	19.878
568.21	19.368
568.55	19.281
568.89	19.564
569.23	19.899
569.56	19.734
569.90	19.031
570.24	19.629
570.57	19.307
570.91	18.953
571.25	19.178
571.59	19.510
571.92	19.430
572.26	19.322
572.60	18.646
572.93	20.206
573.27	19.528
573.61	19.164
573.95	19.107
574.28	19.528
574.62	19.145
574.96	19.144
575.29	18.837
575.63	19.543
575.97	19.521
576.30	19.245
576.64	19.542
576.98	19.795
577.31	19.558
577.65	19.459
577.98	19.164
578.32	19.121
578.66	19.280
578.99	19.353
579.33	19.520
579.67	19.356
580.00	19.420
580.34	19.459
580.67	18.822
581.01	19.061
581.35	19.229
581.68	18.900
582.02	19.235
582.35	19.681
582.69	19.398
583.02	19.641
583.36	20.066
583.70	19.927
584.03	19.702
584.37	19.526
584.70	19.609
585.04	19.414
585.37	19.421
585.71	19.115
586.04	19.705
586.38	19.568
586.72	19.253
587.05	19.263
587.39	19.571
587.72	19.378
588.06	19.681
588.39	20.040
588.73	19.577
589.06	19.752
589.40	19.945
589.73	19.859
590.07	19.927
590.40	20.318
590.73	19.795
591.07	20.402
591.40	19.207
591.74	19.316
592.07	19.691
592.41	18.730
592.74	18.885
593.08	19.490
593.41	19.539
593.75	19.282
594.08	19.994
594.41	19.391
594.75	19.628
595.08	18.708
595.42	19.903
595.75	19.600
596.09	19.620
596.42	19.670
596.75	20.069
597.09	20.364
597.42	19.229
597.75	19.522
598.09	20.119
598.42	19.461
598.76	18.991
599.09	19.153
599.42	18.907
599.76	18.818
600.09	18.986
600.42	19.286
600.76	19.551
601.09	19.681
601.42	19.293
601.76	19.414
602.09	19.693
602.42	18.902
602.76	19.373
603.09	19.347
603.42	19.436
603.76	19.063
604.09	20.546
604.42	19.486
604.76	19.140
605.09	19.705
605.42	19.418
605.75	19.000
606.09	19.298
606.42	19.591
606.75	18.928
607.09	19.393
607.42	19.383
607.75	19.422
608.08	19.416
608.42	19.226
608.75	19.610
609.08	18.846
609.41	19.453
609.75	19.152
610.08	19.305
610.41	18.946
610.74	19.328
611.07	19.183
611.41	19.865
611.74	19.677
612.07	19.963
612.40	19.154
612.73	20.098
613.07	19.364
613.40	19.297
613.73	19.884
614.06	19.235
614.39	19.728
614.72	19.068
615.06	18.383
615.39	18.850
615.72	19.716
616.05	19.961
616.38	19.677
616.71	19.540
617.05	18.743
617.38	19.583
617.71	19.816
618.04	19.752
618.37	19.727
618.70	19.570
619.03	19.474
619.36	19.605
619.69	19.603
620.03	19.648
620.36	18.834
620.69	19.247
621.02	19.751
621.35	20.102
621.68	19.957
622.01	18.221
622.34	18.759
622.67	19.313
623.00	18.691
623.33	19.575
623.66	19.520
623.99	18.960
624.32	19.298
624.65	18.790
624.99	19.766
625.32	20.575
625.65	20.499
625.98	18.237
626.31	19.348
626.64	19.780
626.97	19.880
627.30	18.679
627.63	18.980
627.96	18.544
628.29	18.444
628.62	18.640
628.95	18.843
629.28	20.221
629.61	19.697
629.94	18.745
630.26	19.661
630.59	18.566
630.92	19.048
631.25	18.962
631.58	20.716
631.91	18.650
632.24	18.540
632.57	19.260
632.90	19.057
633.23	20.306
633.56	20.306
633.89	18.492
634.22	19.647
