SpectraSuite Data File
++++++++++++++++++++++++++++++++++++
Date: Thu May 14 16:24:31 PDT 2015
User: schluterlab
Dark Spectrum Present: Yes
Reference Spectrum Present: Yes
Number of Sampled Component Spectra: 1
Spectrometers: USB2E3373
Integration Time (usec): 3000 (USB2E3373)
Spectra Averaged: 3 (USB2E3373)
Boxcar Smoothing: 0 (USB2E3373)
Correct for Electrical Dark: No (USB2E3373)
Strobe/Lamp Enabled: No (USB2E3373)
Correct for Detector Non-linearity: No (USB2E3373)
Correct for Stray Light: No (USB2E3373)
Number of Pixels in Processed Spectrum: 2048
>>>>>Begin Processed Spectral Data<<<<<
178.53	0.000
178.91	128.571
179.29	-900.000
179.67	-1000.000
180.04	142.857
180.42	-30.000
180.80	140.000
181.18	-800.000
181.56	800.000
181.94	125.000
182.31	75.000
182.69	200.000
183.07	-100.000
183.45	75.000
183.83	-16.667
184.20	-366.667
184.58	100.000
184.96	-150.000
185.34	66.667
185.72	0.000
186.09	211.111
186.47	550.000
186.85	100.000
187.23	-66.667
187.61	-1100.000
187.98	160.000
188.36	125.000
188.74	0.000
189.12	266.667
189.49	43.750
189.87	12.500
190.25	88.889
190.63	-160.000
191.00	-111.111
191.38	0.000
191.76	-50.000
192.14	-216.667
192.51	600.000
192.89	33.333
193.27	0.000
193.65	28.571
194.02	-700.000
194.40	-42.857
194.78	142.857
195.15	0.000
195.53	-36.364
195.91	0.000
196.29	-175.000
196.66	-15.385
197.04	-1000.000
197.42	28.571
197.79	-500.000
198.17	-75.000
198.55	-100.000
198.92	-44.444
199.30	-112.500
199.68	-9.091
200.05	-28.571
200.43	-500.000
200.81	157.143
201.18	0.000
201.56	155.556
201.94	0.000
202.31	166.667
202.69	-33.333
203.07	300.000
203.44	-111.111
203.82	-50.000
204.19	41.667
204.57	16.667
204.95	-75.000
205.32	600.000
205.70	25.000
206.08	-100.000
206.45	-16.667
206.83	20.000
207.20	-83.333
207.58	-60.000
207.96	-50.000
208.33	0.000
208.71	133.333
209.08	-16.667
209.46	0.000
209.84	166.667
210.21	400.000
210.59	150.000
210.96	466.667
211.34	0.000
211.71	12.500
212.09	-100.000
212.46	0.000
212.84	1000.000
213.22	-300.000
213.59	-100.000
213.97	-40.000
214.34	-166.667
214.72	166.667
215.09	-125.000
215.47	0.000
215.84	85.714
216.22	350.000
216.59	-120.000
216.97	-40.000
217.34	-150.000
217.72	-12.500
218.09	-225.000
218.47	-450.000
218.84	0.000
219.22	80.000
219.59	41.176
219.97	10.000
220.34	300.000
220.72	11.111
221.09	23.077
221.47	66.667
221.84	-60.000
222.22	-157.143
222.59	0.000
222.97	12.500
223.34	-80.000
223.72	-200.000
224.09	0.000
224.46	-125.000
224.84	60.000
225.21	-157.143
225.59	-300.000
225.96	-175.000
226.34	30.769
226.71	166.667
227.08	-250.000
227.46	46.667
227.83	-100.000
228.21	-26.316
228.58	112.500
228.95	550.000
229.33	75.000
229.70	10.000
230.08	57.895
230.45	40.000
230.82	0.000
231.20	14.286
231.57	41.667
231.95	0.000
232.32	27.273
232.69	65.000
233.07	-50.000
233.44	-11.765
233.81	-20.000
234.19	55.556
234.56	0.000
234.93	17.241
235.31	5.263
235.68	22.222
236.05	-35.000
236.43	50.000
236.80	32.000
237.17	37.037
237.55	18.182
237.92	30.000
238.29	3.226
238.67	20.455
239.04	41.667
239.41	14.286
239.79	26.087
240.16	18.519
240.53	32.609
240.91	15.686
241.28	19.672
241.65	56.716
242.02	29.730
242.40	43.077
242.77	33.333
243.14	19.512
243.51	23.684
243.89	17.949
244.26	32.673
244.63	26.471
245.00	37.383
245.38	35.965
245.75	24.779
246.12	34.921
246.49	34.109
246.87	37.143
247.24	32.450
247.61	30.921
247.98	28.188
248.36	32.099
248.73	32.515
249.10	30.601
249.47	37.313
249.84	35.079
250.22	33.161
250.59	33.333
250.96	33.636
251.33	29.082
251.70	33.761
252.08	33.750
252.45	34.016
252.82	31.818
253.19	27.734
253.56	35.361
253.94	33.077
254.31	35.227
254.68	37.063
255.05	34.853
255.42	30.272
255.79	30.744
256.16	31.126
256.54	30.132
256.91	35.410
257.28	36.066
257.65	34.395
258.02	28.909
258.39	33.048
258.76	34.862
259.14	37.356
259.51	35.447
259.88	32.578
260.25	32.778
260.62	32.877
260.99	37.158
261.36	35.121
261.73	31.034
262.10	37.363
262.47	36.461
262.85	39.394
263.22	32.727
263.59	29.737
263.96	33.248
264.33	35.806
264.70	33.333
265.07	33.174
265.44	36.508
265.81	33.796
266.18	35.601
266.55	30.357
266.92	32.574
267.29	34.354
267.66	31.707
268.03	34.716
268.40	30.898
268.77	34.169
269.14	32.819
269.51	36.404
269.88	36.680
270.25	33.199
270.62	37.131
270.99	33.333
271.36	32.475
271.73	32.417
272.10	34.870
272.47	31.864
272.84	32.129
273.21	35.271
273.58	36.089
273.95	31.154
274.32	29.658
274.69	31.721
275.06	34.799
275.43	32.532
275.80	33.157
276.17	33.333
276.54	33.396
276.91	33.095
277.28	32.911
277.65	33.752
278.02	31.618
278.39	32.246
278.76	33.743
279.13	32.624
279.50	34.880
279.87	32.379
280.23	30.810
280.60	31.525
280.97	34.211
281.34	33.447
281.71	31.980
282.08	30.897
282.45	32.242
282.82	30.455
283.19	29.079
283.56	30.656
283.92	31.832
284.29	33.807
284.66	31.691
285.03	27.564
285.40	32.457
285.77	31.115
286.14	32.824
286.51	31.202
286.87	29.226
287.24	30.723
287.61	29.297
287.98	29.909
288.35	31.213
288.72	31.361
289.08	29.575
289.45	30.030
289.82	29.217
290.19	29.598
290.56	28.592
290.93	28.673
291.29	27.548
291.66	29.614
292.03	26.323
292.40	28.707
292.77	25.337
293.13	27.605
293.50	27.595
293.87	26.980
294.24	27.867
294.60	26.928
294.97	25.503
295.34	26.889
295.71	25.095
296.08	25.452
296.44	24.265
296.81	26.066
297.18	25.405
297.55	24.175
297.91	24.199
298.28	23.578
298.65	25.327
299.02	25.384
299.38	23.455
299.75	24.065
300.12	23.380
300.48	24.078
300.85	23.847
301.22	23.714
301.59	24.772
301.95	23.390
302.32	25.444
302.69	21.577
303.05	24.048
303.42	23.392
303.79	21.979
304.15	23.028
304.52	23.150
304.89	23.037
305.25	21.739
305.62	24.138
305.99	23.711
306.35	21.774
306.72	22.647
307.09	22.944
307.45	22.464
307.82	22.402
308.19	22.301
308.55	23.144
308.92	22.201
309.29	22.510
309.65	21.345
310.02	21.881
310.38	21.358
310.75	22.621
311.12	22.435
311.48	21.701
311.85	21.178
312.22	22.391
312.58	21.315
312.95	21.893
313.31	21.861
313.68	22.894
314.05	23.306
314.41	23.315
314.78	22.162
315.14	22.142
315.51	21.607
315.87	22.322
316.24	23.014
316.61	21.137
316.97	20.271
317.34	21.605
317.70	22.358
318.07	21.164
318.43	21.769
318.80	21.656
319.16	20.858
319.53	20.651
319.89	20.245
320.26	21.708
320.62	20.390
320.99	20.960
321.35	21.165
321.72	21.953
322.08	20.920
322.45	22.674
322.81	21.661
323.18	22.920
323.54	21.293
323.91	21.975
324.27	20.740
324.64	21.998
325.00	21.476
325.37	21.540
325.73	21.488
326.10	21.979
326.46	21.580
326.83	22.178
327.19	20.866
327.56	21.581
327.92	21.558
328.29	21.210
328.65	21.608
329.01	22.589
329.38	19.882
329.74	22.003
330.11	22.003
330.47	21.061
330.84	21.878
331.20	20.667
331.56	21.837
331.93	21.423
332.29	21.441
332.66	21.429
333.02	20.184
333.38	21.560
333.75	21.044
334.11	21.018
334.48	20.380
334.84	20.901
335.20	21.159
335.57	20.742
335.93	21.074
336.29	20.050
336.66	20.101
337.02	20.903
337.38	22.279
337.75	20.992
338.11	21.194
338.47	20.678
338.84	20.389
339.20	20.219
339.56	19.852
339.93	19.787
340.29	20.853
340.65	20.600
341.02	21.309
341.38	20.857
341.74	19.128
342.11	20.515
342.47	19.222
342.83	20.853
343.20	20.769
343.56	20.209
343.92	20.496
344.28	19.688
344.65	21.395
345.01	20.281
345.37	20.840
345.73	19.719
346.10	19.891
346.46	19.620
346.82	19.476
347.19	19.557
347.55	19.803
347.91	19.614
348.27	19.803
348.63	20.335
349.00	18.717
349.36	19.851
349.72	20.089
350.08	19.168
350.45	19.468
350.81	19.608
351.17	19.323
351.53	19.409
351.89	20.425
352.26	20.000
352.62	18.955
352.98	19.313
353.34	18.223
353.70	19.183
354.07	20.492
354.43	19.058
354.79	18.699
355.15	18.396
355.51	19.810
355.87	18.549
356.24	19.544
356.60	18.773
356.96	19.422
357.32	18.810
357.68	19.107
358.04	18.713
358.40	17.761
358.77	18.640
359.13	18.981
359.49	18.439
359.85	18.564
360.21	18.221
360.57	17.516
360.93	18.195
361.29	18.526
361.66	18.755
362.02	19.833
362.38	19.817
362.74	18.296
363.10	19.395
363.46	19.252
363.82	18.750
364.18	19.493
364.54	19.364
364.90	17.993
365.26	18.897
365.62	19.667
365.98	18.856
366.35	19.195
366.71	18.707
367.07	18.742
367.43	18.319
367.79	19.177
368.15	19.599
368.51	19.012
368.87	18.550
369.23	18.333
369.59	17.964
369.95	18.391
370.31	19.109
370.67	18.638
371.03	18.767
371.39	18.334
371.75	19.051
372.11	18.360
372.47	18.416
372.83	19.175
373.19	18.679
373.55	16.599
373.91	17.451
374.27	18.305
374.63	17.794
374.99	18.700
375.35	18.117
375.71	18.194
376.07	18.270
376.42	18.451
376.78	18.086
377.14	18.403
377.50	18.216
377.86	19.335
378.22	18.383
378.58	18.549
378.94	18.486
379.30	17.868
379.66	17.754
380.02	18.061
380.38	18.030
380.74	18.197
381.09	18.293
381.45	17.955
381.81	18.501
382.17	18.468
382.53	17.836
382.89	17.664
383.25	18.640
383.61	18.287
383.97	17.491
384.32	18.959
384.68	17.401
385.04	18.334
385.40	18.209
385.76	18.347
386.12	17.235
386.48	18.706
386.83	19.070
387.19	18.250
387.55	18.251
387.91	17.523
388.27	17.436
388.62	17.812
388.98	16.864
389.34	17.796
389.70	18.303
390.06	17.821
390.42	18.373
390.77	17.640
391.13	17.723
391.49	18.176
391.85	17.455
392.20	18.209
392.56	18.311
392.92	17.230
393.28	17.413
393.64	17.486
393.99	18.420
394.35	18.516
394.71	17.844
395.07	17.365
395.42	17.647
395.78	18.221
396.14	18.063
396.50	17.221
396.85	17.710
397.21	17.751
397.57	17.903
397.92	17.927
398.28	17.219
398.64	16.819
399.00	17.068
399.35	17.435
399.71	17.935
400.07	17.631
400.42	17.346
400.78	17.361
401.14	18.156
401.49	17.794
401.85	18.081
402.21	17.439
402.57	17.958
402.92	16.903
403.28	17.799
403.63	17.005
403.99	16.508
404.35	17.453
404.70	18.357
405.06	17.554
405.42	17.096
405.77	17.557
406.13	17.288
406.49	18.018
406.84	17.452
407.20	17.719
407.55	17.262
407.91	17.285
408.27	17.491
408.62	17.277
408.98	18.108
409.34	16.657
409.69	18.850
410.05	17.409
410.40	18.155
410.76	17.723
411.11	16.832
411.47	17.813
411.83	17.637
412.18	17.410
412.54	17.605
412.89	18.161
413.25	17.889
413.60	17.748
413.96	18.706
414.31	18.584
414.67	18.366
415.03	18.031
415.38	17.465
415.74	17.532
416.09	18.137
416.45	17.408
416.80	17.870
417.16	18.327
417.51	18.493
417.87	17.781
418.22	17.964
418.58	17.348
418.93	18.976
419.29	18.311
419.64	17.467
420.00	17.804
420.35	17.911
420.71	17.231
421.06	17.021
421.42	17.259
421.77	16.640
422.12	17.759
422.48	17.921
422.83	18.072
423.19	18.780
423.54	17.810
423.90	17.504
424.25	18.133
424.61	17.164
424.96	17.683
425.31	18.790
425.67	17.660
426.02	17.488
426.38	18.370
426.73	17.969
427.09	18.397
427.44	17.531
427.79	17.247
428.15	17.523
428.50	17.079
428.85	18.197
429.21	17.926
429.56	17.177
429.92	18.034
430.27	17.831
430.62	17.049
430.98	18.396
431.33	17.840
431.68	17.768
432.04	17.318
432.39	17.515
432.74	17.979
433.10	18.118
433.45	17.503
433.80	17.865
434.16	17.717
434.51	18.037
434.86	17.481
435.22	18.225
435.57	18.927
435.92	18.420
436.28	17.520
436.63	17.641
436.98	17.230
437.34	18.151
437.69	17.116
438.04	17.345
438.39	18.610
438.75	18.096
439.10	18.393
439.45	17.384
439.81	17.458
440.16	17.480
440.51	17.559
440.86	17.732
441.22	17.310
441.57	18.029
441.92	17.944
442.27	17.576
442.63	17.635
442.98	18.303
443.33	18.254
443.68	18.781
444.03	18.297
444.39	18.863
444.74	18.632
445.09	17.486
445.44	17.387
445.79	18.247
446.15	18.294
446.50	17.519
446.85	17.607
447.20	18.424
447.55	17.678
447.91	17.696
448.26	18.023
448.61	17.694
448.96	18.830
449.31	18.452
449.66	17.865
450.02	18.671
450.37	17.901
450.72	17.008
451.07	18.451
451.42	17.504
451.77	16.898
452.12	18.397
452.47	18.004
452.83	18.863
453.18	17.980
453.53	18.323
453.88	18.774
454.23	18.644
454.58	17.992
454.93	18.629
455.28	18.483
455.63	17.624
455.98	18.492
456.34	18.728
456.69	17.695
457.04	18.794
457.39	17.572
457.74	18.233
458.09	17.738
458.44	18.642
458.79	17.793
459.14	18.144
459.49	17.714
459.84	17.629
460.19	17.435
460.54	18.455
460.89	18.052
461.24	17.759
461.59	18.041
461.94	17.798
462.29	18.365
462.64	17.683
462.99	18.644
463.34	18.040
463.69	17.585
464.04	18.621
464.39	17.601
464.74	18.244
465.09	18.512
465.44	17.597
465.79	18.191
466.14	17.718
466.49	16.895
466.84	18.072
467.19	18.497
467.54	16.980
467.89	18.391
468.24	17.618
468.59	18.066
468.94	17.599
469.29	18.116
469.64	18.245
469.99	17.973
470.34	17.884
470.68	18.592
471.03	18.271
471.38	18.509
471.73	17.360
472.08	18.464
472.43	17.760
472.78	19.207
473.13	18.142
473.48	18.852
473.83	18.862
474.17	18.347
474.52	18.461
474.87	18.272
475.22	19.042
475.57	17.394
475.92	17.919
476.27	18.584
476.61	17.861
476.96	17.623
477.31	19.158
477.66	19.203
478.01	17.997
478.36	18.096
478.70	18.177
479.05	18.200
479.40	18.707
479.75	18.540
480.10	18.048
480.45	18.186
480.79	18.141
481.14	17.785
481.49	18.174
481.84	17.537
482.19	18.452
482.53	18.102
482.88	18.564
483.23	18.319
483.58	18.253
483.92	17.863
484.27	18.459
484.62	17.285
484.97	18.040
485.31	18.691
485.66	17.256
486.01	16.343
486.36	16.440
486.70	17.759
487.05	18.720
487.40	18.621
487.75	19.160
488.09	18.991
488.44	18.711
488.79	19.123
489.13	19.515
489.48	17.243
489.83	18.109
490.17	18.307
490.52	18.062
490.87	17.217
491.22	18.544
491.56	18.259
491.91	18.099
492.26	17.438
492.60	18.059
492.95	18.517
493.30	18.422
493.64	17.915
493.99	17.982
494.34	18.075
494.68	18.116
495.03	18.282
495.37	17.665
495.72	18.367
496.07	18.317
496.41	17.589
496.76	18.182
497.11	18.386
497.45	18.127
497.80	18.836
498.14	18.367
498.49	18.382
498.84	18.419
499.18	18.399
499.53	18.430
499.87	18.110
500.22	18.255
500.56	18.084
500.91	17.849
501.26	19.091
501.60	17.985
501.95	18.454
502.29	18.561
502.64	18.233
502.98	17.860
503.33	17.451
503.67	17.183
504.02	18.257
504.36	18.275
504.71	17.960
505.06	17.690
505.40	18.099
505.75	18.488
506.09	18.278
506.44	18.709
506.78	17.798
507.13	17.935
507.47	18.854
507.82	18.134
508.16	18.212
508.51	18.284
508.85	18.139
509.19	18.617
509.54	17.723
509.88	17.824
510.23	18.407
510.57	19.236
510.92	19.061
511.26	17.845
511.61	17.190
511.95	17.862
512.30	18.858
512.64	17.741
512.98	18.159
513.33	18.044
513.67	19.021
514.02	18.498
514.36	18.517
514.70	17.344
515.05	18.457
515.39	18.740
515.74	18.399
516.08	19.017
516.42	18.943
516.77	18.086
517.11	17.999
517.46	18.929
517.80	18.920
518.14	18.988
518.49	19.035
518.83	18.414
519.17	19.171
519.52	18.816
519.86	18.796
520.20	19.329
520.55	18.127
520.89	17.624
521.23	18.035
521.58	18.305
521.92	18.300
522.26	18.213
522.61	18.345
522.95	18.051
523.29	18.563
523.64	18.554
523.98	18.996
524.32	20.287
524.66	19.579
525.01	17.610
525.35	18.667
525.69	18.329
526.04	18.485
526.38	17.874
526.72	18.512
527.06	18.768
527.41	18.426
527.75	19.002
528.09	18.241
528.43	19.124
528.78	18.613
529.12	18.693
529.46	18.100
529.80	18.421
530.15	18.783
530.49	17.794
530.83	18.713
531.17	18.757
531.51	18.953
531.86	19.171
532.20	19.817
532.54	18.133
532.88	18.545
533.22	18.798
533.57	18.754
533.91	18.238
534.25	18.428
534.59	18.678
534.93	17.827
535.27	17.915
535.62	18.818
535.96	19.582
536.30	18.919
536.64	18.078
536.98	19.127
537.32	19.136
537.66	18.403
538.01	18.792
538.35	18.392
538.69	18.149
539.03	19.865
539.37	19.140
539.71	18.799
540.05	19.424
540.39	18.521
540.73	18.458
541.07	19.436
541.42	18.370
541.76	18.505
542.10	18.878
542.44	17.722
542.78	18.796
543.12	18.832
543.46	18.864
543.80	17.566
544.14	18.013
544.48	18.617
544.82	18.791
545.16	18.664
545.50	18.754
545.84	18.310
546.18	19.444
546.52	19.427
546.86	18.553
547.20	18.511
547.54	18.789
547.88	19.168
548.22	18.421
548.56	18.490
548.90	19.045
549.24	19.514
549.58	18.738
549.92	18.495
550.26	18.964
550.60	18.188
550.94	19.082
551.28	19.670
551.62	19.340
551.96	18.252
552.30	19.184
552.64	19.166
552.98	18.777
553.32	18.907
553.66	18.264
554.00	18.979
554.34	19.112
554.68	18.851
555.02	18.857
555.36	19.527
555.69	18.642
556.03	18.979
556.37	19.212
556.71	17.628
557.05	20.000
557.39	19.044
557.73	18.296
558.07	18.675
558.41	19.136
558.75	19.540
559.08	19.207
559.42	19.616
559.76	18.657
560.10	18.754
560.44	18.404
560.78	19.500
561.12	18.165
561.45	18.674
561.79	18.498
562.13	19.039
562.47	18.619
562.81	18.228
563.15	18.497
563.48	19.018
563.82	18.622
564.16	18.595
564.50	18.415
564.84	18.584
565.17	18.412
565.51	18.585
565.85	19.121
566.19	17.742
566.52	18.607
566.86	19.128
567.20	18.053
567.54	18.216
567.88	18.451
568.21	19.318
568.55	18.897
568.89	18.702
569.23	18.842
569.56	18.210
569.90	18.104
570.24	17.841
570.57	18.153
570.91	17.728
571.25	17.819
571.59	17.812
571.92	17.457
572.26	17.840
572.60	18.155
572.93	18.453
573.27	17.983
573.61	17.920
573.95	18.063
574.28	17.870
574.62	17.713
574.96	17.622
575.29	17.383
575.63	18.018
575.97	17.964
576.30	18.110
576.64	17.848
576.98	18.246
577.31	17.937
577.65	17.623
577.98	17.752
578.32	17.577
578.66	17.546
578.99	18.308
579.33	18.519
579.67	18.404
580.00	18.229
580.34	18.477
580.67	17.652
581.01	17.893
581.35	17.631
581.68	17.036
582.02	17.410
582.35	18.168
582.69	18.012
583.02	18.165
583.36	18.608
583.70	18.791
584.03	18.743
584.37	18.514
584.70	18.240
585.04	18.345
585.37	17.433
585.71	17.864
586.04	17.922
586.38	17.874
586.72	17.799
587.05	18.112
587.39	18.175
587.72	18.182
588.06	18.327
588.39	18.347
588.73	17.989
589.06	19.046
589.40	18.838
589.73	18.862
590.07	18.700
590.40	18.492
590.73	18.805
591.07	18.764
591.40	18.351
591.74	17.806
592.07	18.473
592.41	18.415
592.74	17.643
593.08	17.707
593.41	18.023
593.75	18.161
594.08	18.085
594.41	18.782
594.75	17.735
595.08	18.102
595.42	18.474
595.75	18.502
596.09	18.672
596.42	18.488
596.75	18.603
597.09	19.232
597.42	18.196
597.75	18.620
598.09	18.333
598.42	18.697
598.76	17.883
599.09	17.764
599.42	16.896
599.76	17.233
600.09	17.718
600.42	17.951
600.76	18.131
601.09	17.790
601.42	18.194
601.76	18.207
602.09	18.120
602.42	17.957
602.76	17.786
603.09	18.062
603.42	18.497
603.76	17.794
604.09	18.985
604.42	18.165
604.76	17.998
605.09	18.588
605.42	17.943
605.75	18.346
606.09	17.432
606.42	17.658
606.75	17.729
607.09	17.435
607.42	18.767
607.75	17.937
608.08	18.114
608.42	18.622
608.75	18.118
609.08	17.997
609.41	18.615
609.75	18.304
610.08	18.030
610.41	17.545
610.74	17.689
611.07	17.584
611.41	17.982
611.74	18.199
612.07	18.420
612.40	17.871
612.73	18.778
613.07	17.751
613.40	18.672
613.73	18.007
614.06	18.302
614.39	18.173
614.72	17.758
615.06	17.902
615.39	17.400
615.72	17.678
616.05	17.436
616.38	19.021
616.71	18.704
617.05	17.998
617.38	18.566
617.71	18.629
618.04	18.564
618.37	19.126
618.70	18.213
619.03	19.056
619.36	18.557
619.69	18.578
620.03	17.263
620.36	18.589
620.69	17.890
621.02	17.913
621.35	19.594
621.68	19.812
622.01	18.719
622.34	16.946
622.67	18.213
623.00	18.016
623.33	18.447
623.66	18.158
623.99	16.919
624.32	19.688
624.65	17.503
624.99	18.921
625.32	18.419
625.65	18.206
625.98	18.373
626.31	18.568
626.64	18.755
626.97	18.080
627.30	18.071
627.63	18.455
627.96	19.069
628.29	18.366
628.62	18.052
628.95	18.493
629.28	18.946
629.61	18.013
629.94	18.410
630.26	17.966
630.59	17.789
630.92	18.182
631.25	18.694
631.58	18.738
631.91	17.901
632.24	18.060
632.57	18.880
632.90	18.455
633.23	19.898
633.56	17.449
633.89	18.285
