SpectraSuite Data File
++++++++++++++++++++++++++++++++++++
Date: Thu May 14 16:23:50 PDT 2015
User: schluterlab
Dark Spectrum Present: Yes
Reference Spectrum Present: Yes
Number of Sampled Component Spectra: 1
Spectrometers: USB2E3373
Integration Time (usec): 3000 (USB2E3373)
Spectra Averaged: 3 (USB2E3373)
Boxcar Smoothing: 0 (USB2E3373)
Correct for Electrical Dark: No (USB2E3373)
Strobe/Lamp Enabled: No (USB2E3373)
Correct for Detector Non-linearity: No (USB2E3373)
Correct for Stray Light: No (USB2E3373)
Number of Pixels in Processed Spectrum: 2048
>>>>>Begin Processed Spectral Data<<<<<
178.53	0.000
178.91	-42.857
179.29	-1100.000
179.67	-500.000
180.04	150.000
180.42	150.000
180.80	220.000
181.18	400.000
181.56	200.000
181.94	200.000
182.31	100.000
182.69	100.000
183.07	-400.000
183.45	250.000
183.83	-83.333
184.20	300.000
184.58	-400.000
184.96	-300.000
185.34	44.444
185.72	-120.000
186.09	166.667
186.47	400.000
186.85	120.000
187.23	-155.556
187.61	-1300.000
187.98	140.000
188.36	250.000
188.74	-100.000
189.12	-33.333
189.49	-31.250
189.87	-37.500
190.25	-88.889
190.63	-60.000
191.00	-133.333
191.38	0.000
191.76	-400.000
192.14	0.000
192.51	250.000
192.89	83.333
193.27	0.000
193.65	85.714
194.02	-500.000
194.40	42.857
194.78	-0.000
195.15	0.000
195.53	27.273
195.91	0.000
196.29	-50.000
196.66	-69.231
197.04	-1000.000
197.42	-71.429
197.79	-500.000
198.17	-50.000
198.55	-228.571
198.92	-77.778
199.30	0.000
199.68	18.182
200.05	14.286
200.43	150.000
200.81	228.571
201.18	0.000
201.56	44.444
201.94	0.000
202.31	233.333
202.69	-188.889
203.07	900.000
203.44	-55.556
203.82	-25.000
204.19	33.333
204.57	-183.333
204.95	-50.000
205.32	-2000.000
205.70	200.000
206.08	-150.000
206.45	133.333
206.83	320.000
207.20	-16.667
207.58	-120.000
207.96	-183.333
208.33	0.000
208.71	108.333
209.08	133.333
209.46	0.000
209.84	133.333
210.21	150.000
210.59	450.000
210.96	400.000
211.34	-50.000
211.71	-62.500
212.09	-400.000
212.46	0.000
212.84	650.000
213.22	-280.000
213.59	-250.000
213.97	0.000
214.34	-233.333
214.72	250.000
215.09	-325.000
215.47	0.000
215.84	42.857
216.22	450.000
216.59	-80.000
216.97	-80.000
217.34	25.000
217.72	-62.500
218.09	-150.000
218.47	-200.000
218.84	0.000
219.22	-0.000
219.59	29.412
219.97	-30.000
220.34	200.000
220.72	-122.222
221.09	15.385
221.47	-33.333
221.84	0.000
222.22	-200.000
222.59	0.000
222.97	-50.000
223.34	-200.000
223.72	-1100.000
224.09	-250.000
224.46	-200.000
224.84	-180.000
225.21	-71.429
225.59	-200.000
225.96	-325.000
226.34	7.692
226.71	150.000
227.08	-250.000
227.46	20.000
227.83	-275.000
228.21	15.789
228.58	50.000
228.95	400.000
229.33	-58.333
229.70	-30.000
230.08	63.158
230.45	60.000
230.82	-33.333
231.20	-71.429
231.57	41.667
231.95	27.273
232.32	-54.545
232.69	0.000
233.07	-225.000
233.44	23.529
233.81	-40.000
234.19	44.444
234.56	22.727
234.93	41.379
235.31	21.053
235.68	-33.333
236.05	-25.000
236.43	38.462
236.80	32.000
237.17	0.000
237.55	-6.061
237.92	-160.000
238.29	-6.452
238.67	-18.182
239.04	-22.222
239.41	7.143
239.79	-13.043
240.16	-1.852
240.53	2.174
240.91	-21.569
241.28	-26.230
241.65	14.925
242.02	8.108
242.40	-23.077
242.77	-1.333
243.14	-3.659
243.51	-17.105
243.89	-12.821
244.26	5.941
244.63	-1.961
245.00	-3.738
245.38	-6.140
245.75	-9.735
246.12	4.762
246.49	-5.426
246.87	5.714
247.24	0.000
247.61	1.974
247.98	-8.725
248.36	-6.173
248.73	-8.589
249.10	-3.825
249.47	9.950
249.84	3.141
250.22	-2.073
250.59	-2.222
250.96	2.273
251.33	-7.143
251.70	2.991
252.08	0.417
252.45	2.869
252.82	-0.826
253.19	0.391
253.56	0.380
253.94	0.000
254.31	0.379
254.68	4.196
255.05	1.303
255.42	-2.381
255.79	-1.618
256.16	0.000
256.54	0.000
256.91	-0.656
257.28	-1.311
257.65	-5.096
258.02	-1.475
258.39	0.570
258.76	2.446
259.14	-1.437
259.51	-2.017
259.88	-1.416
260.25	1.389
260.62	2.740
260.99	2.186
261.36	1.877
261.73	1.857
262.10	-2.473
262.47	-0.804
262.85	4.545
263.22	-2.338
263.59	-3.158
263.96	0.256
264.33	0.000
264.70	2.469
265.07	1.909
265.44	2.041
265.81	-0.463
266.18	-1.134
266.55	-0.223
266.92	-2.050
267.29	0.438
267.66	0.665
268.03	1.310
268.40	0.418
268.77	0.228
269.14	-3.084
269.51	1.096
269.88	-0.205
270.25	2.616
270.62	2.532
270.99	1.414
271.36	2.772
271.73	0.982
272.10	1.002
272.47	1.002
272.84	2.209
273.21	2.004
273.58	1.008
273.95	-0.192
274.32	-2.662
274.69	-1.161
275.06	1.465
275.43	-1.109
275.80	0.529
276.17	-0.926
276.54	0.000
276.91	0.358
277.28	-0.904
277.65	1.077
278.02	-0.735
278.39	-0.181
278.76	0.351
279.13	-0.887
279.50	0.687
279.87	0.358
280.23	-1.232
280.60	-0.508
280.97	0.822
281.34	-1.019
281.71	1.523
282.08	0.166
282.45	-0.818
282.82	0.628
283.19	-1.777
283.56	-1.475
283.92	1.952
284.29	1.106
284.66	0.657
285.03	-1.122
285.40	0.000
285.77	0.000
286.14	1.679
286.51	1.218
286.87	0.790
287.24	0.602
287.61	0.747
287.98	-0.755
288.35	0.000
288.72	0.296
289.08	1.025
289.45	-0.444
289.82	-0.452
290.19	0.718
290.56	-0.282
290.93	0.428
291.29	1.102
291.66	-0.413
292.03	-1.221
292.40	0.544
292.77	-1.752
293.13	0.677
293.50	0.131
293.87	1.208
294.24	1.067
294.60	2.655
294.97	-2.013
295.34	1.793
295.71	1.513
296.08	0.775
296.44	0.000
296.81	-0.122
297.18	-0.747
297.55	-0.236
297.91	-0.119
298.28	-0.711
298.65	1.546
299.02	0.354
299.38	2.174
299.75	0.350
300.12	-1.505
300.48	1.382
300.85	1.237
301.22	0.559
301.59	-0.114
301.95	0.565
302.32	1.222
302.69	0.329
303.05	0.871
303.42	0.887
303.79	0.521
304.15	0.736
304.52	-0.106
304.89	0.209
305.25	0.725
305.62	-0.313
305.99	1.649
306.35	-0.202
306.72	0.414
307.09	0.203
307.45	0.104
307.82	0.000
308.19	0.505
308.55	1.350
308.92	0.876
309.29	1.533
309.65	-0.097
310.02	0.990
310.38	0.984
310.75	1.165
311.12	1.630
311.48	0.196
311.85	0.855
312.22	1.139
312.58	1.408
312.95	0.956
313.31	2.529
313.68	1.557
314.05	1.807
314.41	2.186
314.78	1.817
315.14	1.906
315.51	1.939
315.87	1.350
316.24	2.009
316.61	2.664
316.97	1.538
317.34	0.882
317.70	1.747
318.07	2.116
318.43	3.912
318.80	2.759
319.16	1.974
319.53	0.771
319.89	1.928
320.26	3.381
320.62	2.482
320.99	2.493
321.35	1.571
321.72	4.651
322.08	1.984
322.45	2.529
322.81	3.700
323.18	2.566
323.54	3.276
323.91	4.359
324.27	3.787
324.64	4.366
325.00	3.731
325.37	3.849
325.73	4.545
326.10	4.542
326.46	5.456
326.83	4.484
327.19	5.118
327.56	4.822
327.92	4.485
328.29	3.226
328.65	3.853
329.01	4.653
329.38	4.718
329.74	4.623
330.11	4.623
330.47	3.875
330.84	5.082
331.20	4.833
331.56	4.853
331.93	5.690
332.29	5.424
332.66	5.897
333.02	5.611
333.38	4.446
333.75	4.461
334.11	4.337
334.48	5.116
334.84	5.607
335.20	4.618
335.57	5.649
335.93	6.198
336.29	4.493
336.66	4.542
337.02	5.435
337.38	6.888
337.75	4.545
338.11	6.140
338.47	5.707
338.84	5.076
339.20	5.055
339.56	5.519
339.93	5.255
340.29	6.039
340.65	6.164
341.02	6.624
341.38	6.467
341.74	4.358
342.11	6.597
342.47	5.639
342.83	6.119
343.20	5.969
343.56	5.533
343.92	5.604
344.28	5.703
344.65	6.202
345.01	6.396
345.37	6.299
345.73	5.066
346.10	5.928
346.46	5.538
346.82	6.592
347.19	6.264
347.55	6.829
347.91	4.903
348.27	5.159
348.63	6.474
349.00	5.966
349.36	5.948
349.72	6.920
350.08	7.132
350.45	5.247
350.81	5.958
351.17	6.015
351.53	5.534
351.89	5.847
352.26	5.299
352.62	5.448
352.98	5.038
353.34	6.273
353.70	5.855
354.07	6.036
354.43	4.784
354.79	5.909
355.15	6.623
355.51	7.091
355.87	5.385
356.24	7.376
356.60	5.987
356.96	5.634
357.32	6.691
357.68	5.564
358.04	5.090
358.40	5.746
358.77	6.798
359.13	6.056
359.49	4.387
359.85	6.309
360.21	6.958
360.57	5.743
360.93	5.994
361.29	6.246
361.66	6.372
362.02	7.307
362.38	7.027
362.74	6.075
363.10	6.121
363.46	5.471
363.82	5.966
364.18	6.263
364.54	6.777
364.90	7.425
365.26	4.966
365.62	7.067
365.98	5.786
366.35	5.973
366.71	6.395
367.07	6.360
367.43	6.566
367.79	6.304
368.15	6.957
368.51	6.428
368.87	6.336
369.23	6.467
369.59	6.216
369.95	6.897
370.31	7.968
370.67	5.983
371.03	6.648
371.39	6.447
371.75	6.878
372.11	6.843
372.47	6.635
372.83	7.068
373.19	6.805
373.55	6.233
373.91	5.862
374.27	7.180
374.63	6.834
374.99	6.432
375.35	7.792
375.71	6.839
376.07	6.908
376.42	6.486
376.78	7.209
377.14	6.613
377.50	7.211
377.86	7.697
378.22	7.006
378.58	7.134
378.94	6.866
379.30	7.381
379.66	6.643
380.02	6.751
380.38	7.143
380.74	7.549
381.09	6.620
381.45	7.386
381.81	6.850
382.17	6.888
382.53	7.076
382.89	7.562
383.25	7.268
383.61	6.713
383.97	6.419
384.32	6.878
384.68	6.439
385.04	7.981
385.40	8.014
385.76	7.913
386.12	6.882
386.48	7.235
386.83	7.449
387.19	6.663
387.55	7.512
387.91	7.192
388.27	7.448
388.62	7.102
388.98	7.163
389.34	7.720
389.70	7.670
390.06	7.046
390.42	7.169
390.77	8.067
391.13	7.512
391.49	7.065
391.85	7.333
392.20	7.355
392.56	8.506
392.92	7.852
393.28	8.015
393.64	6.872
393.99	7.147
394.35	7.886
394.71	7.844
395.07	6.766
395.42	6.739
395.78	7.983
396.14	7.368
396.50	7.660
396.85	7.215
397.21	7.160
397.57	7.244
397.92	8.076
398.28	6.410
398.64	6.865
399.00	6.545
399.35	6.649
399.71	6.957
400.07	7.243
400.42	7.334
400.78	7.292
401.14	6.944
401.49	7.049
401.85	7.267
402.21	7.822
402.57	7.042
402.92	6.738
403.28	6.674
403.63	6.981
403.99	6.295
404.35	7.106
404.70	7.025
405.06	7.500
405.42	7.143
405.77	7.361
406.13	7.293
406.49	6.644
406.84	7.368
407.20	7.267
407.55	6.299
407.91	6.474
408.27	6.773
408.62	6.981
408.98	6.849
409.34	6.393
409.69	7.293
410.05	8.148
410.40	8.237
410.76	6.898
411.11	6.897
411.47	6.388
411.83	7.760
412.18	7.048
412.54	7.172
412.89	7.392
413.25	6.433
413.60	6.893
413.96	7.401
414.31	6.119
414.67	7.931
415.03	6.277
415.38	6.305
415.74	6.964
416.09	7.279
416.45	6.825
416.80	7.222
417.16	6.577
417.51	6.600
417.87	6.376
418.22	7.186
418.58	7.125
418.93	7.974
419.29	6.042
419.64	7.323
420.00	6.350
420.35	7.243
420.71	7.122
421.06	6.555
421.42	7.053
421.77	6.031
422.12	6.290
422.48	7.629
422.83	7.174
423.19	7.268
423.54	7.080
423.90	7.178
424.25	6.560
424.61	6.257
424.96	7.084
425.31	6.900
425.67	5.958
426.02	7.084
426.38	6.946
426.73	6.641
427.09	7.439
427.44	6.554
427.79	6.689
428.15	5.822
428.50	6.404
428.85	6.889
429.21	6.915
429.56	6.367
429.92	7.027
430.27	6.506
430.62	6.742
430.98	6.493
431.33	6.061
431.68	5.843
432.04	6.348
432.39	6.427
432.74	6.393
433.10	6.760
433.45	6.076
433.80	6.706
434.16	6.818
434.51	6.269
434.86	5.755
435.22	6.111
435.57	6.545
435.92	6.344
436.28	6.030
436.63	6.117
436.98	6.763
437.34	6.313
437.69	6.274
438.04	6.293
438.39	6.203
438.75	5.811
439.10	6.924
439.45	5.757
439.81	5.989
440.16	6.005
440.51	6.132
440.86	6.670
441.22	6.270
441.57	6.866
441.92	5.771
442.27	7.121
442.63	6.756
442.98	6.510
443.33	6.839
443.68	6.789
444.03	6.397
444.39	6.611
444.74	6.687
445.09	6.538
445.44	6.533
445.79	6.034
446.15	7.297
446.50	6.512
446.85	6.420
447.20	7.157
447.55	6.172
447.91	5.864
448.26	6.501
448.61	6.801
448.96	6.330
449.31	6.946
449.66	5.991
450.02	6.065
450.37	6.713
450.72	6.297
451.07	6.435
451.42	5.835
451.77	6.504
452.12	5.926
452.47	6.358
452.83	5.743
453.18	5.954
453.53	6.663
453.88	6.074
454.23	6.441
454.58	5.398
454.93	5.704
455.28	6.261
455.63	6.595
455.98	6.648
456.34	6.419
456.69	6.643
457.04	6.206
457.39	6.486
457.74	6.320
458.09	6.315
458.44	6.304
458.79	6.086
459.14	6.030
459.49	5.999
459.84	6.034
460.19	6.219
460.54	6.303
460.89	5.982
461.24	5.862
461.59	6.143
461.94	5.077
462.29	6.663
462.64	5.975
462.99	6.340
463.34	5.970
463.69	5.451
464.04	6.448
464.39	6.614
464.74	6.328
465.09	5.709
465.44	5.258
465.79	7.033
466.14	5.472
466.49	6.368
466.84	5.620
467.19	6.243
467.54	5.288
467.89	6.207
468.24	5.928
468.59	5.385
468.94	5.711
469.29	5.519
469.64	5.976
469.99	4.908
470.34	5.569
470.68	5.742
471.03	5.959
471.38	5.494
471.73	5.072
472.08	5.964
472.43	6.141
472.78	5.668
473.13	5.499
473.48	5.559
473.83	6.210
474.17	5.569
474.52	5.352
474.87	6.146
475.22	5.746
475.57	6.075
475.92	6.122
476.27	5.644
476.61	5.659
476.96	4.797
477.31	5.842
477.66	5.719
478.01	5.846
478.36	5.434
478.70	5.172
479.05	5.879
479.40	5.331
479.75	5.764
480.10	5.353
480.45	6.062
480.79	5.669
481.14	5.285
481.49	4.998
481.84	5.527
482.19	5.634
482.53	5.641
482.88	5.804
483.23	5.469
483.58	5.109
483.92	5.009
484.27	5.631
484.62	5.239
484.97	5.988
485.31	5.385
485.66	5.239
486.01	5.023
486.36	5.082
486.70	5.556
487.05	5.586
487.40	5.294
487.75	5.522
488.09	5.015
488.44	5.487
488.79	5.700
489.13	5.395
489.48	4.893
489.83	4.909
490.17	5.063
490.52	5.542
490.87	4.780
491.22	4.549
491.56	5.375
491.91	5.451
492.26	5.322
492.60	5.028
492.95	5.046
493.30	4.975
493.64	5.212
493.99	4.649
494.34	4.617
494.68	4.711
495.03	5.066
495.37	5.149
495.72	4.535
496.07	4.557
496.41	4.547
496.76	5.129
497.11	4.289
497.45	4.489
497.80	4.887
498.14	4.308
498.49	4.550
498.84	4.707
499.18	4.543
499.53	5.157
499.87	5.099
500.22	3.874
500.56	4.588
500.91	4.760
501.26	4.818
501.60	4.065
501.95	4.776
502.29	4.344
502.64	4.591
502.98	4.573
503.33	4.622
503.67	4.317
504.02	4.159
504.36	4.960
504.71	4.088
505.06	5.139
505.40	4.616
505.75	4.463
506.09	4.466
506.44	4.735
506.78	4.954
507.13	4.103
507.47	5.069
507.82	4.356
508.16	4.685
508.51	3.704
508.85	4.535
509.19	4.500
509.54	4.611
509.88	4.371
510.23	4.371
510.57	4.688
510.92	4.790
511.26	4.618
511.61	3.815
511.95	4.002
512.30	5.121
512.64	4.598
512.98	4.552
513.33	5.292
513.67	4.793
514.02	4.854
514.36	4.501
514.70	4.375
515.05	4.745
515.39	4.462
515.74	5.143
516.08	4.332
516.42	4.919
516.77	4.469
517.11	4.177
517.46	4.295
517.80	4.543
518.14	4.625
518.49	4.447
518.83	4.311
519.17	4.254
519.52	4.140
519.86	4.277
520.20	5.059
520.55	4.436
520.89	3.829
521.23	4.188
521.58	3.955
521.92	4.986
522.26	4.467
522.61	3.993
522.95	4.671
523.29	4.080
523.64	4.709
523.98	4.564
524.32	4.527
524.66	4.610
525.01	4.473
525.35	4.193
525.69	4.002
526.04	4.478
526.38	3.908
526.72	4.325
527.06	4.340
527.41	4.140
527.75	4.572
528.09	4.191
528.43	3.789
528.78	4.104
529.12	3.612
529.46	4.384
529.80	4.062
530.15	4.290
530.49	3.796
530.83	4.191
531.17	4.122
531.51	4.513
531.86	4.447
532.20	4.817
532.54	4.189
532.88	3.939
533.22	4.420
533.57	4.328
533.91	5.051
534.25	4.805
534.59	4.310
534.93	4.358
535.27	3.944
535.62	4.662
535.96	3.951
536.30	4.465
536.64	4.625
536.98	4.490
537.32	3.704
537.66	4.242
538.01	3.927
538.35	3.776
538.69	4.748
539.03	4.414
539.37	4.711
539.71	4.084
540.05	4.077
540.39	3.362
540.73	4.432
541.07	3.495
541.42	4.489
541.76	3.499
542.10	4.041
542.44	3.228
542.78	4.380
543.12	3.933
543.46	3.846
543.80	3.777
544.14	4.548
544.48	4.314
544.82	4.249
545.16	4.472
545.50	4.254
545.84	3.674
546.18	5.000
546.52	3.694
546.86	4.403
547.20	3.880
547.54	3.683
547.88	3.617
548.22	3.333
548.56	3.335
548.90	3.522
549.24	3.708
549.58	3.912
549.92	3.253
550.26	3.754
550.60	4.659
550.94	4.204
551.28	4.092
551.62	3.706
551.96	3.366
552.30	4.716
552.64	4.418
552.98	3.868
553.32	3.666
553.66	3.280
554.00	4.288
554.34	3.861
554.68	4.196
555.02	3.942
555.36	4.011
555.69	3.652
556.03	3.279
556.37	4.443
556.71	3.551
557.05	3.962
557.39	3.451
557.73	3.765
558.07	3.709
558.41	3.920
558.75	3.178
559.08	3.410
559.42	3.292
559.76	3.528
560.10	4.287
560.44	3.430
560.78	4.063
561.12	3.202
561.45	3.528
561.79	3.846
562.13	3.758
562.47	3.453
562.81	3.354
563.15	3.157
563.48	3.605
563.82	4.414
564.16	3.150
564.50	3.576
564.84	3.717
565.17	3.824
565.51	3.567
565.85	3.444
566.19	2.995
566.52	3.043
566.86	3.565
567.20	3.263
567.54	2.974
567.88	3.211
568.21	3.360
568.55	3.357
568.89	3.132
569.23	3.718
569.56	3.322
569.90	3.849
570.24	3.339
570.57	3.303
570.91	3.307
571.25	3.413
571.59	3.702
571.92	3.358
572.26	3.653
572.60	3.385
572.93	4.063
573.27	3.344
573.61	3.520
573.95	3.617
574.28	3.527
574.62	3.456
574.96	3.441
575.29	3.569
575.63	3.650
575.97	3.784
576.30	3.479
576.64	3.603
576.98	3.485
577.31	3.855
577.65	3.240
577.98	3.257
578.32	3.512
578.66	3.619
578.99	3.215
579.33	3.224
579.67	3.309
580.00	3.551
580.34	3.687
580.67	3.575
581.01	3.527
581.35	3.526
581.68	3.336
582.02	3.664
582.35	3.436
582.69	3.370
583.02	3.439
583.36	3.533
583.70	3.408
584.03	3.168
584.37	3.530
584.70	3.227
585.04	3.348
585.37	3.447
585.71	3.172
586.04	3.413
586.38	3.598
586.72	3.033
587.05	3.095
587.39	3.291
587.72	3.612
588.06	3.264
588.39	3.485
588.73	3.519
589.06	3.245
589.40	3.104
589.73	3.728
590.07	3.382
590.40	3.584
590.73	3.499
591.07	3.313
591.40	3.072
591.74	3.219
592.07	3.735
592.41	2.879
592.74	3.266
593.08	3.694
593.41	3.529
593.75	3.506
594.08	2.999
594.41	3.526
594.75	3.388
595.08	3.096
595.42	3.279
595.75	3.584
596.09	3.253
596.42	3.475
596.75	3.281
597.09	3.071
597.42	3.298
597.75	3.097
598.09	3.413
598.42	3.257
598.76	3.477
599.09	3.240
599.42	3.185
599.76	3.301
600.09	3.237
600.42	3.403
600.76	3.303
601.09	2.921
601.42	3.364
601.76	3.276
602.09	3.145
602.42	3.381
602.76	3.358
603.09	3.524
603.42	3.288
603.76	2.784
604.09	3.797
604.42	3.339
604.76	3.120
605.09	3.510
605.42	2.911
605.75	3.385
606.09	2.837
606.42	3.247
606.75	3.111
607.09	3.264
607.42	3.160
607.75	3.283
608.08	3.236
608.42	3.225
608.75	3.275
609.08	2.971
609.41	3.132
609.75	3.170
610.08	3.342
610.41	3.398
610.74	3.361
611.07	3.064
611.41	3.498
611.74	3.326
612.07	3.647
612.40	2.852
612.73	2.738
613.07	3.227
613.40	3.609
613.73	3.033
614.06	2.797
614.39	3.013
614.72	3.396
615.06	3.224
615.39	3.238
615.72	3.365
616.05	3.060
616.38	3.481
616.71	3.814
617.05	3.142
617.38	3.210
617.71	3.672
618.04	3.616
618.37	2.951
618.70	3.507
619.03	2.808
619.36	2.898
619.69	3.075
620.03	3.139
620.36	2.577
620.69	3.948
621.02	3.084
621.35	2.975
621.68	4.266
622.01	3.843
622.34	2.789
622.67	2.818
623.00	2.294
623.33	4.114
623.66	3.632
623.99	2.172
624.32	3.119
624.65	2.510
624.99	3.381
625.32	3.919
625.65	3.439
625.98	3.254
626.31	3.189
626.64	3.516
626.97	2.926
627.30	2.506
627.63	2.926
627.96	4.354
628.29	2.490
628.62	1.763
628.95	2.717
629.28	1.954
629.61	3.030
629.94	1.841
630.26	2.458
630.59	2.504
630.92	3.203
631.25	3.846
631.58	2.072
631.91	1.593
632.24	2.786
632.57	3.416
632.90	2.808
633.23	2.347
633.56	2.449
633.89	2.893
634.22	2.911
634.55	3.445
634.88	1.407
635.20	3.875
635.53	2.825
635.86	3.142
636.19	3.712
636.52	3.270
636.85	2.554
637.18	3.326
637.51	1.828
637.83	3.987
638.16	1.498
638.49	1.174
638.82	1.466
639.15	1.031
639.48	3.464
639.81	2.309
640.13	3.534
640.46	1.576
640.79	2.328
641.12	3.230
641.45	3.137
641.77	5.520
642.10	1.050
642.43	3.059
642.76	2.981
643.09	1.233
643.41	2.661
643.74	2.207
644.07	3.172
644.40	1.556
644.73	3.048
645.05	2.790
645.38	3.165
645.71	3.519
646.04	3.587
646.36	0.292
646.69	2.607
647.02	2.294
647.35	3.359
647.67	2.899
648.00	2.070
648.33	1.952
648.66	2.140
648.98	2.993
649.31	3.248
649.64	3.586
649.96	3.050
650.29	1.947
650.62	1.273
650.94	1.502
651.27	2.246
651.60	2.632
651.92	2.736
652.25	2.894
652.58	2.751
652.90	0.727
653.23	4.085
653.56	3.424
653.88	5.056
654.21	3.380
654.54	3.179
654.86	3.258
655.19	1.506
655.52	2.634
655.84	3.155
656.17	3.758
656.49	5.237
656.82	5.956
657.15	4.583
657.47	3.384
657.80	2.502
