SpectraSuite Data File
++++++++++++++++++++++++++++++++++++
Date: Thu May 14 15:52:14 PDT 2015
User: schluterlab
Dark Spectrum Present: Yes
Reference Spectrum Present: Yes
Number of Sampled Component Spectra: 1
Spectrometers: USB2E3373
Integration Time (usec): 3000 (USB2E3373)
Spectra Averaged: 3 (USB2E3373)
Boxcar Smoothing: 0 (USB2E3373)
Correct for Electrical Dark: No (USB2E3373)
Strobe/Lamp Enabled: No (USB2E3373)
Correct for Detector Non-linearity: No (USB2E3373)
Correct for Stray Light: No (USB2E3373)
Number of Pixels in Processed Spectrum: 2048
>>>>>Begin Processed Spectral Data<<<<<
178.53	0.000
178.91	557.143
179.29	-5100.000
179.67	-4000.000
180.04	371.429
180.42	420.000
180.80	700.000
181.18	-4400.000
181.56	-3500.000
181.94	1050.000
182.31	-1075.000
182.69	1366.667
183.07	-1900.000
183.45	950.000
183.83	-466.667
184.20	-1333.333
184.58	3900.000
184.96	-1150.000
185.34	-388.889
185.72	-620.000
186.09	577.778
186.47	2100.000
186.85	960.000
187.23	-477.778
187.61	-5400.000
187.98	800.000
188.36	975.000
188.74	-1050.000
189.12	-933.333
189.49	-187.500
189.87	-487.500
190.25	-322.222
190.63	-660.000
191.00	-555.556
191.38	0.000
191.76	-1175.000
192.14	-683.333
192.51	2200.000
192.89	-483.333
193.27	0.000
193.65	-514.286
194.02	-5700.000
194.40	-542.857
194.78	471.429
195.15	0.000
195.53	-363.636
195.91	0.000
196.29	-1000.000
196.66	-269.231
197.04	-3800.000
197.42	-414.286
197.79	-1650.000
198.17	-437.500
198.55	-528.571
198.92	-311.111
199.30	-487.500
199.68	-300.000
200.05	-214.286
200.43	-2050.000
200.81	657.143
201.18	0.000
201.56	611.111
201.94	0.000
202.31	1333.333
202.69	-500.000
203.07	3200.000
203.44	-455.556
203.82	-1075.000
204.19	-350.000
204.57	-683.333
204.95	-500.000
205.32	-4200.000
205.70	925.000
206.08	-683.333
206.45	-683.333
206.83	980.000
207.20	-666.667
207.58	-760.000
207.96	-600.000
208.33	-466.667
208.71	408.333
209.08	-400.000
209.46	0.000
209.84	766.667
210.21	2100.000
210.59	2150.000
210.96	1600.000
211.34	-775.000
211.71	-500.000
212.09	-4100.000
212.46	0.000
212.84	2450.000
213.22	-880.000
213.59	-850.000
213.97	-330.000
214.34	-1400.000
214.72	783.333
215.09	-1150.000
215.47	0.000
215.84	671.429
216.22	2400.000
216.59	-680.000
216.97	-780.000
217.34	-1050.000
217.72	-475.000
218.09	-1175.000
218.47	-1225.000
218.84	0.000
219.22	800.000
219.59	-194.118
219.97	-180.000
220.34	2150.000
220.72	-400.000
221.09	-238.462
221.47	-933.333
221.84	-310.000
222.22	-528.571
222.59	0.000
222.97	-350.000
223.34	-780.000
223.72	-4100.000
224.09	-1050.000
224.46	-1000.000
224.84	-720.000
225.21	-714.286
225.59	-1250.000
225.96	-1200.000
226.34	-103.846
226.71	783.333
227.08	-1900.000
227.46	-200.000
227.83	-975.000
228.21	-168.421
228.58	450.000
228.95	1900.000
229.33	-258.333
229.70	-260.000
230.08	-142.105
230.45	550.000
230.82	-1333.333
231.20	-235.714
231.57	-291.667
231.95	-327.273
232.32	-345.455
232.69	-180.000
233.07	-925.000
233.44	-200.000
233.81	-330.000
234.19	-133.333
234.56	-154.545
234.93	-79.310
235.31	-168.421
235.68	-150.000
236.05	-175.000
236.43	-115.385
236.80	-120.000
237.17	-148.148
237.55	-103.030
237.92	-480.000
238.29	-93.548
238.67	-61.364
239.04	-108.333
239.41	-90.476
239.79	-65.217
240.16	-57.407
240.53	-89.130
240.91	-78.431
241.28	-50.820
241.65	-40.299
242.02	-43.243
242.40	-53.846
242.77	-44.000
243.14	-47.561
243.51	-59.211
243.89	-50.000
244.26	-22.772
244.63	-16.667
245.00	-14.953
245.38	-26.316
245.75	-30.088
246.12	-15.079
246.49	-25.581
246.87	-17.857
247.24	-17.881
247.61	-19.737
247.98	-18.121
248.36	-11.111
248.73	-14.724
249.10	-11.475
249.47	0.000
249.84	-2.618
250.22	-10.363
250.59	-12.222
250.96	-0.455
251.33	-12.755
251.70	-2.991
252.08	-4.167
252.45	-2.049
252.82	-6.198
253.19	-5.469
253.56	-1.141
253.94	-6.154
254.31	-1.136
254.68	-2.098
255.05	0.000
255.42	-5.102
255.79	-3.560
256.16	-3.642
256.54	-4.636
256.91	0.984
257.28	-0.984
257.65	-2.229
258.02	-2.065
258.39	0.855
258.76	1.223
259.14	5.460
259.51	-0.576
259.88	3.399
260.25	1.389
260.62	0.274
260.99	0.273
261.36	1.072
261.73	-0.796
262.10	0.824
262.47	-1.072
262.85	5.051
263.22	0.779
263.59	-2.632
263.96	2.046
264.33	0.000
264.70	4.198
265.07	1.671
265.44	5.215
265.81	2.083
266.18	1.134
266.55	3.125
266.92	0.228
267.29	3.720
267.66	2.661
268.03	4.367
268.40	3.132
268.77	2.050
269.14	-0.441
269.51	3.289
269.88	6.352
270.25	3.421
270.62	5.274
270.99	6.263
271.36	4.950
271.73	4.912
272.10	2.806
272.47	1.603
272.84	4.819
273.21	4.008
273.58	2.218
273.95	2.500
274.32	3.042
274.69	2.708
275.06	5.678
275.43	1.294
275.80	5.644
276.17	2.037
276.54	4.478
276.91	3.578
277.28	5.425
277.65	3.950
278.02	6.434
278.39	3.623
278.76	3.339
279.13	4.433
279.50	4.639
279.87	4.472
280.23	0.704
280.60	3.559
280.97	4.441
281.34	3.905
281.71	6.599
282.08	5.150
282.45	3.764
282.82	3.454
283.19	3.231
283.56	3.607
283.92	6.306
284.29	5.845
284.66	5.255
285.03	2.724
285.40	4.791
285.77	4.180
286.14	6.565
286.51	3.653
286.87	5.687
287.24	4.819
287.61	5.531
287.98	4.079
288.35	4.142
288.72	4.438
289.08	4.978
289.45	3.402
289.82	4.217
290.19	5.891
290.56	5.775
290.93	4.280
291.29	5.923
291.66	4.821
292.03	4.071
292.40	6.259
292.77	3.908
293.13	4.060
293.50	4.599
293.87	4.027
294.24	5.333
294.60	5.942
294.97	3.221
295.34	6.146
295.71	4.540
296.08	4.522
296.44	4.779
296.81	5.359
297.18	4.608
297.55	4.835
297.91	4.982
298.28	5.450
298.65	5.113
299.02	4.841
299.38	5.492
299.75	5.607
300.12	4.282
300.48	6.221
300.85	5.512
301.22	5.928
301.59	4.909
301.95	5.198
302.32	5.556
302.69	4.381
303.05	6.202
303.42	7.095
303.79	5.312
304.15	6.099
304.52	6.342
304.89	5.654
305.25	6.004
305.62	6.688
305.99	6.701
306.35	5.847
306.72	7.135
307.09	5.178
307.45	7.246
307.82	6.761
308.19	6.458
308.55	7.232
308.92	7.498
309.29	7.950
309.65	8.187
310.02	7.426
310.38	7.579
310.75	7.767
311.12	9.204
311.48	7.234
311.85	8.547
312.22	8.254
312.58	7.418
312.95	9.369
313.31	9.666
313.68	9.615
314.05	10.750
314.41	11.658
314.78	9.991
315.14	10.708
315.51	10.526
315.87	11.791
316.24	11.416
316.61	11.723
316.97	11.765
317.34	11.023
317.70	14.410
318.07	13.580
318.43	13.350
318.80	15.301
319.16	14.421
319.53	14.139
319.89	14.899
320.26	15.658
320.62	15.071
320.99	17.452
321.35	15.804
321.72	18.140
322.08	16.411
322.45	18.157
322.81	18.502
323.18	18.938
323.54	19.397
323.91	20.285
324.27	21.773
324.64	21.243
325.00	21.642
325.37	22.277
325.73	24.298
326.10	24.655
326.46	25.570
326.83	26.821
327.19	25.276
327.56	26.403
327.92	26.987
328.29	26.452
328.65	27.052
329.01	27.580
329.38	27.717
329.74	30.736
330.11	28.938
330.47	28.981
330.84	28.682
331.20	31.250
331.56	30.849
331.93	31.464
332.29	32.034
332.66	30.731
333.02	31.742
333.38	31.460
333.75	31.650
334.11	32.193
334.48	32.508
334.84	32.455
335.20	32.830
335.57	32.715
335.93	34.215
336.29	31.364
336.66	34.230
337.02	33.027
337.38	34.014
337.75	34.050
338.11	34.735
338.47	34.905
338.84	35.448
339.20	33.193
339.56	34.843
339.93	34.154
340.29	34.138
340.65	34.712
341.02	35.036
341.38	35.651
341.74	35.190
342.11	35.237
342.47	33.916
342.83	38.245
343.20	36.386
343.56	37.530
343.92	37.070
344.28	36.797
344.65	37.984
345.01	37.207
345.37	38.336
345.73	36.945
346.10	37.207
346.46	37.579
346.82	37.453
347.19	38.044
347.55	39.074
347.91	37.964
348.27	38.467
348.63	38.919
349.00	38.702
349.36	37.770
349.72	38.988
350.08	39.450
350.45	39.392
350.81	40.045
351.17	39.474
351.53	38.817
351.89	39.560
352.26	40.000
352.62	39.627
352.98	39.389
353.34	40.030
353.70	40.986
354.07	41.431
354.43	40.926
354.79	40.239
355.15	39.514
355.51	41.447
355.87	40.539
356.24	41.673
356.60	40.429
356.96	40.623
357.32	40.223
357.68	40.556
358.04	40.793
358.40	41.343
358.77	41.594
359.13	41.802
359.49	40.000
359.85	41.479
360.21	41.033
360.57	40.991
360.93	40.903
361.29	41.333
361.66	41.636
362.02	41.962
362.38	41.813
362.74	42.318
363.10	42.022
363.46	42.244
363.82	41.903
364.18	42.083
364.54	42.324
364.90	41.472
365.26	43.310
365.62	42.867
365.98	41.729
366.35	42.349
366.71	42.381
367.07	42.693
367.43	42.548
367.79	42.999
368.15	42.943
368.51	42.625
368.87	42.717
369.23	41.533
369.59	43.169
369.95	42.596
370.31	43.214
370.67	42.916
371.03	42.452
371.39	43.183
371.75	42.228
372.11	42.751
372.47	42.857
372.83	42.736
373.19	42.829
373.55	41.938
373.91	42.468
374.27	41.785
374.63	41.949
374.99	43.501
375.35	42.857
375.71	42.387
376.07	42.802
376.42	42.254
376.78	42.138
377.14	43.044
377.50	42.441
377.86	42.488
378.22	43.713
378.58	43.460
378.94	42.312
379.30	42.589
379.66	43.445
380.02	43.278
380.38	43.548
380.74	42.817
381.09	42.799
381.45	41.136
381.81	42.037
382.17	41.924
382.53	41.579
382.89	41.704
383.25	42.438
383.61	41.840
383.97	42.167
384.32	43.182
384.68	42.111
385.04	42.857
385.40	43.076
385.76	43.025
386.12	41.652
386.48	41.765
386.83	42.551
387.19	42.236
387.55	41.960
387.91	41.667
388.27	41.166
388.62	42.039
388.98	40.496
389.34	42.310
389.70	42.185
390.06	42.037
390.42	41.566
390.77	42.565
391.13	40.376
391.49	40.640
391.85	41.091
392.20	41.281
392.56	40.815
392.92	40.458
393.28	42.620
393.64	41.341
393.99	40.790
394.35	41.822
394.71	41.018
395.07	40.479
395.42	39.406
395.78	41.012
396.14	41.117
396.50	40.261
396.85	40.131
397.21	40.059
397.57	39.458
397.92	40.435
398.28	39.272
398.64	40.160
399.00	38.901
399.35	40.262
399.71	39.022
400.07	39.528
400.42	39.406
400.78	38.773
401.14	39.613
401.49	40.080
401.85	39.651
402.21	39.340
402.57	39.026
402.92	39.066
403.28	37.939
403.63	37.589
403.99	37.352
404.35	37.521
404.70	38.357
405.06	37.174
405.42	38.407
405.77	37.786
406.13	37.925
406.49	38.176
406.84	37.562
407.20	36.836
407.55	36.402
407.91	36.706
408.27	37.044
408.62	38.162
408.98	36.448
409.34	36.657
409.69	37.021
410.05	37.925
410.40	37.703
410.76	36.455
411.11	36.411
411.47	36.302
411.83	36.449
412.18	36.988
412.54	35.862
412.89	36.321
413.25	35.948
413.60	35.210
413.96	36.480
414.31	35.071
414.67	35.719
415.03	34.892
415.38	35.498
415.74	35.064
416.09	36.336
416.45	34.189
416.80	33.782
417.16	34.291
417.51	34.558
417.87	33.415
418.22	33.772
418.58	33.705
418.93	35.157
419.29	34.279
419.64	32.953
420.00	33.116
420.35	33.520
420.71	34.520
421.06	33.813
421.42	34.518
421.77	33.603
422.12	32.611
422.48	34.306
422.83	33.790
423.19	33.316
423.54	34.015
423.90	32.689
424.25	33.387
424.61	32.377
424.96	32.949
425.31	32.856
425.67	32.904
426.02	33.094
426.38	32.032
426.73	31.417
427.09	32.584
427.44	31.404
427.79	30.404
428.15	30.365
428.50	32.079
428.85	30.884
429.21	32.660
429.56	31.737
429.92	32.088
430.27	30.940
430.62	31.803
430.98	31.677
431.33	32.307
431.68	31.178
432.04	31.031
432.39	31.119
432.74	30.537
433.10	31.098
433.45	30.100
433.80	30.687
434.16	30.992
434.51	30.884
434.86	31.379
435.22	30.499
435.57	30.130
435.92	29.939
436.28	30.034
436.63	29.656
436.98	28.771
437.34	30.158
437.69	28.729
438.04	29.931
438.39	28.202
438.75	28.390
439.10	29.968
439.45	28.899
439.81	28.136
440.16	27.453
440.51	28.651
440.86	28.516
441.22	28.939
441.57	29.560
441.92	28.177
442.27	28.636
442.63	28.068
442.98	28.869
443.33	27.512
443.68	28.097
444.03	28.551
444.39	28.756
444.74	28.688
445.09	28.079
445.44	27.187
445.79	28.113
446.15	27.749
446.50	26.822
446.85	26.751
447.20	27.756
447.55	27.615
447.91	27.173
448.26	25.899
448.61	26.993
448.96	27.629
449.31	26.723
449.66	25.599
450.02	26.688
450.37	25.679
450.72	25.727
451.07	26.822
451.42	25.419
451.77	25.125
452.12	25.734
452.47	24.837
452.83	25.394
453.18	24.460
453.53	23.894
453.88	25.124
454.23	25.085
454.58	25.015
454.93	23.968
455.28	25.045
455.63	24.901
455.98	25.084
456.34	24.323
456.69	23.574
457.04	24.586
457.39	24.058
457.74	25.000
458.09	24.327
458.44	23.761
458.79	23.517
459.14	23.597
459.49	24.052
459.84	23.715
460.19	23.209
460.54	23.737
460.89	24.034
461.24	22.471
461.59	23.575
461.94	22.704
462.29	22.956
462.64	22.028
462.99	22.222
463.34	22.193
463.69	22.216
464.04	22.346
464.39	22.309
464.74	21.722
465.09	21.569
465.44	21.674
465.79	23.533
466.14	21.782
466.49	21.421
466.84	21.322
467.19	22.254
467.54	21.622
467.89	20.690
468.24	21.496
468.59	20.151
468.94	20.571
469.29	21.236
469.64	19.326
469.99	20.523
470.34	20.421
470.68	19.686
471.03	19.974
471.38	20.536
471.73	19.701
472.08	19.734
472.43	20.409
472.78	20.025
473.13	19.975
473.48	19.275
473.83	20.139
474.17	19.637
474.52	19.363
474.87	19.767
475.22	20.282
475.57	19.159
475.92	19.562
476.27	18.850
476.61	19.367
476.96	18.300
477.31	19.010
477.66	19.360
478.01	18.963
478.36	18.445
478.70	18.768
479.05	19.376
479.40	18.954
479.75	18.732
480.10	19.138
480.45	19.052
480.79	18.322
481.14	18.612
481.49	18.310
481.84	19.060
482.19	18.710
482.53	19.239
482.88	19.229
483.23	18.675
483.58	18.603
483.92	17.686
484.27	18.459
484.62	17.698
484.97	18.390
485.31	17.951
485.66	17.418
486.01	18.504
486.36	19.271
486.70	20.087
487.05	19.632
487.40	19.062
487.75	18.626
488.09	18.061
488.44	17.540
488.79	17.403
489.13	17.560
489.48	16.194
489.83	16.781
490.17	17.011
490.52	16.995
490.87	16.836
491.22	16.378
491.56	16.596
491.91	17.183
492.26	16.746
492.60	16.397
492.95	16.630
493.30	16.584
493.64	15.988
493.99	16.798
494.34	16.202
494.68	15.760
495.03	16.300
495.37	16.156
495.72	15.692
496.07	16.126
496.41	15.015
496.76	16.555
497.11	15.372
497.45	15.235
497.80	15.771
498.14	15.556
498.49	15.809
498.84	15.402
499.18	15.655
499.53	15.605
499.87	15.209
500.22	14.693
500.56	14.935
500.91	15.011
501.26	15.455
501.60	14.759
501.95	15.719
502.29	15.050
502.64	15.129
502.98	15.186
503.33	14.384
503.67	14.828
504.02	14.842
504.36	15.103
504.71	14.653
505.06	14.461
505.40	14.488
505.75	14.208
506.09	15.378
506.44	14.856
506.78	15.000
507.13	14.661
507.47	14.211
507.82	14.347
508.16	14.197
508.51	13.455
508.85	14.454
509.19	14.306
509.54	14.217
509.88	13.745
510.23	13.939
510.57	14.596
510.92	13.643
511.26	13.516
511.61	12.892
511.95	13.812
512.30	13.786
512.64	12.794
512.98	14.007
513.33	13.962
513.67	13.055
514.02	13.183
514.36	12.839
514.70	12.969
515.05	13.295
515.39	13.123
515.74	13.415
516.08	13.312
516.42	13.710
516.77	12.776
517.11	11.862
517.46	13.043
517.80	12.988
518.14	13.656
518.49	13.341
518.83	12.986
519.17	11.901
519.52	12.998
519.86	13.464
520.20	13.525
520.55	12.541
520.89	12.556
521.23	12.060
521.58	12.768
521.92	12.351
522.26	12.600
522.61	11.921
522.95	11.765
523.29	12.471
523.64	11.883
523.98	12.094
524.32	12.436
524.66	12.749
525.01	12.005
525.35	11.430
525.69	12.413
526.04	11.366
526.38	12.011
526.72	11.476
527.06	12.082
527.41	11.487
527.75	12.530
528.09	11.511
528.43	11.960
528.78	11.965
529.12	11.869
529.46	11.804
529.80	11.842
530.15	10.957
530.49	11.744
530.83	11.629
531.17	11.708
531.51	11.131
531.86	11.538
532.20	12.073
532.54	11.071
532.88	11.030
533.22	10.961
533.57	11.714
533.91	11.111
534.25	11.249
534.59	11.149
534.93	11.375
535.27	11.662
535.62	11.768
535.96	11.505
536.30	10.576
536.64	11.171
536.98	10.886
537.32	11.173
537.66	11.167
538.01	10.514
538.35	11.206
538.69	10.036
539.03	11.588
539.37	10.777
539.71	11.291
540.05	10.971
540.39	10.697
540.73	9.775
541.07	11.281
541.42	10.278
541.76	11.032
542.10	10.434
542.44	10.658
542.78	11.192
543.12	10.727
543.46	10.073
543.80	10.252
544.14	10.293
544.48	11.702
544.82	10.533
545.16	10.912
545.50	10.425
545.84	10.104
546.18	11.914
546.52	9.682
546.86	10.126
547.20	10.560
547.54	10.487
547.88	10.910
548.22	10.643
548.56	10.357
548.90	10.090
549.24	10.395
549.58	9.022
549.92	10.268
550.26	10.615
550.60	10.530
550.94	9.573
551.28	9.571
551.62	9.299
551.96	9.903
552.30	10.644
552.64	10.765
552.98	9.857
553.32	9.646
553.66	10.289
554.00	10.656
554.34	9.266
554.68	10.071
555.02	9.461
555.36	9.862
555.69	9.801
556.03	10.151
556.37	10.263
556.71	9.765
557.05	10.543
557.39	9.224
557.73	9.841
558.07	9.338
558.41	9.767
558.75	10.007
559.08	8.907
559.42	9.122
559.76	11.330
560.10	9.243
560.44	8.839
560.78	10.125
561.12	9.791
561.45	9.854
561.79	9.829
562.13	11.029
562.47	8.446
562.81	9.177
563.15	9.596
563.48	10.006
563.82	9.008
564.16	9.752
564.50	9.654
564.84	10.029
565.17	9.706
565.51	9.551
565.85	9.679
566.19	9.620
566.52	9.713
566.86	10.526
567.20	9.135
567.54	9.665
567.88	10.296
568.21	10.178
568.55	9.592
568.89	9.986
569.23	10.900
569.56	10.864
569.90	10.371
570.24	10.927
570.57	10.936
570.91	10.288
571.25	10.587
571.59	11.077
571.92	10.768
572.26	10.958
572.60	10.674
572.93	10.604
573.27	10.593
573.61	10.561
573.95	10.731
574.28	11.166
574.62	10.664
574.96	10.498
575.29	10.994
575.63	10.834
575.97	10.778
576.30	10.659
576.64	10.451
576.98	10.661
577.31	10.688
577.65	10.792
577.98	10.768
578.32	10.884
578.66	10.818
578.99	10.649
579.33	10.694
579.67	10.539
580.00	10.407
580.34	10.493
580.67	10.260
581.01	10.558
581.35	10.910
581.68	10.878
582.02	11.238
582.35	11.148
582.69	11.033
583.02	10.764
583.36	10.557
583.70	9.975
584.03	10.319
584.37	10.417
584.70	10.171
585.04	9.928
585.37	10.318
585.71	10.227
586.04	10.678
586.38	10.492
586.72	10.203
587.05	9.977
587.39	10.197
587.72	10.191
588.06	10.372
588.39	10.157
588.73	10.132
589.06	9.876
589.40	10.172
589.73	9.929
590.07	9.947
590.40	9.703
590.73	9.297
591.07	9.643
591.40	9.370
591.74	9.817
592.07	9.338
592.41	9.188
592.74	9.478
593.08	9.936
593.41	10.207
593.75	10.057
594.08	10.300
594.41	10.160
594.75	9.366
595.08	9.388
595.42	9.805
595.75	10.010
596.09	9.759
596.42	9.531
596.75	9.919
597.09	9.616
597.42	9.456
597.75	9.604
598.09	9.444
598.42	9.932
598.76	9.018
599.09	9.576
599.42	10.091
599.76	9.310
600.09	9.643
600.42	10.010
600.76	10.040
601.09	9.193
601.42	9.337
601.76	9.172
602.09	9.650
602.42	9.197
602.76	9.631
603.09	8.774
603.42	9.321
603.76	9.549
604.09	10.078
604.42	9.321
604.76	8.980
605.09	9.015
605.42	9.410
605.75	8.769
606.09	9.295
606.42	8.938
606.75	8.921
607.09	8.679
607.42	9.518
607.75	9.652
608.08	9.077
608.42	8.867
608.75	8.997
609.08	8.149
609.41	8.955
609.75	8.527
610.08	9.279
610.41	8.921
610.74	8.487
611.07	8.703
611.41	8.744
611.74	8.360
612.07	8.368
612.40	8.032
612.73	9.046
613.07	8.998
613.40	8.373
613.73	8.618
614.06	8.979
614.39	8.698
614.72	8.491
615.06	8.614
615.39	8.362
615.72	9.005
616.05	8.985
616.38	8.426
616.71	8.568
617.05	7.721
617.38	8.721
617.71	8.531
618.04	8.527
618.37	8.142
618.70	8.201
619.03	8.184
619.36	8.200
619.69	7.623
620.03	8.286
620.36	7.791
620.69	7.094
621.02	8.661
621.35	8.345
621.68	7.448
622.01	6.690
622.34	7.601
622.67	8.454
623.00	6.073
623.33	8.693
623.66	7.847
623.99	7.637
624.32	7.992
624.65	8.237
624.99	7.412
625.32	8.622
625.65	8.024
625.98	7.593
626.31	7.796
626.64	7.473
626.97	6.977
627.30	7.441
627.63	7.727
627.96	7.508
628.29	6.381
628.62	5.961
628.95	6.047
629.28	4.843
629.61	6.818
629.94	6.192
630.26	7.797
630.59	6.736
630.92	6.234
631.25	7.066
631.58	6.968
631.91	6.186
632.24	6.340
632.57	4.934
632.90	6.018
633.23	6.224
633.56	5.102
633.89	5.269
634.22	6.861
634.55	5.950
634.88	6.061
635.20	6.351
635.53	6.780
635.86	5.634
636.19	7.211
636.52	5.169
