SpectraSuite Data File
++++++++++++++++++++++++++++++++++++
Date: Thu May 14 15:52:08 PDT 2015
User: schluterlab
Dark Spectrum Present: Yes
Reference Spectrum Present: Yes
Number of Sampled Component Spectra: 1
Spectrometers: USB2E3373
Integration Time (usec): 3000 (USB2E3373)
Spectra Averaged: 3 (USB2E3373)
Boxcar Smoothing: 0 (USB2E3373)
Correct for Electrical Dark: No (USB2E3373)
Strobe/Lamp Enabled: No (USB2E3373)
Correct for Detector Non-linearity: No (USB2E3373)
Correct for Stray Light: No (USB2E3373)
Number of Pixels in Processed Spectrum: 2048
>>>>>Begin Processed Spectral Data<<<<<
178.53	0.000
178.91	471.429
179.29	-4900.000
179.67	-4200.000
180.04	450.000
180.42	400.000
180.80	900.000
181.18	-4000.000
181.56	-2800.000
181.94	825.000
182.31	-950.000
182.69	1600.000
183.07	-1850.000
183.45	900.000
183.83	-583.333
184.20	-1100.000
184.58	4400.000
184.96	-1100.000
185.34	-388.889
185.72	-780.000
186.09	533.333
186.47	2150.000
186.85	960.000
187.23	-466.667
187.61	-4600.000
187.98	700.000
188.36	1050.000
188.74	-825.000
189.12	-1133.333
189.49	-175.000
189.87	-650.000
190.25	-455.556
190.63	-600.000
191.00	-533.333
191.38	0.000
191.76	-1300.000
192.14	-666.667
192.51	1950.000
192.89	-500.000
193.27	0.000
193.65	-528.571
194.02	-4300.000
194.40	-600.000
194.78	700.000
195.15	0.000
195.53	-300.000
195.91	0.000
196.29	-875.000
196.66	-284.615
197.04	-4400.000
197.42	-585.714
197.79	-2400.000
198.17	-550.000
198.55	-585.714
198.92	-322.222
199.30	-612.500
199.68	-327.273
200.05	-221.429
200.43	-1950.000
200.81	657.143
201.18	0.000
201.56	544.444
201.94	0.000
202.31	1533.333
202.69	-433.333
203.07	2600.000
203.44	-377.778
203.82	-1000.000
204.19	-308.333
204.57	-416.667
204.95	-425.000
205.32	-4000.000
205.70	950.000
206.08	-500.000
206.45	-650.000
206.83	1000.000
207.20	-633.333
207.58	-900.000
207.96	-633.333
208.33	-616.667
208.71	341.667
209.08	-566.667
209.46	0.000
209.84	633.333
210.21	1900.000
210.59	2250.000
210.96	1633.333
211.34	-850.000
211.71	-525.000
212.09	-3900.000
212.46	0.000
212.84	2400.000
213.22	-760.000
213.59	-800.000
213.97	-300.000
214.34	-1366.667
214.72	700.000
215.09	-950.000
215.47	0.000
215.84	628.571
216.22	2350.000
216.59	-700.000
216.97	-840.000
217.34	-975.000
217.72	-412.500
218.09	-900.000
218.47	-750.000
218.84	0.000
219.22	800.000
219.59	-276.471
219.97	-150.000
220.34	1650.000
220.72	-522.222
221.09	-238.462
221.47	-1166.667
221.84	-390.000
222.22	-614.286
222.59	0.000
222.97	-500.000
223.34	-980.000
223.72	-4500.000
224.09	-1050.000
224.46	-1150.000
224.84	-660.000
225.21	-600.000
225.59	-1125.000
225.96	-1175.000
226.34	-146.154
226.71	866.667
227.08	-1850.000
227.46	-233.333
227.83	-1150.000
228.21	-200.000
228.58	412.500
228.95	2250.000
229.33	-283.333
229.70	-330.000
230.08	-126.316
230.45	450.000
230.82	-1533.333
231.20	-250.000
231.57	-258.333
231.95	-381.818
232.32	-300.000
232.69	-155.000
233.07	-750.000
233.44	-217.647
233.81	-350.000
234.19	-161.111
234.56	-200.000
234.93	-113.793
235.31	-189.474
235.68	-211.111
236.05	-230.000
236.43	-103.846
236.80	-72.000
237.17	-107.407
237.55	-84.848
237.92	-400.000
238.29	-119.355
238.67	-93.182
239.04	-100.000
239.41	-73.810
239.79	-78.261
240.16	-61.111
240.53	-71.739
240.91	-92.157
241.28	-63.934
241.65	-44.776
242.02	-40.541
242.40	-53.846
242.77	-46.667
243.14	-43.902
243.51	-57.895
243.89	-55.128
244.26	-29.703
244.63	-35.294
245.00	-32.710
245.38	-30.702
245.75	-34.513
246.12	-26.190
246.49	-25.581
246.87	-19.286
247.24	-16.556
247.61	-17.105
247.98	-21.477
248.36	-25.926
248.73	-21.472
249.10	-17.486
249.47	-12.438
249.84	-12.042
250.22	-16.580
250.59	-13.889
250.96	-7.727
251.33	-20.408
251.70	-9.402
252.08	-10.417
252.45	-8.197
252.82	-10.331
253.19	-11.328
253.56	-7.605
253.94	-11.154
254.31	-5.682
254.68	-3.497
255.05	-2.932
255.42	-7.823
255.79	-9.709
256.16	-8.609
256.54	-9.934
256.91	-8.525
257.28	-9.180
257.65	-8.280
258.02	-7.670
258.39	-4.274
258.76	-4.587
259.14	-3.448
259.51	-6.916
259.88	-8.499
260.25	-4.722
260.62	-3.288
260.99	-2.459
261.36	-5.898
261.73	-6.897
262.10	-4.945
262.47	-6.434
262.85	-0.758
263.22	-7.792
263.59	-6.316
263.96	-4.604
264.33	-6.138
264.70	-3.951
265.07	0.000
265.44	0.000
265.81	-5.556
266.18	-3.401
266.55	-3.348
266.92	-5.239
267.29	-2.407
267.66	-2.661
268.03	-3.712
268.40	-4.175
268.77	-6.834
269.14	-7.489
269.51	-4.167
269.88	-1.639
270.25	-2.414
270.62	-2.532
270.99	0.000
271.36	-2.178
271.73	-2.358
272.10	-2.405
272.47	-3.006
272.84	-4.217
273.21	-0.802
273.58	-1.613
273.95	-3.269
274.32	-3.612
274.69	-3.288
275.06	-1.648
275.43	-2.957
275.80	-0.882
276.17	-1.852
276.54	-3.731
276.91	-2.862
277.28	-1.266
277.65	-1.616
278.02	-3.309
278.39	-2.717
278.76	-0.351
279.13	-4.433
279.50	-1.203
279.87	-1.431
280.23	-5.282
280.60	-0.169
280.97	-1.974
281.34	-3.735
281.71	-0.677
282.08	-1.163
282.45	-2.455
282.82	-2.198
283.19	-3.554
283.56	-1.475
283.92	0.751
284.29	0.000
284.66	-1.478
285.03	-2.564
285.40	-1.082
285.77	-2.477
286.14	-0.305
286.51	-1.065
286.87	-0.474
287.24	-0.602
287.61	-1.345
287.98	-2.115
288.35	-1.479
288.72	-2.219
289.08	-0.732
289.45	-0.592
289.82	-1.807
290.19	-0.718
290.56	-0.141
290.93	-0.999
291.29	-0.138
291.66	-0.689
292.03	-1.357
292.40	0.680
292.77	0.674
293.13	-0.406
293.50	-0.920
293.87	-0.268
294.24	1.067
294.60	0.885
294.97	-1.879
295.34	2.689
295.71	0.378
296.08	0.129
296.44	0.123
296.81	-0.487
297.18	0.996
297.55	1.651
297.91	0.237
298.28	-0.355
298.65	1.070
299.02	1.063
299.38	2.632
299.75	2.220
300.12	1.157
300.48	1.267
300.85	2.025
301.22	1.342
301.59	1.826
301.95	1.695
302.32	4.222
302.69	2.081
303.05	2.720
303.42	2.106
303.79	2.292
304.15	2.313
304.52	1.480
304.89	3.770
305.25	3.830
305.62	2.821
305.99	3.918
306.35	3.831
306.72	4.757
307.09	3.756
307.45	2.899
307.82	4.137
308.19	4.339
308.55	4.050
308.92	4.966
309.29	5.939
309.65	4.776
310.02	5.347
310.38	5.512
310.75	5.728
311.12	7.574
311.48	6.745
311.85	7.977
312.22	7.306
312.58	7.981
312.95	8.509
313.31	7.678
313.68	10.714
314.05	9.846
314.41	11.020
314.78	10.354
315.14	11.615
315.51	12.281
315.87	13.411
316.24	11.872
316.61	13.854
316.97	13.394
317.34	12.963
317.70	15.459
318.07	13.668
318.43	15.476
318.80	17.642
319.16	16.910
319.53	16.367
319.89	15.863
320.26	17.972
320.62	18.085
320.99	19.760
321.35	20.702
321.72	21.767
322.08	21.461
322.45	22.042
322.81	21.841
323.18	23.628
323.54	23.621
323.91	26.157
324.27	25.559
324.64	27.036
325.00	27.446
325.37	28.256
325.73	30.413
326.10	30.414
326.46	32.166
326.83	32.266
327.19	33.307
327.56	33.834
327.92	33.989
328.29	35.081
328.65	35.343
329.01	36.379
329.38	38.079
329.74	38.527
330.11	38.185
330.47	39.259
330.84	38.760
331.20	40.250
331.56	40.468
331.93	40.084
332.29	41.780
332.66	42.110
333.02	41.374
333.38	43.037
333.75	43.434
334.11	44.120
334.48	43.564
334.84	43.840
335.20	43.661
335.57	43.423
335.93	43.554
336.29	43.344
336.66	44.575
337.02	45.067
337.38	45.748
337.75	44.628
338.11	46.678
338.47	45.823
338.84	44.924
339.20	45.409
339.56	45.717
339.93	45.813
340.29	46.296
340.65	45.255
341.02	48.683
341.38	46.645
341.74	47.538
342.11	48.431
342.47	46.068
342.83	48.551
343.20	47.588
343.56	48.196
343.92	48.279
344.28	47.500
344.65	47.054
345.01	47.348
345.37	49.145
345.73	47.155
346.10	47.426
346.46	48.180
346.82	47.341
347.19	47.823
347.55	49.241
347.91	50.297
348.27	47.572
348.63	48.439
349.00	47.726
349.36	49.740
349.72	48.289
350.08	47.623
350.45	49.582
350.81	48.341
351.17	50.075
351.53	49.886
351.89	49.051
352.26	49.030
352.62	49.030
352.98	49.313
353.34	48.096
353.70	50.231
354.07	48.063
354.43	49.582
354.79	48.093
355.15	49.154
355.51	49.050
355.87	49.813
356.24	49.962
356.60	48.411
356.96	49.370
357.32	48.996
357.68	47.731
358.04	49.701
358.40	49.851
358.77	49.415
359.13	49.705
359.49	49.442
359.85	49.239
360.21	48.996
360.57	48.169
360.93	48.942
361.29	50.175
361.66	48.443
362.02	50.592
362.38	50.387
362.74	47.975
363.10	49.312
363.46	50.346
363.82	49.290
364.18	49.050
364.54	48.686
364.90	49.097
365.26	50.483
365.62	49.200
365.98	49.217
366.35	49.530
366.71	50.680
367.07	48.782
367.43	48.391
367.79	49.171
368.15	50.167
368.51	49.323
368.87	49.053
369.23	47.667
369.59	50.000
369.95	48.276
370.31	49.561
370.67	48.143
371.03	47.438
371.39	47.616
371.75	48.831
372.11	48.577
372.47	47.393
372.83	48.429
373.19	48.366
373.55	48.103
373.91	48.125
374.27	47.930
374.63	48.173
374.99	47.546
375.35	47.792
375.71	47.742
376.07	46.869
376.42	48.741
376.78	47.918
377.14	46.663
377.50	48.008
377.86	47.722
378.22	47.305
378.58	48.335
378.94	46.948
379.30	46.749
379.66	47.149
380.02	47.548
380.38	48.675
380.74	46.873
381.09	47.329
381.45	46.477
381.81	48.302
382.17	46.556
382.53	47.485
382.89	45.655
383.25	47.128
383.61	47.049
383.97	46.408
384.32	45.574
384.68	46.462
385.04	47.195
385.40	46.612
385.76	47.245
386.12	45.422
386.48	45.529
386.83	46.305
387.19	44.612
387.55	44.718
387.91	45.605
388.27	45.266
388.62	44.903
388.98	43.768
389.34	44.667
389.70	45.555
390.06	45.234
390.42	44.518
390.77	45.455
391.13	43.369
391.49	45.048
391.85	43.939
392.20	44.187
392.56	44.241
392.92	43.566
393.28	44.334
393.64	42.849
393.99	44.393
394.35	44.977
394.71	44.850
395.07	42.814
395.42	42.776
395.78	44.302
396.14	43.731
396.50	42.577
396.85	42.218
397.21	42.485
397.57	43.227
397.92	40.779
398.28	41.554
398.64	41.190
399.00	40.733
399.35	41.414
399.71	42.228
400.07	41.494
400.42	41.211
400.78	41.319
401.14	40.922
401.49	40.875
401.85	40.291
402.21	40.904
402.57	41.667
402.92	39.598
403.28	39.754
403.63	40.513
403.99	38.480
404.35	40.023
404.70	39.660
405.06	39.674
405.42	38.232
405.77	39.095
406.13	39.816
406.49	38.964
406.84	38.283
407.20	38.401
407.55	38.462
407.91	38.466
408.27	36.337
408.62	36.940
408.98	36.622
409.34	37.185
409.69	36.527
410.05	36.635
410.40	37.529
410.76	37.689
411.11	36.002
411.47	36.364
411.83	37.390
412.18	36.446
412.54	36.040
412.89	35.739
413.25	35.892
413.60	34.693
413.96	34.965
414.31	34.504
414.67	34.645
415.03	35.077
415.38	36.192
415.74	34.514
416.09	34.608
416.45	34.189
416.80	33.843
417.16	34.802
417.51	33.998
417.87	34.948
418.22	34.192
418.58	33.086
418.93	34.109
419.29	33.231
419.64	32.893
420.00	33.412
420.35	32.454
420.71	32.510
421.06	32.030
421.42	32.511
421.77	32.202
422.12	31.818
422.48	31.746
422.83	32.256
423.19	32.042
423.54	32.799
423.90	32.192
424.25	31.573
424.61	31.860
424.96	31.796
425.31	31.741
425.67	30.864
426.02	31.101
426.38	31.573
426.73	30.525
427.09	31.084
427.44	30.694
427.79	30.348
428.15	30.765
428.50	29.775
428.85	29.851
429.21	30.798
429.56	29.961
429.92	29.582
430.27	29.639
430.62	30.093
430.98	29.169
431.33	29.326
431.68	29.454
432.04	29.304
432.39	30.048
432.74	28.938
433.10	29.151
433.45	27.536
433.80	28.219
434.16	28.616
434.51	28.623
434.86	28.990
435.22	29.224
435.57	28.184
435.92	28.047
436.28	27.474
436.63	28.509
436.98	28.234
437.34	27.847
437.69	27.848
438.04	27.604
438.39	27.398
438.75	26.951
439.10	27.537
439.45	26.775
439.81	26.158
440.16	26.542
440.51	26.812
440.86	26.404
441.22	26.367
441.57	26.625
441.92	25.412
442.27	26.414
442.63	26.379
442.98	26.841
443.33	26.092
443.68	25.619
444.03	26.482
444.39	26.121
444.74	26.238
445.09	24.278
445.44	25.501
445.79	25.239
446.15	25.899
446.50	25.013
446.85	25.875
447.20	25.290
447.55	25.837
447.91	23.927
448.26	24.524
448.61	23.964
448.96	24.893
449.31	24.284
449.66	24.129
450.02	23.945
450.37	23.548
450.72	24.273
451.07	23.519
451.42	23.570
451.77	23.457
452.12	24.323
452.47	22.816
452.83	23.592
453.18	23.351
453.53	23.205
453.88	22.860
454.23	22.881
454.58	22.983
454.93	22.269
455.28	23.660
455.63	22.513
455.98	23.184
456.34	22.909
456.69	22.281
457.04	22.340
457.39	21.896
457.74	22.651
458.09	21.417
458.44	22.575
458.79	21.351
459.14	22.077
459.49	21.619
459.84	22.141
460.19	20.711
460.54	21.806
460.89	21.440
461.24	20.805
461.59	22.191
461.94	20.194
462.29	21.109
462.64	20.821
462.99	21.469
463.34	20.766
463.69	19.812
464.04	21.234
464.39	20.291
464.74	20.468
465.09	20.877
465.44	19.796
465.79	20.412
466.14	20.063
466.49	20.579
466.84	19.725
467.19	19.595
467.54	19.213
467.89	19.080
468.24	18.560
468.59	18.819
468.94	19.231
469.29	19.736
469.64	18.500
469.99	18.993
470.34	19.307
470.68	19.412
471.03	19.122
471.38	18.705
471.73	18.205
472.08	18.464
472.43	19.326
472.78	19.207
473.13	18.710
473.48	18.912
473.83	18.456
474.17	17.937
474.52	18.160
474.87	18.549
475.22	18.930
475.57	18.640
475.92	18.268
476.27	18.477
476.61	17.549
476.96	17.570
477.31	17.921
477.66	18.311
478.01	17.489
478.36	17.846
478.70	17.783
479.05	18.200
479.40	18.263
479.75	18.156
480.10	17.054
480.45	17.411
480.79	17.868
481.14	17.647
481.49	16.538
481.84	17.798
482.19	16.946
482.53	17.534
482.88	17.590
483.23	17.119
483.58	17.118
483.92	16.800
484.27	17.612
484.62	16.749
484.97	16.952
485.31	16.895
485.66	16.230
486.01	16.565
486.36	16.945
486.70	18.031
487.05	18.304
487.40	17.506
487.75	17.226
488.09	16.934
488.44	16.708
488.79	16.492
489.13	16.618
489.48	15.379
489.83	16.499
490.17	15.755
490.52	16.256
490.87	16.159
491.22	15.858
491.56	16.212
491.91	17.008
492.26	15.491
492.60	15.785
492.95	16.147
493.30	15.688
493.64	15.375
493.99	15.175
494.34	15.244
494.68	15.289
495.03	15.947
495.37	15.579
495.72	16.236
496.07	15.732
496.41	14.801
496.76	16.055
497.11	15.202
497.45	15.235
497.80	16.304
498.14	15.238
498.49	15.119
498.84	14.762
499.18	14.980
499.53	15.112
499.87	15.385
500.22	14.426
500.56	15.250
500.91	14.416
501.26	15.500
501.60	14.980
501.95	15.024
502.29	15.050
502.64	14.998
502.98	15.142
503.33	14.039
503.67	14.261
504.02	14.361
504.36	14.879
504.71	14.194
505.06	14.416
505.40	14.168
505.75	14.253
506.09	14.503
506.44	13.835
506.78	14.174
507.13	14.984
507.47	14.495
507.82	13.778
508.16	13.910
508.51	13.596
508.85	14.218
509.19	13.643
509.54	14.217
509.88	13.987
510.23	14.036
510.57	14.210
510.92	13.788
511.26	14.093
511.61	13.423
511.95	14.007
512.30	14.574
512.64	13.593
512.98	13.657
513.33	13.558
513.67	13.565
514.02	14.001
514.36	13.606
514.70	13.438
515.05	13.712
515.39	13.123
515.74	14.210
516.08	13.259
516.42	14.338
516.77	13.670
517.11	12.996
517.46	14.157
517.80	12.988
518.14	13.275
518.49	13.720
518.83	13.199
519.17	12.978
519.52	13.208
519.86	12.988
520.20	13.152
520.55	13.089
520.89	12.444
521.23	12.954
521.58	14.124
521.92	12.465
522.26	12.658
522.61	13.137
522.95	12.918
523.29	12.471
523.64	12.052
523.98	13.577
524.32	13.754
524.66	13.034
525.01	12.741
525.35	12.407
525.69	12.355
526.04	12.629
526.38	12.701
526.72	12.918
527.06	12.023
527.41	12.711
527.75	13.480
528.09	12.869
528.43	12.019
528.78	12.486
529.12	12.500
529.46	12.535
529.80	12.300
530.15	12.522
530.49	12.693
530.83	13.046
531.17	12.127
531.51	12.756
531.86	11.599
532.20	12.256
532.54	12.029
532.88	11.212
533.22	12.434
533.57	12.291
533.91	12.402
534.25	11.702
534.59	12.069
534.93	12.168
535.27	12.620
535.62	13.076
535.96	12.260
536.30	12.162
536.64	11.772
536.98	12.731
537.32	11.728
537.66	11.853
538.01	12.205
538.35	11.267
538.69	11.418
539.03	11.711
539.37	11.779
539.71	11.892
540.05	12.050
540.39	11.430
540.73	11.718
541.07	11.465
541.42	11.577
541.76	11.862
542.10	11.701
542.44	10.962
542.78	11.496
543.12	11.502
543.46	11.600
543.80	11.091
544.14	11.730
544.48	11.525
544.82	12.388
545.16	11.449
545.50	11.624
545.84	10.900
546.18	12.284
546.52	11.210
546.86	11.321
547.20	11.387
547.54	10.362
547.88	10.307
548.22	10.936
548.56	10.532
548.90	11.104
549.24	10.760
549.58	11.230
549.92	11.352
550.26	11.133
550.60	10.849
550.94	11.643
551.28	10.825
551.62	11.321
551.96	10.874
552.30	10.899
552.64	11.201
552.98	11.042
553.32	10.804
553.66	10.740
554.00	10.908
554.34	10.489
554.68	10.781
555.02	10.907
555.36	11.703
555.69	11.019
556.03	10.277
556.37	11.014
556.71	11.477
557.05	10.990
557.39	10.750
557.73	10.634
558.07	10.993
558.41	11.296
558.75	10.886
559.08	10.230
559.42	10.562
559.76	11.330
560.10	10.583
560.44	10.818
560.78	11.500
561.12	11.022
561.45	12.226
561.79	10.745
562.13	10.783
562.47	10.419
562.81	10.316
563.15	10.985
563.48	10.752
563.82	10.580
564.16	10.842
564.50	9.952
564.84	10.678
565.17	10.882
565.51	10.759
565.85	9.917
566.19	10.541
566.52	10.591
566.86	10.753
567.20	9.570
567.54	10.621
567.88	10.601
568.21	11.117
568.55	10.600
568.89	10.304
569.23	10.773
569.56	10.668
569.90	10.371
570.24	10.523
570.57	10.231
570.91	10.502
571.25	10.587
571.59	10.660
571.92	10.261
572.26	10.667
572.60	11.138
572.93	10.520
573.27	10.593
573.61	10.244
573.95	10.658
574.28	10.792
574.62	10.528
574.96	10.454
575.29	10.156
575.63	10.326
575.97	10.778
576.30	10.289
576.64	9.998
576.98	10.433
577.31	10.140
577.65	10.504
577.98	10.561
578.32	10.131
578.66	10.366
578.99	10.117
579.33	10.271
579.67	10.018
580.00	10.137
580.34	10.340
580.67	10.150
581.01	9.996
581.35	10.208
581.68	10.186
582.02	10.195
582.35	10.539
582.69	10.417
583.02	10.017
583.36	10.413
583.70	9.839
584.03	9.959
584.37	9.899
584.70	9.511
585.04	9.951
585.37	9.965
585.71	9.924
586.04	9.775
586.38	10.097
586.72	9.626
587.05	9.772
587.39	10.097
587.72	10.048
588.06	10.106
588.39	9.634
588.73	9.656
589.06	10.130
589.40	9.926
589.73	9.833
590.07	9.582
590.40	10.345
590.73	9.650
591.07	10.127
591.40	9.798
591.74	9.380
592.07	10.028
592.41	9.976
592.74	9.727
593.08	10.414
593.41	10.353
593.75	9.828
594.08	9.724
594.41	9.968
594.75	9.499
595.08	9.926
595.42	9.481
595.75	9.848
596.09	9.997
596.42	9.423
596.75	10.228
597.09	9.818
597.42	9.019
597.75	10.035
598.09	10.079
598.42	9.690
598.76	9.400
599.09	9.968
599.42	9.789
599.76	9.904
600.09	9.710
600.42	9.910
600.76	10.106
601.09	9.824
601.42	9.475
601.76	9.552
602.09	9.257
602.42	9.197
602.76	9.594
603.09	9.361
603.42	9.393
603.76	9.197
604.09	9.652
604.42	9.468
604.76	8.866
605.09	9.813
605.42	9.968
605.75	9.538
606.09	9.780
606.42	9.340
606.75	9.183
607.09	9.370
607.42	9.865
607.75	9.379
608.08	9.274
608.42	9.432
608.75	9.909
609.08	9.041
609.41	9.704
609.75	8.750
610.08	9.543
610.41	9.261
610.74	9.454
611.07	9.236
611.41	9.776
611.74	9.423
612.07	9.490
612.40	8.983
612.73	9.389
613.07	9.340
613.40	9.480
613.73	9.100
614.06	9.814
614.39	8.844
614.72	9.073
615.06	8.710
615.39	8.748
615.72	9.384
616.05	9.325
616.38	9.183
616.71	9.613
617.05	8.999
617.38	10.005
617.71	8.747
618.04	9.066
618.37	9.563
618.70	8.710
619.03	9.379
619.36	9.186
619.69	8.584
620.03	8.977
620.36	8.650
620.69	9.439
621.02	9.121
621.35	9.507
621.68	9.761
622.01	8.968
622.34	8.508
622.67	9.072
623.00	7.895
623.33	9.025
623.66	9.339
623.99	8.953
624.32	8.967
624.65	8.494
624.99	9.558
625.32	9.340
625.65	9.440
625.98	8.475
626.31	9.142
626.64	9.011
626.97	8.402
627.30	7.441
627.63	8.252
627.96	9.685
628.29	9.494
628.62	8.060
628.95	7.099
629.28	8.071
629.61	9.596
629.94	8.033
630.26	8.475
630.59	9.154
630.92	7.619
631.25	9.392
631.58	9.605
631.91	7.591
632.24	8.549
632.57	8.539
632.90	7.623
633.23	8.265
633.56	8.571
