SpectraSuite Data File
++++++++++++++++++++++++++++++++++++
Date: Thu May 14 16:36:36 PDT 2015
User: schluterlab
Dark Spectrum Present: Yes
Reference Spectrum Present: Yes
Number of Sampled Component Spectra: 1
Spectrometers: USB2E3373
Integration Time (usec): 3000 (USB2E3373)
Spectra Averaged: 3 (USB2E3373)
Boxcar Smoothing: 0 (USB2E3373)
Correct for Electrical Dark: No (USB2E3373)
Strobe/Lamp Enabled: No (USB2E3373)
Correct for Detector Non-linearity: No (USB2E3373)
Correct for Stray Light: No (USB2E3373)
Number of Pixels in Processed Spectrum: 2048
>>>>>Begin Processed Spectral Data<<<<<
178.53	0.000
178.91	-42.857
179.29	-700.000
179.67	200.000
180.04	171.429
180.42	90.000
180.80	180.000
181.18	-1100.000
181.56	100.000
181.94	100.000
182.31	-100.000
182.69	166.667
183.07	-50.000
183.45	425.000
183.83	-66.667
184.20	-300.000
184.58	2000.000
184.96	-50.000
185.34	0.000
185.72	-200.000
186.09	166.667
186.47	550.000
186.85	180.000
187.23	-77.778
187.61	-700.000
187.98	120.000
188.36	275.000
188.74	-150.000
189.12	33.333
189.49	43.750
189.87	-112.500
190.25	-22.222
190.63	60.000
191.00	-88.889
191.38	0.000
191.76	-150.000
192.14	-100.000
192.51	400.000
192.89	283.333
193.27	0.000
193.65	-71.429
194.02	-1600.000
194.40	-71.429
194.78	71.429
195.15	0.000
195.53	0.000
195.91	0.000
196.29	0.000
196.66	-61.538
197.04	-1300.000
197.42	-100.000
197.79	-700.000
198.17	-175.000
198.55	-100.000
198.92	66.667
199.30	-62.500
199.68	-54.545
200.05	35.714
200.43	-450.000
200.81	200.000
201.18	0.000
201.56	122.222
201.94	0.000
202.31	233.333
202.69	-133.333
203.07	1400.000
203.44	-22.222
203.82	-200.000
204.19	-41.667
204.57	-66.667
204.95	-175.000
205.32	-400.000
205.70	-100.000
206.08	-16.667
206.45	-66.667
206.83	220.000
207.20	-33.333
207.58	-60.000
207.96	-133.333
208.33	83.333
208.71	75.000
209.08	0.000
209.46	0.000
209.84	216.667
210.21	550.000
210.59	-0.000
210.96	166.667
211.34	125.000
211.71	-87.500
212.09	-300.000
212.46	0.000
212.84	450.000
213.22	-100.000
213.59	-200.000
213.97	-50.000
214.34	-233.333
214.72	100.000
215.09	-75.000
215.47	0.000
215.84	28.571
216.22	650.000
216.59	-80.000
216.97	-180.000
217.34	-25.000
217.72	-37.500
218.09	50.000
218.47	-150.000
218.84	0.000
219.22	80.000
219.59	11.765
219.97	0.000
220.34	-150.000
220.72	-133.333
221.09	38.462
221.47	-66.667
221.84	-90.000
222.22	-71.429
222.59	0.000
222.97	-37.500
223.34	-120.000
223.72	-400.000
224.09	150.000
224.46	-300.000
224.84	60.000
225.21	-85.714
225.59	-300.000
225.96	-225.000
226.34	3.846
226.71	250.000
227.08	-350.000
227.46	-26.667
227.83	0.000
228.21	-36.842
228.58	-25.000
228.95	100.000
229.33	-50.000
229.70	-120.000
230.08	47.368
230.45	130.000
230.82	100.000
231.20	7.143
231.57	-8.333
231.95	27.273
232.32	-27.273
232.69	35.000
233.07	175.000
233.44	41.176
233.81	-130.000
234.19	27.778
234.56	-22.727
234.93	13.793
235.31	15.789
235.68	22.222
236.05	-45.000
236.43	50.000
236.80	32.000
237.17	33.333
237.55	6.061
237.92	-130.000
238.29	-9.677
238.67	9.091
239.04	8.333
239.41	-14.286
239.79	0.000
240.16	-3.704
240.53	-2.174
240.91	-17.647
241.28	-11.475
241.65	0.000
242.02	9.459
242.40	-4.615
242.77	2.667
243.14	1.220
243.51	-10.526
243.89	-2.564
244.26	11.881
244.63	6.863
245.00	4.673
245.38	-0.877
245.75	-6.195
246.12	7.143
246.49	7.752
246.87	5.714
247.24	10.596
247.61	11.842
247.98	1.342
248.36	1.852
248.73	-0.613
249.10	7.104
249.47	12.935
249.84	5.236
250.22	8.808
250.59	7.778
250.96	9.091
251.33	-2.041
251.70	5.983
252.08	7.917
252.45	7.377
252.82	4.959
253.19	2.734
253.56	7.605
253.94	6.154
254.31	7.197
254.68	12.238
255.05	8.795
255.42	6.463
255.79	6.472
256.16	4.305
256.54	1.325
256.91	8.852
257.28	5.902
257.65	3.185
258.02	4.720
258.39	5.698
258.76	8.257
259.14	3.736
259.51	5.187
259.88	5.949
260.25	5.278
260.62	6.301
260.99	8.197
261.36	6.971
261.73	6.897
262.10	3.022
262.47	4.826
262.85	6.313
263.22	3.636
263.59	3.158
263.96	7.417
264.33	5.882
264.70	7.160
265.07	6.683
265.44	10.884
265.81	3.704
266.18	5.669
266.55	7.143
266.92	5.467
267.29	6.346
267.66	5.322
268.03	5.240
268.40	6.054
268.77	4.100
269.14	3.524
269.51	5.482
269.88	7.172
270.25	6.237
270.62	5.907
270.99	8.283
271.36	8.515
271.73	7.859
272.10	5.611
272.47	4.609
272.84	5.622
273.21	6.613
273.58	7.258
273.95	6.154
274.32	5.513
274.69	5.609
275.06	4.945
275.43	5.545
275.80	6.878
276.17	5.000
276.54	6.903
276.91	4.651
277.28	5.606
277.65	6.463
278.02	4.412
278.39	5.797
278.76	5.975
279.13	5.674
279.50	6.529
279.87	7.156
280.23	6.338
280.60	6.610
280.97	7.072
281.34	5.603
281.71	6.091
282.08	6.645
282.45	5.074
282.82	3.925
283.19	5.331
283.56	6.066
283.92	7.057
284.29	7.109
284.66	6.076
285.03	3.205
285.40	6.646
285.77	5.108
286.14	7.176
286.51	6.849
286.87	4.739
287.24	7.078
287.61	5.830
287.98	4.985
288.35	5.473
288.72	6.509
289.08	7.174
289.45	6.657
289.82	5.723
290.19	4.741
290.56	5.634
290.93	4.850
291.29	6.612
291.66	5.372
292.03	5.427
292.40	5.442
292.77	6.334
293.13	6.225
293.50	4.862
293.87	6.980
294.24	6.667
294.60	7.838
294.97	3.490
295.34	7.810
295.71	5.170
296.08	4.522
296.44	6.618
296.81	5.725
297.18	5.230
297.55	5.189
297.91	5.813
298.28	5.213
298.65	6.540
299.02	6.257
299.38	6.522
299.75	6.776
300.12	5.556
300.48	5.530
300.85	6.187
301.22	7.383
301.59	6.164
301.95	7.006
302.32	7.556
302.69	6.462
303.05	7.943
303.42	6.984
303.79	6.667
304.15	6.625
304.52	7.188
304.89	8.063
305.25	7.660
305.62	7.524
305.99	9.072
306.35	7.460
306.72	9.824
307.09	8.223
307.45	9.213
307.82	8.073
308.19	9.082
308.55	10.222
308.92	9.153
309.29	9.483
309.65	8.869
310.02	8.713
310.38	9.350
310.75	9.903
311.12	9.204
311.48	8.700
311.85	9.307
312.22	9.583
312.58	10.704
312.95	10.803
313.31	11.743
313.68	11.722
314.05	13.640
314.41	13.024
314.78	12.443
315.14	12.523
315.51	12.558
315.87	13.051
316.24	13.425
316.61	15.187
316.97	14.570
317.34	14.638
317.70	16.157
318.07	14.815
318.43	15.561
318.80	16.221
319.16	15.708
319.53	16.795
319.89	16.652
320.26	18.327
320.62	16.578
320.99	18.190
321.35	18.669
321.72	20.372
322.08	18.936
322.45	20.054
322.81	19.946
323.18	20.973
323.54	20.948
323.91	21.441
324.27	22.633
324.64	23.174
325.00	20.813
325.37	23.669
325.73	24.298
326.10	25.142
326.46	27.199
326.83	27.062
327.19	25.906
327.56	27.115
327.92	27.537
328.29	28.065
328.65	27.136
329.01	27.919
329.38	28.728
329.74	29.795
330.11	30.051
330.47	29.992
330.84	29.974
331.20	30.333
331.56	30.243
331.93	30.293
332.29	31.017
332.66	30.648
333.02	29.397
333.38	30.201
333.75	31.566
334.11	30.359
334.48	30.446
334.84	30.841
335.20	29.723
335.57	32.125
335.93	31.405
336.29	30.033
336.66	32.801
337.02	30.100
337.38	31.633
337.75	30.909
338.11	32.548
338.47	32.423
338.84	31.387
339.20	32.435
339.56	31.219
339.93	31.199
340.29	30.837
340.65	32.685
341.02	33.440
341.38	33.791
341.74	32.203
342.11	32.100
342.47	30.977
342.83	32.287
343.20	33.933
343.56	33.039
343.92	31.385
344.28	32.891
344.65	32.946
345.01	32.371
345.37	33.126
345.73	32.268
346.10	32.293
346.46	33.386
346.82	33.783
347.19	33.308
347.55	33.915
347.91	33.210
348.27	32.929
348.63	34.044
349.00	33.035
349.36	33.086
349.72	33.333
350.08	34.547
350.45	33.916
350.81	34.163
351.17	35.038
351.53	34.875
351.89	35.459
352.26	34.254
352.62	35.149
352.98	33.664
353.34	34.429
353.70	36.441
354.07	35.544
354.43	34.776
354.79	35.602
355.15	35.099
355.51	35.819
355.87	35.602
356.24	36.198
356.60	34.738
356.96	35.508
357.32	36.134
357.68	36.530
358.04	37.275
358.40	36.866
358.77	36.623
359.13	36.115
359.49	36.654
359.85	35.968
360.21	36.011
360.57	36.396
360.93	37.094
361.29	36.982
361.66	37.437
362.02	38.413
362.38	38.299
362.74	37.919
363.10	39.133
363.46	37.673
363.82	39.773
364.18	38.283
364.54	39.004
364.90	38.462
365.26	39.517
365.62	39.200
365.98	39.755
366.35	39.530
366.71	40.612
367.07	39.919
367.43	39.396
367.79	39.681
368.15	41.405
368.51	41.813
368.87	39.582
369.23	39.800
369.59	41.462
369.95	40.433
370.31	42.539
370.67	42.435
371.03	41.967
371.39	40.900
371.75	41.747
372.11	41.599
372.47	40.894
372.83	41.688
373.19	42.095
373.55	42.344
373.91	43.558
374.27	42.755
374.63	42.760
374.99	43.103
375.35	43.247
375.71	43.677
376.07	43.641
376.42	43.892
376.78	44.438
377.14	43.980
377.50	44.908
377.86	45.320
378.22	44.192
378.58	45.541
378.94	44.601
379.30	44.288
379.66	44.503
380.02	45.413
380.38	47.177
380.74	46.535
381.09	47.793
381.45	45.795
381.81	48.361
382.17	47.268
382.53	46.959
382.89	46.558
383.25	47.304
383.61	47.222
383.97	47.173
384.32	47.548
384.68	47.448
385.04	47.484
385.40	49.087
385.76	48.886
386.12	48.833
386.48	48.529
386.83	48.749
387.19	48.146
387.55	49.178
387.91	48.687
388.27	49.423
388.62	49.599
388.98	48.449
389.34	49.676
389.70	50.901
390.06	49.615
390.42	49.337
390.77	49.789
391.13	49.531
391.49	50.060
391.85	49.455
392.20	50.771
392.56	51.270
392.92	50.491
393.28	50.470
393.64	50.615
393.99	51.830
394.35	50.350
394.71	51.317
395.07	50.359
395.42	51.799
395.78	51.980
396.14	51.337
396.50	51.841
396.85	50.686
397.21	51.302
397.57	51.413
397.92	52.176
398.28	51.059
398.64	51.201
399.00	50.209
399.35	51.571
399.71	52.228
400.07	52.892
400.42	52.619
400.78	53.646
401.14	51.622
401.49	52.530
401.85	53.779
402.21	53.071
402.57	53.815
402.92	51.418
403.28	52.049
403.63	54.236
403.99	53.207
404.35	51.677
404.70	52.861
405.06	52.174
405.42	52.693
405.77	53.272
406.13	53.377
406.49	52.815
406.84	54.017
407.20	53.549
407.55	53.119
407.91	53.488
408.27	52.179
408.62	53.461
408.98	53.569
409.34	51.848
409.69	53.523
410.05	54.631
410.40	54.002
410.76	53.281
411.11	55.114
411.47	55.405
411.83	53.557
412.18	54.819
412.54	52.104
412.89	53.318
413.25	53.668
413.60	54.049
413.96	53.904
414.31	53.258
414.67	54.442
415.03	52.738
415.38	54.035
415.74	53.513
416.09	53.609
416.45	52.223
416.80	53.794
417.16	53.640
417.51	53.176
417.87	53.832
418.22	55.509
418.58	54.523
418.93	54.889
419.29	55.734
419.64	54.382
420.00	55.015
420.35	53.734
420.71	54.049
421.06	54.342
421.42	55.505
421.77	54.766
422.12	53.700
422.48	53.712
422.83	54.600
423.19	55.915
423.54	55.918
423.90	55.108
424.25	55.093
424.61	54.707
424.96	53.817
425.31	55.786
425.67	54.858
426.02	55.894
426.38	55.511
426.73	55.078
427.09	55.652
427.44	53.741
427.79	54.892
428.15	55.708
428.50	55.674
428.85	54.707
429.21	55.106
429.56	53.998
429.92	54.005
430.27	55.133
430.62	55.594
430.98	55.583
431.33	54.106
431.68	55.460
432.04	55.510
432.39	55.865
432.74	55.479
433.10	57.274
433.45	54.682
433.80	54.989
434.16	55.217
434.51	56.732
434.86	57.058
435.22	55.579
435.57	57.075
435.92	56.093
436.28	55.916
436.63	56.090
436.98	55.448
437.34	56.144
437.69	56.357
438.04	55.209
438.39	55.600
438.75	55.451
439.10	57.082
439.45	54.723
439.81	56.215
440.16	56.139
440.51	56.466
440.86	54.697
441.22	56.056
441.57	55.346
441.92	55.820
442.27	56.970
442.63	54.993
442.98	56.297
443.33	55.708
443.68	55.253
444.03	57.291
444.39	56.634
444.74	57.376
445.09	55.905
445.44	56.375
445.79	56.034
446.15	56.423
446.50	55.607
446.85	57.053
447.20	57.350
447.55	57.322
447.91	56.545
448.26	56.395
448.61	55.632
448.96	57.779
449.31	56.204
449.66	54.684
450.02	56.435
450.37	56.580
450.72	56.405
451.07	56.150
451.42	55.979
451.77	55.531
452.12	57.054
452.47	56.328
452.83	56.306
453.18	56.743
453.53	56.921
453.88	54.776
454.23	56.497
454.58	56.761
454.93	55.886
455.28	57.255
455.63	55.770
455.98	55.866
456.34	57.362
456.69	56.320
457.04	57.920
457.39	55.322
457.74	56.432
458.09	56.507
458.44	55.819
458.79	55.493
459.14	54.798
459.49	56.480
459.84	56.243
460.19	54.581
460.54	57.240
460.89	56.167
461.24	55.000
461.59	56.890
461.94	54.535
462.29	55.151
462.64	56.065
462.99	56.246
463.34	56.846
463.69	54.689
464.04	55.531
464.39	55.437
464.74	54.390
465.09	55.825
465.44	55.311
465.79	54.997
466.14	53.465
466.49	55.211
466.84	54.490
467.19	54.913
467.54	54.700
467.89	55.345
468.24	55.235
468.59	55.646
468.94	53.963
469.29	56.029
469.64	54.673
469.99	55.386
470.34	54.641
470.68	54.887
471.03	55.337
471.38	55.396
471.73	56.372
472.08	54.695
472.43	54.606
472.78	54.912
473.13	54.678
473.48	54.804
473.83	55.194
474.17	53.634
474.52	54.480
474.87	54.374
475.22	54.197
475.57	54.465
475.92	53.758
476.27	54.792
476.61	54.258
476.96	54.901
477.31	54.257
477.66	55.247
478.01	54.093
478.36	53.340
478.70	54.335
479.05	55.010
479.40	54.689
479.75	53.602
480.10	54.429
480.45	53.829
480.79	53.469
481.14	54.366
481.49	52.930
481.84	53.916
482.19	53.247
482.53	54.132
482.88	54.807
483.23	54.246
483.58	54.367
483.92	52.394
484.27	54.107
484.62	52.351
484.97	52.605
485.31	52.622
485.66	50.230
486.01	48.883
486.36	50.406
486.70	52.071
487.05	52.872
487.40	52.241
487.75	52.723
488.09	52.916
488.44	51.017
488.79	52.040
489.13	51.629
489.48	52.466
489.83	52.032
490.17	52.167
490.52	51.642
490.87	52.876
491.22	53.250
491.56	52.090
491.91	51.461
492.26	52.575
492.60	51.640
492.95	52.128
493.30	52.577
493.64	51.599
493.99	52.061
494.34	51.873
494.68	52.420
495.03	52.159
495.37	52.153
495.72	51.610
496.07	51.972
496.41	51.480
496.76	52.085
497.11	51.762
497.45	52.180
497.80	51.932
498.14	52.109
498.49	51.746
498.84	52.834
499.18	51.912
499.53	51.345
499.87	50.945
500.22	50.445
500.56	51.507
500.91	52.449
501.26	51.364
501.60	50.773
501.95	50.673
502.29	51.382
502.64	51.902
502.98	50.820
503.33	50.151
503.67	49.804
504.02	50.569
504.36	51.475
504.71	51.447
505.06	50.023
505.40	50.229
505.75	50.455
506.09	50.645
506.44	51.857
506.78	51.055
507.13	51.498
507.47	51.587
507.82	50.284
508.16	51.530
508.51	49.461
508.85	50.968
509.19	50.876
509.54	51.057
509.88	50.219
510.23	51.093
510.57	51.136
510.92	50.605
511.26	49.495
511.61	49.590
511.95	49.634
512.30	49.975
512.64	49.475
512.98	49.625
513.33	50.655
513.67	49.669
514.02	50.332
514.36	50.844
514.70	51.094
515.05	51.095
515.39	51.024
515.74	52.439
516.08	50.291
516.42	50.340
516.77	50.631
517.11	49.613
517.46	51.273
517.80	51.951
518.14	50.707
518.49	50.868
518.83	48.856
519.17	49.381
519.52	49.371
519.86	50.053
520.20	49.627
520.55	48.302
520.89	49.887
521.23	49.470
521.58	50.508
521.92	49.405
522.26	49.255
522.61	51.331
522.95	50.634
523.29	50.920
523.64	49.608
523.98	51.797
524.32	50.716
524.66	49.573
525.01	48.245
525.35	49.397
525.69	49.130
526.04	48.278
526.38	49.195
526.72	50.173
527.06	49.853
527.41	48.980
527.75	49.762
528.09	49.587
528.43	49.319
528.78	48.092
529.12	48.509
529.46	48.567
529.80	48.741
530.15	48.522
530.49	48.399
530.83	47.757
531.17	48.029
531.51	49.338
531.86	47.957
532.20	48.659
532.54	47.337
532.88	47.939
533.22	46.906
533.57	47.836
533.91	46.577
534.25	47.258
534.59	47.816
534.93	47.878
535.27	47.775
535.62	47.356
535.96	47.182
536.30	47.121
536.64	46.907
536.98	47.724
537.32	48.025
537.66	47.723
538.01	45.740
538.35	45.615
538.69	46.334
539.03	46.781
539.37	46.290
539.71	46.246
540.05	46.283
540.39	46.883
540.73	45.234
541.07	45.003
541.42	45.718
541.76	45.433
542.10	45.537
542.44	45.006
542.78	45.438
543.12	44.517
543.46	45.604
543.80	45.024
544.14	45.661
544.48	44.858
544.82	44.584
545.16	46.154
545.50	44.817
545.84	44.213
546.18	45.679
546.52	45.541
546.86	45.597
547.20	44.084
547.54	43.446
547.88	44.002
548.22	44.035
548.56	43.534
548.90	44.179
549.24	44.134
549.58	43.722
549.92	43.622
550.26	45.631
550.60	44.608
550.94	45.084
551.28	43.894
551.62	45.889
551.96	44.078
552.30	44.742
552.64	44.991
552.98	44.042
553.32	44.051
553.66	43.794
554.00	44.073
554.34	42.986
554.68	43.125
555.02	43.364
555.36	42.867
555.69	42.665
556.03	42.875
556.37	42.804
556.71	43.754
557.05	43.003
557.39	42.203
557.73	43.461
558.07	43.179
558.41	43.123
558.75	42.191
559.08	43.424
559.42	44.239
559.76	43.419
560.10	42.130
560.44	42.546
560.78	42.188
561.12	41.995
561.45	41.849
561.79	42.247
562.13	43.253
562.47	41.184
562.81	41.456
563.15	41.351
563.48	41.952
563.82	41.959
564.16	41.248
564.50	40.167
564.84	41.357
565.17	40.765
565.51	39.873
565.85	41.033
566.19	40.150
566.52	40.316
566.86	41.370
567.20	38.608
567.54	39.193
567.88	39.908
568.21	40.267
568.55	39.904
568.89	39.038
569.23	38.910
569.56	38.374
569.90	37.562
570.24	38.280
570.57	37.941
570.91	36.558
571.25	37.316
571.59	36.822
571.92	36.381
572.26	36.633
572.60	36.391
572.93	36.488
573.27	35.656
573.61	35.654
573.95	35.980
574.28	35.342
574.62	35.402
574.96	34.671
575.29	34.545
575.63	34.950
575.97	35.042
576.30	34.937
576.64	35.147
576.98	34.738
577.31	35.283
577.65	34.544
577.98	34.356
578.32	34.032
578.66	33.848
578.99	34.344
579.33	34.304
579.67	34.655
580.00	34.210
580.34	33.922
580.67	33.650
581.01	34.141
581.35	33.703
581.68	34.073
582.02	33.795
582.35	34.117
582.69	34.485
583.02	34.068
583.36	33.600
583.70	34.310
584.03	33.933
584.37	33.449
584.70	33.325
585.04	33.341
585.37	33.385
585.71	32.902
586.04	33.157
586.38	33.635
586.72	33.166
587.05	33.512
587.39	33.433
587.72	33.254
588.06	32.737
588.39	33.234
588.73	34.021
589.06	33.380
589.40	33.774
589.73	33.644
590.07	33.554
590.40	33.942
590.73	33.864
591.07	34.810
591.40	33.281
591.74	33.704
592.07	33.902
592.41	33.951
592.74	32.730
593.08	33.312
593.41	33.946
593.75	32.443
594.08	32.869
594.41	32.660
594.75	33.012
595.08	33.345
595.42	32.695
595.75	32.386
596.09	32.836
596.42	32.712
596.75	33.423
597.09	33.131
597.42	31.903
597.75	32.497
598.09	33.294
598.42	32.811
598.76	31.372
599.09	32.894
599.42	31.780
599.76	31.330
600.09	32.032
600.42	32.165
600.76	31.374
601.09	31.198
601.42	31.239
601.76	31.483
602.09	31.808
602.42	31.770
602.76	31.771
603.09	31.424
603.42	31.756
603.76	30.585
604.09	32.718
604.42	32.294
604.76	31.659
605.09	32.030
605.42	31.380
605.75	31.192
606.09	29.713
606.42	30.646
606.75	30.772
607.09	31.452
607.42	30.790
607.75	31.731
608.08	31.137
608.42	30.472
608.75	30.763
609.08	30.688
609.41	30.790
609.75	30.938
610.08	31.926
610.41	31.563
610.74	30.588
611.07	30.817
611.41	31.345
611.74	30.993
612.07	31.650
612.40	31.464
612.73	31.394
613.07	31.247
613.40	30.847
613.73	30.862
614.06	30.373
614.39	30.418
614.72	30.859
615.06	30.799
615.39	30.159
615.72	30.190
616.05	30.646
616.38	30.676
616.71	29.833
617.05	30.138
617.38	30.123
617.71	29.698
618.04	30.653
618.37	30.546
618.70	30.204
619.03	30.705
619.36	30.888
619.69	30.942
620.03	31.073
620.36	30.184
620.69	30.722
621.02	30.184
621.35	32.366
621.68	31.598
622.01	31.673
622.34	30.614
622.67	30.309
623.00	30.229
623.33	30.856
623.66	30.869
623.99	29.625
624.32	31.449
624.65	29.923
624.99	29.454
625.32	30.764
625.65	30.479
625.98	29.763
626.31	31.963
626.64	29.890
626.97	30.533
627.30	30.296
627.63	30.158
627.96	31.381
628.29	30.895
628.62	30.143
628.95	31.814
629.28	30.076
629.61	30.640
629.94	29.707
630.26	30.593
630.59	29.534
630.92	29.091
631.25	31.127
631.58	32.486
631.91	31.022
632.24	31.028
632.57	29.507
632.90	30.291
633.23	31.837
633.56	31.327
633.89	30.579
634.22	31.497
634.55	31.106
634.88	31.710
635.20	32.078
635.53	32.203
635.86	31.853
636.19	31.283
636.52	30.696
636.85	28.907
637.18	31.185
637.51	30.968
