SpectraSuite Data File
++++++++++++++++++++++++++++++++++++
Date: Thu May 14 16:36:53 PDT 2015
User: schluterlab
Dark Spectrum Present: Yes
Reference Spectrum Present: Yes
Number of Sampled Component Spectra: 1
Spectrometers: USB2E3373
Integration Time (usec): 3000 (USB2E3373)
Spectra Averaged: 3 (USB2E3373)
Boxcar Smoothing: 0 (USB2E3373)
Correct for Electrical Dark: No (USB2E3373)
Strobe/Lamp Enabled: No (USB2E3373)
Correct for Detector Non-linearity: No (USB2E3373)
Correct for Stray Light: No (USB2E3373)
Number of Pixels in Processed Spectrum: 2048
>>>>>Begin Processed Spectral Data<<<<<
178.53	0.000
178.91	185.714
179.29	-1700.000
179.67	-700.000
180.04	150.000
180.42	120.000
180.80	220.000
181.18	-700.000
181.56	700.000
181.94	-75.000
182.31	-75.000
182.69	33.333
183.07	-250.000
183.45	-75.000
183.83	-50.000
184.20	-233.333
184.58	1100.000
184.96	-225.000
185.34	11.111
185.72	120.000
186.09	144.444
186.47	550.000
186.85	140.000
187.23	-66.667
187.61	-1600.000
187.98	160.000
188.36	100.000
188.74	-375.000
189.12	-133.333
189.49	-18.750
189.87	0.000
190.25	0.000
190.63	-60.000
191.00	-33.333
191.38	0.000
191.76	-125.000
192.14	-133.333
192.51	450.000
192.89	150.000
193.27	0.000
193.65	57.143
194.02	-700.000
194.40	0.000
194.78	28.571
195.15	0.000
195.53	0.000
195.91	0.000
196.29	125.000
196.66	-53.846
197.04	-1000.000
197.42	-42.857
197.79	-300.000
198.17	50.000
198.55	-185.714
198.92	11.111
199.30	-37.500
199.68	-9.091
200.05	-21.429
200.43	-700.000
200.81	157.143
201.18	0.000
201.56	122.222
201.94	0.000
202.31	566.667
202.69	-55.556
203.07	100.000
203.44	-22.222
203.82	-250.000
204.19	-16.667
204.57	-50.000
204.95	-12.500
205.32	-1300.000
205.70	-25.000
206.08	0.000
206.45	-150.000
206.83	280.000
207.20	-50.000
207.58	-140.000
207.96	-33.333
208.33	150.000
208.71	8.333
209.08	83.333
209.46	0.000
209.84	283.333
210.21	50.000
210.59	200.000
210.96	400.000
211.34	-225.000
211.71	-150.000
212.09	-1000.000
212.46	0.000
212.84	350.000
213.22	-80.000
213.59	-150.000
213.97	40.000
214.34	-66.667
214.72	133.333
215.09	-200.000
215.47	0.000
215.84	100.000
216.22	200.000
216.59	60.000
216.97	-140.000
217.34	-125.000
217.72	-37.500
218.09	-125.000
218.47	-175.000
218.84	0.000
219.22	-40.000
219.59	-5.882
219.97	-25.000
220.34	500.000
220.72	22.222
221.09	15.385
221.47	-233.333
221.84	40.000
222.22	0.000
222.59	0.000
222.97	12.500
223.34	-120.000
223.72	-1600.000
224.09	25.000
224.46	0.000
224.84	20.000
225.21	-114.286
225.59	-250.000
225.96	-75.000
226.34	34.615
226.71	50.000
227.08	-400.000
227.46	20.000
227.83	-25.000
228.21	57.895
228.58	62.500
228.95	450.000
229.33	-41.667
229.70	-140.000
230.08	36.842
230.45	40.000
230.82	133.333
231.20	-35.714
231.57	-25.000
231.95	-127.273
232.32	-27.273
232.69	-5.000
233.07	150.000
233.44	47.059
233.81	-80.000
234.19	-11.111
234.56	-40.909
234.93	27.586
235.31	10.526
235.68	0.000
236.05	-25.000
236.43	19.231
236.80	40.000
237.17	-7.407
237.55	21.212
237.92	-170.000
238.29	-3.226
238.67	25.000
239.04	8.333
239.41	4.762
239.79	8.696
240.16	5.556
240.53	-15.217
240.91	1.961
241.28	9.836
241.65	28.358
242.02	10.811
242.40	13.846
242.77	10.667
243.14	0.000
243.51	3.947
243.89	10.256
244.26	15.842
244.63	22.549
245.00	15.888
245.38	12.281
245.75	2.655
246.12	17.460
246.49	6.202
246.87	21.429
247.24	20.530
247.61	18.421
247.98	8.725
248.36	16.049
248.73	9.816
249.10	13.115
249.47	17.910
249.84	22.513
250.22	18.135
250.59	12.778
250.96	21.818
251.33	9.184
251.70	17.949
252.08	17.083
252.45	18.443
252.82	14.050
253.19	13.672
253.56	16.350
253.94	15.769
254.31	14.773
254.68	19.580
255.05	18.567
255.42	15.986
255.79	13.916
256.16	13.245
256.54	15.563
256.91	16.393
257.28	15.410
257.65	15.924
258.02	13.274
258.39	15.954
258.76	22.630
259.14	15.230
259.51	16.715
259.88	16.714
260.25	16.944
260.62	21.096
260.99	17.760
261.36	20.107
261.73	15.650
262.10	15.934
262.47	17.962
262.85	19.949
263.22	14.545
263.59	14.211
263.96	18.159
264.33	16.113
264.70	16.296
265.07	21.002
265.44	20.181
265.81	16.898
266.18	16.553
266.55	18.973
266.92	15.262
267.29	19.037
267.66	15.299
268.03	17.904
268.40	16.910
268.77	17.768
269.14	13.216
269.51	18.202
269.88	19.467
270.25	16.298
270.62	17.722
270.99	20.808
271.36	16.634
271.73	21.022
272.10	18.036
272.47	15.832
272.84	15.663
273.21	16.834
273.58	15.524
273.95	15.769
274.32	15.399
274.69	18.182
275.06	17.949
275.43	15.527
275.80	17.108
276.17	17.407
276.54	14.925
276.91	17.710
277.28	17.541
277.65	17.953
278.02	19.853
278.39	16.667
278.76	15.641
279.13	17.376
279.50	16.667
279.87	18.426
280.23	14.789
280.60	18.305
280.97	15.954
281.34	17.487
281.71	18.443
282.08	17.442
282.45	15.385
282.82	16.013
283.19	14.701
283.56	15.246
283.92	17.417
284.29	17.378
284.66	16.420
285.03	15.224
285.40	15.147
285.77	15.635
286.14	16.794
286.51	15.830
286.87	15.324
287.24	17.169
287.61	14.798
287.98	14.199
288.35	14.793
288.72	17.604
289.08	16.545
289.45	16.568
289.82	14.759
290.19	14.943
290.56	15.634
290.93	16.120
291.29	17.218
291.66	14.187
292.03	14.654
292.40	14.966
292.77	14.420
293.13	13.938
293.50	14.586
293.87	15.034
294.24	14.933
294.60	14.539
294.97	12.349
295.34	15.493
295.71	12.484
296.08	14.212
296.44	14.338
296.81	14.007
297.18	14.072
297.55	13.561
297.91	13.760
298.28	12.796
298.65	13.793
299.02	11.924
299.38	14.188
299.75	14.136
300.12	12.037
300.48	14.055
300.85	12.373
301.22	13.087
301.59	13.128
301.95	12.542
302.32	13.333
302.69	13.582
303.05	13.384
303.42	13.636
303.79	12.604
304.15	13.249
304.52	12.791
304.89	12.775
305.25	13.561
305.62	12.017
305.99	13.299
306.35	13.004
306.72	13.237
307.09	14.416
307.45	14.079
307.82	14.127
308.19	13.320
308.55	14.368
308.92	13.145
309.29	13.697
309.65	13.255
310.02	14.554
310.38	13.386
310.75	14.369
311.12	13.998
311.48	13.392
311.85	15.195
312.22	15.180
312.58	14.460
312.95	13.384
313.31	15.086
313.68	15.842
314.05	15.628
314.41	15.847
314.78	14.805
315.14	16.243
315.51	17.359
315.87	16.382
316.24	16.347
316.61	17.229
316.97	16.471
317.34	16.843
317.70	17.991
318.07	16.843
318.43	18.622
318.80	18.478
319.16	19.742
319.53	17.052
319.89	19.369
320.26	18.505
320.62	19.060
320.99	20.037
321.35	20.148
321.72	22.698
322.08	20.649
322.45	22.132
322.81	22.202
323.18	20.619
323.54	22.069
323.91	21.886
324.27	22.289
324.64	24.265
325.00	23.466
325.37	23.014
325.73	23.967
326.10	24.169
326.46	25.163
326.83	26.021
327.19	25.354
327.56	24.664
327.92	23.682
328.29	24.597
328.65	24.539
329.01	24.873
329.38	25.864
329.74	26.455
330.11	24.829
330.47	25.864
330.84	25.409
331.20	25.500
331.56	25.477
331.93	25.690
332.29	26.102
332.66	25.914
333.02	26.047
333.38	25.168
333.75	25.589
334.11	23.853
334.48	25.743
334.84	26.168
335.20	25.105
335.57	25.885
335.93	26.777
336.29	25.208
336.66	26.409
337.02	25.585
337.38	25.595
337.75	26.694
338.11	25.484
338.47	25.310
338.84	24.281
339.20	25.021
339.56	26.030
339.93	26.026
340.29	24.799
340.65	24.736
341.02	25.299
341.38	26.435
341.74	25.182
342.11	25.101
342.47	24.702
342.83	25.040
343.20	25.511
343.56	25.902
343.92	25.220
344.28	25.078
344.65	25.736
345.01	25.195
345.37	25.583
345.73	24.708
346.10	24.415
346.46	24.763
346.82	25.618
347.19	25.821
347.55	25.645
347.91	24.889
348.27	24.810
348.63	25.514
349.00	24.609
349.36	25.279
349.72	25.446
350.08	25.483
350.45	24.943
350.81	25.716
351.17	25.188
351.53	24.943
351.89	25.740
352.26	24.403
352.62	24.701
352.98	24.427
353.34	23.898
353.70	24.961
354.07	25.112
354.43	25.133
354.79	24.981
355.15	25.239
355.51	25.512
355.87	25.580
356.24	25.247
356.60	23.799
356.96	25.130
357.32	23.717
357.68	24.671
358.04	25.299
358.40	24.776
358.77	25.658
359.13	25.111
359.49	24.089
359.85	24.728
360.21	25.538
360.57	24.408
360.93	25.388
361.29	25.053
361.66	25.344
362.02	26.514
362.38	25.299
362.74	25.768
363.10	25.516
363.46	25.139
363.82	25.497
364.18	25.897
364.54	26.556
364.90	25.485
365.26	25.241
365.62	25.733
365.98	25.936
366.35	25.436
366.71	26.531
367.07	26.590
367.43	25.410
367.79	25.946
368.15	26.488
368.51	25.981
368.87	25.996
369.23	25.867
369.59	26.503
369.95	25.896
370.31	27.819
370.67	25.860
371.03	25.970
371.39	26.125
371.75	27.304
372.11	26.423
372.47	26.608
372.83	26.963
373.19	26.951
373.55	26.965
373.91	27.062
374.27	26.649
374.63	27.267
374.99	27.056
375.35	27.078
375.71	27.419
376.07	27.372
376.42	28.149
376.78	27.160
377.14	26.450
377.50	27.451
377.86	28.264
378.22	27.725
378.58	27.348
378.94	27.758
379.30	27.182
379.66	27.866
380.02	28.563
380.38	29.032
380.74	28.338
381.09	29.326
381.45	29.830
381.81	29.333
382.17	27.791
382.53	29.357
382.89	29.345
383.25	29.660
383.61	28.819
383.97	29.741
384.32	29.964
384.68	29.640
385.04	30.249
385.40	30.937
385.76	30.539
386.12	30.102
386.48	29.647
386.83	31.406
387.19	30.301
387.55	30.164
387.91	30.651
388.27	31.524
388.62	30.699
388.98	30.231
389.34	30.996
389.70	31.726
390.06	31.380
390.42	31.024
390.77	31.788
391.13	30.869
391.49	32.367
391.85	31.333
392.20	31.613
392.56	31.837
392.92	31.570
393.28	31.841
393.64	32.235
393.99	33.469
394.35	33.002
394.71	32.096
395.07	32.934
395.42	31.639
395.78	33.699
396.14	33.749
396.50	33.670
396.85	32.618
397.21	33.728
397.57	34.040
397.92	33.276
398.28	32.700
398.64	32.551
399.00	32.408
399.35	32.827
399.71	33.152
400.07	33.015
400.42	34.109
400.78	33.102
401.14	33.523
401.49	34.281
401.85	34.477
402.21	34.647
402.57	34.918
402.92	34.870
403.28	34.251
403.63	34.069
403.99	34.264
404.35	33.712
404.70	34.448
405.06	34.022
405.42	34.660
405.77	34.787
406.13	35.170
406.49	34.572
406.84	34.681
407.20	34.824
407.55	35.857
407.91	34.444
408.27	34.806
408.62	35.602
408.98	35.926
409.34	34.252
409.69	36.156
410.05	35.698
410.40	36.137
410.76	35.670
411.11	35.827
411.47	36.425
411.83	35.861
412.18	36.928
412.54	36.277
412.89	35.797
413.25	36.061
413.60	36.588
413.96	36.830
414.31	36.034
414.67	36.971
415.03	36.308
415.38	37.264
415.74	35.919
416.09	37.076
416.45	36.255
416.80	35.679
417.16	37.037
417.51	36.426
417.87	36.971
418.22	37.425
418.58	36.679
418.93	36.147
419.29	37.238
419.64	36.555
420.00	38.279
420.35	37.732
420.71	37.450
421.06	36.860
421.42	36.984
421.77	37.318
422.12	37.526
422.48	38.300
422.83	38.280
423.19	38.037
423.54	38.330
423.90	37.769
424.25	37.920
424.61	37.773
424.96	37.672
425.31	38.482
425.67	37.627
426.02	38.628
426.38	37.026
426.73	39.230
427.09	37.716
427.44	36.319
427.79	38.198
428.15	38.470
428.50	38.764
428.85	37.428
429.21	38.617
429.56	38.105
429.92	37.690
430.27	37.880
430.62	38.935
430.98	38.662
431.33	37.977
431.68	37.979
432.04	38.243
432.39	38.618
432.74	38.756
433.10	38.561
433.45	38.183
433.80	38.144
434.16	38.843
434.51	39.517
434.86	40.879
435.22	39.214
435.57	40.153
435.92	39.566
436.28	39.192
436.63	40.797
436.98	39.291
437.34	39.966
437.69	39.571
438.04	38.657
438.39	38.599
438.75	39.347
439.10	39.746
439.45	39.463
439.81	39.266
440.16	38.284
440.51	39.911
440.86	39.022
441.22	39.443
441.57	40.409
441.92	39.137
442.27	40.657
442.63	39.642
442.98	40.342
443.33	39.716
443.68	39.346
444.03	40.922
444.39	39.205
444.74	40.123
445.09	40.142
445.44	39.831
445.79	40.469
446.15	40.134
446.50	39.690
446.85	40.126
447.20	39.700
447.55	41.109
447.91	39.791
448.26	40.856
448.61	40.276
448.96	41.524
449.31	40.350
449.66	39.597
450.02	40.032
450.37	40.490
450.72	40.312
451.07	41.173
451.42	39.977
451.77	39.911
452.12	40.688
452.47	39.988
452.83	41.047
453.18	38.996
453.53	39.460
453.88	39.371
454.23	40.056
454.58	40.453
454.93	40.049
455.28	40.638
455.63	40.421
455.98	40.950
456.34	39.458
456.69	39.506
457.04	40.366
457.39	39.800
457.74	40.996
458.09	39.703
458.44	40.948
458.79	39.969
459.14	40.010
459.49	40.407
459.84	41.291
460.19	39.534
460.54	40.716
460.89	40.074
461.24	39.540
461.59	39.624
461.94	39.361
462.29	40.482
462.64	39.107
462.99	39.360
463.34	41.272
463.69	38.218
464.04	40.133
464.39	39.910
464.74	39.795
465.09	39.792
465.44	40.129
465.79	40.349
466.14	39.187
466.49	40.105
466.84	39.504
467.19	39.942
467.54	38.660
467.89	38.563
468.24	39.834
468.59	38.854
468.94	38.170
469.29	38.512
469.64	38.525
469.99	39.006
470.34	39.975
470.68	39.918
471.03	38.638
471.38	39.307
471.73	38.882
472.08	38.706
472.43	37.869
472.78	38.917
473.13	38.243
473.48	39.033
473.83	39.524
474.17	38.394
474.52	39.507
474.87	39.037
475.22	38.535
475.57	38.577
475.92	39.174
476.27	38.765
476.61	38.058
476.96	38.373
477.31	38.713
477.66	39.244
478.01	38.180
478.36	38.534
478.70	38.227
479.05	38.753
479.40	38.351
479.75	38.329
480.10	38.655
480.45	38.241
480.79	38.866
481.14	38.603
481.49	38.664
481.84	37.990
482.19	38.882
482.53	38.741
482.88	38.680
483.23	37.483
483.58	37.467
483.92	37.101
484.27	37.892
484.62	36.757
484.97	36.820
485.31	36.818
485.66	35.755
486.01	37.322
486.36	38.497
486.70	39.242
487.05	39.144
487.40	37.613
487.75	37.328
488.09	36.968
488.44	36.221
488.79	36.560
489.13	36.423
489.48	36.233
489.83	36.459
490.17	36.290
490.52	36.453
490.87	36.252
491.22	36.872
491.56	37.713
491.91	36.808
492.26	35.612
492.60	36.773
492.95	36.025
493.30	36.262
493.64	36.575
493.99	36.096
494.34	35.366
494.68	35.332
495.03	35.727
495.37	35.464
495.72	35.918
496.07	35.583
496.41	35.950
496.76	36.530
497.11	36.093
497.45	35.088
497.80	35.273
498.14	35.283
498.49	35.110
498.84	35.192
499.18	34.998
499.53	35.247
499.87	35.209
500.22	34.639
500.56	35.178
500.91	35.561
501.26	34.909
501.60	34.821
501.95	35.215
502.29	34.928
502.64	35.111
502.98	33.865
503.33	33.780
503.67	34.104
504.02	34.063
504.36	35.299
504.71	34.497
505.06	33.379
505.40	34.644
505.75	34.517
506.09	33.932
506.44	34.262
506.78	33.624
507.13	33.887
507.47	33.586
507.82	33.333
508.16	33.700
508.51	31.692
508.85	34.152
509.19	33.349
509.54	33.814
509.88	33.997
510.23	34.094
510.57	34.074
510.92	33.140
511.26	33.814
511.61	32.352
511.95	33.236
512.30	33.678
512.64	32.584
512.98	32.266
513.33	33.065
513.67	32.738
514.02	32.959
514.36	33.146
514.70	32.448
515.05	33.003
515.39	32.231
515.74	33.086
516.08	31.590
516.42	31.606
516.77	32.808
517.11	31.614
517.46	32.927
517.80	32.710
518.14	32.699
518.49	31.887
518.83	31.293
519.17	31.018
519.52	31.604
519.86	32.049
520.20	31.470
520.55	31.325
520.89	30.631
521.23	31.323
521.58	31.412
521.92	31.161
522.26	31.501
522.61	31.250
522.95	30.623
523.29	30.920
523.64	31.166
523.98	30.519
524.32	31.576
524.66	30.620
525.01	30.294
525.35	30.385
525.69	30.162
526.04	29.679
526.38	29.770
526.72	30.104
527.06	30.850
527.41	29.854
527.75	30.641
528.09	30.874
528.43	29.426
528.78	29.191
529.12	29.587
529.46	28.949
529.80	29.348
530.15	29.449
530.49	29.537
530.83	30.874
531.17	28.973
531.51	29.844
531.86	30.168
532.20	29.329
532.54	29.503
532.88	29.273
533.22	28.757
533.57	28.852
533.91	28.844
534.25	29.339
534.59	29.540
534.93	29.372
535.27	29.296
535.62	29.107
535.96	28.588
536.30	28.085
536.64	28.769
536.98	29.213
537.32	27.840
537.66	28.946
538.01	27.492
538.35	28.015
538.69	27.885
539.03	29.001
539.37	28.799
539.71	28.108
540.05	29.317
540.39	28.545
540.73	27.019
541.07	27.406
541.42	27.820
541.76	26.868
542.10	27.805
542.44	27.040
542.78	27.494
543.12	27.473
543.46	27.656
543.80	26.499
544.14	27.648
544.48	27.187
544.82	27.708
545.16	26.953
545.50	26.603
545.84	27.128
546.18	27.716
546.52	26.943
546.86	26.918
547.20	26.590
547.54	25.718
547.88	25.799
548.22	25.965
548.56	27.033
548.90	26.030
549.24	26.930
549.58	26.625
549.92	25.829
550.26	26.214
550.60	26.675
550.94	26.520
551.28	25.677
551.62	26.887
551.96	25.049
552.30	26.832
552.64	26.385
552.98	25.951
553.32	25.531
553.66	25.852
554.00	24.905
554.34	25.354
554.68	25.436
555.02	24.704
555.36	25.444
555.69	25.817
556.03	25.536
556.37	25.031
556.71	25.872
557.05	25.304
557.39	24.552
557.73	25.099
558.07	25.695
558.41	25.382
558.75	25.761
559.08	25.261
559.42	24.691
559.76	24.898
560.10	24.648
560.44	24.736
560.78	24.438
561.12	24.323
561.45	25.000
561.79	25.336
562.13	24.522
562.47	24.044
562.81	24.747
563.15	23.927
563.48	24.736
563.82	24.486
564.16	23.683
564.50	24.553
564.84	24.484
565.17	24.176
565.51	23.130
565.85	23.990
566.19	23.618
566.52	23.523
566.86	23.713
567.20	23.110
567.54	24.376
567.88	24.312
568.21	24.061
568.55	24.317
568.89	24.013
569.23	24.461
569.56	25.010
569.90	23.877
570.24	24.857
570.57	24.246
570.91	24.005
571.25	23.922
571.59	24.214
571.92	23.854
572.26	23.637
572.60	23.751
572.93	23.240
573.27	23.490
573.61	23.610
573.95	23.695
574.28	23.546
574.62	23.624
574.96	22.805
575.29	23.133
575.63	22.869
575.97	22.874
576.30	23.291
576.64	23.264
576.98	23.075
577.31	23.412
577.65	23.029
577.98	23.099
578.32	23.056
578.66	22.861
578.99	23.019
579.33	22.566
579.67	22.711
580.00	22.499
580.34	22.579
580.67	22.418
581.01	22.523
581.35	22.638
581.68	23.017
582.02	22.964
582.35	23.200
582.69	22.956
583.02	22.594
583.36	22.551
583.70	22.086
584.03	21.286
584.37	21.871
584.70	22.078
585.04	22.111
585.37	22.470
585.71	22.136
586.04	22.259
586.38	21.959
586.72	21.860
587.05	21.591
587.39	22.189
587.72	22.273
588.06	21.857
588.39	21.907
588.73	21.243
589.06	21.642
589.40	21.389
589.73	21.048
590.07	21.618
590.40	21.231
590.73	21.138
591.07	21.742
591.40	21.306
591.74	21.025
592.07	21.234
592.41	21.215
592.74	20.802
593.08	21.815
593.41	21.931
593.75	21.667
594.08	21.721
594.41	22.019
594.75	20.624
595.08	20.996
595.42	21.071
595.75	21.440
596.09	21.281
596.42	20.709
596.75	20.610
597.09	20.889
597.42	20.620
597.75	21.129
598.09	20.794
598.42	21.070
598.76	20.214
599.09	20.256
599.42	21.120
599.76	20.634
600.09	21.054
600.42	20.454
600.76	20.443
601.09	19.847
601.42	20.700
601.76	20.759
602.09	20.336
602.42	19.702
602.76	20.664
603.09	19.971
603.42	20.412
603.76	20.049
604.09	21.043
604.42	19.963
604.76	19.939
605.09	20.702
605.42	20.175
605.75	20.077
606.09	19.895
606.42	19.847
606.75	20.202
607.09	20.084
607.42	19.499
607.75	19.969
608.08	19.968
608.42	19.549
608.75	19.362
609.08	19.822
609.41	19.541
609.75	19.286
610.08	19.789
610.41	19.584
610.74	19.832
611.07	19.316
611.41	19.821
611.74	18.938
612.07	19.589
612.40	19.392
612.73	20.489
613.07	18.826
613.40	19.346
613.73	18.922
614.06	18.891
614.39	18.950
614.72	18.729
615.06	19.538
615.39	19.140
615.72	19.289
616.05	19.087
616.38	19.526
616.71	19.070
617.05	18.211
617.38	19.155
617.71	18.790
618.04	18.834
618.37	18.634
618.70	19.231
619.03	18.041
619.36	17.756
619.69	17.745
620.03	18.644
620.36	17.730
620.69	18.877
621.02	18.438
621.35	18.142
621.68	18.655
622.01	18.577
622.34	17.713
622.67	17.938
623.00	17.274
623.33	18.248
623.66	18.612
623.99	17.643
624.32	17.999
624.65	18.147
624.99	18.140
625.32	19.007
625.65	18.274
625.98	17.763
626.31	18.001
626.64	18.388
626.97	17.554
627.30	16.932
627.63	17.254
627.96	18.619
628.29	18.911
628.62	17.716
628.95	17.528
629.28	17.502
629.61	17.593
629.94	17.155
630.26	16.610
630.59	17.530
630.92	16.104
631.25	17.889
631.58	17.326
631.91	17.057
632.24	18.156
632.57	17.078
632.90	16.750
633.23	16.837
633.56	17.755
633.89	16.426
