SpectraSuite Data File
++++++++++++++++++++++++++++++++++++
Date: Thu May 14 16:28:51 PDT 2015
User: schluterlab
Dark Spectrum Present: Yes
Reference Spectrum Present: Yes
Number of Sampled Component Spectra: 1
Spectrometers: USB2E3373
Integration Time (usec): 3000 (USB2E3373)
Spectra Averaged: 3 (USB2E3373)
Boxcar Smoothing: 0 (USB2E3373)
Correct for Electrical Dark: No (USB2E3373)
Strobe/Lamp Enabled: No (USB2E3373)
Correct for Detector Non-linearity: No (USB2E3373)
Correct for Stray Light: No (USB2E3373)
Number of Pixels in Processed Spectrum: 2048
>>>>>Begin Processed Spectral Data<<<<<
178.53	0.000
178.91	-14.286
179.29	-700.000
179.67	-300.000
180.04	92.857
180.42	60.000
180.80	200.000
181.18	-200.000
181.56	900.000
181.94	50.000
182.31	150.000
182.69	300.000
183.07	200.000
183.45	200.000
183.83	50.000
184.20	-66.667
184.58	700.000
184.96	-75.000
185.34	77.778
185.72	-40.000
186.09	144.444
186.47	100.000
186.85	180.000
187.23	-66.667
187.61	-1300.000
187.98	-40.000
188.36	125.000
188.74	75.000
189.12	133.333
189.49	50.000
189.87	-75.000
190.25	11.111
190.63	100.000
191.00	-33.333
191.38	0.000
191.76	-50.000
192.14	-66.667
192.51	200.000
192.89	150.000
193.27	0.000
193.65	-57.143
194.02	-700.000
194.40	128.571
194.78	171.429
195.15	0.000
195.53	18.182
195.91	0.000
196.29	-50.000
196.66	53.846
197.04	-900.000
197.42	-14.286
197.79	-100.000
198.17	100.000
198.55	28.571
198.92	122.222
199.30	50.000
199.68	9.091
200.05	57.143
200.43	-500.000
200.81	114.286
201.18	0.000
201.56	122.222
201.94	0.000
202.31	200.000
202.69	-100.000
203.07	-400.000
203.44	88.889
203.82	-275.000
204.19	0.000
204.57	-100.000
204.95	-75.000
205.32	-100.000
205.70	100.000
206.08	150.000
206.45	116.667
206.83	60.000
207.20	-83.333
207.58	20.000
207.96	-133.333
208.33	83.333
208.71	25.000
209.08	216.667
209.46	0.000
209.84	-50.000
210.21	-200.000
210.59	300.000
210.96	100.000
211.34	125.000
211.71	-112.500
212.09	-400.000
212.46	0.000
212.84	1050.000
213.22	-200.000
213.59	-75.000
213.97	40.000
214.34	-200.000
214.72	-0.000
215.09	-150.000
215.47	0.000
215.84	42.857
216.22	350.000
216.59	120.000
216.97	-60.000
217.34	75.000
217.72	37.500
218.09	0.000
218.47	0.000
218.84	0.000
219.22	60.000
219.59	58.824
219.97	35.000
220.34	200.000
220.72	44.444
221.09	107.692
221.47	166.667
221.84	40.000
222.22	-28.571
222.59	0.000
222.97	-37.500
223.34	-200.000
223.72	400.000
224.09	0.000
224.46	-250.000
224.84	200.000
225.21	-142.857
225.59	-300.000
225.96	-125.000
226.34	30.769
226.71	100.000
227.08	-200.000
227.46	26.667
227.83	125.000
228.21	31.579
228.58	-37.500
228.95	350.000
229.33	83.333
229.70	-30.000
230.08	110.526
230.45	100.000
230.82	100.000
231.20	42.857
231.57	41.667
231.95	-27.273
232.32	-36.364
232.69	35.000
233.07	-50.000
233.44	-17.647
233.81	-70.000
234.19	72.222
234.56	31.818
234.93	68.966
235.31	47.368
235.68	-22.222
236.05	35.000
236.43	61.538
236.80	76.000
237.17	33.333
237.55	-6.061
237.92	-40.000
238.29	25.806
238.67	25.000
239.04	33.333
239.41	28.571
239.79	21.739
240.16	12.963
240.53	15.217
240.91	7.843
241.28	18.033
241.65	20.896
242.02	39.189
242.40	6.154
242.77	24.000
243.14	-1.220
243.51	23.684
243.89	21.795
244.26	19.802
244.63	18.627
245.00	20.561
245.38	23.684
245.75	9.735
246.12	24.603
246.49	20.155
246.87	17.143
247.24	25.166
247.61	24.342
247.98	17.450
248.36	16.049
248.73	13.497
249.10	25.137
249.47	20.896
249.84	21.466
250.22	24.352
250.59	26.667
250.96	23.182
251.33	19.388
251.70	20.085
252.08	21.667
252.45	21.311
252.82	19.008
253.19	14.844
253.56	22.053
253.94	18.077
254.31	23.485
254.68	22.727
255.05	26.710
255.42	17.007
255.79	18.447
256.16	21.192
256.54	18.543
256.91	20.000
257.28	16.393
257.65	16.242
258.02	17.994
258.39	21.652
258.76	24.465
259.14	25.287
259.51	19.885
259.88	20.397
260.25	21.111
260.62	20.822
260.99	23.497
261.36	24.665
261.73	20.424
262.10	22.253
262.47	23.056
262.85	22.980
263.22	22.338
263.59	18.421
263.96	22.762
264.33	23.785
264.70	21.728
265.07	24.105
265.44	24.490
265.81	21.065
266.18	23.810
266.55	21.875
266.92	20.957
267.29	22.538
267.66	22.616
268.03	22.926
268.40	20.668
268.77	19.362
269.14	18.502
269.51	21.711
269.88	22.131
270.25	20.926
270.62	22.996
270.99	22.828
271.36	20.000
271.73	19.450
272.10	24.048
272.47	21.643
272.84	22.088
273.21	22.244
273.58	20.766
273.95	21.346
274.32	18.821
274.69	19.729
275.06	23.077
275.43	19.778
275.80	20.282
276.17	18.889
276.54	18.284
276.91	20.930
277.28	19.892
277.65	19.928
278.02	18.382
278.39	20.833
278.76	20.035
279.13	20.035
279.50	20.103
279.87	20.394
280.23	17.606
280.60	20.000
280.97	20.559
281.34	20.374
281.71	20.305
282.08	19.103
282.45	20.622
282.82	19.780
283.19	20.194
283.56	20.492
283.92	20.270
284.29	22.275
284.66	19.869
285.03	19.071
285.40	23.493
285.77	20.588
286.14	18.626
286.51	19.330
286.87	20.379
287.24	21.084
287.61	17.788
287.98	20.846
288.35	19.822
288.72	19.379
289.08	19.912
289.45	18.047
289.82	18.072
290.19	19.109
290.56	20.282
290.93	18.545
291.29	18.871
291.66	17.493
292.03	17.775
292.40	19.456
292.77	17.385
293.13	17.456
293.50	17.083
293.87	17.181
294.24	18.933
294.60	17.573
294.97	18.792
295.34	18.950
295.71	17.024
296.08	18.217
296.44	18.015
296.81	17.296
297.18	16.936
297.55	16.627
297.91	17.675
298.28	16.351
298.65	19.263
299.02	18.064
299.38	17.162
299.75	18.458
300.12	17.014
300.48	16.590
300.85	15.861
301.22	18.345
301.59	16.096
301.95	18.079
302.32	17.222
302.69	17.744
303.05	16.757
303.42	17.073
303.79	17.708
304.15	17.455
304.52	18.816
304.89	16.963
305.25	17.288
305.62	17.346
305.99	17.835
306.35	17.339
306.72	18.718
307.09	17.259
307.45	17.288
307.82	17.659
308.19	17.760
308.55	18.515
308.92	17.332
309.29	16.858
309.65	16.667
310.02	17.723
310.38	18.110
310.75	18.932
311.12	18.408
311.48	18.377
311.85	18.898
312.22	18.501
312.58	18.404
312.95	19.216
313.31	18.790
313.68	18.956
314.05	20.325
314.41	18.670
314.78	20.163
315.14	20.327
315.51	19.945
315.87	19.352
316.24	20.913
316.61	21.137
316.97	19.910
317.34	18.871
317.70	20.873
318.07	20.547
318.43	21.429
318.80	20.819
319.16	20.086
319.53	19.880
319.89	19.457
320.26	20.107
320.62	20.390
320.99	20.499
321.35	21.534
321.72	21.860
322.08	20.739
322.45	20.958
322.81	22.022
323.18	21.504
323.54	21.466
323.91	23.221
324.27	21.687
324.64	23.426
325.00	22.388
325.37	21.704
325.73	23.388
326.10	22.952
326.46	23.941
326.83	25.140
327.19	22.677
327.56	22.688
327.92	23.210
328.29	23.306
328.65	23.953
329.01	24.873
329.38	24.010
329.74	23.973
330.11	25.171
330.47	25.021
330.84	24.203
331.20	24.667
331.56	23.397
331.93	24.603
332.29	24.068
332.66	24.917
333.02	23.283
333.38	23.993
333.75	24.074
334.11	24.187
334.48	24.752
334.84	24.469
335.20	23.426
335.57	24.115
335.93	24.215
336.29	24.376
336.66	24.643
337.02	24.833
337.38	24.065
337.75	24.545
338.11	24.643
338.47	24.069
338.84	24.027
339.20	22.831
339.56	23.723
339.93	24.138
340.29	23.671
340.65	24.088
341.02	23.943
341.38	24.980
341.74	24.455
342.11	23.733
342.47	22.955
342.83	24.396
343.20	24.939
343.56	23.577
343.92	24.500
344.28	23.359
344.65	24.031
345.01	24.415
345.37	23.095
345.73	23.227
346.10	24.493
346.46	23.101
346.82	24.494
347.19	24.523
347.55	24.507
347.91	24.368
348.27	23.369
348.63	23.382
349.00	23.341
349.36	22.900
349.72	23.438
350.08	23.626
350.45	24.183
350.81	23.454
351.17	24.060
351.53	23.882
351.89	23.918
352.26	23.284
352.62	23.731
352.98	23.740
353.34	23.525
353.70	23.498
354.07	22.802
354.43	23.690
354.79	24.682
355.15	24.283
355.51	25.073
355.87	22.962
356.24	23.726
356.60	23.134
356.96	23.647
357.32	23.271
357.68	22.767
358.04	23.653
358.40	23.507
358.77	23.977
359.13	23.708
359.49	23.346
359.85	23.785
360.21	22.884
360.57	23.475
360.93	22.073
361.29	23.368
361.66	23.606
362.02	23.452
362.38	24.315
362.74	23.673
363.10	24.278
363.46	23.892
363.82	23.366
364.18	23.786
364.54	23.928
364.90	23.679
365.26	24.000
365.62	24.733
365.98	23.826
366.35	23.356
366.71	24.150
367.07	24.357
367.43	24.360
367.79	24.818
368.15	23.880
368.51	23.748
368.87	24.037
369.23	24.000
369.59	23.770
369.95	23.462
370.31	24.781
370.67	23.865
371.03	24.238
371.39	23.573
371.75	24.140
372.11	24.322
372.47	24.374
372.83	24.607
373.19	23.949
373.55	24.593
373.91	23.517
374.27	23.480
374.63	25.507
374.99	23.939
375.35	25.195
375.71	24.774
376.07	24.790
376.42	25.378
376.78	23.990
377.14	24.205
377.50	25.237
377.86	25.431
378.22	24.371
378.58	24.792
378.94	24.472
379.30	24.605
379.66	24.397
380.02	24.928
380.38	25.691
380.74	26.028
381.09	25.087
381.45	25.114
381.81	24.766
382.17	25.772
382.53	26.023
382.89	25.508
383.25	26.377
383.61	25.058
383.97	25.442
384.32	26.017
384.68	25.000
385.04	25.911
385.40	26.223
385.76	25.850
386.12	26.391
386.48	26.706
386.83	26.162
387.19	26.130
387.55	26.115
387.91	25.856
388.27	26.732
388.62	26.060
388.98	26.058
389.34	26.576
389.70	26.206
390.06	25.873
390.42	25.723
390.77	27.152
391.13	26.702
391.49	27.838
391.85	27.030
392.20	26.928
392.56	27.053
392.92	26.772
393.28	27.142
393.64	26.592
393.99	27.775
394.35	27.336
394.71	28.144
395.07	27.006
395.42	27.299
395.78	27.910
396.14	27.392
396.50	27.494
396.85	27.191
397.21	27.219
397.57	27.444
397.92	27.892
398.28	27.485
398.64	26.430
399.00	26.859
399.35	27.801
399.71	26.957
400.07	27.120
400.42	27.299
400.78	27.894
401.14	27.262
401.49	28.027
401.85	28.198
402.21	29.027
402.57	28.932
402.92	29.137
403.28	27.576
403.63	28.341
403.99	26.960
404.35	27.800
404.70	28.442
405.06	27.989
405.42	28.571
405.77	28.790
406.13	28.741
406.49	28.378
406.84	28.476
407.20	28.787
407.55	28.407
407.91	29.478
408.27	28.740
408.62	29.727
408.98	29.600
409.34	29.384
409.69	29.975
410.05	29.719
410.40	29.640
410.76	29.164
411.11	29.632
411.47	29.668
411.83	29.394
412.18	30.482
412.54	30.231
412.89	29.278
413.25	28.950
413.60	28.030
413.96	29.837
414.31	29.178
414.67	29.875
415.03	28.800
415.38	29.887
415.74	29.750
416.09	29.858
416.45	29.493
416.80	29.070
417.16	30.587
417.51	29.701
417.87	30.411
418.22	29.701
418.58	29.368
418.93	30.850
419.29	30.025
419.64	30.312
420.00	29.674
420.35	30.095
420.71	30.557
421.06	29.902
421.42	30.390
421.77	28.918
422.12	29.968
422.48	30.108
422.83	30.778
423.19	30.557
423.54	31.250
423.90	30.260
424.25	30.667
424.61	30.195
424.96	30.862
425.31	31.316
425.67	30.757
426.02	30.437
426.38	30.999
426.73	30.915
427.09	31.142
427.44	30.366
427.79	30.569
428.15	30.651
428.50	30.449
428.85	30.253
429.21	30.638
429.56	30.355
429.92	30.221
430.27	30.410
430.62	30.581
430.98	30.694
431.33	30.401
431.68	30.029
432.04	30.625
432.39	30.959
432.74	30.537
433.10	31.314
433.45	29.543
433.80	30.794
434.16	30.940
434.51	30.935
434.86	32.193
435.22	31.828
435.57	32.017
435.92	30.607
436.28	30.944
436.63	31.404
436.98	31.133
437.34	30.327
437.69	31.040
438.04	30.936
438.39	31.017
438.75	30.825
439.10	31.554
439.45	30.520
439.81	31.525
440.16	29.973
440.51	31.271
440.86	30.906
441.22	30.332
441.57	30.818
441.92	30.989
442.27	30.859
442.63	30.601
442.98	31.644
443.33	30.405
443.68	30.674
444.03	31.938
444.39	31.623
444.74	31.394
445.09	30.512
445.44	30.242
445.79	31.082
446.15	30.781
446.50	30.388
446.85	30.545
447.20	31.625
447.55	31.328
447.91	31.361
448.26	30.761
448.61	30.712
448.96	31.599
449.31	30.223
449.66	30.610
450.02	31.013
450.37	31.273
450.72	32.185
451.07	30.979
451.42	30.445
451.77	30.628
452.12	31.038
452.47	31.075
452.83	32.827
453.18	30.706
453.53	31.017
453.88	31.088
454.23	31.582
454.58	30.934
454.93	30.643
455.28	31.848
455.63	31.097
455.98	31.341
456.34	30.860
456.69	30.747
457.04	31.678
457.39	31.486
457.74	31.152
458.09	31.082
458.44	31.196
458.79	30.634
459.14	30.572
459.49	32.598
459.84	31.952
460.19	30.761
460.54	31.289
460.89	30.598
461.24	31.034
461.59	31.821
461.94	29.949
462.29	31.523
462.64	31.080
462.99	31.011
463.34	31.603
463.69	29.953
464.04	31.295
464.39	31.446
464.74	30.331
465.09	31.892
465.44	31.170
465.79	31.465
466.14	31.318
466.49	31.053
466.84	31.185
467.19	31.040
467.54	29.906
467.89	31.322
468.24	31.080
468.59	30.805
468.94	29.662
469.29	31.074
469.64	30.960
469.99	30.975
470.34	30.755
470.68	31.716
471.03	30.976
471.38	32.112
471.73	31.404
472.08	30.838
472.43	31.126
472.78	32.935
473.13	31.542
473.48	31.601
473.83	31.863
474.17	31.594
474.52	31.329
474.87	31.118
475.22	32.000
475.57	30.478
475.92	31.259
476.27	30.990
476.61	29.958
476.96	31.335
477.31	30.941
477.66	32.476
478.01	30.910
478.36	30.758
478.70	31.330
479.05	32.362
479.40	32.379
479.75	32.085
480.10	31.217
480.45	30.629
480.79	31.474
481.14	30.285
481.49	30.532
481.84	31.767
482.19	30.667
482.53	31.526
482.88	30.616
483.23	31.169
483.58	30.044
483.92	30.363
484.27	30.567
484.62	30.652
484.97	30.482
485.31	30.693
485.66	29.247
486.01	28.015
486.36	28.226
486.70	29.271
487.05	30.309
487.40	30.346
487.75	30.127
488.09	30.037
488.44	29.963
488.79	30.287
489.13	30.087
489.48	29.864
489.83	30.785
490.17	29.486
490.52	29.844
490.87	31.091
491.22	31.716
491.56	30.930
491.91	31.138
492.26	30.852
492.60	31.220
492.95	31.505
493.30	30.793
493.64	30.837
493.99	30.132
494.34	30.575
494.68	29.936
495.03	30.793
495.37	31.380
495.72	30.567
496.07	31.157
496.41	30.502
496.76	30.776
497.11	30.616
497.45	30.816
497.80	30.386
498.14	31.020
498.49	31.066
498.84	31.353
499.18	31.039
499.53	31.166
499.87	31.121
500.22	31.033
500.56	30.679
500.91	30.709
501.26	31.500
501.60	30.535
501.95	30.004
502.29	30.715
502.64	31.176
502.98	30.544
503.33	30.626
503.67	30.484
504.02	30.166
504.36	31.144
504.71	30.501
505.06	29.695
505.40	30.302
505.75	30.146
506.09	31.630
506.44	31.569
506.78	31.422
507.13	31.766
507.47	31.644
507.82	30.303
508.16	30.880
508.51	31.505
508.85	30.846
509.19	31.549
509.54	31.364
509.88	31.083
510.23	31.423
510.57	31.416
510.92	30.818
511.26	31.361
511.61	30.420
511.95	30.698
512.30	31.561
512.64	30.685
512.98	31.216
513.33	31.855
513.67	30.954
514.02	31.017
514.36	31.407
514.70	30.990
515.05	31.491
515.39	31.129
515.74	32.344
516.08	32.541
516.42	32.758
516.77	31.598
517.11	30.789
517.46	31.230
517.80	32.122
518.14	32.427
518.49	32.321
518.83	31.240
519.17	29.995
519.52	31.866
519.86	31.521
520.20	31.523
520.55	32.202
520.89	31.700
521.23	31.212
521.58	32.090
521.92	30.822
522.26	30.813
522.61	32.407
522.95	32.699
523.29	32.069
523.64	32.007
523.98	32.915
524.32	32.665
524.66	32.100
525.01	30.974
525.35	32.567
525.69	31.787
526.04	30.023
526.38	32.299
526.72	31.373
527.06	31.730
527.41	31.895
527.75	33.492
528.09	32.527
528.43	32.268
528.78	30.636
529.12	30.849
529.46	31.703
529.80	31.465
530.15	32.116
530.49	30.783
530.83	31.346
531.17	32.318
531.51	31.709
531.86	32.332
532.20	32.439
532.54	31.299
532.88	32.970
533.22	31.114
533.57	31.679
533.91	31.257
534.25	31.882
534.59	31.437
534.93	30.560
535.27	31.549
535.62	31.723
535.96	31.842
536.30	31.845
536.64	32.012
536.98	32.411
537.32	31.852
537.66	31.628
538.01	30.091
538.35	31.547
538.69	31.130
539.03	31.882
539.37	30.506
539.71	31.652
540.05	31.235
540.39	31.296
540.73	31.390
541.07	32.189
541.42	31.187
541.76	30.961
542.10	30.579
542.44	31.547
542.78	30.596
543.12	30.751
543.46	31.746
543.80	30.096
544.14	30.940
544.48	31.265
544.82	31.478
545.16	30.710
545.50	30.437
545.84	30.496
546.18	32.654
546.52	31.847
546.86	30.629
547.20	31.807
547.54	31.523
547.88	30.440
548.22	31.111
548.56	30.895
548.90	31.403
549.24	31.854
549.58	32.114
549.92	31.250
550.26	31.392
550.60	31.780
550.94	31.824
551.28	31.815
551.62	31.334
551.96	31.456
552.30	31.485
552.64	30.429
552.98	31.067
553.32	32.026
553.66	30.740
554.00	31.589
554.34	31.467
554.68	30.148
555.02	31.340
555.36	31.164
555.69	30.045
556.03	30.580
556.37	31.039
556.71	30.628
557.05	31.629
557.39	30.591
557.73	30.581
558.07	30.795
558.41	31.229
558.75	31.034
559.08	32.150
559.42	29.835
559.76	30.868
560.10	29.806
560.44	31.003
560.78	30.625
561.12	31.281
561.45	30.961
561.79	30.464
562.13	31.238
562.47	31.011
562.81	30.253
563.15	30.871
563.48	30.205
563.82	30.169
564.16	30.466
564.50	30.334
564.84	30.324
565.17	30.529
565.51	29.747
565.85	30.344
566.19	29.378
566.52	30.252
566.86	30.051
567.20	29.636
567.54	29.740
567.88	29.715
568.21	28.656
568.55	29.353
568.89	30.277
569.23	28.179
569.56	28.800
569.90	28.297
570.24	28.061
570.57	27.453
570.91	27.557
571.25	27.741
571.59	27.498
571.92	27.265
572.26	26.469
572.60	27.191
572.93	27.414
573.27	27.142
573.61	27.554
573.95	27.385
574.28	26.699
574.62	26.603
574.96	26.687
575.29	26.526
575.63	26.565
575.97	26.922
576.30	26.425
576.64	26.199
576.98	26.333
577.31	26.675
577.65	26.042
577.98	26.242
578.32	25.777
578.66	25.801
578.99	26.152
579.33	26.590
579.67	25.589
580.00	26.208
580.34	26.418
580.67	25.927
581.01	26.028
581.35	25.989
581.68	25.643
582.02	25.554
582.35	26.110
582.69	26.274
583.02	26.089
583.36	26.576
583.70	26.335
584.03	26.350
584.37	26.561
584.70	26.137
585.04	25.692
585.37	25.829
585.71	25.847
586.04	25.672
586.38	26.161
586.72	25.821
587.05	25.684
587.39	25.879
587.72	26.531
588.06	25.919
588.39	26.263
588.73	26.376
589.06	26.270
589.40	26.951
589.73	26.703
590.07	26.923
590.40	26.809
590.73	26.440
591.07	27.029
591.40	26.750
591.74	26.550
592.07	27.527
592.41	26.774
592.74	26.021
593.08	26.306
593.41	26.072
593.75	25.747
594.08	26.507
594.41	26.186
594.75	26.204
595.08	25.942
595.42	26.623
595.75	26.510
596.09	26.906
596.42	26.191
596.75	26.592
597.09	27.152
597.42	26.460
597.75	26.421
598.09	26.944
598.42	27.624
598.76	26.748
599.09	25.418
599.42	25.478
599.76	25.454
600.09	25.726
600.42	25.993
600.76	25.826
601.09	26.220
601.42	25.815
601.76	26.241
602.09	25.804
602.42	25.336
602.76	25.277
603.09	25.734
603.42	26.228
603.76	25.405
604.09	26.544
604.42	26.385
604.76	26.218
605.09	25.848
605.42	26.077
605.75	25.731
606.09	26.054
606.42	25.684
606.75	25.525
607.09	25.230
607.42	25.742
607.75	26.417
608.08	26.085
608.42	25.756
608.75	26.327
609.08	25.849
609.41	26.599
609.75	25.893
610.08	26.253
610.41	25.956
610.74	26.134
611.07	26.732
611.41	26.188
611.74	26.328
612.07	26.788
612.40	26.331
612.73	26.210
613.07	25.966
613.40	26.323
613.73	25.951
614.06	27.134
614.39	26.288
614.72	25.861
615.06	25.602
615.39	25.955
615.72	25.735
616.05	25.983
616.38	26.842
616.71	27.064
617.05	25.453
617.38	27.341
617.71	26.728
618.04	26.444
618.37	26.995
618.70	27.376
619.03	25.806
619.36	27.435
619.69	26.521
620.03	26.742
620.36	26.196
620.69	26.527
621.02	27.034
621.35	28.592
621.68	27.910
622.01	26.975
622.34	26.848
622.67	26.529
623.00	25.641
623.33	27.140
623.66	27.756
623.99	25.872
624.32	26.901
624.65	26.126
624.99	27.048
625.32	28.217
625.65	26.972
625.98	26.441
626.31	27.498
626.64	26.960
626.97	27.232
627.30	26.272
627.63	27.082
627.96	27.628
628.29	27.471
628.62	28.463
628.95	29.010
629.28	29.567
629.61	29.125
629.94	27.782
630.26	27.034
630.59	27.634
630.92	28.225
631.25	29.070
631.58	28.719
631.91	28.210
632.24	27.762
632.57	27.514
632.90	28.987
633.23	29.184
633.56	27.245
633.89	29.649
634.22	29.834
