SpectraSuite Data File
++++++++++++++++++++++++++++++++++++
Date: Thu May 14 16:23:35 PDT 2015
User: schluterlab
Dark Spectrum Present: Yes
Reference Spectrum Present: Yes
Number of Sampled Component Spectra: 1
Spectrometers: USB2E3373
Integration Time (usec): 3000 (USB2E3373)
Spectra Averaged: 3 (USB2E3373)
Boxcar Smoothing: 0 (USB2E3373)
Correct for Electrical Dark: No (USB2E3373)
Strobe/Lamp Enabled: No (USB2E3373)
Correct for Detector Non-linearity: No (USB2E3373)
Correct for Stray Light: No (USB2E3373)
Number of Pixels in Processed Spectrum: 2048
>>>>>Begin Processed Spectral Data<<<<<
178.53	0.000
178.91	42.857
179.29	-1400.000
179.67	-400.000
180.04	121.429
180.42	80.000
180.80	120.000
181.18	-200.000
181.56	400.000
181.94	-25.000
182.31	-250.000
182.69	133.333
183.07	-50.000
183.45	225.000
183.83	-150.000
184.20	-433.333
184.58	800.000
184.96	-175.000
185.34	55.556
185.72	60.000
186.09	44.444
186.47	400.000
186.85	340.000
187.23	-144.444
187.61	-1900.000
187.98	-40.000
188.36	175.000
188.74	-175.000
189.12	33.333
189.49	0.000
189.87	-137.500
190.25	-22.222
190.63	-260.000
191.00	-77.778
191.38	0.000
191.76	-150.000
192.14	0.000
192.51	-0.000
192.89	166.667
193.27	0.000
193.65	14.286
194.02	-800.000
194.40	-100.000
194.78	28.571
195.15	0.000
195.53	27.273
195.91	0.000
196.29	-150.000
196.66	15.385
197.04	-400.000
197.42	-85.714
197.79	-150.000
198.17	-37.500
198.55	-14.286
198.92	11.111
199.30	-25.000
199.68	72.727
200.05	50.000
200.43	-350.000
200.81	228.571
201.18	0.000
201.56	66.667
201.94	0.000
202.31	233.333
202.69	33.333
203.07	-0.000
203.44	0.000
203.82	75.000
204.19	-25.000
204.57	50.000
204.95	-212.500
205.32	-1300.000
205.70	200.000
206.08	-116.667
206.45	66.667
206.83	320.000
207.20	66.667
207.58	-280.000
207.96	-250.000
208.33	0.000
208.71	66.667
209.08	133.333
209.46	0.000
209.84	233.333
210.21	350.000
210.59	-500.000
210.96	366.667
211.34	-100.000
211.71	0.000
212.09	300.000
212.46	0.000
212.84	1100.000
213.22	-400.000
213.59	25.000
213.97	120.000
214.34	-200.000
214.72	133.333
215.09	-125.000
215.47	0.000
215.84	-28.571
216.22	850.000
216.59	0.000
216.97	-140.000
217.34	-375.000
217.72	-75.000
218.09	-75.000
218.47	-200.000
218.84	0.000
219.22	-40.000
219.59	47.059
219.97	50.000
220.34	300.000
220.72	-111.111
221.09	23.077
221.47	33.333
221.84	-40.000
222.22	-42.857
222.59	0.000
222.97	75.000
223.34	-160.000
223.72	-1300.000
224.09	-150.000
224.46	-225.000
224.84	80.000
225.21	-42.857
225.59	-175.000
225.96	-75.000
226.34	53.846
226.71	283.333
227.08	-100.000
227.46	26.667
227.83	0.000
228.21	36.842
228.58	125.000
228.95	300.000
229.33	-25.000
229.70	10.000
230.08	94.737
230.45	-10.000
230.82	-33.333
231.20	35.714
231.57	50.000
231.95	18.182
232.32	0.000
232.69	20.000
233.07	150.000
233.44	35.294
233.81	40.000
234.19	22.222
234.56	18.182
234.93	6.897
235.31	5.263
235.68	-22.222
236.05	-45.000
236.43	88.462
236.80	40.000
237.17	33.333
237.55	30.303
237.92	0.000
238.29	19.355
238.67	29.545
239.04	27.778
239.41	35.714
239.79	39.130
240.16	33.333
240.53	15.217
240.91	-5.882
241.28	24.590
241.65	26.866
242.02	31.081
242.40	30.769
242.77	24.000
243.14	13.415
243.51	23.684
243.89	23.077
244.26	26.733
244.63	31.373
245.00	28.972
245.38	24.561
245.75	16.814
246.12	24.603
246.49	29.457
246.87	26.429
247.24	24.503
247.61	33.553
247.98	26.846
248.36	25.309
248.73	18.405
249.10	22.404
249.47	29.851
249.84	29.319
250.22	24.870
250.59	28.333
250.96	27.727
251.33	22.449
251.70	26.496
252.08	27.917
252.45	30.328
252.82	28.512
253.19	24.609
253.56	27.757
253.94	25.769
254.31	30.682
254.68	29.371
255.05	29.642
255.42	25.510
255.79	23.948
256.16	29.139
256.54	23.510
256.91	28.852
257.28	26.230
257.65	27.070
258.02	24.484
258.39	27.066
258.76	32.416
259.14	29.598
259.51	27.666
259.88	25.212
260.25	30.000
260.62	29.315
260.99	29.235
261.36	27.614
261.73	26.790
262.10	29.396
262.47	29.223
262.85	29.545
263.22	23.896
263.59	25.263
263.96	28.645
264.33	25.320
264.70	30.370
265.07	28.878
265.44	31.293
265.81	25.694
266.18	30.385
266.55	27.902
266.92	26.651
267.29	29.540
267.66	27.494
268.03	29.039
268.40	25.678
268.77	28.474
269.14	24.009
269.51	26.316
269.88	27.459
270.25	28.974
270.62	27.215
270.99	28.889
271.36	27.723
271.73	27.112
272.10	29.058
272.47	28.257
272.84	27.510
273.21	29.058
273.58	27.218
273.95	24.615
274.32	26.236
274.69	28.627
275.06	28.022
275.43	24.769
275.80	28.219
276.17	25.556
276.54	25.373
276.91	26.297
277.28	26.763
277.65	26.750
278.02	27.206
278.39	26.993
278.76	28.120
279.13	28.369
279.50	28.694
279.87	27.728
280.23	21.127
280.60	26.610
280.97	25.493
281.34	26.995
281.71	26.565
282.08	26.080
282.45	25.368
282.82	27.002
283.19	24.233
283.56	24.918
283.92	26.276
284.29	26.224
284.66	28.571
285.03	24.840
285.40	26.121
285.77	24.303
286.14	25.649
286.51	24.962
286.87	25.908
287.24	24.849
287.61	24.813
287.98	23.565
288.35	24.852
288.72	25.592
289.08	25.622
289.45	24.260
289.82	23.494
290.19	23.707
290.56	24.085
290.93	22.397
291.29	24.656
291.66	23.416
292.03	22.252
292.40	24.082
292.77	23.585
293.13	22.733
293.50	21.682
293.87	22.550
294.24	23.867
294.60	22.630
294.97	21.074
295.34	20.359
295.71	20.050
296.08	21.576
296.44	22.181
296.81	22.046
297.18	19.552
297.55	20.401
297.91	20.759
298.28	20.379
298.65	20.927
299.02	20.897
299.38	20.824
299.75	19.977
300.12	19.444
300.48	20.161
300.85	20.247
301.22	20.358
301.59	19.521
301.95	20.226
302.32	19.222
302.69	19.168
303.05	19.913
303.42	20.510
303.79	20.000
304.15	19.664
304.52	18.393
304.89	19.476
305.25	18.116
305.62	19.540
305.99	18.763
306.35	18.145
306.72	19.545
307.09	19.086
307.45	19.255
307.82	18.365
308.19	18.769
308.55	19.672
308.92	17.624
309.29	18.103
309.65	18.226
310.02	19.010
310.38	18.701
310.75	19.806
311.12	19.559
311.48	18.768
311.85	17.474
312.22	18.406
312.58	18.498
312.95	18.642
313.31	19.964
313.68	20.604
314.05	19.332
314.41	19.763
314.78	19.074
315.14	19.601
315.51	19.483
315.87	20.792
316.24	20.639
316.61	19.893
316.97	18.462
317.34	19.841
317.70	21.048
318.07	21.869
318.43	20.663
318.80	21.990
319.16	21.116
319.53	20.908
319.89	21.209
320.26	23.754
320.62	21.897
320.99	23.176
321.35	24.030
321.72	24.651
322.08	23.445
322.45	25.203
322.81	25.993
323.18	27.522
323.54	26.897
323.91	28.559
324.27	27.883
324.64	29.135
325.00	28.773
325.37	30.057
325.73	30.744
326.10	31.549
326.46	31.678
326.83	33.147
327.19	34.094
327.56	35.020
327.92	35.563
328.29	36.210
328.65	36.097
329.01	38.071
329.38	39.090
329.74	38.955
330.11	39.983
330.47	39.848
330.84	39.621
331.20	40.917
331.56	41.854
331.93	41.339
332.29	42.627
332.66	43.688
333.02	42.044
333.38	43.624
333.75	42.593
334.11	43.620
334.48	43.399
334.84	43.670
335.20	42.737
335.57	45.363
335.93	45.041
336.29	43.844
336.66	45.921
337.02	44.983
337.38	46.429
337.75	45.785
338.11	46.930
338.47	46.816
338.84	46.785
339.20	47.262
339.56	46.952
339.93	45.238
340.29	46.135
340.65	46.310
341.02	46.528
341.38	48.585
341.74	46.973
342.11	48.512
342.47	47.577
342.83	48.953
343.20	48.160
343.56	47.474
343.92	47.238
344.28	47.812
344.65	49.147
345.01	48.050
345.37	47.434
345.73	47.701
346.10	48.284
346.46	48.497
346.82	48.315
347.19	48.816
347.55	50.986
347.91	48.291
348.27	49.545
348.63	48.210
349.00	48.098
349.36	48.699
349.72	50.670
350.08	49.108
350.45	48.061
350.81	48.643
351.17	50.677
351.53	50.341
351.89	50.418
352.26	49.254
352.62	49.254
352.98	50.687
353.34	49.066
353.70	51.156
354.07	49.553
354.43	50.797
354.79	50.935
355.15	50.478
355.51	50.512
355.87	50.262
356.24	51.787
356.60	49.372
356.96	51.446
357.32	50.632
357.68	50.732
358.04	50.075
358.40	51.716
358.77	51.170
359.13	51.920
359.49	50.558
359.85	51.124
360.21	50.646
360.57	50.897
360.93	50.987
361.29	52.772
361.66	50.833
362.02	51.148
362.38	52.495
362.74	52.444
363.10	52.063
363.46	53.116
363.82	52.912
364.18	52.991
364.54	53.804
364.90	53.579
365.26	54.138
365.62	53.533
365.98	52.485
366.35	52.953
366.71	54.490
367.07	53.315
367.43	53.513
367.79	53.882
368.15	56.054
368.51	53.383
368.87	52.907
369.23	53.400
369.59	55.669
369.95	54.091
370.31	54.693
370.67	54.333
371.03	55.402
371.39	54.399
371.75	53.851
372.11	55.217
372.47	55.450
372.83	55.563
373.19	54.770
373.55	55.420
373.91	54.942
374.27	55.175
374.63	56.157
374.99	56.698
375.35	56.494
375.71	55.613
376.07	55.649
376.42	56.486
376.78	56.433
377.14	56.457
377.50	57.495
377.86	57.266
378.22	56.587
378.58	56.421
378.94	57.101
379.30	56.825
379.66	57.202
380.02	58.857
380.38	58.295
380.74	58.310
381.09	59.524
381.45	58.125
381.81	58.489
382.17	58.729
382.53	57.778
382.89	57.167
383.25	59.730
383.61	58.507
383.97	58.716
384.32	58.553
384.68	58.237
385.04	58.878
385.40	59.576
385.76	60.082
386.12	59.665
386.48	59.941
386.83	60.489
387.19	59.849
387.55	59.800
387.91	60.160
388.27	60.277
388.62	60.195
388.98	59.842
389.34	61.108
389.70	61.650
390.06	61.279
390.42	61.566
390.77	61.469
391.13	60.915
391.49	61.292
391.85	60.303
392.20	61.269
392.56	62.315
392.92	61.668
393.28	62.078
393.64	62.179
393.99	62.347
394.35	62.091
394.71	62.814
395.07	61.796
395.42	62.250
395.78	64.778
396.14	62.745
396.50	62.411
396.85	62.016
397.21	62.249
397.57	62.662
397.92	62.658
398.28	63.498
398.64	61.270
399.00	61.518
399.35	63.455
399.71	62.717
400.07	63.841
400.42	65.017
400.78	63.194
401.14	63.404
401.49	64.753
401.85	65.523
402.21	65.353
402.57	66.373
402.92	64.243
403.28	64.520
403.63	65.573
403.99	65.143
404.35	63.843
404.70	64.476
405.06	62.500
405.42	64.520
405.77	64.286
406.13	63.911
406.49	64.527
406.84	64.931
407.20	64.841
407.55	66.021
407.91	64.928
408.27	64.900
408.62	66.259
408.98	65.061
409.34	65.103
409.69	66.873
410.05	66.295
410.40	66.067
410.76	65.059
411.11	66.043
411.47	67.936
411.83	68.254
412.18	67.048
412.54	66.509
412.89	66.182
413.25	66.140
413.60	66.513
413.96	67.890
414.31	65.949
414.67	67.442
415.03	66.277
415.38	67.970
415.74	67.013
416.09	67.304
416.45	67.376
416.80	66.585
417.16	68.327
417.51	67.933
417.87	68.056
418.22	68.922
418.58	68.278
418.93	68.393
419.29	69.975
419.64	68.487
420.00	69.258
420.35	68.782
420.71	68.811
421.06	67.913
421.42	69.725
421.77	66.990
422.12	68.288
422.48	68.408
422.83	69.551
423.19	68.647
423.54	70.354
423.90	68.526
424.25	68.907
424.61	68.714
424.96	69.248
425.31	70.594
425.67	69.726
426.02	71.334
426.38	70.207
426.73	70.926
427.09	72.030
427.44	69.962
427.79	70.039
428.15	69.920
428.50	70.843
428.85	70.092
429.21	71.702
429.56	72.113
429.92	70.319
430.27	70.651
430.62	70.933
430.98	71.372
431.33	69.648
431.68	69.061
432.04	71.153
432.39	70.969
432.74	72.432
433.10	71.823
433.45	69.788
433.80	71.835
434.16	70.764
434.51	72.097
434.86	73.073
435.22	73.379
435.57	74.292
435.92	72.510
436.28	73.436
436.63	74.276
436.98	71.766
437.34	72.773
437.69	73.253
438.04	71.920
438.39	71.798
438.75	72.773
439.10	72.886
439.45	71.660
439.81	73.446
440.16	72.172
440.51	72.241
440.86	72.651
441.22	72.347
441.57	74.004
441.92	72.405
442.27	75.707
442.63	73.075
442.98	72.572
443.33	72.699
443.68	73.885
444.03	74.459
444.39	73.879
444.74	74.579
445.09	73.847
445.44	74.658
445.79	74.904
446.15	74.255
446.50	74.470
446.85	73.881
447.20	74.178
447.55	74.582
447.91	74.555
448.26	74.471
448.61	73.964
448.96	74.464
449.31	74.443
449.66	73.094
450.02	74.525
450.37	74.267
450.72	75.081
451.07	74.431
451.42	74.235
451.77	74.819
452.12	75.677
452.47	75.342
452.83	77.027
453.18	74.197
453.53	74.670
453.88	74.434
454.23	75.028
454.58	76.030
454.93	74.211
455.28	74.955
455.63	75.156
455.98	76.034
456.34	75.854
456.69	76.249
457.04	76.182
457.39	74.778
457.74	77.125
458.09	75.892
458.44	75.754
458.79	75.709
459.14	73.676
459.49	75.778
459.84	76.863
460.19	74.237
460.54	76.207
460.89	75.913
461.24	75.230
461.59	77.587
461.94	74.273
462.29	77.492
462.64	75.196
462.99	77.527
463.34	76.509
463.69	75.147
464.04	75.598
464.39	74.776
464.74	75.485
465.09	76.355
465.44	75.912
465.79	74.299
466.14	74.726
466.49	75.474
466.84	76.088
467.19	75.780
467.54	75.441
467.89	75.345
468.24	75.125
468.59	75.680
468.94	74.767
469.29	75.885
469.64	75.207
469.99	77.374
470.34	76.052
470.68	79.836
471.03	79.109
471.38	78.286
471.73	76.853
472.08	77.855
472.43	78.146
472.78	77.204
473.13	78.571
473.48	77.885
473.83	78.178
474.17	75.205
474.52	78.773
474.87	76.301
475.22	78.310
475.57	77.051
475.92	76.705
476.27	76.677
476.61	76.947
476.96	76.225
477.31	76.040
477.66	77.754
478.01	77.326
478.36	75.823
478.70	77.734
479.05	78.476
479.40	77.542
479.75	76.321
480.10	76.646
480.45	77.940
480.79	76.190
481.14	76.011
481.49	77.010
481.84	76.806
482.19	76.559
482.53	77.656
482.88	78.113
483.23	77.412
483.58	77.686
483.92	76.950
484.27	76.376
484.62	75.784
484.97	76.361
485.31	75.361
485.66	71.267
486.01	68.532
486.36	70.274
486.70	72.993
487.05	74.802
487.40	74.205
487.75	74.656
488.09	75.345
488.44	74.260
488.79	75.413
489.13	76.430
489.48	75.612
489.83	74.970
490.17	76.792
490.52	76.190
490.87	76.438
491.22	78.076
491.56	76.877
491.91	77.584
492.26	76.893
492.60	76.913
492.95	76.656
493.30	78.082
493.64	78.143
493.99	77.412
494.34	76.307
494.68	76.060
495.03	77.930
495.37	76.565
495.72	77.143
496.07	78.089
496.41	76.062
496.76	77.606
497.11	77.495
497.45	77.989
497.80	76.766
498.14	78.277
498.49	78.171
498.84	77.971
499.18	77.148
499.53	77.668
499.87	77.407
500.22	76.759
500.56	77.958
500.91	77.941
501.26	78.364
501.60	77.154
501.95	78.029
502.29	77.841
502.64	77.569
502.98	77.437
503.33	76.803
503.67	77.715
504.02	77.496
504.36	78.463
504.71	78.732
505.06	77.763
505.40	77.788
505.75	77.186
506.09	77.716
506.44	80.641
506.78	79.541
507.13	79.345
507.47	80.483
507.82	78.551
508.16	80.019
508.51	79.700
508.85	79.547
509.19	79.725
509.54	80.692
509.88	79.796
510.23	80.622
510.57	81.150
510.92	81.084
511.26	79.365
511.61	79.527
511.95	79.551
512.30	80.207
512.64	80.260
512.98	81.291
513.33	82.056
513.67	81.693
514.02	83.955
514.36	82.660
514.70	83.646
515.05	82.169
515.39	82.257
515.74	82.238
516.08	83.096
516.42	82.732
516.77	83.912
517.11	81.898
517.46	84.146
517.80	83.859
518.14	84.712
518.49	84.490
518.83	82.491
519.17	83.468
519.52	82.914
519.86	84.266
520.20	84.239
520.55	83.571
520.89	85.135
521.23	84.255
521.58	84.859
521.92	85.892
522.26	85.052
522.61	86.458
522.95	85.640
523.29	87.816
523.64	85.202
523.98	88.078
524.32	87.335
524.66	86.113
525.01	84.938
525.35	85.755
525.69	85.325
526.04	84.328
526.38	86.149
526.72	86.390
527.06	88.152
527.41	85.948
527.75	88.183
528.09	87.131
528.43	86.205
528.78	86.994
529.12	85.665
529.46	84.148
529.80	86.384
530.15	86.029
530.49	87.307
530.83	86.009
531.17	86.081
531.51	87.064
531.86	87.079
532.20	88.110
532.54	86.415
532.88	87.152
533.22	85.975
533.57	85.574
533.91	85.129
534.25	87.168
534.59	86.782
534.93	86.022
535.27	85.690
535.62	86.868
535.96	86.345
536.30	86.486
536.64	87.447
536.98	87.269
537.32	88.210
537.66	87.523
538.01	86.284
538.35	87.150
538.69	86.478
539.03	86.327
539.37	84.923
539.71	88.168
540.05	86.691
540.39	85.452
540.73	86.278
541.07	86.757
541.42	85.115
541.76	84.342
542.10	85.887
542.44	86.297
542.78	84.976
543.12	85.101
543.46	84.432
543.80	83.873
544.14	84.500
544.48	85.165
544.82	86.774
545.16	85.987
545.50	85.500
545.84	84.813
546.18	86.420
546.52	86.051
546.86	85.723
547.20	85.814
547.54	85.893
547.88	85.232
548.22	83.977
548.56	83.909
548.90	83.881
549.24	85.289
549.58	85.615
549.92	85.523
550.26	86.214
550.60	85.003
550.94	87.387
551.28	86.403
551.62	88.679
551.96	84.984
552.30	85.341
552.64	84.070
552.98	85.527
553.32	87.460
553.66	88.039
554.00	85.876
554.34	85.586
554.68	85.023
555.02	86.202
555.36	87.048
555.69	84.497
556.03	83.480
556.37	85.982
556.71	84.908
557.05	84.601
557.39	87.127
557.73	86.129
558.07	86.424
558.41	86.312
558.75	86.477
559.08	87.683
559.42	86.145
559.76	84.532
560.10	84.193
560.44	86.280
560.78	84.562
561.12	84.914
561.45	84.550
561.79	83.761
562.13	83.611
562.47	82.737
562.81	83.987
563.15	83.586
563.48	84.835
563.82	84.039
564.16	82.798
564.50	82.479
564.84	81.475
565.17	82.941
565.51	81.761
565.85	81.710
566.19	82.028
566.52	82.680
566.86	82.286
567.20	79.772
567.54	81.200
567.88	80.326
568.21	80.385
568.55	80.192
568.89	78.802
569.23	77.778
569.56	78.038
569.90	77.192
570.24	75.784
570.57	76.203
570.91	74.127
571.25	73.387
571.59	73.532
571.92	73.028
572.26	73.452
572.60	72.918
572.93	72.753
573.27	73.363
573.61	73.584
573.95	71.911
574.28	71.175
574.62	71.874
574.96	70.291
575.29	70.720
575.63	70.478
575.97	71.689
576.30	71.256
576.64	71.940
576.98	70.091
577.31	70.806
577.65	71.069
577.98	69.672
578.32	68.946
578.66	69.110
578.99	69.814
579.33	71.321
579.67	70.195
580.00	70.488
580.34	69.764
580.67	69.395
581.01	70.814
581.35	69.024
581.68	69.086
582.02	68.485
582.35	69.237
582.69	69.945
583.02	70.454
583.36	70.507
583.70	70.802
584.03	70.434
584.37	70.748
584.70	69.780
585.04	69.705
585.37	69.686
585.71	68.975
586.04	69.441
586.38	69.800
586.72	69.892
587.05	70.095
587.39	69.584
587.72	70.646
588.06	69.778
588.39	70.227
588.73	70.450
589.06	70.767
589.40	72.680
589.73	71.240
590.07	71.552
590.40	72.718
590.73	71.721
591.07	73.753
591.40	73.017
591.74	73.728
592.07	73.447
592.41	72.319
592.74	70.465
593.08	70.701
593.41	70.575
593.75	70.029
594.08	70.978
594.41	71.859
594.75	70.176
595.08	71.131
595.42	70.942
595.75	70.423
596.09	72.009
596.42	72.590
596.75	71.787
597.09	71.798
597.42	71.752
597.75	71.776
598.09	71.587
598.42	71.371
598.76	69.889
599.09	71.520
599.42	67.784
599.76	69.330
600.09	70.170
600.42	68.669
600.76	69.221
601.09	69.366
601.42	69.241
601.76	69.241
602.09	68.906
602.42	70.302
602.76	70.332
603.09	70.668
603.42	70.990
603.76	69.662
604.09	70.546
604.42	70.716
604.76	70.548
605.09	71.201
605.42	70.534
605.75	69.038
606.09	70.287
606.42	69.026
606.75	68.366
607.09	69.278
607.42	68.671
607.75	69.597
608.08	69.140
608.42	68.884
608.75	69.983
609.08	69.185
609.41	70.666
609.75	70.223
610.08	71.548
610.41	69.371
610.74	68.908
611.07	70.826
611.41	69.865
611.74	70.808
612.07	69.939
612.40	70.390
612.73	71.932
613.07	71.443
613.40	70.885
613.73	70.583
614.06	70.461
614.39	68.853
614.72	70.209
615.06	69.875
615.39	69.889
615.72	69.716
616.05	70.520
616.38	71.796
616.71	69.697
617.05	70.447
617.38	70.144
617.71	70.842
618.04	71.452
618.37	71.530
618.70	72.285
619.03	73.775
619.36	72.380
619.69	73.863
620.03	72.630
620.36	71.718
620.69	72.918
621.02	74.081
621.35	77.358
621.68	75.705
622.01	74.235
622.34	74.616
622.67	73.127
623.00	72.942
623.33	73.524
623.66	72.114
623.99	73.667
624.32	73.554
624.65	71.364
624.99	73.667
625.32	73.677
625.65	73.702
625.98	71.390
626.31	72.077
626.64	74.359
626.97	74.569
627.30	75.247
627.63	74.194
627.96	74.550
628.29	74.786
628.62	77.666
628.95	76.161
629.28	76.551
629.61	76.010
629.94	74.561
630.26	75.000
630.59	76.943
630.92	75.931
631.25	76.655
631.58	79.661
631.91	78.444
632.24	78.770
632.57	76.376
632.90	79.639
633.23	79.490
633.56	79.388
633.89	79.545
