SpectraSuite Data File
++++++++++++++++++++++++++++++++++++
Date: Thu May 14 16:38:14 PDT 2015
User: schluterlab
Dark Spectrum Present: Yes
Reference Spectrum Present: Yes
Number of Sampled Component Spectra: 1
Spectrometers: USB2E3373
Integration Time (usec): 3000 (USB2E3373)
Spectra Averaged: 3 (USB2E3373)
Boxcar Smoothing: 0 (USB2E3373)
Correct for Electrical Dark: No (USB2E3373)
Strobe/Lamp Enabled: No (USB2E3373)
Correct for Detector Non-linearity: No (USB2E3373)
Correct for Stray Light: No (USB2E3373)
Number of Pixels in Processed Spectrum: 2048
>>>>>Begin Processed Spectral Data<<<<<
178.53	0.000
178.91	-42.857
179.29	-1200.000
179.67	-600.000
180.04	135.714
180.42	70.000
180.80	-60.000
181.18	-400.000
181.56	-300.000
181.94	50.000
182.31	0.000
182.69	33.333
183.07	200.000
183.45	25.000
183.83	-16.667
184.20	-166.667
184.58	-300.000
184.96	-25.000
185.34	-33.333
185.72	-20.000
186.09	111.111
186.47	550.000
186.85	60.000
187.23	-33.333
187.61	-200.000
187.98	20.000
188.36	125.000
188.74	-225.000
189.12	-166.667
189.49	-56.250
189.87	-75.000
190.25	-44.444
190.63	-100.000
191.00	-88.889
191.38	0.000
191.76	-275.000
192.14	-33.333
192.51	250.000
192.89	250.000
193.27	0.000
193.65	-42.857
194.02	-900.000
194.40	14.286
194.78	28.571
195.15	0.000
195.53	-54.545
195.91	0.000
196.29	150.000
196.66	7.692
197.04	-1000.000
197.42	-71.429
197.79	0.000
198.17	12.500
198.55	-228.571
198.92	44.444
199.30	50.000
199.68	36.364
200.05	78.571
200.43	0.000
200.81	185.714
201.18	0.000
201.56	133.333
201.94	0.000
202.31	333.333
202.69	-33.333
203.07	400.000
203.44	-188.889
203.82	-300.000
204.19	-50.000
204.57	33.333
204.95	-37.500
205.32	-100.000
205.70	75.000
206.08	-116.667
206.45	-66.667
206.83	280.000
207.20	-50.000
207.58	-180.000
207.96	-100.000
208.33	-50.000
208.71	66.667
209.08	50.000
209.46	0.000
209.84	283.333
210.21	400.000
210.59	300.000
210.96	400.000
211.34	150.000
211.71	-150.000
212.09	-500.000
212.46	0.000
212.84	550.000
213.22	-140.000
213.59	-150.000
213.97	-10.000
214.34	-466.667
214.72	133.333
215.09	100.000
215.47	0.000
215.84	157.143
216.22	650.000
216.59	-80.000
216.97	-180.000
217.34	-250.000
217.72	37.500
218.09	-75.000
218.47	-150.000
218.84	0.000
219.22	-60.000
219.59	17.647
219.97	40.000
220.34	300.000
220.72	-77.778
221.09	30.769
221.47	100.000
221.84	60.000
222.22	-100.000
222.59	0.000
222.97	-12.500
223.34	-200.000
223.72	-900.000
224.09	25.000
224.46	-100.000
224.84	80.000
225.21	14.286
225.59	-75.000
225.96	0.000
226.34	38.462
226.71	183.333
227.08	-550.000
227.46	-13.333
227.83	-125.000
228.21	-42.105
228.58	150.000
228.95	900.000
229.33	-16.667
229.70	60.000
230.08	36.842
230.45	30.000
230.82	-233.333
231.20	-35.714
231.57	-8.333
231.95	-54.545
232.32	45.455
232.69	-15.000
233.07	-200.000
233.44	-52.941
233.81	-40.000
234.19	11.111
234.56	-13.636
234.93	13.793
235.31	-10.526
235.68	-50.000
236.05	-40.000
236.43	30.769
236.80	32.000
237.17	-11.111
237.55	0.000
237.92	-70.000
238.29	3.226
238.67	-4.545
239.04	0.000
239.41	-14.286
239.79	-21.739
240.16	5.556
240.53	-15.217
240.91	-23.529
241.28	-4.918
241.65	1.493
242.02	4.054
242.40	-9.231
242.77	-13.333
243.14	-1.220
243.51	-22.368
243.89	-5.128
244.26	-1.980
244.63	3.922
245.00	-1.869
245.38	-2.632
245.75	-6.195
246.12	-7.143
246.49	-4.651
246.87	-0.714
247.24	3.311
247.61	0.658
247.98	-2.685
248.36	-1.852
248.73	-11.656
249.10	-4.918
249.47	0.498
249.84	0.524
250.22	-5.181
250.59	-5.000
250.96	0.000
251.33	-6.633
251.70	2.137
252.08	2.083
252.45	-3.279
252.82	-2.479
253.19	-4.687
253.56	3.802
253.94	-2.308
254.31	0.000
254.68	1.399
255.05	1.629
255.42	-3.741
255.79	-3.236
256.16	-1.325
256.54	-2.649
256.91	-0.984
257.28	-1.311
257.65	-5.414
258.02	0.295
258.39	-0.285
258.76	3.670
259.14	0.862
259.51	-2.305
259.88	-1.700
260.25	-3.056
260.62	0.000
260.99	1.639
261.36	2.145
261.73	-2.918
262.10	-0.549
262.47	-1.877
262.85	0.000
263.22	-2.597
263.59	-1.316
263.96	-2.046
264.33	-2.558
264.70	0.247
265.07	1.671
265.44	2.268
265.81	0.000
266.18	0.227
266.55	-2.455
266.92	-0.683
267.29	0.875
267.66	-1.552
268.03	-2.402
268.40	-0.835
268.77	-3.872
269.14	-1.982
269.51	-0.658
269.88	0.820
270.25	-0.201
270.62	-0.633
270.99	1.414
271.36	1.782
271.73	0.393
272.10	0.601
272.47	-1.403
272.84	-0.803
273.21	-1.603
273.58	0.000
273.95	-0.577
274.32	0.570
274.69	-0.580
275.06	0.000
275.43	-1.479
275.80	-0.176
276.17	-2.222
276.54	-0.373
276.91	-2.504
277.28	-1.266
277.65	-0.359
278.02	2.022
278.39	-0.725
278.76	-1.054
279.13	-0.709
279.50	0.515
279.87	0.179
280.23	-0.352
280.60	-1.525
280.97	-0.822
281.34	-2.377
281.71	0.508
282.08	0.332
282.45	-0.491
282.82	-0.471
283.19	-1.131
283.56	-0.820
283.92	1.652
284.29	0.000
284.66	1.642
285.03	-1.282
285.40	1.700
285.77	0.155
286.14	1.374
286.51	0.457
286.87	-2.054
287.24	0.602
287.61	-1.046
287.98	-1.511
288.35	-0.592
288.72	-0.444
289.08	0.146
289.45	0.148
289.82	1.054
290.19	0.000
290.56	0.282
290.93	0.143
291.29	-0.413
291.66	-0.413
292.03	-0.543
292.40	1.769
292.77	0.135
293.13	-0.677
293.50	-0.657
293.87	-0.537
294.24	2.267
294.60	0.632
294.97	-0.805
295.34	0.896
295.71	-0.126
296.08	-1.421
296.44	-0.613
296.81	-0.853
297.18	-0.996
297.55	-0.118
297.91	0.237
298.28	-1.066
298.65	1.308
299.02	0.118
299.38	0.686
299.75	1.285
300.12	-0.579
300.48	0.230
300.85	0.562
301.22	1.342
301.59	-0.685
301.95	-0.565
302.32	1.222
302.69	-0.219
303.05	1.741
303.42	0.000
303.79	-0.417
304.15	-0.210
304.52	-0.951
304.89	0.209
305.25	-0.207
305.62	0.522
305.99	0.309
306.35	-1.411
306.72	0.517
307.09	-1.015
307.45	-0.311
307.82	0.101
308.19	-0.605
308.55	1.061
308.92	-0.487
309.29	0.383
309.65	0.000
310.02	0.396
310.38	0.886
310.75	0.194
311.12	1.151
311.48	-0.391
311.85	0.000
312.22	0.759
312.58	0.657
312.95	-0.382
313.31	0.903
313.68	1.282
314.05	1.265
314.41	0.182
314.78	1.090
315.14	1.633
315.51	1.293
315.87	1.260
316.24	1.096
316.61	1.599
316.97	1.357
317.34	-0.265
317.70	2.707
318.07	1.411
318.43	2.296
318.80	2.759
319.16	2.060
319.53	1.542
319.89	1.578
320.26	3.203
320.62	1.684
320.99	1.939
321.35	2.680
321.72	3.721
322.08	1.803
322.45	2.529
322.81	3.791
323.18	2.655
323.54	3.448
323.91	3.648
324.27	4.217
324.64	3.359
325.00	3.151
325.37	5.405
325.73	4.215
326.10	5.109
326.46	5.130
326.83	6.245
327.19	5.118
327.56	5.850
327.92	4.799
328.29	6.613
328.65	5.611
329.01	5.753
329.38	6.824
329.74	6.935
330.11	6.079
330.47	6.487
330.84	5.685
331.20	7.917
331.56	6.759
331.93	6.946
332.29	7.288
332.66	7.558
333.02	7.538
333.38	7.802
333.75	7.660
334.11	7.756
334.48	8.663
334.84	8.241
335.20	6.969
335.57	8.600
335.93	7.025
336.29	6.739
336.66	7.317
337.02	8.445
337.38	8.078
337.75	7.273
338.11	8.410
338.47	7.196
338.84	8.122
339.20	6.740
339.56	7.249
339.93	6.650
340.29	7.568
340.65	6.813
341.02	8.699
341.38	8.731
341.74	6.941
342.11	8.286
342.47	6.831
342.83	7.810
343.20	8.013
343.56	8.019
343.92	7.926
344.28	7.891
344.65	8.140
345.01	7.488
345.37	6.765
345.73	6.781
346.10	7.332
346.46	7.278
346.82	7.865
347.19	8.174
347.55	7.132
347.91	7.652
348.27	8.194
348.63	7.235
349.00	7.532
349.36	7.658
349.72	7.143
350.08	7.058
350.45	7.148
350.81	6.335
351.17	8.045
351.53	7.354
351.89	7.669
352.26	6.418
352.62	6.791
352.98	7.176
353.34	7.095
353.70	6.549
354.07	6.930
354.43	7.062
354.79	5.984
355.15	7.285
355.51	7.529
355.87	5.759
356.24	6.692
356.60	6.356
356.96	6.004
357.32	5.428
357.68	6.881
358.04	6.437
358.40	6.418
358.77	6.798
359.13	6.130
359.49	6.171
359.85	6.164
360.21	6.958
360.57	7.107
360.93	6.417
361.29	7.298
361.66	5.938
362.02	7.307
362.38	6.606
362.74	6.844
363.10	6.809
363.46	5.125
363.82	6.321
364.18	7.178
364.54	5.947
364.90	6.154
365.26	5.103
365.62	6.867
365.98	6.263
366.35	6.242
366.71	6.259
367.07	5.616
367.43	6.894
367.79	6.304
368.15	7.224
368.51	7.037
368.87	5.879
369.23	6.000
369.59	5.738
369.95	6.626
370.31	6.550
370.67	5.296
371.03	6.233
371.39	5.910
371.75	5.296
372.11	5.827
372.47	6.026
372.83	6.348
373.19	6.738
373.55	5.420
373.91	4.772
374.27	6.339
374.63	6.631
374.99	5.902
375.35	5.909
375.71	5.871
376.07	5.746
376.42	6.171
376.78	5.656
377.14	5.739
377.50	6.199
377.86	6.158
378.22	5.629
378.58	6.005
378.94	6.514
379.30	5.097
379.66	5.703
380.02	6.001
380.38	5.300
380.74	5.183
381.09	5.401
381.45	5.682
381.81	5.913
382.17	6.116
382.53	5.322
382.89	6.208
383.25	5.217
383.61	5.035
383.97	5.183
384.32	5.263
384.68	5.336
385.04	5.899
385.40	5.186
385.76	6.096
386.12	5.266
386.48	5.412
386.83	6.019
387.19	5.272
387.55	4.695
387.91	5.822
388.27	5.947
388.62	4.983
388.98	5.133
389.34	5.598
389.70	4.532
390.06	6.454
390.42	5.060
390.77	5.780
391.13	4.225
391.49	5.616
391.85	5.091
392.20	5.042
392.56	5.198
392.92	6.325
393.28	5.086
393.64	5.028
393.99	5.230
394.35	6.192
394.71	5.329
395.07	4.551
395.42	4.455
395.78	4.997
396.14	5.051
396.50	4.454
396.85	5.009
397.21	4.260
397.57	4.947
397.92	5.040
398.28	4.237
398.64	4.119
399.00	4.084
399.35	5.340
399.71	4.457
400.07	4.380
400.42	4.598
400.78	4.572
401.14	4.610
401.49	5.060
401.85	4.477
402.21	4.519
402.57	5.047
402.92	4.492
403.28	4.567
403.63	3.699
403.99	4.751
404.35	4.434
404.70	3.966
405.06	4.783
405.42	4.040
405.77	4.417
406.13	4.754
406.49	4.110
406.84	4.044
407.20	3.913
407.55	3.816
407.91	4.211
408.27	4.358
408.62	4.421
408.98	4.585
409.34	2.991
409.69	3.770
410.05	5.041
410.40	4.176
410.76	4.150
411.11	4.325
411.47	4.423
411.83	4.527
412.18	4.036
412.54	4.327
412.89	4.366
413.25	3.612
413.60	3.848
413.96	4.545
414.31	4.476
414.67	4.949
415.03	4.554
415.38	3.657
415.74	3.971
416.09	4.812
416.45	4.195
416.80	3.794
417.16	3.831
417.51	4.483
417.87	4.353
418.22	3.772
418.58	3.779
418.93	4.598
419.29	4.747
419.64	3.902
420.00	3.858
420.35	4.716
420.71	3.733
421.06	3.738
421.42	4.128
421.77	3.339
422.12	4.440
422.48	3.482
422.83	3.834
423.19	3.873
423.54	3.761
423.90	3.810
424.25	4.747
424.61	3.387
424.96	4.228
425.31	4.724
425.67	3.274
426.02	3.542
426.38	3.961
426.73	3.348
427.09	4.614
427.44	3.714
427.79	3.427
428.15	2.854
428.50	3.483
428.85	3.617
429.21	4.628
429.56	3.554
429.92	3.833
430.27	3.518
430.62	3.957
430.98	3.542
431.33	4.154
431.68	3.496
432.04	3.911
432.39	3.803
432.74	3.653
433.10	4.056
433.45	3.177
433.80	4.292
434.16	3.719
434.51	3.700
434.86	3.094
435.22	3.241
435.57	3.597
435.92	3.784
436.28	3.413
436.63	3.277
436.98	4.348
437.34	3.720
437.69	3.192
438.04	3.596
438.39	3.848
438.75	3.265
439.10	4.334
439.45	4.416
439.81	3.164
440.16	3.753
440.51	3.846
440.86	3.669
441.22	3.966
441.57	4.088
441.92	4.559
442.27	3.939
442.63	3.875
442.98	4.002
443.33	4.156
443.68	4.807
444.03	5.080
444.39	4.438
444.74	3.982
445.09	3.852
445.44	4.268
445.79	4.598
446.15	4.522
446.50	4.289
446.85	4.767
447.20	4.642
447.55	4.236
447.91	4.764
448.26	4.545
448.61	4.251
448.96	4.721
449.31	4.295
449.66	4.521
450.02	4.430
450.37	5.115
450.72	4.144
451.07	5.125
451.42	4.333
451.77	4.669
452.12	4.684
452.47	4.278
452.83	4.336
453.18	4.437
453.53	4.021
453.88	4.197
454.23	5.198
454.58	5.281
454.93	4.308
455.28	5.117
455.63	5.458
455.98	4.078
456.34	4.535
456.69	5.056
457.04	4.551
457.39	4.933
457.74	5.034
458.09	4.448
458.44	4.795
458.79	4.796
459.14	4.824
459.49	4.527
459.84	5.299
460.19	4.720
460.54	5.168
460.89	4.606
461.24	4.195
461.59	5.147
461.94	3.708
462.29	4.703
462.64	5.190
462.99	4.583
463.34	5.840
463.69	5.158
464.04	5.170
464.39	4.877
464.74	5.074
465.09	4.383
465.44	4.614
465.79	5.500
466.14	5.159
466.49	5.105
466.84	4.738
467.19	5.665
467.54	4.465
467.89	4.885
468.24	5.374
468.59	4.111
468.94	4.487
469.29	5.099
469.64	5.022
469.99	4.908
470.34	4.703
470.68	5.400
471.03	4.519
471.38	5.428
471.73	4.226
472.08	5.013
472.43	5.178
472.78	5.479
473.13	4.235
473.48	4.713
473.83	4.643
474.17	4.924
474.52	4.149
474.87	5.205
475.22	4.563
475.57	4.361
475.92	4.181
476.27	5.112
476.61	4.777
476.96	5.109
477.31	5.099
477.66	5.456
478.01	4.169
478.36	5.135
478.70	4.631
479.05	4.703
479.40	4.886
479.75	5.427
480.10	4.974
480.45	5.242
480.79	5.261
481.14	4.733
481.49	4.543
481.84	4.830
482.19	4.129
482.53	4.985
482.88	5.361
483.23	4.357
483.58	4.323
483.92	4.876
484.27	4.784
484.62	4.373
484.97	4.860
485.31	4.189
485.66	4.807
486.01	4.728
486.36	4.607
486.70	4.833
487.05	4.596
487.40	4.644
487.75	4.962
488.09	4.565
488.44	4.655
488.79	5.329
489.13	4.707
489.48	4.194
489.83	4.266
490.17	4.131
490.52	4.475
490.87	4.484
491.22	4.289
491.56	5.247
491.91	4.928
492.26	4.890
492.60	4.766
492.95	5.002
493.30	4.886
493.64	4.818
493.99	4.298
494.34	4.486
494.68	4.411
495.03	5.242
495.37	4.705
495.72	4.490
496.07	5.127
496.41	4.333
496.76	4.337
497.11	4.034
497.45	4.532
497.80	5.109
498.14	4.082
498.49	4.642
498.84	5.165
499.18	4.948
499.53	4.484
499.87	5.319
500.22	4.541
500.56	4.363
500.91	4.439
501.26	5.045
501.60	4.286
501.95	4.690
502.29	4.256
502.64	4.897
502.98	4.314
503.33	3.888
503.67	4.666
504.02	4.203
504.36	5.362
504.71	3.996
505.06	4.593
505.40	4.525
505.75	4.372
506.09	4.788
506.44	4.225
506.78	5.183
507.13	4.564
507.47	4.879
507.82	4.309
508.16	4.589
508.51	4.173
508.85	4.015
509.19	4.121
509.54	4.851
509.88	4.517
510.23	4.322
510.57	4.253
510.92	4.693
511.26	4.618
511.61	4.104
511.95	4.539
512.30	4.874
512.64	4.598
512.98	4.202
513.33	4.839
513.67	4.640
514.02	4.957
514.36	4.757
514.70	4.427
515.05	4.953
515.39	4.567
515.74	5.355
516.08	4.437
516.42	4.971
516.77	4.416
517.11	4.487
517.46	4.454
517.80	5.612
518.14	4.679
518.49	4.013
518.83	5.269
519.17	4.200
519.52	4.193
519.86	4.646
520.20	4.952
520.55	4.326
520.89	4.223
521.23	4.523
521.58	5.028
521.92	3.909
522.26	4.296
522.61	4.109
522.95	4.787
523.29	4.540
523.64	4.428
523.98	4.564
524.32	4.986
524.66	4.838
525.01	4.077
525.35	4.193
525.69	4.466
526.04	4.305
526.38	4.023
526.72	4.037
527.06	4.399
527.41	4.840
527.75	4.869
528.09	3.601
528.43	4.381
528.78	4.220
529.12	4.472
529.46	4.328
529.80	4.062
530.15	3.478
530.49	4.033
530.83	4.014
531.17	4.480
531.51	4.031
531.86	4.507
532.20	5.183
532.54	4.249
532.88	4.848
533.22	4.420
533.57	4.616
533.91	4.994
534.25	4.240
534.59	3.736
534.93	4.697
535.27	3.549
535.62	4.889
535.96	4.184
536.30	3.408
536.64	4.625
536.98	5.351
537.32	4.136
537.66	5.178
538.01	3.746
538.35	3.471
538.69	3.906
539.03	4.844
539.37	4.594
539.71	4.565
540.05	4.257
540.39	4.034
540.73	4.129
541.07	4.047
541.42	4.253
541.76	4.033
542.10	3.800
542.44	3.289
542.78	4.440
543.12	4.410
543.46	4.701
543.80	3.957
544.14	4.129
544.48	4.610
544.82	4.728
545.16	4.234
545.50	2.996
545.84	4.042
546.18	5.432
546.52	4.076
546.86	3.711
547.20	4.389
547.54	4.120
547.88	4.219
548.22	3.977
548.56	3.628
548.90	4.060
549.24	4.559
549.58	3.659
549.92	3.444
550.26	3.560
550.60	4.467
550.94	4.269
551.28	3.696
551.62	4.919
551.96	3.819
552.30	4.589
552.64	4.978
552.98	3.618
553.32	4.759
553.66	4.759
554.00	4.540
554.34	4.118
554.68	3.551
555.02	3.745
555.36	4.208
555.69	3.395
556.03	4.161
556.37	4.631
556.71	4.375
557.05	3.578
557.39	3.517
557.73	3.963
558.07	3.444
558.41	4.120
558.75	3.516
559.08	4.662
559.42	4.184
559.76	3.867
560.10	4.220
560.44	4.222
560.78	4.312
561.12	4.064
561.45	3.893
561.79	4.029
562.13	3.512
562.47	3.453
562.81	3.861
563.15	4.040
563.48	4.413
563.82	3.930
564.16	3.271
564.50	4.052
564.84	3.717
565.17	4.176
565.51	3.510
565.85	3.800
566.19	3.917
566.52	3.862
566.86	4.244
567.20	3.263
567.54	4.249
567.88	3.670
568.21	4.051
568.55	3.885
568.89	4.222
569.23	3.676
569.56	3.517
569.90	4.098
570.24	3.541
570.57	3.560
570.91	3.552
571.25	3.732
571.59	3.980
571.92	3.891
572.26	3.970
572.60	3.877
572.93	4.203
573.27	3.540
573.61	3.759
573.95	4.054
574.28	3.808
574.62	3.638
574.96	3.595
575.29	3.591
575.63	3.696
575.97	4.144
576.30	3.726
576.64	3.770
576.98	3.804
577.31	3.701
577.65	3.714
577.98	3.652
578.32	3.567
578.66	3.505
578.99	3.236
579.33	3.691
579.67	3.672
580.00	4.001
580.34	3.839
580.67	3.795
581.01	3.592
581.35	3.896
581.68	3.815
582.02	3.697
582.35	3.897
582.69	3.472
583.02	3.794
583.36	3.656
583.70	3.499
584.03	3.480
584.37	4.048
584.70	3.790
585.04	3.650
585.37	3.668
585.71	3.560
586.04	3.941
586.38	3.575
586.72	3.384
587.05	3.402
587.39	3.590
587.72	3.780
588.06	3.989
588.39	3.958
588.73	3.466
589.06	3.894
589.40	3.565
589.73	3.599
590.07	3.614
590.40	3.922
590.73	3.747
591.07	4.319
591.40	3.849
591.74	3.378
592.07	4.182
592.41	3.707
592.74	4.082
593.08	3.917
593.41	4.199
593.75	3.678
594.08	3.635
594.41	3.846
594.75	3.819
595.08	3.735
595.42	3.799
595.75	3.681
596.09	3.999
596.42	3.798
596.75	3.744
597.09	3.879
597.42	3.814
597.75	3.881
598.09	4.008
598.42	4.463
598.76	3.439
599.09	3.774
599.42	3.755
599.76	3.698
600.09	3.971
600.42	4.171
600.76	3.633
601.09	3.784
601.42	3.913
601.76	3.862
602.09	3.610
602.42	3.272
602.76	4.059
603.09	3.341
603.42	3.974
603.76	3.629
604.09	4.507
604.42	3.743
604.76	3.653
605.09	3.949
605.42	3.987
605.75	4.077
606.09	3.621
606.42	3.283
606.75	3.823
607.09	3.533
607.42	4.239
607.75	3.400
608.08	3.946
608.42	3.950
608.75	3.524
609.08	3.565
609.41	3.308
609.75	3.661
610.08	3.694
610.41	3.611
610.74	4.034
611.07	3.464
611.41	4.215
611.74	3.695
612.07	3.880
612.40	3.755
612.73	3.325
613.07	3.912
613.40	4.139
613.73	3.852
614.06	3.876
614.39	3.547
614.72	3.639
615.06	4.090
615.39	3.335
615.72	3.744
616.05	3.885
616.38	3.734
616.71	4.336
617.05	3.674
617.38	4.013
617.71	3.834
618.04	3.832
618.37	4.153
618.70	3.620
619.03	3.166
619.36	3.453
619.69	3.331
620.03	3.515
620.36	3.436
620.69	3.640
621.02	4.593
621.35	3.556
621.68	4.049
622.01	4.199
622.34	3.417
622.67	3.849
623.00	2.901
623.33	4.313
623.66	4.345
623.99	3.752
624.32	4.613
624.65	3.346
624.99	4.226
625.32	4.376
625.65	3.978
625.98	3.729
626.31	3.473
626.64	3.956
626.97	2.926
627.30	2.354
627.63	3.601
627.96	4.580
628.29	4.358
628.62	3.191
628.95	3.418
629.28	2.124
629.61	4.545
629.94	3.849
630.26	3.814
630.59	3.195
630.92	3.550
631.25	4.651
631.58	4.049
631.91	3.655
632.24	3.266
632.57	4.080
632.90	3.912
633.23	3.673
633.56	2.755
633.89	3.409
634.22	4.574
634.55	3.862
634.88	4.437
635.20	5.274
635.53	2.486
635.86	4.550
636.19	5.090
636.52	5.169
636.85	4.903
637.18	3.846
637.51	4.194
637.83	5.094
638.16	4.724
638.49	4.343
638.82	4.510
639.15	3.093
639.48	4.850
639.81	5.081
640.13	5.065
640.46	2.545
640.79	3.676
641.12	3.975
641.45	4.015
641.77	5.135
642.10	3.018
642.43	5.053
642.76	3.930
643.09	2.603
643.41	2.941
643.74	4.966
644.07	4.000
644.40	4.102
644.73	3.193
645.05	3.818
645.38	4.748
645.71	4.692
646.04	4.591
646.36	3.650
646.69	3.528
647.02	5.963
647.35	5.649
647.67	2.899
648.00	3.025
648.33	3.754
648.66	4.850
648.98	2.993
649.31	3.248
649.64	3.984
649.96	4.377
650.29	2.782
650.62	5.233
650.94	2.252
651.27	4.641
651.60	5.409
651.92	3.799
652.25	3.907
652.58	4.127
652.90	3.052
653.23	4.507
653.56	4.708
653.88	5.478
654.21	3.380
654.54	3.902
654.86	3.824
655.19	2.509
655.52	3.990
655.84	3.681
656.17	4.029
656.49	5.679
656.82	6.439
657.15	4.889
