SpectraSuite Data File
++++++++++++++++++++++++++++++++++++
Date: Thu May 14 16:33:04 PDT 2015
User: schluterlab
Dark Spectrum Present: Yes
Reference Spectrum Present: Yes
Number of Sampled Component Spectra: 1
Spectrometers: USB2E3373
Integration Time (usec): 3000 (USB2E3373)
Spectra Averaged: 3 (USB2E3373)
Boxcar Smoothing: 0 (USB2E3373)
Correct for Electrical Dark: No (USB2E3373)
Strobe/Lamp Enabled: No (USB2E3373)
Correct for Detector Non-linearity: No (USB2E3373)
Correct for Stray Light: No (USB2E3373)
Number of Pixels in Processed Spectrum: 2048
>>>>>Begin Processed Spectral Data<<<<<
178.53	0.000
178.91	57.143
179.29	-800.000
179.67	-400.000
180.04	85.714
180.42	40.000
180.80	180.000
181.18	-1300.000
181.56	200.000
181.94	-0.000
182.31	150.000
182.69	400.000
183.07	-600.000
183.45	150.000
183.83	-116.667
184.20	0.000
184.58	900.000
184.96	-225.000
185.34	44.444
185.72	160.000
186.09	188.889
186.47	250.000
186.85	220.000
187.23	-33.333
187.61	-1100.000
187.98	20.000
188.36	300.000
188.74	25.000
189.12	-100.000
189.49	25.000
189.87	-37.500
190.25	55.556
190.63	60.000
191.00	-100.000
191.38	0.000
191.76	-175.000
192.14	-16.667
192.51	500.000
192.89	16.667
193.27	0.000
193.65	42.857
194.02	-1000.000
194.40	-14.286
194.78	200.000
195.15	0.000
195.53	9.091
195.91	0.000
196.29	75.000
196.66	53.846
197.04	-900.000
197.42	0.000
197.79	-100.000
198.17	-150.000
198.55	-114.286
198.92	-33.333
199.30	-12.500
199.68	9.091
200.05	35.714
200.43	-400.000
200.81	100.000
201.18	0.000
201.56	177.778
201.94	0.000
202.31	566.667
202.69	55.556
203.07	300.000
203.44	-22.222
203.82	-75.000
204.19	-41.667
204.57	-16.667
204.95	-87.500
205.32	-1000.000
205.70	225.000
206.08	-66.667
206.45	-33.333
206.83	260.000
207.20	16.667
207.58	-240.000
207.96	-116.667
208.33	100.000
208.71	16.667
209.08	-83.333
209.46	0.000
209.84	183.333
210.21	50.000
210.59	-50.000
210.96	266.667
211.34	-25.000
211.71	-137.500
212.09	-800.000
212.46	0.000
212.84	450.000
213.22	-80.000
213.59	-300.000
213.97	-30.000
214.34	-266.667
214.72	166.667
215.09	-150.000
215.47	0.000
215.84	185.714
216.22	850.000
216.59	20.000
216.97	20.000
217.34	-150.000
217.72	37.500
218.09	-150.000
218.47	-225.000
218.84	0.000
219.22	200.000
219.59	58.824
219.97	-5.000
220.34	550.000
220.72	-66.667
221.09	7.692
221.47	-100.000
221.84	-100.000
222.22	-42.857
222.59	0.000
222.97	-37.500
223.34	-180.000
223.72	400.000
224.09	-200.000
224.46	0.000
224.84	-100.000
225.21	-85.714
225.59	-100.000
225.96	-75.000
226.34	11.538
226.71	216.667
227.08	-300.000
227.46	46.667
227.83	-75.000
228.21	26.316
228.58	125.000
228.95	500.000
229.33	16.667
229.70	-30.000
230.08	42.105
230.45	70.000
230.82	133.333
231.20	-42.857
231.57	50.000
231.95	81.818
232.32	18.182
232.69	30.000
233.07	-225.000
233.44	-52.941
233.81	-40.000
234.19	16.667
234.56	4.545
234.93	0.000
235.31	10.526
235.68	22.222
236.05	-50.000
236.43	30.769
236.80	36.000
237.17	22.222
237.55	6.061
237.92	-140.000
238.29	-19.355
238.67	-11.364
239.04	-22.222
239.41	-4.762
239.79	6.522
240.16	1.852
240.53	-15.217
240.91	1.961
241.28	3.279
241.65	16.418
242.02	6.757
242.40	-13.846
242.77	-1.333
243.14	-2.439
243.51	-11.842
243.89	-10.256
244.26	5.941
244.63	0.980
245.00	1.869
245.38	2.632
245.75	-13.274
246.12	-3.968
246.49	-7.752
246.87	0.000
247.24	5.298
247.61	3.947
247.98	-0.671
248.36	0.617
248.73	-1.227
249.10	-2.732
249.47	4.975
249.84	5.236
250.22	2.591
250.59	-2.778
250.96	6.364
251.33	-4.082
251.70	4.274
252.08	5.417
252.45	3.279
252.82	0.000
253.19	-1.953
253.56	9.886
253.94	-0.385
254.31	3.030
254.68	1.049
255.05	4.560
255.42	-1.020
255.79	-0.971
256.16	0.000
256.54	1.325
256.91	0.656
257.28	0.000
257.65	-0.318
258.02	0.000
258.39	0.285
258.76	1.835
259.14	0.575
259.51	1.153
259.88	-1.133
260.25	0.000
260.62	1.096
260.99	3.825
261.36	2.949
261.73	1.061
262.10	0.824
262.47	1.072
262.85	4.293
263.22	-0.260
263.59	-5.000
263.96	1.535
264.33	0.256
264.70	-0.988
265.07	0.239
265.44	3.855
265.81	0.926
266.18	0.907
266.55	0.670
266.92	-0.911
267.29	3.282
267.66	-0.443
268.03	0.437
268.40	1.670
268.77	-2.278
269.14	-2.423
269.51	0.000
269.88	2.664
270.25	0.402
270.62	1.688
270.99	2.828
271.36	4.752
271.73	0.786
272.10	0.401
272.47	0.401
272.84	2.209
273.21	1.804
273.58	-0.403
273.95	1.538
274.32	-0.190
274.69	-0.580
275.06	1.099
275.43	0.739
275.80	2.116
276.17	-2.407
276.54	-0.373
276.91	0.179
277.28	2.893
277.65	2.513
278.02	1.471
278.39	-0.362
278.76	-0.176
279.13	-0.355
279.50	1.375
279.87	2.147
280.23	-1.056
280.60	2.881
280.97	1.974
281.34	0.170
281.71	2.200
282.08	0.332
282.45	-0.327
282.82	1.256
283.19	-1.777
283.56	0.000
283.92	3.153
284.29	1.738
284.66	0.000
285.03	0.160
285.40	1.546
285.77	0.619
286.14	1.527
286.51	0.913
286.87	0.948
287.24	1.205
287.61	0.149
287.98	0.302
288.35	0.148
288.72	1.331
289.08	1.903
289.45	0.000
289.82	-0.452
290.19	2.155
290.56	2.254
290.93	1.427
291.29	0.964
291.66	1.928
292.03	0.678
292.40	1.905
292.77	1.213
293.13	0.406
293.50	1.051
293.87	2.013
294.24	2.133
294.60	2.276
294.97	-0.403
295.34	2.561
295.71	1.513
296.08	0.517
296.44	0.735
296.81	0.609
297.18	0.747
297.55	1.887
297.91	0.474
298.28	0.000
298.65	1.189
299.02	0.708
299.38	1.831
299.75	1.519
300.12	0.810
300.48	0.000
300.85	2.025
301.22	1.454
301.59	0.571
301.95	0.565
302.32	1.556
302.69	2.081
303.05	1.850
303.42	1.109
303.79	1.458
304.15	1.682
304.52	1.374
304.89	1.990
305.25	2.795
305.62	1.254
305.99	1.959
306.35	2.117
306.72	2.275
307.09	1.218
307.45	1.656
307.82	2.018
308.19	1.009
308.55	2.989
308.92	1.558
309.29	2.299
309.65	1.949
310.02	1.683
310.38	2.559
310.75	2.913
311.12	2.493
311.48	0.978
311.85	2.374
312.22	1.613
312.58	1.878
312.95	2.772
313.31	2.620
313.68	3.663
314.05	3.975
314.41	3.825
314.78	3.361
315.14	3.902
315.51	2.862
315.87	3.960
316.24	4.110
316.61	4.707
316.97	3.710
317.34	3.704
317.70	4.454
318.07	3.704
318.43	4.677
318.80	4.599
319.16	3.863
319.53	2.828
319.89	2.892
320.26	4.270
320.62	4.610
320.99	4.432
321.35	4.067
321.72	4.558
322.08	4.689
322.45	5.239
322.81	3.881
323.18	4.425
323.54	5.345
323.91	4.004
324.27	5.250
324.64	5.626
325.00	3.648
325.37	5.405
325.73	5.455
326.10	5.191
326.46	5.700
326.83	5.444
327.19	6.299
327.56	5.850
327.92	5.035
328.29	5.161
328.65	5.193
329.01	5.245
329.38	5.644
329.74	6.592
330.11	5.651
330.47	5.897
330.84	5.771
331.20	4.917
331.56	5.199
331.93	5.607
332.29	5.763
332.66	5.980
333.02	5.193
333.38	4.614
333.75	6.229
334.11	5.505
334.48	6.106
334.84	5.607
335.20	5.290
335.57	6.155
335.93	6.364
336.29	5.491
336.66	4.878
337.02	5.769
337.38	5.782
337.75	5.289
338.11	5.887
338.47	5.294
338.84	5.922
339.20	4.128
339.56	6.013
339.93	5.419
340.29	6.441
340.65	5.596
341.02	5.826
341.38	5.821
341.74	5.730
342.11	6.195
342.47	4.845
342.83	5.395
343.20	6.132
343.56	5.694
343.92	4.884
344.28	5.547
344.65	5.426
345.01	5.928
345.37	5.443
345.73	4.365
346.10	6.006
346.46	6.250
346.82	5.393
347.19	5.730
347.55	6.070
347.91	5.275
348.27	5.311
348.63	4.874
349.00	5.891
349.36	6.022
349.72	5.506
350.08	5.201
350.45	5.171
350.81	5.204
351.17	6.466
351.53	5.459
351.89	6.226
352.26	5.224
352.62	5.672
352.98	5.496
353.34	5.676
353.70	4.237
354.07	6.036
354.43	5.391
354.79	5.161
355.15	5.519
355.51	6.067
355.87	5.610
356.24	5.095
356.60	5.691
356.96	4.893
357.32	4.833
357.68	4.978
358.04	4.566
358.40	5.075
358.77	5.629
359.13	4.874
359.49	4.164
359.85	5.149
360.21	5.739
360.57	4.953
360.93	5.430
361.29	5.404
361.66	6.010
362.02	6.263
362.38	5.552
362.74	5.517
363.10	6.259
363.46	5.748
363.82	4.901
364.18	4.926
364.54	5.533
364.90	5.552
365.26	5.172
365.62	5.933
365.98	5.786
366.35	6.174
366.71	5.646
367.07	5.210
367.43	6.763
367.79	6.105
368.15	6.421
368.51	7.307
368.87	6.466
369.23	6.200
369.59	5.943
369.95	6.761
370.31	5.672
370.67	5.846
371.03	6.856
371.39	5.104
371.75	6.190
372.11	5.962
372.47	5.484
372.83	6.741
373.19	6.805
373.55	6.572
373.91	6.067
374.27	5.886
374.63	6.631
374.99	5.769
375.35	6.494
375.71	5.548
376.07	5.810
376.42	5.982
376.78	6.712
377.14	6.488
377.50	6.641
377.86	6.897
378.22	6.766
378.58	6.599
378.94	7.336
379.30	6.971
379.66	6.937
380.02	6.405
380.38	6.682
380.74	6.648
381.09	6.156
381.45	6.591
381.81	6.909
382.17	6.651
382.53	6.550
382.89	7.901
383.25	6.975
383.61	6.713
383.97	6.773
384.32	6.938
384.68	6.032
385.04	7.230
385.40	7.071
385.76	7.210
386.12	7.660
386.48	7.118
386.83	6.973
387.19	6.837
387.55	7.336
387.91	6.792
388.27	7.852
388.62	6.930
388.98	7.558
389.34	7.307
389.70	7.031
390.06	6.454
390.42	7.229
390.77	7.947
391.13	7.042
391.49	7.669
391.85	6.788
392.20	7.355
392.56	7.265
392.92	7.361
393.28	7.850
393.64	6.760
393.99	7.612
394.35	7.009
394.71	7.605
395.07	6.168
395.42	6.682
395.78	7.252
396.14	7.427
396.50	6.888
396.85	6.798
397.21	6.095
397.57	7.185
397.92	7.216
398.28	6.790
398.64	7.037
399.00	6.806
399.35	7.382
399.71	7.772
400.07	7.131
400.42	6.810
400.78	6.944
401.14	7.740
401.49	7.106
401.85	6.860
402.21	6.547
402.57	7.746
402.92	7.033
403.28	5.972
403.63	6.086
403.99	6.710
404.35	6.538
404.70	7.195
405.06	7.065
405.42	6.733
405.77	7.688
406.13	6.969
406.49	7.151
406.84	7.202
407.20	6.931
407.55	6.299
407.91	6.914
408.27	7.067
408.62	7.272
408.98	7.313
409.34	6.569
409.69	6.984
410.05	6.448
410.40	7.135
410.76	7.123
411.11	7.539
411.47	6.695
411.83	6.761
412.18	7.410
412.54	7.469
412.89	6.228
413.25	6.603
413.60	6.663
413.96	7.168
414.31	6.856
414.67	6.917
415.03	7.446
415.38	5.864
415.74	6.720
416.09	6.539
416.45	7.076
416.80	6.426
417.16	6.513
417.51	7.285
417.87	6.744
418.22	6.347
418.58	6.568
418.93	7.218
419.29	7.152
419.64	6.963
420.00	6.053
420.35	6.794
420.71	7.065
421.06	5.980
421.42	6.823
421.77	6.785
422.12	6.871
422.48	6.656
422.83	7.065
423.19	6.737
423.54	6.748
423.90	6.792
424.25	6.987
424.61	6.315
424.96	6.480
425.31	6.369
425.67	6.227
426.02	6.032
426.38	6.429
426.73	6.138
427.09	6.920
427.44	6.554
427.79	5.362
428.15	6.735
428.50	6.067
428.85	6.085
429.21	6.968
429.56	5.775
429.92	6.192
430.27	6.554
430.62	6.155
430.98	5.952
431.33	6.305
431.68	5.699
432.04	6.044
432.39	5.410
432.74	6.279
433.10	5.895
433.45	5.797
433.80	5.955
434.16	6.147
434.51	6.115
434.86	6.623
435.22	6.536
435.57	6.250
435.92	6.177
436.28	5.575
436.63	5.789
436.98	6.388
437.34	6.144
437.69	6.109
438.04	5.658
438.39	6.031
438.75	5.368
439.10	6.607
439.45	6.260
439.81	5.480
440.16	5.845
440.51	6.633
440.86	6.003
441.22	6.163
441.57	5.975
441.92	6.256
442.27	6.061
442.63	6.210
442.98	5.923
443.33	6.365
443.68	6.343
444.03	6.068
444.39	6.565
444.74	6.075
445.09	6.031
445.44	6.217
445.79	6.034
446.15	5.807
446.50	5.891
446.85	6.323
447.20	6.286
447.55	6.485
447.91	6.073
448.26	5.233
448.61	6.536
448.96	6.491
449.31	6.257
449.66	5.556
450.02	6.646
450.37	5.914
450.72	6.028
451.07	5.866
451.42	5.893
451.77	6.115
452.12	6.208
452.47	5.942
452.83	5.518
453.18	5.546
453.53	4.767
453.88	5.964
454.23	5.763
454.58	5.398
454.93	5.340
455.28	5.900
455.63	5.912
455.98	6.257
456.34	6.302
456.69	5.761
457.04	6.206
457.39	6.098
457.74	5.872
458.09	5.931
458.44	6.304
458.79	5.467
459.14	5.926
459.49	5.376
459.84	5.352
460.19	5.275
460.54	6.076
460.89	5.506
461.24	5.115
461.59	6.309
461.94	5.134
462.29	6.159
462.64	5.673
462.99	5.461
463.34	5.970
463.69	6.506
464.04	5.559
464.39	5.325
464.74	6.157
465.09	5.767
465.44	5.526
465.79	6.452
466.14	5.836
466.49	5.421
466.84	5.289
467.19	5.896
467.54	4.700
467.89	5.230
468.24	5.928
468.59	4.864
468.94	5.070
469.29	5.579
469.64	5.086
469.99	5.163
470.34	5.322
470.68	4.785
471.03	5.370
471.38	5.298
471.73	4.616
472.08	4.949
472.43	5.358
472.78	5.730
473.13	5.247
473.48	5.801
473.83	5.920
474.17	5.334
474.52	5.111
474.87	5.537
475.22	5.352
475.57	5.400
475.92	5.426
476.27	5.431
476.61	5.244
476.96	4.901
477.31	5.594
477.66	6.243
478.01	5.389
478.36	5.484
478.70	5.369
479.05	5.675
479.40	5.133
479.75	6.052
480.10	5.258
480.45	5.333
480.79	5.488
481.14	5.009
481.49	5.361
481.84	5.527
482.19	5.032
482.53	5.859
482.88	4.918
483.23	5.202
483.58	4.672
483.92	4.566
484.27	5.165
484.62	5.033
484.97	5.560
485.31	4.822
485.66	4.888
486.01	4.875
486.36	4.929
486.70	5.331
487.05	5.230
487.40	5.178
487.75	4.962
488.09	5.410
488.44	4.655
488.79	5.126
489.13	4.996
489.48	4.427
489.83	5.191
490.17	4.617
490.52	4.639
490.87	4.949
491.22	3.986
491.56	4.863
491.91	4.797
492.26	4.630
492.60	4.766
492.95	4.958
493.30	4.169
493.64	4.424
493.99	4.737
494.34	4.268
494.68	4.240
495.03	4.361
495.37	4.350
495.72	4.762
496.07	4.996
496.41	4.118
496.76	4.379
497.11	4.076
497.45	4.014
497.80	5.064
498.14	4.626
498.49	4.274
498.84	4.388
499.18	4.588
499.53	4.664
499.87	4.923
500.22	3.918
500.56	4.363
500.91	4.073
501.26	5.045
501.60	4.463
501.95	4.472
502.29	4.563
502.64	4.329
502.98	4.961
503.33	4.190
503.67	3.838
504.02	4.072
504.36	4.245
504.71	4.088
505.06	4.138
505.40	3.885
505.75	4.144
506.09	4.650
506.44	4.364
506.78	4.817
507.13	4.518
507.47	4.737
507.82	4.640
508.16	3.728
508.51	4.126
508.85	4.299
509.19	3.884
509.54	4.131
509.88	4.128
510.23	4.322
510.57	4.978
510.92	4.112
511.26	3.944
511.61	3.235
511.95	4.100
512.30	4.136
512.64	3.998
512.98	4.202
513.33	4.183
513.67	4.589
514.02	3.986
514.36	3.887
514.70	4.115
515.05	3.910
515.39	4.409
515.74	5.143
516.08	3.962
516.42	5.181
516.77	3.996
517.11	4.074
517.46	4.454
517.80	4.436
518.14	4.625
518.49	5.315
518.83	4.737
519.17	4.039
519.52	4.665
519.86	4.646
520.20	4.686
520.55	3.998
520.89	4.279
521.23	4.188
521.58	4.463
521.92	3.796
522.26	3.666
522.61	4.340
522.95	4.960
523.29	4.023
523.64	4.596
523.98	4.678
524.32	4.642
524.66	4.382
525.01	3.794
525.35	3.561
525.69	3.596
526.04	4.191
526.38	3.793
526.72	4.614
527.06	4.457
527.41	4.257
527.75	3.919
528.09	4.250
528.43	4.026
528.78	3.815
529.12	4.243
529.46	3.654
529.80	4.062
530.15	4.580
530.49	3.499
530.83	4.250
531.17	3.943
531.51	4.513
531.86	4.026
532.20	4.390
532.54	3.710
532.88	3.697
533.22	3.889
533.57	4.155
533.91	4.040
534.25	4.070
534.59	3.736
534.93	3.169
535.27	3.549
535.62	4.775
535.96	4.590
536.30	3.878
536.64	3.844
536.98	4.367
537.32	4.630
537.66	4.679
538.01	4.048
538.35	3.350
538.69	3.425
539.03	4.108
539.37	4.299
539.71	4.144
540.05	3.897
540.39	3.790
540.73	4.311
541.07	4.353
541.42	4.017
541.76	3.381
542.10	3.739
542.44	3.167
542.78	3.406
543.12	3.635
543.46	3.846
543.80	3.897
544.14	3.890
544.48	3.901
544.82	4.069
545.16	4.114
545.50	4.014
545.84	3.552
546.18	3.580
546.52	3.567
546.86	3.899
547.20	3.817
547.54	3.745
547.88	3.797
548.22	3.977
548.56	3.920
548.90	3.582
549.24	3.769
549.58	3.975
549.92	3.699
550.26	3.560
550.60	3.957
550.94	4.075
551.28	4.158
551.62	3.706
551.96	4.078
552.30	4.461
552.64	3.920
552.98	4.117
553.32	3.794
553.66	3.666
554.00	3.846
554.34	3.411
554.68	3.422
555.02	2.825
555.36	4.076
555.69	3.844
556.03	3.405
556.37	3.755
556.71	3.932
557.05	3.834
557.39	2.721
557.73	3.765
558.07	3.642
558.41	3.920
558.75	3.584
559.08	3.549
559.42	3.018
559.76	4.274
560.10	3.684
560.44	3.628
560.78	4.312
561.12	4.002
561.45	3.710
561.79	3.541
562.13	4.128
562.47	3.268
562.81	2.975
563.15	3.283
563.48	3.356
563.82	3.265
564.16	3.574
564.50	3.278
564.84	3.540
565.17	4.000
565.51	3.395
565.85	3.563
566.19	3.111
566.52	3.745
566.86	2.999
567.20	3.589
567.54	3.505
567.88	3.976
568.21	3.903
568.55	3.118
568.89	3.631
569.23	3.507
569.56	3.673
569.90	3.386
570.24	3.676
570.57	3.624
570.91	3.215
571.25	3.616
571.59	3.702
571.92	3.412
572.26	3.520
572.60	3.467
572.93	3.729
573.27	3.203
573.61	3.891
573.95	3.423
574.28	3.831
574.62	3.433
574.96	3.463
575.29	3.459
575.63	3.511
575.97	3.329
576.30	3.800
576.64	3.484
576.98	3.576
577.31	3.219
577.65	3.859
577.98	3.445
578.32	3.254
578.66	3.242
578.99	3.277
579.33	3.446
579.67	3.422
580.00	3.349
580.34	3.578
580.67	3.199
581.01	3.289
581.35	3.468
581.68	3.585
582.02	3.371
582.35	3.584
582.69	3.199
583.02	3.495
583.36	3.368
583.70	3.363
584.03	3.192
584.37	3.407
584.70	3.032
585.04	3.139
585.37	3.380
585.71	3.279
586.04	3.280
586.38	3.435
586.72	3.083
587.05	2.942
587.39	3.291
587.72	3.158
588.06	3.482
588.39	3.535
588.73	3.386
589.06	3.301
589.40	3.073
589.73	3.567
590.07	3.282
590.40	3.753
590.73	3.676
591.07	3.388
591.40	2.605
591.74	2.703
592.07	3.492
592.41	3.312
592.74	2.982
593.08	3.439
593.41	3.733
593.75	3.276
594.08	3.332
594.41	3.269
594.75	3.255
595.08	3.028
595.42	3.149
595.75	3.035
596.09	3.253
596.42	3.081
596.75	3.396
597.09	3.717
597.42	2.741
597.75	3.254
598.09	3.373
598.42	3.579
598.76	3.133
599.09	3.240
599.42	3.118
599.76	3.599
600.09	3.303
600.42	3.370
600.76	3.468
601.09	3.186
601.42	3.261
601.76	3.069
602.09	3.074
602.42	3.017
602.76	3.173
603.09	3.084
603.42	3.324
603.76	2.748
604.09	3.655
604.42	3.193
604.76	2.968
605.09	3.550
605.42	2.990
605.75	2.962
606.09	2.874
606.42	3.138
606.75	3.223
607.09	3.072
607.42	3.237
607.75	3.243
608.08	3.473
608.42	3.305
608.75	3.400
609.08	2.929
609.41	3.264
609.75	3.125
610.08	3.210
610.41	2.846
610.74	2.647
611.07	2.798
611.41	3.453
611.74	3.233
612.07	3.086
612.40	3.327
612.73	2.787
613.07	3.521
613.40	3.272
613.73	2.937
614.06	3.337
614.39	2.672
614.72	3.105
615.06	2.936
615.39	2.803
615.72	2.986
616.05	3.108
616.38	3.330
616.71	3.135
617.05	2.875
617.38	3.959
617.71	3.780
618.04	3.562
618.37	3.333
618.70	3.450
619.03	3.226
619.36	2.589
619.69	2.691
620.03	2.825
620.36	3.129
620.69	2.529
621.02	2.953
621.35	3.193
621.68	3.326
622.01	2.491
622.34	2.999
622.67	3.230
623.00	1.889
623.33	3.517
623.66	3.243
623.99	2.238
624.32	3.834
624.65	2.703
624.99	3.121
625.32	3.854
625.65	2.900
625.98	2.644
626.31	3.189
626.64	2.857
626.97	3.301
627.30	1.898
627.63	3.451
627.96	3.453
628.29	3.113
628.62	2.351
628.95	2.103
629.28	2.379
629.61	2.946
629.94	2.343
630.26	3.475
630.59	3.109
630.92	2.771
631.25	3.846
631.58	3.390
631.91	1.781
632.24	2.786
632.57	3.605
632.90	2.608
633.23	2.755
633.56	2.857
633.89	3.202
634.22	2.495
634.55	2.818
634.88	2.597
635.20	5.167
635.53	2.373
635.86	3.034
636.19	4.242
636.52	4.008
636.85	2.758
637.18	2.599
637.51	3.548
637.83	3.654
638.16	2.419
638.49	3.052
638.82	2.480
639.15	2.291
639.48	3.002
639.81	4.042
640.13	2.827
640.46	2.182
640.79	2.696
641.12	3.478
641.45	1.631
641.77	4.878
642.10	3.150
642.43	3.059
642.76	3.252
643.09	3.014
643.41	2.801
643.74	3.448
644.07	2.897
644.40	0.707
644.73	1.306
645.05	2.203
645.38	3.453
645.71	3.666
646.04	3.587
646.36	1.898
646.69	2.761
647.02	4.740
647.35	2.748
647.67	3.543
648.00	2.548
648.33	3.904
648.66	3.281
648.98	2.449
649.31	3.248
649.64	3.851
649.96	4.244
650.29	1.113
650.62	2.122
650.94	0.901
651.27	1.647
651.60	2.047
651.92	2.128
652.25	3.039
652.58	3.714
652.90	1.308
653.23	3.380
653.56	4.280
653.88	3.792
654.21	3.662
654.54	2.023
654.86	2.833
655.19	2.635
655.52	3.192
655.84	2.875
656.17	3.520
656.49	5.051
656.82	5.464
657.15	4.218
657.47	3.248
657.80	2.409
658.13	1.874
658.45	2.563
658.78	3.165
659.10	2.787
