SpectraSuite Data File
++++++++++++++++++++++++++++++++++++
Date: Thu May 14 16:32:53 PDT 2015
User: schluterlab
Dark Spectrum Present: Yes
Reference Spectrum Present: Yes
Number of Sampled Component Spectra: 1
Spectrometers: USB2E3373
Integration Time (usec): 3000 (USB2E3373)
Spectra Averaged: 3 (USB2E3373)
Boxcar Smoothing: 0 (USB2E3373)
Correct for Electrical Dark: No (USB2E3373)
Strobe/Lamp Enabled: No (USB2E3373)
Correct for Detector Non-linearity: No (USB2E3373)
Correct for Stray Light: No (USB2E3373)
Number of Pixels in Processed Spectrum: 2048
>>>>>Begin Processed Spectral Data<<<<<
178.53	0.000
178.91	57.143
179.29	-1200.000
179.67	-300.000
180.04	135.714
180.42	-0.000
180.80	200.000
181.18	-900.000
181.56	1000.000
181.94	75.000
182.31	0.000
182.69	233.333
183.07	-50.000
183.45	-25.000
183.83	-116.667
184.20	0.000
184.58	300.000
184.96	-25.000
185.34	-22.222
185.72	80.000
186.09	77.778
186.47	250.000
186.85	280.000
187.23	-77.778
187.61	-500.000
187.98	120.000
188.36	125.000
188.74	50.000
189.12	100.000
189.49	-6.250
189.87	-62.500
190.25	22.222
190.63	-20.000
191.00	-44.444
191.38	0.000
191.76	-75.000
192.14	-116.667
192.51	100.000
192.89	116.667
193.27	0.000
193.65	-14.286
194.02	-400.000
194.40	0.000
194.78	14.286
195.15	0.000
195.53	27.273
195.91	0.000
196.29	175.000
196.66	-38.462
197.04	100.000
197.42	28.571
197.79	-400.000
198.17	-25.000
198.55	-14.286
198.92	11.111
199.30	12.500
199.68	145.455
200.05	35.714
200.43	-500.000
200.81	171.429
201.18	0.000
201.56	233.333
201.94	0.000
202.31	266.667
202.69	-144.444
203.07	-200.000
203.44	33.333
203.82	-50.000
204.19	83.333
204.57	-100.000
204.95	-12.500
205.32	-300.000
205.70	125.000
206.08	0.000
206.45	83.333
206.83	200.000
207.20	-16.667
207.58	-100.000
207.96	-100.000
208.33	50.000
208.71	-8.333
209.08	66.667
209.46	0.000
209.84	133.333
210.21	500.000
210.59	300.000
210.96	-0.000
211.34	-200.000
211.71	0.000
212.09	-400.000
212.46	0.000
212.84	100.000
213.22	-140.000
213.59	25.000
213.97	30.000
214.34	-233.333
214.72	100.000
215.09	-225.000
215.47	0.000
215.84	14.286
216.22	550.000
216.59	20.000
216.97	40.000
217.34	50.000
217.72	62.500
218.09	75.000
218.47	-75.000
218.84	0.000
219.22	-100.000
219.59	17.647
219.97	50.000
220.34	200.000
220.72	-55.556
221.09	30.769
221.47	-133.333
221.84	20.000
222.22	-128.571
222.59	0.000
222.97	62.500
223.34	-160.000
223.72	100.000
224.09	-175.000
224.46	-125.000
224.84	340.000
225.21	-28.571
225.59	-50.000
225.96	0.000
226.34	26.923
226.71	116.667
227.08	-450.000
227.46	53.333
227.83	200.000
228.21	47.368
228.58	62.500
228.95	450.000
229.33	25.000
229.70	-10.000
230.08	52.632
230.45	210.000
230.82	100.000
231.20	28.571
231.57	75.000
231.95	0.000
232.32	-27.273
232.69	20.000
233.07	75.000
233.44	35.294
233.81	40.000
234.19	44.444
234.56	59.091
234.93	55.172
235.31	10.526
235.68	22.222
236.05	20.000
236.43	30.769
236.80	64.000
237.17	14.815
237.55	12.121
237.92	10.000
238.29	-25.806
238.67	36.364
239.04	47.222
239.41	16.667
239.79	39.130
240.16	35.185
240.53	56.522
240.91	7.843
241.28	44.262
241.65	35.821
242.02	36.486
242.40	44.615
242.77	36.000
243.14	35.366
243.51	31.579
243.89	32.051
244.26	33.663
244.63	32.353
245.00	32.710
245.38	32.456
245.75	26.549
246.12	34.921
246.49	29.457
246.87	35.000
247.24	27.815
247.61	34.211
247.98	37.584
248.36	40.123
248.73	34.356
249.10	31.694
249.47	35.323
249.84	41.885
250.22	32.642
250.59	43.889
250.96	33.182
251.33	31.122
251.70	35.043
252.08	36.667
252.45	33.607
252.82	30.992
253.19	33.594
253.56	39.163
253.94	31.923
254.31	37.500
254.68	33.916
255.05	35.505
255.42	35.374
255.79	27.832
256.16	33.113
256.54	35.762
256.91	34.426
257.28	32.787
257.65	29.936
258.02	31.858
258.39	31.909
258.76	36.697
259.14	36.782
259.51	34.582
259.88	34.844
260.25	34.444
260.62	31.507
260.99	33.607
261.36	36.997
261.73	33.422
262.10	34.890
262.47	34.316
262.85	36.111
263.22	29.091
263.59	31.842
263.96	34.783
264.33	35.806
264.70	34.815
265.07	36.038
265.44	36.735
265.81	33.565
266.18	35.374
266.55	37.054
266.92	33.257
267.29	36.761
267.66	33.481
268.03	34.934
268.40	32.985
268.77	34.396
269.14	34.141
269.51	33.333
269.88	35.861
270.25	32.596
270.62	34.388
270.99	35.556
271.36	32.871
271.73	33.792
272.10	36.473
272.47	34.870
272.84	31.727
273.21	33.667
273.58	36.089
273.95	33.654
274.32	34.411
274.69	34.236
275.06	33.516
275.43	32.902
275.80	34.039
276.17	33.704
276.54	33.769
276.91	31.306
277.28	32.550
277.65	35.907
278.02	31.985
278.39	34.964
278.76	35.325
279.13	34.574
279.50	33.849
279.87	32.021
280.23	29.401
280.60	35.593
280.97	31.579
281.34	34.126
281.71	35.195
282.08	34.219
282.45	34.043
282.82	33.281
283.19	32.795
283.56	33.115
283.92	36.937
284.29	36.019
284.66	36.289
285.03	31.891
285.40	33.230
285.77	35.449
286.14	33.282
286.51	36.073
286.87	33.175
287.24	34.488
287.61	35.575
287.98	33.988
288.35	35.059
288.72	34.763
289.08	35.432
289.45	32.692
289.82	33.886
290.19	37.356
290.56	34.930
290.93	36.091
291.29	33.884
291.66	34.022
292.03	32.700
292.40	37.143
292.77	34.232
293.13	34.371
293.50	34.560
293.87	33.289
294.24	36.667
294.60	34.134
294.97	33.826
295.34	36.620
295.71	31.778
296.08	33.592
296.44	34.436
296.81	34.592
297.18	35.492
297.55	34.552
297.91	33.808
298.28	32.820
298.65	33.650
299.02	33.884
299.38	33.524
299.75	32.593
300.12	33.333
300.48	34.793
300.85	33.746
301.22	33.893
301.59	34.817
301.95	32.768
302.32	36.000
302.69	33.954
303.05	34.712
303.42	33.038
303.79	34.583
304.15	36.488
304.52	34.778
304.89	33.613
305.25	35.507
305.62	34.901
305.99	34.845
306.35	35.181
306.72	35.677
307.09	35.228
307.45	36.232
307.82	36.428
308.19	36.731
308.55	36.355
308.92	36.417
309.29	36.590
309.65	36.355
310.02	36.931
310.38	36.811
310.75	36.117
311.12	38.063
311.48	37.341
311.85	36.752
312.22	38.425
312.58	38.028
312.95	37.667
313.31	38.573
313.68	38.187
314.05	38.663
314.41	39.891
314.78	38.147
315.14	40.381
315.51	39.797
315.87	40.054
316.24	41.279
316.61	40.853
316.97	39.638
317.34	41.005
317.70	41.485
318.07	39.947
318.43	40.391
318.80	41.388
319.16	40.343
319.53	40.189
319.89	41.192
320.26	41.459
320.62	42.021
320.99	42.475
321.35	42.884
321.72	44.651
322.08	44.635
322.45	45.348
322.81	45.217
323.18	45.664
323.54	46.466
323.91	47.153
324.27	47.160
324.64	48.950
325.00	47.595
325.37	49.877
325.73	51.157
326.10	51.744
326.46	52.199
326.83	53.723
327.19	53.780
327.56	53.913
327.92	53.344
328.29	52.823
328.65	52.513
329.01	53.807
329.38	54.591
329.74	54.623
330.11	56.164
330.47	53.917
330.84	54.953
331.20	54.667
331.56	57.019
331.93	54.226
332.29	55.000
332.66	54.734
333.02	53.099
333.38	56.040
333.75	55.387
334.11	56.297
334.48	55.033
334.84	55.735
335.20	54.828
335.57	56.071
335.93	55.950
336.29	52.912
336.66	55.257
337.02	55.853
337.38	54.252
337.75	52.149
338.11	55.509
338.47	55.335
338.84	53.384
339.20	54.844
339.56	53.707
339.93	52.709
340.29	52.657
340.65	52.717
341.02	54.429
341.38	53.840
341.74	54.399
342.11	53.178
342.47	51.628
342.83	54.589
343.20	53.639
343.56	53.729
343.92	52.762
344.28	53.750
344.65	54.806
345.01	52.730
345.37	53.344
345.73	52.611
346.10	53.978
346.46	54.035
346.82	52.360
347.19	52.330
347.55	54.097
347.91	52.452
348.27	51.290
348.63	51.028
349.00	51.976
349.36	52.416
349.72	51.637
350.08	53.789
350.45	51.787
350.81	50.980
351.17	52.030
351.53	52.767
351.89	51.557
352.26	50.970
352.62	51.194
352.98	52.290
353.34	51.008
353.70	51.618
354.07	51.565
354.43	53.075
354.79	51.907
355.15	50.478
355.51	52.120
355.87	52.281
356.24	51.711
356.60	51.737
356.96	52.039
357.32	51.450
357.68	52.196
358.04	52.246
358.40	51.642
358.77	53.070
359.13	51.329
359.49	50.855
359.85	52.429
360.21	50.143
360.57	50.395
360.93	50.987
361.29	52.561
361.66	51.919
362.02	52.749
362.38	52.003
362.74	52.514
363.10	52.201
363.46	53.393
363.82	51.349
364.18	52.569
364.54	52.351
364.90	53.043
365.26	51.931
365.62	51.333
365.98	51.940
366.35	52.349
366.71	52.041
367.07	51.556
367.43	51.806
367.79	53.616
368.15	52.441
368.51	51.962
368.87	51.078
369.23	51.867
369.59	53.962
369.95	52.130
370.31	52.262
370.67	52.476
371.03	51.870
371.39	51.645
371.75	53.301
372.11	53.726
372.47	52.810
372.83	52.552
373.19	52.168
373.55	52.033
373.91	52.965
374.27	52.199
374.63	54.060
374.99	52.387
375.35	53.377
375.71	54.000
376.07	53.454
376.42	52.519
376.78	53.076
377.14	52.776
377.50	53.763
377.86	52.894
378.22	54.371
378.58	53.210
378.94	53.345
379.30	52.490
379.66	53.616
380.02	54.357
380.38	54.724
380.74	53.859
381.09	54.588
381.45	54.432
381.81	54.450
382.17	54.097
382.53	53.801
382.89	52.765
383.25	54.865
383.61	55.556
383.97	54.064
384.32	56.220
384.68	54.524
385.04	55.523
385.40	56.806
385.76	55.041
386.12	54.997
386.48	55.529
386.83	56.377
387.19	54.519
387.55	56.103
387.91	55.651
388.27	55.139
388.62	55.326
388.98	54.766
389.34	55.451
389.70	55.433
390.06	54.056
390.42	55.723
390.77	56.653
391.13	55.869
391.49	55.435
391.85	55.394
392.20	55.931
392.56	55.523
392.92	56.107
393.28	56.108
393.64	55.140
393.99	55.433
394.35	57.593
394.71	57.066
395.07	55.569
395.42	55.226
395.78	58.074
396.14	57.041
396.50	57.067
396.85	56.530
397.21	55.740
397.57	57.420
397.92	57.446
398.28	57.197
398.64	56.350
399.00	55.131
399.35	57.487
399.71	57.228
400.07	57.327
400.42	57.509
400.78	56.597
401.14	57.826
401.49	56.794
401.85	57.209
402.21	58.285
402.57	58.275
402.92	57.565
403.28	56.089
403.63	57.518
403.99	58.076
404.35	56.453
404.70	56.487
405.06	56.196
405.42	57.084
405.77	59.215
406.13	57.212
406.49	58.164
406.84	58.116
407.20	57.462
407.55	57.420
407.91	57.448
408.27	56.714
408.62	58.581
408.98	57.806
409.34	57.537
409.69	58.220
410.05	58.734
410.40	58.643
410.76	57.992
411.11	59.965
411.47	59.275
411.83	59.259
412.18	59.639
412.54	57.380
412.89	58.847
413.25	58.126
413.60	57.725
413.96	58.100
414.31	57.507
414.67	57.841
415.03	57.600
415.38	58.953
415.74	57.666
416.09	58.791
416.45	58.234
416.80	58.017
417.16	59.642
417.51	58.281
417.87	58.798
418.22	59.102
418.58	56.753
418.93	59.430
419.29	59.433
419.64	57.143
420.00	58.813
420.35	59.293
420.71	58.128
421.06	58.424
421.42	59.346
421.77	57.135
422.12	58.351
422.48	59.652
422.83	60.460
423.19	59.788
423.54	60.730
423.90	60.188
424.25	59.627
424.61	59.989
424.96	59.473
425.31	58.280
425.67	58.991
426.02	59.491
426.38	59.300
426.73	57.589
427.09	61.246
427.44	59.257
427.79	59.093
428.15	58.333
428.50	58.371
428.85	58.152
429.21	60.266
429.56	59.082
429.92	58.133
430.27	59.470
430.62	59.257
430.98	58.977
431.33	58.944
431.68	58.860
432.04	58.812
432.39	59.239
432.74	59.361
433.10	58.680
433.45	58.138
433.80	58.959
434.16	59.659
434.51	60.175
434.86	59.989
435.22	60.999
435.57	61.144
435.92	59.544
436.28	60.751
436.63	60.076
436.98	58.400
437.34	59.977
437.69	60.044
438.04	59.598
438.39	59.449
438.75	59.325
439.10	60.729
439.45	60.201
439.81	59.887
440.16	57.962
440.51	60.591
440.86	58.866
441.22	58.092
441.57	60.010
441.92	58.778
442.27	59.949
442.63	60.159
442.98	59.605
443.33	59.390
443.68	60.059
444.03	61.195
444.39	60.518
444.74	60.490
445.09	59.402
445.44	59.958
445.79	59.818
446.15	60.483
446.50	59.690
446.85	59.193
447.20	59.429
447.55	60.356
447.91	59.319
448.26	58.879
448.61	59.405
448.96	60.730
449.31	59.067
449.66	59.314
450.02	58.966
450.37	58.817
450.72	60.172
451.07	58.599
451.42	58.694
451.77	59.200
452.12	59.763
452.47	58.289
452.83	60.473
453.18	58.844
453.53	58.874
453.88	58.752
454.23	60.395
454.58	60.128
454.93	58.799
455.28	59.482
455.63	58.670
455.98	59.832
456.34	59.953
456.69	59.142
457.04	59.811
457.39	58.980
457.74	60.738
458.09	58.759
458.44	59.698
458.79	60.495
459.14	58.469
459.49	58.970
459.84	59.391
460.19	58.245
460.54	59.455
460.89	59.820
461.24	59.253
461.59	58.827
461.94	57.844
462.29	59.518
462.64	58.902
462.99	59.385
463.34	59.831
463.69	57.151
464.04	59.477
464.39	59.137
464.74	58.837
465.09	58.535
465.44	58.315
465.79	58.858
466.14	58.103
466.49	58.053
466.84	59.339
467.19	59.538
467.54	56.522
467.89	57.356
468.24	58.837
468.59	58.078
468.94	57.168
469.29	58.308
469.64	57.851
469.99	57.744
470.34	57.611
470.68	58.237
471.03	58.546
471.38	58.993
471.73	57.672
472.08	58.629
472.43	56.954
472.78	59.887
473.13	59.292
473.48	59.577
473.83	58.096
474.17	57.503
474.52	58.208
474.87	57.863
475.22	58.310
475.57	58.879
475.92	57.790
476.27	57.188
476.61	56.646
476.96	58.342
477.31	57.228
477.66	57.817
478.01	57.194
478.36	56.530
478.70	57.833
479.05	58.333
479.40	57.996
479.75	57.157
480.10	57.556
480.45	57.794
480.79	57.823
481.14	57.399
481.49	57.883
481.84	57.789
482.19	58.581
482.53	58.199
482.88	57.288
483.23	59.004
483.58	56.769
483.92	56.959
484.27	56.224
484.62	56.807
484.97	57.621
485.31	56.987
485.66	56.009
486.01	55.956
486.36	57.462
486.70	59.811
487.05	60.242
487.40	58.393
487.75	57.634
488.09	57.368
488.44	55.518
488.79	55.784
489.13	55.539
489.48	55.340
489.83	55.654
490.17	54.354
490.52	55.829
490.87	55.330
491.22	56.716
491.56	55.674
491.91	54.993
492.26	55.604
492.60	56.056
492.95	54.936
493.30	55.132
493.64	55.147
493.99	55.614
494.34	54.834
494.68	54.433
495.03	56.123
495.37	54.949
495.72	55.873
496.07	54.689
496.41	55.942
496.76	56.422
497.11	55.626
497.45	54.985
497.80	54.953
498.14	54.286
498.49	54.779
498.84	54.616
499.18	54.836
499.53	54.439
499.87	54.681
500.22	54.319
500.56	54.476
500.91	55.561
501.26	55.909
501.60	53.822
501.95	56.144
502.29	54.498
502.64	55.531
502.98	54.098
503.33	54.082
503.67	53.990
504.02	54.203
504.36	55.764
504.71	54.203
505.06	54.297
505.40	54.205
505.75	54.690
506.09	55.110
506.44	54.318
506.78	55.092
507.13	55.187
507.47	54.477
507.82	54.309
508.16	53.011
508.51	54.290
508.85	54.606
509.19	54.429
509.54	53.314
509.88	54.590
510.23	53.473
510.57	55.534
510.92	54.185
511.26	53.199
511.61	53.308
511.95	54.075
512.30	54.308
512.64	52.974
512.98	52.876
513.33	53.931
513.67	53.187
514.02	52.989
514.36	53.708
514.70	54.010
515.05	52.972
515.39	53.333
515.74	54.401
516.08	53.249
516.42	53.794
516.77	54.154
517.11	53.069
517.46	53.765
517.80	53.982
518.14	54.570
518.49	53.525
518.83	52.475
519.17	53.096
519.52	53.145
519.86	53.485
520.20	52.662
520.55	53.012
520.89	51.802
521.23	52.373
521.58	53.277
521.92	53.824
522.26	52.405
522.61	53.877
522.95	52.884
523.29	53.506
523.64	51.682
523.98	53.280
524.32	53.696
524.66	52.760
525.01	51.699
525.35	52.843
525.69	51.972
526.04	51.722
526.38	53.621
526.72	51.557
527.06	53.783
527.41	52.420
527.75	53.147
528.09	52.243
528.43	51.273
528.78	52.948
529.12	51.606
529.46	52.052
529.80	51.773
530.15	52.000
530.49	51.779
530.83	52.774
531.17	52.151
531.51	52.106
531.86	51.683
532.20	51.951
532.54	50.628
532.88	52.303
533.22	51.385
533.57	50.952
533.91	51.627
534.25	51.046
534.59	51.954
534.93	50.764
535.27	50.254
535.62	52.814
535.96	51.656
536.30	50.881
536.64	51.351
536.98	51.230
537.32	51.728
537.66	51.466
538.01	49.789
538.35	50.670
538.69	50.601
539.03	52.054
539.37	50.883
539.71	50.330
540.05	50.899
540.39	50.672
540.73	49.848
541.07	50.276
541.42	49.321
541.76	49.941
542.10	48.794
542.44	49.086
542.78	49.696
543.12	49.940
543.46	49.573
543.80	48.381
544.14	49.970
544.48	49.823
544.82	49.192
545.16	49.553
545.50	49.790
545.84	48.561
546.18	49.877
546.52	48.408
546.86	48.491
547.20	49.682
547.54	48.439
547.88	47.860
548.22	47.836
548.56	48.449
548.90	49.015
549.24	49.179
549.58	47.571
549.92	47.194
550.26	48.997
550.60	46.777
550.94	47.865
551.28	46.271
551.62	47.642
551.96	46.214
552.30	47.228
552.64	47.666
552.98	48.035
553.32	48.553
553.66	47.460
554.00	47.100
554.34	47.619
554.68	45.642
555.02	46.452
555.36	47.732
555.69	45.804
556.03	46.217
556.37	45.932
556.71	47.368
557.05	47.284
557.39	46.914
557.73	46.103
558.07	46.291
558.41	46.379
558.75	46.991
559.08	47.460
559.42	46.708
559.76	45.455
560.10	46.149
560.44	45.910
560.78	45.688
561.12	46.490
561.45	46.107
561.79	45.665
562.13	46.580
562.47	44.575
562.81	45.696
563.15	45.328
563.48	44.810
563.82	46.131
564.16	45.245
564.50	44.994
564.84	44.425
565.17	45.647
565.51	43.901
565.85	44.715
566.19	44.240
566.52	45.231
566.86	44.595
567.20	43.774
567.54	45.937
567.88	45.515
568.21	45.553
568.55	46.667
568.89	45.166
569.23	45.416
569.56	45.721
569.90	45.723
570.24	45.902
570.57	45.959
570.91	44.366
571.25	45.299
571.59	45.060
571.92	45.309
572.26	44.786
572.60	44.990
572.93	44.475
573.27	44.900
573.61	43.700
573.95	44.234
574.28	43.541
574.62	43.724
574.96	43.560
575.29	43.181
575.63	43.844
575.97	44.072
576.30	43.523
576.64	43.379
576.98	42.825
577.31	43.649
577.65	44.346
577.98	44.315
578.32	43.427
578.66	43.291
578.99	43.375
579.33	43.219
579.67	42.974
580.00	42.459
580.34	43.041
580.67	42.454
581.01	43.141
581.35	43.113
581.68	42.786
582.02	43.225
582.35	43.621
582.69	43.431
583.02	42.908
583.36	42.884
583.70	42.604
584.03	42.165
584.37	41.298
584.70	41.687
585.04	41.223
585.37	41.913
585.71	41.381
586.04	41.964
586.38	42.084
586.72	41.539
587.05	41.494
587.39	42.259
587.72	42.081
588.06	42.311
588.39	41.673
588.73	40.979
589.06	41.253
589.40	41.334
589.73	41.228
590.07	41.147
590.40	41.819
590.73	40.580
591.07	41.363
591.40	40.747
591.74	40.779
592.07	40.357
592.41	40.694
592.74	40.753
593.08	41.146
593.41	41.237
593.75	41.207
594.08	41.048
594.41	40.769
594.75	40.186
595.08	40.579
595.42	40.097
595.75	40.329
596.09	40.495
596.42	40.057
596.75	40.525
597.09	40.727
597.42	39.849
597.75	39.828
598.09	39.365
598.42	40.169
598.76	38.708
599.09	39.587
599.42	38.384
599.76	39.419
600.09	39.540
600.42	39.306
600.76	39.630
601.09	39.064
601.42	38.895
601.76	38.655
602.09	39.492
602.42	37.623
602.76	38.598
603.09	38.656
603.42	39.595
603.76	38.971
604.09	39.815
604.42	39.009
604.76	38.851
605.09	38.811
605.42	38.038
605.75	38.654
606.09	38.335
606.42	37.906
606.75	36.919
607.09	37.788
607.42	38.613
607.75	37.984
608.08	37.964
608.42	38.291
608.75	37.728
609.08	37.479
609.41	37.274
609.75	38.304
610.08	38.347
610.41	37.850
610.74	38.151
611.07	37.700
611.41	38.072
611.74	37.275
612.07	37.073
612.40	37.120
612.73	37.604
613.07	36.773
613.40	37.584
613.73	37.362
614.06	37.537
614.39	36.929
614.72	36.536
615.06	35.948
615.39	37.361
615.72	37.536
616.05	36.814
616.38	36.983
616.71	37.461
617.05	36.155
617.38	35.902
617.71	37.635
618.04	37.129
618.37	37.158
618.70	36.482
619.03	36.559
619.36	35.882
619.69	34.785
620.03	36.095
620.36	36.380
620.69	35.163
621.02	36.417
621.35	37.010
621.68	36.443
622.01	36.014
622.34	36.123
622.67	35.258
623.00	35.762
623.33	37.624
623.66	36.770
623.99	36.537
624.32	37.427
624.65	36.422
624.99	35.371
625.32	37.100
625.65	35.604
625.98	35.390
626.31	35.082
626.64	35.018
626.97	34.884
627.30	34.776
627.63	33.983
627.96	35.961
628.29	35.331
628.62	35.264
628.95	35.057
629.28	33.985
629.61	36.279
629.94	33.724
630.26	33.898
630.59	34.974
630.92	33.939
631.25	36.315
631.58	35.970
631.91	34.677
632.24	34.102
632.57	34.820
632.90	34.604
633.23	34.796
633.56	34.490
633.89	33.781
634.22	35.031
634.55	34.864
