SpectraSuite Data File
++++++++++++++++++++++++++++++++++++
Date: Thu May 14 16:26:13 PDT 2015
User: schluterlab
Dark Spectrum Present: Yes
Reference Spectrum Present: Yes
Number of Sampled Component Spectra: 1
Spectrometers: USB2E3373
Integration Time (usec): 3000 (USB2E3373)
Spectra Averaged: 3 (USB2E3373)
Boxcar Smoothing: 0 (USB2E3373)
Correct for Electrical Dark: No (USB2E3373)
Strobe/Lamp Enabled: No (USB2E3373)
Correct for Detector Non-linearity: No (USB2E3373)
Correct for Stray Light: No (USB2E3373)
Number of Pixels in Processed Spectrum: 2048
>>>>>Begin Processed Spectral Data<<<<<
178.53	0.000
178.91	57.143
179.29	-1200.000
179.67	-200.000
180.04	100.000
180.42	10.000
180.80	120.000
181.18	400.000
181.56	400.000
181.94	300.000
182.31	-250.000
182.69	333.333
183.07	100.000
183.45	200.000
183.83	-100.000
184.20	133.333
184.58	-300.000
184.96	25.000
185.34	22.222
185.72	40.000
186.09	155.556
186.47	400.000
186.85	200.000
187.23	-44.444
187.61	-200.000
187.98	20.000
188.36	25.000
188.74	-50.000
189.12	266.667
189.49	68.750
189.87	75.000
190.25	100.000
190.63	160.000
191.00	-22.222
191.38	0.000
191.76	-350.000
192.14	-116.667
192.51	100.000
192.89	16.667
193.27	0.000
193.65	14.286
194.02	-1100.000
194.40	157.143
194.78	-71.429
195.15	0.000
195.53	9.091
195.91	0.000
196.29	125.000
196.66	23.077
197.04	-400.000
197.42	-85.714
197.79	-450.000
198.17	-87.500
198.55	42.857
198.92	55.556
199.30	0.000
199.68	72.727
200.05	35.714
200.43	50.000
200.81	171.429
201.18	0.000
201.56	200.000
201.94	0.000
202.31	300.000
202.69	0.000
203.07	-500.000
203.44	-44.444
203.82	-275.000
204.19	41.667
204.57	0.000
204.95	-100.000
205.32	400.000
205.70	-75.000
206.08	-83.333
206.45	66.667
206.83	220.000
207.20	83.333
207.58	-200.000
207.96	50.000
208.33	183.333
208.71	-8.333
209.08	33.333
209.46	0.000
209.84	66.667
210.21	-50.000
210.59	-0.000
210.96	233.333
211.34	25.000
211.71	-75.000
212.09	800.000
212.46	0.000
212.84	750.000
213.22	-200.000
213.59	125.000
213.97	80.000
214.34	266.667
214.72	66.667
215.09	25.000
215.47	0.000
215.84	-57.143
216.22	150.000
216.59	20.000
216.97	20.000
217.34	-75.000
217.72	62.500
218.09	175.000
218.47	-75.000
218.84	0.000
219.22	-120.000
219.59	70.588
219.97	25.000
220.34	350.000
220.72	-33.333
221.09	100.000
221.47	0.000
221.84	70.000
222.22	-142.857
222.59	0.000
222.97	62.500
223.34	-160.000
223.72	-900.000
224.09	-25.000
224.46	-175.000
224.84	200.000
225.21	-185.714
225.59	-200.000
225.96	-50.000
226.34	19.231
226.71	216.667
227.08	50.000
227.46	-33.333
227.83	-175.000
228.21	36.842
228.58	-12.500
228.95	-50.000
229.33	0.000
229.70	110.000
230.08	84.211
230.45	40.000
230.82	0.000
231.20	71.429
231.57	116.667
231.95	18.182
232.32	27.273
232.69	90.000
233.07	0.000
233.44	-29.412
233.81	100.000
234.19	38.889
234.56	0.000
234.93	44.828
235.31	63.158
235.68	72.222
236.05	5.000
236.43	107.692
236.80	92.000
237.17	51.852
237.55	51.515
237.92	20.000
238.29	38.710
238.67	34.091
239.04	44.444
239.41	28.571
239.79	45.652
240.16	25.926
240.53	-8.696
240.91	27.451
241.28	29.508
241.65	46.269
242.02	41.892
242.40	26.154
242.77	48.000
243.14	35.366
243.51	40.789
243.89	29.487
244.26	39.604
244.63	42.157
245.00	34.579
245.38	39.474
245.75	30.973
246.12	34.127
246.49	31.008
246.87	37.857
247.24	33.113
247.61	44.737
247.98	34.228
248.36	38.272
248.73	30.675
249.10	33.333
249.47	40.796
249.84	37.696
250.22	36.269
250.59	37.778
250.96	30.455
251.33	31.633
251.70	41.026
252.08	34.583
252.45	35.656
252.82	35.537
253.19	31.641
253.56	38.783
253.94	36.923
254.31	37.500
254.68	40.210
255.05	36.808
255.42	32.313
255.79	35.275
256.16	38.079
256.54	38.079
256.91	37.049
257.28	36.066
257.65	32.803
258.02	35.398
258.39	34.473
258.76	39.144
259.14	41.092
259.51	38.617
259.88	35.694
260.25	38.333
260.62	38.082
260.99	41.803
261.36	40.214
261.73	34.483
262.10	36.813
262.47	38.070
262.85	38.889
263.22	38.182
263.59	32.368
263.96	36.317
264.33	36.317
264.70	39.753
265.07	38.425
265.44	38.549
265.81	39.352
266.18	36.508
266.55	37.946
266.92	37.585
267.29	36.105
267.66	36.585
268.03	37.555
268.40	33.820
268.77	36.902
269.14	37.225
269.51	38.596
269.88	37.090
270.25	35.412
270.62	40.295
270.99	36.162
271.36	35.050
271.73	35.756
272.10	37.275
272.47	35.671
272.84	35.743
273.21	36.273
273.58	36.290
273.95	31.538
274.32	36.692
274.69	35.203
275.06	36.630
275.43	32.717
275.80	35.802
276.17	33.704
276.54	35.448
276.91	35.778
277.28	35.443
277.65	36.804
278.02	35.846
278.39	34.239
278.76	33.919
279.13	35.106
279.50	33.505
279.87	35.242
280.23	32.394
280.60	34.407
280.97	33.882
281.34	34.805
281.71	35.025
282.08	32.060
282.45	33.224
282.82	33.595
283.19	33.118
283.56	33.770
283.92	33.483
284.29	33.965
284.66	33.990
285.03	31.571
285.40	35.549
285.77	33.282
286.14	34.809
286.51	31.963
286.87	32.701
287.24	35.693
287.61	32.138
287.98	32.628
288.35	32.544
288.72	31.361
289.08	33.236
289.45	32.249
289.82	31.024
290.19	30.747
290.56	31.690
290.93	31.384
291.29	29.614
291.66	29.201
292.03	29.308
292.40	31.837
292.77	29.784
293.13	29.093
293.50	29.961
293.87	30.201
294.24	27.867
294.60	30.215
294.97	26.711
295.34	28.425
295.71	27.238
296.08	28.295
296.44	26.471
296.81	25.700
297.18	27.646
297.55	27.476
297.91	25.267
298.28	24.408
298.65	26.278
299.02	26.800
299.38	27.346
299.75	26.986
300.12	25.463
300.48	25.576
300.85	27.559
301.22	25.391
301.59	26.370
301.95	25.424
302.32	26.222
302.69	25.739
303.05	26.115
303.42	25.831
303.79	24.583
304.15	25.131
304.52	25.581
304.89	24.398
305.25	24.431
305.62	23.197
305.99	24.330
306.35	23.891
306.72	25.543
307.09	24.569
307.45	23.706
307.82	23.713
308.19	23.915
308.55	24.204
308.92	24.148
309.29	24.617
309.65	24.854
310.02	22.574
310.38	24.508
310.75	25.243
311.12	25.312
311.48	24.829
311.85	23.267
312.22	23.245
312.58	23.192
312.95	23.423
313.31	23.397
313.68	24.542
314.05	25.745
314.41	25.228
314.78	24.069
315.14	25.408
315.51	25.300
315.87	25.203
316.24	27.215
316.61	27.087
316.97	26.154
317.34	25.397
317.70	26.638
318.07	27.160
318.43	27.126
318.80	26.421
319.16	26.867
319.53	25.707
319.89	27.169
320.26	26.512
320.62	27.128
320.99	27.701
321.35	28.558
321.72	29.488
322.08	28.674
322.45	29.720
322.81	31.949
323.18	31.239
323.54	30.345
323.91	33.096
324.27	32.272
324.64	32.662
325.00	34.328
325.37	33.170
325.73	36.281
326.10	35.280
326.46	35.586
326.83	36.589
327.19	35.197
327.56	35.415
327.92	36.979
328.29	36.855
328.65	37.940
329.01	37.479
329.38	39.259
329.74	39.555
330.11	39.726
330.47	40.354
330.84	40.741
331.20	40.750
331.56	40.295
331.93	42.594
332.29	42.288
332.66	43.439
333.02	42.881
333.38	43.037
333.75	43.098
334.11	42.786
334.48	43.647
334.84	44.265
335.20	43.493
335.57	43.086
335.93	43.388
336.29	42.429
336.66	44.659
337.02	43.645
337.38	44.218
337.75	44.132
338.11	43.987
338.47	43.259
338.84	43.909
339.20	43.387
339.56	44.069
339.93	43.924
340.29	43.317
340.65	42.660
341.02	44.533
341.38	44.543
341.74	44.471
342.11	45.455
342.47	43.765
342.83	45.411
343.20	44.317
343.56	43.865
343.92	44.115
344.28	43.750
344.65	45.116
345.01	44.384
345.37	45.490
345.73	44.193
346.10	45.554
346.46	43.750
346.82	44.794
347.19	44.309
347.55	44.992
347.91	44.725
348.27	45.675
348.63	45.468
349.00	43.550
349.36	44.461
349.72	45.164
350.08	45.319
350.45	45.856
350.81	46.380
351.17	44.962
351.53	46.323
351.89	45.027
352.26	45.075
352.62	45.224
352.98	45.267
353.34	45.183
353.70	45.840
354.07	45.082
354.43	45.938
354.79	45.999
355.15	45.548
355.51	46.491
355.87	46.372
356.24	46.844
356.60	44.642
356.96	46.405
357.32	45.799
357.68	45.754
358.04	45.659
358.40	46.194
358.77	45.541
359.13	46.012
359.49	46.468
359.85	45.250
360.21	46.915
360.57	47.236
360.93	45.628
361.29	48.140
361.66	46.633
362.02	48.225
362.38	47.927
362.74	46.648
363.10	48.693
363.46	47.922
363.82	47.017
364.18	47.924
364.54	48.202
364.90	49.030
365.26	47.724
365.62	49.067
365.98	49.013
366.35	47.584
366.71	48.776
367.07	48.038
367.43	48.523
367.79	48.441
368.15	50.033
368.51	49.662
368.87	49.053
369.23	48.800
369.59	50.000
369.95	49.831
370.31	50.777
370.67	49.106
371.03	49.307
371.39	50.235
371.75	49.794
372.11	51.016
372.47	50.237
372.83	51.505
373.19	50.033
373.55	51.694
373.91	50.716
374.27	50.970
374.63	51.894
374.99	51.326
375.35	53.506
375.71	51.355
376.07	52.356
376.42	52.141
376.78	52.641
377.14	51.965
377.50	54.016
377.86	53.941
378.22	54.072
378.58	53.329
378.94	53.462
379.30	54.540
379.66	54.145
380.02	54.876
380.38	56.336
380.74	54.366
381.09	55.110
381.45	55.341
381.81	56.206
382.17	57.779
382.53	55.965
382.89	56.546
383.25	56.155
383.61	57.060
383.97	57.362
384.32	58.194
384.68	57.715
385.04	58.184
385.40	58.810
385.76	60.141
386.12	58.588
386.48	59.941
386.83	59.058
387.19	58.053
387.55	59.214
387.91	59.817
388.27	59.584
388.62	58.706
388.98	59.616
389.34	61.344
389.70	61.011
390.06	60.450
390.42	60.422
390.77	63.456
391.13	60.446
391.49	62.017
391.85	62.485
392.20	61.981
392.56	62.670
392.92	62.814
393.28	63.018
393.64	61.341
393.99	63.335
394.35	65.070
394.71	64.072
395.07	64.431
395.42	64.249
395.78	66.240
396.14	65.181
396.50	65.618
396.85	65.713
397.21	66.391
397.57	65.018
397.92	65.636
398.28	66.757
398.64	65.847
399.00	65.654
399.35	66.387
399.71	67.120
400.07	67.153
400.42	67.695
400.78	68.634
401.14	68.071
401.49	69.699
401.85	70.174
402.21	69.293
402.57	70.540
402.92	71.749
403.28	69.555
403.63	69.928
403.99	71.259
404.35	70.267
404.70	71.445
405.06	70.652
405.42	70.726
405.77	71.156
406.13	70.719
406.49	73.255
406.84	72.521
407.20	72.722
407.55	72.259
407.91	74.544
408.27	72.850
408.62	72.542
408.98	73.302
409.34	74.311
409.69	75.587
410.05	75.733
410.40	75.348
410.76	75.547
411.11	77.323
411.47	77.948
411.83	75.955
412.18	77.651
412.54	77.475
412.89	76.775
413.25	77.257
413.60	77.829
413.96	78.788
414.31	76.771
414.67	77.996
415.03	77.846
415.38	80.706
415.74	79.658
416.09	80.136
416.45	80.088
416.80	79.009
417.16	81.545
417.51	79.141
417.87	80.196
418.22	81.018
418.58	81.537
418.93	82.421
419.29	82.429
419.64	81.993
420.00	82.552
420.35	82.033
420.71	82.654
421.06	81.599
421.42	84.518
421.77	82.768
422.12	82.611
422.48	84.793
422.83	85.268
423.19	85.305
423.54	86.283
423.90	84.373
424.25	87.947
424.61	87.256
424.96	86.381
425.31	85.828
425.67	86.098
426.02	88.932
426.38	88.462
426.73	88.393
427.09	89.273
427.44	88.367
427.79	88.336
428.15	90.582
428.50	89.157
428.85	89.724
429.21	91.277
429.56	89.783
429.92	90.123
430.27	91.711
430.62	91.011
430.98	90.359
431.33	90.078
431.68	91.523
432.04	93.042
432.39	92.876
432.74	93.265
433.10	93.618
433.45	92.586
433.80	93.455
434.16	92.924
434.51	93.988
434.86	96.634
435.22	95.377
435.57	97.111
435.92	94.825
436.28	96.587
436.63	96.559
436.98	94.793
437.34	96.110
437.69	96.368
438.04	94.606
438.39	95.233
438.75	95.905
439.10	97.040
439.45	95.864
439.81	95.593
440.16	95.657
440.51	97.380
440.86	97.221
441.22	97.535
441.57	98.323
441.92	96.266
442.27	98.838
442.63	97.665
442.98	97.545
443.33	97.580
443.68	97.968
444.03	99.859
444.39	97.966
444.74	98.928
445.09	98.074
445.44	100.369
445.79	98.707
446.15	99.178
446.50	98.398
446.85	99.125
447.20	98.356
447.55	99.372
447.91	100.471
448.26	98.784
448.61	100.053
448.96	103.165
449.31	100.954
449.66	99.782
450.02	101.477
450.37	101.225
450.72	100.431
451.07	100.342
451.42	101.098
451.77	100.778
452.12	101.862
452.47	101.367
452.83	102.928
453.18	100.876
453.53	102.412
453.88	100.497
454.23	101.299
454.58	103.424
454.93	100.850
455.28	102.709
455.63	100.739
455.98	102.011
456.34	101.590
456.69	101.117
457.04	104.314
457.39	102.772
457.74	104.083
458.09	102.032
458.44	102.209
458.79	99.381
459.14	102.098
459.49	103.339
459.84	102.204
460.19	102.943
460.54	103.180
460.89	101.800
461.24	102.529
461.59	102.656
461.94	101.825
462.29	102.128
462.64	100.483
462.99	104.331
463.34	103.374
463.69	100.410
464.04	102.779
464.39	102.578
464.74	101.083
465.09	101.903
465.44	102.200
465.79	100.952
466.14	100.313
466.49	101.368
466.84	102.700
467.19	101.098
467.54	99.001
467.89	100.920
468.24	101.440
468.59	100.116
468.94	101.282
469.29	102.040
469.64	100.381
469.99	103.187
470.34	102.104
470.68	104.375
471.03	103.667
471.38	103.728
471.73	103.251
472.08	104.569
472.43	103.010
472.78	102.645
473.13	103.350
473.48	103.505
473.83	104.063
474.17	101.817
474.52	104.510
474.87	102.658
475.22	103.437
475.57	100.312
475.92	102.140
476.27	102.290
476.61	101.142
476.96	102.398
477.31	102.079
477.66	104.617
478.01	101.627
478.36	101.844
478.70	104.089
479.05	103.425
479.40	103.110
479.75	100.913
480.10	103.695
480.45	102.097
480.79	101.950
481.14	100.965
481.49	101.272
481.84	102.872
482.19	103.312
482.53	102.317
482.88	103.190
483.23	101.912
483.58	103.100
483.92	100.887
484.27	102.456
484.62	100.248
484.97	100.311
485.31	100.739
485.66	95.544
486.01	94.090
486.36	96.066
486.70	98.186
487.05	100.396
487.40	100.255
487.75	99.542
488.09	100.676
488.44	100.493
488.79	100.135
489.13	100.688
489.48	100.932
489.83	100.121
490.17	100.689
490.52	99.548
490.87	100.888
491.22	102.296
491.56	101.323
491.91	102.137
492.26	100.736
492.60	100.875
492.95	100.219
493.30	101.658
493.64	101.402
493.99	102.939
494.34	99.956
494.68	100.942
495.03	100.793
495.37	102.974
495.72	101.678
496.07	101.402
496.41	101.115
496.76	101.376
497.11	101.741
497.45	100.345
497.80	100.178
498.14	100.771
498.49	101.562
498.84	102.377
499.18	101.709
499.53	102.377
499.87	101.319
500.22	100.534
500.56	100.675
500.91	102.151
501.26	103.364
501.60	100.619
501.95	100.651
502.29	101.624
502.64	102.055
502.98	100.043
503.33	100.130
503.67	99.826
504.02	100.044
504.36	100.894
504.71	101.102
505.06	101.137
505.40	101.234
505.75	100.319
506.09	100.875
506.44	103.853
506.78	102.156
507.13	101.383
507.47	102.605
507.82	101.278
508.16	102.533
508.51	100.141
508.85	102.315
509.19	102.132
509.54	102.017
509.88	101.943
510.23	102.380
510.57	103.673
510.92	102.129
511.26	101.443
511.61	100.869
511.95	100.927
512.30	102.708
512.64	101.549
512.98	102.351
513.33	103.175
513.67	102.142
514.02	103.015
514.36	103.836
514.70	103.125
515.05	102.763
515.39	103.832
515.74	104.560
516.08	102.219
516.42	104.239
516.77	102.944
517.11	101.805
517.46	103.871
517.80	103.634
518.14	104.298
518.49	104.284
518.83	102.874
519.17	102.746
519.52	101.887
519.86	103.115
520.20	102.290
520.55	103.231
520.89	104.730
521.23	103.127
521.58	103.898
521.92	105.666
522.26	103.895
522.61	105.324
522.95	104.441
523.29	106.322
523.64	102.522
523.98	104.450
524.32	106.304
524.66	105.578
525.01	103.171
525.35	104.250
525.69	103.596
526.04	103.674
526.38	106.207
526.72	103.172
527.06	105.806
527.41	104.082
527.75	105.701
528.09	104.486
528.43	103.848
528.78	103.468
529.12	103.612
529.46	101.686
529.80	104.519
530.15	103.188
530.49	104.686
530.83	104.604
531.17	104.659
531.51	104.994
531.86	103.245
532.20	104.512
532.54	103.531
532.88	102.970
533.22	102.829
533.57	101.558
533.91	101.740
534.25	103.222
534.59	104.253
534.93	103.056
535.27	102.817
535.62	103.297
535.96	102.789
536.30	103.995
536.64	101.862
536.98	103.936
537.32	104.259
537.66	104.304
538.01	100.906
538.35	101.827
538.69	103.846
539.03	103.066
539.37	100.589
539.71	102.282
540.05	102.698
540.39	101.467
540.73	101.154
541.07	102.207
541.42	100.886
541.76	99.881
542.10	101.809
542.44	102.132
542.78	101.095
543.12	102.324
543.46	101.221
543.80	99.760
544.14	101.855
544.48	101.891
544.82	102.154
545.16	101.371
545.50	102.277
545.84	101.653
546.18	102.099
546.52	101.847
546.86	101.950
547.20	103.053
547.54	100.375
547.88	100.542
548.22	99.532
548.56	99.766
548.90	100.299
549.24	100.243
549.58	101.956
549.92	101.084
550.26	101.553
550.60	100.447
550.94	102.523
551.28	99.934
551.62	103.235
551.96	97.994
552.30	100.637
552.64	98.755
552.98	100.561
553.32	101.865
553.66	101.608
554.00	101.324
554.34	101.158
554.68	99.613
555.02	100.788
555.36	102.104
555.69	98.270
556.03	98.424
556.37	101.252
556.71	101.078
557.05	101.406
557.39	100.000
557.73	101.387
558.07	101.722
558.41	100.399
558.75	100.270
559.08	100.696
559.42	100.274
559.76	100.000
560.10	97.857
560.44	102.309
560.78	100.937
561.12	98.830
561.45	98.783
561.79	99.328
562.13	99.877
562.47	97.904
562.81	98.671
563.15	99.179
563.48	98.633
563.82	98.247
564.16	97.153
564.50	96.722
564.84	97.168
565.17	97.588
565.51	96.318
565.85	97.981
566.19	96.544
566.52	97.367
566.86	96.831
567.20	94.127
567.54	97.982
567.88	96.789
568.21	96.739
568.55	94.820
568.89	94.099
569.23	92.987
569.56	92.692
569.90	92.267
570.24	92.310
570.57	91.758
570.91	91.304
571.25	89.239
571.59	89.953
571.92	89.472
572.26	90.233
572.60	89.435
572.93	89.257
573.27	89.239
573.61	88.460
573.95	88.298
574.28	87.993
574.62	87.244
574.96	85.862
575.29	85.592
575.63	87.087
575.97	87.186
576.30	85.813
576.64	86.423
576.98	86.310
577.31	86.925
577.65	87.144
577.98	86.521
578.32	84.905
578.66	84.923
578.99	85.050
579.33	87.350
579.67	86.287
580.00	85.705
580.34	85.537
580.67	85.437
581.01	86.218
581.35	85.233
581.68	83.798
582.02	84.235
582.35	85.959
582.69	85.854
583.02	85.984
583.36	85.993
583.70	86.321
584.03	85.961
584.37	86.596
584.70	85.917
585.04	84.864
585.37	85.263
585.71	84.358
586.04	85.227
586.38	84.749
586.72	85.335
587.05	85.828
587.39	86.612
587.72	86.148
588.06	85.300
588.39	85.039
588.73	85.026
589.06	87.105
589.40	87.369
589.73	86.279
590.07	86.969
590.40	86.951
590.73	86.921
591.07	88.310
591.40	88.025
591.74	86.725
592.07	88.185
592.41	87.500
592.74	86.226
593.08	85.764
593.41	84.689
593.75	85.144
594.08	85.459
594.41	86.955
594.75	85.520
595.08	86.777
595.42	86.104
595.75	84.437
596.09	87.530
596.42	86.528
596.75	86.453
597.09	87.596
597.42	86.412
597.75	86.476
598.09	84.921
598.42	86.691
598.76	84.983
599.09	84.229
599.42	83.473
599.76	83.196
600.09	84.017
600.42	83.984
600.76	84.412
601.09	83.538
601.42	84.071
601.76	84.034
602.09	84.489
602.42	83.170
602.76	83.506
603.09	84.545
603.42	84.827
603.76	84.003
604.09	84.776
604.42	84.404
604.76	84.437
605.09	84.922
605.42	83.732
605.75	82.846
606.09	83.837
606.42	81.831
606.75	82.609
607.09	82.604
607.42	82.158
607.75	82.415
608.08	83.149
608.42	82.225
608.75	82.670
609.08	82.385
609.41	83.238
609.75	83.348
610.08	84.565
610.41	83.687
610.74	83.235
611.07	84.991
611.41	84.126
611.74	83.603
612.07	84.011
612.40	83.317
612.73	83.570
613.07	83.521
613.40	84.697
613.73	82.619
614.06	84.985
614.39	83.333
614.72	82.824
615.06	82.194
615.39	81.924
615.72	82.180
616.05	82.127
616.38	83.502
616.71	83.542
617.05	81.629
617.38	82.504
617.71	83.747
618.04	84.134
618.37	83.934
618.70	85.011
619.03	82.676
619.36	85.142
619.69	84.497
620.03	83.239
620.36	81.840
620.69	84.577
621.02	83.661
621.35	87.954
621.68	84.671
622.01	84.128
622.34	84.031
622.67	83.436
623.00	82.928
623.33	84.605
623.66	83.852
623.99	82.949
624.32	82.911
624.65	82.561
624.99	84.265
625.32	85.500
625.65	84.828
625.98	82.508
626.31	83.629
626.64	84.762
626.97	82.896
627.30	85.042
627.63	83.871
627.96	84.610
