SpectraSuite Data File
++++++++++++++++++++++++++++++++++++
Date: Thu May 14 16:36:49 PDT 2015
User: schluterlab
Dark Spectrum Present: Yes
Reference Spectrum Present: Yes
Number of Sampled Component Spectra: 1
Spectrometers: USB2E3373
Integration Time (usec): 3000 (USB2E3373)
Spectra Averaged: 3 (USB2E3373)
Boxcar Smoothing: 0 (USB2E3373)
Correct for Electrical Dark: No (USB2E3373)
Strobe/Lamp Enabled: No (USB2E3373)
Correct for Detector Non-linearity: No (USB2E3373)
Correct for Stray Light: No (USB2E3373)
Number of Pixels in Processed Spectrum: 2048
>>>>>Begin Processed Spectral Data<<<<<
178.53	0.000
178.91	42.857
179.29	-1600.000
179.67	-900.000
180.04	128.571
180.42	60.000
180.80	140.000
181.18	-600.000
181.56	0.000
181.94	200.000
182.31	-175.000
182.69	500.000
183.07	-250.000
183.45	250.000
183.83	-150.000
184.20	-200.000
184.58	400.000
184.96	-50.000
185.34	-177.778
185.72	100.000
186.09	100.000
186.47	700.000
186.85	380.000
187.23	-100.000
187.61	-1200.000
187.98	40.000
188.36	175.000
188.74	-50.000
189.12	-133.333
189.49	-68.750
189.87	-62.500
190.25	0.000
190.63	-80.000
191.00	-44.444
191.38	0.000
191.76	-75.000
192.14	-66.667
192.51	700.000
192.89	-100.000
193.27	0.000
193.65	-57.143
194.02	-800.000
194.40	-71.429
194.78	142.857
195.15	0.000
195.53	63.636
195.91	0.000
196.29	125.000
196.66	-23.077
197.04	-1000.000
197.42	-114.286
197.79	-100.000
198.17	0.000
198.55	14.286
198.92	-22.222
199.30	-62.500
199.68	18.182
200.05	28.571
200.43	-450.000
200.81	85.714
201.18	0.000
201.56	155.556
201.94	0.000
202.31	200.000
202.69	-100.000
203.07	700.000
203.44	-111.111
203.82	-450.000
204.19	-33.333
204.57	-83.333
204.95	-62.500
205.32	-1300.000
205.70	325.000
206.08	-133.333
206.45	-33.333
206.83	80.000
207.20	-33.333
207.58	-280.000
207.96	-166.667
208.33	166.667
208.71	66.667
209.08	33.333
209.46	0.000
209.84	116.667
210.21	550.000
210.59	150.000
210.96	400.000
211.34	50.000
211.71	-112.500
212.09	-700.000
212.46	0.000
212.84	600.000
213.22	-60.000
213.59	-125.000
213.97	-20.000
214.34	-433.333
214.72	116.667
215.09	50.000
215.47	0.000
215.84	214.286
216.22	500.000
216.59	-100.000
216.97	-140.000
217.34	0.000
217.72	-137.500
218.09	-200.000
218.47	-225.000
218.84	0.000
219.22	-20.000
219.59	-5.882
219.97	-5.000
220.34	-50.000
220.72	-66.667
221.09	46.154
221.47	-133.333
221.84	0.000
222.22	-128.571
222.59	0.000
222.97	-75.000
223.34	-240.000
223.72	100.000
224.09	-75.000
224.46	-175.000
224.84	40.000
225.21	-114.286
225.59	-350.000
225.96	-225.000
226.34	11.538
226.71	283.333
227.08	-450.000
227.46	0.000
227.83	-350.000
228.21	15.789
228.58	-25.000
228.95	550.000
229.33	8.333
229.70	50.000
230.08	57.895
230.45	160.000
230.82	-200.000
231.20	-107.143
231.57	0.000
231.95	-36.364
232.32	27.273
232.69	0.000
233.07	-275.000
233.44	5.882
233.81	20.000
234.19	-22.222
234.56	22.727
234.93	58.621
235.31	-26.316
235.68	-44.444
236.05	-45.000
236.43	11.538
236.80	24.000
237.17	-33.333
237.55	-21.212
237.92	-90.000
238.29	-6.452
238.67	-25.000
239.04	-16.667
239.41	-14.286
239.79	10.870
240.16	-1.852
240.53	-15.217
240.91	-11.765
241.28	0.000
241.65	5.970
242.02	20.270
242.40	-1.538
242.77	-2.667
243.14	-12.195
243.51	-27.632
243.89	-5.128
244.26	8.911
244.63	0.000
245.00	4.673
245.38	6.140
245.75	-3.540
246.12	3.968
246.49	-4.651
246.87	4.286
247.24	4.636
247.61	3.947
247.98	-2.013
248.36	-3.704
248.73	-5.521
249.10	3.279
249.47	7.960
249.84	7.330
250.22	-1.554
250.59	2.778
250.96	6.818
251.33	-4.592
251.70	-0.855
252.08	6.667
252.45	2.049
252.82	1.240
253.19	-2.344
253.56	0.000
253.94	0.769
254.31	3.409
254.68	6.993
255.05	8.795
255.42	5.102
255.79	1.294
256.16	1.987
256.54	1.325
256.91	4.262
257.28	1.311
257.65	0.000
258.02	0.295
258.39	5.413
258.76	5.810
259.14	0.862
259.51	3.746
259.88	1.133
260.25	4.167
260.62	3.288
260.99	4.372
261.36	4.290
261.73	-1.061
262.10	2.747
262.47	1.609
262.85	7.071
263.22	1.558
263.59	-0.263
263.96	3.325
264.33	0.512
264.70	4.198
265.07	4.057
265.44	6.349
265.81	2.315
266.18	3.628
266.55	4.018
266.92	2.278
267.29	3.501
267.66	5.322
268.03	1.310
268.40	3.967
268.77	-2.278
269.14	0.881
269.51	2.632
269.88	4.098
270.25	4.427
270.62	5.485
270.99	5.253
271.36	5.545
271.73	3.733
272.10	4.208
272.47	4.008
272.84	2.410
273.21	3.607
273.58	3.629
273.95	1.923
274.32	1.331
274.69	2.321
275.06	3.846
275.43	2.588
275.80	4.233
276.17	1.296
276.54	4.478
276.91	3.041
277.28	4.159
277.65	2.334
278.02	4.228
278.39	3.442
278.76	2.988
279.13	4.255
279.50	3.265
279.87	3.399
280.23	0.528
280.60	4.237
280.97	4.441
281.34	3.226
281.71	4.738
282.08	5.316
282.45	4.419
282.82	3.454
283.19	2.262
283.56	2.459
283.92	5.556
284.29	3.476
284.66	2.627
285.03	2.724
285.40	2.937
285.77	2.012
286.14	3.206
286.51	2.740
286.87	4.265
287.24	4.217
287.61	2.840
287.98	2.266
288.35	2.367
288.72	2.663
289.08	3.075
289.45	1.479
289.82	2.108
290.19	2.443
290.56	3.521
290.93	3.281
291.29	2.755
291.66	3.306
292.03	1.900
292.40	4.354
292.77	2.830
293.13	2.165
293.50	2.234
293.87	4.564
294.24	5.600
294.60	1.896
294.97	2.282
295.34	4.097
295.71	2.648
296.08	3.101
296.44	2.941
296.81	2.192
297.18	3.113
297.55	3.420
297.91	1.898
298.28	1.777
298.65	2.854
299.02	3.306
299.38	4.462
299.75	2.453
300.12	1.620
300.48	2.074
300.85	3.375
301.22	3.468
301.59	2.740
301.95	2.825
302.32	3.778
302.69	2.848
303.05	3.264
303.42	2.328
303.79	3.229
304.15	3.785
304.52	1.586
304.89	2.723
305.25	3.209
305.62	3.239
305.99	3.093
306.35	2.923
306.72	3.723
307.09	3.249
307.45	2.795
307.82	2.422
308.19	2.624
308.55	3.472
308.92	3.408
309.29	3.544
309.65	3.314
310.02	2.376
310.38	2.854
310.75	3.883
311.12	4.027
311.48	3.128
311.85	3.704
312.22	3.416
312.58	4.131
312.95	3.633
313.31	4.607
313.68	5.678
314.05	5.601
314.41	4.281
314.78	4.450
315.14	4.446
315.51	5.263
315.87	5.221
316.24	5.479
316.61	4.618
316.97	4.977
317.34	4.145
317.70	5.852
318.07	5.732
318.43	6.548
318.80	7.274
319.16	6.180
319.53	6.598
319.89	5.784
320.26	7.117
320.62	7.358
320.99	6.556
321.35	6.932
321.72	8.558
322.08	7.935
322.45	8.130
322.81	8.032
323.18	9.115
323.54	9.310
323.91	10.231
324.27	8.520
324.64	9.908
325.00	10.779
325.37	9.828
325.73	9.917
326.10	10.462
326.46	11.319
326.83	11.529
327.19	11.811
327.56	11.779
327.92	11.959
328.29	12.258
328.65	11.558
329.01	11.929
329.38	12.637
329.74	13.442
330.11	13.185
330.47	12.805
330.84	12.403
331.20	13.917
331.56	13.345
331.93	13.891
332.29	13.136
332.66	14.867
333.02	14.322
333.38	14.010
333.75	14.646
334.11	14.345
334.48	15.017
334.84	15.293
335.20	14.190
335.57	14.587
335.93	15.289
336.29	12.978
336.66	13.288
337.02	14.548
337.38	14.541
337.75	13.802
338.11	14.382
338.47	13.648
338.84	14.552
339.20	13.395
339.56	14.168
339.93	14.450
340.29	15.056
340.65	15.166
341.02	14.765
341.38	15.845
341.74	14.205
342.11	15.768
342.47	14.059
342.83	15.056
343.20	15.045
343.56	14.996
343.92	15.372
344.28	14.922
344.65	15.349
345.01	15.289
345.37	14.930
345.73	15.121
346.10	15.991
346.46	15.269
346.82	15.581
347.19	15.814
347.55	16.161
347.91	14.264
348.27	15.478
348.63	15.461
349.00	15.585
349.36	15.836
349.72	15.923
350.08	16.642
350.45	16.274
350.81	16.440
351.17	15.789
351.53	16.300
351.89	16.932
352.26	16.045
352.62	16.791
352.98	15.878
353.34	15.459
353.70	16.410
354.07	17.660
354.43	16.856
354.79	17.128
355.15	16.851
355.51	17.398
355.87	16.679
356.24	16.198
356.60	15.521
356.96	18.162
357.32	16.729
357.68	17.057
358.04	16.243
358.40	17.388
358.77	18.348
359.13	16.765
359.49	17.100
359.85	16.824
360.21	18.077
360.57	18.019
360.93	17.983
361.29	17.684
361.66	18.465
362.02	19.137
362.38	18.833
362.74	18.575
363.10	19.120
363.46	18.975
363.82	19.034
364.18	19.282
364.54	19.917
364.90	19.599
365.26	18.069
365.62	19.733
365.98	19.197
366.35	18.859
366.71	20.884
367.07	19.756
367.43	20.158
367.79	20.305
368.15	20.134
368.51	20.433
368.87	20.118
369.23	20.333
369.59	20.423
369.95	19.946
370.31	20.594
370.67	20.289
371.03	20.083
371.39	21.088
371.75	21.252
372.11	21.748
372.47	21.598
372.83	21.990
373.19	21.548
373.55	21.477
373.91	21.336
374.27	21.410
374.63	22.260
374.99	22.414
375.35	22.532
375.71	21.871
376.07	21.950
376.42	22.670
376.78	23.741
377.14	22.208
377.50	24.035
377.86	23.461
378.22	23.593
378.58	23.841
378.94	23.181
379.30	24.136
379.66	23.457
380.02	23.485
380.38	24.021
380.74	24.056
381.09	24.390
381.45	24.318
381.81	25.293
382.17	24.644
382.53	24.971
382.89	23.984
383.25	24.443
383.61	24.653
383.97	25.913
384.32	25.837
384.68	23.898
385.04	26.200
385.40	26.341
385.76	26.377
386.12	26.212
386.48	25.882
386.83	26.579
387.19	27.231
387.55	25.469
387.91	26.541
388.27	28.349
388.62	27.491
388.98	25.550
389.34	27.460
389.70	27.542
390.06	26.880
390.42	27.289
390.77	27.935
391.13	27.289
391.49	26.993
391.85	27.091
392.20	27.224
392.56	27.880
392.92	28.244
393.28	28.635
393.64	28.045
393.99	28.820
394.35	28.972
394.71	28.383
395.07	28.144
395.42	28.669
395.78	29.982
396.14	28.699
396.50	28.504
396.85	28.324
397.21	28.639
397.57	29.034
397.92	28.923
398.28	28.517
398.64	29.691
399.00	28.010
399.35	29.686
399.71	29.511
400.07	29.085
400.42	29.045
400.78	29.919
401.14	29.596
401.49	30.017
401.85	30.000
402.21	30.185
402.57	30.340
402.92	29.965
403.28	29.333
403.63	29.415
403.99	29.572
404.35	29.619
404.70	29.745
405.06	29.402
405.42	29.859
405.77	30.316
406.13	30.254
406.49	29.786
406.84	29.917
407.20	29.849
407.55	29.618
407.91	29.730
408.27	29.682
408.62	30.541
408.98	30.006
409.34	29.912
409.69	30.161
410.05	29.894
410.40	29.640
410.76	29.108
411.11	29.866
411.47	30.835
411.83	31.041
412.18	31.145
412.54	30.587
412.89	30.559
413.25	30.813
413.60	30.500
413.96	30.361
414.31	30.198
414.67	30.769
415.03	30.400
415.38	30.769
415.74	30.849
416.09	31.092
416.45	30.933
416.80	29.682
417.16	30.587
417.51	30.324
417.87	31.514
418.22	30.898
418.58	31.413
418.93	31.665
419.29	30.641
419.64	31.273
420.00	30.861
420.35	31.050
420.71	31.591
421.06	31.627
421.42	31.995
421.77	31.018
422.12	31.765
422.48	31.388
422.83	32.421
423.19	32.573
423.54	31.914
423.90	31.806
424.25	31.840
424.61	30.769
424.96	31.796
425.31	32.059
425.67	31.347
426.02	33.149
426.38	31.975
426.73	32.031
427.09	33.679
427.44	31.895
427.79	32.725
428.15	31.621
428.50	31.966
428.85	32.836
429.21	33.085
429.56	31.737
429.92	32.088
430.27	32.530
430.62	32.291
430.98	33.301
431.33	32.600
431.68	31.801
432.04	32.199
432.39	31.709
432.74	32.820
433.10	33.423
433.45	32.051
433.80	32.403
434.16	33.264
434.51	33.813
434.86	33.388
435.22	33.528
435.57	33.491
435.92	33.389
436.28	32.878
436.63	34.025
436.98	32.367
437.34	34.160
437.69	33.242
438.04	33.580
438.39	33.084
438.75	33.813
439.10	33.774
439.45	33.426
439.81	33.729
440.16	34.048
440.51	34.225
440.86	33.963
441.22	33.065
441.57	35.482
441.92	34.433
442.27	35.202
442.63	33.731
442.98	34.045
443.33	34.824
443.68	35.282
444.03	35.466
444.39	34.813
444.74	35.477
445.09	34.313
445.44	34.299
445.79	35.105
446.15	34.584
446.50	34.057
446.85	35.263
447.20	34.816
447.55	35.460
447.91	34.712
448.26	34.672
448.61	35.335
448.96	35.730
449.31	35.207
449.66	33.987
450.02	35.021
450.37	35.802
450.72	35.630
451.07	34.966
451.42	34.720
451.77	34.575
452.12	35.609
452.47	34.997
452.83	35.473
453.18	34.793
453.53	34.635
453.88	34.898
454.23	35.593
454.58	35.113
454.93	35.376
455.28	36.002
455.63	35.702
455.98	35.363
456.34	35.807
456.69	35.391
457.04	36.229
457.39	35.643
457.74	36.298
458.09	34.761
458.44	35.991
458.79	34.863
459.14	34.767
459.49	36.276
459.84	35.257
460.19	34.981
460.54	35.378
460.89	35.892
461.24	34.885
461.59	35.584
461.94	35.254
462.29	34.938
462.64	35.063
462.99	35.593
463.34	35.042
463.69	34.818
464.04	35.131
464.39	34.641
464.74	33.751
465.09	35.179
465.44	35.086
465.79	35.695
466.14	33.872
466.49	34.895
466.84	35.096
467.19	34.451
467.54	34.195
467.89	34.713
468.24	35.512
468.59	33.816
468.94	33.566
469.29	34.673
469.64	35.728
469.99	34.481
470.34	34.839
470.68	34.997
471.03	34.185
471.38	34.729
471.73	34.720
472.08	35.533
472.43	34.979
472.78	34.698
473.13	34.576
473.48	35.045
473.83	35.403
474.17	34.349
474.52	35.177
474.87	33.832
475.22	34.141
475.57	34.735
475.92	33.897
476.27	34.079
476.61	34.008
476.96	33.316
477.31	33.861
477.66	34.050
478.01	34.011
478.36	33.699
478.70	33.596
479.05	33.845
479.40	34.600
479.75	33.814
480.10	33.207
480.45	33.364
480.79	34.195
481.14	34.237
481.49	33.621
481.84	33.551
482.19	33.634
482.53	33.581
482.88	33.097
483.23	34.415
483.58	33.144
483.92	32.979
484.27	33.446
484.62	33.045
484.97	33.670
485.31	33.193
485.66	30.354
486.01	30.877
486.36	31.792
486.70	32.402
487.05	32.964
487.40	32.366
487.75	32.366
488.09	31.530
488.44	30.949
488.79	32.782
489.13	32.730
489.48	31.379
489.83	31.751
490.17	32.361
490.52	32.266
490.87	32.445
491.22	33.146
491.56	33.020
491.91	32.447
492.26	32.410
492.60	31.963
492.95	32.602
493.30	32.183
493.64	32.238
493.99	32.675
494.34	31.925
494.68	31.949
495.03	32.070
495.37	32.091
495.72	31.247
496.07	32.165
496.41	31.660
496.76	31.902
497.11	31.040
497.45	31.593
497.80	31.186
498.14	31.020
498.49	31.985
498.84	31.718
499.18	31.939
499.53	31.570
499.87	31.780
500.22	30.899
500.56	31.084
500.91	31.762
501.26	31.682
501.60	30.446
501.95	30.786
502.29	31.242
502.64	30.914
502.98	30.544
503.33	30.194
503.67	30.179
504.02	29.772
504.36	30.920
504.71	31.236
505.06	30.150
505.40	30.119
505.75	31.284
506.09	31.123
506.44	31.476
506.78	30.413
507.13	30.337
507.47	29.891
507.82	29.830
508.16	30.306
508.51	29.911
508.85	30.137
509.19	30.175
509.54	30.500
509.88	30.306
510.23	30.015
510.57	29.870
510.92	30.092
511.26	30.014
511.61	29.648
511.95	29.575
512.30	30.034
512.64	29.485
512.98	29.015
513.33	30.192
513.67	30.291
514.02	30.148
514.36	29.923
514.70	29.844
515.05	30.344
515.39	29.659
515.74	29.852
516.08	30.058
516.42	30.665
516.77	29.390
517.11	29.706
517.46	30.276
517.80	29.824
518.14	29.978
518.49	29.447
518.83	29.431
519.17	29.187
519.52	29.927
519.86	29.145
520.20	30.085
520.55	29.135
520.89	29.448
521.23	28.755
521.58	30.282
521.92	28.725
522.26	29.095
522.61	29.225
522.95	28.028
523.29	29.885
523.64	29.765
523.98	29.606
524.32	29.742
524.66	29.767
525.01	28.822
525.35	29.064
525.69	28.132
526.04	28.416
526.38	29.713
526.72	29.066
527.06	28.328
527.41	27.930
527.75	28.800
528.09	28.040
528.43	28.656
528.78	28.150
529.12	27.924
529.46	27.656
529.80	27.689
530.15	28.058
530.49	27.699
530.83	28.040
531.17	27.240
531.51	28.039
531.86	29.087
532.20	27.744
532.54	27.409
532.88	27.455
533.22	27.283
533.57	28.159
533.91	27.497
534.25	27.304
534.59	27.011
534.93	27.617
535.27	27.380
535.62	26.777
535.96	28.239
536.30	26.381
536.64	27.267
536.98	26.507
537.32	26.790
537.66	27.137
538.01	26.103
538.35	25.883
538.69	26.562
539.03	27.590
539.37	26.737
539.71	27.027
540.05	26.139
540.39	27.323
540.73	25.804
541.07	26.303
541.42	25.517
541.76	26.572
542.10	26.719
542.44	26.675
542.78	26.825
543.12	26.103
543.46	26.557
543.80	25.540
544.14	26.391
544.48	25.709
544.82	26.691
545.16	25.641
545.50	24.805
545.84	24.923
546.18	26.667
546.52	24.841
546.86	25.849
547.20	24.809
547.54	24.407
547.88	24.473
548.22	25.263
548.56	24.751
548.90	24.955
549.24	24.863
549.58	24.921
549.92	25.255
550.26	25.372
550.60	24.314
550.94	24.580
551.28	25.479
551.62	25.472
551.96	25.113
552.30	24.984
552.64	23.833
552.98	24.017
553.32	25.145
553.66	24.566
554.00	25.284
554.34	24.646
554.68	24.790
555.02	24.967
555.36	25.378
555.69	23.639
556.03	23.770
556.37	24.844
556.71	24.160
557.05	23.834
557.39	24.419
557.73	25.099
558.07	24.768
558.41	24.120
558.75	23.529
559.08	24.287
559.42	24.623
559.76	24.084
560.10	24.046
560.44	24.011
560.78	24.500
561.12	23.768
561.45	23.723
561.79	24.359
562.13	23.906
562.47	23.120
562.81	23.671
563.15	23.990
563.48	22.685
563.82	23.398
564.16	22.956
564.50	22.408
564.84	23.422
565.17	23.529
565.51	22.785
565.85	22.506
566.19	23.272
566.52	22.996
566.86	23.430
567.20	21.968
567.54	23.101
567.88	22.375
568.21	22.283
568.55	22.206
568.89	22.333
569.23	22.307
569.56	21.923
569.90	21.882
570.24	22.024
570.57	21.713
570.91	21.280
571.25	20.856
571.59	20.735
571.92	20.842
572.26	20.646
572.60	21.048
572.93	20.679
573.27	21.073
573.61	20.725
573.95	20.612
574.28	20.626
574.62	20.941
574.96	19.938
575.29	20.026
575.63	20.143
575.97	20.144
576.30	20.183
576.64	20.377
576.98	20.319
577.31	20.258
577.65	20.223
577.98	20.275
578.32	19.875
578.66	19.544
578.99	19.496
579.33	20.253
579.67	19.424
580.00	19.645
580.34	19.459
580.67	19.263
581.01	19.537
581.35	19.657
581.68	19.627
582.02	19.218
582.35	19.665
582.69	19.637
583.02	19.809
583.36	19.573
583.70	19.632
584.03	19.222
584.37	19.798
584.70	19.095
585.04	19.158
585.37	19.532
585.71	19.245
586.04	19.111
586.38	19.197
586.72	18.977
587.05	18.982
587.39	18.923
587.72	19.785
588.06	19.657
588.39	19.218
588.73	19.312
589.06	18.990
589.40	18.777
589.73	19.569
590.07	19.430
590.40	20.250
590.73	20.007
591.07	19.993
591.40	18.896
591.74	18.879
592.07	19.854
592.41	19.440
592.74	18.814
593.08	18.949
593.41	19.248
593.75	19.483
594.08	18.903
594.41	19.199
594.75	19.296
595.08	18.439
595.42	18.929
595.75	19.277
596.09	19.417
596.42	18.775
596.75	18.603
597.09	19.636
597.42	18.991
597.75	19.247
598.09	19.484
598.42	19.300
598.76	17.845
599.09	18.583
599.42	18.371
599.76	18.455
600.09	18.652
600.42	18.685
600.76	17.933
601.09	17.889
601.42	18.057
601.76	18.483
602.09	18.871
602.42	17.630
602.76	18.266
603.09	18.098
603.42	18.389
603.76	18.464
604.09	18.914
604.42	18.202
604.76	17.618
605.09	18.548
605.42	18.381
605.75	18.423
606.09	17.954
606.42	17.585
606.75	17.466
607.09	17.320
607.42	17.726
607.75	18.249
608.08	18.153
608.42	17.936
608.75	17.952
609.08	18.251
609.41	17.380
609.75	17.768
610.08	18.382
610.41	18.182
610.74	18.655
611.07	18.250
611.41	18.565
611.74	18.014
612.07	18.046
612.40	17.205
612.73	17.995
613.07	18.337
613.40	18.576
613.73	17.959
614.06	18.351
614.39	18.173
614.72	17.564
615.06	17.757
615.39	17.158
615.72	18.436
616.05	17.630
616.38	17.709
616.71	17.973
617.05	17.306
617.38	18.406
617.71	18.629
618.04	17.647
618.37	18.087
618.70	19.287
619.03	18.041
619.36	18.311
619.69	18.898
620.03	18.456
620.36	17.546
620.69	17.829
621.02	18.176
621.35	18.215
621.68	18.872
622.01	18.221
622.34	17.713
622.67	18.969
623.00	17.544
623.33	18.182
623.66	17.510
623.99	17.643
624.32	18.778
624.65	18.211
624.99	17.685
625.32	18.289
625.65	18.071
625.98	17.627
626.31	17.647
626.64	18.168
626.97	16.729
627.30	17.084
627.63	17.254
627.96	18.318
628.29	18.288
628.62	18.052
628.95	17.791
629.28	19.201
629.61	18.350
629.94	17.824
630.26	17.966
630.59	18.826
630.92	17.576
631.25	18.426
631.58	19.492
631.91	18.369
632.24	17.771
632.57	18.121
632.90	18.255
633.23	17.653
633.56	17.551
633.89	17.562
634.22	18.191
634.55	18.789
634.88	18.290
635.20	18.622
635.53	19.209
635.86	19.177
636.19	18.346
636.52	19.093
636.85	18.182
637.18	18.919
637.51	18.817
637.83	18.494
