SpectraSuite Data File
++++++++++++++++++++++++++++++++++++
Date: Thu May 14 16:32:56 PDT 2015
User: schluterlab
Dark Spectrum Present: Yes
Reference Spectrum Present: Yes
Number of Sampled Component Spectra: 1
Spectrometers: USB2E3373
Integration Time (usec): 3000 (USB2E3373)
Spectra Averaged: 3 (USB2E3373)
Boxcar Smoothing: 0 (USB2E3373)
Correct for Electrical Dark: No (USB2E3373)
Strobe/Lamp Enabled: No (USB2E3373)
Correct for Detector Non-linearity: No (USB2E3373)
Correct for Stray Light: No (USB2E3373)
Number of Pixels in Processed Spectrum: 2048
>>>>>Begin Processed Spectral Data<<<<<
178.53	0.000
178.91	28.571
179.29	-700.000
179.67	-100.000
180.04	78.571
180.42	-30.000
180.80	60.000
181.18	-1400.000
181.56	-100.000
181.94	200.000
182.31	-100.000
182.69	166.667
183.07	-100.000
183.45	50.000
183.83	33.333
184.20	-33.333
184.58	700.000
184.96	125.000
185.34	22.222
185.72	80.000
186.09	122.222
186.47	350.000
186.85	340.000
187.23	-111.111
187.61	-500.000
187.98	60.000
188.36	275.000
188.74	0.000
189.12	-200.000
189.49	0.000
189.87	-75.000
190.25	-22.222
190.63	-60.000
191.00	-22.222
191.38	0.000
191.76	-75.000
192.14	-83.333
192.51	400.000
192.89	16.667
193.27	0.000
193.65	128.571
194.02	-900.000
194.40	28.571
194.78	-0.000
195.15	0.000
195.53	0.000
195.91	0.000
196.29	-75.000
196.66	-30.769
197.04	100.000
197.42	57.143
197.79	-400.000
198.17	-25.000
198.55	-42.857
198.92	44.444
199.30	-62.500
199.68	72.727
200.05	28.571
200.43	-850.000
200.81	185.714
201.18	0.000
201.56	88.889
201.94	0.000
202.31	366.667
202.69	-100.000
203.07	-200.000
203.44	-11.111
203.82	-50.000
204.19	100.000
204.57	-133.333
204.95	-25.000
205.32	-600.000
205.70	225.000
206.08	-133.333
206.45	83.333
206.83	200.000
207.20	33.333
207.58	-140.000
207.96	-83.333
208.33	50.000
208.71	108.333
209.08	166.667
209.46	0.000
209.84	266.667
210.21	650.000
210.59	150.000
210.96	100.000
211.34	-75.000
211.71	137.500
212.09	-500.000
212.46	0.000
212.84	350.000
213.22	-160.000
213.59	-50.000
213.97	20.000
214.34	-166.667
214.72	83.333
215.09	0.000
215.47	0.000
215.84	157.143
216.22	200.000
216.59	100.000
216.97	-180.000
217.34	-100.000
217.72	75.000
218.09	-75.000
218.47	-200.000
218.84	0.000
219.22	140.000
219.59	-23.529
219.97	-20.000
220.34	350.000
220.72	22.222
221.09	38.462
221.47	166.667
221.84	10.000
222.22	-114.286
222.59	0.000
222.97	-12.500
223.34	-80.000
223.72	-600.000
224.09	-225.000
224.46	25.000
224.84	-20.000
225.21	0.000
225.59	200.000
225.96	-200.000
226.34	46.154
226.71	266.667
227.08	-200.000
227.46	6.667
227.83	-75.000
228.21	5.263
228.58	75.000
228.95	600.000
229.33	33.333
229.70	-20.000
230.08	42.105
230.45	110.000
230.82	-166.667
231.20	-14.286
231.57	33.333
231.95	-81.818
232.32	54.545
232.69	-10.000
233.07	-75.000
233.44	-41.176
233.81	-20.000
234.19	11.111
234.56	4.545
234.93	48.276
235.31	0.000
235.68	-5.556
236.05	-65.000
236.43	30.769
236.80	64.000
237.17	55.556
237.55	0.000
237.92	-50.000
238.29	-12.903
238.67	-18.182
239.04	5.556
239.41	2.381
239.79	13.043
240.16	0.000
240.53	-8.696
240.91	-19.608
241.28	-6.557
241.65	7.463
242.02	6.757
242.40	-13.846
242.77	2.667
243.14	0.000
243.51	-23.684
243.89	-7.692
244.26	5.941
244.63	14.706
245.00	-1.869
245.38	-7.018
245.75	-12.389
246.12	0.794
246.49	3.101
246.87	5.714
247.24	5.960
247.61	4.605
247.98	0.671
248.36	2.469
248.73	-7.362
249.10	0.000
249.47	5.473
249.84	9.424
250.22	1.036
250.59	1.111
250.96	4.545
251.33	-2.041
251.70	0.855
252.08	0.417
252.45	0.820
252.82	-3.719
253.19	-4.297
253.56	0.380
253.94	0.000
254.31	0.379
254.68	3.497
255.05	3.583
255.42	0.680
255.79	2.913
256.16	1.987
256.54	-2.318
256.91	1.311
257.28	1.311
257.65	0.637
258.02	-1.180
258.39	1.140
258.76	5.199
259.14	4.310
259.51	-1.153
259.88	0.850
260.25	0.278
260.62	2.192
260.99	0.820
261.36	1.609
261.73	-0.796
262.10	0.000
262.47	-1.072
262.85	4.545
263.22	0.779
263.59	-2.368
263.96	0.512
264.33	-0.767
264.70	3.457
265.07	1.193
265.44	3.175
265.81	-0.463
266.18	3.628
266.55	1.339
266.92	-0.228
267.29	3.282
267.66	-0.222
268.03	1.310
268.40	1.670
268.77	-0.911
269.14	1.101
269.51	1.535
269.88	2.869
270.25	2.414
270.62	0.633
270.99	2.424
271.36	2.970
271.73	2.358
272.10	2.806
272.47	0.401
272.84	1.004
273.21	0.000
273.58	0.202
273.95	1.538
274.32	0.190
274.69	0.387
275.06	1.465
275.43	0.924
275.80	2.646
276.17	-0.370
276.54	1.679
276.91	0.179
277.28	0.362
277.65	2.334
278.02	1.287
278.39	0.906
278.76	-0.527
279.13	0.355
279.50	2.234
279.87	2.683
280.23	-0.352
280.60	1.525
280.97	4.112
281.34	1.698
281.71	1.523
282.08	1.993
282.45	0.491
282.82	0.314
283.19	-1.616
283.56	0.820
283.92	2.703
284.29	3.476
284.66	1.970
285.03	-0.801
285.40	1.700
285.77	0.619
286.14	2.595
286.51	2.131
286.87	2.686
287.24	1.355
287.61	0.000
287.98	0.151
288.35	1.923
288.72	0.888
289.08	2.050
289.45	1.923
289.82	1.205
290.19	2.299
290.56	3.239
290.93	2.140
291.29	2.342
291.66	0.964
292.03	2.035
292.40	3.401
292.77	2.426
293.13	2.436
293.50	1.840
293.87	2.819
294.24	3.600
294.60	3.034
294.97	0.805
295.34	4.609
295.71	2.144
296.08	2.584
296.44	3.186
296.81	1.096
297.18	2.615
297.55	2.005
297.91	2.610
298.28	1.303
298.65	3.686
299.02	2.597
299.38	3.661
299.75	3.972
300.12	0.810
300.48	2.304
300.85	2.587
301.22	3.020
301.59	2.854
301.95	3.051
302.32	5.556
302.69	2.957
303.05	3.700
303.42	4.324
303.79	3.229
304.15	3.891
304.52	3.383
304.89	4.188
305.25	3.623
305.62	3.971
305.99	3.608
306.35	2.923
306.72	4.447
307.09	3.452
307.45	3.623
307.82	4.238
308.19	3.128
308.55	4.243
308.92	4.674
309.29	6.130
309.65	4.776
310.02	4.257
310.38	3.543
310.75	4.175
311.12	5.369
311.48	5.474
311.85	5.223
312.22	4.934
312.58	5.164
312.95	4.207
313.31	5.059
313.68	5.495
314.05	5.330
314.41	5.829
314.78	6.085
315.14	6.171
315.51	7.295
315.87	7.651
316.24	7.671
316.61	6.927
316.97	6.516
317.34	5.996
317.70	8.122
318.07	6.878
318.43	7.653
318.80	9.114
319.16	6.524
319.53	6.855
319.89	8.063
320.26	8.541
320.62	8.511
320.99	8.495
321.35	8.503
321.72	9.953
322.08	7.935
322.45	7.769
322.81	9.477
323.18	9.381
323.54	9.828
323.91	10.320
324.27	8.606
324.64	10.831
325.00	9.453
325.37	10.811
325.73	10.744
326.10	11.354
326.46	10.749
326.83	12.090
327.19	11.969
327.56	11.937
327.92	11.251
328.29	12.339
328.65	11.725
329.01	12.690
329.38	11.963
329.74	11.901
330.11	12.329
330.47	12.384
330.84	12.834
331.20	12.417
331.56	12.132
331.93	13.473
332.29	12.373
332.66	12.708
333.02	11.223
333.38	12.416
333.75	12.626
334.11	11.927
334.48	12.706
334.84	13.254
335.20	12.594
335.57	13.238
335.93	13.058
336.29	12.313
336.66	12.279
337.02	13.629
337.38	12.075
337.75	12.893
338.11	12.279
338.47	12.821
338.84	12.014
339.20	10.952
339.56	11.779
339.93	11.987
340.29	12.721
340.65	12.571
341.02	13.089
341.38	12.126
341.74	12.591
342.11	13.355
342.47	11.597
342.83	12.641
343.20	11.774
343.56	11.949
343.92	12.890
344.28	12.188
344.65	12.636
345.01	12.871
345.37	13.453
345.73	12.081
346.10	13.417
346.46	11.867
346.82	12.959
347.19	12.299
347.55	11.912
347.91	12.333
348.27	11.608
348.63	13.100
349.00	11.335
349.36	11.970
349.72	11.979
350.08	12.333
350.45	11.255
350.81	11.388
351.17	12.180
351.53	12.206
351.89	12.680
352.26	12.388
352.62	11.418
352.98	12.443
353.34	12.099
353.70	11.402
354.07	11.997
354.43	11.162
354.79	11.668
355.15	11.773
355.51	12.573
355.87	11.743
356.24	11.635
356.60	11.530
356.96	12.157
357.32	10.335
357.68	11.054
358.04	10.928
358.40	11.194
358.77	11.988
359.13	11.817
359.49	11.152
359.85	10.660
360.21	10.904
360.57	10.481
360.93	11.142
361.29	12.421
361.66	11.513
362.02	11.969
362.38	10.682
362.74	12.500
363.10	12.173
363.46	10.526
363.82	11.648
364.18	11.260
364.54	12.033
364.90	11.505
365.26	10.207
365.62	12.067
365.98	11.709
366.35	11.477
366.71	11.769
367.07	11.231
367.43	11.622
367.79	12.143
368.15	11.839
368.51	12.246
368.87	11.300
369.23	11.933
369.59	11.817
369.95	11.562
370.31	12.086
370.67	12.105
371.03	11.565
371.39	10.678
371.75	11.898
372.11	11.721
372.47	10.900
372.83	12.565
373.19	11.408
373.55	11.585
373.91	11.111
374.27	10.867
374.63	10.893
374.99	11.936
375.35	12.468
375.71	11.226
376.07	11.620
376.42	11.776
376.78	12.368
377.14	11.915
377.50	11.132
377.86	12.254
378.22	11.557
378.58	11.831
378.94	11.678
379.30	11.599
379.66	11.640
380.02	11.194
380.38	11.982
380.74	11.155
381.09	11.905
381.45	11.761
381.81	11.827
382.17	10.808
382.53	11.696
382.89	11.512
383.25	12.016
383.61	11.285
383.97	10.718
384.32	12.321
384.68	11.079
385.04	11.394
385.40	11.668
385.76	11.723
386.12	11.430
386.48	11.765
386.83	11.740
387.19	11.008
387.55	10.622
387.91	11.701
388.27	11.490
388.62	10.882
388.98	10.547
389.34	11.314
389.70	11.389
390.06	11.190
390.42	11.506
390.77	12.222
391.13	11.620
391.49	11.655
391.85	10.485
392.20	11.388
392.56	11.577
392.92	11.341
393.28	11.332
393.64	11.732
393.99	11.156
394.35	10.748
394.71	11.437
395.07	10.838
395.42	11.936
395.78	11.822
396.14	11.052
396.50	10.808
396.85	11.270
397.21	11.893
397.57	10.660
397.92	11.627
398.28	10.429
398.64	10.183
399.00	10.628
399.35	10.681
399.71	10.978
400.07	11.230
400.42	10.827
400.78	11.169
401.14	10.814
401.49	11.086
401.85	11.047
402.21	11.008
402.57	10.974
402.92	10.816
403.28	10.363
403.63	9.964
403.99	11.045
404.35	10.802
404.70	11.161
405.06	10.761
405.42	10.246
405.77	11.069
406.13	10.049
406.49	11.261
406.84	10.970
407.20	10.844
407.55	9.994
407.91	10.182
408.27	10.542
408.62	10.413
408.98	9.867
409.34	10.323
409.69	10.630
410.05	10.785
410.40	11.601
410.76	10.432
411.11	10.462
411.47	11.241
411.83	10.464
412.18	10.060
412.54	10.611
412.89	10.303
413.25	10.158
413.60	10.396
413.96	10.023
414.31	10.878
414.67	9.600
415.03	10.523
415.38	10.277
415.74	9.896
416.09	10.241
416.45	10.207
416.80	9.976
417.16	9.898
417.51	10.274
417.87	10.055
418.22	9.641
418.58	10.285
418.93	11.234
419.29	9.741
419.64	9.724
420.00	9.614
420.35	9.657
420.71	9.592
421.06	10.466
421.42	10.034
421.77	10.393
422.12	10.571
422.48	9.933
422.83	10.077
423.19	9.443
423.54	9.790
423.90	10.050
424.25	11.093
424.61	10.103
424.96	10.873
425.31	10.669
425.67	9.447
426.02	10.238
426.38	10.563
426.73	9.877
427.09	10.727
427.44	9.503
427.79	9.619
428.15	9.475
428.50	10.056
428.85	10.218
429.21	10.798
429.56	9.970
429.92	10.663
430.27	9.735
430.62	9.868
430.98	9.690
431.33	9.775
431.68	9.962
432.04	10.056
432.39	9.748
432.74	10.217
433.10	10.276
433.45	9.866
433.80	9.764
434.16	10.176
434.51	9.866
434.86	9.772
435.22	9.936
435.57	10.436
435.92	9.572
436.28	10.296
436.63	9.940
436.98	10.360
437.34	9.076
437.69	9.301
438.04	10.206
438.39	9.707
438.75	9.685
439.10	10.148
439.45	10.117
439.81	9.718
440.16	10.241
440.51	9.922
440.86	9.616
441.22	10.557
441.57	9.696
441.92	9.990
442.27	9.394
442.63	9.985
442.98	10.566
443.33	10.205
443.68	10.505
444.03	10.489
444.39	10.448
444.74	10.516
445.09	9.883
445.44	9.747
445.79	10.345
446.15	9.609
446.50	10.233
446.85	10.603
447.20	10.251
447.55	9.676
447.91	10.052
448.26	10.359
448.61	9.883
448.96	10.569
449.31	10.286
449.66	9.749
450.02	10.338
450.37	10.282
450.72	9.957
451.07	10.137
451.42	9.936
451.77	9.116
452.12	9.707
452.47	9.507
452.83	9.685
453.18	9.632
453.53	9.822
453.88	9.498
454.23	10.452
454.58	9.925
454.93	8.920
455.28	10.415
455.63	9.437
455.98	9.162
456.34	9.717
456.69	9.583
457.04	9.574
457.39	10.532
457.74	9.732
458.09	9.830
458.44	10.399
458.79	9.077
459.14	9.544
459.49	9.734
459.84	10.231
460.19	9.384
460.54	9.767
460.89	10.058
461.24	9.425
461.59	9.574
461.94	8.671
462.29	9.462
462.64	9.475
462.99	8.663
463.34	10.448
463.69	9.320
464.04	10.450
464.39	9.809
464.74	10.433
465.09	9.400
465.44	9.657
465.79	9.201
466.14	8.755
466.49	9.211
466.84	8.705
467.19	9.480
467.54	10.223
467.89	9.195
468.24	9.418
468.59	9.033
468.94	8.566
469.29	8.998
469.64	8.900
469.99	9.751
470.34	9.344
470.68	9.159
471.03	9.168
471.38	9.156
471.73	8.453
472.08	9.074
472.43	8.549
472.78	9.257
473.13	9.418
473.48	8.640
473.83	9.402
474.17	9.437
474.52	9.321
474.87	8.970
475.22	9.465
475.57	8.930
475.92	9.308
476.27	9.105
476.61	8.930
476.96	8.551
477.31	9.158
477.66	9.129
478.01	9.558
478.36	9.372
478.70	8.867
479.05	8.487
479.40	8.885
479.75	9.078
480.10	9.332
480.45	8.888
480.79	9.796
481.14	8.869
481.49	8.814
481.84	9.312
482.19	9.032
482.53	8.833
482.88	9.127
483.23	8.759
483.58	8.559
483.92	8.289
484.27	8.848
484.62	9.117
484.97	8.942
485.31	8.166
485.66	8.264
486.01	8.144
486.36	8.235
486.70	8.719
487.05	8.835
487.40	8.660
487.75	8.448
488.09	8.904
488.44	8.292
488.79	8.567
489.13	9.015
489.48	8.000
489.83	8.249
490.17	7.938
490.52	8.703
490.87	8.333
491.22	8.059
491.56	8.831
491.91	7.981
492.26	8.222
492.60	8.352
492.95	8.732
493.30	8.023
493.64	8.147
493.99	8.158
494.34	8.057
494.68	8.094
495.03	8.326
495.37	8.034
495.72	8.027
496.07	8.282
496.41	8.065
496.76	8.632
497.11	8.068
497.45	7.855
497.80	7.908
498.14	7.347
498.49	8.778
498.84	7.907
499.18	8.232
499.53	8.341
499.87	8.747
500.22	7.658
500.56	8.007
500.91	7.323
501.26	8.273
501.60	7.335
501.95	8.076
502.29	8.293
502.64	8.264
502.98	8.067
503.33	7.862
503.67	7.370
504.02	7.837
504.36	8.266
504.71	7.855
505.06	8.095
505.40	7.952
505.75	8.015
506.09	7.965
506.44	7.660
506.78	8.028
507.13	8.253
507.47	7.864
507.82	7.244
508.16	7.648
508.51	7.361
508.85	7.794
509.19	7.674
509.54	7.925
509.88	7.237
510.23	7.819
510.57	7.975
510.92	7.983
511.26	7.504
511.61	6.857
511.95	7.077
512.30	7.829
512.64	7.496
512.98	7.404
513.33	8.065
513.67	7.700
514.02	7.716
514.36	6.957
514.70	6.927
515.05	7.821
515.39	7.769
515.74	8.378
516.08	7.396
516.42	8.111
516.77	7.466
517.11	6.859
517.46	7.847
517.80	7.536
518.14	7.780
518.49	7.592
518.83	7.344
519.17	7.001
519.52	7.390
519.86	8.025
520.20	7.614
520.55	7.338
520.89	7.432
521.23	7.594
521.58	7.345
521.92	7.309
522.26	6.930
522.61	6.829
522.95	7.497
523.29	7.069
523.64	7.735
523.98	7.587
524.32	7.851
524.66	7.171
525.01	7.022
525.35	7.639
525.69	7.425
526.04	6.659
526.38	7.586
526.72	7.785
527.06	7.331
527.41	7.464
527.75	7.482
528.09	7.438
528.43	7.046
528.78	6.705
529.12	6.938
529.46	6.914
529.80	7.323
530.15	6.841
530.49	7.295
530.83	7.556
531.17	6.810
531.51	7.220
531.86	7.512
532.20	7.195
532.54	6.523
532.88	6.970
533.22	6.600
533.57	7.155
533.91	7.688
534.25	6.783
534.59	6.667
534.93	6.848
535.27	5.915
535.62	7.106
535.96	6.915
536.30	6.698
536.64	6.967
536.98	7.380
537.32	6.481
537.66	7.486
538.01	6.465
538.35	6.882
538.69	6.731
539.03	7.480
539.37	6.714
539.71	6.727
540.05	7.134
540.39	6.601
540.73	6.254
541.07	6.560
541.42	7.324
541.76	6.406
542.10	6.755
542.44	6.821
542.78	7.360
543.12	7.688
543.46	6.471
543.80	6.655
544.14	6.822
544.48	7.565
544.82	6.523
545.16	6.619
545.50	6.351
545.84	6.430
546.18	7.654
546.52	6.624
546.86	6.730
547.20	6.043
547.54	6.929
547.88	6.811
548.22	6.140
548.56	6.319
548.90	6.090
549.24	6.565
549.58	6.877
549.92	6.314
550.26	6.602
550.60	6.573
550.94	6.662
551.28	6.931
551.62	6.402
551.96	6.472
552.30	7.457
552.64	6.721
552.98	6.051
553.32	6.431
553.66	6.495
554.00	6.557
554.34	5.663
554.68	6.068
555.02	5.979
555.36	6.509
555.69	5.894
556.03	5.612
556.37	7.447
556.71	6.531
557.05	6.645
557.39	6.437
557.73	6.473
558.07	5.430
558.41	6.645
558.75	5.950
559.08	6.611
559.42	6.241
559.76	6.377
560.10	6.028
560.44	5.805
560.78	6.063
561.12	5.665
561.45	5.779
561.79	6.593
562.13	6.223
562.47	5.487
562.81	5.253
563.15	6.061
563.48	6.277
563.82	5.804
564.16	5.512
564.50	5.304
564.84	5.605
565.17	6.353
565.51	5.524
565.85	5.285
566.19	5.703
566.52	5.734
566.86	5.659
567.20	5.546
567.54	5.311
567.88	5.810
568.21	5.731
568.55	6.235
568.89	5.674
569.23	5.999
569.56	5.510
569.90	5.952
570.24	5.531
570.57	5.035
570.91	4.991
571.25	5.467
571.59	5.761
571.92	5.464
572.26	5.267
572.60	5.542
572.93	5.483
573.27	5.226
573.61	5.770
573.95	5.730
574.28	5.583
574.62	5.457
574.96	5.007
575.29	5.089
575.63	5.313
575.97	5.126
576.30	5.280
576.64	5.011
576.98	5.330
577.31	5.169
577.65	5.303
577.98	5.215
578.32	5.093
578.66	4.975
578.99	4.997
579.33	5.602
579.67	5.032
580.00	5.080
580.34	5.563
580.67	5.097
581.01	5.106
581.35	5.280
581.68	5.288
582.02	4.951
582.35	5.459
582.69	5.063
583.02	5.195
583.36	5.237
583.70	5.317
584.03	5.304
584.37	5.184
584.70	4.914
585.04	4.976
585.37	5.126
585.71	4.854
586.04	4.976
586.38	5.246
586.72	4.663
587.05	4.988
587.39	5.435
587.72	5.048
588.06	5.005
588.39	5.278
588.73	5.265
589.06	5.277
589.40	4.948
589.73	5.013
590.07	5.438
590.40	5.240
590.73	5.444
591.07	5.287
591.40	4.627
591.74	5.246
592.07	5.197
592.41	4.574
592.74	5.680
593.08	5.350
593.41	5.453
593.75	4.914
594.08	5.059
594.41	5.096
594.75	4.816
595.08	4.711
595.42	4.935
595.75	5.102
596.09	5.659
596.42	4.944
596.75	5.017
597.09	5.051
597.42	4.887
597.75	5.566
598.09	5.040
598.42	5.066
598.76	5.082
599.09	4.984
599.42	5.028
599.76	4.985
600.09	5.272
600.42	5.072
600.76	5.218
601.09	4.912
601.42	4.772
601.76	4.897
602.09	5.182
602.42	4.653
602.76	4.465
603.09	4.846
603.42	5.022
603.76	4.123
604.09	5.004
604.42	5.064
604.76	4.414
605.09	5.066
605.42	4.944
605.75	4.885
606.09	4.666
606.42	4.779
606.75	4.573
607.09	4.378
607.42	4.509
607.75	4.689
608.08	5.012
608.42	4.877
608.75	5.265
609.08	5.475
609.41	4.235
609.75	5.000
610.08	4.573
610.41	4.800
610.74	5.084
611.07	5.107
611.41	4.978
611.74	4.988
612.07	5.517
612.40	4.325
612.73	4.792
613.07	5.281
613.40	5.053
613.73	5.344
614.06	5.348
614.39	4.665
614.72	4.803
615.06	4.427
615.39	4.447
615.72	4.597
616.05	5.051
616.38	5.146
616.71	5.120
617.05	4.047
617.38	5.564
617.71	4.482
618.04	4.749
618.37	5.027
618.70	4.751
619.03	4.301
619.36	4.069
619.69	5.125
620.03	4.206
620.36	5.031
620.69	4.318
621.02	5.052
621.35	4.935
621.68	5.134
622.01	5.623
622.34	4.324
622.67	3.849
623.00	3.779
623.33	4.977
623.66	4.799
623.99	4.147
624.32	5.523
624.65	5.212
624.99	4.941
625.32	4.768
625.65	4.788
625.98	4.407
626.31	4.323
626.64	5.055
626.97	4.126
627.30	4.176
627.63	5.101
627.96	4.955
628.29	4.669
628.62	3.778
628.95	3.769
629.28	4.503
629.61	5.135
629.94	4.268
630.26	4.746
630.59	4.577
630.92	5.108
631.25	4.741
631.58	4.614
631.91	3.749
632.24	4.419
632.57	5.028
632.90	5.216
633.23	4.592
633.56	4.388
633.89	3.616
634.22	4.782
634.55	4.489
634.88	4.004
635.20	5.597
635.53	3.616
635.86	4.984
636.19	6.257
636.52	4.852
636.85	5.209
637.18	4.054
637.51	4.624
637.83	5.094
638.16	4.839
638.49	3.991
638.82	4.961
639.15	3.551
639.48	4.734
639.81	4.965
640.13	4.358
640.46	4.970
640.79	3.186
641.12	5.217
641.45	4.768
641.77	4.878
642.10	4.199
642.43	5.585
642.76	5.149
643.09	4.932
643.41	4.482
643.74	3.448
644.07	5.241
644.40	4.668
644.73	3.919
645.05	3.965
645.38	4.892
645.71	3.079
646.04	5.452
646.36	4.818
646.69	3.374
647.02	3.670
647.35	4.580
647.67	5.797
648.00	4.618
648.33	4.204
648.66	3.281
648.98	3.810
649.31	4.060
649.64	5.179
649.96	5.968
650.29	3.199
650.62	5.092
650.94	4.204
651.27	1.946
651.60	2.778
651.92	5.319
652.25	5.065
