SpectraSuite Data File
++++++++++++++++++++++++++++++++++++
Date: Thu May 14 15:52:29 PDT 2015
User: schluterlab
Dark Spectrum Present: Yes
Reference Spectrum Present: Yes
Number of Sampled Component Spectra: 1
Spectrometers: USB2E3373
Integration Time (usec): 3000 (USB2E3373)
Spectra Averaged: 3 (USB2E3373)
Boxcar Smoothing: 0 (USB2E3373)
Correct for Electrical Dark: No (USB2E3373)
Strobe/Lamp Enabled: No (USB2E3373)
Correct for Detector Non-linearity: No (USB2E3373)
Correct for Stray Light: No (USB2E3373)
Number of Pixels in Processed Spectrum: 2048
>>>>>Begin Processed Spectral Data<<<<<
178.53	0.000
178.91	614.286
179.29	-4200.000
179.67	-4500.000
180.04	378.571
180.42	350.000
180.80	740.000
181.18	-3700.000
181.56	-3200.000
181.94	875.000
182.31	-700.000
182.69	1466.667
183.07	-2250.000
183.45	1225.000
183.83	-633.333
184.20	-1166.667
184.58	2900.000
184.96	-850.000
185.34	-477.778
185.72	-620.000
186.09	466.667
186.47	1700.000
186.85	900.000
187.23	-500.000
187.61	-4300.000
187.98	760.000
188.36	1050.000
188.74	-900.000
189.12	-1266.667
189.49	-168.750
189.87	-587.500
190.25	-366.667
190.63	-740.000
191.00	-466.667
191.38	0.000
191.76	-1125.000
192.14	-750.000
192.51	2100.000
192.89	-650.000
193.27	0.000
193.65	-514.286
194.02	-5100.000
194.40	-500.000
194.78	585.714
195.15	0.000
195.53	-272.727
195.91	0.000
196.29	-625.000
196.66	-269.231
197.04	-5300.000
197.42	-657.143
197.79	-2350.000
198.17	-500.000
198.55	-571.429
198.92	-388.889
199.30	-475.000
199.68	-300.000
200.05	-278.571
200.43	-2100.000
200.81	657.143
201.18	0.000
201.56	455.556
201.94	0.000
202.31	1400.000
202.69	-455.556
203.07	3400.000
203.44	-388.889
203.82	-975.000
204.19	-283.333
204.57	-550.000
204.95	-587.500
205.32	-4200.000
205.70	1025.000
206.08	-550.000
206.45	-533.333
206.83	1040.000
207.20	-550.000
207.58	-820.000
207.96	-600.000
208.33	-616.667
208.71	308.333
209.08	-533.333
209.46	0.000
209.84	750.000
210.21	1750.000
210.59	1650.000
210.96	1400.000
211.34	-825.000
211.71	-425.000
212.09	-4000.000
212.46	0.000
212.84	2400.000
213.22	-740.000
213.59	-850.000
213.97	-310.000
214.34	-1200.000
214.72	616.667
215.09	-825.000
215.47	0.000
215.84	642.857
216.22	2250.000
216.59	-680.000
216.97	-800.000
217.34	-875.000
217.72	-450.000
218.09	-1000.000
218.47	-925.000
218.84	0.000
219.22	880.000
219.59	-217.647
219.97	-205.000
220.34	2000.000
220.72	-522.222
221.09	-207.692
221.47	-1200.000
221.84	-380.000
222.22	-542.857
222.59	0.000
222.97	-437.500
223.34	-900.000
223.72	-4200.000
224.09	-850.000
224.46	-800.000
224.84	-700.000
225.21	-614.286
225.59	-1025.000
225.96	-1025.000
226.34	-123.077
226.71	633.333
227.08	-1800.000
227.46	-220.000
227.83	-1125.000
228.21	-142.105
228.58	512.500
228.95	1950.000
229.33	-258.333
229.70	-280.000
230.08	-121.053
230.45	430.000
230.82	-1500.000
231.20	-214.286
231.57	-208.333
231.95	-336.364
232.32	-327.273
232.69	-170.000
233.07	-775.000
233.44	-211.765
233.81	-410.000
234.19	-100.000
234.56	-154.545
234.93	-93.103
235.31	-194.737
235.68	-200.000
236.05	-210.000
236.43	-69.231
236.80	-64.000
237.17	-100.000
237.55	-75.758
237.92	-400.000
238.29	-90.323
238.67	-68.182
239.04	-69.444
239.41	-69.048
239.79	-52.174
240.16	-51.852
240.53	-54.348
240.91	-60.784
241.28	-55.738
241.65	-7.463
242.02	-12.162
242.40	-47.692
242.77	-25.333
243.14	-23.171
243.51	-43.421
243.89	-19.231
244.26	-3.960
244.63	-10.784
245.00	-3.738
245.38	-9.649
245.75	-23.009
246.12	-5.556
246.49	-10.078
246.87	-4.286
247.24	-1.325
247.61	3.289
247.98	2.685
248.36	0.617
248.73	-1.840
249.10	5.464
249.47	11.940
249.84	13.089
250.22	7.772
250.59	1.667
250.96	10.909
251.33	4.082
251.70	9.829
252.08	11.667
252.45	9.426
252.82	15.702
253.19	7.422
253.56	12.548
253.94	9.231
254.31	13.258
254.68	12.587
255.05	14.658
255.42	8.163
255.79	9.061
256.16	8.278
256.54	14.901
256.91	10.820
257.28	16.721
257.65	11.783
258.02	11.504
258.39	15.100
258.76	16.208
259.14	14.943
259.51	13.833
259.88	13.314
260.25	15.278
260.62	16.438
260.99	17.213
261.36	15.818
261.73	14.589
262.10	16.209
262.47	15.282
262.85	18.939
263.22	13.766
263.59	13.158
263.96	16.880
264.33	15.601
264.70	17.778
265.07	18.854
265.44	17.234
265.81	14.815
266.18	17.914
266.55	18.080
266.92	17.312
267.29	19.037
267.66	15.965
268.03	15.939
268.40	20.251
268.77	15.945
269.14	16.960
269.51	16.009
269.88	18.033
270.25	17.907
270.62	20.042
270.99	17.778
271.36	18.614
271.73	16.896
272.10	21.443
272.47	15.030
272.84	20.482
273.21	14.429
273.58	18.145
273.95	17.885
274.32	16.160
274.69	19.342
275.06	20.147
275.43	16.636
275.80	19.577
276.17	17.037
276.54	17.724
276.91	19.320
277.28	18.083
277.65	19.210
278.02	20.037
278.39	18.297
278.76	17.575
279.13	16.135
279.50	19.588
279.87	18.426
280.23	14.965
280.60	19.492
280.97	18.421
281.34	20.034
281.71	18.613
282.08	17.774
282.45	16.367
282.82	16.641
283.19	18.094
283.56	18.033
283.92	18.919
284.29	19.115
284.66	19.212
285.03	15.385
285.40	17.774
285.77	18.885
286.14	18.931
286.51	19.939
286.87	15.324
287.24	19.880
287.61	18.386
287.98	16.918
288.35	18.047
288.72	17.456
289.08	19.619
289.45	16.716
289.82	17.169
290.19	18.103
290.56	17.324
290.93	17.118
291.29	16.391
291.66	16.253
292.03	14.654
292.40	16.871
292.77	14.960
293.13	16.373
293.50	15.243
293.87	14.631
294.24	17.200
294.60	17.067
294.97	13.154
295.34	16.517
295.71	14.754
296.08	14.599
296.44	16.299
296.81	15.347
297.18	14.819
297.55	15.212
297.91	14.591
298.28	14.692
298.65	14.863
299.02	13.695
299.38	15.789
299.75	13.785
300.12	16.088
300.48	14.286
300.85	14.173
301.22	15.772
301.59	14.954
301.95	14.237
302.32	14.778
302.69	14.020
303.05	14.255
303.42	14.412
303.79	15.521
304.15	14.721
304.52	14.588
304.89	14.136
305.25	14.907
305.62	14.316
305.99	14.021
306.35	14.718
306.72	16.649
307.09	15.228
307.45	14.596
307.82	14.733
308.19	14.531
308.55	14.754
308.92	14.411
309.29	14.559
309.65	16.179
310.02	14.059
310.38	14.173
310.75	15.631
311.12	15.628
311.48	15.152
311.85	14.530
312.22	14.896
312.58	13.991
312.95	16.252
313.31	15.718
313.68	16.117
314.05	15.989
314.41	17.213
314.78	16.076
315.14	16.515
315.51	15.697
315.87	17.012
316.24	18.265
316.61	17.851
316.97	17.376
317.34	17.901
317.70	18.603
318.07	18.254
318.43	18.367
318.80	20.569
319.16	17.511
319.53	16.967
319.89	17.616
320.26	18.950
320.62	17.730
320.99	18.283
321.35	19.593
321.72	18.605
322.08	17.674
322.45	20.506
322.81	20.487
323.18	19.735
323.54	20.086
323.91	21.085
324.27	19.277
324.64	21.830
325.00	20.315
325.37	21.949
325.73	21.405
326.10	22.303
326.46	23.046
326.83	23.619
327.19	21.890
327.56	23.083
327.92	22.974
328.29	22.823
328.65	21.273
329.01	23.012
329.38	22.409
329.74	23.545
330.11	22.860
330.47	23.168
330.84	22.222
331.20	22.667
331.56	22.270
331.93	23.347
332.29	22.203
332.66	22.591
333.02	22.111
333.38	22.903
333.75	23.316
334.11	22.769
334.48	24.010
334.84	22.940
335.20	22.586
335.57	22.260
335.93	23.471
336.29	22.795
336.66	23.970
337.02	22.826
337.38	23.639
337.75	22.231
338.11	21.447
338.47	23.739
338.84	22.166
339.20	22.241
339.56	22.817
339.93	22.085
340.29	22.303
340.65	21.817
341.02	22.506
341.38	23.120
341.74	22.115
342.11	22.043
342.47	21.525
342.83	22.866
343.20	23.876
343.56	23.336
343.92	21.777
344.28	22.891
344.65	22.946
345.01	21.763
345.37	22.006
345.73	22.058
346.10	22.309
346.46	22.706
346.82	22.697
347.19	22.154
347.55	23.065
347.91	23.180
348.27	22.155
348.63	22.391
349.00	22.819
349.36	23.717
349.72	21.131
350.08	22.288
350.45	22.281
350.81	23.077
351.17	22.406
351.53	21.607
351.89	22.779
352.26	21.791
352.62	22.910
352.98	22.061
353.34	21.135
353.70	22.111
354.07	22.578
354.43	22.248
354.79	21.840
355.15	21.928
355.51	22.515
355.87	22.812
356.24	22.890
356.60	21.951
356.96	22.165
357.32	21.710
357.68	22.694
358.04	21.482
358.40	22.239
358.77	22.149
359.13	22.157
359.49	20.372
359.85	22.190
360.21	22.669
360.57	22.326
360.93	21.791
361.29	22.316
361.66	22.810
362.02	23.939
362.38	23.050
362.74	22.277
363.10	23.315
363.46	23.338
363.82	22.088
364.18	22.730
364.54	22.268
364.90	22.876
365.26	22.000
365.62	23.667
365.98	23.417
366.35	22.483
366.71	23.605
367.07	23.207
367.43	23.703
367.79	23.756
368.15	23.144
368.51	22.463
368.87	23.449
369.23	23.400
369.59	23.429
369.95	24.206
370.31	22.957
370.67	23.109
371.03	23.061
371.39	23.707
371.75	24.347
372.11	22.696
372.47	24.374
372.83	23.560
373.19	22.882
373.55	23.713
373.91	23.722
374.27	24.127
374.63	24.087
374.99	23.077
375.35	24.675
375.71	24.387
376.07	24.209
376.42	23.048
376.78	24.984
377.14	24.891
377.50	24.731
377.86	24.754
378.22	25.269
378.58	25.565
378.94	24.824
379.30	23.784
379.66	25.279
380.02	25.159
380.38	26.267
380.74	25.465
381.09	25.261
381.45	25.909
381.81	25.995
382.17	25.653
382.53	25.322
382.89	24.718
383.25	25.674
383.61	25.579
383.97	25.029
384.32	26.256
384.68	24.710
385.04	25.622
385.40	26.105
385.76	26.729
386.12	25.494
386.48	25.765
386.83	26.400
387.19	25.666
387.55	26.350
387.91	25.913
388.27	26.097
388.62	26.575
388.98	25.719
389.34	26.753
389.70	26.438
390.06	27.827
390.42	27.229
390.77	27.514
391.13	25.293
391.49	26.147
391.85	26.848
392.20	26.631
392.56	27.112
392.92	28.135
393.28	27.584
393.64	27.151
393.99	27.542
394.35	27.687
394.71	27.784
395.07	27.126
395.42	27.242
395.78	27.483
396.14	27.926
396.50	26.010
396.85	27.609
397.21	27.396
397.57	27.032
397.92	27.606
398.28	26.507
398.64	27.231
399.00	26.859
399.35	27.016
399.71	27.609
400.07	28.130
400.42	27.299
400.78	27.373
401.14	28.002
401.49	27.914
401.85	27.907
402.21	28.216
402.57	28.756
402.92	27.660
403.28	27.049
403.63	27.804
403.99	27.672
404.35	28.368
404.70	27.535
405.06	27.989
405.42	27.283
405.77	28.135
406.13	28.417
406.49	28.378
406.84	28.144
407.20	26.942
407.55	27.075
407.91	28.221
408.27	27.562
408.62	27.981
408.98	28.439
409.34	26.393
409.69	28.183
410.05	28.077
410.40	28.480
410.76	28.211
411.11	28.229
411.47	27.948
411.83	29.042
412.18	27.892
412.54	27.682
412.89	27.998
413.25	28.047
413.60	28.202
413.96	28.322
414.31	26.912
414.67	27.311
415.03	27.138
415.38	28.815
415.74	27.550
416.09	28.378
416.45	28.178
416.80	26.867
417.16	27.650
417.51	28.829
417.87	27.897
418.22	28.323
418.58	27.633
418.93	27.881
419.29	28.607
419.64	27.731
420.00	27.537
420.35	27.681
420.71	28.202
421.06	27.947
421.42	28.096
421.77	27.356
422.12	27.960
422.48	28.213
422.83	29.354
423.19	28.276
423.54	28.319
423.90	28.272
424.25	28.800
424.61	27.497
424.96	28.171
425.31	29.406
425.67	28.341
426.02	28.058
426.38	28.129
426.73	28.460
427.09	28.777
427.44	27.690
427.79	28.358
428.15	28.196
428.50	27.753
428.85	27.268
429.21	28.138
429.56	27.493
429.92	28.354
430.27	28.145
430.62	28.334
430.98	28.037
431.33	28.201
431.68	27.921
432.04	28.542
432.39	28.441
432.74	27.911
433.10	27.745
433.45	28.149
433.80	27.468
434.16	28.357
434.51	28.366
434.86	29.533
435.22	28.587
435.57	28.420
435.92	28.659
436.28	28.214
436.63	28.946
436.98	27.322
437.34	28.523
437.69	27.958
438.04	26.917
438.39	27.915
438.75	27.338
439.10	28.964
439.45	27.781
439.81	27.571
440.16	27.668
440.51	28.149
440.86	28.127
441.22	27.760
441.57	28.721
441.92	28.274
442.27	28.788
442.63	28.415
442.98	28.549
443.33	27.880
443.68	28.989
444.03	28.975
444.39	29.126
444.74	28.841
445.09	28.332
445.44	28.714
445.79	28.496
446.15	28.623
446.50	28.786
446.85	28.064
447.20	29.352
447.55	28.347
447.91	28.953
448.26	28.066
448.61	28.374
448.96	29.238
449.31	27.253
449.66	27.669
450.02	28.797
450.37	28.396
450.72	27.610
451.07	28.815
451.42	27.556
451.77	27.849
452.12	28.442
452.47	27.807
452.83	28.660
453.18	26.853
453.53	28.202
453.88	27.940
454.23	28.023
454.58	28.091
454.93	26.638
455.28	28.417
455.63	28.255
455.98	28.659
456.34	27.444
456.69	27.219
457.04	27.660
457.39	27.882
457.74	27.852
458.09	26.908
458.44	27.694
458.79	27.540
459.14	28.002
459.49	28.297
459.84	28.437
460.19	27.707
460.54	27.995
460.89	27.792
461.24	27.759
461.59	28.279
461.94	26.868
462.29	28.443
462.64	27.097
462.99	27.181
463.34	27.709
463.69	26.905
464.04	27.849
464.39	28.139
464.74	26.682
465.09	26.701
465.44	27.682
465.79	28.186
466.14	26.472
466.49	27.263
466.84	27.989
467.19	27.225
467.54	26.381
467.89	26.667
468.24	27.368
468.59	26.752
468.94	26.515
469.29	26.095
469.64	26.319
469.99	26.004
470.34	26.361
470.68	26.726
471.03	26.457
471.38	25.441
471.73	25.943
472.08	26.269
472.43	25.406
472.78	26.448
473.13	25.664
473.48	25.982
473.83	25.305
474.17	25.674
474.52	26.819
474.87	26.190
475.22	26.141
475.57	25.597
475.92	25.734
476.27	26.464
476.61	25.961
476.96	26.069
477.31	26.040
477.66	26.863
478.01	25.572
478.36	26.022
478.70	26.601
479.05	26.125
479.40	26.209
479.75	26.465
480.10	26.149
480.45	26.527
480.79	26.168
481.14	25.046
481.49	26.170
481.84	25.849
482.19	25.505
482.53	25.579
482.88	27.116
483.23	26.056
483.58	25.677
483.92	25.754
484.27	26.376
484.62	25.124
484.97	26.205
485.31	25.695
485.66	24.899
486.01	25.559
486.36	26.711
486.70	27.537
487.05	28.071
487.40	26.956
487.75	26.641
488.09	26.402
488.44	25.339
488.79	25.801
489.13	24.801
489.48	25.204
489.83	25.352
490.17	24.382
490.52	24.384
490.87	25.169
491.22	24.827
491.56	24.957
491.91	25.425
492.26	24.275
492.60	25.492
492.95	25.143
493.30	24.160
493.64	24.354
493.99	23.860
494.34	24.956
494.68	23.854
495.03	24.493
495.37	24.767
495.72	23.900
496.07	24.452
496.41	23.767
496.76	24.771
497.11	24.289
497.45	24.040
497.80	24.300
498.14	23.583
498.49	23.713
498.84	24.132
499.18	23.302
499.53	23.363
499.87	24.088
500.22	23.108
500.56	23.392
500.91	23.707
501.26	24.182
501.60	23.774
501.95	23.882
502.29	23.475
502.64	23.655
502.98	22.390
503.33	23.153
503.67	23.027
504.02	23.380
504.36	23.190
504.71	22.967
505.06	23.101
505.40	22.898
505.75	23.270
506.09	23.481
506.44	23.630
506.78	23.349
507.13	23.375
507.47	22.928
507.82	23.580
508.16	22.323
508.51	22.082
508.85	22.957
509.19	22.928
509.54	23.007
509.88	22.827
510.23	22.681
510.57	23.055
510.92	22.496
511.26	22.463
511.61	22.405
511.95	22.352
512.30	22.354
512.64	21.989
512.98	21.961
513.33	23.135
513.67	21.928
514.02	22.432
514.36	22.302
514.70	21.875
515.05	22.419
515.39	21.732
515.74	22.534
516.08	22.081
516.42	22.187
516.77	21.451
517.11	21.970
517.46	21.739
517.80	22.074
518.14	22.742
518.49	21.095
518.83	21.660
519.17	21.917
519.52	22.013
519.86	22.281
520.20	22.045
520.55	21.851
520.89	21.340
521.23	21.161
521.58	21.638
521.92	22.493
522.26	21.249
522.61	20.312
522.95	21.223
523.29	20.977
523.64	21.188
523.98	21.734
524.32	21.318
524.66	21.229
525.01	21.971
525.35	21.137
525.69	20.534
526.04	20.551
526.38	20.747
526.72	21.280
527.06	21.349
527.41	21.166
527.75	21.556
528.09	21.606
528.43	20.841
528.78	20.520
529.12	20.241
529.46	21.304
529.80	20.595
530.15	20.928
530.49	20.996
530.83	21.015
531.17	20.609
531.51	20.878
531.86	20.853
532.20	21.585
532.54	20.227
532.88	20.364
533.22	21.332
533.57	20.138
533.91	20.707
534.25	21.029
534.59	21.322
534.93	21.166
535.27	20.507
535.62	21.035
535.96	20.918
536.30	20.270
536.64	20.120
536.98	19.865
537.32	20.432
537.66	20.025
538.01	20.000
538.35	20.524
538.69	20.373
539.03	20.907
539.37	20.554
539.71	19.700
540.05	20.923
540.39	19.560
540.73	20.158
541.07	20.294
541.42	20.142
541.76	19.276
542.10	19.361
542.44	19.610
542.78	19.769
543.12	19.309
543.46	19.780
543.80	18.825
544.14	19.988
544.48	19.740
544.82	19.569
545.16	20.572
545.50	19.113
545.84	19.718
546.18	20.494
546.52	19.299
546.86	18.994
547.20	19.784
547.54	20.162
547.88	19.168
548.22	19.240
548.56	19.544
548.90	18.209
549.24	19.939
549.58	18.675
549.92	18.941
550.26	19.353
550.60	18.188
550.94	18.370
551.28	19.010
551.62	19.205
551.96	18.964
552.30	19.120
552.64	19.291
552.98	18.341
553.32	18.071
553.66	19.807
554.00	19.735
554.34	18.211
554.68	18.334
555.02	19.120
555.36	19.264
555.69	18.193
556.03	18.916
556.37	19.712
556.71	18.706
557.05	18.530
557.39	17.983
557.73	17.900
558.07	18.079
558.41	19.003
558.75	17.918
559.08	19.903
559.42	17.833
559.76	18.725
560.10	18.419
560.44	18.668
560.78	18.938
561.12	18.719
561.45	18.856
561.79	18.254
562.13	18.361
562.47	18.249
562.81	18.481
563.15	18.056
563.48	18.645
563.82	18.017
564.16	17.565
564.50	17.998
564.84	18.348
565.17	17.765
565.51	18.124
565.85	18.646
566.19	18.836
566.52	18.198
566.86	18.449
567.20	17.673
567.54	17.950
567.88	18.349
568.21	18.874
568.55	18.561
568.89	19.246
569.23	19.899
569.56	19.148
569.90	19.530
570.24	19.427
570.57	18.762
570.91	19.045
571.25	19.265
571.59	19.538
571.92	19.376
572.26	20.090
572.60	19.192
572.93	19.538
573.27	19.416
573.61	18.925
573.95	19.738
574.28	19.692
574.62	19.623
574.96	19.453
575.29	19.277
575.63	19.358
575.97	19.329
576.30	19.171
576.64	19.112
576.98	18.952
577.31	19.514
577.65	19.418
577.98	19.447
578.32	19.158
578.66	19.224
578.99	19.107
579.33	19.231
579.67	19.130
580.00	19.218
580.34	19.219
580.67	18.667
581.01	18.996
581.35	18.819
581.68	18.811
582.02	19.414
582.35	19.336
582.69	19.962
583.02	19.211
583.36	18.957
583.70	18.678
584.03	18.575
584.37	18.366
584.70	18.606
585.04	18.833
585.37	18.095
585.71	18.770
586.04	18.846
586.38	18.617
586.72	18.300
587.05	18.675
587.39	18.773
587.72	18.900
588.06	19.004
588.39	18.447
588.73	18.677
589.06	17.974
589.40	17.886
589.73	17.898
590.07	17.772
590.40	18.357
590.73	17.886
591.07	17.945
591.40	17.263
591.74	17.130
592.07	17.499
592.41	17.311
592.74	17.891
593.08	18.917
593.41	18.169
593.75	18.247
594.08	17.692
594.41	18.429
594.75	17.635
595.08	18.271
595.42	17.532
595.75	18.276
596.09	17.486
596.42	17.521
596.75	17.792
597.09	17.818
597.42	17.163
597.75	16.974
598.09	17.897
598.42	17.652
598.76	17.233
599.09	17.622
599.42	17.332
599.76	17.960
600.09	17.951
600.42	17.818
600.76	17.900
601.09	17.159
601.42	17.096
601.76	17.138
602.09	17.119
602.42	16.830
602.76	16.679
603.09	17.584
603.42	17.666
603.76	17.266
604.09	17.921
604.42	16.954
604.76	16.971
605.09	17.312
605.42	17.663
605.75	17.577
606.09	17.208
606.42	16.819
606.75	16.754
607.09	16.551
607.42	17.303
607.75	17.507
608.08	17.048
608.42	16.203
608.75	17.371
609.08	16.851
609.41	16.630
609.75	17.143
610.08	17.106
610.41	16.907
610.74	17.059
611.07	16.607
611.41	17.265
611.74	16.628
612.07	16.877
612.40	15.875
612.73	17.017
613.07	16.773
613.40	16.843
613.73	16.177
614.06	16.438
614.39	15.986
614.72	16.351
615.06	15.833
615.39	15.853
615.72	16.398
616.05	16.464
616.38	16.650
616.71	16.405
617.05	15.335
617.38	16.586
617.71	16.253
618.04	16.028
618.37	16.393
618.70	16.968
619.03	15.830
619.36	15.166
619.69	14.862
620.03	14.878
620.36	15.460
620.69	14.127
621.02	15.354
621.35	15.094
621.68	14.895
622.01	15.018
622.34	14.854
622.67	14.914
623.00	14.912
623.33	15.262
623.66	15.110
623.99	14.812
624.32	15.789
624.65	14.865
624.99	14.499
625.32	16.525
625.65	15.374
625.98	14.237
626.31	15.308
626.64	15.018
626.97	14.554
627.30	13.667
627.63	14.479
627.96	15.315
628.29	13.696
628.62	13.098
628.95	14.461
629.28	13.849
629.61	14.394
629.94	14.142
630.26	14.153
