SpectraSuite Data File
++++++++++++++++++++++++++++++++++++
Date: Thu May 14 15:52:21 PDT 2015
User: schluterlab
Dark Spectrum Present: Yes
Reference Spectrum Present: Yes
Number of Sampled Component Spectra: 1
Spectrometers: USB2E3373
Integration Time (usec): 3000 (USB2E3373)
Spectra Averaged: 3 (USB2E3373)
Boxcar Smoothing: 0 (USB2E3373)
Correct for Electrical Dark: No (USB2E3373)
Strobe/Lamp Enabled: No (USB2E3373)
Correct for Detector Non-linearity: No (USB2E3373)
Correct for Stray Light: No (USB2E3373)
Number of Pixels in Processed Spectrum: 2048
>>>>>Begin Processed Spectral Data<<<<<
178.53	0.000
178.91	571.429
179.29	-5200.000
179.67	-4100.000
180.04	357.143
180.42	400.000
180.80	920.000
181.18	-5300.000
181.56	-2500.000
181.94	850.000
182.31	-800.000
182.69	1500.000
183.07	-2350.000
183.45	1200.000
183.83	-700.000
184.20	-1233.333
184.58	4100.000
184.96	-1050.000
185.34	-466.667
185.72	-520.000
186.09	422.222
186.47	2250.000
186.85	900.000
187.23	-488.889
187.61	-4600.000
187.98	720.000
188.36	1000.000
188.74	-1075.000
189.12	-1366.667
189.49	-237.500
189.87	-475.000
190.25	-377.778
190.63	-700.000
191.00	-455.556
191.38	0.000
191.76	-1150.000
192.14	-666.667
192.51	2350.000
192.89	-633.333
193.27	0.000
193.65	-614.286
194.02	-4500.000
194.40	-457.143
194.78	671.429
195.15	0.000
195.53	-345.455
195.91	0.000
196.29	-925.000
196.66	-353.846
197.04	-5200.000
197.42	-571.429
197.79	-2100.000
198.17	-550.000
198.55	-557.143
198.92	-355.556
199.30	-475.000
199.68	-281.818
200.05	-228.571
200.43	-2150.000
200.81	514.286
201.18	0.000
201.56	644.444
201.94	0.000
202.31	1433.333
202.69	-444.444
203.07	3500.000
203.44	-400.000
203.82	-1000.000
204.19	-300.000
204.57	-650.000
204.95	-537.500
205.32	-4000.000
205.70	925.000
206.08	-633.333
206.45	-533.333
206.83	1000.000
207.20	-683.333
207.58	-880.000
207.96	-683.333
208.33	-450.000
208.71	375.000
209.08	-616.667
209.46	0.000
209.84	766.667
210.21	1700.000
210.59	1800.000
210.96	1633.333
211.34	-825.000
211.71	-550.000
212.09	-4000.000
212.46	0.000
212.84	2500.000
213.22	-1040.000
213.59	-1000.000
213.97	-420.000
214.34	-1133.333
214.72	783.333
215.09	-1150.000
215.47	0.000
215.84	542.857
216.22	2050.000
216.59	-640.000
216.97	-820.000
217.34	-1100.000
217.72	-450.000
218.09	-950.000
218.47	-975.000
218.84	0.000
219.22	940.000
219.59	-217.647
219.97	-125.000
220.34	2450.000
220.72	-533.333
221.09	-246.154
221.47	-1333.333
221.84	-370.000
222.22	-585.714
222.59	0.000
222.97	-500.000
223.34	-940.000
223.72	-4300.000
224.09	-900.000
224.46	-1000.000
224.84	-660.000
225.21	-614.286
225.59	-1175.000
225.96	-1175.000
226.34	-146.154
226.71	650.000
227.08	-2000.000
227.46	-240.000
227.83	-925.000
228.21	-200.000
228.58	525.000
228.95	1850.000
229.33	-216.667
229.70	-380.000
230.08	-142.105
230.45	450.000
230.82	-1100.000
231.20	-228.571
231.57	-266.667
231.95	-300.000
232.32	-363.636
232.69	-170.000
233.07	-1100.000
233.44	-229.412
233.81	-480.000
234.19	-183.333
234.56	-181.818
234.93	-113.793
235.31	-173.684
235.68	-211.111
236.05	-225.000
236.43	-115.385
236.80	-104.000
237.17	-129.630
237.55	-127.273
237.92	-370.000
238.29	-116.129
238.67	-72.727
239.04	-102.778
239.41	-88.095
239.79	-80.435
240.16	-66.667
240.53	-91.304
240.91	-100.000
241.28	-57.377
241.65	-40.299
242.02	-43.243
242.40	-61.538
242.77	-62.667
243.14	-52.439
243.51	-59.211
243.89	-52.564
244.26	-33.663
244.63	-31.373
245.00	-35.514
245.38	-39.474
245.75	-33.628
246.12	-26.190
246.49	-26.357
246.87	-20.714
247.24	-17.881
247.61	-25.658
247.98	-19.463
248.36	-22.222
248.73	-29.448
249.10	-22.404
249.47	-13.433
249.84	-12.042
250.22	-20.207
250.59	-20.556
250.96	-14.091
251.33	-22.449
251.70	-10.256
252.08	-10.833
252.45	-13.525
252.82	-16.116
253.19	-12.891
253.56	-11.027
253.94	-14.615
254.31	-14.015
254.68	-12.238
255.05	-9.772
255.42	-13.605
255.79	-13.269
256.16	-12.252
256.54	-15.563
256.91	-11.148
257.28	-9.508
257.65	-14.331
258.02	-12.389
258.39	-10.541
258.76	-7.034
259.14	-8.621
259.51	-11.527
259.88	-11.898
260.25	-10.833
260.62	-7.671
260.99	-6.284
261.36	-6.702
261.73	-8.223
262.10	-11.813
262.47	-9.920
262.85	-6.313
263.22	-10.649
263.59	-10.789
263.96	-8.184
264.33	-9.719
264.70	-6.420
265.07	-6.921
265.44	-3.855
265.81	-7.176
266.18	-9.070
266.55	-7.813
266.92	-8.884
267.29	-4.814
267.66	-8.647
268.03	-6.332
268.40	-5.637
268.77	-9.795
269.14	-8.590
269.51	-4.825
269.88	-4.918
270.25	-6.640
270.62	-6.329
270.99	-3.838
271.36	-2.970
271.73	-5.305
272.10	-5.411
272.47	-7.214
272.84	-7.831
273.21	-6.613
273.58	-5.242
273.95	-5.577
274.32	-7.224
274.69	-6.963
275.06	-5.678
275.43	-8.318
275.80	-4.233
276.17	-5.556
276.54	-6.716
276.91	-6.977
277.28	-6.148
277.65	-5.745
278.02	-6.434
278.39	-6.703
278.76	-8.084
279.13	-5.319
279.50	-4.124
279.87	-4.472
280.23	-6.866
280.60	-4.237
280.97	-4.112
281.34	-7.301
281.71	-3.384
282.08	-5.150
282.45	-6.056
282.82	-5.024
283.19	-5.170
283.56	-6.393
283.92	-4.354
284.29	-3.633
284.66	-3.284
285.03	-6.090
285.40	-4.946
285.77	-4.644
286.14	-4.580
286.51	-5.936
286.87	-7.267
287.24	-4.819
287.61	-5.830
287.98	-4.532
288.35	-3.698
288.72	-4.586
289.08	-3.514
289.45	-4.586
289.82	-4.367
290.19	-4.598
290.56	-5.070
290.93	-4.993
291.29	-3.994
291.66	-3.719
292.03	-4.885
292.40	-2.177
292.77	-3.369
293.13	-2.030
293.50	-4.205
293.87	-2.819
294.24	-2.933
294.60	-3.287
294.97	-5.503
295.34	-2.817
295.71	-5.044
296.08	-4.393
296.44	-2.574
296.81	-3.289
297.18	-4.608
297.55	-4.009
297.91	-3.440
298.28	-4.621
298.65	-3.448
299.02	-3.306
299.38	-2.632
299.75	-3.855
300.12	-4.051
300.48	-3.226
300.85	-3.150
301.22	-3.020
301.59	-3.995
301.95	-3.616
302.32	-2.667
302.69	-2.519
303.05	-3.482
303.42	-3.437
303.79	-2.708
304.15	-2.839
304.52	-2.114
304.89	-3.874
305.25	-1.553
305.62	-2.612
305.99	-2.268
306.35	-1.815
306.72	-3.826
307.09	-3.655
307.45	-3.313
307.82	-1.009
308.19	-2.523
308.55	-2.025
308.92	-2.434
309.29	-2.969
309.65	-2.632
310.02	-3.168
310.38	-3.248
310.75	-3.398
311.12	-2.109
311.48	-3.617
311.85	-2.374
312.22	-2.087
312.58	-2.160
312.95	-1.434
313.31	-1.536
313.68	-1.740
314.05	-0.723
314.41	-1.093
314.78	-1.453
315.14	-1.361
315.51	-0.831
315.87	-0.810
316.24	-0.091
316.61	0.977
316.97	-1.357
317.34	-0.705
317.70	-0.437
318.07	0.970
318.43	0.680
318.80	1.505
319.16	0.086
319.53	-0.771
319.89	-0.438
320.26	0.890
320.62	0.532
320.99	-0.092
321.35	1.294
321.72	1.116
322.08	-0.451
322.45	1.716
322.81	1.444
323.18	0.973
323.54	1.293
323.91	1.335
324.27	1.893
324.64	2.939
325.00	2.405
325.37	2.048
325.73	2.810
326.10	3.893
326.46	3.339
326.83	3.603
327.19	3.780
327.56	4.427
327.92	3.226
328.29	3.306
328.65	3.183
329.01	4.484
329.38	4.128
329.74	3.682
330.11	4.195
330.47	3.707
330.84	3.618
331.20	3.667
331.56	4.766
331.93	4.770
332.29	3.898
332.66	3.821
333.02	4.523
333.38	3.356
333.75	4.040
334.11	4.170
334.48	4.455
334.84	5.692
335.20	3.862
335.57	5.396
335.93	5.207
336.29	4.493
336.66	3.953
337.02	4.849
337.38	4.762
337.75	5.041
338.11	4.878
338.47	4.963
338.84	4.061
339.20	3.791
339.56	4.860
339.93	4.433
340.29	5.314
340.65	5.596
341.02	6.065
341.38	4.365
341.74	4.439
342.11	5.390
342.47	4.686
342.83	5.395
343.20	4.415
343.56	4.250
343.92	5.124
344.28	6.250
344.65	5.736
345.01	5.850
345.37	5.910
345.73	4.443
346.10	5.460
346.46	5.142
346.82	7.041
347.19	5.271
347.55	6.222
347.91	5.572
348.27	5.311
348.63	6.931
349.00	6.040
349.36	5.799
349.72	5.208
350.08	6.315
350.45	5.779
350.81	6.637
351.17	5.789
351.53	6.520
351.89	6.606
352.26	5.896
352.62	6.418
352.98	5.649
353.34	5.153
353.70	5.085
354.07	5.961
354.43	5.771
354.79	6.283
355.15	6.843
355.51	7.237
355.87	6.507
356.24	6.768
356.60	5.691
356.96	6.449
357.32	6.394
357.68	4.612
358.04	5.838
358.40	6.343
358.77	6.798
359.13	6.056
359.49	5.353
359.85	7.107
360.21	6.528
360.57	6.030
360.93	6.488
361.29	6.596
361.66	6.662
362.02	7.724
362.38	6.676
362.74	5.936
363.10	7.497
363.46	7.618
363.82	6.818
364.18	7.248
364.54	7.192
364.90	7.759
365.26	7.241
365.62	7.733
365.98	7.012
366.35	7.383
366.71	7.143
367.07	7.781
367.43	8.011
367.79	7.963
368.15	8.361
368.51	8.525
368.87	7.577
369.23	8.267
369.59	7.582
369.95	8.519
370.31	8.238
370.67	7.909
371.03	8.449
371.39	8.193
371.75	8.528
372.11	8.672
372.47	8.260
372.83	9.031
373.19	8.672
373.55	8.875
373.91	8.044
374.27	7.956
374.63	9.134
374.99	7.958
375.35	9.481
375.71	9.548
376.07	9.232
376.42	9.194
376.78	9.385
377.14	9.794
377.50	9.424
377.86	9.914
378.22	9.820
378.58	9.691
378.94	9.272
379.30	10.018
379.66	10.112
380.02	9.925
380.38	10.023
380.74	10.197
381.09	9.408
381.45	10.455
381.81	11.475
382.17	10.392
382.53	10.760
382.89	11.512
383.25	10.668
383.61	10.127
383.97	9.717
384.32	11.304
384.68	9.513
385.04	11.220
385.40	11.078
385.76	10.199
386.12	10.174
386.48	10.529
386.83	11.085
387.19	11.066
387.55	9.742
387.91	11.473
388.27	11.605
388.62	11.168
388.98	10.603
389.34	11.727
389.70	11.098
390.06	10.657
390.42	11.747
390.77	12.222
391.13	11.326
391.49	12.379
391.85	11.091
392.20	11.388
392.56	11.695
392.92	12.050
393.28	11.388
393.64	11.844
393.99	12.435
394.35	12.792
394.71	11.796
395.07	11.377
395.42	11.993
395.78	12.188
396.14	11.705
396.50	11.401
396.85	12.105
397.21	11.598
397.57	12.898
397.92	12.600
398.28	11.353
398.64	11.499
399.00	11.885
399.35	12.251
399.71	11.685
400.07	12.690
400.42	11.758
400.78	11.979
401.14	12.009
401.49	12.962
401.85	12.442
402.21	12.399
402.57	12.852
402.92	11.643
403.28	11.944
403.63	11.933
403.99	11.461
404.35	12.678
404.70	11.898
405.06	12.446
405.42	11.944
405.77	12.977
406.13	12.372
406.49	12.444
406.84	12.632
407.20	12.297
407.55	11.872
407.91	11.754
408.27	12.426
408.62	13.205
408.98	12.594
409.34	11.320
409.69	11.743
410.05	11.958
410.40	12.761
410.76	12.170
411.11	12.098
411.47	12.592
411.83	12.757
412.18	11.566
412.54	11.796
412.89	11.932
413.25	12.359
413.60	12.407
413.96	11.772
414.31	12.521
414.67	12.343
415.03	11.508
415.38	12.547
415.74	11.179
416.09	12.276
416.45	12.336
416.80	11.077
417.16	11.750
417.51	12.142
417.87	12.508
418.22	12.096
418.58	12.144
418.93	12.806
419.29	11.591
419.64	12.365
420.00	12.522
420.35	12.128
420.71	12.292
421.06	12.018
421.42	12.156
421.77	12.116
422.12	11.945
422.48	12.186
422.83	12.432
423.19	11.989
423.54	12.113
423.90	11.651
424.25	12.160
424.61	11.481
424.96	12.576
425.31	11.040
425.67	11.755
426.02	12.064
426.38	12.055
426.73	10.937
427.09	12.630
427.44	11.141
427.79	11.830
428.15	11.244
428.50	11.798
428.85	12.170
429.21	12.181
429.56	11.698
429.92	12.236
430.27	12.867
430.62	12.653
430.98	11.854
431.33	12.023
431.68	11.638
432.04	11.884
432.39	11.623
432.74	11.986
433.10	11.898
433.45	11.260
433.80	11.534
434.16	11.829
434.51	11.819
434.86	11.781
435.22	12.274
435.57	11.498
435.92	11.909
436.28	11.604
436.63	12.234
436.98	11.702
437.34	11.274
437.69	11.723
438.04	11.581
438.39	11.488
438.75	10.459
439.10	12.421
439.45	11.068
439.81	11.017
440.16	11.367
440.51	11.371
440.86	11.006
441.22	11.683
441.57	11.216
441.92	11.251
442.27	11.566
442.63	12.072
442.98	12.220
443.33	11.257
443.68	11.397
444.03	12.371
444.39	11.558
444.74	11.996
445.09	11.505
445.44	11.170
445.79	12.213
446.15	12.076
446.50	11.266
446.85	12.451
447.20	11.364
447.55	11.925
447.91	10.890
448.26	10.677
448.61	10.893
448.96	11.642
449.31	11.983
449.66	10.730
450.02	11.287
450.37	11.987
450.72	10.818
451.07	10.763
451.42	11.034
451.77	11.729
452.12	11.287
452.47	10.398
452.83	11.261
453.18	10.975
453.53	10.856
453.88	10.712
454.23	11.864
454.58	10.969
454.93	9.891
455.28	11.198
455.63	11.484
455.98	11.061
456.34	11.013
456.69	11.111
457.04	10.461
457.39	10.698
457.74	10.403
458.09	10.653
458.44	10.884
458.79	11.243
459.14	10.540
459.49	10.809
459.84	11.123
460.19	10.105
460.54	11.130
460.89	10.535
461.24	9.655
461.59	10.736
461.94	9.584
462.29	10.918
462.64	9.777
462.99	10.232
463.34	10.383
463.69	9.613
464.04	10.172
464.39	9.417
464.74	10.262
465.09	9.516
465.44	10.193
465.79	10.788
466.14	10.109
466.49	9.947
466.84	9.421
467.19	10.231
467.54	9.224
467.89	9.023
468.24	9.474
468.59	9.438
468.94	8.916
469.29	9.058
469.64	8.709
469.99	8.349
470.34	9.406
470.68	8.817
471.03	8.906
471.38	8.568
471.73	8.322
472.08	8.693
472.43	9.332
472.78	8.375
473.13	8.470
473.48	9.305
473.83	9.228
474.17	9.027
474.52	8.178
474.87	9.192
475.22	9.408
475.57	8.567
475.92	8.761
476.27	8.786
476.61	9.034
476.96	8.186
477.31	9.109
477.66	8.972
478.01	9.151
478.36	8.275
478.70	8.571
479.05	9.202
479.40	9.082
479.75	8.742
480.10	8.622
480.45	8.341
480.79	9.161
481.14	8.778
481.49	9.041
481.84	8.660
482.19	8.602
482.53	8.745
482.88	8.285
483.23	8.359
483.58	8.428
483.92	7.890
484.27	8.510
484.62	8.210
484.97	8.593
485.31	8.272
485.66	8.318
486.01	8.661
486.36	9.046
486.70	9.393
487.05	9.568
487.40	8.800
487.75	8.219
488.09	8.481
488.44	8.200
488.79	8.533
489.13	7.495
489.48	7.107
489.83	7.606
490.17	7.533
490.52	8.005
490.87	7.530
491.22	6.802
491.56	7.637
491.91	7.588
492.26	6.880
492.60	6.909
492.95	7.591
493.30	7.037
493.64	7.271
493.99	7.412
494.34	6.664
494.68	6.809
495.03	7.137
495.37	6.258
495.72	6.939
496.07	6.924
496.41	6.564
496.76	6.839
497.11	7.091
497.45	6.603
497.80	6.797
498.14	6.259
498.49	6.434
498.84	6.856
499.18	6.568
499.53	6.951
499.87	7.033
500.22	5.833
500.56	6.433
500.91	6.270
501.26	6.682
501.60	6.098
501.95	6.687
502.29	6.494
502.64	6.559
502.98	6.428
503.33	6.048
503.67	5.539
504.02	5.954
504.36	6.211
504.71	5.834
505.06	5.548
505.40	5.804
505.75	6.056
506.09	5.939
506.44	6.175
506.78	5.413
507.13	5.809
507.47	6.063
507.82	5.871
508.16	5.163
508.51	5.626
508.85	5.479
509.19	5.921
509.54	6.244
509.88	5.537
510.23	6.071
510.57	5.172
510.92	5.999
511.26	5.339
511.61	4.394
511.95	5.661
512.30	5.465
512.64	5.197
512.98	4.502
513.33	5.847
513.67	5.354
514.02	5.365
514.36	5.217
514.70	5.104
515.05	5.057
515.39	4.882
515.74	5.461
516.08	5.124
516.42	5.808
516.77	4.364
517.11	4.745
517.46	4.825
517.80	5.665
518.14	5.658
518.49	4.826
518.83	5.216
519.17	3.985
519.52	5.818
519.86	4.857
520.20	4.526
520.55	4.765
520.89	4.392
521.23	5.137
521.58	4.689
521.92	4.136
522.26	4.467
522.61	4.051
522.95	4.210
523.29	4.023
523.64	3.643
523.98	4.849
524.32	5.215
524.66	4.553
525.01	4.304
525.35	3.791
525.69	3.944
526.04	4.018
526.38	4.540
526.72	4.787
527.06	4.282
527.41	3.965
527.75	3.563
528.09	4.545
528.43	4.144
528.78	3.815
529.12	3.842
529.46	3.935
529.80	4.005
530.15	3.652
530.49	3.499
530.83	3.719
531.17	3.763
531.51	3.730
531.86	4.387
532.20	4.268
532.54	3.950
532.88	4.424
533.22	3.948
533.57	4.212
533.91	3.984
534.25	4.183
534.59	3.851
534.93	2.490
535.27	3.775
535.62	4.150
535.96	3.951
536.30	3.114
536.64	4.024
536.98	3.752
537.32	3.580
537.66	4.055
538.01	3.384
538.35	4.141
538.69	3.906
539.03	3.924
539.37	3.887
539.71	3.483
540.05	3.957
540.39	2.873
540.73	3.400
541.07	3.679
541.42	3.485
541.76	2.728
542.10	3.739
542.44	3.045
542.78	3.650
543.12	3.337
543.46	3.236
543.80	3.237
544.14	2.873
544.48	3.960
544.82	3.052
545.16	3.757
545.50	3.775
545.84	2.572
546.18	3.827
546.52	3.567
546.86	2.830
547.20	3.181
547.54	3.121
547.88	3.315
548.22	3.158
548.56	3.452
548.90	2.687
549.24	3.222
549.58	2.587
549.92	3.380
550.26	3.495
550.60	3.127
550.94	3.040
551.28	2.706
551.62	3.437
551.96	2.718
552.30	3.314
552.64	3.547
552.98	3.182
553.32	2.701
553.66	2.894
554.00	3.026
554.34	3.411
554.68	2.453
555.02	2.760
555.36	3.616
555.69	3.331
556.03	2.270
556.37	3.066
556.71	2.600
557.05	2.556
557.39	2.920
557.73	2.444
558.07	2.318
558.41	2.791
558.75	1.893
559.08	2.366
559.42	1.509
559.76	3.121
560.10	2.947
560.44	2.573
560.78	3.688
561.12	2.401
561.45	3.285
561.79	2.625
562.13	3.512
562.47	2.035
562.81	2.025
563.15	2.652
563.48	2.548
563.82	2.297
564.16	2.302
564.50	2.384
564.84	1.888
565.17	2.529
565.51	2.647
565.85	2.019
566.19	2.419
566.52	2.048
566.86	2.603
567.20	2.393
567.54	2.284
567.88	3.670
568.21	3.113
568.55	3.213
568.89	3.314
569.23	3.253
569.56	3.322
569.90	3.493
570.24	3.373
570.57	3.239
570.91	3.552
571.25	3.616
571.59	3.535
571.92	3.571
572.26	3.944
572.60	3.658
572.93	3.980
573.27	3.709
573.61	3.970
573.95	3.690
574.28	3.854
574.62	3.865
574.96	3.485
575.29	3.944
575.63	3.927
575.97	3.832
576.30	3.800
576.64	3.889
576.98	3.850
577.31	3.833
577.65	3.879
577.98	4.085
578.32	3.990
578.66	3.864
578.99	3.727
579.33	3.868
579.67	3.558
580.00	3.821
580.34	3.796
580.67	3.486
581.01	3.483
581.35	3.838
581.68	3.957
582.02	4.153
582.35	4.094
582.69	3.797
583.02	3.682
583.36	3.820
583.70	3.567
584.03	3.480
584.37	3.629
584.70	3.472
585.04	3.441
585.37	3.778
585.71	3.840
586.04	3.677
586.38	3.853
586.72	3.184
587.05	3.428
587.39	3.291
587.72	3.445
588.06	3.675
588.39	3.585
588.73	3.545
589.06	3.160
589.40	3.012
589.73	3.117
590.07	3.548
590.40	3.279
590.73	3.005
591.07	3.016
591.40	2.566
591.74	3.060
592.07	3.045
592.41	2.918
592.74	2.946
593.08	3.599
593.41	3.558
593.75	3.305
594.08	3.363
594.41	3.269
594.75	3.421
595.08	2.961
595.42	3.084
595.75	3.584
596.09	3.321
596.42	2.508
596.75	3.242
597.09	2.990
597.42	3.019
597.75	2.783
598.09	3.373
598.42	2.533
598.76	2.751
599.09	2.777
599.42	3.118
599.76	2.839
600.09	3.270
600.42	3.170
600.76	3.104
601.09	2.987
601.42	2.884
601.76	2.483
602.09	3.074
602.42	2.654
602.76	3.026
603.09	2.680
603.42	2.962
603.76	2.643
604.09	3.371
604.42	2.569
604.76	2.778
605.09	2.872
605.42	2.632
605.75	2.692
606.09	2.538
606.42	2.554
606.75	2.699
607.09	2.227
607.42	2.852
607.75	3.009
608.08	2.486
608.42	2.539
608.75	3.068
609.08	2.292
609.41	2.691
609.75	1.830
610.08	2.639
610.41	2.591
610.74	2.269
611.07	2.043
611.41	2.556
611.74	2.125
612.07	2.478
612.40	1.759
612.73	1.663
613.07	2.494
613.40	2.599
613.73	1.830
614.06	2.208
614.39	2.332
614.72	2.038
615.06	1.973
615.39	2.175
615.72	2.275
616.05	1.846
616.38	2.725
616.71	2.038
617.05	1.544
617.38	2.889
617.71	2.322
618.04	2.428
618.37	2.131
618.70	2.319
619.03	1.135
619.36	1.726
619.69	1.281
620.03	1.444
620.36	1.779
620.69	1.295
621.02	1.115
621.35	1.306
621.68	1.808
622.01	1.495
622.34	-0.070
622.67	0.550
623.00	-0.067
623.33	1.858
623.66	1.751
623.99	0.987
624.32	2.534
624.65	1.287
624.99	1.560
625.32	2.482
625.65	1.349
625.98	1.220
626.31	0.992
626.64	1.612
626.97	1.050
627.30	-0.076
627.63	0.825
627.96	1.877
628.29	1.089
628.62	-0.168
628.95	-0.351
629.28	0.170
629.61	0.421
629.94	0.502
630.26	-0.085
630.59	0.173
630.92	0.866
631.25	0.984
631.58	0.188
631.91	-0.094
632.24	-0.192
632.57	0.759
632.90	-1.204
633.23	-0.816
633.56	0.714
633.89	-0.103
634.22	0.624
634.55	0.313
634.88	0.216
635.20	0.538
635.53	-0.904
635.86	-0.650
636.19	1.697
636.52	0.316
636.85	-0.409
637.18	-0.520
637.51	-0.538
637.83	-0.111
638.16	-1.037
638.49	-1.291
638.82	-0.225
639.15	-1.718
639.48	-0.231
639.81	-1.501
640.13	0.824
640.46	-1.212
640.79	-1.348
641.12	-0.994
641.45	-2.008
641.77	0.257
642.10	-0.525
642.43	-0.133
642.76	-2.439
643.09	-1.918
643.41	-2.521
