SpectraSuite Data File
++++++++++++++++++++++++++++++++++++
Date: Thu May 14 16:30:08 PDT 2015
User: schluterlab
Dark Spectrum Present: Yes
Reference Spectrum Present: Yes
Number of Sampled Component Spectra: 1
Spectrometers: USB2E3373
Integration Time (usec): 3000 (USB2E3373)
Spectra Averaged: 3 (USB2E3373)
Boxcar Smoothing: 0 (USB2E3373)
Correct for Electrical Dark: No (USB2E3373)
Strobe/Lamp Enabled: No (USB2E3373)
Correct for Detector Non-linearity: No (USB2E3373)
Correct for Stray Light: No (USB2E3373)
Number of Pixels in Processed Spectrum: 2048
>>>>>Begin Processed Spectral Data<<<<<
178.53	0.000
178.91	28.571
179.29	-600.000
179.67	-100.000
180.04	100.000
180.42	-90.000
180.80	-0.000
181.18	100.000
181.56	500.000
181.94	50.000
182.31	100.000
182.69	33.333
183.07	-250.000
183.45	125.000
183.83	-16.667
184.20	33.333
184.58	300.000
184.96	-125.000
185.34	-11.111
185.72	40.000
186.09	155.556
186.47	400.000
186.85	160.000
187.23	-44.444
187.61	-1400.000
187.98	60.000
188.36	250.000
188.74	-125.000
189.12	366.667
189.49	31.250
189.87	-75.000
190.25	111.111
190.63	200.000
191.00	-33.333
191.38	0.000
191.76	-75.000
192.14	-116.667
192.51	500.000
192.89	-16.667
193.27	0.000
193.65	14.286
194.02	0.000
194.40	42.857
194.78	71.429
195.15	0.000
195.53	81.818
195.91	0.000
196.29	225.000
196.66	38.462
197.04	-700.000
197.42	-57.143
197.79	-150.000
198.17	-62.500
198.55	-42.857
198.92	11.111
199.30	0.000
199.68	63.636
200.05	85.714
200.43	150.000
200.81	157.143
201.18	0.000
201.56	55.556
201.94	0.000
202.31	500.000
202.69	-55.556
203.07	-0.000
203.44	-44.444
203.82	-200.000
204.19	-16.667
204.57	-166.667
204.95	37.500
205.32	-500.000
205.70	-50.000
206.08	-116.667
206.45	100.000
206.83	160.000
207.20	-50.000
207.58	20.000
207.96	-66.667
208.33	133.333
208.71	91.667
209.08	66.667
209.46	0.000
209.84	116.667
210.21	-500.000
210.59	150.000
210.96	66.667
211.34	-100.000
211.71	-87.500
212.09	-200.000
212.46	0.000
212.84	650.000
213.22	-180.000
213.59	50.000
213.97	10.000
214.34	0.000
214.72	-16.667
215.09	-350.000
215.47	0.000
215.84	-42.857
216.22	700.000
216.59	-40.000
216.97	-80.000
217.34	-150.000
217.72	50.000
218.09	-350.000
218.47	-125.000
218.84	0.000
219.22	-20.000
219.59	5.882
219.97	30.000
220.34	400.000
220.72	-100.000
221.09	69.231
221.47	-33.333
221.84	30.000
222.22	-100.000
222.59	0.000
222.97	50.000
223.34	-220.000
223.72	-300.000
224.09	-250.000
224.46	-150.000
224.84	20.000
225.21	-85.714
225.59	-200.000
225.96	-100.000
226.34	23.077
226.71	150.000
227.08	-250.000
227.46	40.000
227.83	-125.000
228.21	15.789
228.58	-0.000
228.95	300.000
229.33	33.333
229.70	20.000
230.08	84.211
230.45	20.000
230.82	233.333
231.20	-14.286
231.57	33.333
231.95	0.000
232.32	-9.091
232.69	105.000
233.07	275.000
233.44	35.294
233.81	-60.000
234.19	94.444
234.56	50.000
234.93	31.034
235.31	63.158
235.68	66.667
236.05	-15.000
236.43	46.154
236.80	80.000
237.17	44.444
237.55	30.303
237.92	-60.000
238.29	51.613
238.67	22.727
239.04	50.000
239.41	30.952
239.79	34.783
240.16	33.333
240.53	41.304
240.91	27.451
241.28	37.705
241.65	41.791
242.02	39.189
242.40	43.077
242.77	32.000
243.14	37.805
243.51	36.842
243.89	37.179
244.26	46.535
244.63	45.098
245.00	49.533
245.38	44.737
245.75	38.938
246.12	39.683
246.49	39.535
246.87	45.000
247.24	41.060
247.61	47.368
247.98	41.611
248.36	48.148
248.73	40.491
249.10	46.995
249.47	41.294
249.84	42.932
250.22	43.005
250.59	45.556
250.96	44.091
251.33	46.429
251.70	45.299
252.08	42.083
252.45	43.852
252.82	44.628
253.19	44.922
253.56	47.529
253.94	43.462
254.31	44.318
254.68	44.406
255.05	49.186
255.42	43.197
255.79	41.424
256.16	45.033
256.54	42.053
256.91	46.230
257.28	43.934
257.65	42.994
258.02	40.413
258.39	40.456
258.76	49.541
259.14	45.690
259.51	44.380
259.88	41.926
260.25	44.167
260.62	45.753
260.99	45.628
261.36	43.432
261.73	45.093
262.10	46.154
262.47	45.576
262.85	46.717
263.22	43.896
263.59	43.421
263.96	45.524
264.33	45.780
264.70	46.173
265.07	48.210
265.44	43.991
265.81	44.444
266.18	43.991
266.55	45.536
266.92	45.330
267.29	43.982
267.66	45.898
268.03	44.105
268.40	45.720
268.77	44.875
269.14	41.630
269.51	49.342
269.88	46.516
270.25	45.875
270.62	46.624
270.99	46.465
271.36	43.366
271.73	45.187
272.10	45.892
272.47	44.489
272.84	42.570
273.21	43.086
273.58	47.379
273.95	41.923
274.32	44.106
274.69	42.747
275.06	43.773
275.43	40.481
275.80	41.975
276.17	43.333
276.54	41.791
276.91	43.113
277.28	42.857
277.65	43.627
278.02	41.360
278.39	43.116
278.76	43.234
279.13	44.326
279.50	43.643
279.87	40.608
280.23	39.965
280.60	42.712
280.97	40.132
281.34	42.105
281.71	42.301
282.08	40.199
282.45	40.917
282.82	39.403
283.19	42.003
283.56	41.803
283.92	42.643
284.29	43.760
284.66	39.573
285.03	40.705
285.40	40.031
285.77	43.189
286.14	42.137
286.51	41.248
286.87	39.810
287.24	40.813
287.61	39.761
287.98	40.332
288.35	37.426
288.72	39.201
289.08	40.849
289.45	37.574
289.82	40.060
290.19	37.931
290.56	37.606
290.93	38.944
291.29	37.879
291.66	36.226
292.03	36.092
292.40	37.823
292.77	35.445
293.13	35.724
293.50	36.137
293.87	35.436
294.24	35.733
294.60	36.410
294.97	35.034
295.34	34.315
295.71	32.787
296.08	32.817
296.44	34.069
296.81	33.252
297.18	31.009
297.55	32.665
297.91	32.622
298.28	31.991
298.65	34.245
299.02	31.759
299.38	31.693
299.75	30.607
300.12	32.639
300.48	32.834
300.85	30.484
301.22	30.984
301.59	31.621
301.95	32.316
302.32	31.444
302.69	30.559
303.05	31.556
303.42	31.596
303.79	31.250
304.15	31.441
304.52	29.070
304.89	30.576
305.25	29.710
305.62	30.303
305.99	31.237
306.35	29.839
306.72	32.265
307.09	29.645
307.45	30.021
307.82	30.373
308.19	28.961
308.55	29.797
308.92	28.919
309.29	29.310
309.65	29.240
310.02	28.713
310.38	29.429
310.75	29.126
311.12	29.626
311.48	30.205
311.85	28.870
312.22	29.317
312.58	28.638
312.95	29.254
313.31	28.546
313.68	29.487
314.05	28.997
314.41	29.326
314.78	29.519
315.14	28.221
315.51	28.809
315.87	29.523
316.24	28.037
316.61	28.330
316.97	28.597
317.34	28.924
317.70	28.297
318.07	28.748
318.43	28.912
318.80	29.097
319.16	28.584
319.53	27.763
319.89	26.468
320.26	28.292
320.62	26.862
320.99	27.424
321.35	28.189
321.72	28.837
322.08	27.592
322.45	29.449
322.81	28.971
323.18	29.469
323.54	28.793
323.91	30.249
324.27	28.485
324.64	28.631
325.00	28.690
325.37	29.402
325.73	28.182
326.10	28.386
326.46	28.176
326.83	29.384
327.19	28.661
327.56	29.407
327.92	27.852
328.29	27.581
328.65	27.638
329.01	27.834
329.38	28.391
329.74	28.767
330.11	28.425
330.47	28.559
330.84	28.941
331.20	27.667
331.56	28.423
331.93	27.615
332.29	28.729
332.66	28.073
333.02	27.889
333.38	27.852
333.75	27.020
334.11	27.773
334.48	27.723
334.84	27.867
335.20	27.288
335.57	27.572
335.93	29.091
336.29	26.040
336.66	27.754
337.02	28.261
337.38	26.531
337.75	27.686
338.11	27.334
338.47	27.543
338.84	26.396
339.20	27.380
339.56	26.606
339.93	26.765
340.29	26.570
340.65	27.899
341.02	27.135
341.38	27.486
341.74	27.441
342.11	27.675
342.47	26.450
342.83	26.892
343.20	26.574
343.56	26.624
343.92	27.622
344.28	25.703
344.65	26.434
345.01	27.535
345.37	26.827
345.73	26.500
346.10	26.833
346.46	25.554
346.82	26.442
347.19	26.967
347.55	26.783
347.91	26.226
348.27	27.162
348.63	26.123
349.00	26.398
349.36	25.799
349.72	26.563
350.08	26.597
350.45	25.019
350.81	25.641
351.17	25.564
351.53	24.640
351.89	26.955
352.26	26.194
352.62	26.493
352.98	24.733
353.34	24.571
353.70	24.961
354.07	25.708
354.43	25.588
354.79	25.355
355.15	23.767
355.51	25.658
355.87	25.804
356.24	25.627
356.60	25.203
356.96	25.945
357.32	24.238
357.68	24.597
358.04	23.802
358.40	25.373
358.77	25.585
359.13	24.446
359.49	24.312
359.85	25.671
360.21	25.108
360.57	24.551
360.93	24.824
361.29	25.263
361.66	23.751
362.02	24.843
362.38	25.018
362.74	24.092
363.10	24.759
363.46	24.654
363.82	24.645
364.18	24.490
364.54	23.582
364.90	24.080
365.26	24.621
365.62	23.933
365.98	23.690
366.35	23.826
366.71	25.238
367.07	24.560
367.43	24.228
367.79	24.685
368.15	25.351
368.51	24.290
368.87	24.559
369.23	23.800
369.59	24.795
369.95	24.003
370.31	25.523
370.67	24.553
371.03	23.476
371.39	22.968
371.75	23.796
372.11	23.984
372.47	23.629
372.83	23.626
373.19	23.549
373.55	22.764
373.91	23.381
374.27	23.286
374.63	24.493
374.99	23.873
375.35	24.481
375.71	24.452
376.07	23.434
376.42	24.181
376.78	23.804
377.14	23.206
377.50	23.529
377.86	24.384
378.22	24.012
378.58	22.533
378.94	23.122
379.30	23.960
379.66	24.103
380.02	23.081
380.38	23.157
380.74	23.493
381.09	22.822
381.45	23.920
381.81	23.419
382.17	23.337
382.53	22.865
382.89	23.589
383.25	23.798
383.61	22.975
383.97	23.439
384.32	23.385
384.68	22.738
385.04	23.482
385.40	23.925
385.76	23.681
386.12	22.621
386.48	23.412
386.83	23.302
387.19	23.059
387.55	22.242
387.91	22.203
388.27	23.499
388.62	23.024
388.98	21.884
389.34	22.982
389.70	22.719
390.06	21.966
390.42	22.590
390.77	23.359
391.13	22.887
391.49	23.188
391.85	22.545
392.20	22.420
392.56	21.914
392.92	23.337
393.28	22.499
393.64	21.899
393.99	23.359
394.35	23.598
394.71	23.533
395.07	22.395
395.42	23.015
395.78	22.669
396.14	22.757
396.50	22.328
396.85	22.540
397.21	22.899
397.57	22.850
397.92	24.112
398.28	22.053
398.64	22.140
399.00	21.937
399.35	22.461
399.71	22.391
400.07	22.572
400.42	22.526
400.78	21.933
401.14	22.994
401.49	22.115
401.85	22.674
402.21	22.074
402.57	22.946
402.92	22.459
403.28	22.131
403.63	21.718
403.99	20.962
404.35	21.660
404.70	21.700
405.06	21.739
405.42	22.307
405.77	22.737
406.13	21.880
406.49	22.523
406.84	22.161
407.20	22.806
407.55	21.926
407.91	21.245
408.27	22.379
408.62	22.339
408.98	21.822
409.34	20.821
409.69	22.806
410.05	22.333
410.40	22.506
410.76	21.425
411.11	22.501
411.47	22.174
411.83	22.046
412.18	22.108
412.54	22.525
412.89	22.235
413.25	21.445
413.60	20.908
413.96	22.261
414.31	21.756
414.67	22.004
415.03	20.985
415.38	22.509
415.74	22.053
416.09	21.900
416.45	22.041
416.80	21.359
417.16	21.328
417.51	21.793
417.87	21.337
418.22	21.677
418.58	21.499
418.93	22.584
419.29	22.195
419.64	22.389
420.00	21.958
420.35	21.561
420.71	21.884
421.06	21.794
421.42	22.018
421.77	21.648
422.12	21.512
422.48	21.352
422.83	21.413
423.19	22.069
423.54	22.511
423.90	22.474
424.25	21.600
424.61	21.757
424.96	21.527
425.31	22.665
425.67	21.846
426.02	21.693
426.38	21.412
426.73	21.652
427.09	22.549
427.44	22.611
427.79	21.227
428.15	21.176
428.50	21.292
428.85	22.101
429.21	22.021
429.56	21.273
429.92	21.179
430.27	22.024
430.62	21.544
430.98	21.249
431.33	21.310
431.68	21.456
432.04	22.143
432.39	22.067
432.74	21.062
433.10	22.174
433.45	21.906
433.80	21.620
434.16	21.488
434.51	21.377
434.86	21.878
435.22	21.945
435.57	22.524
435.92	21.870
436.28	21.104
436.63	21.464
436.98	21.363
437.34	21.421
437.69	21.354
438.04	21.946
438.39	22.573
438.75	20.863
439.10	22.357
439.45	22.023
439.81	21.582
440.16	21.019
440.51	21.628
440.86	21.290
441.22	21.758
441.57	21.960
441.92	21.775
442.27	22.424
442.63	21.957
442.98	21.718
443.33	21.831
443.68	21.853
444.03	22.766
444.39	22.423
444.74	22.307
445.09	21.186
445.44	22.181
445.79	22.270
446.15	22.148
446.50	21.964
446.85	22.179
447.20	21.954
447.55	22.019
447.91	22.461
448.26	20.930
448.61	21.413
448.96	22.425
449.31	21.421
449.66	21.841
450.02	21.466
450.37	21.897
450.72	21.690
451.07	22.096
451.42	21.606
451.77	20.901
452.12	22.065
452.47	21.866
452.83	21.959
453.18	21.950
453.53	21.941
453.88	22.032
454.23	21.977
454.58	21.300
454.93	20.692
455.28	22.095
455.63	21.546
455.98	21.508
456.34	21.437
456.69	21.399
457.04	21.336
457.39	22.228
457.74	22.148
458.09	20.538
458.44	21.875
458.79	21.403
459.14	22.286
459.49	21.562
459.84	21.721
460.19	21.377
460.54	21.749
460.89	20.911
461.24	21.207
461.59	22.800
461.94	20.593
462.29	22.060
462.64	21.304
462.99	22.034
463.34	22.323
463.69	21.336
464.04	22.068
464.39	21.805
464.74	21.380
465.09	21.626
465.44	21.727
465.79	21.417
466.14	21.261
466.49	21.421
466.84	21.543
467.19	22.601
467.54	21.563
467.89	20.230
468.24	21.440
468.59	20.151
468.94	20.513
469.29	20.816
469.64	21.233
469.99	20.841
470.34	20.916
470.68	21.531
471.03	21.284
471.38	21.190
471.73	21.001
472.08	20.305
472.43	21.674
472.78	21.096
473.13	19.785
473.48	21.148
473.83	20.836
474.17	21.747
474.52	20.686
474.87	21.429
475.22	20.789
475.57	20.042
475.92	21.105
476.27	21.406
476.61	20.924
476.96	20.594
477.31	20.792
477.66	21.144
478.01	20.996
478.36	20.937
478.70	20.985
479.05	21.472
479.40	21.273
479.75	21.710
480.10	20.748
480.45	20.875
480.79	21.088
481.14	20.818
481.49	21.172
481.84	21.062
482.19	21.032
482.53	21.906
482.88	21.666
483.23	20.053
483.58	20.611
483.92	19.681
484.27	21.084
484.62	20.132
484.97	21.384
485.31	20.943
485.66	20.227
486.01	20.554
486.36	20.833
486.70	22.046
487.05	22.861
487.40	22.939
487.75	22.799
488.09	22.880
488.44	22.133
488.79	22.024
489.13	21.542
489.48	21.204
489.83	20.282
490.17	20.049
490.52	19.622
490.87	21.151
491.22	20.494
491.56	20.904
491.91	19.712
492.26	20.814
492.60	19.676
492.95	20.053
493.30	19.408
493.64	20.061
493.99	20.614
494.34	19.817
494.68	20.214
495.03	20.749
495.37	20.328
495.72	20.000
496.07	20.684
496.41	20.378
496.76	20.309
497.11	20.552
497.45	20.414
497.80	20.524
498.14	19.955
498.49	20.864
498.84	20.110
499.18	19.523
499.53	20.135
499.87	19.473
500.22	18.833
500.56	19.748
500.91	19.542
501.26	20.136
501.60	19.311
501.95	20.625
502.29	20.097
502.64	20.988
502.98	19.802
503.33	20.086
503.67	19.799
504.02	19.746
504.36	20.152
504.71	20.211
505.06	19.782
505.40	19.881
505.75	19.991
506.09	19.936
506.44	19.916
506.78	19.954
507.13	19.640
507.47	20.369
507.82	19.697
508.16	19.742
508.51	19.503
508.85	20.170
509.19	19.848
509.54	18.780
509.88	19.087
510.23	19.767
510.57	19.913
510.92	19.594
511.26	19.673
511.61	19.169
511.95	19.375
512.30	19.153
512.64	19.090
512.98	19.160
513.33	19.607
513.67	18.766
514.02	19.366
514.36	20.102
514.70	18.698
515.05	19.760
515.39	19.948
515.74	19.194
516.08	19.070
516.42	19.466
516.77	18.559
517.11	18.463
517.46	19.247
517.80	19.241
518.14	20.185
518.49	19.577
518.83	18.946
519.17	18.148
519.52	19.654
519.86	19.641
520.20	19.649
520.55	19.168
520.89	19.088
521.23	18.314
521.58	19.209
521.92	19.377
522.26	18.213
522.61	18.576
522.95	18.281
523.29	18.448
523.64	18.442
523.98	18.996
524.32	19.484
524.66	19.010
525.01	18.290
525.35	18.150
525.69	19.200
526.04	18.485
526.38	18.391
526.72	19.204
527.06	18.768
527.41	18.601
527.75	19.240
528.09	18.772
528.43	18.887
528.78	18.382
529.12	18.291
529.46	18.999
529.80	19.050
530.15	19.188
530.49	18.980
530.83	19.067
531.17	18.399
531.51	17.930
531.86	18.810
532.20	19.634
532.54	18.671
532.88	18.727
533.22	18.975
533.57	18.869
533.91	19.192
534.25	18.994
534.59	18.391
534.93	19.185
535.27	19.211
535.62	19.784
535.96	19.059
536.30	18.919
536.64	19.760
536.98	19.496
537.32	20.370
537.66	19.276
538.01	18.671
538.35	18.392
538.69	19.471
539.03	20.110
539.37	19.258
539.71	19.880
540.05	19.844
540.39	18.826
540.73	18.579
541.07	19.313
541.42	19.492
541.76	18.624
542.10	19.964
542.44	18.697
542.78	19.161
543.12	19.964
543.46	18.437
543.80	18.585
544.14	18.731
544.48	19.563
544.82	19.449
545.16	19.082
545.50	19.113
545.84	18.861
546.18	19.815
546.52	19.363
546.86	19.623
547.20	19.020
547.54	18.851
547.88	18.264
548.22	18.772
548.56	18.841
548.90	19.104
549.24	20.608
549.58	18.927
549.92	18.941
550.26	19.353
550.60	19.464
550.94	19.599
551.28	18.416
551.62	19.879
551.96	19.288
552.30	19.439
552.64	19.353
552.98	19.588
553.32	19.936
553.66	19.100
554.00	19.987
554.34	19.627
554.68	18.141
555.02	19.711
555.36	19.461
555.69	18.770
556.03	19.105
556.37	20.025
556.71	19.658
557.05	19.169
557.39	19.376
557.73	19.089
558.07	19.007
558.41	19.468
558.75	19.473
559.08	19.276
559.42	18.381
559.76	19.064
560.10	18.486
560.44	18.338
560.78	19.875
561.12	19.458
561.45	19.769
561.79	19.292
562.13	19.593
562.47	18.557
562.81	20.000
563.15	20.391
563.48	19.577
563.82	20.193
564.16	19.867
564.50	20.322
564.84	20.236
565.17	20.000
565.51	19.620
565.85	20.368
566.19	19.297
566.52	19.953
566.86	19.864
567.20	19.576
567.54	20.074
567.88	19.674
568.21	20.504
568.55	20.815
568.89	20.654
569.23	20.744
569.56	20.399
569.90	21.098
570.24	21.585
570.57	21.681
570.91	20.759
571.25	21.319
571.59	21.208
571.92	21.322
572.26	21.572
572.60	21.704
572.93	22.238
573.27	21.860
573.61	21.678
573.95	22.020
574.28	22.004
574.62	21.919
574.96	21.857
575.29	21.679
575.63	22.222
575.97	22.491
576.30	21.934
576.64	21.713
576.98	21.800
577.31	22.011
577.65	22.080
577.98	21.837
578.32	21.787
578.66	22.277
578.99	22.220
579.33	22.566
579.67	22.484
580.00	21.825
580.34	22.884
580.67	22.242
581.01	22.241
581.35	21.722
581.68	21.757
582.02	22.036
582.35	22.509
582.69	22.802
583.02	22.856
583.36	22.695
583.70	22.858
584.03	23.086
584.37	22.562
584.70	22.249
585.04	22.065
585.37	21.896
585.71	21.834
586.04	22.017
586.38	22.168
586.72	22.111
587.05	22.333
587.39	22.064
587.72	22.297
588.06	22.244
588.39	22.206
588.73	21.931
589.06	22.094
589.40	22.188
589.73	21.947
590.07	22.613
590.40	21.974
590.73	21.845
591.07	22.003
591.40	21.656
591.74	21.264
592.07	22.046
592.41	20.702
592.74	20.944
593.08	21.401
593.41	22.047
593.75	21.667
594.08	21.993
594.41	21.603
594.75	22.052
595.08	21.467
595.42	21.916
595.75	22.247
596.09	22.467
596.42	22.429
596.75	21.961
597.09	22.222
597.42	21.097
597.75	20.698
598.09	21.349
598.42	21.673
598.76	21.093
599.09	21.146
599.42	21.019
599.76	21.096
600.09	21.755
600.42	21.188
600.76	21.863
601.09	20.810
601.42	21.559
601.76	21.793
602.09	21.980
602.42	21.483
602.76	21.402
603.09	21.476
603.42	22.110
603.76	21.494
604.09	22.498
604.42	22.128
604.76	21.689
605.09	21.061
605.42	21.411
605.75	21.846
606.09	21.314
606.42	20.941
606.75	20.652
607.09	20.853
607.42	21.734
607.75	21.532
608.08	21.192
608.42	21.040
608.75	21.434
609.08	21.265
609.41	21.923
609.75	21.027
610.08	21.020
610.41	20.561
610.74	21.261
611.07	21.226
611.41	22.197
611.74	21.570
612.07	21.318
612.40	21.008
612.73	21.565
613.07	21.467
613.40	20.741
613.73	20.318
614.06	20.903
614.39	19.971
614.72	21.009
615.06	21.078
615.39	20.928
615.72	20.995
616.05	21.030
616.38	21.695
616.71	20.533
617.05	21.299
617.38	21.134
617.71	21.382
618.04	20.615
618.37	20.601
618.70	20.984
619.03	21.147
619.36	20.099
619.69	20.500
620.03	19.272
620.36	19.509
620.69	20.234
621.02	20.407
621.35	20.537
621.68	21.547
622.01	19.359
622.34	19.944
622.67	20.206
623.00	18.489
623.33	20.571
623.66	19.909
623.99	20.606
624.32	20.468
624.65	19.176
624.99	20.286
625.32	20.836
625.65	19.420
625.98	19.932
626.31	19.277
626.64	19.341
626.97	19.205
627.30	19.818
627.63	18.380
627.96	21.246
628.29	19.300
628.62	19.060
628.95	19.544
629.28	17.587
629.61	19.444
629.94	16.904
630.26	18.390
630.59	18.221
630.92	18.961
631.25	19.410
631.58	18.362
631.91	19.025
632.24	19.885
632.57	19.450
632.90	17.954
633.23	19.184
633.56	17.041
633.89	17.562
634.22	17.775
