SpectraSuite Data File
++++++++++++++++++++++++++++++++++++
Date: Thu May 14 16:38:23 PDT 2015
User: schluterlab
Dark Spectrum Present: Yes
Reference Spectrum Present: Yes
Number of Sampled Component Spectra: 1
Spectrometers: USB2E3373
Integration Time (usec): 3000 (USB2E3373)
Spectra Averaged: 3 (USB2E3373)
Boxcar Smoothing: 0 (USB2E3373)
Correct for Electrical Dark: No (USB2E3373)
Strobe/Lamp Enabled: No (USB2E3373)
Correct for Detector Non-linearity: No (USB2E3373)
Correct for Stray Light: No (USB2E3373)
Number of Pixels in Processed Spectrum: 2048
>>>>>Begin Processed Spectral Data<<<<<
178.53	0.000
178.91	57.143
179.29	-1100.000
179.67	-700.000
180.04	92.857
180.42	30.000
180.80	180.000
181.18	-700.000
181.56	-500.000
181.94	50.000
182.31	-125.000
182.69	-66.667
183.07	300.000
183.45	350.000
183.83	16.667
184.20	-233.333
184.58	200.000
184.96	-275.000
185.34	33.333
185.72	-40.000
186.09	133.333
186.47	600.000
186.85	280.000
187.23	-166.667
187.61	-800.000
187.98	300.000
188.36	425.000
188.74	-50.000
189.12	300.000
189.49	6.250
189.87	-100.000
190.25	-44.444
190.63	-20.000
191.00	66.667
191.38	0.000
191.76	50.000
192.14	-166.667
192.51	250.000
192.89	83.333
193.27	0.000
193.65	-71.429
194.02	-1400.000
194.40	14.286
194.78	128.571
195.15	0.000
195.53	-36.364
195.91	0.000
196.29	-25.000
196.66	-7.692
197.04	-1200.000
197.42	-57.143
197.79	-800.000
198.17	-62.500
198.55	-157.143
198.92	0.000
199.30	0.000
199.68	27.273
200.05	35.714
200.43	-400.000
200.81	171.429
201.18	0.000
201.56	211.111
201.94	0.000
202.31	100.000
202.69	-122.222
203.07	200.000
203.44	-44.444
203.82	-250.000
204.19	-58.333
204.57	-66.667
204.95	-162.500
205.32	-500.000
205.70	-0.000
206.08	-100.000
206.45	-66.667
206.83	400.000
207.20	-83.333
207.58	-200.000
207.96	-233.333
208.33	16.667
208.71	33.333
209.08	-16.667
209.46	0.000
209.84	-16.667
210.21	100.000
210.59	-400.000
210.96	266.667
211.34	100.000
211.71	-12.500
212.09	-400.000
212.46	0.000
212.84	400.000
213.22	-200.000
213.59	75.000
213.97	-20.000
214.34	66.667
214.72	100.000
215.09	-100.000
215.47	0.000
215.84	71.429
216.22	650.000
216.59	0.000
216.97	-180.000
217.34	-100.000
217.72	100.000
218.09	-175.000
218.47	-275.000
218.84	0.000
219.22	240.000
219.59	-47.059
219.97	-30.000
220.34	300.000
220.72	-77.778
221.09	61.538
221.47	-233.333
221.84	-80.000
222.22	-14.286
222.59	0.000
222.97	37.500
223.34	-160.000
223.72	-400.000
224.09	-200.000
224.46	-225.000
224.84	-100.000
225.21	-85.714
225.59	-450.000
225.96	-175.000
226.34	0.000
226.71	83.333
227.08	-500.000
227.46	13.333
227.83	-250.000
228.21	-10.526
228.58	137.500
228.95	600.000
229.33	8.333
229.70	-20.000
230.08	63.158
230.45	100.000
230.82	-66.667
231.20	0.000
231.57	-50.000
231.95	-54.545
232.32	63.636
232.69	-15.000
233.07	-125.000
233.44	-17.647
233.81	-180.000
234.19	5.556
234.56	-27.273
234.93	37.931
235.31	10.526
235.68	-5.556
236.05	-75.000
236.43	3.846
236.80	32.000
237.17	3.704
237.55	-3.030
237.92	-200.000
238.29	-41.935
238.67	-2.273
239.04	2.778
239.41	-23.810
239.79	-10.870
240.16	-5.556
240.53	-15.217
240.91	-23.529
241.28	-16.393
241.65	8.955
242.02	4.054
242.40	-15.385
242.77	-9.333
243.14	2.439
243.51	2.632
243.89	-12.821
244.26	0.990
244.63	6.863
245.00	-1.869
245.38	0.000
245.75	-4.425
246.12	3.175
246.49	4.651
246.87	7.143
247.24	3.974
247.61	-1.974
247.98	0.000
248.36	3.704
248.73	-7.975
249.10	0.546
249.47	7.960
249.84	4.712
250.22	-3.109
250.59	3.333
250.96	9.545
251.33	-3.061
251.70	7.265
252.08	2.083
252.45	4.508
252.82	-2.066
253.19	0.781
253.56	0.380
253.94	3.846
254.31	2.273
254.68	5.245
255.05	6.189
255.42	2.381
255.79	0.971
256.16	-0.331
256.54	-2.318
256.91	0.984
257.28	2.623
257.65	0.955
258.02	-2.065
258.39	1.140
258.76	5.505
259.14	1.724
259.51	2.305
259.88	1.700
260.25	2.222
260.62	2.740
260.99	6.011
261.36	5.362
261.73	1.592
262.10	0.549
262.47	3.485
262.85	4.040
263.22	0.779
263.59	-2.368
263.96	1.279
264.33	1.279
264.70	5.185
265.07	5.489
265.44	3.628
265.81	2.778
266.18	6.349
266.55	2.009
266.92	0.683
267.29	4.595
267.66	2.439
268.03	4.367
268.40	2.714
268.77	0.456
269.14	0.441
269.51	1.974
269.88	3.893
270.25	3.018
270.62	2.954
270.99	2.626
271.36	2.772
271.73	1.375
272.10	2.405
272.47	0.802
272.84	3.614
273.21	3.808
273.58	3.629
273.95	0.962
274.32	0.760
274.69	0.000
275.06	2.930
275.43	1.109
275.80	5.115
276.17	-0.556
276.54	-0.560
276.91	1.431
277.28	1.627
277.65	2.334
278.02	2.390
278.39	2.174
278.76	1.230
279.13	1.418
279.50	2.577
279.87	1.431
280.23	-0.528
280.60	3.051
280.97	3.454
281.34	-0.170
281.71	4.907
282.08	2.159
282.45	2.946
282.82	2.355
283.19	0.485
283.56	1.475
283.92	5.405
284.29	4.897
284.66	3.284
285.03	1.122
285.40	2.782
285.77	2.167
286.14	2.443
286.51	2.892
286.87	2.054
287.24	2.560
287.61	1.794
287.98	2.417
288.35	2.959
288.72	1.479
289.08	1.611
289.45	1.923
289.82	0.452
290.19	2.299
290.56	3.944
290.93	2.282
291.29	3.581
291.66	1.377
292.03	2.714
292.40	4.082
292.77	1.617
293.13	2.300
293.50	2.891
293.87	2.550
294.24	4.400
294.60	2.908
294.97	3.087
295.34	4.738
295.71	3.026
296.08	1.292
296.44	3.309
296.81	4.385
297.18	3.861
297.55	3.656
297.91	3.084
298.28	1.777
298.65	3.924
299.02	3.424
299.38	3.547
299.75	3.388
300.12	3.125
300.48	3.456
300.85	2.587
301.22	4.474
301.59	2.511
301.95	3.729
302.32	4.778
302.69	3.724
303.05	3.591
303.42	4.656
303.79	4.375
304.15	4.522
304.52	4.228
304.89	3.874
305.25	3.520
305.62	4.598
305.99	5.258
306.35	2.823
306.72	2.896
307.09	4.264
307.45	5.590
307.82	4.945
308.19	4.642
308.55	5.979
308.92	3.603
309.29	3.831
309.65	4.678
310.02	3.465
310.38	5.512
310.75	4.660
311.12	5.753
311.48	4.399
311.85	5.508
312.22	4.744
312.58	5.634
312.95	5.545
313.31	6.323
313.68	6.777
314.05	7.227
314.41	6.557
314.78	6.812
315.14	7.804
315.51	7.387
315.87	7.111
316.24	7.489
316.61	8.259
316.97	6.516
317.34	7.055
317.70	8.472
318.07	7.760
318.43	8.844
318.80	9.281
319.16	9.013
319.53	8.055
319.89	7.888
320.26	9.253
320.62	8.333
320.99	9.603
321.35	9.057
321.72	10.977
322.08	9.378
322.45	8.672
322.81	9.747
323.18	10.177
323.54	9.655
323.91	10.765
324.27	10.069
324.64	11.419
325.00	9.950
325.37	11.876
325.73	10.496
326.10	10.706
326.46	11.726
326.83	11.209
327.19	11.339
327.56	11.621
327.92	11.015
328.29	10.323
328.65	9.966
329.01	10.829
329.38	11.626
329.74	12.243
330.11	11.301
330.47	10.783
330.84	11.283
331.20	11.917
331.56	11.612
331.93	11.967
332.29	11.610
332.66	12.209
333.02	10.637
333.38	11.074
333.75	10.943
334.11	11.676
334.48	12.046
334.84	11.215
335.20	10.915
335.57	11.130
335.93	11.653
336.29	10.233
336.66	11.354
337.02	11.455
337.38	11.650
337.75	10.909
338.11	12.363
338.47	11.332
338.84	10.914
339.20	10.362
339.56	10.956
339.93	11.412
340.29	11.997
340.65	11.354
341.02	11.732
341.38	11.803
341.74	10.250
342.11	11.344
342.47	10.882
342.83	11.755
343.20	11.611
343.56	10.505
343.92	11.129
344.28	11.250
344.65	11.473
345.01	10.608
345.37	11.353
345.73	10.522
346.10	12.402
346.46	11.630
346.82	11.685
347.19	10.924
347.55	11.153
347.91	10.550
348.27	11.153
348.63	12.034
349.00	10.813
349.36	11.524
349.72	10.789
350.08	12.407
350.45	10.570
350.81	10.181
351.17	11.729
351.53	12.206
351.89	11.693
352.26	11.567
352.62	11.119
352.98	10.611
353.34	10.157
353.70	10.863
354.07	11.475
354.43	11.162
354.79	10.995
355.15	11.111
355.51	11.842
355.87	11.518
356.24	12.167
356.60	10.569
356.96	11.416
357.32	11.078
357.68	9.883
358.04	10.928
358.40	11.418
358.77	10.819
359.13	10.192
359.49	10.112
359.85	10.805
360.21	12.410
360.57	10.840
360.93	11.354
361.29	11.298
361.66	11.296
362.02	12.178
362.38	10.892
362.74	11.453
363.10	10.935
363.46	11.496
363.82	11.364
364.18	10.978
364.54	11.411
364.90	11.839
365.26	10.897
365.62	11.867
365.98	12.185
366.35	11.678
366.71	12.517
367.07	11.434
367.43	13.001
367.79	12.143
368.15	12.441
368.51	11.773
368.87	12.606
369.23	11.467
369.59	12.158
369.95	12.644
370.31	12.154
370.67	12.311
371.03	12.119
371.39	12.424
371.75	12.792
372.11	12.669
372.47	12.458
372.83	13.024
373.19	12.542
373.55	11.992
373.91	11.656
374.27	12.937
374.63	11.434
374.99	13.263
375.35	12.857
375.71	12.774
376.07	12.718
376.42	13.539
376.78	13.424
377.14	12.726
377.50	13.283
377.86	13.239
378.22	12.934
378.58	13.139
378.94	13.087
379.30	13.474
379.66	13.698
380.02	13.445
380.38	14.401
380.74	13.690
381.09	13.008
381.45	13.750
381.81	13.466
382.17	14.074
382.53	13.860
382.89	14.221
383.25	13.775
383.61	13.426
383.97	13.840
384.32	14.234
384.68	13.399
385.04	14.922
385.40	15.498
385.76	14.830
386.12	14.363
386.48	15.000
386.83	14.958
387.19	14.542
387.55	14.554
387.91	14.555
388.27	15.416
388.62	14.318
388.98	15.059
389.34	14.673
389.70	14.526
390.06	15.275
390.42	15.241
390.77	15.834
391.13	15.141
391.49	15.036
391.85	15.273
392.20	14.947
392.56	15.830
392.92	16.521
393.28	16.363
393.64	15.251
393.99	16.502
394.35	16.589
394.71	15.928
395.07	15.210
395.42	15.363
395.78	17.307
396.14	15.865
396.50	15.202
396.85	15.623
397.21	15.976
397.57	16.431
397.92	16.667
398.28	15.481
398.64	16.018
399.00	14.817
399.35	16.545
399.71	16.304
400.07	16.283
400.42	16.240
400.78	16.782
401.14	16.050
401.49	15.918
401.85	16.337
402.21	16.454
402.57	16.960
402.92	16.430
403.28	16.745
403.63	15.513
403.99	15.914
404.35	15.577
404.70	16.317
405.06	16.304
405.42	16.335
405.77	16.794
406.13	16.316
406.49	17.061
406.84	17.175
407.20	17.608
407.55	16.354
407.91	16.091
408.27	16.254
408.62	17.336
408.98	16.715
409.34	15.894
409.69	17.305
410.05	16.999
410.40	17.459
410.76	17.162
411.11	17.008
411.47	16.523
411.83	16.990
412.18	17.108
412.54	17.546
412.89	17.346
413.25	17.269
413.60	16.542
413.96	16.900
414.31	17.620
414.67	17.651
415.03	17.046
415.38	17.276
415.74	17.410
416.09	17.767
416.45	17.595
416.80	17.136
417.16	17.369
417.51	17.061
417.87	17.045
418.22	17.305
418.58	16.976
418.93	17.811
419.29	17.818
419.64	17.167
420.00	17.092
420.35	17.125
420.71	17.002
421.06	16.734
421.42	17.489
421.77	16.801
422.12	17.812
422.48	16.590
422.83	18.072
423.19	16.764
423.54	17.920
423.90	17.725
424.25	18.080
424.61	17.222
424.96	18.122
425.31	17.675
425.67	17.606
426.02	17.156
426.38	17.222
426.73	17.634
427.09	18.051
427.44	16.384
427.79	17.302
428.15	17.295
428.50	17.360
428.85	16.877
429.21	18.138
429.56	17.177
429.92	17.101
430.27	17.687
430.62	17.636
430.98	17.708
431.33	17.155
431.68	17.481
432.04	17.268
432.39	17.300
432.74	16.952
433.10	17.739
433.45	16.611
433.80	17.167
434.16	17.717
434.51	17.420
434.86	17.372
435.22	17.853
435.57	17.217
435.92	17.307
436.28	17.520
436.63	16.931
436.98	17.713
437.34	17.136
437.69	17.171
438.04	17.081
438.39	17.404
438.75	17.488
439.10	17.759
439.45	18.055
439.81	17.345
440.16	16.890
440.51	17.224
440.86	16.843
441.22	17.149
441.57	17.820
441.92	17.216
442.27	17.778
442.63	17.188
442.98	17.930
443.33	16.886
443.68	18.137
444.03	18.156
444.39	17.892
444.74	17.407
445.09	17.790
445.44	17.861
445.79	18.008
446.15	17.318
446.50	16.899
446.85	17.510
447.20	17.698
447.55	17.469
447.91	17.330
448.26	16.913
448.61	17.535
448.96	17.704
449.31	16.914
449.66	16.340
450.02	17.036
450.37	17.262
450.72	17.546
451.07	18.052
451.42	17.620
451.77	16.732
452.12	18.002
452.47	17.291
452.83	17.005
453.18	16.754
453.53	17.748
453.88	16.842
454.23	17.175
454.58	16.773
454.93	16.808
455.28	17.279
455.63	17.681
455.98	17.207
456.34	16.667
456.69	16.343
457.04	17.612
457.39	16.962
457.74	17.450
458.09	16.529
458.44	16.595
458.79	16.968
459.14	17.777
459.49	16.865
459.84	17.471
460.19	15.825
460.54	17.206
460.89	17.311
461.24	16.667
461.59	17.045
461.94	15.630
462.29	16.685
462.64	17.079
462.99	16.070
463.34	16.742
463.69	16.354
464.04	17.399
464.39	16.424
464.74	16.477
465.09	16.724
465.44	16.845
465.79	17.134
466.14	17.405
466.49	16.263
466.84	16.198
467.19	16.416
467.54	16.392
467.89	16.379
468.24	16.233
468.59	16.155
468.94	16.142
469.29	16.557
469.64	15.702
469.99	16.380
470.34	16.584
470.68	16.678
471.03	16.437
471.38	16.416
471.73	15.345
472.08	16.117
472.43	16.677
472.78	15.932
473.13	15.740
473.48	16.737
473.83	16.947
474.17	16.764
474.52	16.777
474.87	16.113
475.22	16.507
475.57	15.836
475.92	16.675
476.27	16.507
476.61	16.147
476.96	15.850
477.31	15.792
477.66	16.422
478.01	16.167
478.36	16.600
478.70	16.355
479.05	16.922
479.40	16.535
479.75	16.282
480.10	16.485
480.45	15.998
480.79	16.236
481.14	15.717
481.49	15.766
481.84	15.883
482.19	16.430
482.53	15.960
482.88	16.305
483.23	16.007
483.58	15.197
483.92	15.115
484.27	15.834
484.62	15.429
484.97	15.630
485.31	15.663
485.66	15.474
486.01	15.309
486.36	15.491
486.70	16.201
487.05	16.086
487.40	15.533
487.75	15.878
488.09	15.582
488.44	14.673
488.79	15.278
489.13	14.736
489.48	14.874
489.83	15.050
490.17	14.783
490.52	15.189
490.87	15.102
491.22	15.078
491.56	15.401
491.91	14.915
492.26	14.929
492.60	14.779
492.95	14.875
493.30	14.657
493.64	14.674
493.99	14.430
494.34	14.983
494.68	14.133
495.03	15.330
495.37	14.736
495.72	14.694
496.07	14.899
496.41	14.200
496.76	14.887
497.11	14.013
497.45	14.113
497.80	14.927
498.14	14.558
498.49	14.936
498.84	14.397
499.18	14.665
499.53	14.350
499.87	14.637
500.22	13.802
500.56	13.990
500.91	15.057
501.26	14.909
501.60	13.433
501.95	14.242
502.29	14.568
502.64	14.735
502.98	14.280
503.33	14.255
503.67	14.566
504.02	14.186
504.36	14.835
504.71	14.515
505.06	14.461
505.40	14.077
505.75	14.117
506.09	14.088
506.44	14.485
506.78	14.908
507.13	14.385
507.47	14.543
507.82	14.252
508.16	13.958
508.51	13.924
508.85	14.502
509.19	13.453
509.54	14.361
509.88	13.307
510.23	14.667
510.57	14.210
510.92	13.788
511.26	13.949
511.61	12.892
511.95	14.300
512.30	14.476
512.64	13.343
512.98	13.557
513.33	14.970
513.67	14.023
514.02	14.308
514.36	13.760
514.70	13.802
515.05	13.608
515.39	14.068
515.74	14.210
516.08	13.682
516.42	14.286
516.77	14.038
517.11	13.667
517.46	13.839
517.80	14.324
518.14	14.418
518.49	14.588
518.83	14.156
519.17	13.355
519.52	13.417
519.86	14.625
520.20	14.377
520.55	13.308
520.89	13.626
521.23	13.959
521.58	13.616
521.92	13.541
522.26	13.631
522.61	13.773
522.95	14.014
523.29	13.621
523.64	13.117
523.98	14.546
524.32	14.212
524.66	13.090
525.01	12.627
525.35	13.670
525.69	13.109
526.04	13.088
526.38	13.736
526.72	13.322
527.06	14.135
527.41	12.945
527.75	14.667
528.09	13.754
528.43	13.854
528.78	13.179
529.12	12.729
529.46	13.603
529.80	13.616
530.15	13.507
530.49	12.811
530.83	12.928
531.17	12.425
531.51	12.094
531.86	13.041
532.20	13.171
532.54	11.969
532.88	12.848
533.22	13.494
533.57	13.099
533.91	13.468
534.25	13.454
534.59	12.989
534.93	11.602
535.27	12.901
535.62	12.848
535.96	12.783
536.30	12.103
536.64	12.913
536.98	12.854
537.32	12.469
537.66	13.724
538.01	11.843
538.35	12.485
538.69	11.959
539.03	12.508
539.37	12.780
539.71	12.492
540.05	12.290
540.39	11.736
540.73	11.779
541.07	12.630
541.42	11.045
541.76	12.159
542.10	11.942
542.44	11.571
542.78	12.165
543.12	12.336
543.46	11.294
543.80	11.211
544.14	12.029
544.48	13.002
544.82	11.730
545.16	11.509
545.50	11.983
545.84	11.451
546.18	12.593
546.52	11.083
546.86	11.698
547.20	11.959
547.54	11.548
547.88	10.850
548.22	11.287
548.56	11.176
548.90	10.925
549.24	12.401
549.58	11.041
549.92	11.033
550.26	11.133
550.60	12.253
550.94	11.190
551.28	10.759
551.62	11.995
551.96	11.197
552.30	11.663
552.64	11.699
552.98	11.416
553.32	10.997
553.66	10.482
554.00	11.602
554.34	10.875
554.68	10.717
555.02	10.710
555.36	11.374
555.69	10.314
556.03	10.845
556.37	11.952
556.71	10.463
557.05	10.863
557.39	10.352
557.73	10.436
558.07	10.132
558.41	10.831
558.75	10.210
559.08	10.578
559.42	11.111
559.76	10.787
560.10	11.186
560.44	9.367
560.78	11.250
561.12	10.961
561.45	10.219
561.79	10.195
562.13	10.967
562.47	10.358
562.81	10.190
563.15	10.417
563.48	10.317
563.82	10.218
564.16	9.933
564.50	10.310
564.84	9.735
565.17	10.353
565.51	10.242
565.85	10.333
566.19	9.620
566.52	10.298
566.86	9.394
567.20	9.244
567.54	9.347
567.88	9.888
568.21	10.820
568.55	9.640
568.89	10.123
569.23	9.801
569.56	9.887
569.90	9.872
570.24	9.275
570.57	9.718
570.91	9.553
571.25	9.575
571.59	9.852
571.92	9.568
572.26	9.846
572.60	9.719
572.93	9.630
573.27	9.609
573.61	9.635
573.95	9.371
574.28	9.507
574.62	9.095
574.96	9.550
575.29	9.473
575.63	9.702
575.97	9.174
576.30	9.228
576.64	8.948
576.98	9.362
577.31	9.396
577.65	9.203
577.98	9.413
578.32	9.266
578.66	9.216
578.99	9.195
579.33	9.182
579.67	9.338
580.00	8.631
580.34	8.988
580.67	9.223
581.01	8.719
581.35	8.962
581.68	8.802
582.02	8.925
582.35	8.862
582.69	9.134
583.02	8.783
583.36	9.057
583.70	8.907
584.03	8.783
584.37	9.109
584.70	8.533
585.04	8.486
585.37	8.551
585.71	8.803
586.04	8.631
586.38	8.519
586.72	8.448
587.05	8.289
587.39	8.576
587.72	8.660
588.06	8.680
588.39	8.813
588.73	8.545
589.06	8.578
589.40	8.605
589.73	9.062
590.07	9.085
590.40	9.297
590.73	8.766
591.07	8.563
591.40	8.476
591.74	8.307
592.07	9.135
592.41	8.517
592.74	7.952
593.08	8.790
593.41	8.486
593.75	8.879
594.08	8.422
594.41	8.462
594.75	8.535
595.08	7.974
595.42	8.409
595.75	7.814
596.09	8.234
596.42	8.312
596.75	8.723
597.09	8.283
597.42	8.343
597.75	8.702
598.09	8.770
598.42	8.363
598.76	8.063
599.09	8.900
599.42	7.610
599.76	8.386
600.09	8.742
600.42	8.275
600.76	8.322
601.09	8.065
601.42	7.896
601.76	7.759
602.09	7.756
602.42	8.033
602.76	7.860
603.09	8.150
603.42	7.659
603.76	7.928
604.09	7.949
604.42	8.110
604.76	7.686
605.09	8.137
605.42	7.855
605.75	8.269
606.09	7.839
606.42	7.880
606.75	7.646
607.09	7.604
607.42	8.054
607.75	7.972
608.08	7.893
608.42	7.658
608.75	7.794
609.08	8.234
609.41	7.896
609.75	7.009
610.08	7.696
610.41	7.434
610.74	8.025
611.07	7.726
611.41	8.161
611.74	8.083
612.07	8.368
612.40	7.510
612.73	7.139
613.07	7.922
613.40	8.470
613.73	7.752
614.06	7.507
614.39	7.823
614.72	7.763
615.06	7.700
615.39	7.492
615.72	8.152
616.05	7.576
616.38	7.518
616.71	8.150
617.05	7.668
617.38	8.293
617.71	7.883
618.04	7.663
618.37	7.760
618.70	8.880
619.03	6.810
619.36	8.755
619.69	7.816
620.03	7.156
620.36	7.607
620.69	7.279
621.02	7.874
621.35	7.983
621.68	7.448
622.01	7.189
622.34	7.741
622.67	7.354
623.00	5.870
623.33	7.697
623.66	7.328
623.99	7.242
624.32	8.512
624.65	7.400
624.99	7.542
625.32	7.577
625.65	7.620
625.98	7.661
626.31	6.875
626.64	8.278
626.97	7.277
627.30	6.910
627.63	6.602
627.96	7.733
628.29	6.770
628.62	6.045
628.95	7.713
629.28	6.202
629.61	7.912
629.94	6.276
630.26	7.119
630.59	6.649
630.92	7.706
631.25	7.335
631.58	7.533
631.91	5.717
632.24	7.493
632.57	6.926
632.90	5.617
633.23	7.755
633.56	6.735
633.89	7.128
634.22	6.549
634.55	7.307
634.88	7.251
635.20	6.997
635.53	6.780
635.86	6.826
636.19	7.317
636.52	6.751
636.85	7.252
637.18	8.316
637.51	6.237
637.83	7.309
638.16	7.258
638.49	7.160
638.82	5.299
639.15	7.446
639.48	7.621
639.81	6.467
640.13	7.656
640.46	4.606
640.79	5.760
641.12	6.957
641.45	5.897
641.77	8.858
642.10	7.087
642.43	8.245
642.76	7.182
643.09	6.712
