SpectraSuite Data File
++++++++++++++++++++++++++++++++++++
Date: Thu May 14 15:55:00 PDT 2015
User: schluterlab
Dark Spectrum Present: Yes
Reference Spectrum Present: Yes
Number of Sampled Component Spectra: 1
Spectrometers: USB2E3373
Integration Time (usec): 3000 (USB2E3373)
Spectra Averaged: 3 (USB2E3373)
Boxcar Smoothing: 0 (USB2E3373)
Correct for Electrical Dark: No (USB2E3373)
Strobe/Lamp Enabled: No (USB2E3373)
Correct for Detector Non-linearity: No (USB2E3373)
Correct for Stray Light: No (USB2E3373)
Number of Pixels in Processed Spectrum: 2048
>>>>>Begin Processed Spectral Data<<<<<
178.53	0.000
178.91	485.714
179.29	-3500.000
179.67	-2900.000
180.04	371.429
180.42	300.000
180.80	640.000
181.18	-3200.000
181.56	-2900.000
181.94	700.000
182.31	-675.000
182.69	1066.667
183.07	-1450.000
183.45	850.000
183.83	-500.000
184.20	-866.667
184.58	3000.000
184.96	-750.000
185.34	-344.444
185.72	-420.000
186.09	455.556
186.47	1750.000
186.85	940.000
187.23	-488.889
187.61	-3800.000
187.98	620.000
188.36	875.000
188.74	-775.000
189.12	-866.667
189.49	-143.750
189.87	-337.500
190.25	-222.222
190.63	-540.000
191.00	-266.667
191.38	0.000
191.76	-975.000
192.14	-483.333
192.51	1800.000
192.89	-500.000
193.27	0.000
193.65	-414.286
194.02	-2900.000
194.40	-328.571
194.78	485.714
195.15	0.000
195.53	-236.364
195.91	0.000
196.29	-650.000
196.66	-269.231
197.04	-3900.000
197.42	-585.714
197.79	-1700.000
198.17	-437.500
198.55	-542.857
198.92	-322.222
199.30	-425.000
199.68	-190.909
200.05	-157.143
200.43	-1650.000
200.81	528.571
201.18	0.000
201.56	366.667
201.94	0.000
202.31	1133.333
202.69	-422.222
203.07	3000.000
203.44	-322.222
203.82	-900.000
204.19	-225.000
204.57	-633.333
204.95	-450.000
205.32	-3800.000
205.70	600.000
206.08	-500.000
206.45	-433.333
206.83	760.000
207.20	-416.667
207.58	-740.000
207.96	-566.667
208.33	-366.667
208.71	308.333
209.08	-566.667
209.46	0.000
209.84	716.667
210.21	1700.000
210.59	1650.000
210.96	1100.000
211.34	-650.000
211.71	-350.000
212.09	-3200.000
212.46	0.000
212.84	2250.000
213.22	-720.000
213.59	-900.000
213.97	-280.000
214.34	-933.333
214.72	550.000
215.09	-650.000
215.47	0.000
215.84	371.429
216.22	2350.000
216.59	-520.000
216.97	-540.000
217.34	-475.000
217.72	-262.500
218.09	-775.000
218.47	-925.000
218.84	0.000
219.22	540.000
219.59	-176.471
219.97	-125.000
220.34	1800.000
220.72	-388.889
221.09	-184.615
221.47	-1100.000
221.84	-310.000
222.22	-500.000
222.59	0.000
222.97	-225.000
223.34	-760.000
223.72	-3200.000
224.09	-825.000
224.46	-725.000
224.84	-460.000
225.21	-471.429
225.59	-800.000
225.96	-875.000
226.34	-76.923
226.71	616.667
227.08	-1450.000
227.46	-180.000
227.83	-750.000
228.21	-73.684
228.58	425.000
228.95	1800.000
229.33	-225.000
229.70	-320.000
230.08	-110.526
230.45	430.000
230.82	-1166.667
231.20	-178.571
231.57	-241.667
231.95	-290.909
232.32	-290.909
232.69	-120.000
233.07	-750.000
233.44	-158.824
233.81	-360.000
234.19	-122.222
234.56	-81.818
234.93	-68.966
235.31	-136.842
235.68	-155.556
236.05	-190.000
236.43	-84.615
236.80	-48.000
237.17	-88.889
237.55	-87.879
237.92	-300.000
238.29	-83.871
238.67	-43.182
239.04	-47.222
239.41	-42.857
239.79	-28.261
240.16	-31.481
240.53	-47.826
240.91	-62.745
241.28	-36.066
241.65	-17.910
242.02	-16.216
242.40	-40.000
242.77	-38.667
243.14	-17.073
243.51	-28.947
243.89	-23.077
244.26	-10.891
244.63	-11.765
245.00	-10.280
245.38	-16.667
245.75	-20.354
246.12	-12.698
246.49	-9.302
246.87	-2.143
247.24	-3.974
247.61	-6.579
247.98	-7.383
248.36	-9.259
248.73	-6.748
249.10	-3.279
249.47	4.975
249.84	1.047
250.22	-6.218
250.59	0.556
250.96	5.455
251.33	-2.041
251.70	0.855
252.08	2.917
252.45	2.459
252.82	2.066
253.19	0.781
253.56	4.183
253.94	1.538
254.31	6.439
254.68	6.643
255.05	5.863
255.42	3.061
255.79	1.618
256.16	3.642
256.54	2.649
256.91	6.230
257.28	7.213
257.65	3.822
258.02	2.065
258.39	5.413
258.76	10.703
259.14	8.046
259.51	5.187
259.88	5.382
260.25	6.944
260.62	6.849
260.99	6.011
261.36	5.630
261.73	5.040
262.10	6.868
262.47	5.094
262.85	8.838
263.22	5.455
263.59	1.842
263.96	6.138
264.33	4.092
264.70	8.889
265.07	9.308
265.44	12.018
265.81	7.870
266.18	6.803
266.55	9.375
266.92	4.784
267.29	7.440
267.66	9.978
268.03	8.515
268.40	7.933
268.77	4.784
269.14	6.388
269.51	6.360
269.88	8.607
270.25	6.439
270.62	9.705
270.99	11.717
271.36	8.713
271.73	10.806
272.10	8.617
272.47	9.820
272.84	9.237
273.21	10.822
273.58	8.468
273.95	6.923
274.32	9.125
274.69	7.350
275.06	9.524
275.43	8.503
275.80	10.758
276.17	7.037
276.54	9.515
276.91	7.871
277.28	9.042
277.65	10.233
278.02	8.272
278.39	5.616
278.76	10.193
279.13	8.156
279.50	8.419
279.87	10.018
280.23	7.042
280.60	11.017
280.97	8.388
281.34	8.489
281.71	12.014
282.08	9.136
282.45	8.020
282.82	9.419
283.19	8.724
283.56	7.377
283.92	11.111
284.29	11.058
284.66	11.002
285.03	7.212
285.40	8.655
285.77	8.978
286.14	10.076
286.51	8.067
286.87	8.531
287.24	10.090
287.61	8.670
287.98	8.006
288.35	8.284
288.72	8.876
289.08	8.931
289.45	8.136
289.82	7.380
290.19	7.184
290.56	8.169
290.93	8.987
291.29	8.402
291.66	6.887
292.03	7.734
292.40	10.612
292.77	7.951
293.13	8.254
293.50	8.936
293.87	7.248
294.24	8.267
294.60	8.723
294.97	8.054
295.34	8.195
295.71	7.440
296.08	8.398
296.44	8.824
296.81	9.135
297.18	6.725
297.55	8.019
297.91	8.185
298.28	6.280
298.65	8.561
299.02	7.792
299.38	8.009
299.75	7.009
300.12	7.755
300.48	7.604
300.85	8.661
301.22	8.837
301.59	7.306
301.95	6.893
302.32	8.111
302.69	6.572
303.05	6.964
303.42	8.093
303.79	8.750
304.15	7.992
304.52	7.082
304.89	7.958
305.25	8.385
305.62	7.210
305.99	8.969
306.35	7.056
306.72	9.514
307.09	8.528
307.45	8.178
307.82	8.375
308.19	7.770
308.55	9.161
308.92	8.082
309.29	7.471
309.65	8.382
310.02	6.931
310.38	8.465
310.75	8.252
311.12	9.108
311.48	9.189
311.85	7.882
312.22	9.013
312.58	10.423
312.95	8.222
313.31	10.027
313.68	10.165
314.05	10.569
314.41	11.566
314.78	10.718
315.14	11.252
315.51	10.342
315.87	10.891
316.24	12.420
316.61	11.101
316.97	11.131
317.34	10.935
317.70	12.751
318.07	10.935
318.43	12.925
318.80	13.043
319.16	12.876
319.53	11.568
319.89	12.883
320.26	13.256
320.62	12.943
320.99	14.220
321.35	13.401
321.72	15.163
322.08	14.518
322.45	15.357
322.81	15.975
323.18	16.814
323.54	16.379
323.91	17.705
324.27	16.523
324.64	18.808
325.00	18.076
325.37	19.328
325.73	18.595
326.10	19.870
326.46	20.114
326.83	19.856
327.19	20.787
327.56	20.632
327.92	20.928
328.29	20.806
328.65	20.352
329.01	22.081
329.38	22.831
329.74	21.832
330.11	22.688
330.47	23.252
330.84	23.600
331.20	23.583
331.56	22.617
331.93	22.594
332.29	23.729
332.66	23.422
333.02	24.539
333.38	22.651
333.75	23.064
334.11	23.186
334.48	24.340
334.84	24.809
335.20	23.594
335.57	23.777
335.93	24.380
336.29	23.128
336.66	24.054
337.02	24.582
337.38	25.085
337.75	22.893
338.11	25.147
338.47	24.897
338.84	25.381
339.20	24.179
339.56	24.465
339.93	25.205
340.29	23.994
340.65	24.412
341.02	24.581
341.38	24.980
341.74	24.455
342.11	25.825
342.47	24.146
342.83	25.684
343.20	24.693
343.56	25.742
343.92	24.580
344.28	25.547
344.65	25.814
345.01	24.337
345.37	24.883
345.73	25.955
346.10	25.117
346.46	25.633
346.82	24.494
347.19	25.668
347.55	26.252
347.91	26.077
348.27	24.734
348.63	25.743
349.00	25.280
349.36	25.948
349.72	26.265
350.08	25.260
350.45	25.551
350.81	25.792
351.17	25.414
351.53	25.625
351.89	25.664
352.26	25.373
352.62	25.299
352.98	25.038
353.34	24.122
353.70	26.348
354.07	25.559
354.43	27.107
354.79	25.131
355.15	25.092
355.51	26.316
355.87	25.654
356.24	26.236
356.60	27.199
356.96	26.093
357.32	25.279
357.68	26.647
358.04	25.898
358.40	25.522
358.77	27.193
359.13	25.185
359.49	25.204
359.85	24.873
360.21	25.825
360.57	25.844
360.93	26.657
361.29	27.158
361.66	26.720
362.02	26.722
362.38	26.845
362.74	26.816
363.10	26.547
363.46	26.593
363.82	27.770
364.18	27.797
364.54	27.386
364.90	27.492
365.26	26.759
365.62	28.333
365.98	26.208
366.35	26.980
366.71	27.415
367.07	26.522
367.43	27.380
367.79	27.737
368.15	28.294
368.51	28.620
368.87	27.302
369.23	26.933
369.59	27.732
369.95	27.519
370.31	28.832
370.67	26.685
371.03	27.839
371.39	26.864
371.75	27.510
372.11	27.642
372.47	27.759
372.83	29.254
373.19	28.219
373.55	28.117
373.91	27.471
374.27	27.361
374.63	28.078
374.99	27.984
375.35	27.987
375.71	28.258
376.07	27.954
376.42	28.149
376.78	28.278
377.14	28.135
377.50	27.577
377.86	28.633
378.22	29.102
378.58	29.251
378.94	28.873
379.30	27.709
379.66	27.748
380.02	28.159
380.38	29.090
380.74	28.732
381.09	29.210
381.45	28.636
381.81	30.094
382.17	29.038
382.53	28.421
382.89	29.458
383.25	28.546
383.61	28.009
383.97	27.621
384.32	29.127
384.68	27.668
385.04	29.150
385.40	29.110
385.76	29.250
386.12	29.384
386.48	29.176
386.83	29.023
387.19	28.853
387.55	28.286
387.91	27.797
388.27	29.042
388.62	28.064
388.98	28.088
389.34	29.817
389.70	29.924
390.06	28.064
390.42	27.771
390.77	28.296
391.13	28.052
391.49	29.106
391.85	28.667
392.20	28.470
392.56	28.706
392.92	28.190
393.28	29.519
393.64	28.603
393.99	29.750
394.35	29.848
394.71	28.263
395.07	28.743
395.42	29.240
395.78	29.982
396.14	29.709
396.50	28.325
396.85	27.967
397.21	28.284
397.57	28.622
397.92	27.721
398.28	28.571
398.64	28.432
399.00	27.801
399.35	28.325
399.71	28.261
400.07	27.737
400.42	27.765
400.78	27.604
401.14	27.945
401.49	28.539
401.85	28.372
402.21	28.389
402.57	28.286
402.92	28.487
403.28	26.698
403.63	27.804
403.99	28.266
404.35	27.459
404.70	27.422
405.06	26.685
405.42	27.869
405.77	29.008
406.13	27.445
406.49	27.759
406.84	27.368
407.20	27.334
407.55	28.104
407.91	28.158
408.27	26.620
408.62	26.876
408.98	27.162
409.34	26.921
409.69	28.183
410.05	27.374
410.40	27.958
410.76	27.089
411.11	27.528
411.47	27.150
411.83	27.513
412.18	28.554
412.54	26.971
412.89	27.008
413.25	27.314
413.60	26.364
413.96	27.448
414.31	25.836
414.67	27.191
415.03	25.846
415.38	26.986
415.74	25.351
416.09	27.267
416.45	25.736
416.80	26.377
417.16	26.820
417.51	26.526
417.87	26.793
418.22	26.048
418.58	26.332
418.93	28.347
419.29	26.880
419.64	26.411
420.00	27.062
420.35	26.221
420.71	27.111
421.06	25.532
421.42	26.089
421.77	26.656
422.12	26.533
422.48	26.370
422.83	27.163
423.19	26.737
423.54	27.268
423.90	25.566
424.25	26.827
424.61	25.718
424.96	25.700
425.31	27.123
425.67	26.141
426.02	26.508
426.38	27.095
426.73	26.395
427.09	26.586
427.44	26.434
427.79	25.318
428.15	26.027
428.50	25.899
428.85	25.890
429.21	26.862
429.56	25.420
429.92	25.749
430.27	26.313
430.62	26.136
430.98	25.726
431.33	25.904
431.68	26.054
432.04	25.901
432.39	25.495
432.74	25.400
433.10	25.906
433.45	24.916
433.80	25.483
434.16	26.033
434.51	26.208
434.86	26.439
435.22	26.089
435.57	26.356
435.92	26.544
436.28	26.564
436.63	26.543
436.98	24.369
437.34	25.310
437.69	25.922
438.04	26.388
438.39	25.675
438.75	25.789
439.10	25.687
439.45	26.272
439.81	25.198
440.16	24.933
440.51	25.920
440.86	24.625
441.22	25.134
441.57	26.101
441.92	25.218
442.27	26.515
442.63	25.584
442.98	25.827
443.33	25.250
443.68	26.165
444.03	26.246
444.39	25.613
444.74	26.085
445.09	25.291
445.44	25.817
445.79	26.389
446.15	26.105
446.50	25.271
446.85	26.216
447.20	26.015
447.55	25.471
447.91	25.602
448.26	25.370
448.61	24.814
448.96	25.376
449.31	24.655
449.66	25.218
450.02	25.264
450.37	24.774
450.72	24.489
451.07	25.854
451.42	24.495
451.77	24.291
452.12	25.169
452.47	23.945
452.83	24.944
453.18	24.985
453.53	24.641
453.88	24.903
454.23	24.972
454.58	24.724
454.93	24.575
455.28	25.166
455.63	23.991
455.98	25.475
456.34	24.264
456.69	24.633
457.04	24.764
457.39	24.113
457.74	25.895
458.09	23.668
458.44	24.084
458.79	24.291
459.14	23.807
459.49	25.184
459.84	26.128
460.19	23.820
460.54	24.645
460.89	24.563
461.24	24.253
461.59	24.405
461.94	23.788
462.29	24.804
462.64	24.381
462.99	23.729
463.34	24.659
463.69	24.267
464.04	24.180
464.39	24.664
464.74	23.318
465.09	23.991
465.44	23.605
465.79	23.374
466.14	23.606
466.49	24.526
466.84	23.140
467.19	22.486
467.54	23.032
467.89	22.759
468.24	23.601
468.59	22.409
468.94	23.135
469.29	23.215
469.64	23.204
469.99	23.008
470.34	23.453
470.68	22.420
471.03	22.855
471.38	23.610
471.73	23.017
472.08	23.223
472.43	22.577
472.78	23.111
473.13	23.072
473.48	23.142
473.83	23.622
474.17	23.271
474.52	22.790
474.87	22.425
475.22	23.155
475.57	22.222
475.92	23.245
476.27	22.897
476.61	22.638
476.96	22.471
477.31	23.465
477.66	23.557
478.01	22.318
478.36	23.280
478.70	23.054
479.05	22.699
479.40	22.705
479.75	22.430
480.10	22.501
480.45	21.604
480.79	23.220
481.14	21.691
481.49	21.581
481.84	22.063
482.19	22.237
482.53	23.174
482.88	23.305
483.23	22.632
483.58	22.489
483.92	22.163
484.27	22.100
484.62	21.535
484.97	22.473
485.31	21.612
485.66	20.713
486.01	20.536
486.36	21.613
486.70	22.624
487.05	22.643
487.40	22.405
487.75	22.061
488.09	22.654
488.44	21.640
488.79	21.720
489.13	21.361
489.48	21.204
489.83	20.724
490.17	20.697
490.52	20.854
490.87	21.658
491.22	21.360
491.56	21.715
491.91	21.195
492.26	21.463
492.60	20.813
492.95	20.930
493.30	21.112
493.64	20.806
493.99	21.579
494.34	20.819
494.68	20.385
495.03	21.233
495.37	21.127
495.72	20.272
496.07	20.903
496.41	19.863
496.76	20.767
497.11	20.552
497.45	20.673
497.80	20.524
498.14	20.045
498.49	19.485
498.84	20.658
499.18	20.513
499.53	20.493
499.87	21.011
500.22	19.768
500.56	20.288
500.91	20.229
501.26	20.500
501.60	19.532
501.95	20.017
502.29	20.097
502.64	19.983
502.98	19.888
503.33	19.482
503.67	19.232
504.02	19.221
504.36	20.286
504.71	19.798
505.06	19.691
505.40	18.921
505.75	20.264
506.09	19.982
506.44	19.638
506.78	20.046
507.13	19.917
507.47	19.659
507.82	19.792
508.16	18.881
508.51	18.284
508.85	19.934
509.19	19.517
509.54	19.212
509.88	18.601
510.23	19.427
510.57	19.816
510.92	19.594
511.26	18.711
511.61	18.300
511.95	19.668
512.30	19.793
512.64	18.191
512.98	18.659
513.33	19.355
513.67	18.970
514.02	19.315
514.36	19.130
514.70	18.542
515.05	18.822
515.39	19.738
515.74	19.724
516.08	18.225
516.42	18.838
516.77	18.770
517.11	18.308
517.46	18.876
517.80	19.027
518.14	18.390
518.49	18.709
518.83	18.042
519.17	18.040
519.52	18.816
519.86	17.740
520.20	18.637
520.55	18.839
520.89	18.694
521.23	17.700
521.58	17.966
521.92	17.790
522.26	17.640
522.61	17.824
522.95	18.397
523.29	18.276
523.64	17.769
523.98	18.483
524.32	18.797
524.66	18.099
525.01	17.667
525.35	17.117
525.69	17.575
526.04	18.485
526.38	18.046
526.72	17.647
527.06	17.830
527.41	18.076
527.75	18.112
528.09	18.831
528.43	17.348
528.78	16.936
529.12	17.030
529.46	17.088
529.80	17.105
530.15	17.275
530.49	16.548
530.83	17.710
531.17	17.981
531.51	17.690
531.86	18.269
532.20	18.110
532.54	17.714
532.88	17.273
533.22	16.971
533.57	17.426
533.91	16.891
534.25	16.733
534.59	17.529
534.93	17.204
535.27	16.113
535.62	17.396
535.96	16.734
536.30	17.215
536.64	17.237
536.98	16.544
537.32	17.778
537.66	16.469
538.01	15.347
538.35	16.504
538.69	16.346
539.03	16.983
539.37	15.783
539.71	16.517
540.05	16.787
540.39	16.932
540.73	16.576
541.07	16.493
541.42	16.421
541.76	15.658
542.10	15.983
542.44	16.017
542.78	16.545
543.12	16.687
543.46	15.812
543.80	15.647
544.14	15.560
544.48	17.021
544.82	15.440
545.16	15.921
545.50	15.938
545.84	15.860
546.18	16.358
546.52	16.561
546.86	15.975
547.20	15.649
547.54	15.169
547.88	16.637
548.22	16.433
548.56	15.974
548.90	14.985
549.24	16.231
549.58	15.394
549.92	15.625
550.26	15.793
550.60	15.571
550.94	15.524
551.28	16.172
551.62	15.903
551.96	15.210
552.30	15.679
552.64	15.681
552.98	15.284
553.32	16.527
553.66	15.563
554.00	15.574
554.34	16.023
554.68	15.107
555.02	14.849
555.36	16.700
555.69	14.029
556.03	15.763
556.37	15.582
556.71	16.107
557.05	15.335
557.39	14.864
557.73	15.192
558.07	15.232
558.41	14.751
558.75	14.672
559.08	15.797
559.42	15.364
559.76	15.807
560.10	16.008
560.44	15.567
560.78	14.375
561.12	15.148
561.45	15.450
561.79	15.568
562.13	14.787
562.47	14.858
562.81	14.367
563.15	14.773
563.48	15.103
563.82	14.933
564.16	14.476
564.50	14.362
564.84	14.218
565.17	14.824
565.51	14.097
565.85	15.380
566.19	14.459
566.52	14.511
566.86	14.658
567.20	14.410
567.54	14.711
567.88	14.934
568.21	15.217
568.55	14.053
568.89	15.388
569.23	14.618
569.56	14.185
569.90	14.968
570.24	14.503
570.57	14.368
570.91	13.748
571.25	14.492
571.59	14.640
571.92	14.632
572.26	14.214
572.60	14.824
572.93	14.612
573.27	14.667
573.61	14.293
573.95	14.518
574.28	14.389
574.62	14.598
574.96	14.468
575.29	14.497
575.63	14.553
575.97	14.898
576.30	14.261
576.64	14.078
576.98	14.191
577.31	13.798
577.65	14.239
577.98	14.270
578.32	14.212
578.66	14.078
578.99	14.090
579.33	14.406
579.67	14.393
580.00	14.003
580.34	14.332
580.67	14.475
581.01	14.150
581.35	13.910
581.68	14.481
582.02	14.186
582.35	14.140
582.69	14.232
583.02	14.371
583.36	14.315
583.70	14.065
584.03	13.823
584.37	13.799
584.70	14.034
585.04	13.485
585.37	13.964
585.71	13.894
586.04	13.650
586.38	14.253
586.72	13.838
587.05	13.584
587.39	13.887
587.72	13.756
588.06	14.241
588.39	13.891
588.73	13.413
589.06	13.516
589.40	13.614
589.73	13.850
590.07	13.660
590.40	14.064
590.73	13.538
591.07	13.961
591.40	13.025
591.74	13.593
592.07	13.561
592.41	13.328
592.74	13.170
593.08	13.631
593.41	13.794
593.75	13.851
594.08	13.723
594.41	13.333
594.75	13.783
595.08	13.526
595.42	13.766
595.75	13.594
596.09	14.029
596.42	13.508
596.75	13.856
597.09	13.737
597.42	13.468
597.75	13.563
598.09	13.929
598.42	13.510
598.76	12.763
599.09	13.350
599.42	12.705
599.76	13.404
600.09	13.881
600.42	13.547
600.76	13.342
601.09	13.176
601.42	12.976
601.76	13.138
602.09	13.545
602.42	13.377
602.76	13.764
603.09	13.032
603.42	13.331
603.76	12.403
604.09	13.378
604.42	12.917
604.76	13.470
605.09	12.964
605.42	13.158
605.75	13.115
606.09	12.915
606.42	12.550
606.75	12.856
607.09	12.481
607.42	12.909
607.75	13.130
608.08	13.457
608.42	13.503
608.75	12.687
609.08	12.776
609.41	12.528
609.75	12.143
610.08	13.456
610.41	12.872
610.74	12.689
611.07	12.833
611.41	13.812
611.74	13.210
612.07	13.043
612.40	12.262
612.73	12.958
613.07	13.105
613.40	13.282
613.73	12.518
614.06	12.856
614.39	12.439
614.72	13.003
615.06	12.127
615.39	13.388
615.72	12.654
616.05	12.967
616.38	13.320
616.71	12.696
617.05	11.981
617.38	13.430
617.71	12.689
618.04	13.060
618.37	13.169
618.70	13.009
619.03	11.708
619.36	13.194
619.69	13.197
620.03	12.116
620.36	11.963
620.69	12.215
621.02	12.073
621.35	12.990
621.68	13.160
622.01	12.313
622.34	11.994
622.67	10.790
623.00	11.201
623.33	12.210
623.66	12.581
623.99	11.323
624.32	13.580
624.65	11.326
624.99	12.419
625.32	12.410
625.65	12.475
625.98	12.068
626.31	12.615
626.64	12.308
626.97	11.553
627.30	12.149
627.63	11.403
627.96	11.937
628.29	12.529
628.62	11.251
628.95	11.306
629.28	11.470
629.61	12.121
629.94	11.548
630.26	12.203
630.59	11.744
630.92	10.476
631.25	12.880
631.58	11.864
631.91	10.778
632.24	12.584
632.57	13.283
632.90	11.735
633.23	11.327
633.56	12.245
