SpectraSuite Data File
++++++++++++++++++++++++++++++++++++
Date: Thu May 14 16:39:33 PDT 2015
User: schluterlab
Dark Spectrum Present: Yes
Reference Spectrum Present: Yes
Number of Sampled Component Spectra: 1
Spectrometers: USB2E3373
Integration Time (usec): 3000 (USB2E3373)
Spectra Averaged: 3 (USB2E3373)
Boxcar Smoothing: 0 (USB2E3373)
Correct for Electrical Dark: No (USB2E3373)
Strobe/Lamp Enabled: No (USB2E3373)
Correct for Detector Non-linearity: No (USB2E3373)
Correct for Stray Light: No (USB2E3373)
Number of Pixels in Processed Spectrum: 2048
>>>>>Begin Processed Spectral Data<<<<<
178.53	0.000
178.91	-128.571
179.29	-700.000
179.67	100.000
180.04	114.286
180.42	-30.000
180.80	100.000
181.18	100.000
181.56	600.000
181.94	225.000
182.31	-50.000
182.69	266.667
183.07	-100.000
183.45	-125.000
183.83	-50.000
184.20	66.667
184.58	800.000
184.96	-275.000
185.34	66.667
185.72	60.000
186.09	188.889
186.47	300.000
186.85	200.000
187.23	-111.111
187.61	-700.000
187.98	120.000
188.36	250.000
188.74	-125.000
189.12	33.333
189.49	50.000
189.87	-87.500
190.25	-11.111
190.63	-120.000
191.00	-22.222
191.38	0.000
191.76	-125.000
192.14	0.000
192.51	250.000
192.89	-33.333
193.27	0.000
193.65	-14.286
194.02	-1100.000
194.40	-85.714
194.78	114.286
195.15	0.000
195.53	18.182
195.91	0.000
196.29	0.000
196.66	15.385
197.04	-1600.000
197.42	57.143
197.79	-300.000
198.17	-75.000
198.55	-42.857
198.92	44.444
199.30	62.500
199.68	36.364
200.05	-50.000
200.43	-350.000
200.81	128.571
201.18	0.000
201.56	111.111
201.94	0.000
202.31	300.000
202.69	-77.778
203.07	-800.000
203.44	77.778
203.82	25.000
204.19	-41.667
204.57	-50.000
204.95	-37.500
205.32	-1200.000
205.70	200.000
206.08	50.000
206.45	-83.333
206.83	320.000
207.20	-83.333
207.58	-280.000
207.96	-216.667
208.33	-50.000
208.71	50.000
209.08	150.000
209.46	0.000
209.84	233.333
210.21	350.000
210.59	400.000
210.96	200.000
211.34	75.000
211.71	0.000
212.09	400.000
212.46	0.000
212.84	850.000
213.22	-120.000
213.59	250.000
213.97	60.000
214.34	-233.333
214.72	66.667
215.09	-175.000
215.47	0.000
215.84	14.286
216.22	450.000
216.59	0.000
216.97	-80.000
217.34	0.000
217.72	0.000
218.09	25.000
218.47	-300.000
218.84	0.000
219.22	-0.000
219.59	-23.529
219.97	-15.000
220.34	600.000
220.72	-66.667
221.09	7.692
221.47	-133.333
221.84	-100.000
222.22	-57.143
222.59	0.000
222.97	12.500
223.34	-200.000
223.72	-100.000
224.09	0.000
224.46	50.000
224.84	160.000
225.21	-85.714
225.59	-100.000
225.96	-75.000
226.34	-15.385
226.71	216.667
227.08	-250.000
227.46	13.333
227.83	-25.000
228.21	5.263
228.58	112.500
228.95	200.000
229.33	50.000
229.70	-50.000
230.08	47.368
230.45	70.000
230.82	33.333
231.20	-50.000
231.57	50.000
231.95	0.000
232.32	-9.091
232.69	15.000
233.07	-125.000
233.44	-11.765
233.81	0.000
234.19	16.667
234.56	-13.636
234.93	6.897
235.31	21.053
235.68	5.556
236.05	-5.000
236.43	23.077
236.80	28.000
237.17	14.815
237.55	-18.182
237.92	-120.000
238.29	-35.484
238.67	-18.182
239.04	-16.667
239.41	4.762
239.79	-2.174
240.16	3.704
240.53	-2.174
240.91	-7.843
241.28	-6.557
241.65	10.448
242.02	4.054
242.40	-10.769
242.77	-6.667
243.14	-3.659
243.51	-23.684
243.89	-10.256
244.26	7.921
244.63	6.863
245.00	8.411
245.38	0.877
245.75	-3.540
246.12	2.381
246.49	1.550
246.87	7.857
247.24	5.960
247.61	0.000
247.98	0.000
248.36	5.556
248.73	-1.840
249.10	4.372
249.47	8.458
249.84	4.188
250.22	0.000
250.59	6.667
250.96	1.818
251.33	-2.551
251.70	7.692
252.08	6.250
252.45	1.230
252.82	2.893
253.19	3.125
253.56	3.802
253.94	5.385
254.31	4.167
254.68	6.993
255.05	7.166
255.42	1.701
255.79	4.531
256.16	3.642
256.54	0.993
256.91	6.885
257.28	2.295
257.65	2.866
258.02	1.180
258.39	4.843
258.76	4.587
259.14	6.609
259.51	5.764
259.88	0.283
260.25	1.667
260.62	2.740
260.99	7.377
261.36	6.971
261.73	3.714
262.10	1.099
262.47	5.898
262.85	6.566
263.22	3.636
263.59	2.368
263.96	3.325
264.33	-1.023
264.70	3.457
265.07	4.057
265.44	6.803
265.81	5.093
266.18	6.803
266.55	4.688
266.92	5.011
267.29	4.376
267.66	4.878
268.03	2.620
268.40	5.846
268.77	2.961
269.14	1.982
269.51	4.605
269.88	4.918
270.25	6.036
270.62	5.063
270.99	5.455
271.36	5.347
271.73	4.322
272.10	4.008
272.47	6.814
272.84	3.614
273.21	4.609
273.58	4.032
273.95	3.269
274.32	3.612
274.69	2.708
275.06	4.762
275.43	3.142
275.80	3.704
276.17	4.259
276.54	2.799
276.91	3.041
277.28	4.702
277.65	4.847
278.02	5.331
278.39	4.891
278.76	4.745
279.13	3.369
279.50	4.811
279.87	4.830
280.23	2.641
280.60	5.254
280.97	5.757
281.34	2.716
281.71	5.076
282.08	3.987
282.45	2.128
282.82	5.024
283.19	2.262
283.56	4.262
283.92	6.306
284.29	6.635
284.66	4.269
285.03	2.083
285.40	5.255
285.77	3.715
286.14	5.344
286.51	4.414
286.87	4.107
287.24	4.669
287.61	4.036
287.98	3.776
288.35	4.734
288.72	5.621
289.08	4.685
289.45	4.142
289.82	4.217
290.19	5.172
290.56	5.634
290.93	4.565
291.29	4.821
291.66	3.857
292.03	3.121
292.40	4.218
292.77	3.908
293.13	4.195
293.50	2.102
293.87	3.893
294.24	5.067
294.60	4.804
294.97	3.758
295.34	5.250
295.71	4.035
296.08	3.618
296.44	4.044
296.81	4.263
297.18	4.234
297.55	3.892
297.91	3.559
298.28	3.318
298.65	4.994
299.02	5.313
299.38	5.263
299.75	5.491
300.12	4.745
300.48	4.724
300.85	5.399
301.22	4.810
301.59	4.338
301.95	5.198
302.32	5.667
302.69	4.162
303.05	5.005
303.42	4.878
303.79	3.854
304.15	6.204
304.52	4.968
304.89	5.550
305.25	4.865
305.62	5.434
305.99	6.082
306.35	4.940
306.72	7.135
307.09	5.787
307.45	6.729
307.82	5.348
308.19	5.752
308.55	6.654
308.92	5.648
309.29	6.705
309.65	5.166
310.02	6.139
310.38	6.496
310.75	6.602
311.12	8.437
311.48	6.647
311.85	5.983
312.22	6.641
312.58	7.700
312.95	8.126
313.31	7.136
313.68	9.066
314.05	9.575
314.41	9.199
314.78	9.537
315.14	9.437
315.51	9.049
315.87	10.081
316.24	10.502
316.61	10.746
316.97	10.226
317.34	9.965
317.70	12.402
318.07	10.847
318.43	12.245
318.80	12.709
319.16	13.133
319.53	12.511
319.89	14.198
320.26	14.502
320.62	13.209
320.99	14.497
321.35	14.880
321.72	16.837
322.08	15.059
322.45	16.893
322.81	16.606
323.18	17.965
323.54	17.241
323.91	19.039
324.27	18.417
324.64	19.395
325.00	18.491
325.37	20.229
325.73	20.992
326.10	22.060
326.46	22.883
326.83	22.578
327.19	22.205
327.56	24.111
327.92	23.210
328.29	23.387
328.65	24.623
329.01	25.550
329.38	25.527
329.74	26.370
330.11	26.884
330.47	26.537
330.84	27.046
331.20	27.583
331.56	28.856
331.93	29.038
332.29	27.203
332.66	29.319
333.02	27.806
333.38	27.601
333.75	29.293
334.11	28.857
334.48	28.713
334.84	30.076
335.20	29.975
335.57	31.366
335.93	29.669
336.29	29.534
336.66	29.184
337.02	30.184
337.38	30.527
337.75	29.587
338.11	31.119
338.47	31.100
338.84	30.203
339.20	30.413
339.56	30.560
339.93	30.460
340.29	29.952
340.65	30.008
341.02	31.125
341.38	31.124
341.74	31.396
342.11	30.249
342.47	31.612
342.83	31.401
343.20	30.826
343.56	31.836
343.92	31.465
344.28	31.719
344.65	30.930
345.01	31.435
345.37	32.271
345.73	31.099
346.10	30.499
346.46	30.934
346.82	31.835
347.19	31.704
347.55	31.563
347.91	32.021
348.27	31.563
348.63	31.835
349.00	31.022
349.36	30.632
349.72	31.548
350.08	31.426
350.45	30.798
350.81	31.674
351.17	31.278
351.53	32.676
351.89	32.043
352.26	31.567
352.62	30.448
352.98	30.992
353.34	31.292
353.70	31.741
354.07	31.073
354.43	31.283
354.79	29.993
355.15	30.316
355.51	31.725
355.87	31.937
356.24	32.167
356.60	31.929
356.96	31.950
357.32	32.045
357.68	31.772
358.04	30.988
358.40	31.194
358.77	31.798
359.13	31.684
359.49	31.599
359.85	32.270
360.21	31.994
360.57	31.730
360.93	31.241
361.29	31.439
361.66	32.223
362.02	32.498
362.38	32.115
362.74	32.612
363.10	31.706
363.46	31.233
363.82	32.173
364.18	33.216
364.54	31.743
364.90	32.776
365.26	30.966
365.62	32.867
365.98	32.267
366.35	31.074
366.71	32.653
367.07	32.409
367.43	32.567
367.79	31.586
368.15	32.241
368.51	32.815
368.87	31.875
369.23	31.133
369.59	31.762
369.95	32.590
370.31	32.073
370.67	33.287
371.03	32.410
371.39	30.625
371.75	33.287
372.11	32.520
372.47	31.821
372.83	33.442
373.19	32.488
373.55	32.182
373.91	31.561
374.27	31.759
374.63	32.815
374.99	32.560
375.35	32.987
375.71	33.032
376.07	31.633
376.42	33.186
376.78	32.940
377.14	31.753
377.50	33.017
377.86	33.251
378.22	33.234
378.58	33.591
378.94	32.218
379.30	32.337
379.66	33.568
380.02	32.314
380.38	32.604
380.74	33.127
381.09	33.333
381.45	33.068
381.81	33.138
382.17	33.314
382.53	33.743
382.89	32.844
383.25	33.411
383.61	32.465
383.97	32.862
384.32	33.911
384.68	32.889
385.04	33.025
385.40	33.883
385.76	33.294
386.12	32.735
386.48	34.118
386.83	33.909
387.19	32.329
387.55	32.981
387.91	32.363
388.27	33.545
388.62	33.505
388.98	31.698
389.34	33.765
389.70	33.759
390.06	33.748
390.42	33.012
390.77	34.317
391.13	32.277
391.49	33.213
391.85	33.394
392.20	32.681
392.56	33.786
392.92	32.606
393.28	33.112
393.64	32.737
393.99	33.353
394.35	33.879
394.71	32.754
395.07	33.174
395.42	33.010
395.78	33.333
396.14	33.333
396.50	33.017
396.85	32.677
397.21	32.544
397.57	32.744
397.92	33.505
398.28	32.482
398.64	32.666
399.00	32.094
399.35	33.508
399.71	31.685
400.07	32.678
400.42	32.130
400.78	33.218
401.14	33.295
401.49	32.405
401.85	33.721
402.21	33.314
402.57	34.096
402.92	33.156
403.28	32.436
403.63	32.339
403.99	32.482
404.35	31.950
404.70	32.691
405.06	31.739
405.42	33.314
405.77	32.606
406.13	32.469
406.49	33.502
406.84	32.244
407.20	32.588
407.55	32.829
407.91	31.552
408.27	31.508
408.62	31.472
408.98	31.631
409.34	32.023
409.69	32.077
410.05	32.474
410.40	33.295
410.76	32.193
411.11	32.203
411.47	32.985
411.83	32.628
412.18	33.012
412.54	32.484
412.89	31.723
413.25	32.675
413.60	32.567
413.96	32.226
414.31	31.841
414.67	32.021
415.03	32.985
415.38	32.219
415.74	31.704
416.09	33.004
416.45	31.872
416.80	32.007
417.16	33.206
417.51	31.507
417.87	32.189
418.22	31.737
418.58	32.156
418.93	32.247
419.29	31.998
419.64	31.993
420.00	32.047
420.35	32.117
420.71	32.453
421.06	32.547
421.42	31.479
421.77	30.641
422.12	31.078
422.48	31.848
422.83	31.599
423.19	31.989
423.54	32.467
423.90	31.198
424.25	32.587
424.61	32.090
424.96	31.686
425.31	31.741
425.67	31.455
426.02	32.429
426.38	32.204
426.73	31.696
427.09	33.564
427.44	30.803
427.79	31.564
428.15	32.306
428.50	32.191
428.85	31.401
429.21	32.766
429.56	31.737
429.92	31.400
430.27	31.614
430.62	32.438
430.98	31.382
431.33	31.427
431.68	30.699
432.04	31.793
432.39	32.673
432.74	31.564
433.10	32.017
433.45	31.438
433.80	32.028
434.16	32.386
434.51	32.220
434.86	32.248
435.22	33.156
435.57	33.137
435.92	32.721
436.28	32.309
436.63	33.206
436.98	30.972
437.34	31.511
437.69	31.315
438.04	31.465
438.39	31.361
438.75	31.433
439.10	32.505
439.45	32.420
439.81	32.316
440.16	32.332
440.51	31.996
440.86	31.462
441.22	31.297
441.57	31.289
441.92	32.396
442.27	31.818
442.63	31.545
442.98	32.711
443.33	31.142
443.68	33.053
444.03	32.643
444.39	32.039
444.74	31.853
445.09	31.627
445.44	31.770
445.79	32.040
446.15	32.631
446.50	32.041
446.85	31.907
447.20	32.640
447.55	32.374
447.91	31.309
448.26	31.290
448.61	31.934
448.96	32.564
449.31	31.972
449.66	31.100
450.02	31.698
450.37	32.126
450.72	31.324
451.07	31.720
451.42	31.080
451.77	31.795
452.12	32.788
452.47	31.373
452.83	31.588
453.18	30.881
453.53	30.787
453.88	31.916
454.23	32.429
454.58	31.747
454.93	31.068
455.28	31.908
455.63	31.950
455.98	31.564
456.34	31.213
456.69	31.217
457.04	31.678
457.39	31.541
457.74	31.544
458.09	31.192
458.44	31.627
458.79	30.737
459.14	31.568
459.49	32.484
459.84	31.742
460.19	30.872
460.54	30.664
460.89	31.922
461.24	30.690
461.59	31.323
461.94	29.949
462.29	31.971
462.64	31.804
462.99	31.576
463.34	30.954
463.69	31.477
464.04	31.406
464.39	31.166
464.74	31.357
465.09	31.200
465.44	30.633
465.79	31.253
466.14	30.276
466.49	30.053
466.84	30.303
467.19	30.867
467.54	30.729
467.89	30.862
468.24	30.859
468.59	30.573
468.94	31.061
469.29	31.134
469.64	30.070
469.99	30.784
470.34	30.569
470.68	31.100
471.03	30.386
471.38	31.328
471.73	30.559
472.08	30.330
472.43	30.584
472.78	31.108
473.13	30.910
473.48	30.393
473.83	31.341
474.17	30.012
474.52	30.307
474.87	30.509
475.22	30.479
475.57	29.699
475.92	29.915
476.27	29.979
476.61	30.166
476.96	30.292
477.31	29.901
477.66	30.850
478.01	31.063
478.36	30.060
478.70	30.049
479.05	30.419
479.40	30.207
479.75	29.731
480.10	29.086
480.45	29.809
480.79	29.705
481.14	29.596
481.49	29.577
481.84	30.113
482.19	29.161
482.53	29.471
482.88	30.306
483.23	29.791
483.58	29.825
483.92	29.477
484.27	29.424
484.62	29.043
484.97	28.771
485.31	28.089
485.66	27.302
486.01	26.888
486.36	27.277
486.70	28.163
487.05	28.427
487.40	28.210
487.75	28.066
488.09	28.402
488.44	28.175
488.79	29.073
489.13	28.747
489.48	28.816
489.83	28.732
490.17	28.352
490.52	28.079
490.87	28.257
491.22	28.813
491.56	28.925
491.91	28.696
492.26	29.165
492.60	28.334
492.95	29.004
493.30	29.135
493.64	28.428
493.99	28.904
494.34	27.831
494.68	27.580
495.03	27.930
495.37	28.939
495.72	28.254
496.07	27.958
496.41	27.585
496.76	28.148
497.11	27.983
497.45	27.363
497.80	28.965
498.14	28.073
498.49	27.849
498.84	28.473
499.18	27.530
499.53	28.655
499.87	27.736
500.22	27.115
500.56	27.530
500.91	28.101
501.26	28.636
501.60	27.000
501.95	28.224
502.29	27.863
502.64	27.547
502.98	27.696
503.33	27.041
503.67	26.995
504.02	27.189
504.36	28.105
504.71	27.928
505.06	27.785
505.40	27.057
505.75	26.913
506.09	27.716
506.44	26.695
506.78	27.431
507.13	27.109
507.47	27.570
507.82	27.320
508.16	27.772
508.51	26.676
508.85	27.492
509.19	27.286
509.54	27.233
509.88	27.538
510.23	27.683
510.57	28.420
510.92	26.996
511.26	26.840
511.61	26.316
511.95	27.282
512.30	28.065
512.64	25.837
512.98	27.714
513.33	27.167
513.67	26.976
514.02	28.462
514.36	26.905
514.70	27.135
515.05	27.059
515.39	26.824
515.74	27.413
516.08	26.783
516.42	27.525
516.77	27.445
517.11	26.405
517.46	27.466
517.80	27.312
518.14	28.074
518.49	26.790
518.83	26.663
519.17	26.171
519.52	26.782
519.86	27.508
520.20	27.103
520.55	26.835
520.89	26.802
521.23	25.907
521.58	27.288
521.92	26.629
522.26	26.060
522.61	27.141
522.95	26.644
523.29	26.149
523.64	26.065
523.98	26.127
524.32	27.335
524.66	26.921
525.01	25.708
525.35	26.249
525.69	26.334
526.04	25.775
526.38	25.747
526.72	26.701
527.06	26.745
527.41	26.472
527.75	26.544
528.09	26.328
528.43	25.044
528.78	25.318
529.12	25.573
529.46	25.632
529.80	25.286
530.15	26.087
530.49	25.326
530.83	26.151
531.17	25.149
531.51	26.715
531.86	26.022
532.20	26.768
532.54	25.913
532.88	25.758
533.22	25.280
533.57	24.928
533.91	25.028
534.25	25.325
534.59	25.287
534.93	24.392
535.27	24.338
535.62	25.526
535.96	25.044
536.30	24.736
536.64	25.706
536.98	25.092
537.32	25.370
537.66	25.265
538.01	23.746
538.35	24.239
538.69	24.880
539.03	25.015
539.37	24.735
539.71	24.925
540.05	24.221
540.39	24.328
540.73	24.651
541.07	24.280
541.42	23.922
541.76	23.488
542.10	24.186
542.44	23.508
542.78	24.209
543.12	24.017
543.46	23.871
543.80	23.561
544.14	22.561
544.48	23.995
544.82	23.279
545.16	23.435
545.50	24.206
545.84	23.821
546.18	24.691
546.52	23.758
546.86	23.585
547.20	23.919
547.54	23.159
547.88	22.845
548.22	23.099
548.56	23.113
548.90	23.642
549.24	23.343
549.58	23.407
549.92	23.661
550.26	23.301
550.60	23.931
550.94	23.674
551.28	23.432
551.62	23.989
551.96	23.301
552.30	23.901
552.64	23.398
552.98	22.832
553.32	23.537
553.66	23.023
554.00	23.077
554.34	23.102
554.68	23.241
555.02	22.865
555.36	23.932
555.69	21.973
556.03	22.509
556.37	21.840
556.71	22.575
557.05	21.917
557.39	22.760
557.73	22.787
558.07	22.053
558.41	23.588
558.75	23.124
559.08	23.591
559.42	22.771
559.76	23.202
560.10	21.835
560.44	22.493
560.78	23.187
561.12	21.675
561.45	22.932
561.79	22.222
562.13	23.105
562.47	21.825
562.81	21.582
563.15	22.412
563.48	22.436
563.82	22.007
564.16	21.563
564.50	21.514
564.84	21.416
565.17	21.765
565.51	21.634
565.85	22.209
566.19	21.313
566.52	21.358
566.86	21.222
567.20	21.098
567.54	21.455
567.88	20.897
568.21	20.751
568.55	20.815
568.89	20.608
569.23	20.870
569.56	20.125
569.90	19.993
570.24	20.236
570.57	19.564
570.91	18.830
571.25	19.352
571.59	19.677
571.92	19.163
572.26	19.402
572.60	19.137
572.93	19.232
573.27	19.078
573.61	18.846
573.95	19.592
574.28	18.734
574.62	18.690
574.96	18.086
575.29	17.889
575.63	18.295
575.97	18.659
576.30	18.258
576.64	17.681
576.98	18.451
577.31	18.550
577.65	18.469
577.98	18.204
578.32	17.742
578.66	17.942
578.99	18.227
579.33	18.253
579.67	17.906
580.00	17.734
580.34	18.085
580.67	17.983
581.01	17.568
581.35	17.436
581.68	17.551
582.02	17.476
582.35	18.152
582.69	17.961
583.02	17.511
583.36	17.786
583.70	18.087
584.03	18.095
584.37	18.316
584.70	17.946
585.04	18.159
585.37	17.609
585.71	17.152
586.04	17.701
586.38	17.479
586.72	17.623
587.05	17.472
587.39	17.801
587.72	17.943
588.06	17.722
588.39	18.422
588.73	17.434
589.06	17.777
589.40	17.793
589.73	18.156
590.07	18.203
590.40	17.951
590.73	17.674
591.07	18.206
591.40	18.274
591.74	18.482
592.07	18.555
592.41	18.060
592.74	17.927
593.08	18.153
593.41	18.139
593.75	17.443
594.08	17.631
594.41	17.981
594.75	17.502
595.08	16.622
595.42	17.727
595.75	18.147
596.09	17.824
596.42	17.915
596.75	17.754
597.09	18.263
597.42	18.355
597.75	17.836
598.09	17.540
598.42	18.175
598.76	16.966
599.09	17.124
599.42	17.164
599.76	16.903
600.09	17.284
600.42	17.284
600.76	17.074
601.09	16.893
601.42	17.302
601.76	17.517
602.09	17.477
602.42	17.303
602.76	16.900
603.09	17.327
603.42	17.449
603.76	17.019
604.09	17.388
604.42	17.505
604.76	17.161
605.09	17.032
605.42	17.225
605.75	17.192
606.09	16.909
606.42	16.782
606.75	16.754
607.09	16.974
607.42	16.686
607.75	17.272
608.08	17.127
608.42	16.284
608.75	17.289
609.08	17.063
609.41	17.424
609.75	17.634
610.08	17.282
610.41	17.375
610.74	16.429
611.07	17.540
611.41	18.251
611.74	17.691
612.07	17.485
612.40	17.110
612.73	17.702
613.07	17.311
613.40	17.324
613.73	17.333
614.06	18.302
614.39	17.153
614.72	16.836
615.06	16.554
615.39	16.433
615.72	17.062
616.05	16.950
616.38	16.650
616.71	17.816
617.05	16.613
617.38	17.871
617.71	17.765
618.04	17.323
618.37	17.541
618.70	18.156
619.03	17.503
619.36	17.633
619.69	17.361
620.03	17.075
620.36	17.791
620.69	17.458
621.02	18.110
621.35	18.360
621.68	18.294
622.01	18.221
622.34	17.643
622.67	17.595
623.00	16.194
623.33	16.589
623.66	17.250
623.99	16.590
624.32	18.324
624.65	16.731
624.99	18.010
625.32	18.289
625.65	17.262
625.98	17.966
626.31	17.789
626.64	17.582
626.97	17.929
627.30	17.540
627.63	18.305
627.96	19.520
628.29	18.444
628.62	18.136
628.95	17.791
629.28	17.077
629.61	19.360
629.94	16.067
630.26	17.373
630.59	19.344
630.92	17.922
631.25	19.141
631.58	18.927
631.91	18.182
632.24	19.597
632.57	19.355
632.90	18.455
633.23	17.857
633.56	18.061
633.89	19.008
634.22	18.919
634.55	17.641
634.88	18.939
635.20	19.699
635.53	19.435
635.86	19.502
636.19	18.664
636.52	18.460
636.85	18.182
637.18	18.711
637.51	18.710
637.83	19.380
638.16	18.548
