SpectraSuite Data File
++++++++++++++++++++++++++++++++++++
Date: Thu May 14 15:55:15 PDT 2015
User: schluterlab
Dark Spectrum Present: Yes
Reference Spectrum Present: Yes
Number of Sampled Component Spectra: 1
Spectrometers: USB2E3373
Integration Time (usec): 3000 (USB2E3373)
Spectra Averaged: 3 (USB2E3373)
Boxcar Smoothing: 0 (USB2E3373)
Correct for Electrical Dark: No (USB2E3373)
Strobe/Lamp Enabled: No (USB2E3373)
Correct for Detector Non-linearity: No (USB2E3373)
Correct for Stray Light: No (USB2E3373)
Number of Pixels in Processed Spectrum: 2048
>>>>>Begin Processed Spectral Data<<<<<
178.53	0.000
178.91	428.571
179.29	-3800.000
179.67	-3300.000
180.04	292.857
180.42	230.000
180.80	620.000
181.18	-3100.000
181.56	-2800.000
181.94	575.000
182.31	-725.000
182.69	1133.333
183.07	-1700.000
183.45	850.000
183.83	-400.000
184.20	-966.667
184.58	2600.000
184.96	-850.000
185.34	-322.222
185.72	-540.000
186.09	511.111
186.47	1650.000
186.85	820.000
187.23	-388.889
187.61	-2800.000
187.98	580.000
188.36	800.000
188.74	-850.000
189.12	-933.333
189.49	-175.000
189.87	-412.500
190.25	-322.222
190.63	-360.000
191.00	-366.667
191.38	0.000
191.76	-750.000
192.14	-450.000
192.51	1600.000
192.89	-550.000
193.27	0.000
193.65	-400.000
194.02	-3600.000
194.40	-342.857
194.78	600.000
195.15	0.000
195.53	-245.455
195.91	0.000
196.29	-825.000
196.66	-207.692
197.04	-3200.000
197.42	-471.429
197.79	-1350.000
198.17	-375.000
198.55	-500.000
198.92	-344.444
199.30	-550.000
199.68	-263.636
200.05	-114.286
200.43	-1700.000
200.81	600.000
201.18	0.000
201.56	544.444
201.94	0.000
202.31	933.333
202.69	-400.000
203.07	2700.000
203.44	-288.889
203.82	-725.000
204.19	-300.000
204.57	-600.000
204.95	-425.000
205.32	-2800.000
205.70	850.000
206.08	-516.667
206.45	-450.000
206.83	780.000
207.20	-466.667
207.58	-600.000
207.96	-616.667
208.33	-500.000
208.71	283.333
209.08	-366.667
209.46	0.000
209.84	550.000
210.21	1700.000
210.59	1500.000
210.96	1000.000
211.34	-625.000
211.71	-400.000
212.09	-4200.000
212.46	0.000
212.84	1900.000
213.22	-660.000
213.59	-775.000
213.97	-250.000
214.34	-1033.333
214.72	550.000
215.09	-900.000
215.47	0.000
215.84	485.714
216.22	2000.000
216.59	-660.000
216.97	-580.000
217.34	-775.000
217.72	-325.000
218.09	-700.000
218.47	-850.000
218.84	0.000
219.22	560.000
219.59	-117.647
219.97	-130.000
220.34	1750.000
220.72	-422.222
221.09	-246.154
221.47	-1300.000
221.84	-290.000
222.22	-414.286
222.59	0.000
222.97	-312.500
223.34	-600.000
223.72	-3400.000
224.09	-800.000
224.46	-875.000
224.84	-460.000
225.21	-600.000
225.59	-800.000
225.96	-875.000
226.34	-84.615
226.71	616.667
227.08	-1200.000
227.46	-220.000
227.83	-775.000
228.21	-163.158
228.58	400.000
228.95	1850.000
229.33	-116.667
229.70	-220.000
230.08	-84.211
230.45	340.000
230.82	-1000.000
231.20	-192.857
231.57	-200.000
231.95	-281.818
232.32	-281.818
232.69	-135.000
233.07	-750.000
233.44	-135.294
233.81	-350.000
234.19	-144.444
234.56	-154.545
234.93	-79.310
235.31	-173.684
235.68	-166.667
236.05	-195.000
236.43	-73.077
236.80	-64.000
237.17	-111.111
237.55	-78.788
237.92	-340.000
238.29	-77.419
238.67	-56.818
239.04	-47.222
239.41	-73.810
239.79	-65.217
240.16	-44.444
240.53	-56.522
240.91	-58.824
241.28	-42.623
241.65	-29.851
242.02	-33.784
242.40	-53.846
242.77	-34.667
243.14	-42.683
243.51	-47.368
243.89	-44.872
244.26	-13.861
244.63	-23.529
245.00	-26.168
245.38	-30.702
245.75	-38.053
246.12	-23.810
246.49	-26.357
246.87	-16.429
247.24	-17.219
247.61	-16.447
247.98	-17.450
248.36	-11.111
248.73	-26.380
249.10	-12.022
249.47	-8.955
249.84	-6.806
250.22	-11.399
250.59	-13.889
250.96	-10.455
251.33	-16.837
251.70	-8.974
252.08	-7.917
252.45	-6.557
252.82	-10.744
253.19	-11.719
253.56	-3.042
253.94	-8.846
254.31	-9.091
254.68	-3.497
255.05	-3.583
255.42	-9.524
255.79	-6.796
256.16	-6.291
256.54	-7.285
256.91	-7.541
257.28	-10.820
257.65	-10.828
258.02	-8.850
258.39	-6.268
258.76	-1.835
259.14	-2.874
259.51	-6.916
259.88	-9.065
260.25	-5.278
260.62	-4.110
260.99	-3.279
261.36	-5.630
261.73	-5.570
262.10	-7.143
262.47	-5.630
262.85	-0.253
263.22	-3.896
263.59	-8.421
263.96	-5.627
264.33	-7.928
264.70	-3.457
265.07	-3.580
265.44	-2.494
265.81	-3.009
266.18	-2.494
266.55	-3.125
266.92	-8.656
267.29	-2.407
267.66	-4.435
268.03	-1.965
268.40	-3.132
268.77	-7.517
269.14	-5.727
269.51	-3.289
269.88	-1.434
270.25	-2.616
270.62	-2.321
270.99	-0.808
271.36	-2.178
271.73	-2.554
272.10	-2.004
272.47	-3.607
272.84	-3.414
273.21	-3.607
273.58	-2.419
273.95	-3.269
274.32	-1.901
274.69	-4.062
275.06	-3.663
275.43	-2.033
275.80	-1.058
276.17	-2.778
276.54	-2.052
276.91	-2.147
277.28	-1.447
277.65	-1.795
278.02	-3.309
278.39	-2.899
278.76	-2.636
279.13	-2.837
279.50	-1.031
279.87	-1.610
280.23	-5.458
280.60	-1.525
280.97	-1.316
281.34	-1.868
281.71	-0.508
282.08	-0.831
282.45	-3.601
282.82	-1.413
283.19	-2.262
283.56	-2.787
283.92	-0.450
284.29	0.632
284.66	-1.478
285.03	-1.442
285.40	0.618
285.77	-1.703
286.14	-0.763
286.51	-1.522
286.87	-1.738
287.24	-0.452
287.61	-2.691
287.98	-2.417
288.35	-1.923
288.72	-2.515
289.08	1.318
289.45	-1.923
289.82	-1.657
290.19	-0.575
290.56	0.000
290.93	-0.856
291.29	-1.377
291.66	-1.377
292.03	-1.900
292.40	0.136
292.77	-2.561
293.13	-1.488
293.50	-2.234
293.87	-1.342
294.24	-0.800
294.60	0.253
294.97	-2.953
295.34	-0.896
295.71	-1.765
296.08	-1.809
296.44	-1.838
296.81	-0.365
297.18	-1.370
297.55	-1.179
297.91	-1.423
298.28	-1.540
298.65	-0.713
299.02	-2.007
299.38	-0.114
299.75	-0.117
300.12	-0.579
300.48	-0.230
300.85	0.000
301.22	-1.007
301.59	-0.571
301.95	-2.034
302.32	-0.556
302.69	-0.548
303.05	-0.109
303.42	-0.887
303.79	-0.417
304.15	0.210
304.52	-0.740
304.89	0.209
305.25	0.518
305.62	0.000
305.99	-0.103
306.35	0.101
306.72	-0.620
307.09	-1.015
307.45	1.139
307.82	-0.303
308.19	-0.202
308.55	1.157
308.92	-0.389
309.29	-0.766
309.65	-0.390
310.02	-1.089
310.38	0.098
310.75	0.000
311.12	0.288
311.48	-0.196
311.85	0.380
312.22	-0.664
312.58	0.939
312.95	0.382
313.31	1.265
313.68	1.190
314.05	1.536
314.41	2.641
314.78	1.635
315.14	1.452
315.51	0.369
315.87	1.620
316.24	1.918
316.61	2.043
316.97	1.448
317.34	1.058
317.70	1.485
318.07	2.557
318.43	3.401
318.80	4.013
319.16	2.060
319.53	2.399
319.89	2.016
320.26	3.292
320.62	2.039
320.99	3.139
321.35	2.588
321.72	3.628
322.08	2.885
322.45	2.620
322.81	2.256
323.18	2.832
323.54	3.879
323.91	2.669
324.27	3.098
324.64	4.786
325.00	3.897
325.37	4.750
325.73	3.802
326.10	4.947
326.46	4.316
326.83	5.765
327.19	4.646
327.56	5.217
327.92	4.249
328.29	4.194
328.65	4.271
329.01	4.822
329.38	5.644
329.74	5.137
330.11	5.051
330.47	4.886
330.84	4.565
331.20	5.500
331.56	4.679
331.93	5.356
332.29	5.254
332.66	5.316
333.02	4.858
333.38	4.279
333.75	4.040
334.11	4.837
334.48	5.033
334.84	5.692
335.20	4.282
335.57	5.734
335.93	5.868
336.29	4.742
336.66	4.878
337.02	5.853
337.38	5.782
337.75	5.124
338.11	5.719
338.47	5.707
338.84	4.315
339.20	4.465
339.56	4.530
339.93	5.090
340.29	5.395
340.65	4.623
341.02	5.666
341.38	5.255
341.74	4.358
342.11	5.229
342.47	4.527
342.83	5.797
343.20	5.233
343.56	4.491
343.92	5.364
344.28	6.328
344.65	4.651
345.01	5.616
345.37	6.376
345.73	4.443
346.10	5.148
346.46	5.142
346.82	5.768
347.19	6.188
347.55	5.918
347.91	5.646
348.27	5.615
348.63	5.941
349.00	6.115
349.36	5.874
349.72	5.357
350.08	7.207
350.45	4.639
350.81	4.600
351.17	4.737
351.53	5.610
351.89	5.695
352.26	4.851
352.62	5.299
352.98	5.267
353.34	5.078
353.70	5.162
354.07	5.887
354.43	5.998
354.79	5.535
355.15	6.034
355.51	6.652
355.87	5.236
356.24	6.008
356.60	5.469
356.96	5.560
357.32	5.502
357.68	5.930
358.04	4.416
358.40	5.149
358.77	5.921
359.13	4.653
359.49	4.907
359.85	5.656
360.21	6.026
360.57	5.169
360.93	5.853
361.29	6.526
361.66	6.300
362.02	6.472
362.38	5.762
362.74	6.145
363.10	6.809
363.46	6.302
363.82	5.966
364.18	5.489
364.54	5.809
364.90	6.421
365.26	5.655
365.62	6.800
365.98	6.671
366.35	6.577
366.71	6.939
367.07	6.698
367.43	6.238
367.79	6.835
368.15	6.823
368.51	6.292
368.87	6.597
369.23	7.000
369.59	6.762
369.95	6.829
370.31	6.752
370.67	6.327
371.03	6.371
371.39	6.179
371.75	6.740
372.11	7.182
372.47	6.432
372.83	7.461
373.19	7.138
373.55	6.640
373.91	5.385
374.27	6.404
374.63	7.240
374.99	6.366
375.35	7.792
375.71	7.290
376.07	6.908
376.42	7.683
376.78	8.266
377.14	6.862
377.50	7.337
377.86	8.067
378.22	8.263
378.58	7.015
378.94	7.864
379.30	7.381
379.66	8.054
380.02	6.578
380.38	7.661
380.74	7.944
381.09	7.607
381.45	8.182
381.81	8.899
382.17	8.135
382.53	7.836
382.89	8.296
383.25	8.089
383.61	7.350
383.97	8.127
384.32	8.732
384.68	7.309
385.04	7.634
385.40	8.721
385.76	9.261
386.12	8.139
386.48	8.176
386.83	8.224
387.19	8.401
387.55	7.805
387.91	7.705
388.27	8.141
388.62	7.961
388.98	8.122
389.34	8.780
389.70	8.425
390.06	8.999
390.42	8.072
390.77	8.429
391.13	8.685
391.49	8.333
391.85	8.061
392.20	8.363
392.56	8.978
392.92	8.833
393.28	8.347
393.64	8.827
393.99	8.832
394.35	8.820
394.71	8.802
395.07	7.725
395.42	8.681
395.78	9.445
396.14	8.675
396.50	8.492
396.85	8.408
397.21	8.698
397.57	9.128
397.92	8.763
398.28	8.419
398.64	8.352
399.00	8.586
399.35	9.058
399.71	8.750
400.07	9.545
400.42	9.255
400.78	8.333
401.14	8.936
401.49	8.926
401.85	8.895
402.21	9.038
402.57	8.803
402.92	9.693
403.28	8.841
403.63	7.816
403.99	8.848
404.35	8.755
404.70	8.612
405.06	9.293
405.42	9.016
405.77	9.106
406.13	9.292
406.49	8.784
406.84	9.418
407.20	8.329
407.55	8.661
407.91	8.234
408.27	8.775
408.62	8.668
408.98	9.402
409.34	8.622
409.69	9.271
410.05	9.906
410.40	9.455
410.76	9.030
411.11	9.643
411.47	9.091
411.83	10.053
412.18	9.819
412.54	8.951
412.89	9.080
413.25	8.804
413.60	8.788
413.96	9.091
414.31	8.725
414.67	8.945
415.03	8.492
415.38	8.638
415.74	8.735
416.09	9.685
416.45	9.080
416.80	8.568
417.16	9.515
417.51	8.406
417.87	9.074
418.22	8.443
418.58	8.178
418.93	9.779
419.29	9.618
419.64	9.304
420.00	9.021
420.35	9.882
420.71	8.845
421.06	8.856
421.42	9.518
421.77	8.401
422.12	9.249
422.48	9.217
422.83	9.474
423.19	9.231
423.54	8.131
423.90	9.001
424.25	9.120
424.61	8.496
424.96	9.116
425.31	9.554
425.67	9.125
426.02	8.467
426.38	8.496
426.73	8.650
427.09	10.035
427.44	8.684
427.79	9.287
428.15	8.276
428.50	8.876
428.85	8.266
429.21	9.362
429.56	8.835
429.92	9.533
430.27	9.639
430.62	8.940
430.98	9.051
431.33	8.651
431.68	9.195
432.04	8.939
432.39	8.731
432.74	9.189
433.10	8.707
433.45	7.915
433.80	8.637
434.16	9.143
434.51	9.044
434.86	9.066
435.22	9.777
435.57	8.962
435.92	9.015
436.28	9.443
436.63	9.230
436.98	8.266
437.34	8.850
437.69	9.026
438.04	8.884
438.39	8.616
438.75	8.799
439.10	9.091
439.45	9.391
439.81	8.927
440.16	8.794
440.51	9.197
440.86	8.227
441.22	9.593
441.57	8.910
441.92	8.196
442.27	10.051
442.63	8.445
442.98	9.232
443.33	9.363
443.68	9.861
444.03	9.407
444.39	8.692
444.74	9.393
445.09	8.819
445.44	8.641
445.79	9.195
446.15	9.404
446.50	8.837
446.85	8.949
447.20	9.816
447.55	8.944
447.91	8.796
448.26	9.249
448.61	8.767
448.96	9.603
449.31	9.173
449.66	8.442
450.02	9.072
450.37	9.110
450.72	8.611
451.07	9.226
451.42	8.261
451.77	8.616
452.12	8.747
452.47	8.259
452.83	9.234
453.18	7.706
453.53	8.960
453.88	8.780
454.23	9.209
454.58	8.706
454.93	8.010
455.28	8.489
455.63	8.698
455.98	9.050
456.34	8.009
456.69	9.347
457.04	7.506
457.39	8.315
457.74	8.949
458.09	8.896
458.44	8.351
458.79	8.097
459.14	8.810
459.49	8.602
459.84	8.762
460.19	7.385
460.54	8.461
460.89	9.423
461.24	8.103
461.59	8.688
461.94	8.100
462.29	8.567
462.64	8.389
462.99	8.098
463.34	8.566
463.69	7.913
464.04	8.838
464.39	8.296
464.74	8.153
465.09	8.247
465.44	8.423
465.79	8.620
466.14	8.233
466.49	8.211
466.84	8.375
467.19	8.497
467.54	7.756
467.89	8.736
468.24	8.698
468.59	8.222
468.94	7.401
469.29	8.338
469.64	7.565
469.99	7.075
470.34	7.797
470.68	7.792
471.03	8.251
471.38	6.606
471.73	7.217
472.08	7.551
472.43	7.947
472.78	7.746
473.13	6.637
473.48	7.613
473.83	8.358
474.17	7.503
474.52	7.877
474.87	7.586
475.22	7.775
475.57	8.152
475.92	7.516
476.27	7.774
476.61	8.048
476.96	7.977
477.31	7.624
477.66	8.447
478.01	7.626
478.36	7.677
478.70	7.438
479.05	8.282
479.40	7.502
479.75	8.309
480.10	7.769
480.45	7.748
480.79	7.891
481.14	7.169
481.49	7.269
481.84	8.268
482.19	8.086
482.53	7.739
482.88	8.285
483.23	7.426
483.58	7.205
483.92	7.092
484.27	7.282
484.62	8.045
484.97	8.009
485.31	7.673
485.66	7.453
486.01	7.904
486.36	8.403
486.70	8.751
487.05	8.716
487.40	8.405
487.75	8.448
488.09	7.636
488.44	7.953
488.79	7.791
489.13	7.676
489.48	6.524
489.83	7.042
490.17	7.533
490.52	7.430
490.87	7.022
491.22	7.279
491.56	6.826
491.91	7.109
492.26	6.534
492.60	6.865
492.95	7.108
493.30	6.141
493.64	7.008
493.99	6.798
494.34	6.185
494.68	6.338
495.03	6.696
495.37	7.057
495.72	7.029
496.07	6.792
496.41	7.036
496.76	6.756
497.11	7.431
497.45	6.560
497.80	7.108
498.14	6.440
498.49	6.342
498.84	6.536
499.18	6.343
499.53	6.592
499.87	5.934
500.22	6.411
500.56	6.793
500.91	6.911
501.26	6.955
501.60	6.407
501.95	6.470
502.29	6.845
502.64	6.734
502.98	6.428
503.33	5.875
503.67	5.800
504.02	6.699
504.36	6.211
504.71	6.523
505.06	6.412
505.40	5.667
505.75	5.738
506.09	6.308
506.44	6.314
506.78	6.101
507.13	6.823
507.47	6.348
507.82	6.061
508.16	5.880
508.51	5.485
508.85	5.952
509.19	6.016
509.54	6.004
509.88	5.391
510.23	6.217
510.57	6.428
510.92	5.709
511.26	5.916
511.61	5.456
511.95	6.589
512.30	6.352
512.64	5.947
512.98	5.853
513.33	5.796
513.67	6.017
514.02	5.774
514.36	5.780
514.70	5.625
515.05	5.162
515.39	6.299
515.74	6.151
516.08	5.335
516.42	5.965
516.77	5.783
517.11	5.209
517.46	5.992
517.80	6.093
518.14	6.257
518.49	5.531
518.83	5.748
519.17	4.900
519.52	6.237
519.86	5.808
520.20	5.538
520.55	5.367
520.89	5.011
521.23	5.416
521.58	5.763
521.92	5.269
522.26	4.754
522.61	4.630
522.95	4.960
523.29	4.828
523.64	5.157
523.98	5.590
524.32	5.903
524.66	5.464
525.01	5.153
525.35	4.940
525.69	5.336
526.04	4.478
526.38	5.172
526.72	5.017
527.06	4.985
527.41	6.006
527.75	5.344
528.09	5.431
528.43	4.677
528.78	5.607
529.12	4.931
529.46	4.609
529.80	5.378
530.15	5.217
530.49	5.101
530.83	4.959
531.17	5.078
531.51	5.114
531.86	5.228
532.20	4.878
532.54	4.847
532.88	4.667
533.22	5.893
533.57	5.366
533.91	6.117
534.25	4.466
534.59	5.172
534.93	5.037
535.27	4.620
535.62	5.344
535.96	4.823
536.30	4.465
536.64	5.405
536.98	5.228
537.32	5.000
537.66	4.928
538.01	5.438
538.35	4.263
538.69	4.567
539.03	5.825
539.37	4.829
539.71	4.865
540.05	5.276
540.39	4.340
540.73	3.886
541.07	4.476
541.42	4.666
541.76	4.686
542.10	5.006
542.44	4.202
542.78	4.927
543.12	5.006
543.46	4.701
543.80	4.257
544.14	4.668
544.48	5.201
544.82	5.266
545.16	4.413
545.50	4.434
545.84	4.225
546.18	5.000
546.52	4.076
546.86	4.403
547.20	4.198
547.54	3.995
547.88	4.039
548.22	4.386
548.56	4.506
548.90	3.701
549.24	5.350
549.58	4.164
549.92	3.954
550.26	4.466
550.60	5.041
550.94	3.816
551.28	3.630
551.62	4.987
551.96	4.207
552.30	5.545
552.64	5.165
552.98	4.242
553.32	4.695
553.66	4.437
554.00	4.414
554.34	4.633
554.68	3.680
555.02	4.271
555.36	4.668
555.69	3.395
556.03	4.035
556.37	4.255
556.71	3.995
557.05	4.537
557.39	3.782
557.73	4.161
558.07	3.377
558.41	4.784
558.75	4.192
559.08	3.619
559.42	4.115
559.76	3.664
560.10	3.349
560.44	3.364
560.78	4.188
561.12	3.879
561.45	4.136
561.79	4.090
562.13	4.559
562.47	4.192
562.81	3.861
563.15	4.672
563.48	4.164
563.82	4.172
564.16	3.210
564.50	3.754
564.84	3.422
565.17	3.529
565.51	3.395
565.85	4.335
566.19	4.032
566.52	3.686
566.86	3.792
567.20	3.752
567.54	4.195
567.88	4.434
568.21	4.792
568.55	4.365
568.89	4.675
569.23	5.323
569.56	4.377
569.90	5.061
570.24	5.126
570.57	4.426
570.91	4.930
571.25	4.889
571.59	5.372
571.92	5.197
572.26	5.003
572.60	5.378
572.93	5.205
573.27	5.339
573.61	5.585
573.95	5.293
574.28	5.443
574.62	5.161
574.96	5.117
575.29	5.265
575.63	5.151
575.97	5.269
576.30	5.033
576.64	5.130
576.98	4.943
577.31	5.059
577.65	5.468
577.98	5.290
578.32	5.332
578.66	5.315
578.99	5.263
579.33	5.447
579.67	5.054
580.00	5.350
580.34	5.432
580.67	4.810
581.01	5.128
581.35	5.552
581.68	5.413
582.02	5.733
582.35	5.294
582.69	5.337
583.02	5.307
583.36	5.669
583.70	5.090
584.03	5.136
584.37	5.233
584.70	4.866
585.04	4.906
585.37	5.038
585.71	5.221
586.04	5.064
586.38	4.921
586.72	4.838
587.05	4.861
587.39	5.061
587.72	4.976
588.06	5.102
588.39	5.004
588.73	5.026
589.06	4.797
589.40	4.733
589.73	5.077
590.07	4.907
590.40	5.105
590.73	4.772
591.07	4.877
591.40	4.199
591.74	4.491
592.07	4.507
592.41	4.101
592.74	4.899
593.08	5.000
593.41	5.133
593.75	5.057
594.08	4.665
594.41	4.423
594.75	4.982
595.08	4.206
595.42	4.643
595.75	4.908
596.09	4.676
596.42	5.088
596.75	4.863
597.09	4.444
597.42	4.132
597.75	4.782
598.09	4.960
598.42	4.745
598.76	4.394
599.09	4.806
599.42	4.425
599.76	4.292
600.09	4.371
600.42	4.571
600.76	4.888
601.09	4.613
601.42	4.154
601.76	4.517
602.09	4.182
602.42	4.180
602.76	4.170
603.09	4.369
603.42	4.371
603.76	4.158
604.09	5.358
604.42	4.404
604.76	4.110
605.09	4.348
605.42	4.306
605.75	4.731
606.09	4.330
606.42	3.867
606.75	4.648
607.09	4.263
607.42	4.701
607.75	4.689
608.08	4.578
608.42	4.152
608.75	4.229
609.08	4.075
609.41	4.499
609.75	4.152
610.08	3.914
610.41	4.291
610.74	4.328
611.07	3.996
611.41	4.978
611.74	4.111
612.07	4.301
612.40	4.230
612.73	3.472
613.07	4.499
613.40	4.235
613.73	3.515
614.06	4.122
614.39	3.984
614.72	3.445
615.06	3.657
615.39	3.867
615.72	3.365
616.05	4.420
616.38	4.238
616.71	4.545
617.05	3.514
617.38	4.013
617.71	4.104
618.04	4.101
618.37	3.552
618.70	3.620
619.03	3.226
619.36	3.884
619.69	3.908
620.03	3.515
620.36	3.497
620.69	2.653
621.02	4.003
621.35	2.758
621.68	3.254
622.01	3.986
622.34	2.999
622.67	3.299
623.00	2.024
623.33	3.384
623.66	3.696
623.99	3.160
624.32	4.029
624.65	2.960
624.99	3.576
625.32	3.396
625.65	3.844
625.98	3.254
626.31	3.189
626.64	3.077
626.97	2.251
627.30	2.506
627.63	2.701
627.96	3.754
628.29	2.257
628.62	2.267
628.95	1.753
629.28	2.379
629.61	2.525
629.94	2.510
630.26	1.780
630.59	2.504
630.92	1.645
631.25	3.309
631.58	3.202
631.91	1.874
632.24	2.113
632.57	1.233
632.90	1.304
633.23	2.041
633.56	1.429
633.89	0.310
634.22	2.079
634.55	2.610
634.88	0.541
635.20	1.184
635.53	1.921
635.86	2.492
636.19	3.393
636.52	2.110
636.85	2.145
637.18	2.287
637.51	1.290
637.83	2.215
638.16	2.189
638.49	0.117
638.82	1.691
639.15	0.916
639.48	1.732
639.81	1.501
640.13	1.649
640.46	-0.606
640.79	-0.368
641.12	2.112
641.45	-0.125
641.77	1.926
642.10	0.919
642.43	1.729
642.76	1.491
643.09	0.137
643.41	0.280
643.74	0.000
644.07	0.828
644.40	0.566
644.73	-0.871
645.05	-1.028
645.38	1.007
645.71	0.880
646.04	2.152
646.36	-1.168
646.69	-0.460
647.02	-0.612
647.35	2.443
647.67	-0.966
648.00	-0.159
648.33	0.450
648.66	0.999
648.98	0.816
649.31	1.759
649.64	2.523
649.96	0.796
650.29	-2.086
650.62	-1.839
650.94	0.751
651.27	-1.347
