SpectraSuite Data File
++++++++++++++++++++++++++++++++++++
Date: Thu May 14 16:42:26 PDT 2015
User: schluterlab
Dark Spectrum Present: Yes
Reference Spectrum Present: Yes
Number of Sampled Component Spectra: 1
Spectrometers: USB2E3373
Integration Time (usec): 3000 (USB2E3373)
Spectra Averaged: 3 (USB2E3373)
Boxcar Smoothing: 0 (USB2E3373)
Correct for Electrical Dark: No (USB2E3373)
Strobe/Lamp Enabled: No (USB2E3373)
Correct for Detector Non-linearity: No (USB2E3373)
Correct for Stray Light: No (USB2E3373)
Number of Pixels in Processed Spectrum: 2048
>>>>>Begin Processed Spectral Data<<<<<
178.53	0.000
178.91	-0.000
179.29	-1000.000
179.67	-200.000
180.04	78.571
180.42	60.000
180.80	80.000
181.18	-100.000
181.56	1100.000
181.94	275.000
182.31	-75.000
182.69	33.333
183.07	200.000
183.45	150.000
183.83	116.667
184.20	100.000
184.58	600.000
184.96	-100.000
185.34	-44.444
185.72	0.000
186.09	177.778
186.47	250.000
186.85	240.000
187.23	-100.000
187.61	-500.000
187.98	20.000
188.36	150.000
188.74	-75.000
189.12	0.000
189.49	31.250
189.87	-75.000
190.25	133.333
190.63	200.000
191.00	-11.111
191.38	0.000
191.76	-50.000
192.14	-50.000
192.51	100.000
192.89	116.667
193.27	0.000
193.65	57.143
194.02	-1000.000
194.40	-14.286
194.78	85.714
195.15	0.000
195.53	118.182
195.91	0.000
196.29	200.000
196.66	38.462
197.04	-600.000
197.42	-28.571
197.79	-300.000
198.17	0.000
198.55	-28.571
198.92	0.000
199.30	-112.500
199.68	100.000
200.05	92.857
200.43	-100.000
200.81	85.714
201.18	0.000
201.56	100.000
201.94	0.000
202.31	166.667
202.69	-155.556
203.07	600.000
203.44	55.556
203.82	-75.000
204.19	0.000
204.57	-183.333
204.95	-75.000
205.32	300.000
205.70	-75.000
206.08	-116.667
206.45	83.333
206.83	240.000
207.20	0.000
207.58	-240.000
207.96	-66.667
208.33	50.000
208.71	83.333
209.08	150.000
209.46	0.000
209.84	-50.000
210.21	50.000
210.59	350.000
210.96	300.000
211.34	0.000
211.71	-37.500
212.09	-800.000
212.46	0.000
212.84	600.000
213.22	-60.000
213.59	100.000
213.97	30.000
214.34	100.000
214.72	-100.000
215.09	25.000
215.47	0.000
215.84	28.571
216.22	500.000
216.59	-40.000
216.97	-20.000
217.34	-75.000
217.72	75.000
218.09	75.000
218.47	100.000
218.84	0.000
219.22	-40.000
219.59	35.294
219.97	10.000
220.34	500.000
220.72	-77.778
221.09	84.615
221.47	166.667
221.84	-50.000
222.22	-100.000
222.59	0.000
222.97	150.000
223.34	-40.000
223.72	-200.000
224.09	-25.000
224.46	-75.000
224.84	60.000
225.21	-157.143
225.59	-200.000
225.96	-25.000
226.34	11.538
226.71	33.333
227.08	-250.000
227.46	33.333
227.83	200.000
228.21	52.632
228.58	100.000
228.95	350.000
229.33	108.333
229.70	90.000
230.08	110.526
230.45	50.000
230.82	200.000
231.20	7.143
231.57	8.333
231.95	-54.545
232.32	172.727
232.69	65.000
233.07	-75.000
233.44	5.882
233.81	-20.000
234.19	44.444
234.56	27.273
234.93	20.690
235.31	-10.526
235.68	33.333
236.05	-75.000
236.43	46.154
236.80	36.000
237.17	22.222
237.55	42.424
237.92	10.000
238.29	29.032
238.67	-2.273
239.04	38.889
239.41	4.762
239.79	13.043
240.16	24.074
240.53	2.174
240.91	-11.765
241.28	16.393
241.65	14.925
242.02	18.919
242.40	6.154
242.77	13.333
243.14	7.317
243.51	2.632
243.89	1.282
244.26	16.832
244.63	1.961
245.00	16.822
245.38	6.140
245.75	7.080
246.12	7.937
246.49	3.101
246.87	8.571
247.24	14.570
247.61	10.526
247.98	4.698
248.36	7.407
248.73	1.840
249.10	7.650
249.47	14.925
249.84	13.089
250.22	8.290
250.59	11.667
250.96	10.909
251.33	3.061
251.70	10.684
252.08	8.750
252.45	13.525
252.82	7.025
253.19	5.078
253.56	6.464
253.94	6.923
254.31	12.500
254.68	9.441
255.05	11.401
255.42	9.524
255.79	8.414
256.16	7.285
256.54	4.305
256.91	8.197
257.28	7.869
257.65	6.369
258.02	7.080
258.39	7.977
258.76	11.315
259.14	8.046
259.51	8.934
259.88	5.382
260.25	8.889
260.62	12.329
260.99	9.563
261.36	10.188
261.73	7.162
262.10	6.593
262.47	6.971
262.85	11.111
263.22	7.532
263.59	6.316
263.96	7.928
264.33	10.230
264.70	12.099
265.07	8.592
265.44	10.431
265.81	7.407
266.18	9.751
266.55	7.812
266.92	7.289
267.29	10.284
267.66	9.313
268.03	9.607
268.40	10.021
268.77	8.200
269.14	5.066
269.51	9.649
269.88	8.402
270.25	9.256
270.62	10.549
270.99	8.889
271.36	10.693
271.73	10.413
272.10	11.423
272.47	8.617
272.84	9.839
273.21	9.218
273.58	8.065
273.95	8.077
274.32	7.414
274.69	7.930
275.06	8.425
275.43	8.318
275.80	9.171
276.17	7.037
276.54	7.836
276.91	8.587
277.28	7.233
277.65	8.977
278.02	9.007
278.39	6.884
278.76	5.272
279.13	8.156
279.50	7.216
279.87	12.165
280.23	5.106
280.60	9.153
280.97	8.224
281.34	6.112
281.71	10.491
282.08	10.465
282.45	5.728
282.82	6.279
283.19	6.785
283.56	9.836
283.92	8.108
284.29	9.953
284.66	8.374
285.03	6.571
285.40	10.510
285.77	7.430
286.14	10.229
286.51	7.458
286.87	10.111
287.24	7.831
287.61	7.623
287.98	7.100
288.35	9.467
288.72	7.249
289.08	9.078
289.45	8.432
289.82	6.928
290.19	7.040
290.56	7.606
290.93	8.131
291.29	9.091
291.66	6.887
292.03	6.784
292.40	8.299
292.77	7.143
293.13	7.848
293.50	6.570
293.87	8.054
294.24	8.267
294.60	7.712
294.97	4.832
295.34	8.707
295.71	7.440
296.08	7.494
296.44	7.230
296.81	7.795
297.18	7.347
297.55	6.604
297.91	6.168
298.28	7.464
298.65	8.323
299.02	6.612
299.38	8.009
299.75	7.477
300.12	6.481
300.48	7.028
300.85	8.211
301.22	7.047
301.59	7.306
301.95	8.023
302.32	7.889
302.69	7.996
303.05	7.508
303.42	6.874
303.79	7.708
304.15	7.781
304.52	7.505
304.89	7.330
305.25	7.557
305.62	8.255
305.99	8.351
306.35	8.669
306.72	8.480
307.09	8.122
307.45	8.178
307.82	9.284
308.19	8.073
308.55	9.065
308.92	9.445
309.29	9.387
309.65	8.674
310.02	8.020
310.38	9.744
310.75	9.223
311.12	9.875
311.48	9.189
311.85	9.117
312.22	9.013
312.58	10.235
312.95	10.229
313.31	9.756
313.68	11.630
314.05	11.021
314.41	10.383
314.78	11.262
315.14	11.615
315.51	12.373
315.87	11.881
316.24	13.242
316.61	13.499
316.97	12.489
317.34	12.963
317.70	14.410
318.07	14.021
318.43	14.116
318.80	14.381
319.16	14.592
319.53	14.053
319.89	15.513
320.26	15.569
320.62	14.450
320.99	15.697
321.35	16.174
321.72	17.395
322.08	16.050
322.45	16.531
322.81	17.599
323.18	18.938
323.54	17.586
323.91	18.060
324.27	18.330
324.64	19.395
325.00	19.154
325.37	18.509
325.73	20.579
326.10	20.032
326.46	20.928
326.83	20.256
327.19	21.024
327.56	19.842
327.92	19.906
328.29	21.048
328.65	20.184
329.01	22.250
329.38	23.673
329.74	22.346
330.11	22.945
330.47	22.409
330.84	21.016
331.20	23.167
331.56	22.790
331.93	23.431
332.29	22.966
332.66	23.256
333.02	22.697
333.38	22.735
333.75	22.980
334.11	23.520
334.48	23.515
334.84	24.384
335.20	23.426
335.57	23.862
335.93	23.388
336.29	22.962
336.66	23.129
337.02	24.498
337.38	23.980
337.75	23.719
338.11	24.306
338.47	23.490
338.84	23.012
339.20	23.505
339.56	22.900
339.93	25.123
340.29	24.235
340.65	23.601
341.02	23.863
341.38	25.869
341.74	24.455
342.11	24.859
342.47	24.226
342.83	24.557
343.20	25.020
343.56	25.100
343.92	25.220
344.28	24.922
344.65	25.271
345.01	25.975
345.37	24.417
345.73	24.630
346.10	25.663
346.46	24.684
346.82	24.794
347.19	24.675
347.55	25.721
347.91	25.186
348.27	24.355
348.63	26.047
349.00	25.727
349.36	25.279
349.72	25.446
350.08	26.597
350.45	24.867
350.81	26.320
351.17	26.015
351.53	26.611
351.89	25.285
352.26	25.672
352.62	26.493
352.98	26.870
353.34	26.811
353.70	27.889
354.07	27.645
354.43	27.031
354.79	26.702
355.15	26.784
355.51	27.778
355.87	26.627
356.24	27.681
356.60	27.568
356.96	27.576
357.32	27.286
357.68	27.526
358.04	27.021
358.40	26.343
358.77	26.974
359.13	27.031
359.49	26.840
359.85	28.426
360.21	28.336
360.57	27.925
360.93	28.209
361.29	28.211
361.66	28.747
362.02	29.506
362.38	28.883
362.74	28.911
363.10	29.161
363.46	30.679
363.82	29.688
364.18	29.275
364.54	30.360
364.90	29.431
365.26	30.069
365.62	30.333
365.98	30.225
366.35	30.671
366.71	29.932
367.07	31.597
367.43	31.057
367.79	31.055
368.15	31.706
368.51	31.597
368.87	31.352
369.23	31.800
369.59	31.557
369.95	31.305
370.31	31.263
370.67	31.706
371.03	32.895
371.39	30.893
371.75	31.981
372.11	32.385
372.47	32.972
372.83	32.853
373.19	32.755
373.55	32.520
373.91	32.856
374.27	32.924
374.63	34.235
374.99	33.289
375.35	34.481
375.71	34.000
376.07	34.022
376.42	33.879
376.78	34.307
377.14	33.812
377.50	34.978
377.86	33.990
378.22	34.251
378.58	35.612
378.94	34.448
379.30	34.505
379.66	35.038
380.02	34.680
380.38	36.002
380.74	35.211
381.09	36.527
381.45	35.511
381.81	37.646
382.17	36.639
382.53	36.082
382.89	35.948
383.25	37.515
383.61	36.343
383.97	36.690
384.32	36.663
384.68	37.413
385.04	37.767
385.40	37.949
385.76	37.749
386.12	37.163
386.48	38.941
386.83	37.723
387.19	36.790
387.55	37.676
387.91	38.185
388.27	38.568
388.62	38.144
388.98	37.958
389.34	38.598
389.70	38.582
390.06	38.662
390.42	38.554
390.77	39.133
391.13	38.380
391.49	39.010
391.85	39.576
392.20	39.324
392.56	39.988
392.92	39.477
393.28	38.585
393.64	38.380
393.99	39.338
394.35	39.720
394.71	39.461
395.07	38.024
395.42	39.292
395.78	41.012
396.14	40.107
396.50	39.489
396.85	38.998
397.21	40.769
397.57	38.869
397.92	39.805
398.28	39.163
398.64	39.359
399.00	38.796
399.35	39.895
399.71	40.380
400.07	40.314
400.42	39.639
400.78	39.931
401.14	40.751
401.49	40.591
401.85	40.640
402.21	41.020
402.57	40.552
402.92	40.071
403.28	39.403
403.63	39.916
403.99	40.439
404.35	39.738
404.70	39.490
405.06	40.435
405.42	39.578
405.77	41.494
406.13	40.249
406.49	39.809
406.84	40.277
407.20	39.463
407.55	40.400
407.91	39.472
408.27	38.928
408.62	39.732
408.98	40.743
409.34	39.179
409.69	40.606
410.05	40.270
410.40	39.675
410.76	40.213
411.11	40.444
411.47	39.803
411.83	41.035
412.18	41.145
412.54	39.597
412.89	40.338
413.25	39.503
413.60	40.264
413.96	39.394
414.31	39.603
414.67	40.250
415.03	39.262
415.38	39.975
415.74	39.157
416.09	40.160
416.45	39.073
416.80	38.800
417.16	39.974
417.51	41.034
417.87	39.730
418.22	40.479
418.58	39.653
418.93	39.057
419.29	40.629
419.64	39.436
420.00	39.644
420.35	38.911
420.71	39.173
421.06	39.045
421.42	39.220
421.77	38.826
422.12	38.584
422.48	39.887
422.83	40.635
423.19	39.257
423.54	40.985
423.90	39.812
424.25	39.893
424.61	38.921
424.96	38.935
425.31	40.393
425.67	38.808
426.02	40.564
426.38	39.552
426.73	39.230
427.09	39.043
427.44	39.268
427.79	38.972
428.15	39.555
428.50	39.213
428.85	39.552
429.21	39.947
429.56	38.351
429.92	38.477
430.27	39.133
430.62	39.717
430.98	38.859
431.33	38.759
431.68	38.314
432.04	38.497
432.39	38.565
432.74	39.612
433.10	39.481
433.45	38.350
433.80	39.485
434.16	39.050
434.51	40.134
434.86	39.685
435.22	40.329
435.57	38.974
435.92	39.399
436.28	39.590
436.63	40.306
436.98	39.399
437.34	40.079
437.69	38.910
438.04	39.397
438.39	39.230
438.75	39.679
439.10	40.381
439.45	39.352
439.81	39.435
440.16	38.016
440.51	38.963
440.86	39.300
441.22	39.496
441.57	38.836
441.92	39.719
442.27	39.091
442.63	39.146
442.98	39.488
443.33	39.558
443.68	40.287
444.03	39.934
444.39	39.390
444.74	39.816
445.09	39.280
445.44	39.673
445.79	39.751
446.15	40.339
446.50	40.155
446.85	39.883
447.20	39.749
447.55	39.540
447.91	38.639
448.26	38.108
448.61	39.532
448.96	39.592
449.31	38.600
449.66	38.126
450.02	38.344
450.37	39.212
450.72	38.428
451.07	37.870
451.42	37.955
451.77	38.466
452.12	39.165
452.47	39.097
452.83	40.541
453.18	37.712
453.53	38.771
453.88	38.211
454.23	39.153
454.58	38.944
454.93	38.046
455.28	39.073
455.63	38.090
455.98	38.715
456.34	39.458
456.69	39.330
457.04	38.889
457.39	38.304
457.74	39.206
458.09	38.221
458.44	39.170
458.79	37.751
459.14	37.756
459.49	38.370
459.84	38.195
460.19	38.034
460.54	39.069
460.89	38.062
461.24	37.644
461.59	37.576
461.94	37.422
462.29	37.290
462.64	38.021
462.99	38.606
463.34	37.897
463.69	36.460
464.04	38.299
464.39	36.659
464.74	36.602
465.09	36.851
465.44	37.017
465.79	37.070
466.14	36.946
466.49	36.368
466.84	37.355
467.19	37.225
467.54	36.251
467.89	35.345
468.24	36.454
468.59	35.495
468.94	35.548
469.29	35.873
469.64	35.346
469.99	36.393
470.34	36.572
470.68	36.569
471.03	36.018
471.38	35.383
471.73	35.306
472.08	36.168
472.43	35.822
472.78	36.398
473.13	35.145
473.48	35.589
473.83	35.171
474.17	33.587
474.52	36.200
474.87	34.994
475.22	35.211
475.57	34.060
475.92	35.192
476.27	34.505
476.61	33.385
476.96	34.724
477.31	34.455
477.66	35.257
478.01	34.621
478.36	33.500
478.70	34.039
479.05	33.640
479.40	34.748
479.75	34.486
480.10	33.870
480.45	34.549
480.79	34.014
481.14	33.410
481.49	32.849
481.84	34.378
482.19	33.935
482.53	33.669
482.88	33.141
483.23	32.637
483.58	33.275
483.92	33.466
484.27	32.388
484.62	32.797
484.97	32.582
485.31	32.242
485.66	30.570
486.01	30.563
486.36	31.287
486.70	32.097
487.05	32.924
487.40	32.273
487.75	32.010
488.09	31.699
488.44	31.443
488.79	31.906
489.13	31.463
489.48	31.417
489.83	30.825
490.17	30.539
490.52	31.609
490.87	31.345
491.22	31.542
491.56	30.845
491.91	31.007
492.26	30.679
492.60	30.564
492.95	30.584
493.30	30.255
493.64	31.231
493.99	30.088
494.34	30.096
494.68	30.064
495.03	29.736
495.37	28.984
495.72	29.297
496.07	29.842
496.41	28.829
496.76	30.359
497.11	29.299
497.45	29.348
497.80	29.320
498.14	29.161
498.49	29.733
498.84	29.662
499.18	28.970
499.53	28.700
499.87	29.890
500.22	28.584
500.56	28.970
500.91	29.016
501.26	29.500
501.60	28.458
501.95	28.615
502.29	27.995
502.64	28.640
502.98	28.257
503.33	27.862
503.67	28.173
504.02	27.890
504.36	28.508
504.71	28.204
505.06	27.467
505.40	27.148
505.75	27.641
506.09	28.223
506.44	27.344
506.78	27.706
507.13	27.709
507.47	27.475
507.82	26.799
508.16	26.338
508.51	26.160
508.85	26.878
509.19	27.570
509.54	26.801
509.88	26.809
510.23	27.149
510.57	27.743
510.92	26.996
511.26	25.830
511.61	26.268
511.95	25.817
512.30	26.588
512.64	25.987
512.98	26.063
513.33	26.512
513.67	26.007
514.02	26.520
514.36	26.905
514.70	26.927
515.05	26.694
515.39	26.404
515.74	26.405
516.08	25.990
516.42	26.845
516.77	25.605
517.11	25.322
517.46	26.087
517.80	25.975
518.14	25.898
518.49	25.488
518.83	25.652
519.17	25.471
519.52	25.105
519.86	25.449
520.20	25.506
520.55	25.356
520.89	25.619
521.23	24.511
521.58	25.480
521.92	25.892
522.26	24.513
522.61	24.826
522.95	24.971
523.29	24.655
523.64	24.664
523.98	24.872
524.32	25.444
524.66	24.701
525.01	24.179
525.35	24.239
525.69	24.478
526.04	23.823
526.38	24.080
526.72	24.221
527.06	25.396
527.41	24.315
527.75	25.238
528.09	23.731
528.43	24.393
528.78	23.584
529.12	23.222
529.46	23.946
529.80	23.741
530.15	24.232
530.49	23.962
530.83	23.318
531.17	23.059
531.51	23.526
531.86	23.858
532.20	24.146
532.54	23.579
532.88	24.364
533.22	22.746
533.57	23.139
533.91	23.625
534.25	22.894
534.59	23.621
534.93	23.203
535.27	22.366
535.62	24.048
535.96	23.184
536.30	22.150
536.64	22.823
536.98	23.432
537.32	23.519
537.66	22.645
538.01	22.598
538.35	23.386
538.69	21.995
539.03	22.747
539.37	22.438
539.71	22.462
540.05	22.122
540.39	21.883
540.73	21.797
541.07	23.053
541.42	21.441
541.76	21.886
542.10	22.437
542.44	21.803
542.78	22.141
543.12	22.527
543.46	22.650
543.80	20.683
544.14	21.065
544.48	22.163
544.82	23.100
545.16	21.884
545.50	21.031
545.84	21.555
546.18	22.531
546.52	21.465
546.86	21.635
547.20	22.265
547.54	20.974
547.88	20.916
548.22	21.228
548.56	21.475
548.90	21.313
549.24	21.702
549.58	21.451
549.92	21.173
550.26	22.071
550.60	20.485
550.94	21.539
551.28	20.792
551.62	21.698
551.96	20.518
552.30	22.243
552.64	21.780
552.98	21.148
553.32	20.707
553.66	20.836
554.00	21.311
554.34	20.528
554.68	20.723
555.02	20.565
555.36	21.631
555.69	19.987
556.03	20.555
556.37	19.587
556.71	19.975
557.05	20.511
557.39	20.040
557.73	20.277
558.07	20.331
558.41	20.266
558.75	21.569
559.08	21.016
559.42	19.753
559.76	21.438
560.10	20.831
560.44	19.525
560.78	21.188
561.12	20.320
561.45	19.769
561.79	20.452
562.13	20.394
562.47	20.099
562.81	19.494
563.15	20.455
563.48	20.385
563.82	20.314
564.16	19.685
564.50	19.666
564.84	19.882
565.17	19.647
565.51	18.930
565.85	19.121
566.19	19.700
566.52	19.485
566.86	19.355
567.20	19.141
567.54	19.703
567.88	19.266
568.21	19.664
568.55	19.281
568.89	19.292
569.23	19.603
569.56	19.187
569.90	19.458
570.24	18.887
570.57	18.922
570.91	18.555
571.25	18.918
571.59	18.981
571.92	18.550
572.26	19.375
572.60	19.438
572.93	18.759
573.27	18.741
573.61	18.952
573.95	18.791
574.28	18.243
574.62	18.668
574.96	18.262
575.29	18.110
575.63	18.457
575.97	17.916
576.30	18.406
576.64	18.301
576.98	18.405
577.31	18.638
577.65	18.345
577.98	17.997
578.32	18.055
578.66	18.093
578.99	18.104
579.33	17.919
579.67	17.906
580.00	17.757
580.34	18.412
580.67	17.741
581.01	17.741
581.35	18.157
581.68	18.012
582.02	18.062
582.35	18.382
582.69	18.064
583.02	18.184
583.36	18.074
583.70	18.087
584.03	17.855
584.37	18.242
584.70	17.506
585.04	17.508
585.37	17.808
585.71	17.476
586.04	17.812
586.38	17.177
586.72	16.997
587.05	17.242
587.39	17.402
587.72	17.368
588.06	18.158
588.39	17.924
588.73	17.646
589.06	17.748
589.40	17.578
589.73	17.866
590.07	17.739
590.40	17.613
590.73	18.204
591.07	18.057
591.40	17.379
591.74	17.766
592.07	17.946
592.41	18.021
592.74	17.465
593.08	17.771
593.41	18.081
593.75	17.931
594.08	17.843
594.41	17.404
594.75	17.469
595.08	17.127
595.42	17.565
595.75	17.307
596.09	17.045
596.42	17.556
596.75	18.178
597.09	17.495
597.42	17.521
597.75	17.405
598.09	17.143
598.42	17.089
598.76	17.157
599.09	16.839
599.42	16.661
599.76	17.035
600.09	17.184
600.42	17.684
600.76	16.942
601.09	17.159
601.42	16.752
601.76	17.069
602.09	17.012
602.42	16.576
602.76	16.937
603.09	16.667
603.42	16.908
603.76	16.667
604.09	17.424
604.42	17.211
604.76	16.514
605.09	16.873
605.42	17.065
605.75	16.346
606.09	16.051
606.42	16.417
606.75	16.792
607.09	16.129
607.42	16.493
607.75	16.569
608.08	16.456
608.42	16.566
608.75	16.874
609.08	16.341
609.41	16.630
609.75	16.027
610.08	16.667
610.41	16.568
610.74	16.597
611.07	16.252
611.41	16.547
611.74	16.813
612.07	16.410
612.40	16.778
612.73	16.968
613.07	16.528
613.40	16.795
613.73	16.514
614.06	17.615
614.39	16.764
614.72	16.206
615.06	15.833
615.39	15.998
615.72	16.351
616.05	16.707
616.38	16.902
616.71	16.614
617.05	15.761
617.38	17.335
617.71	16.415
618.04	16.514
618.37	16.230
618.70	15.611
619.03	16.368
619.36	16.215
619.69	16.079
620.03	16.384
620.36	15.767
620.69	16.656
621.02	16.339
621.35	16.401
621.68	16.558
622.01	15.801
622.34	15.132
622.67	16.220
623.00	15.115
623.33	16.390
623.66	17.380
623.99	16.392
624.32	17.674
624.65	15.573
624.99	15.670
625.32	16.786
625.65	16.183
625.98	15.593
626.31	15.450
626.64	15.751
626.97	17.029
627.30	15.262
627.63	15.304
627.96	15.691
628.29	15.720
628.62	16.037
628.95	16.126
629.28	15.973
629.61	15.909
629.94	15.565
630.26	16.356
630.59	15.630
630.92	15.411
631.25	16.369
631.58	15.254
631.91	15.464
632.24	15.754
632.57	15.939
632.90	14.744
633.23	15.918
633.56	16.327
633.89	13.946
634.22	16.632
634.55	16.701
634.88	13.961
635.20	16.362
635.53	15.932
635.86	15.601
636.19	17.391
636.52	15.928
636.85	15.730
637.18	16.008
637.51	15.054
637.83	16.944
