SpectraSuite Data File
++++++++++++++++++++++++++++++++++++
Date: Thu May 14 16:39:24 PDT 2015
User: schluterlab
Dark Spectrum Present: Yes
Reference Spectrum Present: Yes
Number of Sampled Component Spectra: 1
Spectrometers: USB2E3373
Integration Time (usec): 3000 (USB2E3373)
Spectra Averaged: 3 (USB2E3373)
Boxcar Smoothing: 0 (USB2E3373)
Correct for Electrical Dark: No (USB2E3373)
Strobe/Lamp Enabled: No (USB2E3373)
Correct for Detector Non-linearity: No (USB2E3373)
Correct for Stray Light: No (USB2E3373)
Number of Pixels in Processed Spectrum: 2048
>>>>>Begin Processed Spectral Data<<<<<
178.53	0.000
178.91	-0.000
179.29	-1000.000
179.67	-900.000
180.04	142.857
180.42	70.000
180.80	-60.000
181.18	300.000
181.56	700.000
181.94	100.000
182.31	-200.000
182.69	100.000
183.07	400.000
183.45	100.000
183.83	83.333
184.20	133.333
184.58	300.000
184.96	-150.000
185.34	22.222
185.72	-120.000
186.09	177.778
186.47	600.000
186.85	100.000
187.23	-77.778
187.61	-1000.000
187.98	-100.000
188.36	150.000
188.74	-250.000
189.12	266.667
189.49	43.750
189.87	-75.000
190.25	44.444
190.63	80.000
191.00	-155.556
191.38	0.000
191.76	-150.000
192.14	0.000
192.51	-100.000
192.89	33.333
193.27	0.000
193.65	-14.286
194.02	-1600.000
194.40	-14.286
194.78	157.143
195.15	0.000
195.53	-18.182
195.91	0.000
196.29	200.000
196.66	-30.769
197.04	-1500.000
197.42	-85.714
197.79	-550.000
198.17	-50.000
198.55	0.000
198.92	44.444
199.30	-162.500
199.68	27.273
200.05	28.571
200.43	-400.000
200.81	114.286
201.18	0.000
201.56	122.222
201.94	0.000
202.31	133.333
202.69	-66.667
203.07	-900.000
203.44	0.000
203.82	175.000
204.19	-25.000
204.57	-33.333
204.95	37.500
205.32	-100.000
205.70	25.000
206.08	16.667
206.45	-66.667
206.83	180.000
207.20	-66.667
207.58	-200.000
207.96	-33.333
208.33	16.667
208.71	50.000
209.08	66.667
209.46	0.000
209.84	200.000
210.21	-0.000
210.59	600.000
210.96	400.000
211.34	125.000
211.71	-50.000
212.09	-200.000
212.46	0.000
212.84	350.000
213.22	-140.000
213.59	-75.000
213.97	-30.000
214.34	200.000
214.72	-150.000
215.09	25.000
215.47	0.000
215.84	28.571
216.22	300.000
216.59	-140.000
216.97	20.000
217.34	25.000
217.72	-25.000
218.09	-150.000
218.47	-100.000
218.84	0.000
219.22	-0.000
219.59	29.412
219.97	55.000
220.34	100.000
220.72	11.111
221.09	46.154
221.47	66.667
221.84	-30.000
222.22	-42.857
222.59	0.000
222.97	12.500
223.34	-200.000
223.72	-700.000
224.09	25.000
224.46	-100.000
224.84	0.000
225.21	-42.857
225.59	-200.000
225.96	-150.000
226.34	19.231
226.71	66.667
227.08	0.000
227.46	13.333
227.83	-175.000
228.21	0.000
228.58	75.000
228.95	50.000
229.33	-58.333
229.70	70.000
230.08	68.421
230.45	90.000
230.82	-33.333
231.20	-7.143
231.57	25.000
231.95	-36.364
232.32	118.182
232.69	-15.000
233.07	-25.000
233.44	-17.647
233.81	-100.000
234.19	38.889
234.56	27.273
234.93	41.379
235.31	73.684
235.68	16.667
236.05	15.000
236.43	38.462
236.80	92.000
237.17	25.926
237.55	39.394
237.92	50.000
238.29	35.484
238.67	25.000
239.04	30.556
239.41	16.667
239.79	34.783
240.16	29.630
240.53	15.217
240.91	29.412
241.28	22.951
241.65	49.254
242.02	39.189
242.40	49.231
242.77	32.000
243.14	26.829
243.51	19.737
243.89	17.949
244.26	38.614
244.63	48.039
245.00	36.449
245.38	33.333
245.75	28.319
246.12	38.095
246.49	30.233
246.87	40.000
247.24	39.735
247.61	36.184
247.98	30.872
248.36	29.630
248.73	37.423
249.10	32.240
249.47	37.811
249.84	43.979
250.22	33.679
250.59	40.556
250.96	40.455
251.33	32.143
251.70	32.906
252.08	34.167
252.45	31.967
252.82	33.471
253.19	31.641
253.56	37.643
253.94	30.769
254.31	37.121
254.68	39.161
255.05	35.179
255.42	30.272
255.79	33.010
256.16	35.762
256.54	35.099
256.91	36.066
257.28	30.820
257.65	35.350
258.02	35.398
258.39	33.048
258.76	40.061
259.14	37.644
259.51	34.870
259.88	34.278
260.25	36.944
260.62	35.616
260.99	39.617
261.36	37.265
261.73	35.013
262.10	39.011
262.47	38.070
262.85	37.879
263.22	32.987
263.59	33.947
263.96	32.737
264.33	38.107
264.70	34.568
265.07	36.993
265.44	38.095
265.81	37.269
266.18	37.188
266.55	38.616
266.92	40.091
267.29	40.044
267.66	38.581
268.03	37.555
268.40	35.282
268.77	35.991
269.14	34.802
269.51	35.307
269.88	36.475
270.25	36.620
270.62	37.553
270.99	38.384
271.36	36.832
271.73	38.114
272.10	37.475
272.47	34.870
272.84	34.337
273.21	35.271
273.58	34.879
273.95	35.385
274.32	35.932
274.69	34.236
275.06	35.897
275.43	33.826
275.80	35.626
276.17	31.296
276.54	36.381
276.91	33.274
277.28	36.166
277.65	34.650
278.02	34.007
278.39	33.696
278.76	35.149
279.13	32.801
279.50	35.052
279.87	35.957
280.23	34.155
280.60	35.593
280.97	33.717
281.34	35.484
281.71	34.518
282.08	32.890
282.45	32.897
282.82	31.083
283.19	34.087
283.56	32.623
283.92	33.634
284.29	34.123
284.66	33.169
285.03	31.571
285.40	33.539
285.77	32.817
286.14	34.809
286.51	35.160
286.87	31.912
287.24	32.380
287.61	33.931
287.98	33.082
288.35	34.320
288.72	32.249
289.08	33.089
289.45	30.030
289.82	30.422
290.19	31.034
290.56	32.254
290.93	33.381
291.29	32.231
291.66	29.201
292.03	29.308
292.40	31.020
292.77	29.111
293.13	28.552
293.50	27.858
293.87	28.322
294.24	31.200
294.60	28.066
294.97	27.919
295.34	31.242
295.71	28.247
296.08	27.649
296.44	26.593
296.81	28.258
297.18	28.394
297.55	26.651
297.91	26.928
298.28	25.829
298.65	27.705
299.02	26.919
299.38	25.858
299.75	27.453
300.12	26.389
300.48	26.498
300.85	27.447
301.22	26.510
301.59	26.598
301.95	25.424
302.32	26.667
302.69	25.192
303.05	27.530
303.42	27.273
303.79	25.104
304.15	25.973
304.52	24.841
304.89	25.759
305.25	24.948
305.62	25.705
305.99	25.155
306.35	25.302
306.72	26.784
307.09	25.178
307.45	25.155
307.82	26.438
308.19	25.227
308.55	26.712
308.92	25.901
309.29	26.724
309.65	25.439
310.02	24.851
310.38	24.606
310.75	26.019
311.12	25.216
311.48	25.806
311.85	26.496
312.22	25.522
312.58	26.854
312.95	26.577
313.31	26.829
313.68	26.190
314.05	26.016
314.41	27.231
314.78	26.975
315.14	27.677
315.51	27.886
315.87	27.003
316.24	29.132
316.61	28.064
316.97	28.416
317.34	28.395
317.70	30.393
318.07	30.600
318.43	28.997
318.80	29.682
319.16	28.927
319.53	28.620
319.89	30.675
320.26	30.071
320.62	30.408
320.99	30.379
321.35	31.238
321.72	30.791
322.08	30.929
322.45	32.249
322.81	33.845
323.18	33.274
323.54	33.707
323.91	34.253
324.27	33.907
324.64	33.417
325.00	34.080
325.37	34.562
325.73	33.967
326.10	37.632
326.46	36.482
326.83	37.230
327.19	36.693
327.56	38.182
327.92	37.530
328.29	38.306
328.65	38.023
329.01	39.255
329.38	40.270
329.74	39.298
330.11	39.983
330.47	39.006
330.84	38.846
331.20	40.750
331.56	40.035
331.93	40.586
332.29	41.271
332.66	40.864
333.02	40.201
333.38	42.030
333.75	40.909
334.11	40.117
334.48	38.944
334.84	41.461
335.20	41.310
335.57	40.472
335.93	42.562
336.29	41.015
336.66	40.706
337.02	42.391
337.38	40.986
337.75	42.066
338.11	41.716
338.47	40.447
338.84	42.470
339.20	41.449
339.56	41.516
339.93	40.805
340.29	41.787
340.65	41.606
341.02	41.341
341.38	41.229
341.74	41.404
342.11	42.397
342.47	40.747
342.83	42.593
343.20	42.273
343.56	41.700
343.92	42.754
344.28	41.641
344.65	42.093
345.01	41.498
345.37	42.302
345.73	42.245
346.10	42.512
346.46	42.405
346.82	42.397
347.19	42.399
347.55	43.171
347.91	42.199
348.27	42.033
348.63	42.650
349.00	42.282
349.36	41.933
349.72	42.560
350.08	42.719
350.45	41.597
350.81	42.760
351.17	43.083
351.53	44.124
351.89	42.976
352.26	42.687
352.62	42.836
352.98	43.969
353.34	42.420
353.70	44.222
354.07	43.666
354.43	43.964
354.79	42.932
355.15	43.782
355.51	43.860
355.87	42.109
356.24	43.194
356.60	42.350
356.96	42.105
357.32	42.677
357.68	43.631
358.04	42.740
358.40	43.507
358.77	42.471
359.13	43.353
359.49	42.454
359.85	42.930
360.21	43.400
360.57	42.498
360.93	43.159
361.29	44.772
361.66	43.881
362.02	44.676
362.38	43.921
362.74	44.204
363.10	44.292
363.46	45.083
363.82	44.105
364.18	45.109
364.54	44.260
364.90	45.351
365.26	44.414
365.62	45.000
365.98	43.975
366.35	44.966
366.71	45.918
367.07	44.114
367.43	44.649
367.79	45.521
368.15	44.415
368.51	45.602
368.87	45.460
369.23	45.000
369.59	46.038
369.95	47.059
370.31	47.400
370.67	46.768
371.03	45.568
371.39	45.937
371.75	46.561
372.11	46.680
372.47	45.295
372.83	47.251
373.19	44.696
373.55	46.951
373.91	45.671
374.27	46.313
374.63	45.535
374.99	46.485
375.35	46.494
375.71	45.484
376.07	46.223
376.42	46.411
376.78	47.359
377.14	47.037
377.50	47.818
377.86	47.537
378.22	47.485
378.58	47.681
378.94	47.653
379.30	47.686
379.66	49.148
380.02	48.009
380.38	49.136
380.74	47.662
381.09	46.922
381.45	47.500
381.81	49.824
382.17	48.515
382.53	47.602
382.89	48.646
383.25	47.948
383.61	49.248
383.97	48.351
384.32	49.581
384.68	49.188
385.04	48.930
385.40	49.794
385.76	50.645
386.12	48.893
386.48	49.118
386.83	50.119
387.19	49.652
387.55	48.063
387.91	49.772
388.27	51.155
388.62	48.339
388.98	48.731
389.34	50.265
389.70	50.320
390.06	50.562
390.42	49.639
390.77	50.692
391.13	49.178
391.49	50.302
391.85	50.182
392.20	51.779
392.56	51.447
392.92	50.600
393.28	51.852
393.64	49.832
393.99	50.959
394.35	52.103
394.71	51.497
395.07	51.018
395.42	50.543
395.78	52.468
396.14	51.337
396.50	51.900
396.85	51.580
397.21	50.828
397.57	53.416
397.92	52.405
398.28	51.222
398.64	50.515
399.00	50.419
399.35	50.419
399.71	51.304
400.07	52.162
400.42	52.561
400.78	51.910
401.14	50.655
401.49	52.644
401.85	52.093
402.21	53.187
402.57	52.876
402.92	52.719
403.28	51.112
403.63	52.745
403.99	50.238
404.35	51.848
404.70	52.578
405.06	52.337
405.42	51.874
405.77	53.653
406.13	51.918
406.49	53.153
406.84	52.022
407.20	52.264
407.55	53.180
407.91	54.180
408.27	52.886
408.62	53.869
408.98	51.886
409.34	53.431
409.69	54.141
410.05	54.162
410.40	54.292
410.76	52.888
411.11	53.185
411.47	53.256
411.83	54.556
412.18	54.578
412.54	53.586
412.89	54.773
413.25	53.217
413.60	52.843
413.96	52.914
414.31	52.805
414.67	54.085
415.03	54.462
415.38	53.720
415.74	54.246
416.09	55.213
416.45	53.663
416.80	54.223
417.16	53.512
417.51	53.549
417.87	54.506
418.22	54.491
418.58	54.957
418.93	54.773
419.29	55.795
419.64	54.262
420.00	54.777
420.35	55.138
420.71	56.117
421.06	54.859
421.42	55.677
421.77	54.712
422.12	54.757
422.48	55.556
422.83	55.915
423.19	55.862
423.54	56.029
423.90	54.611
424.25	56.373
424.61	56.487
424.96	56.068
425.31	56.104
425.67	54.697
426.02	56.502
426.38	56.774
426.73	55.357
427.09	58.766
427.44	55.871
427.79	56.661
428.15	56.050
428.50	56.517
428.85	56.372
429.21	56.755
429.56	55.676
429.92	55.479
430.27	55.904
430.62	56.033
430.98	57.403
431.33	56.061
431.68	55.843
432.04	56.882
432.39	58.222
432.74	55.822
433.10	57.166
433.45	58.194
433.80	57.242
434.16	57.696
434.51	57.091
434.86	58.415
435.22	58.555
435.57	58.491
435.92	57.262
436.28	57.907
436.63	58.329
436.98	57.542
437.34	58.343
437.69	58.723
438.04	58.593
438.39	58.300
438.75	58.605
439.10	59.355
439.45	58.524
439.81	57.345
440.16	57.158
440.51	58.974
440.86	57.532
441.22	58.467
441.57	59.067
441.92	57.565
442.27	58.939
442.63	58.818
442.98	58.858
443.33	58.496
443.68	58.325
444.03	60.019
444.39	59.639
444.74	59.469
445.09	59.047
445.44	59.852
445.79	59.914
446.15	59.404
446.50	58.811
446.85	59.339
447.20	58.511
447.55	58.891
447.91	58.691
448.26	59.355
448.61	59.936
448.96	60.837
449.31	59.120
449.66	58.279
450.02	58.966
450.37	59.243
450.72	59.688
451.07	59.510
451.42	59.734
451.77	58.477
452.12	60.102
452.47	59.358
452.83	62.050
453.18	59.953
453.53	59.621
453.88	60.353
454.23	59.661
454.58	59.141
454.93	59.102
455.28	59.542
455.63	59.977
455.98	59.330
456.34	59.953
456.69	59.259
457.04	60.461
457.39	59.479
457.74	60.459
458.09	59.802
458.44	59.860
458.79	57.762
459.14	59.465
459.49	60.555
459.84	59.601
460.19	58.856
460.54	60.931
460.89	60.244
461.24	59.655
461.59	59.768
461.94	57.901
462.29	60.414
462.64	58.600
462.99	59.636
463.34	60.545
463.69	58.558
464.04	59.811
464.39	60.090
464.74	58.780
465.09	59.285
465.44	60.139
465.79	59.228
466.14	58.572
466.49	58.526
466.84	60.496
467.19	59.075
467.54	58.519
467.89	58.448
468.24	58.947
468.59	59.178
468.94	58.275
469.29	59.388
469.64	58.551
469.99	59.401
470.34	59.406
470.68	61.176
471.03	61.690
471.38	60.759
471.73	59.688
472.08	59.772
472.43	58.880
472.78	59.572
473.13	59.671
473.48	58.792
473.83	59.837
474.17	59.086
474.52	60.613
474.87	57.973
475.22	59.268
475.57	57.944
475.92	57.690
476.27	58.999
476.61	58.671
476.96	59.228
477.31	58.465
477.66	60.231
478.01	59.329
478.36	57.527
478.70	58.966
479.05	60.583
479.40	59.181
479.75	59.366
480.10	59.877
480.45	59.070
480.79	57.642
481.14	59.007
481.49	58.928
481.84	59.791
482.19	58.409
482.53	58.679
482.88	59.548
483.23	59.271
483.58	58.515
483.92	57.624
484.27	58.679
484.62	58.333
484.97	58.243
485.31	57.621
485.66	54.523
486.01	53.961
486.36	55.503
486.70	56.776
487.05	58.617
487.40	58.625
487.75	59.364
488.09	59.707
488.44	57.830
488.79	59.393
489.13	59.088
489.48	58.951
489.83	58.229
490.17	57.878
490.52	57.020
490.87	58.841
491.22	59.315
491.56	58.404
491.91	58.613
492.26	58.330
492.60	58.330
492.95	58.491
493.30	57.866
493.64	57.994
493.99	58.684
494.34	57.578
494.68	57.816
495.03	58.370
495.37	58.722
495.72	58.549
496.07	58.370
496.41	57.829
496.76	58.924
497.11	58.301
497.45	57.877
497.80	57.441
498.14	57.732
498.49	58.915
498.84	58.592
499.18	57.805
499.53	57.309
499.87	57.582
500.22	57.257
500.56	58.210
500.91	57.941
501.26	58.318
501.60	57.313
501.95	56.665
502.29	56.999
502.64	57.980
502.98	56.342
503.33	57.451
503.67	57.130
504.02	57.312
504.36	57.909
504.71	57.327
505.06	57.253
505.40	57.678
505.75	57.468
506.09	57.228
506.44	57.985
506.78	57.936
507.13	57.031
507.47	58.219
507.82	58.144
508.16	58.365
508.51	57.337
508.85	58.196
509.19	58.550
509.54	58.309
509.88	57.649
510.23	59.592
510.57	58.627
510.92	57.571
511.26	57.912
511.61	57.605
511.95	57.589
512.30	58.690
512.64	58.021
512.98	58.929
513.33	59.224
513.67	58.593
514.02	58.968
514.36	59.386
514.70	58.958
515.05	59.020
515.39	59.108
515.74	58.749
516.08	58.848
516.42	59.131
516.77	58.780
517.11	58.226
517.46	59.491
517.80	59.861
518.14	60.609
518.49	59.328
518.83	58.542
519.17	58.051
519.52	59.277
519.86	58.501
520.20	59.425
520.55	59.036
520.89	59.403
521.23	58.124
521.58	60.282
521.92	58.810
522.26	59.393
522.61	60.127
522.95	59.631
523.29	60.230
523.64	59.641
523.98	60.582
524.32	61.375
524.66	60.956
525.01	59.230
525.35	59.678
525.69	59.339
526.04	59.701
526.38	61.092
526.72	59.862
527.06	60.880
527.41	59.534
527.75	60.926
528.09	60.331
528.43	59.325
528.78	60.058
529.12	59.690
529.46	59.696
529.80	59.840
530.15	60.580
530.49	61.447
530.83	60.744
531.17	60.932
531.51	61.252
531.86	61.538
532.20	61.402
532.54	59.785
532.88	60.000
533.22	59.399
533.57	58.973
533.91	59.708
534.25	58.508
534.59	60.402
534.93	60.102
535.27	59.324
535.62	59.807
535.96	61.360
536.30	60.693
536.64	62.162
536.98	61.562
537.32	60.802
537.66	61.260
538.01	59.517
538.35	60.962
538.69	59.916
539.03	60.883
539.37	60.071
539.71	61.441
540.05	61.331
540.39	61.430
540.73	60.109
541.07	60.515
541.42	59.362
541.76	60.735
542.10	59.590
542.44	59.988
542.78	61.192
543.12	58.939
543.46	60.562
543.80	59.113
544.14	60.742
544.48	59.811
544.82	61.580
545.16	59.988
545.50	60.455
545.84	59.767
546.18	60.556
546.52	60.955
546.86	62.138
547.20	61.641
547.54	59.800
547.88	60.579
548.22	59.064
548.56	59.274
548.90	60.418
549.24	60.973
549.58	61.640
549.92	59.885
550.26	61.165
550.60	60.051
550.94	62.419
551.28	60.198
551.62	60.714
551.96	59.159
552.30	60.676
552.64	60.236
552.98	60.823
553.32	60.386
553.66	61.736
554.00	60.656
554.34	61.776
554.68	60.426
555.02	60.907
555.36	62.525
555.69	60.154
556.03	60.593
556.37	60.263
556.71	60.938
557.05	60.256
557.39	60.650
557.73	60.172
558.07	61.126
558.41	60.332
558.75	60.514
559.08	62.630
559.42	59.396
559.76	60.448
560.10	60.683
560.44	60.488
560.78	60.438
561.12	59.113
561.45	60.097
561.79	60.623
562.13	60.320
562.47	59.248
562.81	60.570
563.15	59.470
563.48	60.907
563.82	59.371
564.16	60.145
564.50	60.012
564.84	58.525
565.17	59.882
565.51	59.148
565.85	60.154
566.19	58.871
566.52	58.982
566.86	60.215
567.20	57.912
567.54	58.577
567.88	59.225
568.21	58.943
568.55	58.993
568.89	58.920
569.23	58.006
569.56	57.014
569.90	58.019
570.24	57.302
570.57	56.735
570.91	55.542
571.25	55.568
571.59	56.248
571.92	55.917
572.26	55.109
572.60	55.829
572.93	56.165
573.27	56.083
573.61	55.532
573.95	55.450
574.28	54.333
574.62	55.161
574.96	53.551
575.29	53.977
575.63	54.054
575.97	55.234
576.30	54.503
576.64	54.784
576.98	54.556
577.31	54.512
577.65	54.787
577.98	54.085
578.32	53.337
578.66	53.619
578.99	54.331
579.33	55.625
579.67	54.329
580.00	54.417
580.34	54.668
580.67	54.391
581.01	54.738
581.35	53.770
581.68	53.381
582.02	53.355
582.35	53.979
582.69	54.430
583.02	55.149
583.36	54.652
583.70	55.715
584.03	55.028
584.37	55.591
584.70	54.621
585.04	55.057
585.37	53.955
585.71	53.355
586.04	53.831
586.38	54.666
586.72	53.497
587.05	54.797
587.39	54.849
587.72	54.976
588.06	54.255
588.39	55.290
588.73	54.339
589.06	55.361
589.40	55.839
589.73	54.756
590.07	55.405
590.40	54.868
590.73	55.143
591.07	55.994
591.40	55.754
591.74	54.889
592.07	55.177
592.41	55.481
592.74	54.455
593.08	53.599
593.41	54.127
593.75	53.563
594.08	54.529
594.41	54.936
594.75	53.969
595.08	54.576
595.42	55.357
595.75	53.826
596.09	56.083
596.42	54.962
596.75	56.619
597.09	55.758
597.42	54.390
597.75	54.096
598.09	54.841
598.42	54.162
598.76	54.413
599.09	52.937
599.42	52.665
599.76	52.856
600.09	54.555
600.42	53.820
600.76	53.534
601.09	53.701
601.42	53.347
601.76	53.621
602.09	53.967
602.42	53.726
602.76	53.838
603.09	54.112
603.42	53.829
603.76	53.700
604.09	54.258
604.42	53.725
604.76	53.577
605.09	53.889
605.42	54.386
605.75	53.385
606.09	53.378
606.42	52.280
606.75	52.211
607.09	52.343
607.42	52.871
607.75	53.419
608.08	53.946
608.42	53.446
608.75	53.856
609.08	53.778
609.41	54.301
609.75	54.152
610.08	54.485
610.41	53.271
610.74	54.118
611.07	53.774
611.41	53.408
611.74	54.688
612.07	53.950
612.40	53.755
612.73	54.719
613.07	53.692
613.40	53.994
613.73	53.298
614.06	53.680
614.39	52.964
614.72	52.547
615.06	53.032
615.39	52.779
615.72	52.607
616.05	52.938
616.38	54.238
616.71	54.389
617.05	55.165
617.38	53.184
617.71	54.320
618.04	53.859
618.37	55.191
618.70	54.977
619.03	54.182
619.36	55.117
619.69	53.940
620.03	53.421
620.36	53.497
620.69	54.781
621.02	54.265
621.35	56.531
621.68	57.050
622.01	54.875
622.34	53.766
622.67	54.364
623.00	53.374
623.33	54.015
623.66	53.891
623.99	54.510
624.32	55.945
624.65	52.252
624.99	54.486
625.32	53.886
625.65	54.754
625.98	53.288
626.31	55.918
626.64	55.092
626.97	56.039
627.30	55.125
627.63	55.589
627.96	56.381
628.29	55.097
628.62	55.584
628.95	56.004
629.28	54.715
629.61	56.397
629.94	54.142
630.26	55.593
630.59	53.195
630.92	56.017
631.25	54.741
631.58	57.627
631.91	54.639
632.24	54.947
632.57	54.839
632.90	56.770
633.23	56.735
633.56	57.347
633.89	55.269
634.22	56.549
