SpectraSuite Data File
++++++++++++++++++++++++++++++++++++
Date: Thu May 14 16:39:10 PDT 2015
User: schluterlab
Dark Spectrum Present: Yes
Reference Spectrum Present: Yes
Number of Sampled Component Spectra: 1
Spectrometers: USB2E3373
Integration Time (usec): 3000 (USB2E3373)
Spectra Averaged: 3 (USB2E3373)
Boxcar Smoothing: 0 (USB2E3373)
Correct for Electrical Dark: No (USB2E3373)
Strobe/Lamp Enabled: No (USB2E3373)
Correct for Detector Non-linearity: No (USB2E3373)
Correct for Stray Light: No (USB2E3373)
Number of Pixels in Processed Spectrum: 2048
>>>>>Begin Processed Spectral Data<<<<<
178.53	0.000
178.91	-0.000
179.29	-700.000
179.67	-1500.000
180.04	85.714
180.42	-20.000
180.80	180.000
181.18	-200.000
181.56	200.000
181.94	50.000
182.31	0.000
182.69	366.667
183.07	-400.000
183.45	100.000
183.83	-100.000
184.20	-133.333
184.58	400.000
184.96	-225.000
185.34	44.444
185.72	-220.000
186.09	144.444
186.47	350.000
186.85	240.000
187.23	-122.222
187.61	-1500.000
187.98	120.000
188.36	125.000
188.74	25.000
189.12	100.000
189.49	6.250
189.87	-137.500
190.25	-55.556
190.63	140.000
191.00	-55.556
191.38	0.000
191.76	-250.000
192.14	-150.000
192.51	200.000
192.89	0.000
193.27	0.000
193.65	0.000
194.02	-800.000
194.40	14.286
194.78	14.286
195.15	0.000
195.53	18.182
195.91	0.000
196.29	100.000
196.66	-53.846
197.04	-300.000
197.42	-100.000
197.79	0.000
198.17	-162.500
198.55	-100.000
198.92	-33.333
199.30	-62.500
199.68	9.091
200.05	0.000
200.43	-200.000
200.81	71.429
201.18	0.000
201.56	144.444
201.94	0.000
202.31	333.333
202.69	-100.000
203.07	400.000
203.44	22.222
203.82	-200.000
204.19	0.000
204.57	83.333
204.95	25.000
205.32	-900.000
205.70	300.000
206.08	-16.667
206.45	-66.667
206.83	200.000
207.20	83.333
207.58	-280.000
207.96	-216.667
208.33	83.333
208.71	-8.333
209.08	166.667
209.46	0.000
209.84	266.667
210.21	450.000
210.59	100.000
210.96	633.333
211.34	-75.000
211.71	-87.500
212.09	-2100.000
212.46	0.000
212.84	600.000
213.22	-200.000
213.59	-250.000
213.97	0.000
214.34	0.000
214.72	66.667
215.09	-175.000
215.47	0.000
215.84	100.000
216.22	200.000
216.59	40.000
216.97	-360.000
217.34	-100.000
217.72	12.500
218.09	-175.000
218.47	-75.000
218.84	0.000
219.22	-120.000
219.59	-47.059
219.97	-5.000
220.34	400.000
220.72	0.000
221.09	38.462
221.47	-66.667
221.84	0.000
222.22	-57.143
222.59	0.000
222.97	-25.000
223.34	-160.000
223.72	-600.000
224.09	-200.000
224.46	-225.000
224.84	100.000
225.21	-85.714
225.59	-25.000
225.96	-300.000
226.34	26.923
226.71	300.000
227.08	-250.000
227.46	-20.000
227.83	-100.000
228.21	26.316
228.58	100.000
228.95	350.000
229.33	41.667
229.70	0.000
230.08	47.368
230.45	90.000
230.82	-300.000
231.20	7.143
231.57	16.667
231.95	-45.455
232.32	-27.273
232.69	20.000
233.07	75.000
233.44	-11.765
233.81	-10.000
234.19	-11.111
234.56	-4.545
234.93	31.034
235.31	21.053
235.68	-27.778
236.05	-20.000
236.43	42.308
236.80	52.000
237.17	-18.519
237.55	24.242
237.92	-50.000
238.29	19.355
238.67	13.636
239.04	2.778
239.41	4.762
239.79	8.696
240.16	11.111
240.53	13.043
240.91	7.843
241.28	8.197
241.65	22.388
242.02	33.784
242.40	3.077
242.77	18.667
243.14	9.756
243.51	14.474
243.89	14.103
244.26	25.743
244.63	13.725
245.00	11.215
245.38	10.526
245.75	9.735
246.12	9.524
246.49	16.279
246.87	22.143
247.24	17.881
247.61	21.053
247.98	16.779
248.36	11.111
248.73	12.883
249.10	18.579
249.47	21.393
249.84	20.942
250.22	16.062
250.59	15.000
250.96	17.727
251.33	14.796
251.70	14.103
252.08	18.750
252.45	20.492
252.82	13.223
253.19	21.484
253.56	20.913
253.94	15.385
254.31	19.697
254.68	20.979
255.05	19.870
255.42	15.986
255.79	14.239
256.16	18.543
256.54	17.219
256.91	18.689
257.28	21.967
257.65	18.153
258.02	17.699
258.39	17.094
258.76	20.795
259.14	21.839
259.51	20.749
259.88	18.414
260.25	16.667
260.62	20.548
260.99	19.945
261.36	19.571
261.73	17.772
262.10	19.231
262.47	17.962
262.85	19.949
263.22	15.325
263.59	16.842
263.96	18.414
264.33	18.414
264.70	19.259
265.07	18.854
265.44	20.408
265.81	16.435
266.18	18.821
266.55	19.420
266.92	16.629
267.29	17.068
267.66	18.404
268.03	15.284
268.40	17.119
268.77	16.173
269.14	15.859
269.51	18.860
269.88	19.877
270.25	17.505
270.62	20.042
270.99	21.010
271.36	18.218
271.73	17.092
272.10	20.040
272.47	19.439
272.84	18.474
273.21	18.437
273.58	17.540
273.95	15.385
274.32	16.350
274.69	13.926
275.06	19.414
275.43	16.081
275.80	19.400
276.17	16.667
276.54	16.978
276.91	16.995
277.28	17.360
277.65	16.338
278.02	19.669
278.39	16.848
278.76	16.872
279.13	18.794
279.50	18.213
279.87	16.279
280.23	13.908
280.60	15.254
280.97	17.599
281.34	15.280
281.71	17.597
282.08	17.110
282.45	14.239
282.82	15.856
283.19	14.378
283.56	16.230
283.92	17.868
284.29	17.694
284.66	17.406
285.03	13.942
285.40	14.374
285.77	15.944
286.14	18.168
286.51	15.068
286.87	15.640
287.24	16.265
287.61	16.143
287.98	15.106
288.35	14.201
288.72	14.793
289.08	12.738
289.45	15.385
289.82	16.416
290.19	13.649
290.56	15.070
290.93	13.695
291.29	13.912
291.66	14.050
292.03	14.383
292.40	14.150
292.77	14.286
293.13	13.938
293.50	13.535
293.87	12.886
294.24	14.667
294.60	14.286
294.97	10.604
295.34	14.341
295.71	10.214
296.08	13.953
296.44	13.235
296.81	12.546
297.18	13.076
297.55	12.500
297.91	12.218
298.28	13.033
298.65	12.128
299.02	12.751
299.38	12.014
299.75	12.266
300.12	10.995
300.48	11.866
300.85	11.024
301.22	11.745
301.59	11.644
301.95	12.655
302.32	12.444
302.69	11.829
303.05	10.881
303.42	11.973
303.79	12.396
304.15	11.672
304.52	10.782
304.89	11.728
305.25	12.008
305.62	11.703
305.99	12.165
306.35	10.887
306.72	11.479
307.09	11.777
307.45	10.973
307.82	11.504
308.19	11.201
308.55	11.572
308.92	10.224
309.29	11.782
309.65	11.598
310.02	11.188
310.38	11.614
310.75	10.291
311.12	11.218
311.48	9.677
311.85	10.731
312.22	10.057
312.58	9.484
312.95	10.134
313.31	11.111
313.68	10.073
314.05	11.834
314.41	10.565
314.78	10.718
315.14	10.254
315.51	9.880
315.87	11.521
316.24	10.594
316.61	10.746
316.97	9.683
317.34	10.229
317.70	10.742
318.07	11.199
318.43	10.289
318.80	10.368
319.16	10.300
319.53	8.826
319.89	10.429
320.26	10.854
320.62	9.840
320.99	10.065
321.35	10.074
321.72	10.419
322.08	10.189
322.45	10.117
322.81	10.199
323.18	9.027
323.54	9.655
323.91	9.520
324.27	9.294
324.64	10.747
325.00	9.370
325.37	10.647
325.73	10.744
326.10	9.732
326.46	11.401
326.83	11.849
327.19	11.024
327.56	10.514
327.92	9.284
328.29	10.887
328.65	8.961
329.01	10.321
329.38	10.699
329.74	11.130
330.11	10.445
330.47	10.615
330.84	8.958
331.20	10.500
331.56	9.879
331.93	10.795
332.29	9.746
332.66	10.631
333.02	10.050
333.38	9.732
333.75	10.017
334.11	9.925
334.48	9.571
334.84	10.110
335.20	9.908
335.57	10.371
335.93	9.174
336.29	10.399
336.66	10.093
337.02	9.783
337.38	10.119
337.75	9.504
338.11	10.681
338.47	10.505
338.84	9.391
339.20	9.351
339.56	10.297
339.93	10.181
340.29	10.064
340.65	9.732
341.02	10.455
341.38	9.863
341.74	9.685
342.11	9.735
342.47	8.817
342.83	10.467
343.20	9.321
343.56	9.703
343.92	10.248
344.28	9.297
344.65	10.620
345.01	9.906
345.37	9.487
345.73	8.730
346.10	9.360
346.46	9.335
346.82	9.813
347.19	10.008
347.55	9.939
347.91	10.253
348.27	9.408
348.63	9.139
349.00	9.620
349.36	10.335
349.72	9.821
350.08	9.733
350.45	9.125
350.81	9.578
351.17	9.023
351.53	9.780
351.89	9.871
352.26	9.179
352.62	8.507
352.98	9.389
353.34	8.738
353.70	8.552
354.07	8.942
354.43	9.188
354.79	8.601
355.15	9.492
355.51	10.526
355.87	8.078
356.24	9.202
356.60	9.017
356.96	9.933
357.32	8.848
357.68	9.224
358.04	8.683
358.40	8.209
358.77	9.284
359.13	8.789
359.49	8.253
359.85	9.065
360.21	9.541
360.57	8.686
360.93	9.591
361.29	8.702
361.66	9.269
362.02	8.768
362.38	9.838
362.74	8.729
363.10	8.528
363.46	8.587
363.82	7.812
364.18	8.586
364.54	8.783
364.90	9.030
365.26	8.414
365.62	8.467
365.98	9.054
366.35	8.993
366.71	8.707
367.07	8.660
367.43	8.733
367.79	8.759
368.15	8.361
368.51	8.254
368.87	8.165
369.23	8.867
369.59	8.675
369.95	8.790
370.31	9.183
370.67	8.322
371.03	8.241
371.39	7.320
371.75	8.322
372.11	8.672
372.47	7.786
372.83	8.966
373.19	8.606
373.55	8.604
373.91	7.498
374.27	8.409
374.63	8.931
374.99	9.019
375.35	9.545
375.71	8.065
376.07	8.134
376.42	7.683
376.78	9.012
377.14	7.985
377.50	8.539
377.86	8.498
378.22	8.024
378.58	8.680
378.94	9.331
379.30	8.143
379.66	8.524
380.02	8.482
380.38	8.756
380.74	8.000
381.09	7.666
381.45	8.693
381.81	8.080
382.17	8.254
382.53	8.070
382.89	8.126
383.25	8.324
383.61	7.581
383.97	8.598
384.32	8.433
384.68	7.309
385.04	8.097
385.40	7.602
385.76	8.558
386.12	8.857
386.48	8.294
386.83	8.403
387.19	7.995
387.55	7.688
387.91	7.648
388.27	8.430
388.62	8.133
388.98	8.291
389.34	8.662
389.70	7.844
390.06	7.993
390.42	8.675
390.77	8.308
391.13	7.570
391.49	7.790
391.85	7.818
392.20	8.244
392.56	8.742
392.92	8.888
393.28	8.624
393.64	7.263
393.99	8.251
394.35	7.944
394.71	8.323
395.07	7.066
395.42	7.653
395.78	8.470
396.14	8.140
396.50	8.373
396.85	7.394
397.21	8.876
397.57	7.774
397.92	8.534
398.28	7.116
398.64	7.323
399.00	7.906
399.35	8.534
399.71	7.717
400.07	8.759
400.42	8.556
400.78	7.465
401.14	8.537
401.49	7.732
401.85	7.965
402.21	8.343
402.57	8.099
402.92	7.861
403.28	7.553
403.63	6.921
403.99	7.898
404.35	8.243
404.70	7.535
405.06	7.337
405.42	7.963
405.77	7.906
406.13	8.050
406.49	8.052
406.84	8.144
407.20	8.608
407.55	6.965
407.91	7.417
408.27	7.833
408.62	7.970
408.98	8.299
409.34	7.038
409.69	8.035
410.05	7.972
410.40	8.411
410.76	7.291
411.11	8.007
411.47	8.600
411.83	8.760
412.18	7.952
412.54	7.291
412.89	8.440
413.25	8.296
413.60	8.156
413.96	7.751
414.31	8.555
414.67	8.706
415.03	7.938
415.38	7.945
415.74	7.941
416.09	8.143
416.45	8.078
416.80	7.405
417.16	7.471
417.51	7.783
417.87	8.032
418.22	8.383
418.58	7.187
418.93	8.265
419.29	7.522
419.64	7.743
420.00	7.003
420.35	7.692
420.71	7.410
421.06	8.281
421.42	7.454
421.77	7.539
422.12	7.611
422.48	7.271
422.83	8.050
423.19	8.170
423.54	7.688
423.90	7.786
424.25	7.573
424.61	6.487
424.96	7.908
425.31	8.705
425.67	7.354
426.02	8.190
426.38	7.233
426.73	7.087
427.09	8.420
427.44	6.991
427.79	6.855
428.15	7.820
428.50	7.135
428.85	7.003
429.21	8.138
429.56	7.897
429.92	7.518
430.27	7.759
430.62	6.937
430.98	7.182
431.33	7.722
431.68	7.328
432.04	7.517
432.39	7.392
432.74	7.192
433.10	7.896
433.45	6.689
433.80	8.047
434.16	7.593
434.51	7.708
434.86	7.329
435.22	7.492
435.57	7.724
435.92	8.013
436.28	7.565
436.63	7.755
436.98	7.193
437.34	7.272
437.69	7.155
438.04	7.456
438.39	7.639
438.75	7.194
439.10	7.664
439.45	7.770
439.81	7.571
440.16	6.595
440.51	6.856
440.86	7.337
441.22	7.395
441.57	8.019
441.92	7.905
442.27	7.727
442.63	7.700
442.98	7.257
443.33	6.996
443.68	8.276
444.03	7.996
444.39	7.952
444.74	7.912
445.09	7.856
445.44	7.956
445.79	7.615
446.15	8.273
446.50	7.597
446.85	7.879
447.20	7.979
447.55	7.793
447.91	6.911
448.26	6.607
448.61	7.758
448.96	8.155
449.31	7.741
449.66	6.808
450.02	8.122
450.37	8.258
450.72	7.320
451.07	7.005
451.42	6.759
451.77	7.838
452.12	7.506
452.47	7.071
452.83	6.475
453.18	7.706
453.53	6.720
453.88	6.902
454.23	7.966
454.58	8.241
454.93	6.675
455.28	8.188
455.63	7.391
455.98	7.542
456.34	6.714
456.69	7.525
457.04	7.447
457.39	7.262
457.74	7.327
458.09	7.139
458.44	7.759
458.79	7.220
459.14	7.604
459.49	6.961
459.84	8.132
460.19	6.663
460.54	7.893
460.89	7.729
461.24	6.552
461.59	7.969
461.94	6.674
462.29	6.495
462.64	6.820
462.99	7.094
463.34	7.008
463.69	7.679
464.04	7.560
464.39	7.175
464.74	7.526
465.09	7.670
465.44	7.242
465.79	7.033
466.14	7.295
466.49	7.368
466.84	7.493
467.19	7.457
467.54	6.757
467.89	7.586
468.24	7.036
468.59	6.022
468.94	6.702
469.29	6.959
469.64	7.057
469.99	6.182
470.34	7.116
470.68	6.699
471.03	7.531
471.38	6.475
471.73	6.307
472.08	6.091
472.43	6.382
472.78	7.431
473.13	6.195
473.48	7.251
473.83	7.545
474.17	7.327
474.52	6.494
474.87	6.977
475.22	7.268
475.57	7.321
475.92	7.218
476.27	7.561
476.61	7.113
476.96	7.404
477.31	7.475
477.66	7.240
478.01	6.762
478.36	7.577
478.70	7.044
479.05	6.595
479.40	6.762
479.75	7.061
480.10	7.106
480.45	6.882
480.79	7.528
481.14	6.618
481.49	6.906
481.84	7.224
482.19	7.011
482.53	7.258
482.88	7.266
483.23	7.070
483.58	6.419
483.92	6.605
484.27	7.028
484.62	6.559
484.97	7.465
485.31	6.336
485.66	7.399
486.01	8.273
486.36	8.373
486.70	8.526
487.05	7.944
487.40	7.383
487.75	7.099
488.09	6.847
488.44	6.104
488.79	6.948
489.13	6.372
489.48	6.019
489.83	6.841
490.17	6.480
490.52	6.527
490.87	6.853
491.22	6.586
491.56	6.698
491.91	7.065
492.26	6.621
492.60	7.215
492.95	6.670
493.30	6.948
493.64	6.614
493.99	6.623
494.34	6.446
494.68	6.681
495.03	7.313
495.37	6.480
495.72	6.712
496.07	6.748
496.41	6.135
496.76	6.672
497.11	6.369
497.45	6.603
497.80	6.353
498.14	5.714
498.49	6.296
498.84	6.536
499.18	6.703
499.53	6.726
499.87	6.989
500.22	5.877
500.56	6.298
500.91	6.270
501.26	6.864
501.60	6.186
501.95	6.426
502.29	6.757
502.64	6.296
502.98	6.644
503.33	5.788
503.67	5.887
504.02	6.436
504.36	6.479
504.71	6.339
505.06	6.503
505.40	6.216
505.75	6.193
506.09	6.538
506.44	6.175
506.78	6.101
507.13	6.362
507.47	6.206
507.82	6.250
508.16	6.262
508.51	5.954
508.85	6.141
509.19	6.679
509.54	6.148
509.88	6.362
510.23	6.265
510.57	6.863
510.92	6.580
511.26	6.061
511.61	6.036
511.95	6.491
512.30	6.204
512.64	5.897
512.98	6.303
513.33	6.704
513.67	5.762
514.02	6.592
514.36	5.934
514.70	5.990
515.05	6.204
515.39	6.194
515.74	6.363
516.08	6.128
516.42	6.489
516.77	5.994
517.11	5.157
517.46	5.673
517.80	6.467
518.14	6.366
518.49	5.857
518.83	6.067
519.17	6.085
519.52	6.656
519.86	5.913
520.20	6.390
520.55	5.148
520.89	5.405
521.23	5.695
521.58	5.989
521.92	5.609
522.26	5.556
522.61	6.134
522.95	5.594
523.29	6.034
523.64	5.549
523.98	5.876
524.32	6.246
524.66	6.033
525.01	5.549
525.35	4.365
525.69	6.206
526.04	5.339
526.38	4.943
526.72	5.652
527.06	5.689
527.41	5.131
527.75	5.641
528.09	5.726
528.43	4.914
528.78	5.318
529.12	6.135
529.46	5.902
529.80	5.549
530.15	5.739
530.49	4.686
530.83	5.018
531.17	5.376
531.51	4.753
531.86	5.769
532.20	5.915
532.54	5.625
532.88	5.576
533.22	5.657
533.57	6.405
533.91	6.117
534.25	5.992
534.59	5.805
534.93	5.150
535.27	5.746
535.62	5.856
535.96	5.578
536.30	5.170
536.64	5.586
536.98	6.273
537.32	5.802
537.66	6.176
538.01	5.317
538.35	5.420
538.69	6.130
539.03	6.683
539.37	6.478
539.71	5.946
540.05	6.235
540.39	5.685
540.73	5.768
541.07	5.947
541.42	6.025
541.76	5.753
542.10	5.187
542.44	5.725
542.78	6.265
543.12	6.257
543.46	6.105
543.80	5.995
544.14	5.506
544.48	6.028
544.82	6.762
545.16	6.380
545.50	5.692
545.84	6.552
546.18	6.728
546.52	5.860
546.86	6.038
547.20	5.789
547.54	5.556
547.88	6.209
548.22	6.374
548.56	6.319
548.90	5.433
549.24	6.444
549.58	4.921
549.92	5.804
550.26	6.472
550.60	6.445
550.94	5.627
551.28	5.545
551.62	5.863
551.96	6.214
552.30	6.883
552.64	6.907
552.98	5.739
553.32	6.367
553.66	5.145
554.00	5.359
554.34	5.534
554.68	5.294
555.02	5.519
555.36	6.509
555.69	5.445
556.03	5.612
556.37	6.320
556.71	6.088
557.05	6.198
557.39	5.839
557.73	5.350
558.07	4.901
558.41	5.980
558.75	6.018
559.08	5.567
559.42	4.664
559.76	5.631
560.10	5.157
560.44	5.343
560.78	6.688
561.12	6.589
561.45	6.387
561.79	6.288
562.13	6.531
562.47	5.487
562.81	6.519
563.15	5.429
563.48	6.650
563.82	4.958
564.16	5.572
564.50	5.602
564.84	5.605
565.17	6.118
565.51	5.754
565.85	5.760
566.19	5.472
566.52	5.676
566.86	5.603
567.20	6.145
567.54	5.736
567.88	6.626
568.21	6.423
568.55	6.715
568.89	6.264
569.23	7.140
569.56	6.565
569.90	7.163
570.24	7.015
570.57	6.928
570.91	6.828
571.25	7.434
571.59	7.515
571.92	7.170
572.26	7.253
572.60	7.125
572.93	7.264
573.27	6.940
573.61	7.385
573.95	7.380
574.28	8.059
574.62	7.185
574.96	7.146
575.29	6.830
575.63	6.838
575.97	6.946
576.30	6.933
576.64	7.110
576.98	7.221
577.31	7.775
577.65	7.573
577.98	7.624
578.32	7.465
578.66	7.388
578.99	7.086
579.33	7.159
579.67	6.664
580.00	6.833
580.34	7.264
580.67	6.818
581.01	7.183
581.35	7.715
581.68	7.808
582.02	8.127
582.35	7.728
582.69	7.595
583.02	7.606
583.36	7.373
583.70	6.794
584.03	6.695
584.37	6.937
584.70	6.675
585.04	6.812
585.37	7.446
585.71	7.487
586.04	7.244
586.38	6.917
586.72	6.718
587.05	6.882
587.39	7.130
587.72	7.129
588.06	7.398
588.39	7.095
588.73	6.614
589.06	6.800
589.40	6.822
589.73	7.005
590.07	6.797
590.40	6.761
590.73	6.752
591.07	6.925
591.40	6.221
591.74	6.399
592.07	7.105
592.41	6.546
592.74	7.135
593.08	7.484
593.41	7.699
593.75	7.989
594.08	7.028
594.41	6.859
594.75	6.709
595.08	6.662
595.42	6.851
595.75	6.748
596.09	6.743
596.42	6.270
596.75	6.947
597.09	6.545
597.42	6.277
597.75	6.821
598.09	7.143
598.42	6.876
598.76	6.458
599.09	7.191
599.42	7.208
599.76	7.098
600.09	7.774
600.42	7.174
600.76	6.902
601.09	6.704
601.42	6.625
601.76	6.448
602.09	6.362
602.42	6.798
602.76	6.974
603.09	6.351
603.42	7.117
603.76	6.519
604.09	7.346
604.42	6.789
604.76	6.621
605.09	6.462
605.42	6.858
605.75	6.577
606.09	6.682
606.42	6.859
606.75	6.372
607.09	6.221
607.42	6.397
607.75	6.721
608.08	6.433
608.42	6.489
608.75	6.302
609.08	6.324
609.41	6.484
609.75	6.429
610.08	6.816
610.41	6.712
610.74	6.597
611.07	6.261
611.41	6.771
611.74	6.143
612.07	6.872
612.40	5.751
612.73	5.575
613.07	6.895
613.40	6.400
613.73	6.307
614.06	6.869
614.39	6.414
614.72	6.550
615.06	6.689
615.39	6.283
615.72	6.351
616.05	6.168
616.38	6.458
616.71	6.688
617.05	5.857
617.38	6.100
617.71	6.479
618.04	6.152
618.37	6.503
618.70	7.014
619.03	5.974
619.36	6.473
619.69	6.086
620.03	5.901
620.36	5.644
620.69	6.046
621.02	6.168
621.35	5.806
621.68	6.146
622.01	5.480
622.34	5.370
622.67	6.254
623.00	4.791
623.33	5.309
623.66	6.680
623.99	5.596
624.32	6.888
624.65	5.405
624.99	5.917
625.32	6.140
625.65	5.057
625.98	5.356
626.31	5.882
626.64	5.934
626.97	5.026
627.30	4.100
627.63	5.251
627.96	6.832
628.29	5.914
628.62	4.702
628.95	5.083
629.28	3.993
629.61	5.471
629.94	5.188
630.26	4.746
630.59	4.922
630.92	5.022
631.25	5.009
631.58	5.179
631.91	4.499
632.24	4.323
632.57	5.408
632.90	3.912
633.23	4.286
633.56	4.388
633.89	4.132
634.22	4.054
634.55	4.175
634.88	4.762
635.20	5.490
635.53	4.633
635.86	5.742
636.19	5.620
636.52	4.747
636.85	5.005
637.18	4.262
637.51	4.516
637.83	4.430
638.16	2.880
638.49	4.460
638.82	4.284
639.15	3.895
639.48	5.889
639.81	4.965
640.13	4.947
640.46	3.515
640.79	2.328
641.12	4.969
641.45	3.890
641.77	6.162
642.10	3.675
642.43	5.186
642.76	3.659
643.09	3.425
643.41	3.221
643.74	3.862
644.07	5.379
644.40	4.526
644.73	3.338
645.05	3.377
645.38	4.892
645.71	4.692
646.04	5.165
646.36	2.774
646.69	3.681
647.02	5.352
647.35	4.427
647.67	3.543
648.00	3.344
648.33	4.354
648.66	3.566
648.98	5.306
649.31	4.736
649.64	4.648
649.96	4.244
650.29	3.060
650.62	5.658
650.94	3.754
651.27	3.293
651.60	4.678
651.92	3.799
652.25	5.065
652.58	6.052
652.90	2.762
653.23	6.056
653.56	4.137
653.88	6.320
654.21	5.211
654.54	5.491
