SpectraSuite Data File
++++++++++++++++++++++++++++++++++++
Date: Thu May 14 16:42:06 PDT 2015
User: schluterlab
Dark Spectrum Present: Yes
Reference Spectrum Present: Yes
Number of Sampled Component Spectra: 1
Spectrometers: USB2E3373
Integration Time (usec): 3000 (USB2E3373)
Spectra Averaged: 3 (USB2E3373)
Boxcar Smoothing: 0 (USB2E3373)
Correct for Electrical Dark: No (USB2E3373)
Strobe/Lamp Enabled: No (USB2E3373)
Correct for Detector Non-linearity: No (USB2E3373)
Correct for Stray Light: No (USB2E3373)
Number of Pixels in Processed Spectrum: 2048
>>>>>Begin Processed Spectral Data<<<<<
178.53	0.000
178.91	-42.857
179.29	-400.000
179.67	0.000
180.04	114.286
180.42	80.000
180.80	140.000
181.18	700.000
181.56	700.000
181.94	-50.000
182.31	0.000
182.69	-100.000
183.07	-150.000
183.45	325.000
183.83	-16.667
184.20	500.000
184.58	-200.000
184.96	75.000
185.34	-44.444
185.72	20.000
186.09	55.556
186.47	350.000
186.85	180.000
187.23	-22.222
187.61	-900.000
187.98	120.000
188.36	75.000
188.74	-75.000
189.12	166.667
189.49	18.750
189.87	-125.000
190.25	33.333
190.63	140.000
191.00	11.111
191.38	0.000
191.76	-25.000
192.14	-116.667
192.51	400.000
192.89	66.667
193.27	0.000
193.65	14.286
194.02	-500.000
194.40	-42.857
194.78	57.143
195.15	0.000
195.53	54.545
195.91	0.000
196.29	0.000
196.66	0.000
197.04	-1100.000
197.42	-57.143
197.79	-200.000
198.17	-100.000
198.55	-85.714
198.92	44.444
199.30	62.500
199.68	90.909
200.05	85.714
200.43	-350.000
200.81	114.286
201.18	0.000
201.56	33.333
201.94	0.000
202.31	333.333
202.69	-33.333
203.07	-400.000
203.44	55.556
203.82	0.000
204.19	50.000
204.57	-100.000
204.95	0.000
205.32	-200.000
205.70	-75.000
206.08	116.667
206.45	66.667
206.83	260.000
207.20	100.000
207.58	0.000
207.96	-50.000
208.33	-33.333
208.71	50.000
209.08	200.000
209.46	0.000
209.84	100.000
210.21	150.000
210.59	50.000
210.96	300.000
211.34	125.000
211.71	-50.000
212.09	-800.000
212.46	0.000
212.84	50.000
213.22	-160.000
213.59	-175.000
213.97	70.000
214.34	-166.667
214.72	100.000
215.09	-125.000
215.47	0.000
215.84	-0.000
216.22	350.000
216.59	100.000
216.97	-100.000
217.34	100.000
217.72	175.000
218.09	-75.000
218.47	-200.000
218.84	0.000
219.22	-120.000
219.59	23.529
219.97	40.000
220.34	250.000
220.72	-22.222
221.09	146.154
221.47	-66.667
221.84	110.000
222.22	-71.429
222.59	0.000
222.97	-12.500
223.34	-80.000
223.72	-300.000
224.09	75.000
224.46	-150.000
224.84	100.000
225.21	-42.857
225.59	-100.000
225.96	175.000
226.34	7.692
226.71	83.333
227.08	-250.000
227.46	-13.333
227.83	-25.000
228.21	57.895
228.58	-25.000
228.95	850.000
229.33	0.000
229.70	70.000
230.08	89.474
230.45	110.000
230.82	-133.333
231.20	-35.714
231.57	41.667
231.95	45.455
232.32	27.273
232.69	40.000
233.07	-100.000
233.44	11.765
233.81	-50.000
234.19	-22.222
234.56	45.455
234.93	6.897
235.31	36.842
235.68	44.444
236.05	-50.000
236.43	50.000
236.80	76.000
237.17	14.815
237.55	0.000
237.92	-110.000
238.29	12.903
238.67	4.545
239.04	5.556
239.41	-4.762
239.79	2.174
240.16	3.704
240.53	19.565
240.91	-1.961
241.28	0.000
241.65	23.881
242.02	14.865
242.40	3.077
242.77	4.000
243.14	-2.439
243.51	-5.263
243.89	-1.282
244.26	15.842
244.63	12.745
245.00	1.869
245.38	9.649
245.75	-3.540
246.12	11.905
246.49	4.651
246.87	7.143
247.24	13.907
247.61	13.158
247.98	9.396
248.36	4.938
248.73	6.135
249.10	9.290
249.47	11.443
249.84	15.707
250.22	7.772
250.59	11.111
250.96	13.636
251.33	3.571
251.70	13.675
252.08	12.917
252.45	6.967
252.82	10.331
253.19	11.719
253.56	7.224
253.94	7.692
254.31	10.227
254.68	12.587
255.05	12.378
255.42	8.163
255.79	10.032
256.16	8.940
256.54	5.629
256.91	10.820
257.28	8.197
257.65	5.414
258.02	6.490
258.39	7.407
258.76	12.844
259.14	13.218
259.51	9.510
259.88	7.649
260.25	9.444
260.62	10.137
260.99	11.475
261.36	10.456
261.73	8.753
262.10	8.516
262.47	8.847
262.85	13.131
263.22	8.312
263.59	8.421
263.96	7.928
264.33	8.696
264.70	8.642
265.07	10.501
265.44	12.698
265.81	10.417
266.18	9.751
266.55	11.384
266.92	8.656
267.29	10.722
267.66	7.982
268.03	8.952
268.40	7.933
268.77	6.150
269.14	7.269
269.51	8.772
269.88	14.139
270.25	10.463
270.62	8.650
270.99	9.899
271.36	9.901
271.73	7.859
272.10	9.820
272.47	9.820
272.84	9.639
273.21	10.822
273.58	10.887
273.95	7.885
274.32	8.175
274.69	8.317
275.06	7.875
275.43	7.763
275.80	10.406
276.17	9.444
276.54	8.769
276.91	6.798
277.28	9.946
277.65	10.413
278.02	8.272
278.39	7.790
278.76	8.787
279.13	7.270
279.50	9.278
279.87	10.733
280.23	5.986
280.60	11.356
280.97	9.704
281.34	6.112
281.71	10.491
282.08	9.468
282.45	9.002
282.82	9.105
283.19	8.078
283.56	8.361
283.92	11.111
284.29	11.216
284.66	9.688
285.03	6.731
285.40	9.274
285.77	7.430
286.14	9.618
286.51	7.610
286.87	7.741
287.24	9.036
287.61	8.072
287.98	8.761
288.35	7.249
288.72	9.320
289.08	8.931
289.45	8.876
289.82	8.584
290.19	7.040
290.56	7.887
290.93	7.275
291.29	8.264
291.66	7.025
292.03	6.920
292.40	8.571
292.77	6.873
293.13	9.608
293.50	7.227
293.87	6.443
294.24	9.600
294.60	9.229
294.97	6.443
295.34	9.859
295.71	7.692
296.08	6.589
296.44	7.353
296.81	5.725
297.18	6.849
297.55	6.604
297.91	7.473
298.28	5.806
298.65	7.729
299.02	8.146
299.38	6.522
299.75	8.762
300.12	6.829
300.48	7.028
300.85	7.424
301.22	7.271
301.59	5.365
301.95	6.328
302.32	8.000
302.69	6.134
303.05	6.964
303.42	6.763
303.79	7.500
304.15	6.940
304.52	7.400
304.89	6.702
305.25	7.143
305.62	6.165
305.99	6.804
306.35	5.948
306.72	7.342
307.09	6.294
307.45	7.971
307.82	6.862
308.19	7.064
308.55	8.390
308.92	7.303
309.29	7.567
309.65	7.505
310.02	7.030
310.38	7.874
310.75	6.796
311.12	7.478
311.48	7.136
311.85	7.407
312.22	8.159
312.58	8.545
312.95	7.935
313.31	8.040
313.68	9.707
314.05	10.298
314.41	9.199
314.78	9.809
315.14	9.619
315.51	9.880
315.87	10.261
316.24	9.772
316.61	11.901
316.97	10.136
317.34	11.023
317.70	11.441
318.07	11.728
318.43	12.415
318.80	14.632
319.16	13.047
319.53	12.511
319.89	13.935
320.26	15.391
320.62	13.741
320.99	14.497
321.35	16.728
321.72	17.395
322.08	16.501
322.45	17.254
322.81	17.690
323.18	17.699
323.54	19.397
323.91	19.395
324.27	19.966
324.64	21.495
325.00	20.315
325.37	21.622
325.73	21.570
326.10	22.060
326.46	24.593
326.83	25.140
327.19	24.331
327.56	25.850
327.92	25.885
328.29	26.371
328.65	27.052
329.01	27.242
329.38	28.559
329.74	28.339
330.11	29.366
330.47	29.992
330.84	32.300
331.20	29.500
331.56	30.849
331.93	30.209
332.29	31.525
332.66	31.312
333.02	32.328
333.38	31.208
333.75	32.744
334.11	32.110
334.48	32.343
334.84	33.730
335.20	31.822
335.57	32.293
335.93	33.388
336.29	32.196
336.66	34.230
337.02	34.030
337.38	32.993
337.75	33.636
338.11	33.810
338.47	33.995
338.84	34.264
339.20	33.867
339.56	33.443
339.93	35.057
340.29	33.092
340.65	34.550
341.02	33.599
341.38	35.327
341.74	35.190
342.11	35.559
342.47	32.883
342.83	36.554
343.20	35.241
343.56	35.926
343.92	34.267
344.28	34.766
344.65	35.969
345.01	35.179
345.37	35.770
345.73	34.217
346.10	36.427
346.46	35.601
346.82	35.431
347.19	35.218
347.55	36.646
347.91	35.067
348.27	34.825
348.63	35.491
349.00	36.092
349.36	36.283
349.72	36.086
350.08	36.033
350.45	35.741
350.81	35.973
351.17	35.639
351.53	35.861
351.89	36.219
352.26	35.746
352.62	36.493
352.98	35.878
353.34	36.221
353.70	37.519
354.07	36.066
354.43	36.522
354.79	36.350
355.15	37.454
355.51	37.719
355.87	36.350
356.24	38.859
356.60	36.511
356.96	38.251
357.32	36.877
357.68	37.335
358.04	37.650
358.40	36.418
358.77	37.865
359.13	37.518
359.49	36.952
359.85	37.781
360.21	37.590
360.57	37.976
360.93	38.082
361.29	37.123
361.66	38.450
362.02	39.109
362.38	38.721
362.74	37.500
363.10	39.133
363.46	39.266
363.82	40.057
364.18	39.127
364.54	39.488
364.90	39.264
365.26	39.586
365.62	38.800
365.98	39.006
366.35	40.336
366.71	40.068
367.07	39.513
367.43	40.184
367.79	40.013
368.15	40.067
368.51	39.445
368.87	40.496
369.23	38.667
369.59	40.642
369.95	40.906
370.31	40.918
370.67	40.578
371.03	40.651
371.39	40.161
371.75	41.472
372.11	40.515
372.47	40.623
372.83	40.838
373.19	40.227
373.55	40.650
373.91	40.218
374.27	41.203
374.63	41.678
374.99	41.512
375.35	42.338
375.71	40.903
376.07	40.865
376.42	41.688
376.78	42.138
377.14	41.547
377.50	43.137
377.86	42.549
378.22	42.635
378.58	43.103
378.94	41.667
379.30	42.648
379.66	42.975
380.02	42.701
380.38	44.067
380.74	42.197
381.09	43.206
381.45	42.557
381.81	43.384
382.17	42.993
382.53	43.392
382.89	43.397
383.25	43.552
383.61	42.998
383.97	43.581
384.32	44.079
384.68	42.749
385.04	44.014
385.40	44.372
385.76	44.431
386.12	43.507
386.48	42.882
386.83	43.623
387.19	42.932
387.55	43.427
387.91	42.637
388.27	44.342
388.62	43.184
388.98	43.091
389.34	44.431
389.70	44.916
390.06	43.694
390.42	44.157
390.77	45.093
391.13	44.190
391.49	44.444
391.85	43.758
392.20	45.018
392.56	43.001
392.92	43.021
393.28	44.500
393.64	43.911
393.99	45.381
394.35	45.794
394.71	43.772
395.07	44.431
395.42	44.032
395.78	45.460
396.14	45.217
396.50	44.834
396.85	43.649
397.21	44.024
397.57	44.405
397.92	43.757
398.28	44.813
398.64	43.936
399.00	42.880
399.35	44.346
399.71	44.239
400.07	44.301
400.42	44.237
400.78	45.602
401.14	44.678
401.49	44.400
401.85	45.116
402.21	44.264
402.57	46.127
402.92	45.745
403.28	43.091
403.63	44.988
403.99	43.230
404.35	43.661
404.70	43.796
405.06	42.446
405.42	43.911
405.77	43.839
406.13	44.246
406.49	45.327
406.84	44.155
407.20	42.873
407.55	44.337
407.91	44.186
408.27	43.757
408.62	45.550
408.98	43.993
409.34	43.050
409.69	44.376
410.05	43.962
410.40	44.200
410.76	44.420
411.11	44.711
411.47	44.472
411.83	43.563
412.18	44.880
412.54	45.050
412.89	43.714
413.25	43.905
413.60	43.998
413.96	44.580
414.31	42.890
414.67	44.246
415.03	43.692
415.38	45.019
415.74	44.227
416.09	44.540
416.45	43.707
416.80	43.819
417.16	44.636
417.51	42.902
417.87	43.777
418.22	44.970
418.58	44.300
418.93	44.296
419.29	45.006
419.64	44.178
420.00	43.858
420.35	44.582
420.71	44.170
421.06	43.646
421.42	44.725
421.77	43.080
422.12	43.340
422.48	44.086
422.83	44.195
423.19	44.350
423.54	44.746
423.90	43.236
424.25	44.960
424.61	43.858
424.96	43.987
425.31	44.533
425.67	43.639
426.02	45.158
426.38	44.489
426.73	44.420
427.09	45.732
427.44	44.129
427.79	45.163
428.15	45.091
428.50	45.000
428.85	44.432
429.21	44.415
429.56	44.225
429.92	44.128
430.27	44.675
430.62	44.406
430.98	44.368
431.33	44.233
431.68	44.109
432.04	45.455
432.39	45.849
432.74	44.749
433.10	45.105
433.45	44.760
433.80	43.938
434.16	44.886
434.51	46.403
434.86	47.068
435.22	45.324
435.57	46.050
435.92	45.242
436.28	46.359
436.63	45.440
436.98	45.464
437.34	45.660
437.69	45.129
438.04	45.161
438.39	45.778
438.75	44.715
439.10	46.089
439.45	45.221
439.81	44.802
440.16	45.040
440.51	46.711
440.86	45.025
441.22	45.445
441.57	45.335
441.92	44.908
442.27	45.808
442.63	44.610
442.98	44.771
443.33	45.818
443.68	45.491
444.03	45.484
444.39	45.215
444.74	45.891
445.09	44.805
445.44	44.415
445.79	46.360
446.15	45.478
446.50	44.341
446.85	45.768
447.20	45.068
447.55	46.130
447.91	44.503
448.26	45.402
448.61	45.112
448.96	46.298
449.31	44.115
449.66	44.826
450.02	45.728
450.37	45.338
450.72	45.963
451.07	44.533
451.42	44.714
451.77	45.692
452.12	45.598
452.47	45.336
452.83	46.002
453.18	45.009
453.53	45.146
453.88	44.451
454.23	45.819
454.58	45.386
454.93	44.539
455.28	45.394
455.63	45.821
455.98	45.251
456.34	44.464
456.69	44.797
457.04	45.213
457.39	44.346
457.74	45.358
458.09	45.140
458.44	45.151
458.79	44.611
459.14	44.835
459.49	45.331
459.84	44.596
460.19	44.753
460.54	44.179
460.89	45.474
461.24	44.770
461.59	45.656
461.94	44.952
462.29	44.569
462.64	44.840
462.99	44.947
463.34	45.425
463.69	43.787
464.04	44.691
464.39	45.404
464.74	44.071
465.09	44.752
465.44	44.850
465.79	45.690
466.14	43.408
466.49	44.263
466.84	45.399
467.19	44.509
467.54	43.067
467.89	43.908
468.24	43.823
468.59	43.660
468.94	44.988
469.29	45.231
469.64	44.183
469.99	46.080
470.34	44.740
470.68	45.386
471.03	45.187
471.38	44.931
471.73	46.164
472.08	44.416
472.43	44.612
472.78	45.151
473.13	44.564
473.48	44.955
473.83	45.676
474.17	44.314
474.52	44.558
474.87	45.238
475.22	45.127
475.57	44.133
475.92	44.649
476.27	43.823
476.61	43.821
476.96	43.900
477.31	45.099
477.66	45.645
478.01	44.382
478.36	43.370
478.70	44.433
479.05	45.245
479.40	44.768
479.75	44.140
480.10	44.529
480.45	44.439
480.79	44.218
481.14	44.301
481.49	43.889
481.84	44.169
482.19	44.301
482.53	44.600
482.88	44.218
483.23	44.242
483.58	43.231
483.92	43.750
484.27	44.242
484.62	43.812
484.97	43.196
485.31	43.048
485.66	40.859
486.01	39.945
486.36	40.165
486.70	41.795
487.05	42.452
487.40	42.791
487.75	43.206
488.09	43.731
488.44	42.848
488.79	43.541
489.13	43.954
489.48	42.835
489.83	43.742
490.17	43.337
490.52	43.144
490.87	43.951
491.22	44.151
491.56	43.003
491.91	43.349
492.26	43.964
492.60	43.900
492.95	43.177
493.30	43.882
493.64	43.802
493.99	43.114
494.34	42.683
494.68	43.426
495.03	43.216
495.37	44.030
495.72	44.717
496.07	44.084
496.41	42.814
496.76	43.495
497.11	43.949
497.45	43.893
497.80	43.803
498.14	42.766
498.49	43.842
498.84	44.653
499.18	43.815
499.53	43.722
499.87	43.165
500.22	42.520
500.56	43.545
500.91	45.034
501.26	44.727
501.60	43.703
501.95	42.770
502.29	43.659
502.64	43.769
502.98	43.184
503.33	43.283
503.67	43.611
504.02	43.827
504.36	44.951
504.71	44.235
505.06	43.065
505.40	43.510
505.75	43.169
506.09	44.015
506.44	44.754
506.78	43.716
507.13	44.076
507.47	44.908
507.82	43.655
508.16	44.503
508.51	43.507
508.85	44.639
509.19	44.150
509.54	44.909
509.88	44.439
510.23	44.536
510.57	45.626
510.92	44.606
511.26	44.108
511.61	43.940
511.95	45.339
512.30	44.362
512.64	43.978
512.98	44.622
513.33	45.161
513.67	44.926
514.02	44.865
514.36	45.524
514.70	45.104
515.05	45.151
515.39	45.354
515.74	46.023
516.08	45.853
516.42	45.160
516.77	45.478
517.11	44.817
517.46	45.811
517.80	45.804
518.14	47.715
518.49	45.716
518.83	44.385
519.17	43.996
519.52	45.178
519.86	45.882
520.20	45.847
520.55	45.181
520.89	47.016
521.23	45.505
521.58	46.384
521.92	46.856
522.26	45.361
522.61	46.470
522.95	46.021
523.29	46.897
523.64	46.413
523.98	46.492
524.32	48.023
524.66	47.240
525.01	45.866
525.35	46.927
525.69	46.056
526.04	46.613
526.38	46.782
526.72	45.790
527.06	46.862
527.41	46.472
527.75	46.971
528.09	48.052
528.43	46.300
528.78	46.763
529.12	45.929
529.46	46.262
529.80	47.082
530.15	45.913
530.49	46.560
530.83	46.458
531.17	46.356
531.51	47.593
531.86	46.334
532.20	47.500
532.54	45.482
532.88	46.485
533.22	45.374
533.57	47.028
533.91	47.419
534.25	45.958
534.59	47.529
534.93	45.897
535.27	47.155
535.62	46.163
535.96	46.659
536.30	47.239
536.64	47.267
536.98	47.294
537.32	47.407
537.66	47.473
538.01	46.042
538.35	47.625
538.69	47.476
539.03	47.701
539.37	46.938
539.71	47.267
540.05	47.122
540.39	45.844
540.73	46.084
541.07	46.904
541.42	47.135
541.76	46.382
542.10	47.768
542.44	46.955
542.78	47.810
543.12	46.544
543.46	46.337
543.80	45.144
544.14	46.499
544.48	47.577
544.82	48.235
545.16	46.810
545.50	45.416
545.84	46.785
546.18	47.778
546.52	47.707
546.86	47.170
547.20	47.137
547.54	46.816
547.88	46.172
548.22	46.316
548.56	46.577
548.90	46.806
549.24	46.991
549.58	47.823
549.92	47.258
550.26	47.702
550.60	47.415
550.94	47.477
551.28	47.129
551.62	47.574
551.96	46.084
552.30	48.056
552.64	47.853
552.98	47.037
553.32	48.617
553.66	47.331
554.00	48.928
554.34	47.683
554.68	47.321
555.02	47.766
555.36	48.849
555.69	47.213
556.03	46.974
556.37	47.121
556.71	49.334
557.05	47.284
557.39	48.308
557.73	48.547
558.07	48.344
558.41	47.907
558.75	48.884
559.08	48.017
559.42	48.354
559.76	48.440
560.10	48.426
560.44	48.351
560.78	49.000
561.12	47.475
561.45	48.114
561.79	48.107
562.13	47.813
562.47	47.287
562.81	45.823
563.15	48.169
563.48	48.602
563.82	46.917
564.16	47.608
564.50	47.378
564.84	46.549
565.17	47.000
565.51	46.433
565.85	46.615
566.19	46.832
566.52	48.040
566.86	46.916
567.20	46.438
567.54	45.672
567.88	46.636
568.21	45.850
568.55	45.755
568.89	45.574
569.23	45.078
569.56	44.119
569.90	42.766
570.24	43.103
570.57	42.880
570.91	42.652
571.25	42.031
571.59	42.889
571.92	42.377
572.26	41.874
572.60	42.506
572.93	42.026
573.27	42.540
573.61	42.086
573.95	41.758
574.28	41.252
574.62	40.973
574.96	40.318
575.29	40.868
575.63	41.187
575.97	41.533
576.30	41.081
576.64	41.589
576.98	40.683
577.31	41.174
577.65	41.292
577.98	40.192
578.32	40.118
578.66	40.313
578.99	41.204
579.33	41.485
579.67	40.979
580.00	40.503
580.34	40.860
580.67	40.622
581.01	40.848
581.35	40.756
581.68	40.000
582.02	39.821
582.35	40.513
582.69	40.763
583.02	40.759
583.36	41.343
583.70	41.150
584.03	41.565
584.37	41.767
584.70	41.149
585.04	41.153
585.37	40.764
585.71	40.410
586.04	40.599
586.38	40.738
586.72	41.113
587.05	41.161
587.39	40.888
587.72	41.172
588.06	40.643
588.39	41.200
588.73	41.429
589.06	41.281
589.40	41.795
589.73	42.063
590.07	42.009
590.40	42.461
590.73	42.418
591.07	43.596
591.40	42.652
591.74	42.488
592.07	42.509
592.41	42.390
592.74	42.208
593.08	41.752
593.41	41.966
593.75	40.632
594.08	42.169
594.41	42.564
594.75	41.182
595.08	42.429
595.42	42.013
595.75	41.621
596.09	41.986
596.42	42.673
596.75	42.686
597.09	43.838
597.42	41.875
597.75	42.258
598.09	42.103
598.42	42.581
598.76	41.039
599.09	41.082
599.42	40.697
599.76	41.400
600.09	41.675
600.42	40.908
600.76	41.942
601.09	41.221
601.42	40.748
601.76	41.310
602.09	42.102
602.42	41.730
602.76	40.923
603.09	41.043
603.42	41.438
603.76	41.931
604.09	41.448
604.42	41.908
604.76	41.781
605.09	41.524
605.42	41.906
605.75	41.000
606.09	40.873
606.42	40.970
606.75	41.342
607.09	41.244
607.42	40.771
607.75	42.517
608.08	41.436
608.42	41.274
608.75	42.371
609.08	41.256
609.41	41.553
609.75	41.964
610.08	43.140
610.41	41.334
610.74	41.681
611.07	41.652
611.41	41.973
611.74	43.372
612.07	42.496
612.40	42.253
612.73	42.200
613.07	42.592
613.40	42.252
613.73	43.187
614.06	42.493
614.39	41.011
614.72	40.660
615.06	41.675
615.39	41.179
615.72	41.232
616.05	41.719
616.38	42.987
616.71	41.954
617.05	41.640
617.38	41.627
617.71	43.089
618.04	42.795
618.37	42.459
618.70	43.891
619.03	43.548
619.36	43.033
619.69	44.202
620.03	42.687
620.36	41.902
620.69	43.800
621.02	43.832
621.35	45.210
621.68	44.252
622.01	44.911
622.34	43.794
622.67	43.093
623.00	42.848
623.33	43.928
623.66	44.358
623.99	44.042
624.32	43.730
624.65	43.565
624.99	43.758
625.32	44.024
625.65	44.572
625.98	43.458
626.31	44.153
626.64	44.689
626.97	45.311
627.30	44.495
627.63	44.336
627.96	44.745
628.29	45.759
628.62	46.432
628.95	45.925
629.28	45.540
629.61	45.286
629.94	45.188
630.26	45.339
630.59	43.523
630.92	44.848
631.25	46.959
631.58	48.682
631.91	46.017
632.24	46.302
632.57	46.869
632.90	46.740
633.23	47.245
633.56	46.837
633.89	45.351
634.22	47.713
634.55	48.434
634.88	47.186
635.20	48.224
635.53	48.814
635.86	47.346
636.19	47.826
636.52	45.253
636.85	45.046
637.18	45.218
637.51	46.022
637.83	47.951
