SpectraSuite Data File
++++++++++++++++++++++++++++++++++++
Date: Thu May 14 16:42:13 PDT 2015
User: schluterlab
Dark Spectrum Present: Yes
Reference Spectrum Present: Yes
Number of Sampled Component Spectra: 1
Spectrometers: USB2E3373
Integration Time (usec): 3000 (USB2E3373)
Spectra Averaged: 3 (USB2E3373)
Boxcar Smoothing: 0 (USB2E3373)
Correct for Electrical Dark: No (USB2E3373)
Strobe/Lamp Enabled: No (USB2E3373)
Correct for Detector Non-linearity: No (USB2E3373)
Correct for Stray Light: No (USB2E3373)
Number of Pixels in Processed Spectrum: 2048
>>>>>Begin Processed Spectral Data<<<<<
178.53	0.000
178.91	14.286
179.29	-200.000
179.67	200.000
180.04	92.857
180.42	-30.000
180.80	160.000
181.18	-400.000
181.56	200.000
181.94	-125.000
182.31	225.000
182.69	-0.000
183.07	50.000
183.45	225.000
183.83	-66.667
184.20	-66.667
184.58	500.000
184.96	-200.000
185.34	33.333
185.72	40.000
186.09	111.111
186.47	-250.000
186.85	200.000
187.23	-44.444
187.61	-400.000
187.98	-20.000
188.36	225.000
188.74	0.000
189.12	66.667
189.49	6.250
189.87	-137.500
190.25	0.000
190.63	100.000
191.00	-100.000
191.38	0.000
191.76	0.000
192.14	-16.667
192.51	550.000
192.89	216.667
193.27	0.000
193.65	100.000
194.02	-1000.000
194.40	142.857
194.78	-0.000
195.15	0.000
195.53	81.818
195.91	0.000
196.29	250.000
196.66	15.385
197.04	-700.000
197.42	-142.857
197.79	-600.000
198.17	-62.500
198.55	-157.143
198.92	88.889
199.30	-25.000
199.68	45.455
200.05	14.286
200.43	-250.000
200.81	185.714
201.18	0.000
201.56	-0.000
201.94	0.000
202.31	200.000
202.69	-55.556
203.07	600.000
203.44	0.000
203.82	-250.000
204.19	-8.333
204.57	-133.333
204.95	-37.500
205.32	-700.000
205.70	100.000
206.08	100.000
206.45	33.333
206.83	160.000
207.20	-116.667
207.58	-180.000
207.96	-33.333
208.33	66.667
208.71	33.333
209.08	83.333
209.46	0.000
209.84	166.667
210.21	-100.000
210.59	-350.000
210.96	433.333
211.34	175.000
211.71	-62.500
212.09	-700.000
212.46	0.000
212.84	650.000
213.22	-60.000
213.59	100.000
213.97	0.000
214.34	-33.333
214.72	16.667
215.09	100.000
215.47	0.000
215.84	28.571
216.22	650.000
216.59	-20.000
216.97	-40.000
217.34	-100.000
217.72	75.000
218.09	-150.000
218.47	-200.000
218.84	0.000
219.22	40.000
219.59	11.765
219.97	40.000
220.34	550.000
220.72	-22.222
221.09	61.538
221.47	-133.333
221.84	-10.000
222.22	-100.000
222.59	0.000
222.97	137.500
223.34	60.000
223.72	100.000
224.09	-125.000
224.46	0.000
224.84	200.000
225.21	-42.857
225.59	-300.000
225.96	-75.000
226.34	26.923
226.71	150.000
227.08	-50.000
227.46	66.667
227.83	-100.000
228.21	31.579
228.58	87.500
228.95	-0.000
229.33	-83.333
229.70	50.000
230.08	47.368
230.45	-0.000
230.82	33.333
231.20	-28.571
231.57	25.000
231.95	18.182
232.32	36.364
232.69	35.000
233.07	-25.000
233.44	-17.647
233.81	-10.000
234.19	83.333
234.56	9.091
234.93	55.172
235.31	57.895
235.68	22.222
236.05	-45.000
236.43	11.538
236.80	40.000
237.17	33.333
237.55	-9.091
237.92	-60.000
238.29	32.258
238.67	4.545
239.04	25.000
239.41	-9.524
239.79	0.000
240.16	5.556
240.53	-13.043
240.91	-5.882
241.28	13.115
241.65	22.388
242.02	8.108
242.40	-12.308
242.77	-2.667
243.14	-12.195
243.51	-19.737
243.89	-12.821
244.26	4.950
244.63	0.000
245.00	3.738
245.38	-2.632
245.75	-5.310
246.12	7.143
246.49	-2.326
246.87	5.000
247.24	3.974
247.61	7.895
247.98	2.013
248.36	-3.704
248.73	-5.521
249.10	6.557
249.47	7.463
249.84	9.424
250.22	1.036
250.59	2.222
250.96	7.727
251.33	-6.122
251.70	4.274
252.08	3.750
252.45	2.459
252.82	-3.719
253.19	1.172
253.56	3.042
253.94	0.385
254.31	2.273
254.68	2.098
255.05	3.583
255.42	2.041
255.79	1.618
256.16	-0.331
256.54	-2.649
256.91	-1.311
257.28	-2.623
257.65	-0.955
258.02	-0.295
258.39	2.849
258.76	3.058
259.14	3.448
259.51	1.153
259.88	-0.567
260.25	1.944
260.62	0.000
260.99	3.005
261.36	4.826
261.73	3.183
262.10	-0.549
262.47	0.804
262.85	5.051
263.22	0.260
263.59	-1.842
263.96	0.767
264.33	-0.256
264.70	-0.988
265.07	2.387
265.44	2.721
265.81	1.852
266.18	2.041
266.55	0.893
266.92	-0.228
267.29	3.939
267.66	0.222
268.03	1.747
268.40	0.626
268.77	-0.683
269.14	-1.982
269.51	0.658
269.88	3.279
270.25	0.604
270.62	1.477
270.99	5.253
271.36	3.168
271.73	2.161
272.10	2.405
272.47	0.200
272.84	1.606
273.21	3.006
273.58	2.016
273.95	2.115
274.32	0.570
274.69	0.000
275.06	2.198
275.43	1.664
275.80	1.587
276.17	1.852
276.54	1.679
276.91	-0.358
277.28	2.532
277.65	0.898
278.02	1.471
278.39	1.087
278.76	-0.351
279.13	-0.887
279.50	1.546
279.87	0.894
280.23	-0.880
280.60	1.356
280.97	2.961
281.34	0.849
281.71	3.215
282.08	1.329
282.45	0.164
282.82	-0.157
283.19	-1.616
283.56	0.164
283.92	1.351
284.29	3.160
284.66	1.478
285.03	0.801
285.40	1.391
285.77	-0.464
286.14	1.679
286.51	3.196
286.87	0.632
287.24	0.602
287.61	0.598
287.98	-0.755
288.35	0.592
288.72	-0.296
289.08	2.782
289.45	1.331
289.82	1.054
290.19	0.575
290.56	3.099
290.93	-0.285
291.29	1.102
291.66	0.413
292.03	0.543
292.40	1.905
292.77	1.617
293.13	1.083
293.50	1.445
293.87	1.074
294.24	2.533
294.60	3.161
294.97	-0.537
295.34	3.329
295.71	1.387
296.08	1.163
296.44	1.838
296.81	1.218
297.18	1.868
297.55	0.354
297.91	1.779
298.28	0.829
298.65	2.497
299.02	0.945
299.38	2.288
299.75	2.453
300.12	1.273
300.48	2.304
300.85	2.250
301.22	1.902
301.59	2.511
301.95	2.260
302.32	3.222
302.69	1.862
303.05	3.156
303.42	1.996
303.79	2.604
304.15	1.998
304.52	2.431
304.89	2.618
305.25	3.416
305.62	1.567
305.99	3.093
306.35	3.629
306.72	3.309
307.09	3.249
307.45	4.141
307.82	2.422
308.19	3.128
308.55	3.761
308.92	2.629
309.29	4.119
309.65	3.411
310.02	2.871
310.38	4.035
310.75	3.786
311.12	5.177
311.48	3.421
311.85	3.609
312.22	4.080
312.58	4.977
312.95	5.736
313.31	5.781
313.68	6.319
314.05	7.317
314.41	7.559
314.78	6.630
315.14	8.348
315.51	7.664
315.87	9.181
316.24	9.041
316.61	10.124
316.97	8.597
317.34	10.141
317.70	11.528
318.07	10.670
318.43	11.735
318.80	13.462
319.16	12.361
319.53	12.425
319.89	14.023
320.26	15.125
320.62	15.603
320.99	15.235
321.35	15.989
321.72	17.953
322.08	19.297
322.45	18.790
322.81	19.946
323.18	21.062
323.54	22.069
323.91	23.577
324.27	23.580
324.64	25.021
325.00	24.129
325.37	26.208
325.73	27.025
326.10	27.413
326.46	29.805
326.83	31.145
327.19	30.236
327.56	31.700
327.92	29.976
328.29	32.097
328.65	33.417
329.01	34.602
329.38	35.131
329.74	38.014
330.11	35.702
330.47	37.152
330.84	36.348
331.20	38.250
331.56	38.128
331.93	41.004
332.29	39.407
332.66	40.449
333.02	38.945
333.38	40.185
333.75	39.899
334.11	41.118
334.48	41.997
334.84	42.991
335.20	41.310
335.57	44.013
335.93	42.562
336.29	41.847
336.66	42.725
337.02	44.314
337.38	44.218
337.75	44.298
338.11	44.912
338.47	45.327
338.84	45.008
339.20	44.145
339.56	44.069
339.93	45.156
340.29	44.203
340.65	44.688
341.02	46.608
341.38	45.028
341.74	44.471
342.11	45.294
342.47	45.115
342.83	47.101
343.20	46.525
343.56	47.153
343.92	47.398
344.28	46.797
344.65	47.519
345.01	46.412
345.37	46.345
345.73	47.233
346.10	47.036
346.46	46.677
346.82	47.041
347.19	48.587
347.55	46.965
347.91	49.629
348.27	48.483
348.63	47.601
349.00	47.875
349.36	49.219
349.72	46.875
350.08	48.366
350.45	49.734
350.81	49.095
351.17	48.872
351.53	50.796
351.89	48.823
352.26	48.657
352.62	49.776
352.98	47.863
353.34	47.573
353.70	49.538
354.07	50.149
354.43	51.025
354.79	50.411
355.15	49.522
355.51	50.658
355.87	48.915
356.24	50.494
356.60	49.150
356.96	50.630
357.32	49.517
357.68	50.073
358.04	49.775
358.40	51.119
358.77	49.708
359.13	51.329
359.49	50.632
359.85	49.819
360.21	49.426
360.57	50.108
360.93	50.917
361.29	50.035
361.66	49.891
362.02	51.218
362.38	51.160
362.74	51.187
363.10	51.719
363.46	51.316
363.82	51.349
364.18	51.795
364.54	51.521
364.90	51.304
365.26	52.207
365.62	51.867
365.98	50.987
366.35	52.148
366.71	52.177
367.07	50.474
367.43	50.492
367.79	51.758
368.15	51.505
368.51	51.827
368.87	50.490
369.23	51.733
369.59	52.869
369.95	52.468
370.31	52.127
370.67	52.407
371.03	50.970
371.39	51.511
371.75	51.513
372.11	51.355
372.47	51.049
372.83	52.094
373.19	50.901
373.55	51.965
373.91	50.852
374.27	51.358
374.63	52.233
374.99	51.459
375.35	51.883
375.71	51.677
376.07	51.582
376.42	51.071
376.78	51.958
377.14	51.653
377.50	52.688
377.86	52.217
378.22	51.497
378.58	52.973
378.94	51.585
379.30	50.674
379.66	52.557
380.02	51.760
380.38	52.707
380.74	50.986
381.09	51.220
381.45	50.682
381.81	51.698
382.17	52.078
382.53	51.170
382.89	51.185
383.25	51.407
383.61	51.968
383.97	50.353
384.32	53.050
384.68	50.812
385.04	52.169
385.40	52.387
385.76	50.821
386.12	51.107
386.48	51.176
386.83	51.847
387.19	51.217
387.55	51.467
387.91	50.970
388.27	51.905
388.62	49.943
388.98	50.254
389.34	51.090
389.70	51.772
390.06	49.911
390.42	50.482
390.77	50.452
391.13	49.237
391.49	50.966
391.85	50.424
392.20	50.771
392.56	50.797
392.92	50.382
393.28	50.304
393.64	49.665
393.99	49.622
394.35	50.409
394.71	49.102
395.07	48.982
395.42	49.515
395.78	49.543
396.14	49.317
396.50	47.803
396.85	48.778
397.21	48.639
397.57	49.823
397.92	49.198
398.28	47.637
398.64	47.769
399.00	47.749
399.35	47.592
399.71	48.533
400.07	48.007
400.42	47.788
400.78	48.206
401.14	47.638
401.49	49.176
401.85	48.023
402.21	48.204
402.57	48.533
402.92	47.045
403.28	45.609
403.63	48.389
403.99	46.971
404.35	45.651
404.70	46.119
405.06	46.522
405.42	46.077
405.77	46.783
406.13	46.569
406.49	46.791
406.84	45.983
407.20	46.451
407.55	46.699
407.91	45.506
408.27	45.995
408.62	45.143
408.98	45.212
409.34	46.804
409.69	45.735
410.05	45.487
410.40	45.186
410.76	45.429
411.11	44.594
411.47	46.560
411.83	44.856
412.18	45.482
412.54	43.865
412.89	43.772
413.25	44.018
413.60	43.768
413.96	44.988
414.31	43.399
414.67	44.425
415.03	44.246
415.38	44.704
415.74	43.433
416.09	44.725
416.45	42.329
416.80	43.146
417.16	43.103
417.51	42.653
417.87	42.673
418.22	42.934
418.58	42.317
418.93	43.132
419.29	43.403
419.64	41.657
420.00	42.967
420.35	42.617
420.71	41.758
421.06	42.151
421.42	42.489
421.77	41.088
422.12	41.543
422.48	40.604
422.83	42.388
423.19	41.432
423.54	41.648
423.90	41.137
424.25	42.347
424.61	40.758
424.96	42.010
425.31	40.499
425.67	39.828
426.02	40.730
426.38	40.069
426.73	41.016
427.09	41.061
427.44	40.087
427.79	40.520
428.15	40.354
428.50	40.449
428.85	39.610
429.21	40.372
429.56	39.585
429.92	39.263
430.27	39.470
430.62	39.766
430.98	39.793
431.33	38.416
431.68	38.937
432.04	38.649
432.39	38.779
432.74	39.441
433.10	39.373
433.45	38.294
433.80	39.431
434.16	38.688
434.51	38.386
434.86	39.631
435.22	39.692
435.57	39.505
435.92	38.731
436.28	39.192
436.63	39.050
436.98	37.896
437.34	37.204
437.69	37.039
438.04	36.859
438.39	37.507
438.75	37.742
439.10	38.795
439.45	37.842
439.81	36.949
440.16	36.032
440.51	37.402
440.86	37.132
441.22	37.138
441.57	36.950
441.92	37.391
442.27	37.525
442.63	36.264
442.98	37.193
443.33	36.507
443.68	37.017
444.03	37.535
444.39	36.801
444.74	36.600
445.09	36.138
445.44	36.881
445.79	36.015
446.15	36.845
446.50	35.556
446.85	36.527
447.20	36.219
447.55	35.565
447.91	34.921
448.26	34.831
448.61	34.963
448.96	36.320
449.31	36.373
449.66	35.458
450.02	34.652
450.37	35.003
450.72	34.392
451.07	35.308
451.42	34.720
451.77	34.297
452.12	35.158
452.47	34.759
452.83	34.403
453.18	34.442
453.53	34.061
453.88	33.904
454.23	34.576
454.58	34.475
454.93	34.648
455.28	34.557
455.63	34.338
455.98	34.302
456.34	33.039
456.69	32.687
457.04	34.397
457.39	32.816
457.74	33.949
458.09	32.894
458.44	32.920
458.79	33.161
459.14	33.246
459.49	33.447
459.84	32.267
460.19	31.871
460.54	32.084
460.89	32.663
461.24	32.529
461.59	32.374
461.94	32.345
462.29	31.915
462.64	31.744
462.99	31.890
463.34	32.382
463.69	32.005
464.04	31.573
464.39	31.222
464.74	31.414
465.09	31.373
465.44	30.740
465.79	31.306
466.14	30.172
466.49	29.947
466.84	30.634
467.19	30.694
467.54	29.906
467.89	29.483
468.24	30.637
468.59	29.184
468.94	28.497
469.29	29.334
469.64	29.625
469.99	30.529
470.34	29.827
470.68	29.050
471.03	29.862
471.38	30.216
471.73	28.609
472.08	29.695
472.43	29.380
472.78	28.463
473.13	28.824
473.48	29.789
473.83	29.483
474.17	29.015
474.52	28.743
474.87	28.516
475.22	28.225
475.57	28.089
475.92	27.526
476.27	27.157
476.61	27.985
476.96	27.842
477.31	27.228
477.66	28.227
478.01	27.504
478.36	27.368
478.70	27.438
479.05	28.528
479.40	27.295
479.75	26.993
480.10	27.333
480.45	26.937
480.79	26.939
481.14	26.057
481.49	26.352
481.84	26.327
482.19	26.366
482.53	26.366
482.88	27.249
483.23	26.234
483.58	25.764
483.92	25.399
484.27	26.080
484.62	25.083
484.97	25.661
485.31	24.886
485.66	23.900
486.01	23.786
486.36	23.925
486.70	24.839
487.05	25.079
487.40	25.656
487.75	24.885
488.09	25.472
488.44	24.445
488.79	24.924
489.13	24.511
489.48	24.466
489.83	24.346
490.17	24.099
490.52	24.631
490.87	24.154
491.22	24.567
491.56	24.531
491.91	24.509
492.26	23.799
492.60	24.049
492.95	24.265
493.30	24.563
493.64	24.398
493.99	24.298
494.34	22.997
494.68	23.726
495.03	23.744
495.37	23.480
495.72	23.084
496.07	23.926
496.41	23.123
496.76	23.686
497.11	24.076
497.45	23.220
497.80	23.456
498.14	23.039
498.49	22.748
498.84	23.309
499.18	22.852
499.53	23.004
499.87	22.901
500.22	22.618
500.56	23.437
500.91	22.654
501.26	23.409
501.60	21.962
501.95	21.667
502.29	22.510
502.64	23.043
502.98	22.174
503.33	21.944
503.67	21.980
504.02	21.673
504.36	21.805
504.71	22.462
505.06	22.192
505.40	22.441
505.75	21.812
506.09	22.330
506.44	22.052
506.78	21.927
507.13	21.761
507.47	22.454
507.82	22.064
508.16	21.080
508.51	21.566
508.85	21.068
509.19	21.222
509.54	21.710
509.88	21.612
510.23	21.515
510.57	21.508
510.92	20.803
511.26	21.164
511.61	21.053
511.95	20.791
512.30	21.369
512.64	21.239
512.98	20.760
513.33	20.968
513.67	20.551
514.02	21.564
514.36	21.125
514.70	20.990
515.05	19.969
515.39	20.367
515.74	21.050
516.08	21.078
516.42	21.193
516.77	20.242
517.11	20.165
517.46	21.050
517.80	20.631
518.14	20.022
518.49	20.282
518.83	20.969
519.17	20.032
519.52	20.755
519.86	20.222
520.20	20.447
520.55	19.770
520.89	20.158
521.23	20.547
521.58	19.096
521.92	20.227
522.26	18.671
522.61	20.891
522.95	20.185
523.29	20.230
523.64	19.395
523.98	18.654
524.32	20.860
524.66	19.977
525.01	18.516
525.35	19.644
525.69	19.142
526.04	19.518
526.38	20.057
526.72	19.146
527.06	19.413
527.41	19.650
527.75	20.131
528.09	19.894
528.43	19.301
528.78	18.902
529.12	19.209
529.46	18.044
529.80	18.879
530.15	18.609
530.49	18.031
530.83	19.008
531.17	18.578
531.51	17.750
531.86	18.990
532.20	19.146
532.54	18.372
532.88	18.485
533.22	18.739
533.57	17.773
533.91	17.845
534.25	18.033
534.59	18.563
534.93	17.714
535.27	17.746
535.62	18.533
535.96	18.652
536.30	18.508
536.64	18.859
536.98	17.712
537.32	18.086
537.66	18.653
538.01	17.644
538.35	17.052
538.69	18.510
539.03	18.026
539.37	17.373
539.71	18.138
540.05	18.345
540.39	17.054
540.73	16.758
541.07	18.332
541.42	17.543
541.76	17.023
542.10	17.491
542.44	16.687
542.78	17.822
543.12	17.580
543.46	17.155
543.80	16.427
544.14	18.133
544.48	16.903
544.82	17.475
545.16	16.458
545.50	17.256
545.84	16.718
546.18	17.160
546.52	16.561
546.86	16.918
547.20	17.239
547.54	16.604
547.88	16.697
548.22	15.380
548.56	16.208
548.90	16.776
549.24	16.474
549.58	15.962
549.92	15.497
550.26	17.411
550.60	16.592
550.94	16.365
551.28	17.294
551.62	16.509
551.96	16.246
552.30	16.252
552.64	15.744
552.98	15.970
553.32	15.884
553.66	16.399
554.00	16.583
554.34	16.345
554.68	15.752
555.02	15.966
555.36	16.108
555.69	15.823
556.03	14.817
556.37	16.521
556.71	15.726
557.05	16.613
557.39	15.926
557.73	15.588
558.07	15.695
558.41	17.143
558.75	15.619
559.08	16.075
559.42	15.912
559.76	17.368
560.10	14.534
560.44	15.567
560.78	16.188
561.12	15.764
561.45	15.998
561.79	16.056
562.13	15.342
562.47	14.180
562.81	14.747
563.15	14.899
563.48	16.283
563.82	15.115
564.16	14.779
564.50	15.256
564.84	14.572
565.17	15.294
565.51	14.845
565.85	14.846
566.19	14.055
566.52	15.448
566.86	14.658
567.20	14.356
567.54	14.923
567.88	15.138
568.21	14.476
568.55	14.436
568.89	14.344
569.23	13.561
569.56	13.716
569.90	14.148
570.24	14.064
570.57	13.342
570.91	13.227
571.25	13.451
571.59	13.777
571.92	13.326
572.26	13.182
572.60	12.995
572.93	13.471
573.27	13.515
573.61	13.526
573.95	13.207
574.28	13.315
574.62	13.188
574.96	12.947
575.29	12.580
575.63	13.121
575.97	13.293
576.30	12.682
576.64	12.837
576.98	13.030
577.31	12.790
577.65	13.042
577.98	12.839
578.32	12.337
578.66	12.853
578.99	12.554
579.33	12.539
579.67	12.942
580.00	12.744
580.34	12.740
580.67	12.467
581.01	12.657
581.35	12.507
581.68	12.493
582.02	12.541
582.35	12.545
582.69	12.692
583.02	12.409
583.36	12.857
583.70	12.656
584.03	12.743
584.37	13.034
584.70	12.445
585.04	12.648
585.37	12.483
585.71	12.492
586.04	12.395
586.38	11.931
586.72	11.833
587.05	12.024
587.39	12.441
587.72	12.273
588.06	12.186
588.39	12.397
588.73	12.302
589.06	12.387
589.40	11.985
589.73	12.725
590.07	12.434
590.40	13.016
590.73	12.867
591.07	12.770
591.40	12.286
591.74	12.440
592.07	12.830
592.41	12.539
592.74	12.531
593.08	12.739
593.41	12.307
593.75	12.385
594.08	12.420
594.41	12.885
594.75	12.388
595.08	12.180
595.42	11.721
595.75	12.496
596.09	12.064
596.42	12.075
596.75	12.042
597.09	12.727
597.42	12.515
597.75	12.662
598.09	12.619
598.42	13.148
598.76	12.075
599.09	12.389
599.42	11.800
599.76	11.819
600.09	12.045
600.42	12.012
600.76	12.219
601.09	11.882
601.42	11.603
601.76	12.345
602.09	12.116
602.42	11.596
602.76	12.177
603.09	12.041
603.42	12.319
603.76	11.663
604.09	12.349
604.42	12.367
604.76	11.682
605.09	12.166
605.42	12.002
605.75	11.923
606.09	11.497
606.42	11.675
606.75	11.582
607.09	11.444
607.42	12.331
607.75	12.114
608.08	11.484
608.42	11.810
608.75	11.774
609.08	11.630
609.41	11.778
609.75	11.964
610.08	11.961
610.41	12.065
610.74	11.891
611.07	11.679
611.41	12.422
611.74	12.564
612.07	11.968
612.40	11.882
612.73	11.394
613.07	12.078
613.40	11.453
613.73	11.700
614.06	11.629
614.39	11.905
614.72	12.082
615.06	12.079
615.39	11.213
615.72	11.564
616.05	11.753
616.38	12.412
616.71	12.278
617.05	11.874
617.38	12.948
617.71	12.149
618.04	12.574
618.37	12.077
618.70	11.821
619.03	11.947
619.36	11.591
619.69	12.300
620.03	11.174
620.36	11.104
620.69	12.153
621.02	12.205
621.35	12.482
621.68	13.304
622.01	11.459
622.34	11.437
622.67	12.509
623.00	10.526
623.33	11.745
623.66	12.581
623.99	12.113
624.32	13.255
624.65	11.068
624.99	11.313
625.32	12.410
625.65	12.677
625.98	11.254
626.31	12.970
626.64	12.381
626.97	11.178
627.30	11.617
627.63	11.703
627.96	12.462
628.29	11.673
628.62	11.755
628.95	11.394
629.28	11.725
629.61	12.710
629.94	11.883
630.26	11.356
630.59	12.176
630.92	12.208
631.25	12.433
631.58	12.335
631.91	11.996
632.24	11.527
632.57	13.283
632.90	12.638
633.23	12.551
633.56	12.551
633.89	13.326
634.22	12.162
634.55	13.257
634.88	12.662
635.20	12.917
635.53	11.977
635.86	12.459
636.19	13.892
636.52	12.447
636.85	11.849
637.18	11.954
637.51	12.473
637.83	13.511
