SpectraSuite Data File
++++++++++++++++++++++++++++++++++++
Date: Thu May 14 15:54:30 PDT 2015
User: schluterlab
Dark Spectrum Present: Yes
Reference Spectrum Present: Yes
Number of Sampled Component Spectra: 1
Spectrometers: USB2E3373
Integration Time (usec): 3000 (USB2E3373)
Spectra Averaged: 3 (USB2E3373)
Boxcar Smoothing: 0 (USB2E3373)
Correct for Electrical Dark: No (USB2E3373)
Strobe/Lamp Enabled: No (USB2E3373)
Correct for Detector Non-linearity: No (USB2E3373)
Correct for Stray Light: No (USB2E3373)
Number of Pixels in Processed Spectrum: 2048
>>>>>Begin Processed Spectral Data<<<<<
178.53	0.000
178.91	457.143
179.29	-3800.000
179.67	-3500.000
180.04	342.857
180.42	320.000
180.80	640.000
181.18	-3700.000
181.56	-3500.000
181.94	825.000
182.31	-850.000
182.69	1000.000
183.07	-1350.000
183.45	925.000
183.83	-466.667
184.20	-1066.667
184.58	3100.000
184.96	-1000.000
185.34	-411.111
185.72	-620.000
186.09	466.667
186.47	2100.000
186.85	840.000
187.23	-455.556
187.61	-4200.000
187.98	740.000
188.36	925.000
188.74	-875.000
189.12	-1200.000
189.49	-162.500
189.87	-325.000
190.25	-377.778
190.63	-660.000
191.00	-500.000
191.38	0.000
191.76	-850.000
192.14	-566.667
192.51	1600.000
192.89	-466.667
193.27	0.000
193.65	-371.429
194.02	-4700.000
194.40	-514.286
194.78	471.429
195.15	0.000
195.53	-200.000
195.91	0.000
196.29	-800.000
196.66	-207.692
197.04	-4200.000
197.42	-471.429
197.79	-1850.000
198.17	-475.000
198.55	-500.000
198.92	-377.778
199.30	-450.000
199.68	-209.091
200.05	-228.571
200.43	-1750.000
200.81	571.429
201.18	0.000
201.56	566.667
201.94	0.000
202.31	1366.667
202.69	-433.333
203.07	3200.000
203.44	-277.778
203.82	-650.000
204.19	-191.667
204.57	-566.667
204.95	-412.500
205.32	-3600.000
205.70	875.000
206.08	-566.667
206.45	-650.000
206.83	920.000
207.20	-683.333
207.58	-640.000
207.96	-616.667
208.33	-483.333
208.71	308.333
209.08	-400.000
209.46	0.000
209.84	666.667
210.21	1600.000
210.59	2100.000
210.96	1433.333
211.34	-650.000
211.71	-425.000
212.09	-3900.000
212.46	0.000
212.84	1950.000
213.22	-700.000
213.59	-975.000
213.97	-280.000
214.34	-1133.333
214.72	683.333
215.09	-975.000
215.47	0.000
215.84	471.429
216.22	2000.000
216.59	-620.000
216.97	-620.000
217.34	-825.000
217.72	-362.500
218.09	-875.000
218.47	-825.000
218.84	0.000
219.22	600.000
219.59	-205.882
219.97	-160.000
220.34	1750.000
220.72	-455.556
221.09	-284.615
221.47	-1100.000
221.84	-320.000
222.22	-542.857
222.59	0.000
222.97	-250.000
223.34	-740.000
223.72	-2700.000
224.09	-850.000
224.46	-975.000
224.84	-520.000
225.21	-542.857
225.59	-1025.000
225.96	-1000.000
226.34	-92.308
226.71	666.667
227.08	-1900.000
227.46	-233.333
227.83	-800.000
228.21	-168.421
228.58	550.000
228.95	1650.000
229.33	-283.333
229.70	-230.000
230.08	-110.526
230.45	390.000
230.82	-1166.667
231.20	-200.000
231.57	-208.333
231.95	-318.182
232.32	-272.727
232.69	-145.000
233.07	-750.000
233.44	-188.235
233.81	-400.000
234.19	-138.889
234.56	-127.273
234.93	-93.103
235.31	-131.579
235.68	-172.222
236.05	-185.000
236.43	-76.923
236.80	-64.000
237.17	-122.222
237.55	-75.758
237.92	-370.000
238.29	-93.548
238.67	-61.364
239.04	-61.111
239.41	-45.238
239.79	-54.348
240.16	-50.000
240.53	-41.304
240.91	-54.902
241.28	-34.426
241.65	-26.866
242.02	-10.811
242.40	-26.154
242.77	-24.000
243.14	-31.707
243.51	-39.474
243.89	-26.923
244.26	-13.861
244.63	-7.843
245.00	-16.822
245.38	-13.158
245.75	-21.239
246.12	-3.175
246.49	-14.729
246.87	-2.143
247.24	-5.298
247.61	1.974
247.98	-5.369
248.36	-3.704
248.73	-3.067
249.10	-5.464
249.47	4.975
249.84	3.141
250.22	1.036
250.59	-3.889
250.96	3.636
251.33	-3.061
251.70	6.410
252.08	6.250
252.45	4.918
252.82	3.719
253.19	1.953
253.56	3.042
253.94	3.462
254.31	6.061
254.68	5.594
255.05	7.166
255.42	5.782
255.79	4.531
256.16	5.629
256.54	6.291
256.91	8.197
257.28	5.246
257.65	4.140
258.02	2.655
258.39	7.407
258.76	7.034
259.14	8.908
259.51	6.916
259.88	8.499
260.25	7.778
260.62	10.685
260.99	9.836
261.36	9.115
261.73	6.101
262.10	6.319
262.47	8.311
262.85	8.586
263.22	5.974
263.59	4.737
263.96	7.417
264.33	6.394
264.70	11.358
265.07	12.172
265.44	12.018
265.81	7.639
266.18	9.297
266.55	12.054
266.92	7.062
267.29	11.160
267.66	10.200
268.03	10.917
268.40	9.812
268.77	10.934
269.14	7.489
269.51	9.430
269.88	10.451
270.25	9.859
270.62	9.072
270.99	9.899
271.36	10.099
271.73	9.823
272.10	12.024
272.47	9.018
272.84	9.237
273.21	8.818
273.58	10.081
273.95	9.231
274.32	8.745
274.69	9.671
275.06	9.890
275.43	9.982
275.80	11.464
276.17	10.370
276.54	10.634
276.91	10.197
277.28	9.403
277.65	13.285
278.02	8.456
278.39	7.971
278.76	10.721
279.13	9.929
279.50	11.684
279.87	8.766
280.23	6.690
280.60	11.864
280.97	8.882
281.34	9.168
281.71	11.506
282.08	9.302
282.45	9.984
282.82	8.634
283.19	9.855
283.56	9.016
283.92	9.760
284.29	10.900
284.66	11.987
285.03	9.135
285.40	11.283
285.77	9.598
286.14	11.450
286.51	10.198
286.87	10.269
287.24	10.693
287.61	10.912
287.98	9.819
288.35	11.538
288.72	10.799
289.08	9.517
289.45	8.728
289.82	9.639
290.19	8.621
290.56	9.859
290.93	10.128
291.29	10.331
291.66	9.780
292.03	9.227
292.40	11.565
292.77	7.682
293.13	9.743
293.50	9.724
293.87	8.859
294.24	9.200
294.60	9.355
294.97	8.322
295.34	9.347
295.71	7.818
296.08	8.527
296.44	8.701
296.81	8.770
297.18	9.215
297.55	8.844
297.91	9.490
298.28	9.479
298.65	8.680
299.02	8.146
299.38	9.268
299.75	8.178
300.12	8.681
300.48	8.871
300.85	7.649
301.22	9.060
301.59	7.763
301.95	9.040
302.32	9.778
302.69	9.310
303.05	9.140
303.42	9.978
303.79	8.646
304.15	7.571
304.52	8.140
304.89	9.215
305.25	9.006
305.62	7.210
305.99	8.247
306.35	7.964
306.72	9.514
307.09	7.513
307.45	9.110
307.82	7.568
308.19	8.274
308.55	8.293
308.92	8.471
309.29	9.100
309.65	8.577
310.02	8.911
310.38	7.776
310.75	7.961
311.12	9.588
311.48	7.722
311.85	8.547
312.22	7.306
312.58	8.920
312.95	8.317
313.31	7.678
313.68	9.066
314.05	9.304
314.41	8.106
314.78	8.629
315.14	9.165
315.51	8.495
315.87	8.641
316.24	9.680
316.61	8.881
316.97	7.240
317.34	8.554
317.70	8.821
318.07	9.171
318.43	8.588
318.80	10.786
319.16	8.069
319.53	7.883
319.89	8.677
320.26	9.875
320.62	7.801
320.99	8.772
321.35	7.394
321.72	8.837
322.08	7.935
322.45	8.491
322.81	8.213
323.18	8.230
323.54	8.793
323.91	8.363
324.27	8.864
324.64	9.656
325.00	8.209
325.37	9.664
325.73	8.926
326.10	8.840
326.46	9.609
326.83	10.088
327.19	8.425
327.56	8.854
327.92	8.419
328.29	8.871
328.65	8.794
329.01	8.376
329.38	8.762
329.74	9.075
330.11	9.075
330.47	8.762
330.84	7.752
331.20	9.250
331.56	7.886
331.93	7.782
332.29	9.237
332.66	9.302
333.02	9.380
333.38	9.060
333.75	8.586
334.11	8.590
334.48	8.663
334.84	8.411
335.20	8.900
335.57	8.685
335.93	9.587
336.29	8.403
336.66	8.074
337.02	9.114
337.38	9.184
337.75	8.430
338.11	9.251
338.47	8.768
338.84	7.868
339.20	7.245
339.56	9.473
339.93	7.718
340.29	8.293
340.65	8.354
341.02	9.098
341.38	9.620
341.74	8.152
342.11	7.884
342.47	8.261
342.83	8.857
343.20	8.994
343.56	8.180
343.92	8.647
344.28	8.359
344.65	9.457
345.01	8.658
345.37	8.009
345.73	7.794
346.10	9.360
346.46	7.832
346.82	9.288
347.19	8.403
347.55	9.181
347.91	8.767
348.27	7.967
348.63	8.987
349.00	8.799
349.36	8.476
349.72	7.515
350.08	9.138
350.45	7.605
350.81	7.541
351.17	8.647
351.53	9.174
351.89	8.732
352.26	8.209
352.62	8.209
352.98	7.710
353.34	8.215
353.70	7.781
354.07	8.718
354.43	7.821
354.79	7.704
355.15	8.756
355.51	9.357
355.87	8.377
356.24	7.833
356.60	7.465
356.96	7.858
357.32	7.807
357.68	7.394
358.04	7.485
358.40	7.910
358.77	7.749
359.13	7.829
359.49	6.840
359.85	7.397
360.21	8.106
360.57	7.466
360.93	8.039
361.29	8.000
361.66	8.038
362.02	9.116
362.38	7.800
362.74	8.170
363.10	8.666
363.46	8.587
363.82	8.097
364.18	7.882
364.54	8.714
364.90	8.161
365.26	7.241
365.62	8.267
365.98	7.897
366.35	8.456
366.71	8.231
367.07	8.457
367.43	8.076
367.79	8.427
368.15	8.629
368.51	7.510
368.87	8.034
369.23	7.867
369.59	7.582
369.95	7.978
370.31	8.440
370.67	7.565
371.03	8.310
371.39	7.790
371.75	7.978
372.11	8.604
372.47	7.718
372.83	8.312
373.19	8.539
373.55	7.791
373.91	7.226
374.27	8.215
374.63	7.375
374.99	8.090
375.35	8.182
375.71	7.419
376.07	7.682
376.42	7.935
376.78	8.639
377.14	7.860
377.50	7.084
377.86	9.175
378.22	8.683
378.58	8.799
378.94	8.216
379.30	7.850
379.66	7.878
380.02	7.848
380.38	8.180
380.74	8.225
381.09	8.420
381.45	8.693
381.81	8.607
382.17	7.007
382.53	7.836
382.89	8.409
383.25	7.562
383.61	7.465
383.97	6.832
384.32	8.254
384.68	7.947
385.04	8.155
385.40	7.130
385.76	8.089
386.12	7.899
386.48	8.529
386.83	8.343
387.19	7.126
387.55	7.336
387.91	7.934
388.27	7.737
388.62	8.305
388.98	8.347
389.34	7.602
389.70	7.728
390.06	8.526
390.42	8.373
390.77	7.465
391.13	8.040
391.49	8.454
391.85	7.212
392.20	7.711
392.56	7.974
392.92	8.506
393.28	8.402
393.64	6.927
393.99	8.367
394.35	8.061
394.71	8.144
395.07	7.186
395.42	8.338
395.78	7.434
396.14	7.665
396.50	7.720
396.85	8.110
397.21	7.396
397.57	7.067
397.92	8.076
398.28	7.930
398.64	7.551
399.00	7.749
399.35	8.010
399.71	7.663
400.07	7.412
400.42	7.683
400.78	7.118
401.14	8.253
401.49	8.073
401.85	8.081
402.21	8.111
402.57	7.688
402.92	7.920
403.28	8.080
403.63	6.205
403.99	7.363
404.35	7.391
404.70	7.649
405.06	7.935
405.42	8.489
405.77	8.997
406.13	6.861
406.49	7.601
406.84	8.532
407.20	7.993
407.55	7.147
407.91	7.417
408.27	7.656
408.62	8.028
408.98	7.603
409.34	6.921
409.69	7.664
410.05	7.386
410.40	8.643
410.76	8.693
411.11	8.650
411.47	7.740
411.83	8.230
412.18	8.012
412.54	8.417
412.89	7.683
413.25	7.731
413.60	7.754
413.96	7.984
414.31	8.555
414.67	8.229
415.03	8.246
415.38	7.188
415.74	8.125
416.09	7.526
416.45	7.702
416.80	8.140
417.16	7.982
417.51	7.659
417.87	7.848
418.22	8.144
418.58	7.497
418.93	8.556
419.29	8.200
419.64	7.983
420.00	7.181
420.35	8.029
420.71	7.812
421.06	7.476
421.42	8.028
421.77	7.593
422.12	8.721
422.48	7.373
422.83	8.434
423.19	7.745
423.54	7.467
423.90	8.393
424.25	8.693
424.61	7.118
424.96	8.292
425.31	8.068
425.67	8.105
426.02	7.803
426.38	8.266
426.73	7.031
427.09	8.766
427.44	8.465
427.79	7.850
428.15	7.192
428.50	7.809
428.85	8.094
429.21	8.404
429.56	8.687
429.92	8.059
430.27	7.518
430.62	8.451
430.98	8.264
431.33	8.162
431.68	8.046
432.04	7.821
432.39	7.552
432.74	7.763
433.10	8.112
433.45	7.581
433.80	8.208
434.16	8.264
434.51	8.376
434.86	7.926
435.22	8.448
435.57	8.196
435.92	8.069
436.28	8.077
436.63	7.755
436.98	7.890
437.34	7.723
437.69	7.925
438.04	7.774
438.39	7.697
438.75	7.416
439.10	8.404
439.45	8.161
439.81	7.119
440.16	7.507
440.51	8.138
440.86	7.282
441.22	7.717
441.57	8.333
441.92	7.953
442.27	8.182
442.63	8.197
442.98	8.485
443.33	7.628
443.68	8.325
444.03	8.090
444.39	8.738
444.74	8.933
445.09	7.653
445.44	8.535
445.79	8.669
446.15	8.530
446.50	7.855
446.85	8.074
447.20	8.511
447.55	8.421
447.91	7.539
448.26	7.347
448.61	7.651
448.96	8.584
449.31	7.900
449.66	7.952
450.02	8.122
450.37	8.471
450.72	7.966
451.07	7.745
451.42	7.683
451.77	8.560
452.12	7.901
452.47	7.368
452.83	7.714
453.18	7.647
453.53	8.099
453.88	7.454
454.23	8.249
454.58	8.299
454.93	7.828
455.28	8.429
455.63	7.675
455.98	8.045
456.34	7.656
456.69	7.584
457.04	7.447
457.39	8.537
457.74	8.166
458.09	7.468
458.44	8.513
458.79	8.303
459.14	8.285
459.49	8.036
459.84	8.447
460.19	7.551
460.54	7.836
460.89	8.258
461.24	7.701
461.59	9.353
461.94	8.043
462.29	7.783
462.64	7.785
462.99	7.470
463.34	8.177
463.69	7.855
464.04	8.449
464.39	7.904
464.74	7.697
465.09	8.651
465.44	8.745
465.79	8.514
466.14	7.973
466.49	7.737
466.84	8.430
467.19	8.208
467.54	7.697
467.89	7.759
468.24	8.144
468.59	7.412
468.94	8.275
469.29	7.499
469.64	6.993
469.99	7.075
470.34	7.797
470.68	7.724
471.03	7.662
471.38	7.325
471.73	7.737
472.08	7.741
472.43	7.225
472.78	8.249
473.13	7.649
473.48	7.855
473.83	8.822
474.17	8.499
474.52	7.757
474.87	7.863
475.22	7.606
475.57	7.580
475.92	8.462
476.27	7.987
476.61	7.840
476.96	8.081
477.31	8.713
477.66	8.237
478.01	8.541
478.36	8.175
478.70	8.424
479.05	8.129
479.40	8.638
479.75	9.174
480.10	8.716
480.45	8.614
480.79	8.571
481.14	8.088
481.49	8.314
481.84	8.921
482.19	8.602
482.53	8.876
482.88	8.330
483.23	7.915
483.58	7.860
483.92	7.846
484.27	8.171
484.62	8.581
484.97	8.593
485.31	8.166
485.66	8.318
486.01	8.403
486.36	8.648
486.70	9.811
487.05	9.786
487.40	9.310
487.75	9.160
488.09	9.129
488.44	9.032
488.79	9.207
489.13	8.436
489.48	7.922
489.83	8.008
490.17	8.303
490.52	8.333
490.87	8.799
491.22	8.406
491.56	8.106
491.91	8.286
492.26	8.395
492.60	8.789
492.95	8.425
493.30	7.844
493.64	8.454
493.99	8.728
494.34	8.449
494.68	7.923
495.03	8.370
495.37	7.767
495.72	8.345
496.07	8.940
496.41	7.979
496.76	8.299
497.11	8.662
497.45	8.287
497.80	7.774
498.14	7.982
498.49	8.594
498.84	8.547
499.18	8.367
499.53	8.655
499.87	8.615
500.22	7.747
500.56	8.007
500.91	8.330
501.26	8.545
501.60	8.352
501.95	8.554
502.29	8.161
502.64	8.701
502.98	8.887
503.33	8.078
503.67	7.937
504.02	7.925
504.36	8.758
504.71	8.406
505.06	9.186
505.40	8.181
505.75	8.789
506.09	8.517
506.44	8.124
506.78	9.174
507.13	8.391
507.47	8.858
507.82	8.665
508.16	8.126
508.51	7.970
508.85	8.125
509.19	8.811
509.54	8.501
509.88	8.402
510.23	8.014
510.57	8.748
510.92	8.853
511.26	8.658
511.61	7.436
511.95	8.443
512.30	8.026
512.64	8.696
512.98	8.504
513.33	8.115
513.67	7.955
514.02	8.585
514.36	8.593
514.70	8.021
515.05	7.925
515.39	8.399
515.74	9.385
516.08	8.347
516.42	8.687
516.77	8.097
517.11	7.839
517.46	8.696
517.80	8.498
518.14	8.705
518.49	7.972
518.83	7.983
519.17	8.401
519.52	8.910
519.86	8.976
520.20	8.573
520.55	7.831
520.89	7.883
521.23	7.929
521.58	7.966
521.92	8.669
522.26	7.560
522.61	8.044
522.95	8.189
523.29	8.391
523.64	8.408
523.98	8.557
524.32	8.711
524.66	8.196
525.01	8.437
525.35	7.639
525.69	7.831
526.04	8.152
526.38	8.103
526.72	8.362
527.06	7.977
527.41	8.105
527.75	8.789
528.09	8.323
528.43	7.993
528.78	7.572
529.12	8.429
529.46	8.038
529.80	8.238
530.15	8.348
530.49	8.007
530.83	8.383
531.17	7.706
531.51	8.905
531.86	7.873
532.20	8.415
532.54	8.259
532.88	8.485
533.22	8.603
533.57	8.425
533.91	8.866
534.25	8.536
534.59	8.391
534.93	8.319
535.27	9.183
535.62	8.812
535.96	8.077
536.30	8.284
536.64	8.108
536.98	8.918
537.32	8.889
537.66	8.484
538.01	7.976
538.35	7.674
538.69	7.692
539.03	8.768
539.37	8.245
539.71	8.468
540.05	8.513
540.39	7.335
540.73	7.832
541.07	8.277
541.42	8.683
541.76	7.829
542.10	8.082
542.44	7.856
542.78	8.455
543.12	7.747
543.46	8.608
543.80	7.854
544.14	7.840
544.48	8.333
544.82	8.677
545.16	7.871
545.50	8.268
545.84	8.022
546.18	8.951
546.52	7.325
546.86	8.868
547.20	8.270
547.54	8.240
547.88	7.715
548.22	8.363
548.56	7.958
548.90	7.881
549.24	8.146
549.58	8.265
549.92	8.418
550.26	8.673
550.60	8.551
550.94	8.344
551.28	7.393
551.62	8.558
551.96	8.608
552.30	8.987
552.64	8.712
552.98	8.422
553.32	8.296
553.66	8.875
554.00	8.701
554.34	8.108
554.68	8.263
555.02	7.687
555.36	9.204
555.69	7.239
556.03	8.071
556.37	8.761
556.71	7.102
557.05	8.179
557.39	8.096
557.73	8.851
558.07	7.483
558.41	8.571
558.75	7.505
559.08	8.351
559.42	7.956
559.76	8.277
560.10	8.305
560.44	8.707
560.78	7.688
561.12	9.113
561.45	8.759
561.79	8.547
562.13	8.441
562.47	8.508
562.81	9.304
563.15	7.955
563.48	8.017
563.82	8.343
564.16	7.692
564.50	7.986
564.84	7.965
565.17	8.765
565.51	8.228
565.85	7.898
566.19	7.431
566.52	8.250
566.86	8.772
567.20	7.993
567.54	8.444
567.88	8.818
568.21	8.646
568.55	8.729
568.89	9.396
569.23	9.294
569.56	8.792
569.90	9.016
570.24	8.735
570.57	8.756
570.91	8.634
571.25	9.430
571.59	9.546
571.92	9.115
572.26	9.423
572.60	9.173
572.93	9.129
573.27	9.216
573.61	9.582
573.95	9.784
574.28	9.741
574.62	9.118
574.96	9.352
575.29	9.209
575.63	9.494
575.97	9.437
576.30	9.548
576.64	9.258
576.98	9.294
577.31	9.527
577.65	9.575
577.98	9.394
578.32	9.487
578.66	9.499
578.99	9.420
579.33	9.560
579.67	9.497
580.00	9.485
580.34	9.620
580.67	9.179
581.01	9.087
581.35	9.488
581.68	9.725
582.02	9.967
582.35	9.915
582.69	9.477
583.02	9.867
583.36	9.982
583.70	9.180
584.03	9.623
584.37	9.627
584.70	9.511
585.04	8.998
585.37	9.280
585.71	9.709
586.04	9.489
586.38	9.424
586.72	9.426
587.05	9.261
587.39	9.474
587.72	9.761
588.06	9.260
588.39	9.759
588.73	9.524
589.06	9.424
589.40	8.974
589.73	9.512
590.07	9.483
590.40	9.466
590.73	9.049
591.07	9.196
591.40	8.554
591.74	8.903
592.07	8.892
592.41	8.833
592.74	8.768
593.08	9.841
593.41	9.507
593.75	9.569
594.08	9.452
594.41	9.071
594.75	9.299
595.08	8.883
595.42	8.896
595.75	9.235
596.09	9.759
596.42	9.495
596.75	9.263
597.09	9.172
597.42	9.257
597.75	8.742
598.09	9.524
598.42	9.047
598.76	8.407
599.09	8.864
599.42	9.051
599.76	8.914
600.09	8.909
600.42	9.243
600.76	9.049
601.09	8.961
601.42	8.926
601.76	8.345
602.09	9.114
602.42	8.906
602.76	8.598
603.09	8.407
603.42	9.465
603.76	8.633
604.09	9.191
604.42	9.101
604.76	8.866
605.09	9.214
605.42	8.692
605.75	8.731
606.09	8.959
606.42	8.902
606.75	8.471
607.09	8.487
607.42	8.979
607.75	9.105
608.08	8.642
608.42	8.908
608.75	8.997
609.08	7.852
609.41	8.778
609.75	8.750
610.08	8.663
610.41	7.986
610.74	8.782
611.07	8.659
611.41	8.879
611.74	8.684
612.07	9.116
612.40	8.650
612.73	8.557
613.07	8.117
613.40	8.470
613.73	8.377
614.06	9.078
614.39	8.406
614.72	8.588
615.06	8.951
615.39	8.555
615.72	8.246
616.05	8.354
616.38	8.880
616.71	9.352
617.05	7.934
617.38	8.775
617.71	9.341
618.04	8.419
618.37	8.798
618.70	7.862
619.03	8.542
619.36	7.953
619.69	8.456
620.03	8.161
620.36	8.466
620.69	8.698
621.02	7.743
621.35	8.781
621.68	7.809
622.01	6.762
622.34	7.671
622.67	8.110
623.00	6.748
623.33	8.295
623.66	8.171
623.99	7.834
624.32	9.097
624.65	7.851
624.99	8.322
625.32	8.491
625.65	8.631
625.98	7.390
626.31	8.363
626.64	7.546
626.97	7.652
627.30	6.986
627.63	8.102
627.96	8.108
628.29	8.327
628.62	6.717
628.95	8.238
629.28	6.712
629.61	7.997
629.94	7.113
630.26	7.119
630.59	5.959
630.92	7.273
631.25	7.245
631.58	7.439
631.91	5.904
632.24	7.205
632.57	6.926
632.90	6.921
633.23	7.347
633.56	7.347
633.89	7.128
634.22	6.341
634.55	7.829
634.88	6.169
635.20	6.889
635.53	7.571
635.86	6.934
636.19	7.635
636.52	6.962
636.85	5.924
637.18	6.237
637.51	6.882
637.83	8.195
638.16	7.143
638.49	5.986
638.82	6.088
639.15	6.300
639.48	6.120
639.81	6.236
640.13	7.303
640.46	4.606
640.79	5.637
641.12	6.087
641.45	5.019
641.77	8.216
642.10	5.774
642.43	9.176
642.76	7.453
643.09	4.795
643.41	4.762
643.74	6.069
644.07	6.345
644.40	5.799
644.73	4.064
645.05	4.552
645.38	6.331
645.71	6.012
646.04	7.891
646.36	4.672
646.69	5.828
647.02	6.422
647.35	5.496
647.67	4.670
648.00	3.503
648.33	5.105
648.66	5.706
648.98	5.850
649.31	6.901
649.64	7.039
649.96	5.438
650.29	4.868
650.62	6.082
650.94	5.255
651.27	5.539
651.60	5.263
651.92	4.711
652.25	5.065
652.58	5.365
652.90	3.779
653.23	6.338
653.56	5.563
653.88	8.567
654.21	4.930
654.54	5.058
