SpectraSuite Data File
++++++++++++++++++++++++++++++++++++
Date: Thu May 14 15:55:18 PDT 2015
User: schluterlab
Dark Spectrum Present: Yes
Reference Spectrum Present: Yes
Number of Sampled Component Spectra: 1
Spectrometers: USB2E3373
Integration Time (usec): 3000 (USB2E3373)
Spectra Averaged: 3 (USB2E3373)
Boxcar Smoothing: 0 (USB2E3373)
Correct for Electrical Dark: No (USB2E3373)
Strobe/Lamp Enabled: No (USB2E3373)
Correct for Detector Non-linearity: No (USB2E3373)
Correct for Stray Light: No (USB2E3373)
Number of Pixels in Processed Spectrum: 2048
>>>>>Begin Processed Spectral Data<<<<<
178.53	0.000
178.91	485.714
179.29	-4200.000
179.67	-3100.000
180.04	300.000
180.42	310.000
180.80	720.000
181.18	-2700.000
181.56	-1400.000
181.94	675.000
182.31	-675.000
182.69	833.333
183.07	-1650.000
183.45	950.000
183.83	-550.000
184.20	-966.667
184.58	2800.000
184.96	-625.000
185.34	-233.333
185.72	-420.000
186.09	488.889
186.47	1750.000
186.85	700.000
187.23	-422.222
187.61	-3900.000
187.98	600.000
188.36	850.000
188.74	-450.000
189.12	-666.667
189.49	-143.750
189.87	-350.000
190.25	-300.000
190.63	-500.000
191.00	-400.000
191.38	0.000
191.76	-1000.000
192.14	-583.333
192.51	1200.000
192.89	-466.667
193.27	0.000
193.65	-385.714
194.02	-3100.000
194.40	-371.429
194.78	514.286
195.15	0.000
195.53	-190.909
195.91	0.000
196.29	-775.000
196.66	-176.923
197.04	-2700.000
197.42	-457.143
197.79	-1350.000
198.17	-412.500
198.55	-342.857
198.92	-244.444
199.30	-425.000
199.68	-309.091
200.05	-157.143
200.43	-1700.000
200.81	542.857
201.18	0.000
201.56	466.667
201.94	0.000
202.31	1033.333
202.69	-411.111
203.07	3800.000
203.44	-388.889
203.82	-850.000
204.19	-258.333
204.57	-483.333
204.95	-300.000
205.32	-3500.000
205.70	925.000
206.08	-466.667
206.45	-416.667
206.83	780.000
207.20	-416.667
207.58	-680.000
207.96	-550.000
208.33	-366.667
208.71	283.333
209.08	-333.333
209.46	0.000
209.84	516.667
210.21	1450.000
210.59	1550.000
210.96	966.667
211.34	-600.000
211.71	-362.500
212.09	-2800.000
212.46	0.000
212.84	1650.000
213.22	-720.000
213.59	-500.000
213.97	-340.000
214.34	-1100.000
214.72	583.333
215.09	-850.000
215.47	0.000
215.84	442.857
216.22	2000.000
216.59	-620.000
216.97	-740.000
217.34	-750.000
217.72	-275.000
218.09	-800.000
218.47	-975.000
218.84	0.000
219.22	620.000
219.59	-205.882
219.97	-100.000
220.34	1650.000
220.72	-344.444
221.09	-153.846
221.47	-900.000
221.84	-310.000
222.22	-342.857
222.59	0.000
222.97	-412.500
223.34	-720.000
223.72	-4100.000
224.09	-850.000
224.46	-900.000
224.84	-420.000
225.21	-442.857
225.59	-850.000
225.96	-775.000
226.34	-84.615
226.71	650.000
227.08	-1500.000
227.46	-166.667
227.83	-850.000
228.21	-142.105
228.58	362.500
228.95	1700.000
229.33	-208.333
229.70	-360.000
230.08	-131.579
230.45	380.000
230.82	-933.333
231.20	-164.286
231.57	-158.333
231.95	-245.455
232.32	-200.000
232.69	-105.000
233.07	-825.000
233.44	-194.118
233.81	-320.000
234.19	-138.889
234.56	-104.545
234.93	-82.759
235.31	-168.421
235.68	-161.111
236.05	-130.000
236.43	-53.846
236.80	-44.000
237.17	-118.519
237.55	-78.788
237.92	-330.000
238.29	-80.645
238.67	-52.273
239.04	-69.444
239.41	-59.524
239.79	-43.478
240.16	-44.444
240.53	-56.522
240.91	-60.784
241.28	-49.180
241.65	-29.851
242.02	-13.514
242.40	-44.615
242.77	-29.333
243.14	-31.707
243.51	-39.474
243.89	-39.744
244.26	-14.851
244.63	-10.784
245.00	-13.084
245.38	-14.912
245.75	-25.664
246.12	-15.873
246.49	-13.953
246.87	-10.000
247.24	-5.298
247.61	-6.579
247.98	-8.725
248.36	-11.728
248.73	-13.497
249.10	-4.372
249.47	-5.473
249.84	-0.524
250.22	-3.109
250.59	-7.222
250.96	-5.455
251.33	-7.143
251.70	0.427
252.08	2.917
252.45	-3.279
252.82	-8.264
253.19	-1.172
253.56	-1.141
253.94	-0.385
254.31	0.379
254.68	1.748
255.05	0.977
255.42	-1.020
255.79	-3.236
256.16	-2.318
256.54	-4.967
256.91	3.279
257.28	0.000
257.65	0.000
258.02	-0.885
258.39	-0.285
258.76	4.893
259.14	4.598
259.51	1.441
259.88	0.000
260.25	3.056
260.62	3.014
260.99	2.459
261.36	2.413
261.73	2.122
262.10	0.824
262.47	4.021
262.85	7.323
263.22	-0.260
263.59	-0.789
263.96	1.279
264.33	2.046
264.70	5.432
265.07	4.535
265.44	6.576
265.81	3.704
266.18	4.762
266.55	4.018
266.92	2.506
267.29	5.033
267.66	3.326
268.03	4.585
268.40	4.384
268.77	2.733
269.14	1.542
269.51	5.702
269.88	5.123
270.25	5.835
270.62	3.376
270.99	5.657
271.36	5.941
271.73	5.894
272.10	5.010
272.47	5.210
272.84	2.410
273.21	3.808
273.58	5.847
273.95	5.192
274.32	3.992
274.69	3.675
275.06	5.861
275.43	2.403
275.80	5.644
276.17	4.074
276.54	3.918
276.91	3.220
277.28	4.159
277.65	5.027
278.02	5.331
278.39	4.167
278.76	4.042
279.13	5.319
279.50	6.701
279.87	3.220
280.23	0.880
280.60	5.593
280.97	3.783
281.34	3.565
281.71	4.569
282.08	3.821
282.45	4.910
282.82	5.808
283.19	2.585
283.56	4.754
283.92	6.306
284.29	5.055
284.66	4.598
285.03	2.885
285.40	4.791
285.77	3.870
286.14	6.412
286.51	5.936
286.87	4.739
287.24	4.669
287.61	3.737
287.98	4.079
288.35	4.142
288.72	5.178
289.08	5.564
289.45	5.030
289.82	4.819
290.19	4.741
290.56	6.056
290.93	3.566
291.29	3.719
291.66	4.132
292.03	5.156
292.40	5.578
292.77	4.313
293.13	5.548
293.50	3.285
293.87	3.893
294.24	5.067
294.60	6.195
294.97	3.221
295.34	5.378
295.71	4.288
296.08	4.134
296.44	4.289
296.81	5.359
297.18	4.608
297.55	4.363
297.91	4.982
298.28	3.081
298.65	4.162
299.02	3.306
299.38	5.263
299.75	3.855
300.12	3.125
300.48	4.954
300.85	3.937
301.22	5.145
301.59	4.224
301.95	3.842
302.32	3.889
302.69	5.148
303.05	5.550
303.42	4.878
303.79	3.229
304.15	5.152
304.52	3.911
304.89	5.969
305.25	5.176
305.62	4.389
305.99	4.948
306.35	4.032
306.72	7.032
307.09	3.858
307.45	3.209
307.82	4.743
308.19	3.835
308.55	5.400
308.92	4.771
309.29	5.843
309.65	4.483
310.02	4.752
310.38	4.823
310.75	4.951
311.12	5.753
311.48	4.985
311.85	5.603
312.22	4.934
312.58	5.164
312.95	4.589
313.31	5.872
313.68	6.044
314.05	6.775
314.41	6.648
314.78	6.176
315.14	5.445
315.51	6.741
315.87	5.941
316.24	6.849
316.61	6.927
316.97	6.606
317.34	6.173
317.70	7.424
318.07	7.496
318.43	7.058
318.80	7.358
319.16	7.554
319.53	6.855
319.89	7.713
320.26	8.541
320.62	7.713
320.99	8.587
321.35	8.133
321.72	10.512
322.08	8.476
322.45	9.304
322.81	9.025
323.18	8.938
323.54	9.397
323.91	10.142
324.27	9.983
324.64	10.160
325.00	10.697
325.37	11.630
325.73	11.240
326.10	12.003
326.46	11.808
326.83	12.330
327.19	11.969
327.56	12.411
327.92	11.723
328.29	11.452
328.65	10.888
329.01	12.352
329.38	11.373
329.74	13.014
330.11	13.271
330.47	12.974
330.84	12.059
331.20	13.667
331.56	12.392
331.93	12.552
332.29	12.203
332.66	12.957
333.02	12.144
333.38	12.164
333.75	13.300
334.11	12.677
334.48	12.871
334.84	13.679
335.20	12.678
335.57	13.153
335.93	13.554
336.29	12.812
336.66	13.877
337.02	12.291
337.38	13.180
337.75	13.388
338.11	13.793
338.47	13.813
338.84	12.775
339.20	12.216
339.56	12.768
339.93	13.136
340.29	14.010
340.65	13.301
341.02	13.647
341.38	13.581
341.74	12.994
342.11	12.953
342.47	12.550
342.83	12.963
343.20	14.636
343.56	12.510
343.92	11.849
344.28	13.359
344.65	13.643
345.01	13.261
345.37	13.297
345.73	12.860
346.10	13.495
346.46	12.896
346.82	14.157
347.19	12.681
347.55	14.188
347.91	12.481
348.27	13.657
348.63	14.014
349.00	13.125
349.36	13.532
349.72	12.872
350.08	13.076
350.45	12.776
350.81	13.122
351.17	13.083
351.53	13.192
351.89	15.338
352.26	12.761
352.62	13.657
352.98	13.206
353.34	13.368
353.70	13.559
354.07	13.562
354.43	13.440
354.79	13.463
355.15	13.687
355.51	14.035
355.87	13.313
356.24	13.916
356.60	12.491
356.96	13.862
357.32	13.309
357.68	13.324
358.04	12.799
358.40	14.254
358.77	13.743
359.13	13.516
359.49	12.862
359.85	14.068
360.21	14.132
360.57	13.927
360.93	14.034
361.29	15.088
361.66	14.627
362.02	14.405
362.38	13.914
362.74	15.363
363.10	14.512
363.46	15.374
363.82	13.991
364.18	14.919
364.54	14.592
364.90	15.786
365.26	13.793
365.62	15.400
365.98	15.521
366.35	14.966
366.71	15.374
367.07	14.682
367.43	15.233
367.79	15.926
368.15	15.251
368.51	15.223
368.87	15.480
369.23	14.667
369.59	15.642
369.95	16.295
370.31	16.273
370.67	16.231
371.03	15.512
371.39	15.581
371.75	16.231
372.11	16.938
372.47	16.181
372.83	15.969
373.19	16.144
373.55	15.989
373.91	16.155
374.27	15.459
374.63	16.238
374.99	16.247
375.35	17.468
375.71	16.065
376.07	16.462
376.42	16.247
376.78	16.594
377.14	16.656
377.50	17.141
377.86	18.411
378.22	16.766
378.58	18.193
378.94	17.723
379.30	16.637
379.66	18.166
380.02	17.311
380.38	18.203
380.74	17.465
381.09	17.828
381.45	17.443
381.81	19.028
382.17	18.230
382.53	18.246
382.89	18.228
383.25	18.230
383.61	17.998
383.97	17.550
384.32	19.079
384.68	18.968
385.04	18.103
385.40	19.446
385.76	19.519
386.12	18.253
386.48	19.647
386.83	19.487
387.19	18.134
387.55	18.310
387.91	18.950
388.27	19.169
388.62	19.015
388.98	19.233
389.34	19.741
389.70	19.698
390.06	19.834
390.42	19.458
390.77	19.807
391.13	20.364
391.49	19.988
391.85	19.152
392.20	19.870
392.56	19.787
392.92	20.393
393.28	19.292
393.64	19.050
393.99	20.453
394.35	21.028
394.71	20.240
395.07	19.820
395.42	19.589
395.78	20.719
396.14	20.559
396.50	20.487
396.85	20.394
397.21	19.704
397.57	19.906
397.92	20.447
398.28	20.369
398.64	19.279
399.00	19.686
399.35	20.838
399.71	20.924
400.07	19.764
400.42	20.896
400.78	20.370
401.14	20.433
401.49	20.694
401.85	21.279
402.21	20.973
402.57	21.538
402.92	20.863
403.28	20.726
403.63	20.406
403.99	20.606
404.35	20.523
404.70	21.133
405.06	21.576
405.42	21.136
405.77	21.265
406.13	21.664
406.49	20.946
406.84	21.219
407.20	21.744
407.55	19.746
407.91	20.993
408.27	21.143
408.62	22.048
408.98	21.300
409.34	20.880
409.69	21.693
410.05	21.571
410.40	21.230
410.76	21.200
411.11	22.092
411.47	21.499
411.83	21.340
412.18	20.904
412.54	20.391
412.89	21.129
413.25	21.501
413.60	21.654
413.96	21.911
414.31	21.246
414.67	21.169
415.03	20.615
415.38	22.636
415.74	21.991
416.09	21.160
416.45	21.603
416.80	21.787
417.16	21.903
417.51	22.105
417.87	22.011
418.22	21.437
418.58	21.437
418.93	20.838
419.29	21.270
419.64	21.609
420.00	20.890
420.35	21.280
420.71	21.137
421.06	21.967
421.42	21.961
421.77	20.463
422.12	22.304
422.48	20.891
422.83	22.563
423.19	21.751
423.54	21.903
423.90	21.204
424.25	21.653
424.61	21.297
424.96	22.186
425.31	21.815
425.67	21.417
426.02	22.025
426.38	21.986
426.73	21.205
427.09	22.780
427.44	21.245
427.79	20.619
428.15	20.833
428.50	21.124
428.85	21.929
429.21	21.330
429.56	21.570
429.92	21.081
430.27	21.301
430.62	21.495
430.98	21.397
431.33	21.457
431.68	21.360
432.04	21.686
432.39	22.335
432.74	20.833
433.10	21.958
433.45	20.903
433.80	21.674
434.16	21.746
434.51	21.891
434.86	22.421
435.22	22.264
435.57	22.465
435.92	21.091
436.28	21.615
436.63	21.409
436.98	21.095
437.34	21.815
437.69	21.409
438.04	21.311
438.39	21.827
438.75	21.693
439.10	22.093
439.45	21.353
439.81	20.847
440.16	20.643
440.51	20.513
440.86	20.567
441.22	22.133
441.57	21.541
441.92	21.678
442.27	21.465
442.63	21.510
442.98	22.252
443.33	22.041
443.68	22.597
444.03	22.531
444.39	22.006
444.74	22.358
445.09	21.997
445.44	22.129
445.79	21.983
446.15	21.891
446.50	22.067
446.85	21.547
447.20	21.760
447.55	21.705
447.91	21.152
448.26	21.617
448.61	21.467
448.96	22.908
449.31	21.951
449.66	21.187
450.02	21.783
450.37	21.684
450.72	20.990
451.07	20.786
451.42	20.682
451.77	20.789
452.12	21.783
452.47	20.974
452.83	21.903
453.18	21.424
453.53	21.137
453.88	21.369
454.23	21.243
454.58	21.532
454.93	20.449
455.28	20.951
455.63	21.319
455.98	21.285
456.34	21.260
456.69	21.458
457.04	21.809
457.39	21.231
457.74	21.477
458.09	20.428
458.44	20.959
458.79	21.454
459.14	20.870
459.49	21.336
459.84	21.144
460.19	20.600
460.54	21.635
460.89	20.487
461.24	20.575
461.59	21.417
461.94	19.966
462.29	21.389
462.64	20.398
462.99	20.590
463.34	20.831
463.69	21.043
464.04	20.289
464.39	20.852
464.74	20.353
465.09	20.761
465.44	20.869
465.79	20.518
466.14	20.740
466.49	20.105
466.84	20.386
467.19	21.329
467.54	19.389
467.89	19.770
468.24	20.000
468.59	19.977
468.94	19.814
469.29	19.436
469.64	19.135
469.99	19.567
470.34	19.988
470.68	19.686
471.03	20.105
471.38	19.882
471.73	19.571
472.08	19.670
472.43	19.386
472.78	20.151
473.13	19.532
473.48	20.483
473.83	20.429
474.17	19.812
474.52	19.122
474.87	19.657
475.22	19.718
475.57	20.301
475.92	20.757
476.27	19.542
476.61	19.574
476.96	19.135
477.31	19.406
477.66	19.780
478.01	19.115
478.36	18.893
478.70	19.606
479.05	19.990
479.40	19.595
479.75	19.741
480.10	19.659
480.45	19.280
480.79	19.365
481.14	18.980
481.49	19.855
481.84	19.930
482.19	19.140
482.53	19.545
482.88	19.406
483.23	18.764
483.58	18.734
483.92	19.016
484.27	19.517
484.62	18.523
484.97	19.401
485.31	18.726
485.66	18.607
486.01	19.335
486.36	19.899
486.70	20.761
487.05	20.305
487.40	20.223
487.75	19.517
488.09	19.583
488.44	19.051
488.79	18.786
489.13	18.537
489.48	17.864
489.83	17.867
490.17	18.955
490.52	18.391
490.87	18.443
491.22	18.631
491.56	18.771
491.91	18.578
492.26	18.347
492.60	18.627
492.95	18.649
493.30	17.750
493.64	18.134
493.99	17.544
494.34	17.857
494.68	17.730
495.03	18.238
495.37	18.464
495.72	18.005
496.07	17.485
496.41	17.289
496.76	17.765
497.11	17.240
497.45	18.256
497.80	17.859
498.14	18.141
498.49	18.244
498.84	17.413
499.18	17.904
499.53	17.130
499.87	16.747
500.22	16.607
500.56	17.454
500.91	17.254
501.26	18.182
501.60	16.880
501.95	16.761
502.29	17.288
502.64	17.578
502.98	16.911
503.33	17.063
503.67	16.485
504.02	16.725
504.36	16.577
504.71	16.353
505.06	16.689
505.40	16.773
505.75	16.621
506.09	17.357
506.44	17.038
506.78	16.606
507.13	16.229
507.47	16.722
507.82	16.761
508.16	16.205
508.51	15.846
508.85	16.249
509.19	17.290
509.54	17.243
509.88	15.590
510.23	16.901
510.57	16.820
510.92	16.110
511.26	16.114
511.61	15.451
511.95	16.203
512.30	16.347
512.64	15.492
512.98	16.308
513.33	15.827
513.67	15.808
514.02	16.863
514.36	15.857
514.70	15.885
515.05	15.693
515.39	16.168
515.74	16.967
516.08	16.006
516.42	16.222
516.77	16.562
517.11	15.059
517.46	15.323
517.80	16.676
518.14	16.757
518.49	15.401
518.83	14.955
519.17	14.809
519.52	14.832
519.86	16.367
520.20	15.708
520.55	15.827
520.89	15.372
521.23	15.131
521.58	14.859
521.92	16.204
522.26	15.063
522.61	14.873
522.95	15.629
523.29	14.655
523.64	15.415
523.98	15.573
524.32	15.931
524.66	15.709
525.01	15.062
525.35	14.245
525.69	14.443
526.04	15.098
526.38	14.425
526.72	15.283
527.06	15.894
527.41	15.219
527.75	14.964
528.09	14.935
528.43	14.920
528.78	14.740
529.12	14.794
529.46	15.402
529.80	15.389
530.15	14.725
530.49	14.353
530.83	15.053
531.17	14.337
531.51	14.380
531.86	14.483
532.20	14.817
532.54	14.183
532.88	14.182
533.22	15.027
533.57	15.176
533.91	14.703
534.25	14.924
534.59	15.172
534.93	14.035
535.27	14.479
535.62	14.440
535.96	14.759
536.30	13.925
536.64	13.754
536.98	15.006
537.32	14.753
537.66	13.974
538.01	14.562
538.35	14.129
538.69	14.543
539.03	13.489
539.37	13.663
539.71	14.054
540.05	13.969
540.39	14.120
540.73	13.722
541.07	13.918
541.42	13.763
541.76	13.998
542.10	14.113
542.44	13.094
542.78	14.294
543.12	13.468
543.46	13.858
543.80	12.530
544.14	13.704
544.48	13.948
544.82	13.704
545.16	13.357
545.50	13.661
545.84	12.982
546.18	14.691
546.52	12.484
546.86	12.767
547.20	12.850
547.54	12.984
547.88	12.658
548.22	12.573
548.56	13.049
548.90	12.955
549.24	13.739
549.58	12.050
549.92	12.436
550.26	13.269
550.60	12.891
550.94	13.066
551.28	12.673
551.62	13.544
551.96	12.362
552.30	13.384
552.64	12.757
552.98	13.412
553.32	12.797
553.66	12.412
554.00	12.736
554.34	13.192
554.68	12.137
555.02	12.812
555.36	12.886
555.69	12.172
556.03	13.052
556.37	12.453
556.71	12.302
557.05	11.949
557.39	11.480
557.73	12.682
558.07	12.119
558.41	10.897
558.75	12.035
559.08	12.039
559.42	12.209
559.76	13.161
560.10	12.391
560.44	12.533
560.78	13.625
561.12	11.884
561.45	12.409
561.79	12.515
562.13	12.693
562.47	11.961
562.81	12.468
563.15	12.500
563.48	11.809
563.82	11.971
564.16	11.145
564.50	12.157
564.84	11.150
565.17	12.471
565.51	11.853
565.85	11.936
566.19	11.694
566.52	11.410
566.86	12.733
567.20	12.126
567.54	11.790
567.88	12.385
568.21	12.055
568.55	12.374
568.89	13.028
569.23	12.886
569.56	12.544
569.90	12.937
570.24	12.816
570.57	12.925
570.91	12.799
571.25	13.133
571.59	13.053
571.92	13.140
572.26	12.652
572.60	12.804
572.93	12.997
573.27	12.560
573.61	12.864
573.95	13.256
574.28	13.011
574.62	12.915
574.96	12.991
575.29	12.646
575.63	12.497
575.97	12.958
576.30	12.485
576.64	12.837
576.98	12.961
577.31	13.097
577.65	12.877
577.98	12.782
578.32	12.539
578.66	12.590
578.99	12.410
579.33	12.361
579.67	12.171
580.00	12.520
580.34	12.740
580.67	12.665
581.01	12.462
581.35	12.351
581.68	12.813
582.02	12.752
582.35	13.088
582.69	12.761
583.02	12.465
583.36	12.487
583.70	12.270
584.03	12.311
584.37	12.367
584.70	11.956
585.04	12.113
585.37	12.240
585.71	12.578
586.04	12.395
586.38	12.024
586.72	11.657
587.05	11.717
587.39	11.917
587.72	12.201
588.06	11.847
588.39	11.949
588.73	12.116
589.06	12.161
589.40	11.401
589.73	11.536
590.07	11.969
590.40	12.035
590.73	11.665
591.07	11.541
591.40	11.431
591.74	11.367
592.07	12.058
592.41	10.804
592.74	11.608
593.08	11.911
593.41	12.161
593.75	11.695
594.08	11.693
594.41	11.827
594.75	11.026
595.08	11.474
595.42	11.396
595.75	11.721
596.09	11.826
596.42	11.322
596.75	11.733
597.09	11.152
597.42	10.926
597.75	11.211
598.09	11.190
598.42	11.460
598.76	10.623
599.09	11.321
599.42	11.063
599.76	11.324
600.09	11.612
600.42	11.478
600.76	11.394
601.09	11.683
601.42	11.226
601.76	11.138
602.09	11.079
602.42	10.542
602.76	10.812
603.09	11.197
603.42	10.802
603.76	10.430
604.09	11.675
604.42	11.413
604.76	10.312
605.09	10.570
605.42	10.925
605.75	10.962
606.09	10.974
606.42	10.872
606.75	10.307
607.09	10.100
607.42	10.058
607.75	10.864
608.08	10.892
608.42	11.004
608.75	11.153
609.08	10.569
609.41	10.498
609.75	10.357
610.08	10.818
610.41	10.663
610.74	10.462
611.07	10.080
611.41	11.300
611.74	10.393
612.07	10.379
612.40	10.266
612.73	10.171
613.07	10.513
613.40	10.202
613.73	10.303
614.06	10.108
614.39	10.107
614.72	9.995
615.06	10.010
615.39	9.570
615.72	10.521
616.05	9.519
616.38	10.343
616.71	10.084
617.05	9.957
617.38	10.540
617.71	10.043
618.04	10.308
618.37	9.344
618.70	9.842
619.03	9.080
619.36	9.371
619.69	9.737
620.03	10.295
620.36	9.632
620.69	9.562
621.02	9.514
621.35	9.361
621.68	9.328
622.01	8.897
622.34	8.647
622.67	9.210
623.00	8.839
623.33	9.754
623.66	8.949
623.99	8.624
624.32	10.006
624.65	8.752
624.99	10.078
625.32	9.732
625.65	9.103
625.98	9.492
626.31	9.355
626.64	8.864
626.97	7.652
627.30	7.897
627.63	8.552
627.96	9.910
628.29	8.093
628.62	8.396
628.95	7.450
629.28	7.816
629.61	9.007
629.94	8.452
630.26	7.881
630.59	8.117
630.92	6.494
631.25	9.213
631.58	7.533
631.91	8.716
632.24	6.724
632.57	6.831
632.90	8.526
633.23	7.143
633.56	6.837
633.89	6.818
634.22	8.420
634.55	8.768
634.88	7.792
635.20	7.320
