SpectraSuite Data File
++++++++++++++++++++++++++++++++++++
Date: Thu May 14 15:56:54 PDT 2015
User: schluterlab
Dark Spectrum Present: Yes
Reference Spectrum Present: Yes
Number of Sampled Component Spectra: 1
Spectrometers: USB2E3373
Integration Time (usec): 3000 (USB2E3373)
Spectra Averaged: 3 (USB2E3373)
Boxcar Smoothing: 0 (USB2E3373)
Correct for Electrical Dark: No (USB2E3373)
Strobe/Lamp Enabled: No (USB2E3373)
Correct for Detector Non-linearity: No (USB2E3373)
Correct for Stray Light: No (USB2E3373)
Number of Pixels in Processed Spectrum: 2048
>>>>>Begin Processed Spectral Data<<<<<
178.53	0.000
178.91	485.714
179.29	-3900.000
179.67	-2600.000
180.04	271.429
180.42	200.000
180.80	720.000
181.18	-3500.000
181.56	-1300.000
181.94	550.000
182.31	-450.000
182.69	1033.333
183.07	-800.000
183.45	725.000
183.83	-466.667
184.20	-600.000
184.58	2200.000
184.96	-775.000
185.34	-233.333
185.72	-260.000
186.09	411.111
186.47	1750.000
186.85	740.000
187.23	-366.667
187.61	-3000.000
187.98	780.000
188.36	850.000
188.74	-550.000
189.12	-566.667
189.49	-131.250
189.87	-387.500
190.25	-211.111
190.63	-420.000
191.00	-333.333
191.38	0.000
191.76	-650.000
192.14	-350.000
192.51	1400.000
192.89	-433.333
193.27	0.000
193.65	-285.714
194.02	-2200.000
194.40	-371.429
194.78	328.571
195.15	0.000
195.53	-218.182
195.91	0.000
196.29	-525.000
196.66	-184.615
197.04	-3100.000
197.42	-357.143
197.79	-1350.000
198.17	-375.000
198.55	-328.571
198.92	-255.556
199.30	-287.500
199.68	-136.364
200.05	-78.571
200.43	-1250.000
200.81	357.143
201.18	0.000
201.56	422.222
201.94	0.000
202.31	866.667
202.69	-388.889
203.07	1600.000
203.44	-144.444
203.82	-825.000
204.19	-216.667
204.57	-366.667
204.95	-250.000
205.32	-2900.000
205.70	500.000
206.08	-400.000
206.45	-266.667
206.83	540.000
207.20	-250.000
207.58	-560.000
207.96	-450.000
208.33	-366.667
208.71	275.000
209.08	-400.000
209.46	0.000
209.84	566.667
210.21	1450.000
210.59	1100.000
210.96	1000.000
211.34	-425.000
211.71	-287.500
212.09	-2500.000
212.46	0.000
212.84	1600.000
213.22	-480.000
213.59	-675.000
213.97	-210.000
214.34	-900.000
214.72	533.333
215.09	-750.000
215.47	0.000
215.84	314.286
216.22	1350.000
216.59	-640.000
216.97	-580.000
217.34	-500.000
217.72	-300.000
218.09	-675.000
218.47	-750.000
218.84	0.000
219.22	480.000
219.59	-111.765
219.97	-60.000
220.34	1700.000
220.72	-322.222
221.09	-107.692
221.47	-766.667
221.84	-270.000
222.22	-328.571
222.59	0.000
222.97	-262.500
223.34	-620.000
223.72	-2400.000
224.09	-850.000
224.46	-825.000
224.84	-560.000
225.21	-342.857
225.59	-700.000
225.96	-500.000
226.34	-65.385
226.71	466.667
227.08	-1050.000
227.46	-86.667
227.83	-475.000
228.21	-121.053
228.58	275.000
228.95	1100.000
229.33	-158.333
229.70	-260.000
230.08	-63.158
230.45	350.000
230.82	-733.333
231.20	-78.571
231.57	-166.667
231.95	-227.273
232.32	-218.182
232.69	-90.000
233.07	-600.000
233.44	-111.765
233.81	-160.000
234.19	-83.333
234.56	-86.364
234.93	-31.034
235.31	-94.737
235.68	-72.222
236.05	-135.000
236.43	-42.308
236.80	-36.000
237.17	-96.296
237.55	-75.758
237.92	-280.000
238.29	-58.065
238.67	-27.273
239.04	-27.778
239.41	-66.667
239.79	-23.913
240.16	-31.481
240.53	-19.565
240.91	-33.333
241.28	-27.869
241.65	-7.463
242.02	-4.054
242.40	-6.154
242.77	-13.333
243.14	-23.171
243.51	-11.842
243.89	-21.795
244.26	2.970
244.63	5.882
245.00	-9.346
245.38	-5.263
245.75	-17.699
246.12	-9.524
246.49	8.527
246.87	3.571
247.24	1.987
247.61	7.237
247.98	4.698
248.36	7.407
248.73	1.840
249.10	-1.093
249.47	7.960
249.84	16.754
250.22	6.218
250.59	11.667
250.96	11.364
251.33	4.082
251.70	11.538
252.08	11.250
252.45	10.246
252.82	7.025
253.19	10.156
253.56	13.308
253.94	6.923
254.31	10.227
254.68	13.986
255.05	14.984
255.42	12.245
255.79	13.916
256.16	10.927
256.54	10.927
256.91	13.115
257.28	12.459
257.65	12.739
258.02	9.735
258.39	13.105
258.76	16.514
259.14	14.080
259.51	13.833
259.88	13.031
260.25	12.500
260.62	14.521
260.99	16.667
261.36	15.013
261.73	11.671
262.10	11.813
262.47	16.890
262.85	17.929
263.22	14.026
263.59	11.316
263.96	15.090
264.33	15.601
264.70	13.827
265.07	18.616
265.44	15.873
265.81	15.509
266.18	16.100
266.55	12.277
266.92	12.756
267.29	15.974
267.66	14.634
268.03	17.031
268.40	15.240
268.77	14.806
269.14	14.097
269.51	14.912
269.88	16.598
270.25	15.895
270.62	16.667
270.99	15.152
271.36	16.634
271.73	13.556
272.10	14.629
272.47	16.433
272.84	16.064
273.21	13.026
273.58	14.516
273.95	15.192
274.32	13.118
274.69	16.634
275.06	16.484
275.43	12.569
275.80	14.638
276.17	12.778
276.54	16.791
276.91	15.385
277.28	15.552
277.65	17.953
278.02	16.544
278.39	15.217
278.76	12.654
279.13	16.489
279.50	16.323
279.87	17.352
280.23	12.676
280.60	15.254
280.97	14.967
281.34	14.431
281.71	16.074
282.08	15.615
282.45	14.075
282.82	14.286
283.19	14.216
283.56	15.246
283.92	16.066
284.29	16.272
284.66	15.435
285.03	14.904
285.40	14.838
285.77	14.551
286.14	14.962
286.51	15.068
286.87	15.956
287.24	13.705
287.61	15.247
287.98	11.329
288.35	15.680
288.72	14.349
289.08	14.495
289.45	13.314
289.82	13.253
290.19	15.086
290.56	14.507
290.93	13.124
291.29	13.912
291.66	12.534
292.03	13.569
292.40	15.510
292.77	12.264
293.13	11.637
293.50	13.141
293.87	12.483
294.24	14.400
294.60	14.412
294.97	11.544
295.34	14.085
295.71	12.358
296.08	13.049
296.44	14.216
296.81	13.155
297.18	12.080
297.55	13.443
297.91	12.100
298.28	10.308
298.65	12.128
299.02	12.987
299.38	13.043
299.75	12.967
300.12	12.616
300.48	12.212
300.85	11.249
301.22	12.416
301.59	12.329
301.95	13.446
302.32	13.000
302.69	11.501
303.05	12.622
303.42	11.973
303.79	12.604
304.15	11.777
304.52	12.368
304.89	12.251
305.25	12.112
305.62	11.808
305.99	12.371
306.35	13.306
306.72	12.099
307.09	11.675
307.45	11.180
307.82	13.623
308.19	12.008
308.55	13.211
308.92	13.048
309.29	13.506
309.65	11.696
310.02	12.970
310.38	13.878
310.75	13.592
311.12	13.039
311.48	14.663
311.85	15.100
312.22	12.903
312.58	15.962
312.95	13.480
313.31	14.273
313.68	15.934
314.05	15.628
314.41	15.665
314.78	15.622
315.14	16.334
315.51	16.528
315.87	16.472
316.24	17.078
316.61	17.762
316.97	17.195
317.34	15.961
317.70	17.817
318.07	16.931
318.43	18.112
318.80	20.318
319.16	19.485
319.53	17.652
319.89	19.106
320.26	19.395
320.62	19.238
320.99	21.330
321.35	21.072
321.72	22.326
322.08	21.010
322.45	22.945
322.81	22.653
323.18	22.389
323.54	23.103
323.91	23.310
324.27	24.096
324.64	24.517
325.00	23.798
325.37	25.307
325.73	26.612
326.10	25.953
326.46	27.280
326.83	27.062
327.19	26.850
327.56	27.589
327.92	26.829
328.29	26.694
328.65	27.638
329.01	28.765
329.38	29.149
329.74	28.168
330.11	27.997
330.47	28.138
330.84	28.252
331.20	30.833
331.56	28.769
331.93	29.372
332.29	30.932
332.66	29.817
333.02	29.983
333.38	28.943
333.75	29.630
334.11	29.441
334.48	30.198
334.84	30.926
335.20	29.723
335.57	29.595
335.93	30.496
336.29	30.200
336.66	30.362
337.02	30.936
337.38	30.272
337.75	28.678
338.11	31.203
338.47	30.521
338.84	30.288
339.20	29.570
339.56	29.160
339.93	29.967
340.29	29.066
340.65	30.251
341.02	30.886
341.38	31.205
341.74	29.782
342.11	29.123
342.47	28.118
342.83	30.435
343.20	31.398
343.56	30.794
343.92	30.825
344.28	30.313
344.65	30.930
345.01	29.641
345.37	31.182
345.73	28.995
346.10	30.577
346.46	30.459
346.82	30.637
347.19	31.474
347.55	31.715
347.91	31.055
348.27	30.349
348.63	30.160
349.00	30.872
349.36	30.483
349.72	30.580
350.08	30.535
350.45	31.179
350.81	30.995
351.17	31.955
351.53	30.478
351.89	31.207
352.26	31.045
352.62	31.194
352.98	31.756
353.34	30.919
353.70	31.972
354.07	30.551
354.43	32.726
354.79	31.638
355.15	31.862
355.51	32.237
355.87	32.311
356.24	33.460
356.60	31.412
356.96	32.617
357.32	32.193
357.68	33.455
358.04	32.186
358.40	32.761
358.77	32.749
359.13	31.462
359.49	31.078
359.85	32.560
360.21	33.859
360.57	31.802
360.93	33.004
361.29	33.825
361.66	32.730
362.02	35.143
362.38	34.364
362.74	34.497
363.10	34.113
363.46	34.141
363.82	34.446
364.18	34.835
364.54	34.993
364.90	35.318
365.26	35.310
365.62	35.333
365.98	34.922
366.35	35.570
366.71	35.782
367.07	36.739
367.43	35.785
367.79	36.961
368.15	36.589
368.51	36.333
368.87	35.728
369.23	36.067
369.59	38.046
369.95	36.849
370.31	37.677
370.67	36.933
371.03	36.981
371.39	36.803
371.75	39.615
372.11	37.263
372.47	38.118
372.83	38.220
373.19	38.359
373.55	38.076
373.91	38.105
374.27	38.551
374.63	38.904
374.99	39.257
375.35	39.481
375.71	38.839
376.07	39.251
376.42	41.184
376.78	40.211
377.14	39.114
377.50	41.556
377.86	39.901
378.22	40.958
378.58	42.152
378.94	41.373
379.30	41.301
379.66	41.387
380.02	42.816
380.38	42.166
380.74	42.479
381.09	43.031
381.45	42.670
381.81	44.906
382.17	43.052
382.53	42.690
382.89	43.059
383.25	43.669
383.61	44.271
383.97	43.934
384.32	44.318
384.68	44.432
385.04	44.708
385.40	45.138
385.76	44.900
386.12	44.285
386.48	45.294
386.83	45.888
387.19	44.902
387.55	45.188
387.91	46.005
388.27	45.266
388.62	45.590
388.98	45.460
389.34	47.378
389.70	47.763
390.06	45.826
390.42	46.084
390.77	46.839
391.13	47.124
391.49	47.101
391.85	47.818
392.20	46.501
392.56	46.604
392.92	46.020
393.28	47.927
393.64	46.704
393.99	48.402
394.35	48.306
394.71	48.982
395.07	49.042
395.42	46.374
395.78	48.568
396.14	49.376
396.50	48.990
396.85	48.778
397.21	49.408
397.57	48.645
397.92	49.198
398.28	48.452
398.64	47.654
399.00	49.058
399.35	49.424
399.71	49.511
400.07	50.140
400.42	49.010
400.78	49.248
401.14	49.858
401.49	49.972
401.85	50.291
402.21	50.232
402.57	50.528
402.92	50.000
403.28	50.000
403.63	51.193
403.99	50.238
404.35	49.460
404.70	49.235
405.06	49.076
405.42	50.585
405.77	51.254
406.13	50.081
406.49	49.381
406.84	50.471
407.20	49.804
407.55	50.333
407.91	49.340
408.27	48.587
408.62	50.960
408.98	49.216
409.34	50.088
409.69	50.680
410.05	50.528
410.40	50.580
410.76	49.748
411.11	50.672
411.47	52.396
411.83	51.146
412.18	51.687
412.54	51.037
412.89	50.698
413.25	51.637
413.60	50.718
413.96	50.991
414.31	51.275
414.67	51.461
415.03	50.954
415.38	52.144
415.74	51.558
416.09	51.326
416.45	51.158
416.80	50.979
417.16	52.363
417.51	52.055
417.87	51.441
418.22	51.437
418.58	52.850
418.93	52.037
419.29	52.281
419.64	51.501
420.00	53.294
420.35	52.274
420.71	51.867
421.06	53.249
421.42	52.351
421.77	52.989
422.12	52.748
422.48	52.637
422.83	53.286
423.19	53.634
423.54	53.761
423.90	53.009
424.25	53.387
424.61	53.042
424.96	53.322
425.31	53.556
425.67	55.019
426.02	54.898
426.38	54.076
426.73	52.846
427.09	54.729
427.44	52.376
427.79	54.561
428.15	54.110
428.50	54.551
428.85	53.846
429.21	56.223
429.56	54.344
429.92	54.595
430.27	55.181
430.62	55.007
430.98	55.534
431.33	54.448
431.68	55.460
432.04	56.171
432.39	55.276
432.74	55.023
433.10	55.706
433.45	55.017
433.80	55.633
434.16	55.837
434.51	57.091
434.86	58.740
435.22	57.173
435.57	57.606
435.92	56.984
436.28	57.053
436.63	58.493
436.98	57.059
437.34	58.455
437.69	56.302
438.04	56.742
438.39	56.060
438.75	56.724
439.10	57.822
439.45	57.798
439.81	57.175
440.16	56.836
440.51	57.135
440.86	57.810
441.22	57.395
441.57	57.338
441.92	57.905
442.27	57.929
442.63	56.930
442.98	59.285
443.33	57.128
443.68	57.384
444.03	58.420
444.39	58.345
444.74	58.550
445.09	56.766
445.44	58.693
445.79	58.381
446.15	58.222
446.50	58.088
446.85	58.025
447.20	57.302
447.55	57.950
447.91	57.382
448.26	57.928
448.61	57.970
448.96	59.388
449.31	58.271
449.66	58.170
450.02	58.122
450.37	58.231
450.72	58.181
451.07	57.631
451.42	57.481
451.77	57.421
452.12	58.973
452.47	57.992
452.83	59.403
453.18	57.910
453.53	58.357
453.88	58.421
454.23	58.192
454.58	58.677
454.93	57.646
455.28	58.399
455.63	57.476
455.98	56.648
456.34	57.656
456.69	56.966
457.04	58.097
457.39	57.816
457.74	59.787
458.09	57.606
458.44	57.435
458.79	56.937
459.14	56.686
459.49	58.291
459.84	58.342
460.19	56.691
460.54	57.467
460.89	58.391
461.24	55.862
461.59	56.558
461.94	56.075
462.29	57.727
462.64	56.910
462.99	56.560
463.34	58.209
463.69	56.096
464.04	56.754
464.39	56.614
464.74	56.214
465.09	55.709
465.44	56.921
465.79	55.632
466.14	55.654
466.49	57.474
466.84	56.474
467.19	54.624
467.54	55.053
467.89	56.092
468.24	56.510
468.59	54.256
468.94	55.886
469.29	54.589
469.64	55.563
469.99	55.832
470.34	55.941
470.68	55.502
471.03	57.040
471.38	55.788
471.73	55.202
472.08	55.203
472.43	55.990
472.78	55.542
473.13	54.804
473.48	54.924
473.83	55.252
474.17	53.751
474.52	55.803
474.87	53.599
475.22	54.817
475.57	54.673
475.92	53.509
476.27	53.781
476.61	53.583
476.96	53.910
477.31	53.861
477.66	54.040
478.01	54.347
478.36	52.393
478.70	54.532
479.05	54.243
479.40	53.554
479.75	53.266
480.10	52.629
480.45	53.601
480.79	53.016
481.14	53.079
481.49	52.749
481.84	52.698
482.19	53.032
482.53	53.301
482.88	53.079
483.23	54.335
483.58	52.576
483.92	51.640
484.27	51.651
484.62	51.980
484.97	51.827
485.31	51.496
485.66	49.122
486.01	48.846
486.36	50.222
486.70	51.782
487.05	53.209
487.40	52.287
487.75	51.603
488.09	51.198
488.44	50.401
488.79	50.624
489.13	49.891
489.48	50.369
489.83	48.451
490.17	49.575
490.52	48.153
490.87	50.042
491.22	49.870
491.56	49.232
491.91	49.455
492.26	48.594
492.60	49.016
492.95	49.144
493.30	48.588
493.64	48.708
493.99	48.904
494.34	47.605
494.68	48.137
495.03	48.943
495.37	48.424
495.72	48.027
496.07	48.028
496.41	47.061
496.76	47.957
497.11	48.323
497.45	48.295
497.80	46.735
498.14	47.710
498.49	47.059
498.84	46.938
499.18	47.908
499.53	47.982
499.87	46.901
500.22	46.794
500.56	45.614
500.91	47.002
501.26	47.591
501.60	46.752
501.95	45.376
502.29	45.502
502.64	46.349
502.98	44.996
503.33	44.752
503.67	44.963
504.02	45.753
504.36	45.398
504.71	44.924
505.06	45.248
505.40	44.698
505.75	44.581
506.09	44.751
506.44	45.311
506.78	45.459
507.13	44.491
507.47	44.481
507.82	43.182
508.16	44.168
508.51	42.804
508.85	45.017
509.19	44.434
509.54	43.132
509.88	42.642
510.23	43.759
510.57	44.369
510.92	44.025
511.26	43.050
511.61	41.236
511.95	42.509
512.30	43.328
512.64	42.479
512.98	41.321
513.33	42.994
513.67	42.478
514.02	42.718
514.36	42.251
514.70	41.875
515.05	43.326
515.39	42.047
515.74	41.994
516.08	42.789
516.42	42.072
516.77	40.799
517.11	40.124
517.46	41.676
517.80	41.368
518.14	41.785
518.49	41.486
518.83	41.192
519.17	40.926
519.52	40.356
519.86	40.444
520.20	40.202
520.55	39.430
520.89	40.372
521.23	40.313
521.58	40.791
521.92	39.660
522.26	39.290
522.61	39.410
522.95	39.562
523.29	40.000
523.64	38.453
523.98	39.760
524.32	40.630
524.66	39.670
525.01	38.901
525.35	38.082
525.69	38.747
526.04	38.117
526.38	38.276
526.72	37.947
527.06	38.475
527.41	37.959
527.75	38.420
528.09	37.367
528.43	36.945
528.78	37.514
529.12	37.500
529.46	37.043
529.80	37.471
530.15	37.507
530.49	37.011
530.83	37.839
531.17	36.977
531.51	36.883
531.86	37.079
532.20	36.829
532.54	35.966
532.88	36.242
533.22	35.710
533.57	36.180
533.91	35.522
534.25	35.783
534.59	35.690
534.93	35.993
535.27	35.549
535.62	36.100
535.96	35.503
536.30	35.194
536.64	35.736
536.98	35.670
537.32	35.062
537.66	35.122
538.01	33.172
538.35	34.105
538.69	33.714
539.03	35.990
539.37	33.451
539.71	34.535
540.05	34.832
540.39	34.169
540.73	32.119
541.07	34.641
541.42	33.491
541.76	32.977
542.10	33.836
542.44	33.313
542.78	34.002
543.12	33.015
543.46	32.845
543.80	32.494
544.14	32.795
544.48	34.279
544.82	33.573
545.16	33.930
545.50	33.253
545.84	32.517
546.18	32.654
546.52	33.121
546.86	32.516
547.20	32.188
547.54	31.773
547.88	32.248
548.22	31.813
548.56	31.949
548.90	31.522
549.24	32.036
549.58	31.420
549.92	31.441
550.26	31.845
550.60	31.653
550.94	31.177
551.28	31.485
551.62	31.469
551.96	31.003
552.30	30.975
552.64	31.301
552.98	31.815
553.32	31.576
553.66	30.611
554.00	31.463
554.34	30.309
554.68	31.375
555.02	30.618
555.36	31.361
555.69	30.301
556.03	30.328
556.37	30.788
556.71	30.818
557.05	30.032
557.39	29.662
557.73	29.789
558.07	29.868
558.41	30.233
558.75	29.682
559.08	31.037
559.42	29.698
559.76	28.630
560.10	29.337
560.44	29.551
560.78	30.125
561.12	29.988
561.45	29.745
561.79	29.853
562.13	30.314
562.47	27.867
562.81	28.481
563.15	28.914
563.48	29.708
563.82	29.625
564.16	28.952
564.50	28.546
564.84	28.437
565.17	28.176
565.51	28.021
565.85	28.563
566.19	28.744
566.52	28.613
566.86	28.410
567.20	28.167
567.54	29.102
567.88	28.644
568.21	29.051
568.55	28.393
568.89	28.734
569.23	28.559
569.56	28.331
569.90	28.760
570.24	28.229
570.57	28.223
570.91	28.016
571.25	28.233
571.59	27.999
571.92	28.012
572.26	27.740
572.60	27.901
572.93	27.303
573.27	27.564
573.61	28.031
573.95	27.749
574.28	27.400
574.62	27.240
574.96	26.886
575.29	26.834
575.63	26.981
575.97	27.449
576.30	27.017
576.64	27.177
576.98	27.130
577.31	27.026
577.65	27.466
577.98	27.447
578.32	26.714
578.66	26.838
578.99	27.278
579.33	27.412
579.67	27.131
580.00	26.635
580.34	26.571
580.67	26.765
581.01	26.915
581.35	26.593
581.68	26.193
582.02	26.238
582.35	27.129
582.69	27.215
583.02	26.855
583.36	26.864
583.70	26.471
584.03	26.158
584.37	26.907
584.70	26.039
585.04	25.785
585.37	26.359
585.71	26.170
586.04	26.398
586.38	26.277
586.72	25.495
587.05	25.633
587.39	26.303
587.72	27.249
588.06	26.088
588.39	26.487
588.73	25.767
589.06	25.734
589.40	26.552
589.73	25.835
590.07	26.293
590.40	25.862
590.73	25.804
591.07	25.949
591.40	25.855
591.74	25.636
592.07	25.538
592.41	25.355
592.74	25.772
593.08	25.127
593.41	26.334
593.75	25.230
594.08	25.507
594.41	25.929
594.75	25.772
595.08	25.808
595.42	25.065
595.75	25.218
596.09	25.313
596.42	24.901
596.75	25.859
597.09	25.172
597.42	24.831
597.75	25.010
598.09	24.484
598.42	25.292
598.76	24.379
599.09	24.066
599.42	24.170
599.76	24.397
600.09	24.057
600.42	24.024
600.76	24.901
601.09	24.527
601.42	24.476
601.76	25.034
602.09	24.410
602.42	24.137
602.76	24.170
603.09	24.706
603.42	25.145
603.76	24.771
604.09	24.947
604.42	24.954
604.76	23.706
605.09	24.531
605.42	24.123
605.75	23.885
606.09	24.113
606.42	24.006
606.75	23.726
607.09	23.041
607.42	24.355
607.75	24.111
608.08	23.520
608.42	23.297
608.75	23.507
609.08	23.684
609.41	24.173
609.75	23.304
610.08	23.835
610.41	23.789
610.74	23.277
611.07	23.623
611.41	24.036
611.74	23.510
612.07	23.936
612.40	23.717
612.73	24.059
613.07	23.619
613.40	23.484
613.73	23.110
614.06	23.602
614.39	23.032
614.72	22.804
615.06	22.281
615.39	22.281
615.72	23.223
616.05	23.312
616.38	23.310
616.71	22.884
617.05	22.151
617.38	22.900
617.71	23.110
618.04	22.396
618.37	22.514
618.70	23.586
619.03	22.879
619.36	22.195
619.69	21.717
620.03	22.222
620.36	22.393
620.69	21.962
621.02	23.294
621.35	23.149
621.68	22.777
622.01	22.064
622.34	21.130
622.67	21.581
623.00	20.310
623.33	22.097
623.66	22.698
623.99	21.264
624.32	23.587
624.65	22.072
624.99	22.367
625.32	22.600
625.65	21.578
625.98	21.966
626.31	21.899
626.64	21.538
626.97	20.030
627.30	20.957
627.63	19.955
627.96	22.297
628.29	21.089
628.62	20.739
628.95	20.684
629.28	20.306
629.61	21.970
629.94	20.502
630.26	22.288
630.59	21.244
630.92	20.173
