SpectraSuite Data File
++++++++++++++++++++++++++++++++++++
Date: Thu May 14 15:56:16 PDT 2015
User: schluterlab
Dark Spectrum Present: Yes
Reference Spectrum Present: Yes
Number of Sampled Component Spectra: 1
Spectrometers: USB2E3373
Integration Time (usec): 3000 (USB2E3373)
Spectra Averaged: 3 (USB2E3373)
Boxcar Smoothing: 0 (USB2E3373)
Correct for Electrical Dark: No (USB2E3373)
Strobe/Lamp Enabled: No (USB2E3373)
Correct for Detector Non-linearity: No (USB2E3373)
Correct for Stray Light: No (USB2E3373)
Number of Pixels in Processed Spectrum: 2048
>>>>>Begin Processed Spectral Data<<<<<
178.53	0.000
178.91	485.714
179.29	-4400.000
179.67	-3000.000
180.04	307.143
180.42	240.000
180.80	680.000
181.18	-3100.000
181.56	-2300.000
181.94	625.000
182.31	-650.000
182.69	800.000
183.07	-1650.000
183.45	950.000
183.83	-450.000
184.20	-1000.000
184.58	2600.000
184.96	-600.000
185.34	-322.222
185.72	-480.000
186.09	388.889
186.47	1750.000
186.85	680.000
187.23	-300.000
187.61	-2700.000
187.98	600.000
188.36	875.000
188.74	-550.000
189.12	-833.333
189.49	-125.000
189.87	-425.000
190.25	-266.667
190.63	-280.000
191.00	-300.000
191.38	0.000
191.76	-775.000
192.14	-516.667
192.51	1500.000
192.89	-366.667
193.27	0.000
193.65	-285.714
194.02	-3700.000
194.40	-371.429
194.78	400.000
195.15	0.000
195.53	-200.000
195.91	0.000
196.29	-775.000
196.66	-200.000
197.04	-4000.000
197.42	-457.143
197.79	-1450.000
198.17	-325.000
198.55	-371.429
198.92	-344.444
199.30	-462.500
199.68	-254.545
200.05	-192.857
200.43	-1600.000
200.81	485.714
201.18	0.000
201.56	422.222
201.94	0.000
202.31	1333.333
202.69	-455.556
203.07	2900.000
203.44	-311.111
203.82	-800.000
204.19	-216.667
204.57	-500.000
204.95	-337.500
205.32	-3500.000
205.70	750.000
206.08	-433.333
206.45	-433.333
206.83	580.000
207.20	-383.333
207.58	-520.000
207.96	-550.000
208.33	-366.667
208.71	300.000
209.08	-400.000
209.46	0.000
209.84	616.667
210.21	1200.000
210.59	1050.000
210.96	933.333
211.34	-550.000
211.71	-362.500
212.09	-3700.000
212.46	0.000
212.84	2000.000
213.22	-600.000
213.59	-750.000
213.97	-150.000
214.34	-1333.333
214.72	583.333
215.09	-575.000
215.47	0.000
215.84	385.714
216.22	1650.000
216.59	-420.000
216.97	-440.000
217.34	-850.000
217.72	-262.500
218.09	-575.000
218.47	-950.000
218.84	0.000
219.22	440.000
219.59	-123.529
219.97	-110.000
220.34	1850.000
220.72	-377.778
221.09	-153.846
221.47	-733.333
221.84	-240.000
222.22	-471.429
222.59	0.000
222.97	-337.500
223.34	-640.000
223.72	-3200.000
224.09	-775.000
224.46	-850.000
224.84	-460.000
225.21	-400.000
225.59	-850.000
225.96	-1025.000
226.34	-96.154
226.71	583.333
227.08	-1750.000
227.46	-180.000
227.83	-800.000
228.21	-126.316
228.58	375.000
228.95	1000.000
229.33	-141.667
229.70	-170.000
230.08	-73.684
230.45	270.000
230.82	-600.000
231.20	-207.143
231.57	-258.333
231.95	-136.364
232.32	-172.727
232.69	-105.000
233.07	-625.000
233.44	-129.412
233.81	-280.000
234.19	-105.556
234.56	-90.909
234.93	-65.517
235.31	-121.053
235.68	-100.000
236.05	-170.000
236.43	-50.000
236.80	-32.000
237.17	-40.741
237.55	-66.667
237.92	-220.000
238.29	-45.161
238.67	-54.545
239.04	-61.111
239.41	-26.190
239.79	-17.391
240.16	-14.815
240.53	-23.913
240.91	-37.255
241.28	-16.393
241.65	1.493
242.02	13.514
242.40	1.538
242.77	-8.000
243.14	-6.098
243.51	-9.211
243.89	-5.128
244.26	13.861
244.63	17.647
245.00	7.477
245.38	2.632
245.75	-3.540
246.12	23.016
246.49	6.977
246.87	14.286
247.24	19.868
247.61	16.447
247.98	17.450
248.36	9.259
248.73	13.497
249.10	12.022
249.47	21.891
249.84	25.131
250.22	22.280
250.59	24.444
250.96	25.455
251.33	19.388
251.70	21.368
252.08	20.833
252.45	20.902
252.82	22.314
253.19	19.922
253.56	25.856
253.94	19.231
254.31	23.106
254.68	24.476
255.05	25.081
255.42	18.707
255.79	22.977
256.16	22.517
256.54	24.834
256.91	27.213
257.28	24.590
257.65	24.204
258.02	20.944
258.39	26.496
258.76	30.275
259.14	27.299
259.51	24.784
259.88	26.062
260.25	28.056
260.62	26.027
260.99	30.055
261.36	27.614
261.73	26.525
262.10	29.670
262.47	26.273
262.85	29.798
263.22	25.974
263.59	26.316
263.96	27.110
264.33	25.575
264.70	29.630
265.07	28.878
265.44	29.252
265.81	26.620
266.18	29.025
266.55	28.125
266.92	27.107
267.29	29.322
267.66	30.377
268.03	31.659
268.40	26.305
268.77	28.018
269.14	29.075
269.51	28.728
269.88	28.279
270.25	29.577
270.62	28.270
270.99	28.283
271.36	29.505
271.73	26.916
272.10	30.261
272.47	27.856
272.84	29.920
273.21	30.461
273.58	26.815
273.95	26.538
274.32	27.757
274.69	25.919
275.06	28.755
275.43	28.466
275.80	28.748
276.17	27.222
276.54	27.985
276.91	25.939
277.28	26.944
277.65	29.443
278.02	28.493
278.39	25.906
278.76	27.065
279.13	27.482
279.50	26.804
279.87	27.907
280.23	25.000
280.60	27.797
280.97	27.961
281.34	28.183
281.71	30.795
282.08	25.581
282.45	27.823
282.82	29.513
283.19	26.494
283.56	27.377
283.92	27.778
284.29	29.226
284.66	28.243
285.03	24.038
285.40	27.512
285.77	26.780
286.14	30.229
286.51	27.397
286.87	26.066
287.24	25.452
287.61	25.859
287.98	25.076
288.35	27.367
288.72	24.704
289.08	25.769
289.45	23.521
289.82	25.904
290.19	25.431
290.56	24.366
290.93	27.389
291.29	26.446
291.66	25.620
292.03	23.202
292.40	24.762
292.77	23.585
293.13	23.816
293.50	24.310
293.87	22.819
294.24	26.400
294.60	24.652
294.97	21.611
295.34	23.175
295.71	22.068
296.08	22.610
296.44	23.284
296.81	22.290
297.18	23.288
297.55	22.052
297.91	20.403
298.28	21.090
298.65	21.165
299.02	21.370
299.38	21.281
299.75	20.911
300.12	20.718
300.48	21.198
300.85	20.472
301.22	22.148
301.59	20.548
301.95	21.356
302.32	21.000
302.69	19.168
303.05	19.369
303.42	20.843
303.79	21.354
304.15	22.923
304.52	20.190
304.89	20.105
305.25	19.772
305.62	18.286
305.99	19.691
306.35	20.766
306.72	21.406
307.09	19.898
307.45	19.255
307.82	18.971
308.19	20.182
308.55	20.154
308.92	20.448
309.29	20.881
309.65	18.129
310.02	20.792
310.38	20.079
310.75	19.612
311.12	19.751
311.48	19.453
311.85	19.658
312.22	19.829
312.58	19.343
312.95	19.312
313.31	18.067
313.68	20.238
314.05	19.422
314.41	21.311
314.78	19.074
315.14	19.147
315.51	20.129
315.87	18.812
316.24	19.543
316.61	19.716
316.97	19.819
317.34	19.400
317.70	20.000
318.07	20.194
318.43	20.578
318.80	21.739
319.16	19.313
319.53	18.595
319.89	19.807
320.26	19.306
320.62	18.617
320.99	19.852
321.35	18.946
321.72	20.837
322.08	18.305
322.45	17.977
322.81	20.668
323.18	19.735
323.54	19.224
323.91	18.238
324.27	17.298
324.64	19.228
325.00	19.486
325.37	18.837
325.73	20.083
326.10	18.978
326.46	19.870
326.83	20.496
327.19	19.606
327.56	20.079
327.92	19.276
328.29	19.113
328.65	19.179
329.01	19.036
329.38	20.388
329.74	19.435
330.11	19.863
330.47	20.219
330.84	19.294
331.20	20.000
331.56	19.497
331.93	19.916
332.29	20.254
332.66	19.269
333.02	18.425
333.38	18.372
333.75	18.687
334.11	19.266
334.48	19.554
334.84	20.391
335.20	18.808
335.57	19.815
335.93	19.669
336.29	18.885
336.66	17.746
337.02	18.813
337.38	19.643
337.75	18.264
338.11	18.923
338.47	18.445
338.84	18.359
339.20	19.292
339.56	18.040
339.93	19.540
340.29	19.243
340.65	17.680
341.02	19.393
341.38	18.917
341.74	17.676
342.11	19.549
342.47	17.792
342.83	18.680
343.20	18.479
343.56	18.524
343.92	18.655
344.28	17.578
344.65	19.147
345.01	18.331
345.37	19.596
345.73	17.615
346.10	18.487
346.46	18.987
346.82	17.978
347.19	18.029
347.55	18.816
347.91	18.574
348.27	19.499
348.63	17.593
349.00	16.779
349.36	18.439
349.72	19.048
350.08	18.648
350.45	16.882
350.81	18.326
351.17	18.045
351.53	18.423
351.89	18.831
352.26	18.134
352.62	17.985
352.98	17.557
353.34	18.223
353.70	17.874
354.07	17.213
354.43	17.540
354.79	17.427
355.15	17.660
355.51	18.275
355.87	18.549
356.24	17.643
356.60	17.886
356.96	18.458
357.32	17.993
357.68	16.911
358.04	17.515
358.40	17.015
358.77	18.640
359.13	16.617
359.49	17.546
359.85	17.404
360.21	17.217
360.57	18.378
360.93	17.983
361.29	17.263
361.66	16.437
362.02	18.650
362.38	18.060
362.74	17.109
363.10	17.056
363.46	17.452
363.82	17.116
364.18	18.015
364.54	16.459
364.90	17.258
365.26	16.552
365.62	18.400
365.98	17.495
366.35	16.980
366.71	18.027
367.07	16.644
367.43	18.253
367.79	16.589
368.15	17.525
368.51	16.712
368.87	16.982
369.23	17.200
369.59	17.760
369.95	16.700
370.31	17.421
370.67	16.713
371.03	17.175
371.39	16.320
371.75	16.988
372.11	17.209
372.47	17.129
372.83	16.558
373.19	17.345
373.55	16.938
373.91	16.155
374.27	16.688
374.63	16.306
374.99	16.910
375.35	17.792
375.71	16.968
376.07	17.108
376.42	16.247
376.78	17.464
377.14	16.906
377.50	16.888
377.86	17.611
378.22	17.246
378.58	17.539
378.94	16.432
379.30	16.227
379.66	16.578
380.02	16.561
380.38	17.857
380.74	15.775
381.09	16.492
381.45	17.557
381.81	17.213
382.17	16.568
382.53	16.784
382.89	16.704
383.25	16.764
383.61	16.377
383.97	16.608
384.32	16.328
384.68	15.719
385.04	17.178
385.40	18.268
385.76	17.057
386.12	15.978
386.48	16.706
386.83	17.104
387.19	16.396
387.55	16.021
387.91	16.495
388.27	17.379
388.62	16.781
388.98	16.356
389.34	17.030
389.70	16.676
390.06	15.986
390.42	16.205
390.77	17.640
391.13	16.138
391.49	16.063
391.85	15.576
392.20	16.607
392.56	15.948
392.92	17.176
393.28	16.584
393.64	15.922
393.99	16.676
394.35	17.523
394.71	16.287
395.07	16.108
395.42	15.991
395.78	16.758
396.14	17.409
396.50	15.855
396.85	15.802
397.21	16.509
397.57	16.196
397.92	16.953
398.28	15.698
398.64	16.476
399.00	15.445
399.35	16.283
399.71	16.359
400.07	16.451
400.42	16.298
400.78	16.667
401.14	16.392
401.49	16.771
401.85	16.221
402.21	17.613
402.57	17.077
402.92	16.194
403.28	15.515
403.63	15.990
403.99	15.736
404.35	16.259
404.70	15.921
405.06	16.196
405.42	15.808
405.77	16.630
406.13	16.045
406.49	16.329
406.84	16.620
407.20	16.266
407.55	15.748
407.91	16.530
408.27	15.548
408.62	16.289
408.98	16.077
409.34	14.721
409.69	15.822
410.05	16.002
410.40	16.531
410.76	16.657
411.11	16.540
411.47	16.216
411.83	16.696
412.18	15.904
412.54	16.123
412.89	16.356
413.25	16.874
413.60	16.312
413.96	16.725
414.31	15.411
414.67	15.921
415.03	15.877
415.38	16.078
415.74	15.455
416.09	16.718
416.45	15.654
416.80	16.218
417.16	15.198
417.51	16.189
417.87	15.144
418.22	15.269
418.58	16.481
418.93	17.462
419.29	15.783
419.64	16.567
420.00	16.024
420.35	15.553
420.71	15.910
421.06	15.584
421.42	16.227
421.77	15.994
422.12	16.649
422.48	16.180
422.83	17.141
423.19	15.756
423.54	16.150
423.90	16.621
424.25	16.213
424.61	15.385
424.96	16.420
425.31	16.667
425.67	14.868
426.02	15.827
426.38	15.040
426.73	15.011
427.09	16.494
427.44	16.275
427.79	15.810
428.15	15.126
428.50	15.449
428.85	14.925
429.21	16.011
429.56	15.647
429.92	15.872
430.27	15.566
430.62	16.365
430.98	15.445
431.33	16.422
431.68	15.900
432.04	16.150
432.39	15.533
432.74	15.468
433.10	15.792
433.45	15.050
433.80	15.933
434.16	16.116
434.51	16.393
434.86	16.558
435.22	16.897
435.57	16.450
435.92	15.971
436.28	15.131
436.63	15.620
436.98	15.244
437.34	17.024
437.69	15.080
438.04	15.918
438.39	16.427
438.75	15.440
439.10	15.803
439.45	15.875
439.81	15.763
440.16	15.335
440.51	15.998
440.86	16.231
441.22	15.166
441.57	15.828
441.92	16.101
442.27	17.020
442.63	16.443
442.98	15.422
443.33	15.939
443.68	16.997
444.03	16.322
444.39	16.181
444.74	16.386
445.09	16.219
445.44	15.648
445.79	15.900
446.15	15.930
446.50	15.762
446.85	16.440
447.20	16.586
447.55	16.841
447.91	15.759
448.26	15.539
448.61	16.259
448.96	16.470
449.31	15.483
449.66	15.087
450.02	16.456
450.37	16.942
450.72	15.823
451.07	16.287
451.42	15.194
451.77	16.009
452.12	16.140
452.47	15.330
452.83	15.541
453.18	15.470
453.53	15.910
453.88	16.068
454.23	16.328
454.58	16.599
454.93	15.837
455.28	16.135
455.63	16.146
455.98	16.369
456.34	15.489
456.69	15.461
457.04	15.603
457.39	16.574
457.74	16.387
458.09	15.706
458.44	16.379
458.79	14.698
459.14	16.099
459.49	14.997
459.84	16.159
460.19	15.547
460.54	16.581
460.89	15.828
461.24	15.115
461.59	15.606
461.94	14.604
462.29	15.901
462.64	15.450
462.99	15.317
463.34	15.380
463.69	15.651
464.04	15.564
464.39	16.087
464.74	15.621
465.09	15.225
465.44	15.773
465.79	16.446
466.14	16.154
466.49	15.474
466.84	15.702
467.19	15.202
467.54	15.159
467.89	16.437
468.24	15.568
468.59	14.881
468.94	13.928
469.29	14.877
469.64	14.685
469.99	14.914
470.34	15.594
470.68	15.653
471.03	14.997
471.38	15.108
471.73	15.150
472.08	15.292
472.43	15.051
472.78	15.491
473.13	15.171
473.48	15.650
473.83	15.961
474.17	15.826
474.52	15.634
474.87	15.338
475.22	16.000
475.57	15.732
475.92	15.580
476.27	15.389
476.61	15.576
476.96	15.798
477.31	15.693
477.66	15.215
478.01	15.506
478.36	15.304
478.70	15.222
479.05	15.440
479.40	16.140
479.75	15.898
480.10	15.538
480.45	15.542
480.79	15.238
481.14	14.982
481.49	15.084
481.84	16.232
482.19	15.828
482.53	15.697
482.88	15.197
483.23	15.562
483.58	15.371
483.92	14.938
484.27	15.792
484.62	15.635
484.97	15.785
485.31	15.276
485.66	15.717
486.01	16.713
486.36	17.312
486.70	17.630
487.05	17.175
487.40	16.253
487.75	16.183
488.09	15.864
488.44	15.351
488.79	15.481
489.13	14.736
489.48	14.602
489.83	15.252
490.17	14.824
490.52	15.025
490.87	15.228
491.22	15.338
491.56	15.188
491.91	15.046
492.26	14.799
492.60	15.479
492.95	15.270
493.30	15.016
493.64	15.506
493.99	15.132
494.34	14.765
494.68	14.818
495.03	15.771
495.37	16.201
495.72	15.238
496.07	15.337
496.41	14.715
496.76	15.346
497.11	15.754
497.45	15.667
497.80	15.415
498.14	15.420
498.49	14.798
498.84	15.311
499.18	15.115
499.53	14.978
499.87	15.736
500.22	14.604
500.56	14.890
500.91	14.188
501.26	16.000
501.60	14.582
501.95	15.284
502.29	14.568
502.64	15.173
502.98	14.754
503.33	14.644
503.67	15.133
504.02	14.974
504.36	15.013
504.71	14.837
505.06	14.507
505.40	14.488
505.75	15.437
506.09	15.424
506.44	15.645
506.78	14.862
507.13	15.353
507.47	14.685
507.82	14.583
508.16	14.818
508.51	14.393
508.85	15.116
509.19	15.538
509.54	15.082
509.88	14.473
510.23	15.736
510.57	15.853
510.92	14.804
511.26	14.574
511.61	14.293
511.95	14.690
512.30	14.968
512.64	13.943
512.98	14.557
513.33	14.667
513.67	15.247
514.02	14.716
514.36	14.680
514.70	14.635
515.05	15.902
515.39	15.171
515.74	14.634
516.08	14.844
516.42	15.123
516.77	14.301
517.11	14.647
517.46	14.316
517.80	14.698
518.14	15.071
518.49	14.208
518.83	14.316
519.17	13.086
519.52	14.623
519.86	14.784
520.20	14.696
520.55	13.582
520.89	13.964
521.23	14.015
521.58	14.915
521.92	13.824
522.26	14.433
522.61	13.831
522.95	14.014
523.29	14.023
523.64	13.509
523.98	15.060
524.32	14.441
524.66	14.456
525.01	13.590
525.35	14.072
525.69	13.921
526.04	13.949
526.38	14.138
526.72	14.014
527.06	14.663
527.41	14.519
527.75	14.727
528.09	13.695
528.43	14.328
528.78	13.295
529.12	13.188
529.46	14.840
529.80	13.959
530.15	14.493
530.49	13.405
530.83	14.581
531.17	14.098
531.51	14.079
531.86	14.603
532.20	14.634
532.54	14.243
532.88	13.455
533.22	14.673
533.57	14.714
533.91	14.815
534.25	14.076
534.59	14.828
534.93	14.205
535.27	14.197
535.62	15.804
535.96	14.933
536.30	14.277
536.64	14.234
536.98	14.330
537.32	14.198
537.66	13.911
538.01	14.079
538.35	13.337
538.69	14.243
539.03	14.408
539.37	15.077
539.71	15.075
540.05	14.269
540.39	13.631
540.73	13.904
541.07	14.040
541.42	14.058
541.76	13.701
542.10	13.752
542.44	13.825
542.78	13.990
543.12	14.541
543.46	14.347
543.80	13.909
544.14	14.602
544.48	14.007
544.82	15.380
545.16	15.564
545.50	14.979
545.84	14.023
546.18	15.000
546.52	14.140
546.86	14.025
547.20	13.868
547.54	14.232
547.88	14.828
548.22	14.211
548.56	14.745
548.90	14.388
549.24	14.103
549.58	13.943
549.92	13.393
550.26	14.369
550.60	14.742
550.94	14.489
551.28	13.267
551.62	13.679
551.96	13.851
552.30	14.595
552.64	13.690
552.98	13.849
553.32	13.183
553.66	14.084
554.00	14.691
554.34	14.028
554.68	13.880
555.02	13.469
555.36	13.807
555.69	14.029
556.03	13.619
556.37	14.956
556.71	13.824
557.05	14.377
557.39	13.205
557.73	13.474
558.07	13.576
558.41	14.153
558.75	13.185
559.08	13.987
559.42	13.992
559.76	14.043
560.10	13.999
560.44	14.314
560.78	14.875
561.12	13.916
561.45	15.268
561.79	13.797
562.13	14.048
562.47	13.687
562.81	13.354
563.15	14.710
563.48	13.673
563.82	14.027
564.16	13.628
564.50	14.660
564.84	13.333
565.17	15.000
565.51	14.384
565.85	13.064
566.19	13.767
566.52	14.336
566.86	13.978
567.20	13.921
567.54	14.498
567.88	15.189
568.21	14.476
568.55	15.108
568.89	15.887
569.23	15.589
569.56	15.436
569.90	16.358
570.24	16.020
570.57	15.523
570.91	15.554
571.25	16.199
571.59	16.504
571.92	15.645
572.26	16.120
572.60	15.971
572.93	15.920
573.27	15.538
573.61	15.934
573.95	16.023
574.28	16.398
574.62	16.235
574.96	16.365
575.29	15.664
575.63	16.286
575.97	16.144
576.30	15.939
576.64	16.130
576.98	16.310
577.31	15.966
577.65	16.653
577.98	16.340
578.32	16.161
578.66	16.453
578.99	15.974
579.33	15.718
579.67	15.526
580.00	15.779
580.34	16.056
580.67	15.865
581.01	15.816
581.35	16.326
581.68	16.539
582.02	16.759
582.35	16.968
582.69	17.225
583.02	15.960
583.36	16.061
583.70	15.656
584.03	15.503
584.37	15.330
584.70	15.281
585.04	15.717
585.37	16.019
585.71	16.289
586.04	16.402
586.38	15.901
586.72	15.367
587.05	15.631
587.39	16.355
587.72	16.220
588.06	15.691
588.39	15.858
588.73	15.820
589.06	15.040
589.40	15.458
589.73	15.456
590.07	15.351
590.40	15.179
590.73	15.376
591.07	15.376
591.40	15.241
591.74	14.348
592.07	14.941
592.41	15.103
592.74	15.371
593.08	16.019
593.41	16.623
593.75	16.207
594.08	15.601
594.41	15.865
594.75	15.543
595.08	15.343
595.42	15.065
595.75	15.434
596.09	15.825
596.42	15.048
596.75	14.782
597.09	15.152
597.42	15.018
597.75	15.210
598.09	15.278
598.42	14.837
598.76	15.055
599.09	15.450
599.42	15.722
599.76	15.187
600.09	16.016
600.42	15.516
600.76	15.225
601.09	15.134
601.42	15.826
601.76	15.034
602.09	15.046
602.42	14.504
602.76	14.760
603.09	15.272
603.42	15.282
603.76	14.905
604.09	15.224
604.42	15.229
604.76	14.764
605.09	15.158
605.42	15.391
605.75	15.038
606.09	15.006
606.42	15.104
606.75	15.030
607.09	14.900
607.42	15.145
607.75	15.279
608.08	14.759
608.42	14.833
608.75	14.718
609.08	14.389
609.41	14.777
609.75	14.420
610.08	15.699
610.41	15.123
610.74	14.916
611.07	14.831
611.41	15.112
611.74	14.781
612.07	15.241
612.40	13.926
612.73	14.474
613.07	14.572
613.40	15.111
613.73	14.540
614.06	14.279
614.39	14.043
614.72	14.459
615.06	14.485
615.39	14.161
615.72	14.550
616.05	14.376
616.38	14.026
616.71	14.890
617.05	13.898
617.38	15.142
617.71	14.957
618.04	13.708
618.37	14.973
618.70	14.932
619.03	13.560
619.36	13.748
619.69	13.453
620.03	13.559
620.36	13.865
620.69	13.325
621.02	13.320
621.35	13.498
621.68	13.594
622.01	12.811
622.34	13.180
622.67	12.715
623.00	12.416
623.33	13.802
623.66	14.137
623.99	13.759
624.32	14.360
624.65	13.771
624.99	14.304
625.32	14.304
625.65	13.621
625.98	12.542
626.31	13.182
626.64	13.260
626.97	12.378
627.30	12.832
627.63	11.778
627.96	13.138
628.29	12.996
628.62	11.419
628.95	11.919
629.28	11.980
629.61	13.468
629.94	12.301
630.26	11.525
630.59	11.572
