SpectraSuite Data File
++++++++++++++++++++++++++++++++++++
Date: Thu May 14 15:57:01 PDT 2015
User: schluterlab
Dark Spectrum Present: Yes
Reference Spectrum Present: Yes
Number of Sampled Component Spectra: 1
Spectrometers: USB2E3373
Integration Time (usec): 3000 (USB2E3373)
Spectra Averaged: 3 (USB2E3373)
Boxcar Smoothing: 0 (USB2E3373)
Correct for Electrical Dark: No (USB2E3373)
Strobe/Lamp Enabled: No (USB2E3373)
Correct for Detector Non-linearity: No (USB2E3373)
Correct for Stray Light: No (USB2E3373)
Number of Pixels in Processed Spectrum: 2048
>>>>>Begin Processed Spectral Data<<<<<
178.53	0.000
178.91	328.571
179.29	-3900.000
179.67	-3300.000
180.04	278.571
180.42	290.000
180.80	600.000
181.18	-2600.000
181.56	-2000.000
181.94	650.000
182.31	-475.000
182.69	833.333
183.07	-900.000
183.45	625.000
183.83	-433.333
184.20	-800.000
184.58	1500.000
184.96	-425.000
185.34	-300.000
185.72	-240.000
186.09	433.333
186.47	1250.000
186.85	640.000
187.23	-333.333
187.61	-2800.000
187.98	380.000
188.36	650.000
188.74	-450.000
189.12	-800.000
189.49	-162.500
189.87	-300.000
190.25	-222.222
190.63	-420.000
191.00	-233.333
191.38	0.000
191.76	-550.000
192.14	-600.000
192.51	1450.000
192.89	-300.000
193.27	0.000
193.65	-371.429
194.02	-2900.000
194.40	-242.857
194.78	371.429
195.15	0.000
195.53	-245.455
195.91	0.000
196.29	-725.000
196.66	-176.923
197.04	-3000.000
197.42	-271.429
197.79	-800.000
198.17	-275.000
198.55	-342.857
198.92	-166.667
199.30	-300.000
199.68	-118.182
200.05	-192.857
200.43	-1450.000
200.81	442.857
201.18	0.000
201.56	366.667
201.94	0.000
202.31	1033.333
202.69	-311.111
203.07	2300.000
203.44	-211.111
203.82	-625.000
204.19	-191.667
204.57	-483.333
204.95	-275.000
205.32	-3600.000
205.70	450.000
206.08	-483.333
206.45	-283.333
206.83	640.000
207.20	-500.000
207.58	-520.000
207.96	-416.667
208.33	-316.667
208.71	300.000
209.08	-333.333
209.46	0.000
209.84	533.333
210.21	1500.000
210.59	1450.000
210.96	1166.667
211.34	-575.000
211.71	-350.000
212.09	-2600.000
212.46	0.000
212.84	1700.000
213.22	-540.000
213.59	-525.000
213.97	-220.000
214.34	-933.333
214.72	433.333
215.09	-650.000
215.47	0.000
215.84	385.714
216.22	1750.000
216.59	-480.000
216.97	-520.000
217.34	-550.000
217.72	-150.000
218.09	-675.000
218.47	-800.000
218.84	0.000
219.22	580.000
219.59	-147.059
219.97	-105.000
220.34	1700.000
220.72	-288.889
221.09	-84.615
221.47	-666.667
221.84	-180.000
222.22	-257.143
222.59	0.000
222.97	-312.500
223.34	-620.000
223.72	-2400.000
224.09	-550.000
224.46	-700.000
224.84	-380.000
225.21	-328.571
225.59	-500.000
225.96	-725.000
226.34	-69.231
226.71	516.667
227.08	-1100.000
227.46	-200.000
227.83	-600.000
228.21	-100.000
228.58	312.500
228.95	1300.000
229.33	-158.333
229.70	-200.000
230.08	-52.632
230.45	280.000
230.82	-833.333
231.20	-114.286
231.57	-166.667
231.95	-200.000
232.32	-190.909
232.69	-110.000
233.07	-650.000
233.44	-105.882
233.81	-280.000
234.19	-127.778
234.56	-86.364
234.93	-51.724
235.31	-100.000
235.68	-94.444
236.05	-105.000
236.43	-19.231
236.80	-76.000
237.17	-66.667
237.55	-27.273
237.92	-190.000
238.29	-51.613
238.67	-36.364
239.04	-36.111
239.41	-38.095
239.79	-39.130
240.16	-12.963
240.53	-43.478
240.91	-29.412
241.28	-6.557
241.65	0.000
242.02	5.405
242.40	-6.154
242.77	-6.667
243.14	-9.756
243.51	-23.684
243.89	-2.564
244.26	18.812
244.63	5.882
245.00	5.607
245.38	2.632
245.75	-10.619
246.12	13.492
246.49	3.101
246.87	7.143
247.24	16.556
247.61	6.579
247.98	13.423
248.36	10.494
248.73	6.748
249.10	18.033
249.47	19.900
249.84	19.372
250.22	11.917
250.59	16.667
250.96	18.182
251.33	14.796
251.70	18.376
252.08	17.917
252.45	19.672
252.82	14.876
253.19	19.141
253.56	22.433
253.94	19.615
254.31	23.864
254.68	21.678
255.05	21.498
255.42	21.088
255.79	16.828
256.16	21.523
256.54	19.205
256.91	22.295
257.28	21.311
257.65	21.019
258.02	19.469
258.39	21.083
258.76	23.547
259.14	23.851
259.51	24.496
259.88	20.397
260.25	25.833
260.62	23.836
260.99	23.770
261.36	21.448
261.73	23.342
262.10	23.901
262.47	21.448
262.85	26.768
263.22	24.675
263.59	20.000
263.96	22.506
264.33	21.228
264.70	21.235
265.07	26.492
265.44	27.664
265.81	22.685
266.18	26.077
266.55	20.536
266.92	23.462
267.29	23.414
267.66	26.164
268.03	24.454
268.40	24.217
268.77	23.690
269.14	21.806
269.51	22.149
269.88	24.385
270.25	22.133
270.62	27.215
270.99	21.212
271.36	24.554
271.73	24.361
272.10	24.850
272.47	26.052
272.84	22.088
273.21	22.244
273.58	24.597
273.95	22.500
274.32	23.194
274.69	21.277
275.06	24.725
275.43	22.551
275.80	22.399
276.17	22.037
276.54	22.575
276.91	23.792
277.28	22.604
277.65	24.057
278.02	22.794
278.39	21.739
278.76	21.793
279.13	22.163
279.50	24.055
279.87	22.719
280.23	21.303
280.60	24.407
280.97	22.204
281.34	23.430
281.71	24.196
282.08	23.588
282.45	21.277
282.82	21.036
283.19	22.294
283.56	21.475
283.92	24.474
284.29	24.803
284.66	25.616
285.03	19.872
285.40	23.648
285.77	22.601
286.14	22.595
286.51	23.744
286.87	22.275
287.24	23.042
287.61	22.422
287.98	21.148
288.35	20.414
288.72	22.337
289.08	24.744
289.45	24.704
289.82	20.783
290.19	22.270
290.56	20.986
290.93	20.685
291.29	21.212
291.66	20.386
292.03	18.046
292.40	21.088
292.77	19.407
293.13	20.839
293.50	20.631
293.87	19.597
294.24	21.600
294.60	20.607
294.97	18.658
295.34	18.694
295.71	18.537
296.08	18.992
296.44	18.627
296.81	19.367
297.18	18.680
297.55	17.571
297.91	17.794
298.28	15.640
298.65	19.382
299.02	18.536
299.38	20.023
299.75	17.991
300.12	16.435
300.48	19.355
300.85	18.560
301.22	16.890
301.59	18.265
301.95	17.401
302.32	17.333
302.69	16.977
303.05	17.519
303.42	17.627
303.79	17.812
304.15	18.822
304.52	17.759
304.89	17.173
305.25	17.391
305.62	18.077
305.99	17.113
306.35	16.734
306.72	18.925
307.09	16.041
307.45	17.598
307.82	17.558
308.19	16.953
308.55	18.997
308.92	16.650
309.29	17.816
309.65	18.129
310.02	16.832
310.38	17.224
310.75	17.476
311.12	18.792
311.48	17.791
311.85	18.519
312.22	17.932
312.58	17.746
312.95	17.973
313.31	17.615
313.68	18.773
314.05	19.241
314.41	19.126
314.78	18.438
315.14	20.236
315.51	19.114
315.87	19.892
316.24	20.365
316.61	21.403
316.97	19.548
317.34	18.430
317.70	21.135
318.07	20.459
318.43	21.599
318.80	20.652
319.16	21.030
319.53	19.709
319.89	21.385
320.26	22.331
320.62	22.695
320.99	23.084
321.35	21.534
321.72	24.465
322.08	22.813
322.45	24.661
322.81	24.639
323.18	24.690
323.54	23.879
323.91	25.267
324.27	24.957
324.64	26.029
325.00	25.622
325.37	26.044
325.73	26.529
326.10	25.710
326.46	25.896
326.83	26.902
327.19	26.693
327.56	26.324
327.92	26.829
328.29	25.968
328.65	26.717
329.01	27.834
329.38	27.717
329.74	28.510
330.11	28.082
330.47	28.138
330.84	26.873
331.20	28.417
331.56	27.990
331.93	28.787
332.29	29.915
332.66	28.738
333.02	28.057
333.38	27.852
333.75	27.441
334.11	28.524
334.48	28.795
334.84	28.547
335.20	27.288
335.57	28.499
335.93	27.769
336.29	27.371
336.66	27.166
337.02	27.926
337.38	28.316
337.75	26.777
338.11	29.100
338.47	27.626
338.84	27.242
339.20	27.380
339.56	26.277
339.93	26.683
340.29	26.892
340.65	26.926
341.02	26.576
341.38	27.486
341.74	26.231
342.11	28.077
342.47	26.608
342.83	26.812
343.20	27.637
343.56	27.666
343.92	27.142
344.28	27.500
344.65	27.442
345.01	26.443
345.37	27.838
345.73	27.202
346.10	28.159
346.46	26.741
346.82	27.491
347.19	27.196
347.55	27.997
347.91	26.746
348.27	27.390
348.63	26.885
349.00	27.069
349.36	26.840
349.72	26.637
350.08	27.860
350.45	27.529
350.81	26.998
351.17	25.789
351.53	27.142
351.89	26.803
352.26	26.866
352.62	26.119
352.98	25.954
353.34	26.214
353.70	25.886
354.07	27.124
354.43	26.120
354.79	25.729
355.15	26.049
355.51	27.120
355.87	25.206
356.24	27.148
356.60	25.277
356.96	26.983
357.32	25.948
357.68	26.428
358.04	25.449
358.40	25.672
358.77	26.462
359.13	25.480
359.49	25.725
359.85	26.251
360.21	26.399
360.57	26.202
360.93	25.811
361.29	26.246
361.66	25.272
362.02	25.748
362.38	26.142
362.74	26.536
363.10	26.891
363.46	26.801
363.82	26.776
364.18	26.812
364.54	26.418
364.90	27.559
365.26	26.276
365.62	26.933
365.98	25.936
366.35	25.369
366.71	26.054
367.07	27.131
367.43	25.804
367.79	27.671
368.15	27.826
368.51	26.996
368.87	26.976
369.23	26.267
369.59	26.708
369.95	27.113
370.31	27.346
370.67	27.235
371.03	27.285
371.39	26.461
371.75	26.685
372.11	26.626
372.47	27.420
372.83	27.160
373.19	27.819
373.55	26.558
373.91	26.585
374.27	26.908
374.63	27.199
374.99	27.122
375.35	27.727
375.71	27.742
376.07	27.695
376.42	26.826
376.78	27.719
377.14	28.135
377.50	28.273
377.86	27.340
378.22	28.144
378.58	28.419
378.94	27.758
379.30	28.295
379.66	28.336
380.02	28.563
380.38	28.456
380.74	27.718
381.09	29.036
381.45	29.205
381.81	29.742
382.17	28.919
382.53	28.655
382.89	28.555
383.25	29.543
383.61	27.951
383.97	28.445
384.32	29.067
384.68	28.248
385.04	30.017
385.40	28.462
385.76	30.363
386.12	29.743
386.48	29.765
386.83	29.440
387.19	29.027
387.55	29.519
387.91	30.080
388.27	29.388
388.62	29.496
388.98	28.032
389.34	29.523
389.70	29.924
390.06	30.432
390.42	29.277
390.77	30.584
391.13	29.812
391.49	30.495
391.85	29.758
392.20	30.605
392.56	30.892
392.92	30.098
393.28	30.348
393.64	30.559
393.99	31.028
394.35	30.958
394.71	32.036
395.07	29.820
395.42	31.239
395.78	30.957
396.14	31.075
396.50	30.523
396.85	31.067
397.21	31.538
397.57	31.449
397.92	30.641
398.28	30.310
398.64	31.293
399.00	30.733
399.35	31.885
399.71	31.793
400.07	31.162
400.42	30.384
400.78	31.481
401.14	31.303
401.49	31.609
401.85	31.686
402.21	31.866
402.57	32.394
402.92	31.324
403.28	31.323
403.63	30.847
403.99	31.354
404.35	31.438
404.70	32.635
405.06	32.228
405.42	32.260
405.77	33.097
406.13	32.415
406.49	32.432
406.84	32.299
407.20	31.750
407.55	31.920
407.91	32.432
408.27	31.625
408.62	33.042
408.98	33.372
409.34	31.848
409.69	32.447
410.05	32.532
410.40	33.353
410.76	32.642
411.11	32.963
411.47	32.985
411.83	33.451
412.18	34.277
412.54	33.195
412.89	32.829
413.25	33.634
413.60	33.544
413.96	33.100
414.31	32.238
414.67	32.558
415.03	32.246
415.38	34.489
415.74	33.232
416.09	33.683
416.45	33.125
416.80	32.925
417.16	33.525
417.51	32.752
417.87	33.231
418.22	32.754
418.58	32.900
418.93	34.575
419.29	34.464
419.64	33.313
420.00	34.006
420.35	33.577
420.71	33.946
421.06	33.353
421.42	34.633
421.77	33.926
422.12	33.562
422.48	34.255
422.83	35.542
423.19	33.528
423.54	35.177
423.90	34.787
424.25	35.360
424.61	34.041
424.96	34.761
425.31	35.085
425.67	33.870
426.02	35.639
426.38	34.271
426.73	34.096
427.09	36.794
427.44	34.353
427.79	35.987
428.15	34.132
428.50	35.000
428.85	34.615
429.21	36.011
429.56	35.637
429.92	35.479
430.27	35.566
430.62	35.662
430.98	35.170
431.33	35.288
431.68	35.489
432.04	37.227
432.39	36.101
432.74	35.388
433.10	35.695
433.45	35.061
433.80	36.159
434.16	35.640
434.51	36.074
434.86	38.274
435.22	37.460
435.57	36.085
435.92	36.895
436.28	38.055
436.63	37.029
436.98	36.554
437.34	36.640
437.69	36.379
438.04	36.700
438.39	35.784
438.75	36.414
439.10	36.628
439.45	36.445
439.81	35.989
440.16	37.373
440.51	37.458
440.86	36.854
441.22	36.388
441.57	37.264
441.92	37.439
442.27	37.879
442.63	37.804
442.98	37.780
443.33	37.244
443.68	38.157
444.03	38.711
444.39	37.725
444.74	37.774
445.09	36.999
445.44	38.514
445.79	38.554
446.15	38.438
446.50	37.209
446.85	38.619
447.20	38.008
447.55	38.285
447.91	38.429
448.26	37.791
448.61	37.885
448.96	39.056
449.31	37.911
449.66	37.636
450.02	37.975
450.37	38.679
450.72	37.890
451.07	37.870
451.42	38.128
451.77	37.799
452.12	37.980
452.47	37.671
452.83	38.851
453.18	38.179
453.53	38.828
453.88	39.205
454.23	39.153
454.58	38.189
454.93	37.985
455.28	39.795
455.63	37.578
455.98	38.156
456.34	38.516
456.69	38.095
457.04	38.061
457.39	37.361
457.74	40.157
458.09	38.386
458.44	37.716
458.79	37.597
459.14	37.913
459.49	38.540
459.84	38.720
460.19	38.034
460.54	37.365
460.89	38.962
461.24	37.586
461.59	39.236
461.94	37.136
462.29	38.914
462.64	37.296
462.99	38.920
463.34	37.897
463.69	37.104
464.04	38.132
464.39	38.004
464.74	37.742
465.09	37.601
465.44	39.002
465.79	37.599
466.14	37.572
466.49	38.526
466.84	38.733
467.19	38.092
467.54	36.957
467.89	37.586
468.24	38.006
468.59	36.306
468.94	36.305
469.29	35.933
469.64	38.144
469.99	37.349
470.34	36.386
470.68	36.774
471.03	38.376
471.38	37.148
471.73	37.061
472.08	36.929
472.43	37.809
472.78	37.531
473.13	36.283
473.48	36.979
473.83	37.667
474.17	36.987
474.52	37.222
474.87	36.268
475.22	37.803
475.57	37.383
475.92	37.382
476.27	37.274
476.61	37.072
476.96	36.131
477.31	36.931
477.66	37.566
478.01	36.299
478.36	36.740
478.70	37.291
479.05	36.554
479.40	37.117
479.75	36.840
480.10	36.712
480.45	36.600
480.79	37.551
481.14	36.489
481.49	36.756
481.84	37.424
482.19	36.989
482.53	36.729
482.88	37.129
483.23	36.327
483.58	36.332
483.92	35.904
484.27	36.198
484.62	36.427
484.97	36.236
485.31	35.832
485.66	34.107
486.01	34.534
486.36	36.231
486.70	37.396
487.05	38.451
487.40	37.172
487.75	37.048
488.09	36.686
488.44	36.313
488.79	36.223
489.13	35.518
489.48	35.107
489.83	35.131
490.17	35.318
490.52	36.002
490.87	35.152
491.22	35.355
491.56	35.111
491.91	35.979
492.26	35.136
492.60	35.330
492.95	35.103
493.30	34.379
493.64	34.998
493.99	35.044
494.34	33.406
494.68	34.818
495.03	35.242
495.37	34.221
495.72	34.512
496.07	34.969
496.41	34.277
496.76	34.821
497.11	34.650
497.45	34.398
497.80	34.207
498.14	33.605
498.49	33.640
498.84	33.821
499.18	34.818
499.53	34.529
499.87	33.934
500.22	33.838
500.56	33.693
500.91	34.600
501.26	34.000
501.60	33.495
501.95	33.825
502.29	34.313
502.64	33.887
502.98	33.822
503.33	33.305
503.67	33.319
504.02	34.194
504.36	33.199
504.71	33.165
505.06	32.879
505.40	33.181
505.75	32.104
506.09	33.471
506.44	33.148
506.78	33.899
507.13	33.979
507.47	33.160
507.82	34.044
508.16	33.078
508.51	32.865
508.85	33.018
509.19	33.018
509.54	33.093
509.88	32.492
510.23	32.880
510.57	32.479
510.92	32.946
511.26	32.997
511.61	31.965
511.95	32.308
512.30	32.053
512.64	31.334
512.98	31.766
513.33	32.308
513.67	31.617
514.02	32.294
514.36	31.662
514.70	32.344
515.05	32.273
515.39	31.549
515.74	32.238
516.08	32.118
516.42	31.868
516.77	31.914
517.11	30.892
517.46	32.131
517.80	31.320
518.14	31.393
518.49	31.562
518.83	31.080
519.17	30.425
519.52	31.971
519.86	30.465
520.20	30.618
520.55	30.668
520.89	31.137
521.23	30.765
521.58	31.977
521.92	30.482
522.26	30.699
522.61	29.919
522.95	29.931
523.29	29.828
523.64	31.054
523.98	30.690
524.32	31.003
524.66	30.563
525.01	29.728
525.35	30.385
525.69	30.278
526.04	29.162
526.38	29.770
526.72	29.815
527.06	30.968
527.41	30.321
527.75	30.582
528.09	30.342
528.43	30.373
528.78	29.133
529.12	29.530
529.46	28.893
529.80	29.577
530.15	30.145
530.49	29.834
530.83	30.283
531.17	29.869
531.51	28.941
531.86	29.087
532.20	29.695
532.54	28.665
532.88	29.030
533.22	28.108
533.57	29.371
533.91	29.966
534.25	28.717
534.59	29.540
534.93	28.183
535.27	29.521
535.62	28.653
535.96	29.111
536.30	28.026
536.64	28.709
536.98	29.336
537.32	29.012
537.66	29.382
538.01	28.157
538.35	27.406
538.69	28.666
539.03	29.307
539.37	28.740
539.71	27.928
540.05	29.077
540.39	28.301
540.73	27.262
541.07	28.817
541.42	28.470
541.76	28.114
542.10	27.925
542.44	27.893
542.78	27.798
543.12	27.175
543.46	27.961
543.80	26.199
544.14	27.828
544.48	28.014
544.82	28.067
545.16	27.132
545.50	28.101
545.84	27.189
546.18	27.840
546.52	27.006
546.86	26.478
547.20	26.336
547.54	27.091
547.88	26.281
548.22	26.550
548.56	27.033
548.90	27.403
549.24	27.720
549.58	26.562
549.92	27.105
550.26	27.573
550.60	26.548
550.94	26.132
551.28	26.535
551.62	27.358
551.96	26.602
552.30	27.151
552.64	27.131
552.98	26.638
553.32	26.881
553.66	26.559
554.00	26.419
554.34	26.062
554.68	25.888
555.02	25.493
555.36	27.022
555.69	25.689
556.03	26.797
556.37	26.596
556.71	25.808
557.05	25.879
557.39	25.481
557.73	25.892
558.07	26.093
558.41	26.312
558.75	25.761
559.08	26.235
559.42	24.417
559.76	26.323
560.10	25.117
560.44	25.726
560.78	26.875
561.12	25.246
561.45	26.886
561.79	25.458
562.13	26.186
562.47	25.709
562.81	25.316
563.15	26.326
563.48	25.233
563.82	24.970
564.16	25.015
564.50	25.983
564.84	24.071
565.17	25.412
565.51	24.856
565.85	24.525
566.19	25.115
566.52	25.688
566.86	25.750
567.20	24.307
567.54	25.119
567.88	25.433
568.21	25.247
568.55	25.899
568.89	25.919
569.23	26.109
569.56	25.205
569.90	26.123
570.24	26.341
570.57	25.818
570.91	25.046
571.25	25.803
571.59	25.995
571.92	25.720
572.26	25.728
572.60	25.225
572.93	25.383
573.27	25.457
573.61	25.093
573.95	25.127
574.28	26.022
574.62	25.853
574.96	25.055
575.29	25.072
575.63	25.433
575.97	25.365
576.30	25.019
576.64	25.292
576.98	25.057
577.31	25.449
577.65	25.361
577.98	25.132
578.32	24.766
578.66	25.386
578.99	24.841
579.33	25.456
579.67	25.181
580.00	25.174
580.34	24.847
580.67	24.978
581.01	25.011
581.35	24.937
581.68	24.862
582.02	24.902
582.35	25.880
582.69	25.163
583.02	24.986
583.36	25.508
583.70	25.358
584.03	24.982
584.37	25.130
584.70	24.474
585.04	24.599
585.37	24.481
585.71	24.229
586.04	24.945
586.38	24.211
586.72	24.016
587.05	24.559
587.39	24.757
587.72	25.191
588.06	24.758
588.39	24.347
588.73	24.365
589.06	24.097
589.40	24.554
589.73	24.454
590.07	24.436
590.40	24.713
590.73	24.107
591.07	25.465
591.40	23.639
591.74	23.410
592.07	24.279
592.41	23.738
592.74	23.287
593.08	23.726
593.41	24.351
593.75	23.994
594.08	23.629
594.41	23.942
594.75	23.779
595.08	23.991
595.42	24.026
595.75	23.797
596.09	24.263
596.42	23.791
596.75	24.161
597.09	23.434
597.42	23.282
597.75	23.520
598.09	24.127
598.42	23.361
598.76	22.965
599.09	22.855
599.42	22.896
599.76	22.945
600.09	23.190
600.42	22.956
600.76	22.622
601.09	23.199
601.42	22.417
601.76	22.655
602.09	23.124
602.42	22.755
602.76	23.173
603.09	22.761
603.42	22.977
603.76	22.903
604.09	23.847
604.42	23.266
604.76	23.212
605.09	22.736
605.42	22.967
605.75	22.192
606.09	22.695
606.42	22.218
606.75	22.376
607.09	21.237
607.42	22.582
607.75	22.704
608.08	22.494
608.42	22.934
608.75	22.305
609.08	22.029
609.41	21.923
609.75	21.964
610.08	22.823
610.41	21.920
610.74	22.521
611.07	21.714
611.41	22.018
611.74	21.801
612.07	22.160
612.40	21.673
612.73	21.369
613.07	21.320
613.40	21.992
613.73	21.810
614.06	22.424
614.39	22.109
614.72	21.252
615.06	20.500
615.39	20.783
615.72	21.896
616.05	21.321
616.38	21.695
616.71	20.899
617.05	20.181
617.38	21.616
617.71	21.868
618.04	20.669
618.37	21.257
618.70	21.493
619.03	21.386
619.36	20.284
619.69	19.987
620.03	19.962
620.36	21.043
620.69	20.049
621.02	21.194
621.35	21.263
621.68	21.330
622.01	20.498
622.34	20.502
622.67	20.069
623.00	20.175
623.33	21.500
623.66	20.623
623.99	21.132
624.32	20.663
624.65	20.142
624.99	21.131
625.32	21.424
625.65	21.241
625.98	19.322
626.31	19.348
626.64	21.245
626.97	20.555
627.30	18.831
627.63	19.130
627.96	20.345
628.29	19.689
628.62	17.884
628.95	18.493
629.28	18.692
629.61	19.613
629.94	18.828
630.26	19.492
630.59	18.826
