SpectraSuite Data File
++++++++++++++++++++++++++++++++++++
Date: Thu May 14 15:56:43 PDT 2015
User: schluterlab
Dark Spectrum Present: Yes
Reference Spectrum Present: Yes
Number of Sampled Component Spectra: 1
Spectrometers: USB2E3373
Integration Time (usec): 3000 (USB2E3373)
Spectra Averaged: 3 (USB2E3373)
Boxcar Smoothing: 0 (USB2E3373)
Correct for Electrical Dark: No (USB2E3373)
Strobe/Lamp Enabled: No (USB2E3373)
Correct for Detector Non-linearity: No (USB2E3373)
Correct for Stray Light: No (USB2E3373)
Number of Pixels in Processed Spectrum: 2048
>>>>>Begin Processed Spectral Data<<<<<
178.53	0.000
178.91	371.429
179.29	-3000.000
179.67	-2900.000
180.04	292.857
180.42	250.000
180.80	700.000
181.18	-3200.000
181.56	-1700.000
181.94	600.000
182.31	-500.000
182.69	866.667
183.07	-1350.000
183.45	800.000
183.83	-350.000
184.20	-833.333
184.58	1900.000
184.96	-725.000
185.34	-377.778
185.72	-320.000
186.09	444.444
186.47	1150.000
186.85	480.000
187.23	-322.222
187.61	-3600.000
187.98	340.000
188.36	750.000
188.74	-650.000
189.12	-766.667
189.49	-50.000
189.87	-337.500
190.25	-111.111
190.63	-300.000
191.00	-344.444
191.38	0.000
191.76	-900.000
192.14	-333.333
192.51	1250.000
192.89	-266.667
193.27	0.000
193.65	-400.000
194.02	-2900.000
194.40	-257.143
194.78	428.571
195.15	0.000
195.53	-163.636
195.91	0.000
196.29	-450.000
196.66	-192.308
197.04	-3600.000
197.42	-428.571
197.79	-1000.000
198.17	-275.000
198.55	-371.429
198.92	-255.556
199.30	-375.000
199.68	-109.091
200.05	-107.143
200.43	-1350.000
200.81	428.571
201.18	0.000
201.56	333.333
201.94	0.000
202.31	1200.000
202.69	-255.556
203.07	2700.000
203.44	-222.222
203.82	-425.000
204.19	-150.000
204.57	-466.667
204.95	-387.500
205.32	-2700.000
205.70	575.000
206.08	-450.000
206.45	-333.333
206.83	620.000
207.20	-400.000
207.58	-460.000
207.96	-333.333
208.33	-316.667
208.71	200.000
209.08	-433.333
209.46	0.000
209.84	500.000
210.21	1150.000
210.59	1200.000
210.96	1066.667
211.34	-450.000
211.71	-337.500
212.09	-3200.000
212.46	0.000
212.84	1900.000
213.22	-500.000
213.59	-675.000
213.97	-210.000
214.34	-700.000
214.72	600.000
215.09	-725.000
215.47	0.000
215.84	342.857
216.22	1500.000
216.59	-400.000
216.97	-400.000
217.34	-450.000
217.72	-287.500
218.09	-825.000
218.47	-750.000
218.84	0.000
219.22	600.000
219.59	-88.235
219.97	-100.000
220.34	1600.000
220.72	-177.778
221.09	-130.769
221.47	-600.000
221.84	-170.000
222.22	-500.000
222.59	0.000
222.97	-212.500
223.34	-580.000
223.72	-2700.000
224.09	-400.000
224.46	-425.000
224.84	-460.000
225.21	-428.571
225.59	-525.000
225.96	-550.000
226.34	-88.462
226.71	666.667
227.08	-1100.000
227.46	-146.667
227.83	-575.000
228.21	-100.000
228.58	375.000
228.95	1400.000
229.33	-133.333
229.70	-240.000
230.08	-36.842
230.45	290.000
230.82	-733.333
231.20	-135.714
231.57	-150.000
231.95	-172.727
232.32	-281.818
232.69	-105.000
233.07	-725.000
233.44	-141.176
233.81	-220.000
234.19	-77.778
234.56	-68.182
234.93	-51.724
235.31	-110.526
235.68	-94.444
236.05	-125.000
236.43	-11.538
236.80	-28.000
237.17	-85.185
237.55	-57.576
237.92	-170.000
238.29	-22.581
238.67	-25.000
239.04	-50.000
239.41	-47.619
239.79	-23.913
240.16	-22.222
240.53	-28.261
240.91	-39.216
241.28	-11.475
241.65	19.403
242.02	4.054
242.40	-7.692
242.77	8.000
243.14	2.439
243.51	-22.368
243.89	-1.282
244.26	18.812
244.63	11.765
245.00	6.542
245.38	0.000
245.75	-2.655
246.12	7.143
246.49	1.550
246.87	13.571
247.24	13.907
247.61	13.816
247.98	12.752
248.36	12.963
248.73	10.429
249.10	11.475
249.47	21.891
249.84	17.801
250.22	14.508
250.59	15.000
250.96	15.000
251.33	14.286
251.70	20.513
252.08	14.167
252.45	15.574
252.82	13.223
253.19	10.547
253.56	20.913
253.94	13.077
254.31	19.318
254.68	25.175
255.05	20.847
255.42	16.667
255.79	17.152
256.16	17.881
256.54	15.563
256.91	19.344
257.28	15.082
257.65	17.197
258.02	14.749
258.39	18.803
258.76	22.018
259.14	20.977
259.51	19.020
259.88	17.564
260.25	19.444
260.62	21.096
260.99	23.497
261.36	20.375
261.73	20.955
262.10	20.879
262.47	22.252
262.85	23.485
263.22	19.221
263.59	18.947
263.96	20.460
264.33	18.926
264.70	20.494
265.07	23.150
265.44	24.036
265.81	21.296
266.18	24.036
266.55	23.437
266.92	18.679
267.29	23.195
267.66	20.399
268.03	21.616
268.40	23.173
268.77	20.729
269.14	18.943
269.51	20.833
269.88	23.975
270.25	21.127
270.62	23.840
270.99	24.242
271.36	21.782
271.73	21.218
272.10	22.044
272.47	20.842
272.84	23.494
273.21	20.842
273.58	23.790
273.95	18.077
274.32	19.582
274.69	21.857
275.06	22.527
275.43	19.593
275.80	23.810
276.17	21.111
276.54	20.149
276.91	20.215
277.28	20.253
277.65	24.596
278.02	22.610
278.39	22.826
278.76	21.090
279.13	20.390
279.50	22.680
279.87	21.288
280.23	19.718
280.60	23.559
280.97	20.230
281.34	19.694
281.71	23.012
282.08	21.096
282.45	18.822
282.82	22.763
283.19	19.225
283.56	22.131
283.92	22.973
284.29	21.011
284.66	22.824
285.03	19.391
285.40	21.329
285.77	21.207
286.14	21.527
286.51	21.613
286.87	21.643
287.24	19.880
287.61	21.226
287.98	20.695
288.35	20.710
288.72	20.562
289.08	21.230
289.45	18.195
289.82	18.373
290.19	21.552
290.56	20.423
290.93	19.401
291.29	19.146
291.66	19.972
292.03	16.825
292.40	20.000
292.77	17.520
293.13	18.945
293.50	18.528
293.87	18.389
294.24	20.667
294.60	20.101
294.97	19.060
295.34	19.462
295.71	17.781
296.08	17.829
296.44	18.015
296.81	18.514
297.18	17.559
297.55	16.392
297.91	18.624
298.28	16.706
298.65	17.360
299.02	17.473
299.38	18.993
299.75	17.056
300.12	16.551
300.48	17.512
300.85	17.998
301.22	17.562
301.59	18.265
301.95	17.966
302.32	18.556
302.69	18.182
303.05	18.607
303.42	17.849
303.79	17.604
304.15	18.717
304.52	19.662
304.89	17.277
305.25	18.219
305.62	17.973
305.99	16.495
306.35	17.843
306.72	20.683
307.09	16.041
307.45	18.219
307.82	19.072
308.19	17.457
308.55	19.769
308.92	19.961
309.29	18.582
309.65	20.078
310.02	20.297
310.38	18.898
310.75	20.680
311.12	20.134
311.48	21.017
311.85	22.222
312.22	20.019
312.58	22.066
312.95	21.224
313.31	21.409
313.68	23.535
314.05	22.584
314.41	23.588
314.78	23.887
315.14	23.321
315.51	24.377
315.87	24.662
316.24	25.023
316.61	25.577
316.97	25.249
317.34	25.220
317.70	27.249
318.07	27.866
318.43	28.146
318.80	26.338
319.16	29.013
319.53	27.849
319.89	28.747
320.26	29.004
320.62	30.762
320.99	30.933
321.35	32.348
321.72	33.488
322.08	33.454
322.45	33.514
322.81	34.838
323.18	34.513
323.54	36.207
323.91	36.477
324.27	37.005
324.64	39.882
325.00	39.801
325.37	39.558
325.73	41.818
326.10	42.579
326.46	44.870
326.83	45.797
327.19	44.961
327.56	45.613
327.92	46.814
328.29	46.855
328.65	49.330
329.01	49.323
329.38	51.896
329.74	52.140
330.11	52.312
330.47	51.896
330.84	53.919
331.20	53.417
331.56	54.939
331.93	56.569
332.29	57.034
332.66	56.977
333.02	55.695
333.38	56.711
333.75	57.492
334.11	59.216
334.48	57.756
334.84	59.048
335.20	58.774
335.57	59.612
335.93	59.752
336.29	59.983
336.66	61.060
337.02	58.863
337.38	60.544
337.75	60.496
338.11	62.321
338.47	59.471
338.84	60.660
339.20	60.236
339.56	60.626
339.93	58.785
340.29	59.259
340.65	60.503
341.02	60.255
341.38	62.813
341.74	61.905
342.11	62.027
342.47	60.683
342.83	62.802
343.20	62.142
343.56	63.272
343.92	62.210
344.28	61.875
344.65	62.558
345.01	63.417
345.37	63.219
345.73	61.652
346.10	62.090
346.46	63.133
346.82	62.247
347.19	62.720
347.55	62.671
347.91	63.967
348.27	63.278
348.63	62.757
349.00	64.131
349.36	64.164
349.72	63.690
350.08	65.007
350.45	63.498
350.81	64.555
351.17	65.113
351.53	63.988
351.89	64.161
352.26	66.045
352.62	66.642
352.98	64.198
353.34	64.152
353.70	66.718
354.07	65.201
354.43	65.907
354.79	64.174
355.15	64.091
355.51	65.716
355.87	66.043
356.24	64.639
356.60	64.745
356.96	67.680
357.32	65.799
357.68	65.520
358.04	65.644
358.40	65.746
358.77	66.447
359.13	65.879
359.49	66.097
359.85	66.497
360.21	66.428
360.57	66.475
360.93	66.291
361.29	66.877
361.66	68.139
362.02	68.337
362.38	68.658
362.74	68.645
363.10	67.950
363.46	68.421
363.82	69.176
364.18	68.966
364.54	68.880
364.90	68.361
365.26	70.207
365.62	67.800
365.98	68.414
366.35	68.389
366.71	68.367
367.07	70.433
367.43	70.256
367.79	69.808
368.15	70.970
368.51	70.839
368.87	69.497
369.23	68.933
369.59	71.038
369.95	70.723
370.31	72.046
370.67	70.289
371.03	71.884
371.39	70.853
371.75	71.802
372.11	71.545
372.47	70.345
372.83	72.251
373.19	70.514
373.55	72.222
373.91	72.052
374.27	70.957
374.63	72.801
374.99	71.485
375.35	72.143
375.71	72.839
376.07	71.530
376.42	73.678
376.78	73.710
377.14	73.550
377.50	73.877
377.86	73.091
378.22	73.413
378.58	74.554
378.94	72.887
379.30	73.345
379.66	74.133
380.02	72.995
380.38	75.576
380.74	74.479
381.09	75.029
381.45	74.034
381.81	76.639
382.17	73.812
382.53	75.497
382.89	75.282
383.25	75.557
383.61	77.083
383.97	75.736
384.32	77.093
384.68	74.942
385.04	76.113
385.40	76.311
385.76	77.315
386.12	75.583
386.48	75.824
386.83	78.188
387.19	76.825
387.55	75.998
387.91	76.769
388.27	77.483
388.62	75.315
388.98	75.578
389.34	77.431
389.70	78.443
390.06	77.028
390.42	76.687
390.77	77.664
391.13	76.761
391.49	76.691
391.85	78.061
392.20	77.758
392.56	77.909
392.92	77.481
393.28	77.944
393.64	77.430
393.99	77.745
394.35	79.147
394.71	78.263
395.07	78.084
395.42	77.156
395.78	79.403
396.14	78.669
396.50	77.375
396.85	76.625
397.21	78.817
397.57	77.797
397.92	79.954
398.28	77.947
398.64	77.517
399.00	79.372
399.35	78.639
399.71	78.315
400.07	78.832
400.42	79.744
400.78	78.877
401.14	79.112
401.49	80.216
401.85	80.872
402.21	79.432
402.57	78.815
402.92	79.255
403.28	77.693
403.63	80.430
403.99	78.741
404.35	77.089
404.70	77.790
405.06	76.630
405.42	78.279
405.77	80.425
406.13	78.444
406.49	78.435
406.84	78.449
407.20	78.759
407.55	79.346
407.91	78.441
408.27	77.562
408.62	79.930
408.98	78.410
409.34	79.824
409.69	79.790
410.05	79.484
410.40	80.278
410.76	79.248
411.11	80.070
411.47	79.238
411.83	80.364
412.18	81.566
412.54	79.253
412.89	79.919
413.25	80.079
413.60	78.748
413.96	79.371
414.31	78.357
414.67	79.606
415.03	78.400
415.38	81.337
415.74	79.719
416.09	80.506
416.45	77.332
416.80	78.335
417.16	80.971
417.51	79.639
417.87	78.909
418.22	79.401
418.58	79.554
418.93	79.278
419.29	80.949
419.64	80.972
420.00	80.297
420.35	80.685
420.71	79.954
421.06	79.931
421.42	80.333
421.77	78.998
422.12	77.960
422.48	79.416
422.83	81.709
423.19	81.698
423.54	81.250
423.90	81.060
424.25	81.280
424.61	82.090
424.96	81.823
425.31	81.688
425.67	80.784
426.02	83.453
426.38	81.860
426.73	81.362
427.09	81.200
427.44	80.557
427.79	80.431
428.15	80.194
428.50	82.416
428.85	79.908
429.21	82.553
429.56	81.343
429.92	81.572
430.27	81.880
430.62	82.267
430.98	81.800
431.33	81.525
431.68	80.747
432.04	82.631
432.39	82.700
432.74	82.249
433.10	83.072
433.45	81.215
433.80	82.618
434.16	81.663
434.51	84.018
434.86	84.582
435.22	85.016
435.57	84.611
435.92	83.361
436.28	83.902
436.63	84.981
436.98	82.662
437.34	85.062
437.69	84.260
438.04	82.813
438.39	82.941
438.75	84.062
439.10	82.822
439.45	82.728
439.81	83.729
440.16	84.665
440.51	84.114
440.86	84.158
441.22	83.601
441.57	84.067
441.92	83.657
442.27	84.091
442.63	85.147
442.98	85.005
443.33	84.797
443.68	85.927
444.03	86.830
444.39	85.714
444.74	85.197
445.09	84.541
445.44	86.143
445.79	86.494
446.15	86.434
446.50	84.341
446.85	85.554
447.20	85.300
447.55	86.245
447.91	86.021
448.26	85.201
448.61	85.972
448.96	88.090
449.31	85.790
449.66	85.566
450.02	85.654
450.37	85.083
450.72	85.684
451.07	85.763
451.42	85.038
451.77	84.825
452.12	87.246
452.47	86.215
452.83	88.739
453.18	86.690
453.53	85.353
453.88	85.478
454.23	85.706
454.58	85.723
454.93	87.803
455.28	86.755
455.63	87.038
455.98	87.151
456.34	87.102
456.69	85.655
457.04	87.648
457.39	86.641
457.74	88.143
458.09	85.942
458.44	87.500
458.79	85.869
459.14	86.838
459.49	87.832
459.84	88.143
460.19	86.841
460.54	87.450
460.89	88.248
461.24	88.161
461.59	86.829
461.94	86.309
462.29	87.234
462.64	86.783
462.99	86.315
463.34	88.449
463.69	85.346
464.04	87.326
464.39	86.323
464.74	85.918
465.09	86.275
465.44	86.373
465.79	87.255
466.14	85.722
466.49	86.789
466.84	87.824
467.19	86.416
467.54	86.545
467.89	84.885
468.24	86.260
468.59	85.408
468.94	85.839
469.29	87.163
469.64	86.205
469.99	87.890
470.34	87.933
470.68	89.952
471.03	87.492
471.38	88.424
471.73	88.752
472.08	88.959
472.43	88.621
472.78	89.106
473.13	88.432
473.48	87.130
473.83	86.883
474.17	86.460
474.52	88.034
474.87	87.431
475.22	89.127
475.57	87.383
475.92	86.411
476.27	87.700
476.61	88.214
476.96	86.548
477.31	86.980
477.66	89.244
478.01	87.239
478.36	86.391
478.70	88.522
479.05	89.213
479.40	89.733
479.75	87.512
480.10	88.157
480.45	86.600
480.79	86.893
481.14	87.408
481.49	86.597
481.84	87.554
482.19	88.387
482.53	87.626
482.88	89.056
483.23	89.106
483.58	88.908
483.92	86.702
484.27	87.638
484.62	86.840
484.97	87.753
485.31	87.504
485.66	81.772
486.01	81.127
486.36	82.719
486.70	85.758
487.05	87.262
487.40	87.091
487.75	86.387
488.09	85.912
488.44	85.265
488.79	87.285
489.13	87.219
489.48	87.650
489.83	86.157
490.17	86.108
490.52	86.412
490.87	88.409
491.22	87.695
491.56	86.988
491.91	88.356
492.26	88.447
492.60	88.150
492.95	87.100
493.30	87.719
493.64	88.787
493.99	87.632
494.34	87.544
494.68	86.852
495.03	88.811
495.37	88.904
495.72	87.483
496.07	87.949
496.41	87.216
496.76	88.449
497.11	88.025
497.45	86.275
497.80	87.339
498.14	87.302
498.49	87.684
498.84	88.346
499.18	88.034
499.53	87.892
499.87	87.297
500.22	87.801
500.56	86.730
500.91	88.284
501.26	89.273
501.60	88.246
501.95	87.799
502.29	87.889
502.64	88.456
502.98	85.979
503.33	86.393
503.67	87.048
504.02	86.340
504.36	88.338
504.71	87.919
505.06	86.767
505.40	86.106
505.75	87.204
506.09	86.971
506.44	89.694
506.78	89.220
507.13	87.367
507.47	88.394
507.82	87.027
508.16	87.333
508.51	87.107
508.85	87.388
509.19	88.157
509.54	88.521
509.88	87.178
510.23	88.198
510.57	88.304
510.92	88.002
511.26	87.398
511.61	86.721
511.95	86.335
512.30	88.085
512.64	87.206
512.98	87.794
513.33	87.601
513.67	86.588
514.02	89.423
514.36	87.826
514.70	88.906
515.05	89.572
515.39	88.661
515.74	89.502
516.08	87.322
516.42	88.959
516.77	89.537
517.11	86.282
517.46	88.812
517.80	88.830
518.14	89.391
518.49	89.588
518.83	87.068
519.17	87.399
519.52	87.264
519.86	88.068
520.20	88.605
520.55	87.459
520.89	89.865
521.23	88.721
521.58	89.266
521.92	89.745
522.26	88.603
522.61	88.657
522.95	88.754
523.29	89.368
523.64	86.939
523.98	88.990
524.32	90.487
524.66	88.788
525.01	87.316
525.35	87.823
525.69	88.341
526.04	87.371
526.38	88.736
526.72	87.428
527.06	89.208
527.41	88.571
527.75	90.143
528.09	87.839
528.43	88.277
528.78	86.821
529.12	86.755
529.46	85.554
529.80	87.300
530.15	87.652
530.49	88.316
530.83	86.777
531.17	87.873
531.51	86.703
531.86	86.058
532.20	87.561
532.54	85.218
532.88	87.394
533.22	85.445
533.57	86.728
533.91	84.736
534.25	86.037
534.59	86.437
534.93	85.852
535.27	84.338
535.62	86.981
535.96	86.287
536.30	85.076
536.64	86.126
536.98	87.700
537.32	86.481
537.66	85.839
538.01	83.323
538.35	84.775
538.69	84.675
539.03	85.653
539.37	85.159
539.71	85.946
540.05	84.592
540.39	83.802
540.73	84.032
541.07	84.365
541.42	81.926
541.76	83.155
542.10	83.776
542.44	84.775
542.78	83.090
543.12	83.313
543.46	82.601
543.80	82.014
544.14	83.184
544.48	82.624
544.82	83.722
545.16	84.615
545.50	82.504
545.84	83.466
546.18	82.593
546.52	83.376
546.86	83.019
547.20	83.715
547.54	82.896
547.88	81.435
548.22	80.936
548.56	82.036
548.90	82.866
549.24	80.304
549.58	82.019
549.92	83.036
550.26	82.265
550.60	81.749
550.94	82.083
551.28	80.858
551.62	82.884
551.96	81.230
552.30	81.644
552.64	80.585
552.98	81.160
553.32	82.444
553.66	82.379
554.00	81.274
554.34	82.175
554.68	80.310
555.02	80.618
555.36	82.117
555.69	79.052
556.03	80.076
556.37	80.914
556.71	79.772
557.05	80.767
557.39	80.027
557.73	79.458
558.07	80.861
558.41	81.329
558.75	81.542
559.08	82.116
559.42	79.698
559.76	81.275
560.10	80.710
560.44	80.607
560.78	81.187
561.12	79.372
561.45	80.049
561.79	80.647
562.13	79.975
562.47	77.497
562.81	78.418
563.15	80.808
563.48	79.180
563.82	78.960
564.16	77.589
564.50	77.473
564.84	77.227
565.17	79.294
565.51	75.949
565.85	77.316
566.19	76.498
566.52	77.940
566.86	76.570
567.20	75.639
567.54	76.686
567.88	76.453
568.21	76.038
568.55	76.451
568.89	74.262
569.23	73.342
569.56	73.349
569.90	72.737
570.24	72.209
570.57	71.424
570.91	72.260
571.25	70.610
571.59	70.860
571.92	69.883
572.26	69.878
572.60	70.434
572.93	69.747
573.27	69.486
573.61	69.031
573.95	68.827
574.28	67.928
574.62	68.190
574.96	67.380
575.29	67.570
575.63	67.822
575.97	68.096
576.30	66.938
576.64	67.717
576.98	67.084
577.31	67.608
577.65	67.313
577.98	66.962
578.32	65.913
578.66	66.001
578.99	66.250
579.33	66.296
579.67	66.387
580.00	66.734
580.34	66.099
580.67	66.240
581.01	66.659
581.35	65.868
581.68	65.075
582.02	64.332
582.35	65.423
582.69	65.977
583.02	65.801
583.36	66.174
583.70	66.008
584.03	65.995
584.37	66.033
584.70	65.623
585.04	64.520
585.37	65.444
585.71	64.466
586.04	64.773
586.38	64.322
586.72	65.129
587.05	65.413
587.39	65.644
587.72	65.311
588.06	64.966
588.39	65.322
588.73	64.206
589.06	65.999
589.40	66.318
589.73	66.003
590.07	65.948
590.40	65.822
590.73	65.677
591.07	66.270
591.40	65.319
591.74	65.700
592.07	67.154
592.41	65.300
592.74	63.862
593.08	64.841
593.41	64.742
593.75	64.569
594.08	64.617
594.41	64.679
594.75	64.763
595.08	64.805
595.42	65.390
595.75	64.385
596.09	65.334
596.42	65.102
596.75	65.149
597.09	65.980
597.42	65.276
597.75	63.779
598.09	64.405
598.42	63.812
598.76	64.234
599.09	63.937
599.42	61.918
599.76	62.694
600.09	62.963
600.42	62.896
600.76	63.738
601.09	62.529
601.42	61.723
601.76	61.897
602.09	62.116
602.42	62.087
602.76	63.358
603.09	62.996
603.42	63.223
603.76	62.438
604.09	63.307
604.42	62.642
604.76	62.519
605.09	63.263
605.42	63.118
605.75	62.808
606.09	62.673
606.42	61.036
606.75	60.645
607.09	60.906
607.42	61.118
607.75	61.743
608.08	61.129
608.42	61.507
608.75	61.733
609.08	62.054
609.41	62.285
609.75	62.321
610.08	62.797
610.41	61.427
610.74	61.723
611.07	61.679
611.41	61.704
611.74	64.249
612.07	62.506
612.40	62.215
612.73	64.059
613.07	62.347
613.40	62.897
613.73	61.724
614.06	61.138
614.39	61.856
614.72	61.378
615.06	61.116
615.39	60.754
615.72	61.896
616.05	61.486
616.38	60.898
616.71	62.017
617.05	62.300
617.38	60.995
617.71	61.879
618.04	61.198
618.37	61.858
618.70	61.821
619.03	61.828
619.36	62.330
619.69	62.076
620.03	63.214
620.36	62.699
620.69	63.479
621.02	62.795
621.35	66.183
621.68	65.004
622.01	63.416
622.34	63.180
622.67	63.849
623.00	62.686
623.33	62.641
623.66	62.646
623.99	62.146
624.32	64.133
624.65	62.291
624.99	63.004
625.32	62.965
625.65	62.171
625.98	61.559
626.31	62.721
626.64	63.077
626.97	63.541
627.30	64.009
627.63	63.091
627.96	64.189
628.29	64.125
628.62	64.484
628.95	66.608
629.28	64.146
629.61	63.468
629.94	65.021
630.26	63.220
630.59	65.976
