SpectraSuite Data File
++++++++++++++++++++++++++++++++++++
Date: Thu May 14 15:56:46 PDT 2015
User: schluterlab
Dark Spectrum Present: Yes
Reference Spectrum Present: Yes
Number of Sampled Component Spectra: 1
Spectrometers: USB2E3373
Integration Time (usec): 3000 (USB2E3373)
Spectra Averaged: 3 (USB2E3373)
Boxcar Smoothing: 0 (USB2E3373)
Correct for Electrical Dark: No (USB2E3373)
Strobe/Lamp Enabled: No (USB2E3373)
Correct for Detector Non-linearity: No (USB2E3373)
Correct for Stray Light: No (USB2E3373)
Number of Pixels in Processed Spectrum: 2048
>>>>>Begin Processed Spectral Data<<<<<
178.53	0.000
178.91	314.286
179.29	-3900.000
179.67	-3200.000
180.04	350.000
180.42	230.000
180.80	720.000
181.18	-2600.000
181.56	-1600.000
181.94	525.000
182.31	-575.000
182.69	1033.333
183.07	-1350.000
183.45	825.000
183.83	-366.667
184.20	-900.000
184.58	2800.000
184.96	-575.000
185.34	-300.000
185.72	-280.000
186.09	377.778
186.47	1750.000
186.85	740.000
187.23	-277.778
187.61	-3200.000
187.98	560.000
188.36	900.000
188.74	-550.000
189.12	-700.000
189.49	-125.000
189.87	-387.500
190.25	-233.333
190.63	-360.000
191.00	-333.333
191.38	0.000
191.76	-800.000
192.14	-500.000
192.51	1300.000
192.89	-350.000
193.27	0.000
193.65	-357.143
194.02	-2100.000
194.40	-300.000
194.78	371.429
195.15	0.000
195.53	-136.364
195.91	0.000
196.29	-425.000
196.66	-153.846
197.04	-2300.000
197.42	-328.571
197.79	-1250.000
198.17	-312.500
198.55	-285.714
198.92	-144.444
199.30	-237.500
199.68	-181.818
200.05	-171.429
200.43	-1450.000
200.81	485.714
201.18	0.000
201.56	388.889
201.94	0.000
202.31	1166.667
202.69	-255.556
203.07	1800.000
203.44	-288.889
203.82	-625.000
204.19	-166.667
204.57	-433.333
204.95	-275.000
205.32	-2700.000
205.70	700.000
206.08	-316.667
206.45	-300.000
206.83	600.000
207.20	-366.667
207.58	-460.000
207.96	-433.333
208.33	-316.667
208.71	208.333
209.08	-366.667
209.46	0.000
209.84	566.667
210.21	1250.000
210.59	1150.000
210.96	866.667
211.34	-425.000
211.71	-375.000
212.09	-2800.000
212.46	0.000
212.84	1600.000
213.22	-500.000
213.59	-625.000
213.97	-100.000
214.34	-700.000
214.72	400.000
215.09	-650.000
215.47	0.000
215.84	314.286
216.22	1350.000
216.59	-520.000
216.97	-540.000
217.34	-525.000
217.72	-275.000
218.09	-475.000
218.47	-550.000
218.84	0.000
219.22	580.000
219.59	-164.706
219.97	-95.000
220.34	1450.000
220.72	-222.222
221.09	-115.385
221.47	-766.667
221.84	-210.000
222.22	-342.857
222.59	0.000
222.97	-175.000
223.34	-360.000
223.72	-2000.000
224.09	-725.000
224.46	-675.000
224.84	-320.000
225.21	-285.714
225.59	-850.000
225.96	-925.000
226.34	-34.615
226.71	550.000
227.08	-1350.000
227.46	-140.000
227.83	-675.000
228.21	-84.211
228.58	312.500
228.95	1750.000
229.33	-108.333
229.70	-190.000
230.08	-78.947
230.45	270.000
230.82	-766.667
231.20	-114.286
231.57	-158.333
231.95	-145.455
232.32	-90.909
232.69	-60.000
233.07	-525.000
233.44	-105.882
233.81	-160.000
234.19	-111.111
234.56	-72.727
234.93	-62.069
235.31	-26.316
235.68	-61.111
236.05	-140.000
236.43	-42.308
236.80	0.000
237.17	-33.333
237.55	-42.424
237.92	-220.000
238.29	-9.677
238.67	-9.091
239.04	-13.889
239.41	-28.571
239.79	-6.522
240.16	-12.963
240.53	-10.870
240.91	1.961
241.28	-9.836
241.65	7.463
242.02	18.919
242.40	-6.154
242.77	5.333
243.14	14.634
243.51	1.316
243.89	8.974
244.26	24.752
244.63	29.412
245.00	21.495
245.38	27.193
245.75	8.850
246.12	27.778
246.49	27.132
246.87	23.571
247.24	25.828
247.61	39.474
247.98	30.201
248.36	27.778
248.73	31.902
249.10	27.869
249.47	34.826
249.84	32.984
250.22	37.306
250.59	32.222
250.96	36.818
251.33	36.224
251.70	30.342
252.08	34.167
252.45	29.098
252.82	35.537
253.19	31.250
253.56	35.741
253.94	31.154
254.31	36.742
254.68	36.014
255.05	38.436
255.42	32.653
255.79	33.981
256.16	35.099
256.54	38.079
256.91	35.410
257.28	35.082
257.65	35.669
258.02	35.988
258.39	35.043
258.76	39.144
259.14	35.632
259.51	38.905
259.88	37.394
260.25	35.556
260.62	38.904
260.99	39.891
261.36	37.534
261.73	39.788
262.10	37.637
262.47	38.874
262.85	43.687
263.22	35.325
263.59	40.000
263.96	41.176
264.33	39.386
264.70	38.025
265.07	41.289
265.44	41.043
265.81	38.889
266.18	39.002
266.55	38.393
266.92	38.041
267.29	41.357
267.66	40.133
268.03	40.393
268.40	38.831
268.77	37.813
269.14	36.564
269.51	41.447
269.88	40.984
270.25	38.229
270.62	44.515
270.99	41.010
271.36	40.198
271.73	38.507
272.10	40.882
272.47	42.285
272.84	38.554
273.21	40.080
273.58	37.702
273.95	39.231
274.32	38.403
274.69	38.685
275.06	39.927
275.43	37.708
275.80	40.035
276.17	38.148
276.54	38.619
276.91	37.925
277.28	37.432
277.65	40.754
278.02	41.176
278.39	39.674
278.76	37.083
279.13	39.362
279.50	38.660
279.87	36.136
280.23	35.387
280.60	38.475
280.97	39.145
281.34	34.805
281.71	39.932
282.08	37.043
282.45	38.789
282.82	36.107
283.19	39.095
283.56	35.082
283.92	38.739
284.29	41.232
284.66	38.752
285.03	37.019
285.40	38.794
285.77	36.997
286.14	35.878
286.51	36.682
286.87	37.441
287.24	38.554
287.61	37.070
287.98	33.233
288.35	37.426
288.72	36.095
289.08	37.189
289.45	35.799
289.82	35.392
290.19	35.201
290.56	35.915
290.93	34.665
291.29	35.399
291.66	35.262
292.03	33.379
292.40	35.510
292.77	32.210
293.13	31.664
293.50	32.194
293.87	32.081
294.24	34.933
294.60	32.996
294.97	31.946
295.34	32.266
295.71	30.391
296.08	30.103
296.44	31.127
296.81	30.085
297.18	32.503
297.55	31.604
297.91	30.605
298.28	30.095
298.65	31.986
299.02	29.752
299.38	28.261
299.75	30.491
300.12	30.093
300.48	31.106
300.85	30.934
301.22	31.320
301.59	30.251
301.95	30.056
302.32	30.222
302.69	29.901
303.05	29.815
303.42	29.933
303.79	30.000
304.15	30.915
304.52	30.973
304.89	30.681
305.25	28.261
305.62	29.572
305.99	30.000
306.35	31.351
306.72	31.437
307.09	30.355
307.45	30.538
307.82	29.263
308.19	30.575
308.55	30.762
308.92	31.840
309.29	30.843
309.65	31.287
310.02	30.891
310.38	31.693
310.75	32.427
311.12	32.407
311.48	32.258
311.85	32.384
312.22	33.586
312.58	33.521
312.95	32.027
313.31	33.785
313.68	33.242
314.05	35.050
314.41	35.428
314.78	35.513
315.14	35.481
315.51	37.673
315.87	36.634
316.24	37.352
316.61	37.123
316.97	37.647
317.34	36.949
317.70	39.214
318.07	39.506
318.43	39.541
318.80	40.552
319.16	39.828
319.53	39.674
319.89	40.754
320.26	41.192
320.62	42.465
320.99	42.844
321.35	43.530
321.72	45.116
322.08	43.643
322.45	44.354
322.81	46.029
323.18	47.788
323.54	48.103
323.91	48.932
324.27	49.225
324.64	49.370
325.00	49.751
325.37	52.907
325.73	53.554
326.10	53.852
326.46	56.270
326.83	55.805
327.19	56.457
327.56	57.312
327.92	57.986
328.29	58.952
328.65	59.883
329.01	60.660
329.38	62.511
329.74	64.983
330.11	64.640
330.47	64.027
330.84	64.255
331.20	64.833
331.56	67.158
331.93	67.866
332.29	65.508
332.66	65.781
333.02	65.829
333.38	67.534
333.75	67.929
334.11	69.808
334.48	67.904
334.84	70.773
335.20	68.346
335.57	68.803
335.93	69.587
336.29	69.634
336.66	70.984
337.02	69.314
337.38	70.493
337.75	68.926
338.11	70.732
338.47	70.885
338.84	71.151
339.20	71.525
339.56	71.005
339.93	70.854
340.29	69.565
340.65	68.856
341.02	71.030
341.38	72.918
341.74	72.236
342.11	71.521
342.47	70.929
342.83	71.498
343.20	73.590
343.56	73.617
343.92	72.058
344.28	71.719
344.65	73.178
345.01	72.465
345.37	72.240
345.73	74.123
346.10	75.273
346.46	73.734
346.82	73.109
347.19	73.491
347.55	73.369
347.91	74.220
348.27	73.445
348.63	72.963
349.00	74.049
349.36	75.019
349.72	74.182
350.08	74.368
350.45	76.122
350.81	74.208
351.17	75.263
351.53	76.346
351.89	74.563
352.26	73.955
352.62	76.567
352.98	75.725
353.34	75.056
353.70	78.274
354.07	76.304
354.43	77.601
354.79	77.786
355.15	75.791
355.51	76.754
355.87	75.841
356.24	78.251
356.60	76.201
356.96	79.689
357.32	74.572
357.68	77.965
358.04	77.695
358.40	78.209
358.77	78.655
359.13	77.917
359.49	78.216
359.85	78.898
360.21	77.977
360.57	78.033
360.93	78.984
361.29	78.737
361.66	79.508
362.02	79.402
362.38	79.129
362.74	81.355
363.10	79.505
363.46	79.501
363.82	81.534
364.18	81.492
364.54	79.599
364.90	79.732
365.26	81.517
365.62	79.533
365.98	79.850
366.35	81.812
366.71	81.905
367.07	81.800
367.43	81.221
367.79	81.553
368.15	81.271
368.51	80.379
368.87	80.340
369.23	81.933
369.59	85.109
369.95	81.812
370.31	83.390
370.67	83.219
371.03	83.380
371.39	82.874
371.75	83.906
372.11	82.317
372.47	82.938
372.83	84.359
373.19	81.721
373.55	82.588
373.91	83.776
374.27	83.182
374.63	84.912
374.99	83.753
375.35	84.351
375.71	85.419
376.07	83.925
376.42	82.809
376.78	84.214
377.14	82.907
377.50	85.958
377.86	84.791
378.22	85.210
378.58	85.850
378.94	84.038
379.30	85.354
379.66	86.361
380.02	85.228
380.38	86.118
380.74	85.296
381.09	85.947
381.45	84.432
381.81	87.002
382.17	86.580
382.53	87.251
382.89	85.779
383.25	87.222
383.61	87.616
383.97	86.690
384.32	86.184
384.68	86.891
385.04	88.317
385.40	88.156
385.76	88.628
386.12	85.577
386.48	87.706
386.83	87.843
387.19	87.138
387.55	88.087
387.91	87.957
388.27	87.009
388.62	85.510
388.98	84.602
389.34	87.684
389.70	89.541
390.06	86.205
390.42	86.145
390.77	87.357
391.13	87.324
391.49	88.345
391.85	88.545
392.20	88.078
392.56	87.655
392.92	86.260
393.28	87.507
393.64	86.034
393.99	88.379
394.35	88.084
394.71	87.665
395.07	88.323
395.42	87.264
395.78	89.153
396.14	88.473
396.50	87.055
396.85	87.001
397.21	89.172
397.57	88.221
397.92	88.603
398.28	87.507
398.64	86.899
399.00	86.230
399.35	87.696
399.71	87.228
400.07	87.872
400.42	88.300
400.78	88.426
401.14	86.511
401.49	88.175
401.85	89.302
402.21	88.702
402.57	88.146
402.92	87.766
403.28	86.827
403.63	88.425
403.99	87.767
404.35	86.583
404.70	85.949
405.06	86.087
405.42	86.710
405.77	88.004
406.13	86.710
406.49	87.500
406.84	85.596
407.20	86.752
407.55	88.916
407.91	84.978
408.27	85.218
408.62	87.958
408.98	86.187
409.34	86.158
409.69	88.319
410.05	87.456
410.40	86.485
410.76	86.820
411.11	87.142
411.47	86.118
411.83	87.243
412.18	88.614
412.54	85.655
412.89	86.962
413.25	86.174
413.60	86.904
413.96	86.713
414.31	84.136
414.67	84.914
415.03	87.077
415.38	87.327
415.74	85.828
416.09	86.366
416.45	85.473
416.80	84.394
417.16	86.782
417.51	84.932
417.87	86.879
418.22	86.048
418.58	86.493
418.93	86.903
419.29	87.238
419.64	85.174
420.00	85.697
420.35	85.794
420.71	85.411
421.06	86.141
421.42	87.041
421.77	84.437
422.12	84.355
422.48	86.687
422.83	86.637
423.19	86.844
423.54	88.385
423.90	85.478
424.25	87.467
424.61	86.280
424.96	85.667
425.31	85.456
425.67	84.917
426.02	87.272
426.38	86.452
426.73	86.886
427.09	86.967
427.44	84.653
427.79	86.180
428.15	87.500
428.50	87.079
428.85	84.558
429.21	86.968
429.56	85.094
429.92	84.914
430.27	86.699
430.62	86.370
430.98	85.686
431.33	85.484
431.68	84.722
432.04	86.998
432.39	86.235
432.74	86.358
433.10	86.533
433.45	86.176
433.80	86.373
434.16	85.744
434.51	87.050
434.86	88.056
435.22	87.938
435.57	88.443
435.92	86.422
436.28	88.396
436.63	89.132
436.98	85.668
437.34	88.106
437.69	86.131
438.04	86.462
438.39	87.995
438.75	86.331
439.10	89.429
439.45	86.026
439.81	87.119
440.16	85.523
440.51	88.183
440.86	86.270
441.22	87.674
441.57	90.199
441.92	86.760
442.27	88.636
442.63	87.382
442.98	89.168
443.33	87.638
443.68	88.850
444.03	90.357
444.39	88.303
444.74	89.127
445.09	87.481
445.44	89.463
445.79	88.985
446.15	88.746
446.50	87.907
446.85	89.689
447.20	88.491
447.55	88.808
447.91	90.366
448.26	89.588
448.61	88.842
448.96	90.880
449.31	88.759
449.66	88.998
450.02	88.397
450.37	87.800
450.72	89.074
451.07	89.806
451.42	88.850
451.77	88.382
452.12	90.632
452.47	87.938
452.83	90.878
453.18	90.193
453.53	89.891
453.88	87.852
454.23	89.661
454.58	91.120
454.93	90.291
455.28	90.548
455.63	88.516
455.98	89.721
456.34	87.809
456.69	89.888
457.04	90.603
457.39	90.188
457.74	90.436
458.09	90.555
458.44	89.494
458.79	87.932
459.14	87.782
459.49	89.983
459.84	89.822
460.19	88.951
460.54	91.028
460.89	90.683
461.24	89.310
461.59	88.489
461.94	88.420
462.29	89.362
462.64	88.232
462.99	90.270
463.34	90.396
463.69	85.580
464.04	88.827
464.39	89.630
464.74	88.027
465.09	87.716
465.44	88.734
465.79	87.467
466.14	88.848
466.49	88.842
466.84	88.760
467.19	89.711
467.54	87.603
467.89	88.678
468.24	87.147
468.59	88.014
468.94	88.578
469.29	87.642
469.64	89.193
469.99	88.974
470.34	87.686
470.68	91.319
471.03	89.587
471.38	88.555
471.73	90.767
472.08	89.404
472.43	89.103
472.78	88.602
473.13	89.886
473.48	88.822
473.83	89.147
474.17	88.687
474.52	91.221
474.87	87.763
475.22	88.451
475.57	88.058
475.92	87.606
476.27	87.700
476.61	87.799
476.96	89.885
477.31	88.069
477.66	90.923
478.01	88.205
478.36	87.139
478.70	89.212
479.05	89.724
479.40	89.783
479.75	88.377
480.10	88.678
480.45	89.015
480.79	88.844
481.14	87.224
481.49	87.778
481.84	88.468
482.19	88.430
482.53	89.200
482.88	88.569
483.23	89.284
483.58	88.297
483.92	87.677
484.27	87.003
484.62	86.304
484.97	86.936
485.31	87.540
485.66	81.664
486.01	81.681
486.36	82.596
486.70	86.111
487.05	88.550
487.40	88.971
487.75	87.583
488.09	88.476
488.44	86.745
488.79	87.049
489.13	87.075
489.48	86.602
489.83	86.439
490.17	86.756
490.52	85.427
490.87	87.563
491.22	88.172
491.56	87.116
491.91	87.440
492.26	85.764
492.60	86.489
492.95	87.275
493.30	88.615
493.64	87.516
493.99	87.982
494.34	87.500
494.68	87.281
495.03	87.930
495.37	88.327
495.72	87.438
496.07	87.423
496.41	85.929
496.76	86.489
497.11	88.195
497.45	87.786
497.80	86.539
498.14	85.714
498.49	86.673
498.84	87.340
499.18	86.910
499.53	87.085
499.87	86.945
500.22	87.533
500.56	86.235
500.91	86.682
501.26	87.545
501.60	85.771
501.95	85.931
502.29	86.310
502.64	85.746
502.98	84.901
503.33	85.529
503.67	86.524
504.02	84.982
504.36	86.774
504.71	86.495
505.06	84.766
505.40	87.157
505.75	86.293
506.09	85.866
506.44	87.187
506.78	85.872
507.13	86.399
507.47	86.641
507.82	86.080
508.16	86.281
508.51	85.982
508.85	86.301
509.19	86.878
509.54	86.167
509.88	85.381
510.23	87.081
510.57	86.902
510.92	87.567
511.26	84.223
511.61	85.031
511.95	86.042
512.30	85.918
512.64	84.958
512.98	86.293
513.33	85.484
513.67	86.690
514.02	86.510
514.36	86.189
514.70	85.990
515.05	86.809
515.39	86.457
515.74	87.328
516.08	84.680
516.42	86.185
516.77	86.540
517.11	84.992
517.46	88.017
517.80	87.280
518.14	88.030
518.49	86.280
518.83	84.407
519.17	85.460
519.52	84.853
519.86	85.956
520.20	85.729
520.55	85.487
520.89	86.318
521.23	84.980
521.58	86.893
521.92	85.269
522.26	84.937
522.61	87.211
522.95	85.755
523.29	86.724
523.64	83.240
523.98	85.967
524.32	87.507
524.66	84.633
525.01	85.051
525.35	83.975
525.69	84.107
526.04	84.214
526.38	85.345
526.72	84.948
527.06	86.686
527.41	84.840
527.75	86.995
528.09	85.832
528.43	85.909
528.78	82.832
529.12	84.461
529.46	82.406
529.80	83.924
530.15	83.536
530.49	84.401
530.83	83.412
531.17	84.886
531.51	83.634
531.86	85.276
532.20	84.146
532.54	83.483
532.88	84.545
533.22	82.499
533.57	81.189
533.91	82.323
534.25	81.798
534.59	84.770
534.93	82.626
535.27	82.704
535.62	82.945
535.96	81.464
536.30	82.491
536.64	82.763
536.98	82.472
537.32	82.222
537.66	83.905
538.01	80.121
538.35	80.572
538.69	82.452
539.03	81.729
539.37	80.565
539.71	81.502
540.05	80.635
540.39	80.379
540.73	79.417
541.07	81.239
541.42	79.149
541.76	79.597
542.10	81.062
542.44	80.207
542.78	80.657
543.12	79.261
543.46	79.487
543.80	78.357
544.14	78.516
544.48	80.556
544.82	81.029
545.16	80.739
545.50	80.467
545.84	79.486
546.18	80.802
546.52	79.682
546.86	79.057
547.20	81.107
547.54	78.589
547.88	78.903
548.22	78.889
548.56	77.940
548.90	78.806
549.24	78.845
549.58	78.738
549.92	78.380
550.26	79.417
550.60	78.558
550.94	79.819
551.28	77.426
551.62	78.639
551.96	75.663
552.30	78.139
552.64	77.536
552.98	78.603
553.32	79.100
553.66	79.678
554.00	77.743
554.34	79.151
554.68	75.791
555.02	77.070
555.36	78.304
555.69	77.194
556.03	77.112
556.37	77.409
556.71	76.538
557.05	77.700
557.39	77.903
557.73	76.354
558.07	76.093
558.41	77.475
558.75	76.268
559.08	78.427
559.42	77.092
559.76	75.712
560.10	76.021
560.44	75.132
560.78	75.250
561.12	75.493
561.45	77.555
561.79	75.458
562.13	76.956
562.47	74.538
562.81	76.139
563.15	77.210
563.48	76.818
563.82	74.607
564.16	74.621
564.50	74.851
564.84	75.339
565.17	74.176
565.51	71.979
565.85	74.881
566.19	74.078
566.52	74.664
566.86	73.288
567.20	72.757
567.54	73.287
567.88	73.191
568.21	73.518
568.55	73.094
568.89	73.355
569.23	72.201
569.56	71.239
569.90	70.135
570.24	70.995
570.57	71.007
570.91	70.086
571.25	69.280
571.59	69.301
571.92	69.430
572.26	69.111
572.60	69.342
572.93	68.494
573.27	68.699
573.61	68.422
573.95	67.225
574.28	67.251
574.62	67.940
574.96	66.145
575.29	66.821
575.63	67.360
575.97	67.521
576.30	67.012
576.64	67.001
576.98	66.765
577.31	67.236
577.65	66.797
577.98	66.152
578.32	66.428
578.66	66.321
578.99	66.250
579.33	66.852
579.67	66.863
580.00	66.734
580.34	65.925
580.67	66.130
581.01	66.032
581.35	65.264
581.68	65.004
582.02	65.261
582.35	65.932
582.69	65.806
583.02	66.006
583.36	66.810
583.70	66.394
584.03	66.091
584.37	66.058
584.70	65.208
585.04	64.915
585.37	64.406
585.71	64.509
586.04	64.553
586.38	64.624
586.72	64.929
587.05	65.106
587.39	65.620
587.72	65.167
588.06	64.894
588.39	65.497
588.73	65.185
589.06	65.209
589.40	66.656
589.73	65.231
590.07	65.451
590.40	65.179
590.73	64.404
591.07	65.302
591.40	64.813
591.74	65.501
592.07	64.840
592.41	64.708
592.74	63.827
593.08	64.936
593.41	65.209
593.75	63.276
594.08	63.708
594.41	64.840
594.75	63.235
595.08	64.065
595.42	64.708
595.75	63.222
596.09	64.046
596.42	63.597
596.75	64.994
597.09	65.051
597.42	63.846
597.75	62.956
598.09	62.937
598.42	64.133
598.76	62.935
599.09	62.620
599.42	61.817
599.76	61.406
600.09	62.296
600.42	61.528
600.76	63.507
601.09	61.533
601.42	62.410
601.76	63.000
602.09	61.079
602.42	62.196
602.76	62.694
603.09	61.601
603.42	62.753
603.76	61.910
604.09	63.343
604.42	62.862
604.76	61.910
605.09	62.425
605.42	61.762
605.75	61.692
606.09	61.665
606.42	60.270
606.75	60.232
607.09	59.908
607.42	60.925
607.75	61.196
608.08	61.405
608.42	60.379
608.75	60.987
609.08	60.951
609.41	62.241
609.75	61.161
610.08	61.302
610.41	60.875
610.74	61.134
611.07	60.879
611.41	62.377
611.74	62.818
612.07	61.197
612.40	61.930
612.73	61.418
613.07	61.956
613.40	61.357
613.73	61.579
614.06	60.451
614.39	60.301
614.72	59.825
615.06	59.288
615.39	60.899
615.72	59.810
616.05	60.709
616.38	62.109
616.71	61.181
617.05	58.253
617.38	60.086
617.71	59.287
618.04	60.712
618.37	62.186
618.70	61.538
619.03	60.633
619.36	62.577
619.69	62.396
620.03	61.519
620.36	60.613
620.69	61.012
621.02	61.089
621.35	64.441
621.68	62.545
622.01	61.068
622.34	61.506
622.67	60.825
623.00	60.729
623.33	61.048
623.66	60.052
623.99	61.356
624.32	62.183
624.65	60.296
624.99	61.573
625.32	61.006
625.65	60.958
625.98	59.525
626.31	60.454
626.64	61.612
626.97	58.665
627.30	60.820
627.63	60.915
627.96	60.961
628.29	61.479
628.62	60.202
628.95	61.087
629.28	62.362
629.61	61.448
629.94	59.749
630.26	60.424
630.59	59.845
630.92	61.472
