SpectraSuite Data File
++++++++++++++++++++++++++++++++++++
Date: Thu May 14 15:58:40 PDT 2015
User: schluterlab
Dark Spectrum Present: Yes
Reference Spectrum Present: Yes
Number of Sampled Component Spectra: 1
Spectrometers: USB2E3373
Integration Time (usec): 3000 (USB2E3373)
Spectra Averaged: 3 (USB2E3373)
Boxcar Smoothing: 0 (USB2E3373)
Correct for Electrical Dark: No (USB2E3373)
Strobe/Lamp Enabled: No (USB2E3373)
Correct for Detector Non-linearity: No (USB2E3373)
Correct for Stray Light: No (USB2E3373)
Number of Pixels in Processed Spectrum: 2048
>>>>>Begin Processed Spectral Data<<<<<
178.53	0.000
178.91	328.571
179.29	-3200.000
179.67	-2900.000
180.04	250.000
180.42	240.000
180.80	340.000
181.18	-2600.000
181.56	-700.000
181.94	500.000
182.31	-400.000
182.69	866.667
183.07	-1250.000
183.45	550.000
183.83	-333.333
184.20	-466.667
184.58	2300.000
184.96	-600.000
185.34	-122.222
185.72	-360.000
186.09	244.444
186.47	1150.000
186.85	580.000
187.23	-322.222
187.61	-3100.000
187.98	360.000
188.36	475.000
188.74	-375.000
189.12	-566.667
189.49	-87.500
189.87	-237.500
190.25	-211.111
190.63	-320.000
191.00	-366.667
191.38	0.000
191.76	-525.000
192.14	-233.333
192.51	1000.000
192.89	-300.000
193.27	0.000
193.65	-42.857
194.02	-2700.000
194.40	-285.714
194.78	228.571
195.15	0.000
195.53	-145.455
195.91	0.000
196.29	-350.000
196.66	-215.385
197.04	-2900.000
197.42	-342.857
197.79	-1050.000
198.17	-250.000
198.55	-385.714
198.92	-144.444
199.30	-275.000
199.68	-127.273
200.05	-114.286
200.43	-1050.000
200.81	357.143
201.18	0.000
201.56	333.333
201.94	0.000
202.31	1066.667
202.69	-144.444
203.07	1000.000
203.44	-144.444
203.82	-600.000
204.19	-175.000
204.57	-333.333
204.95	-262.500
205.32	-1900.000
205.70	450.000
206.08	-383.333
206.45	-383.333
206.83	580.000
207.20	-316.667
207.58	-480.000
207.96	-383.333
208.33	-333.333
208.71	158.333
209.08	-150.000
209.46	0.000
209.84	400.000
210.21	950.000
210.59	1150.000
210.96	900.000
211.34	-550.000
211.71	-225.000
212.09	-2200.000
212.46	0.000
212.84	1700.000
213.22	-520.000
213.59	-575.000
213.97	-160.000
214.34	-700.000
214.72	366.667
215.09	-650.000
215.47	0.000
215.84	300.000
216.22	1300.000
216.59	-280.000
216.97	-240.000
217.34	-400.000
217.72	-237.500
218.09	-700.000
218.47	-825.000
218.84	0.000
219.22	480.000
219.59	-100.000
219.97	-85.000
220.34	1350.000
220.72	-244.444
221.09	-53.846
221.47	-800.000
221.84	-210.000
222.22	-400.000
222.59	0.000
222.97	-312.500
223.34	-500.000
223.72	-2500.000
224.09	-325.000
224.46	-725.000
224.84	-360.000
225.21	-342.857
225.59	-525.000
225.96	-225.000
226.34	-42.308
226.71	383.333
227.08	-1450.000
227.46	-153.333
227.83	-675.000
228.21	-78.947
228.58	287.500
228.95	1250.000
229.33	-141.667
229.70	-110.000
230.08	-31.579
230.45	280.000
230.82	-433.333
231.20	-142.857
231.57	-100.000
231.95	-172.727
232.32	-118.182
232.69	-70.000
233.07	-500.000
233.44	-129.412
233.81	-200.000
234.19	-61.111
234.56	-50.000
234.93	-37.931
235.31	-42.105
235.68	-55.556
236.05	-90.000
236.43	-23.077
236.80	8.000
237.17	-37.037
237.55	-15.152
237.92	-150.000
238.29	-25.806
238.67	-25.000
239.04	-8.333
239.41	-28.571
239.79	-13.043
240.16	-20.370
240.53	-8.696
240.91	-13.725
241.28	-18.033
241.65	11.940
242.02	6.757
242.40	-10.769
242.77	-6.667
243.14	0.000
243.51	-6.579
243.89	3.846
244.26	18.812
244.63	11.765
245.00	6.542
245.38	5.263
245.75	1.770
246.12	14.286
246.49	19.380
246.87	16.429
247.24	15.232
247.61	14.474
247.98	20.134
248.36	13.580
248.73	11.043
249.10	14.754
249.47	21.393
249.84	21.466
250.22	20.207
250.59	18.333
250.96	23.182
251.33	19.388
251.70	26.923
252.08	18.750
252.45	20.082
252.82	16.942
253.19	23.437
253.56	26.236
253.94	18.077
254.31	18.561
254.68	24.476
255.05	24.756
255.42	21.769
255.79	21.036
256.16	22.848
256.54	18.212
256.91	23.279
257.28	17.705
257.65	19.745
258.02	19.174
258.39	21.652
258.76	21.713
259.14	23.276
259.51	21.902
259.88	22.096
260.25	23.611
260.62	23.288
260.99	25.956
261.36	25.737
261.73	23.342
262.10	21.978
262.47	22.788
262.85	24.242
263.22	20.779
263.59	23.684
263.96	25.831
264.33	24.041
264.70	24.444
265.07	26.969
265.44	25.397
265.81	25.000
266.18	25.170
266.55	23.884
266.92	20.046
267.29	26.696
267.66	27.273
268.03	26.419
268.40	24.217
268.77	23.007
269.14	23.568
269.51	21.930
269.88	27.869
270.25	25.352
270.62	25.527
270.99	25.657
271.36	25.941
271.73	24.165
272.10	25.251
272.47	25.451
272.84	23.896
273.21	23.647
273.58	23.185
273.95	24.615
274.32	24.144
274.69	22.244
275.06	23.993
275.43	23.105
275.80	26.631
276.17	22.593
276.54	24.813
276.91	22.898
277.28	24.774
277.65	25.673
278.02	23.713
278.39	22.645
278.76	22.320
279.13	25.532
279.50	25.430
279.87	23.614
280.23	21.831
280.60	24.407
280.97	24.178
281.34	23.260
281.71	24.873
282.08	22.757
282.45	23.077
282.82	21.978
283.19	23.102
283.56	21.639
283.92	25.676
284.29	23.855
284.66	24.138
285.03	22.917
285.40	21.947
285.77	23.529
286.14	24.733
286.51	24.505
286.87	23.381
287.24	25.151
287.61	22.422
287.98	21.450
288.35	23.225
288.72	23.521
289.08	24.012
289.45	22.041
289.82	22.289
290.19	21.983
290.56	21.972
290.93	23.110
291.29	23.554
291.66	21.212
292.03	19.539
292.40	21.633
292.77	20.485
293.13	20.298
293.50	19.317
293.87	19.732
294.24	21.067
294.60	20.228
294.97	18.926
295.34	21.127
295.71	18.159
296.08	20.284
296.44	20.711
296.81	20.828
297.18	19.801
297.55	19.811
297.91	19.454
298.28	19.787
298.65	18.787
299.02	17.473
299.38	20.709
299.75	20.093
300.12	18.866
300.48	19.816
300.85	19.010
301.22	19.239
301.59	17.922
301.95	19.548
302.32	19.778
302.69	20.482
303.05	19.913
303.42	18.293
303.79	19.479
304.15	18.822
304.52	18.182
304.89	20.105
305.25	19.876
305.62	17.868
305.99	19.588
306.35	18.548
306.72	18.925
307.09	17.360
307.45	18.012
307.82	19.173
308.19	17.659
308.55	18.419
308.92	18.890
309.29	18.774
309.65	17.154
310.02	18.515
310.38	18.209
310.75	20.000
311.12	19.942
311.48	19.062
311.85	19.278
312.22	18.121
312.58	19.155
312.95	19.312
313.31	19.422
313.68	20.330
314.05	20.958
314.41	21.220
314.78	18.710
315.14	20.145
315.51	20.406
315.87	20.792
316.24	21.461
316.61	20.515
316.97	20.543
317.34	20.194
317.70	22.009
318.07	19.577
318.43	20.748
318.80	21.237
319.16	21.888
319.53	20.394
319.89	20.508
320.26	20.907
320.62	19.681
320.99	20.406
321.35	20.610
321.72	21.395
322.08	20.198
322.45	21.951
322.81	21.119
323.18	22.478
323.54	21.552
323.91	21.441
324.27	22.031
324.64	21.579
325.00	20.978
325.37	22.113
325.73	22.231
326.10	21.817
326.46	22.964
326.83	21.697
327.19	21.811
327.56	22.767
327.92	21.637
328.29	22.661
328.65	21.357
329.01	21.743
329.38	21.988
329.74	21.318
330.11	22.774
330.47	22.241
330.84	22.222
331.20	22.500
331.56	21.577
331.93	22.594
332.29	22.627
332.66	23.173
333.02	21.608
333.38	23.322
333.75	23.064
334.11	22.269
334.48	22.112
334.84	22.770
335.20	21.746
335.57	23.103
335.93	21.405
336.29	22.130
336.66	21.531
337.02	22.324
337.38	22.194
337.75	21.653
338.11	22.540
338.47	22.415
338.84	21.827
339.20	22.157
339.56	21.582
339.93	21.921
340.29	21.095
340.65	22.628
341.02	22.825
341.38	21.746
341.74	21.227
342.11	22.204
342.47	21.287
342.83	23.027
343.20	23.467
343.56	22.775
343.92	22.098
344.28	22.344
344.65	23.256
345.01	23.635
345.37	21.540
345.73	21.668
346.10	22.777
346.46	21.123
346.82	22.547
347.19	22.689
347.55	22.762
347.91	22.437
348.27	21.851
348.63	22.925
349.00	22.670
349.36	23.123
349.72	22.247
350.08	23.180
350.45	21.445
350.81	21.493
351.17	22.632
351.53	22.820
351.89	23.386
352.26	22.687
352.62	22.388
352.98	22.977
353.34	22.330
353.70	22.650
354.07	23.025
354.43	22.855
354.79	22.064
355.15	22.884
355.51	23.465
355.87	22.513
356.24	22.586
356.60	22.986
356.96	22.683
357.32	22.602
357.68	21.669
358.04	23.353
358.40	22.612
358.77	23.099
359.13	22.378
359.49	22.974
359.85	22.190
360.21	24.319
360.57	23.259
360.93	22.779
361.29	22.877
361.66	23.172
362.02	24.635
362.38	23.753
362.74	23.254
363.10	24.072
363.46	23.753
363.82	24.077
364.18	23.364
364.54	23.928
364.90	24.615
365.26	24.000
365.62	24.267
365.98	23.826
366.35	23.960
366.71	24.422
367.07	24.154
367.43	24.819
367.79	25.415
368.15	25.084
368.51	24.628
368.87	25.212
369.23	23.867
369.59	25.410
369.95	24.679
370.31	24.916
370.67	24.897
371.03	24.723
371.39	24.244
371.75	25.516
372.11	24.864
372.47	25.931
372.83	26.047
373.19	24.950
373.55	25.407
373.91	25.699
374.27	26.520
374.63	25.981
374.99	26.127
375.35	26.234
375.71	25.871
376.07	26.275
376.42	27.078
376.78	26.911
377.14	26.575
377.50	28.147
377.86	27.094
378.22	27.545
378.58	27.170
378.94	27.347
379.30	27.241
379.66	27.807
380.02	28.217
380.38	27.995
380.74	28.000
381.09	28.688
381.45	28.864
381.81	28.923
382.17	29.751
382.53	28.830
382.89	29.853
383.25	28.957
383.61	29.340
383.97	28.681
384.32	30.084
384.68	29.466
385.04	30.480
385.40	31.291
385.76	30.774
386.12	30.580
386.48	30.706
386.83	31.228
387.19	31.286
387.55	31.103
387.91	30.708
388.27	31.697
388.62	31.672
388.98	30.739
389.34	32.115
389.70	32.830
390.06	32.800
390.42	32.048
390.77	33.233
391.13	32.805
391.49	33.454
391.85	32.182
392.20	32.918
392.56	33.845
392.92	34.133
393.28	34.328
393.64	33.743
393.99	34.689
394.35	34.229
394.71	35.090
395.07	33.353
395.42	34.495
395.78	35.101
396.14	34.938
396.50	34.620
396.85	34.407
397.21	35.562
397.57	35.159
397.92	35.796
398.28	35.633
398.64	35.641
399.00	35.445
399.35	35.969
399.71	36.359
400.07	36.328
400.42	36.380
400.78	37.558
401.14	36.710
401.49	37.749
401.85	38.547
402.21	37.080
402.57	37.676
402.92	38.416
403.28	38.232
403.63	38.425
403.99	38.124
404.35	38.090
404.70	38.924
405.06	38.750
405.42	39.110
405.77	39.477
406.13	38.682
406.49	39.809
406.84	39.612
407.20	39.575
407.55	39.552
407.91	38.969
408.27	39.340
408.62	40.838
408.98	40.801
409.34	40.117
409.69	41.595
410.05	40.387
410.40	41.067
410.76	41.671
411.11	41.847
411.47	41.708
411.83	43.210
412.18	42.530
412.54	42.739
412.89	42.666
413.25	42.833
413.60	43.251
413.96	43.590
414.31	41.813
414.67	43.113
415.03	43.754
415.38	43.190
415.74	42.883
416.09	43.924
416.45	42.517
416.80	43.880
417.16	45.402
417.51	44.334
417.87	43.654
418.22	43.114
418.58	43.432
418.93	45.809
419.29	45.006
419.64	44.058
420.00	44.095
420.35	45.199
420.71	43.366
421.06	44.508
421.42	45.126
421.77	44.965
422.12	43.605
422.48	45.110
422.83	45.674
423.19	45.889
423.54	45.133
423.90	45.224
424.25	44.693
424.61	46.154
424.96	44.756
425.31	46.072
425.67	44.981
426.02	45.656
426.38	46.211
426.73	45.592
427.09	46.309
427.44	45.822
427.79	46.434
428.15	45.034
428.50	46.124
428.85	44.259
429.21	47.447
429.56	45.755
429.92	45.602
430.27	46.217
430.62	46.654
430.98	46.385
431.33	45.601
431.68	45.019
432.04	46.521
432.39	46.170
432.74	46.689
433.10	46.566
433.45	45.262
433.80	46.191
434.16	46.849
434.51	46.557
434.86	47.177
435.22	47.184
435.57	46.050
435.92	47.078
436.28	48.066
436.63	48.280
436.98	46.108
437.34	47.294
437.69	46.340
438.04	47.277
438.39	47.674
438.75	47.482
439.10	48.256
439.45	47.010
439.81	46.949
440.16	45.898
440.51	47.046
440.86	47.749
441.22	47.053
441.57	47.432
441.92	47.139
442.27	47.879
442.63	47.044
442.98	47.439
443.33	46.291
443.68	47.522
444.03	47.789
444.39	47.758
444.74	47.779
445.09	46.883
445.44	48.051
445.79	48.084
446.15	47.688
446.50	47.752
446.85	46.790
447.20	47.727
447.55	47.594
447.91	46.754
448.26	47.199
448.61	46.652
448.96	48.015
449.31	48.091
449.66	47.277
450.02	47.785
450.37	47.416
450.72	47.632
451.07	48.064
451.42	47.371
451.77	46.804
452.12	48.138
452.47	46.583
452.83	48.705
453.18	46.935
453.53	47.501
453.88	46.494
454.23	47.006
454.58	46.837
454.93	47.027
455.28	47.200
455.63	47.470
455.98	46.648
456.34	47.232
456.69	46.561
457.04	48.286
457.39	46.175
457.74	46.588
458.09	45.689
458.44	47.037
458.79	45.848
459.14	46.513
459.49	46.689
459.84	47.167
460.19	46.308
460.54	48.382
460.89	46.162
461.24	45.690
461.59	46.541
461.94	45.807
462.29	47.480
462.64	45.987
462.99	46.955
463.34	46.593
463.69	45.838
464.04	46.304
464.39	46.805
464.74	46.408
465.09	46.309
465.44	46.727
465.79	45.637
466.14	46.066
466.49	44.895
466.84	46.887
467.19	46.590
467.54	46.240
467.89	44.713
468.24	45.983
468.59	45.918
468.94	45.862
469.29	46.371
469.64	47.235
469.99	46.399
470.34	46.473
470.68	47.232
471.03	46.627
471.38	47.220
471.73	46.424
472.08	47.716
472.43	47.321
472.78	47.040
473.13	47.345
473.48	46.465
473.83	46.373
474.17	47.011
474.52	46.723
474.87	47.065
475.22	47.155
475.57	47.196
475.92	46.590
476.27	46.006
476.61	46.729
476.96	46.246
477.31	46.980
477.66	47.482
478.01	46.873
478.36	46.660
478.70	46.847
479.05	48.006
479.40	48.322
479.75	46.830
480.10	46.613
480.45	46.855
480.79	47.256
481.14	45.864
481.49	46.661
481.84	46.736
482.19	46.925
482.53	46.655
482.88	47.807
483.23	47.265
483.58	46.550
483.92	45.700
484.27	45.766
484.62	45.916
484.97	44.907
485.31	45.231
485.66	43.397
486.01	42.050
486.36	42.645
486.70	44.653
487.05	45.305
487.40	44.973
487.75	44.860
488.09	44.689
488.44	44.883
488.79	44.722
489.13	44.352
489.48	44.427
489.83	45.151
490.17	44.026
490.52	44.294
490.87	45.389
491.22	45.624
491.56	44.966
491.91	45.094
492.26	45.738
492.60	45.081
492.95	45.239
493.30	45.540
493.64	45.642
493.99	45.219
494.34	45.470
494.68	44.882
495.03	45.859
495.37	45.672
495.72	44.762
496.07	45.443
496.41	44.015
496.76	45.621
497.11	44.544
497.45	44.670
497.80	45.269
498.14	45.760
498.49	44.715
498.84	45.704
499.18	44.489
499.53	44.709
499.87	44.352
500.22	45.058
500.56	44.759
500.91	45.126
501.26	46.000
501.60	44.587
501.95	44.507
502.29	44.888
502.64	46.218
502.98	44.090
503.33	44.363
503.67	45.530
504.02	45.403
504.36	45.532
504.71	44.832
505.06	44.247
505.40	45.018
505.75	45.446
506.09	44.843
506.44	44.800
506.78	46.330
507.13	45.597
507.47	45.950
507.82	46.165
508.16	44.790
508.51	45.148
508.85	46.245
509.19	45.760
509.54	45.821
509.88	45.508
510.23	46.916
510.57	46.351
510.92	46.638
511.26	45.936
511.61	45.147
511.95	45.144
512.30	46.775
512.64	46.077
512.98	46.823
513.33	46.623
513.67	46.915
514.02	46.244
514.36	47.008
514.70	46.667
515.05	46.663
515.39	47.559
515.74	48.250
516.08	47.015
516.42	47.776
516.77	47.529
517.11	46.983
517.46	48.674
517.80	48.370
518.14	48.803
518.49	47.885
518.83	47.738
519.17	46.850
519.52	48.375
519.86	48.680
520.20	47.018
520.55	48.576
520.89	48.480
521.23	47.962
521.58	49.209
521.92	47.989
522.26	48.339
522.61	50.000
522.95	48.558
523.29	48.333
523.64	48.038
523.98	49.173
524.32	49.857
524.66	49.516
525.01	49.151
525.35	47.674
525.69	48.260
526.04	47.876
526.38	47.816
526.72	47.174
527.06	48.915
527.41	48.455
527.75	48.872
528.09	49.351
528.43	48.609
528.78	48.208
529.12	48.337
529.46	47.892
529.80	48.341
530.15	47.188
530.49	48.814
530.83	48.465
531.17	48.029
531.51	48.616
531.86	48.618
532.20	49.207
532.54	46.858
532.88	48.061
533.22	47.672
533.57	47.663
533.91	47.699
534.25	48.050
534.59	47.299
534.93	46.802
535.27	46.930
535.62	46.845
535.96	47.995
536.30	47.121
536.64	48.288
536.98	47.294
537.32	48.580
537.66	47.785
538.01	46.344
538.35	47.259
538.69	46.815
539.03	48.007
539.37	47.055
539.71	45.826
540.05	46.583
540.39	47.005
540.73	45.719
541.07	46.904
541.42	45.363
541.76	44.543
542.10	45.838
542.44	46.529
542.78	45.499
543.12	44.994
543.46	45.360
543.80	44.484
544.14	45.242
544.48	45.449
544.82	45.362
545.16	45.259
545.50	45.357
545.84	45.070
546.18	46.420
546.52	45.159
546.86	45.220
547.20	45.802
547.54	43.695
547.88	43.942
548.22	44.327
548.56	44.119
548.90	45.134
549.24	44.742
549.58	44.543
549.92	45.536
550.26	44.919
550.60	44.544
550.94	45.602
551.28	44.488
551.62	46.698
551.96	44.401
552.30	45.188
552.64	45.364
552.98	44.729
553.32	45.209
553.66	43.859
554.00	43.884
554.34	42.600
554.68	42.479
555.02	44.218
555.36	43.327
555.69	43.562
556.03	43.695
556.37	44.556
556.71	42.739
557.05	43.323
557.39	42.999
557.73	44.782
558.07	43.841
558.41	43.455
558.75	43.340
559.08	44.816
559.42	43.347
559.76	43.623
560.10	44.206
560.44	43.404
560.78	43.625
561.12	42.488
561.45	42.944
561.79	43.651
562.13	43.315
562.47	41.307
562.81	42.975
563.15	41.856
563.48	42.262
563.82	42.382
564.16	40.945
564.50	42.014
564.84	41.003
565.17	41.706
565.51	39.873
565.85	40.855
566.19	41.647
566.52	41.486
566.86	40.351
567.20	39.859
567.54	41.158
567.88	40.418
568.21	40.514
568.55	40.767
568.89	39.628
569.23	39.713
569.56	38.609
569.90	38.382
570.24	38.314
570.57	37.684
570.91	36.375
571.25	36.130
571.59	37.350
571.92	36.354
572.26	36.607
572.60	36.500
572.93	35.402
573.27	36.696
573.61	36.024
573.95	35.470
574.28	35.342
574.62	35.289
574.96	34.936
575.29	35.118
575.63	35.066
575.97	35.281
576.30	34.518
576.64	34.526
576.98	34.920
577.31	34.231
577.65	34.833
577.98	34.356
578.32	34.032
578.66	33.698
578.99	34.159
579.33	34.438
579.67	33.953
580.00	34.098
580.34	34.097
580.67	33.605
581.01	34.336
581.35	33.626
581.68	33.523
582.02	33.616
582.35	33.607
582.69	34.160
583.02	33.713
583.36	33.621
583.70	33.788
584.03	33.429
584.37	34.016
584.70	33.423
585.04	33.597
585.37	33.540
585.71	33.312
586.04	33.554
586.38	33.217
586.72	33.141
587.05	33.717
587.39	33.633
587.72	33.421
588.06	33.511
588.39	33.707
588.73	33.280
589.06	34.114
589.40	33.989
589.73	33.901
590.07	34.383
590.40	34.077
590.73	34.005
591.07	33.991
591.40	34.137
591.74	34.420
592.07	34.998
592.41	33.912
592.74	33.120
593.08	34.045
593.41	33.829
593.75	33.132
594.08	32.566
594.41	33.429
594.75	32.979
595.08	33.109
595.42	32.597
595.75	33.000
596.09	32.938
596.42	33.142
596.75	33.385
597.09	33.697
597.42	32.857
597.75	33.242
598.09	33.571
598.42	33.534
598.76	32.442
599.09	32.467
599.42	31.981
599.76	32.783
600.09	32.566
600.42	32.666
600.76	32.530
601.09	32.161
601.42	31.926
601.76	32.276
602.09	32.523
602.42	31.589
602.76	32.509
603.09	32.232
603.42	32.767
603.76	31.572
604.09	32.789
604.42	32.220
604.76	32.268
605.09	32.509
605.42	32.536
605.75	31.962
606.09	31.840
606.42	31.667
606.75	31.709
607.09	31.375
607.42	31.522
607.75	32.395
608.08	31.847
608.42	31.842
608.75	31.799
609.08	31.112
609.41	32.333
609.75	31.250
610.08	33.377
610.41	31.776
610.74	32.479
611.07	32.504
611.41	32.601
611.74	32.102
612.07	33.240
612.40	31.226
612.73	32.323
613.07	32.372
613.40	31.954
613.73	31.825
614.06	32.483
614.39	31.924
614.72	31.344
615.06	30.991
615.39	31.319
615.72	31.896
616.05	30.792
616.38	31.685
616.71	31.766
617.05	31.257
617.38	31.942
617.71	31.911
618.04	31.624
618.37	31.967
618.70	32.410
619.03	31.900
619.36	31.998
619.69	32.543
620.03	32.517
620.36	32.086
620.69	33.251
621.02	32.808
621.35	33.527
621.68	33.912
622.01	33.665
622.34	32.706
622.67	32.371
623.00	31.107
623.33	32.648
623.66	34.176
623.99	32.390
624.32	33.983
624.65	31.532
624.99	32.770
625.32	32.593
625.65	33.041
625.98	32.136
626.31	32.884
626.64	32.234
626.97	32.033
627.30	32.802
627.63	32.333
627.96	33.784
628.29	33.463
628.62	33.417
628.95	33.742
629.28	34.834
629.61	33.923
629.94	32.134
630.26	33.559
630.59	32.470
630.92	31.255
