SpectraSuite Data File
++++++++++++++++++++++++++++++++++++
Date: Thu May 14 15:58:30 PDT 2015
User: schluterlab
Dark Spectrum Present: Yes
Reference Spectrum Present: Yes
Number of Sampled Component Spectra: 1
Spectrometers: USB2E3373
Integration Time (usec): 3000 (USB2E3373)
Spectra Averaged: 3 (USB2E3373)
Boxcar Smoothing: 0 (USB2E3373)
Correct for Electrical Dark: No (USB2E3373)
Strobe/Lamp Enabled: No (USB2E3373)
Correct for Detector Non-linearity: No (USB2E3373)
Correct for Stray Light: No (USB2E3373)
Number of Pixels in Processed Spectrum: 2048
>>>>>Begin Processed Spectral Data<<<<<
178.53	0.000
178.91	385.714
179.29	-3700.000
179.67	-2300.000
180.04	242.857
180.42	170.000
180.80	340.000
181.18	-1800.000
181.56	-1100.000
181.94	550.000
182.31	-525.000
182.69	666.667
183.07	-850.000
183.45	725.000
183.83	-533.333
184.20	-566.667
184.58	1500.000
184.96	-700.000
185.34	-322.222
185.72	-480.000
186.09	344.444
186.47	1200.000
186.85	740.000
187.23	-311.111
187.61	-2000.000
187.98	420.000
188.36	650.000
188.74	-675.000
189.12	-766.667
189.49	-118.750
189.87	-262.500
190.25	-233.333
190.63	-420.000
191.00	-311.111
191.38	0.000
191.76	-600.000
192.14	-333.333
192.51	850.000
192.89	-166.667
193.27	0.000
193.65	-257.143
194.02	-3100.000
194.40	-357.143
194.78	442.857
195.15	0.000
195.53	-200.000
195.91	0.000
196.29	-450.000
196.66	-123.077
197.04	-2300.000
197.42	-328.571
197.79	-1400.000
198.17	-362.500
198.55	-357.143
198.92	-233.333
199.30	-387.500
199.68	-100.000
200.05	-157.143
200.43	-1100.000
200.81	385.714
201.18	0.000
201.56	333.333
201.94	0.000
202.31	1066.667
202.69	-344.444
203.07	2600.000
203.44	-166.667
203.82	-600.000
204.19	-241.667
204.57	-500.000
204.95	-275.000
205.32	-2800.000
205.70	600.000
206.08	-316.667
206.45	-316.667
206.83	560.000
207.20	-400.000
207.58	-540.000
207.96	-500.000
208.33	-366.667
208.71	200.000
209.08	-183.333
209.46	0.000
209.84	616.667
210.21	850.000
210.59	900.000
210.96	1066.667
211.34	-250.000
211.71	-312.500
212.09	-2000.000
212.46	0.000
212.84	1550.000
213.22	-480.000
213.59	-650.000
213.97	-210.000
214.34	-533.333
214.72	466.667
215.09	-500.000
215.47	0.000
215.84	400.000
216.22	1250.000
216.59	-340.000
216.97	-560.000
217.34	-700.000
217.72	-187.500
218.09	-575.000
218.47	-675.000
218.84	0.000
219.22	660.000
219.59	-94.118
219.97	-105.000
220.34	1200.000
220.72	-233.333
221.09	-84.615
221.47	-833.333
221.84	-270.000
222.22	-371.429
222.59	0.000
222.97	-175.000
223.34	-580.000
223.72	-2100.000
224.09	-575.000
224.46	-800.000
224.84	-300.000
225.21	-357.143
225.59	-600.000
225.96	-500.000
226.34	-42.308
226.71	416.667
227.08	-1600.000
227.46	-106.667
227.83	-725.000
228.21	-105.263
228.58	225.000
228.95	950.000
229.33	-108.333
229.70	-160.000
230.08	-68.421
230.45	320.000
230.82	-533.333
231.20	-78.571
231.57	-166.667
231.95	-245.455
232.32	-190.909
232.69	-75.000
233.07	-400.000
233.44	-117.647
233.81	-200.000
234.19	-66.667
234.56	-72.727
234.93	-58.621
235.31	-105.263
235.68	-116.667
236.05	-155.000
236.43	-34.615
236.80	-44.000
237.17	-48.148
237.55	-54.545
237.92	-300.000
238.29	-67.742
238.67	-50.000
239.04	-50.000
239.41	-57.143
239.79	-32.609
240.16	-24.074
240.53	-34.783
240.91	-39.216
241.28	-24.590
241.65	-2.985
242.02	-6.757
242.40	-29.231
242.77	-22.667
243.14	-31.707
243.51	-27.632
243.89	-20.513
244.26	-17.822
244.63	-12.745
245.00	-9.346
245.38	-11.404
245.75	-14.159
246.12	-10.317
246.49	-10.853
246.87	-2.857
247.24	-2.649
247.61	-0.658
247.98	-5.369
248.36	-1.235
248.73	-4.294
249.10	-5.464
249.47	1.990
249.84	1.047
250.22	-4.145
250.59	-3.333
250.96	4.091
251.33	-9.184
251.70	-2.991
252.08	0.833
252.45	1.230
252.82	0.000
253.19	-2.344
253.56	4.943
253.94	-3.077
254.31	3.788
254.68	5.594
255.05	6.515
255.42	-1.701
255.79	0.647
256.16	-0.993
256.54	-1.325
256.91	1.639
257.28	-1.967
257.65	-1.592
258.02	-2.065
258.39	2.849
258.76	0.917
259.14	3.736
259.51	0.000
259.88	0.000
260.25	3.611
260.62	3.562
260.99	6.284
261.36	2.413
261.73	2.387
262.10	0.824
262.47	3.217
262.85	5.051
263.22	3.896
263.59	1.842
263.96	0.512
264.33	-0.767
264.70	2.963
265.07	2.625
265.44	3.628
265.81	1.157
266.18	5.442
266.55	4.241
266.92	-0.683
267.29	5.252
267.66	3.548
268.03	2.402
268.40	3.340
268.77	0.911
269.14	1.762
269.51	2.412
269.88	5.533
270.25	4.225
270.62	3.586
270.99	4.646
271.36	4.950
271.73	4.715
272.10	5.210
272.47	2.605
272.84	2.811
273.21	4.609
273.58	4.435
273.95	2.115
274.32	1.521
274.69	1.934
275.06	5.128
275.43	1.294
275.80	4.938
276.17	1.111
276.54	2.052
276.91	3.041
277.28	3.074
277.65	2.513
278.02	2.941
278.39	3.804
278.76	3.163
279.13	4.255
279.50	2.921
279.87	4.293
280.23	1.056
280.60	3.559
280.97	4.112
281.34	2.716
281.71	4.738
282.08	4.817
282.45	2.291
282.82	4.710
283.19	2.100
283.56	2.951
283.92	3.754
284.29	4.265
284.66	6.404
285.03	2.564
285.40	3.864
285.77	3.096
286.14	5.649
286.51	3.196
286.87	2.686
287.24	3.916
287.61	3.886
287.98	1.964
288.35	3.107
288.72	2.811
289.08	4.685
289.45	4.290
289.82	4.217
290.19	3.305
290.56	4.930
290.93	4.422
291.29	3.306
291.66	3.581
292.03	2.849
292.40	5.714
292.77	3.774
293.13	3.654
293.50	3.417
293.87	3.624
294.24	4.133
294.60	4.172
294.97	0.805
295.34	5.250
295.71	3.026
296.08	2.196
296.44	3.186
296.81	3.410
297.18	2.615
297.55	4.245
297.91	2.966
298.28	2.725
298.65	3.805
299.02	2.834
299.38	3.776
299.75	3.972
300.12	2.431
300.48	3.111
300.85	4.949
301.22	4.474
301.59	2.397
301.95	3.842
302.32	3.778
302.69	3.724
303.05	2.285
303.42	2.882
303.79	3.646
304.15	4.101
304.52	1.903
304.89	2.827
305.25	4.658
305.62	3.448
305.99	4.536
306.35	3.226
306.72	4.343
307.09	3.249
307.45	2.381
307.82	3.229
308.19	2.119
308.55	3.664
308.92	4.090
309.29	4.502
309.65	3.411
310.02	2.673
310.38	3.248
310.75	3.301
311.12	3.643
311.48	2.053
311.85	2.754
312.22	2.467
312.58	3.380
312.95	2.868
313.31	3.613
313.68	4.579
314.05	4.426
314.41	4.645
314.78	4.995
315.14	4.083
315.51	4.524
315.87	4.590
316.24	4.749
316.61	5.506
316.97	3.710
317.34	5.115
317.70	4.105
318.07	4.233
318.43	4.337
318.80	4.264
319.16	3.777
319.53	3.770
319.89	3.944
320.26	4.181
320.62	3.812
320.99	5.078
321.35	4.621
321.72	4.372
322.08	3.427
322.45	4.517
322.81	4.332
323.18	4.248
323.54	3.879
323.91	4.181
324.27	3.787
324.64	5.206
325.00	4.561
325.37	5.160
325.73	4.380
326.10	4.380
326.46	4.642
326.83	4.884
327.19	4.724
327.56	4.506
327.92	4.013
328.29	4.919
328.65	4.271
329.01	4.146
329.38	4.212
329.74	5.308
330.11	4.795
330.47	4.212
330.84	4.479
331.20	4.750
331.56	3.553
331.93	4.351
332.29	4.746
332.66	5.150
333.02	4.188
333.38	4.195
333.75	4.630
334.11	5.171
334.48	4.208
334.84	6.117
335.20	3.862
335.57	4.890
335.93	5.372
336.29	4.243
336.66	4.121
337.02	5.268
337.38	4.252
337.75	4.628
338.11	4.878
338.47	4.797
338.84	4.146
339.20	3.707
339.56	4.036
339.93	4.844
340.29	4.670
340.65	3.406
341.02	5.108
341.38	5.255
341.74	3.309
342.11	3.862
342.47	3.733
342.83	4.589
343.20	4.415
343.56	4.010
343.92	3.683
344.28	3.750
344.65	5.271
345.01	3.510
345.37	4.199
345.73	3.663
346.10	4.602
346.46	4.193
346.82	4.270
347.19	5.042
347.55	4.552
347.91	3.863
348.27	3.869
348.63	4.189
349.00	4.027
349.36	4.907
349.72	4.315
350.08	5.052
350.45	3.574
350.81	4.223
351.17	3.383
351.53	5.307
351.89	4.632
352.26	3.358
352.62	3.731
352.98	3.740
353.34	3.211
353.70	3.544
354.07	5.142
354.43	3.189
354.79	3.067
355.15	3.532
355.51	4.532
355.87	3.815
356.24	3.954
356.60	4.213
356.96	4.299
357.32	3.792
357.68	3.221
358.04	2.844
358.40	3.433
358.77	4.605
359.13	3.397
359.49	2.305
359.85	4.351
360.21	3.730
360.57	2.800
360.93	3.526
361.29	3.158
361.66	2.896
362.02	3.479
362.38	2.600
362.74	3.980
363.10	3.301
363.46	3.670
363.82	2.699
364.18	4.082
364.54	3.804
364.90	3.746
365.26	3.724
365.62	4.333
365.98	3.948
366.35	4.161
366.71	3.469
367.07	3.586
367.43	4.268
367.79	4.180
368.15	3.946
368.51	3.992
368.87	3.984
369.23	3.733
369.59	3.005
369.95	3.854
370.31	3.511
370.67	3.645
371.03	3.186
371.39	3.559
371.75	3.370
372.11	3.726
372.47	2.776
372.83	3.992
373.19	4.003
373.55	3.930
373.91	3.067
374.27	3.687
374.63	4.127
374.99	3.647
375.35	4.091
375.71	3.613
376.07	3.357
376.42	4.093
376.78	4.413
377.14	3.493
377.50	3.479
377.86	5.049
378.22	3.713
378.58	3.983
378.94	4.049
379.30	3.515
379.66	4.056
380.02	3.520
380.38	3.917
380.74	4.113
381.09	3.484
381.45	3.920
381.81	3.454
382.17	4.691
382.53	3.684
382.89	3.725
383.25	3.634
383.61	3.241
383.97	3.534
384.32	4.007
384.68	2.552
385.04	3.759
385.40	3.418
385.76	3.576
386.12	3.531
386.48	3.765
386.83	3.874
387.19	3.244
387.55	2.465
387.91	2.968
388.27	4.330
388.62	4.353
388.98	3.835
389.34	4.007
389.70	3.196
390.06	3.789
390.42	3.012
390.77	4.094
391.13	3.991
391.49	3.684
391.85	3.212
392.20	3.618
392.56	3.662
392.92	4.580
393.28	4.035
393.64	4.134
393.99	4.765
394.35	4.206
394.71	4.311
395.07	2.754
395.42	4.055
395.78	3.352
396.14	4.516
396.50	3.147
396.85	3.697
397.21	3.550
397.57	2.945
397.92	4.124
398.28	3.096
398.64	3.661
399.00	2.827
399.35	3.979
399.71	3.641
400.07	3.706
400.42	3.551
400.78	3.241
401.14	3.415
401.49	3.809
401.85	3.721
402.21	4.229
402.57	3.932
402.92	3.605
403.28	3.044
403.63	2.506
403.99	3.860
404.35	3.809
404.70	3.853
405.06	3.967
405.42	3.513
405.77	4.089
406.13	3.566
406.49	3.153
406.84	4.211
407.20	4.695
407.55	3.150
407.91	3.583
408.27	4.064
408.62	3.374
408.98	3.540
409.34	3.226
409.69	3.894
410.05	3.986
410.40	3.538
410.76	4.262
411.11	3.565
411.47	3.747
411.83	3.762
412.18	4.398
412.54	4.149
412.89	4.366
413.25	3.950
413.60	3.331
413.96	4.429
414.31	4.533
414.67	4.592
415.03	4.492
415.38	3.531
415.74	3.299
416.09	4.010
416.45	3.444
416.80	3.366
417.16	3.959
417.51	4.172
417.87	3.985
418.22	3.353
418.58	3.841
418.93	4.366
419.29	3.822
419.64	3.902
420.00	2.552
420.35	3.987
420.71	3.791
421.06	3.220
421.42	3.727
421.77	3.285
422.12	4.757
422.48	3.738
422.83	4.600
423.19	3.607
423.54	3.982
423.90	3.865
424.25	4.427
424.61	2.985
424.96	3.954
425.31	4.193
425.67	4.026
426.02	4.040
426.38	4.076
426.73	3.683
427.09	5.248
427.44	3.714
427.79	3.925
428.15	3.425
428.50	4.213
428.85	3.846
429.21	4.521
429.56	3.653
429.92	3.882
430.27	3.855
430.62	4.348
430.98	3.788
431.33	3.861
431.68	3.592
432.04	4.165
432.39	4.499
432.74	3.311
433.10	4.273
433.45	4.292
433.80	3.487
434.16	4.236
434.51	3.854
434.86	3.746
435.22	3.666
435.57	3.833
435.92	4.619
436.28	3.754
436.63	4.205
436.98	4.402
437.34	3.946
437.69	3.963
438.04	3.860
438.39	3.906
438.75	3.597
439.10	4.175
439.45	4.136
439.81	3.955
440.16	3.539
440.51	4.682
440.86	3.446
441.22	4.716
441.57	3.616
441.92	3.880
442.27	4.343
442.63	4.421
442.98	4.482
443.33	4.419
443.68	5.005
444.03	4.374
444.39	4.068
444.74	4.339
445.09	4.004
445.44	4.584
445.79	4.646
446.15	4.625
446.50	4.548
446.85	4.475
447.20	4.449
447.55	4.550
447.91	3.874
448.26	3.753
448.61	3.826
448.96	4.828
449.31	3.871
449.66	3.595
450.02	3.850
450.37	5.061
450.72	4.090
451.07	4.214
451.42	3.755
451.77	4.336
452.12	4.233
452.47	3.922
452.83	4.223
453.18	3.911
453.53	3.791
453.88	4.417
454.23	5.085
454.58	4.585
454.93	3.762
455.28	4.335
455.63	4.434
455.98	4.525
456.34	3.828
456.69	4.233
457.04	3.783
457.39	4.268
457.74	4.586
458.09	3.405
458.44	4.687
458.79	3.971
459.14	4.667
459.49	3.735
459.84	4.774
460.19	3.776
460.54	4.429
460.89	4.129
461.24	3.333
461.59	4.040
461.94	3.309
462.29	4.591
462.64	3.681
462.99	4.331
463.34	4.283
463.69	4.455
464.04	4.558
464.39	3.980
464.74	4.960
465.09	5.306
465.44	4.131
465.79	3.860
466.14	4.013
466.49	3.789
466.84	3.636
467.19	4.220
467.54	3.702
467.89	4.598
468.24	4.488
468.59	4.053
468.94	3.555
469.29	3.359
469.64	4.323
469.99	4.780
470.34	3.775
470.68	3.964
471.03	4.060
471.38	4.120
471.73	3.381
472.08	3.997
472.43	3.793
472.78	3.967
473.13	4.235
473.48	4.048
473.83	4.005
474.17	3.927
474.52	4.269
474.87	4.928
475.22	4.901
475.57	4.569
475.92	4.530
476.27	4.739
476.61	4.517
476.96	3.337
477.31	4.901
477.66	4.302
478.01	4.220
478.36	4.487
478.70	3.990
479.05	4.294
479.40	4.245
479.75	4.899
480.10	4.879
480.45	5.014
480.79	4.807
481.14	4.412
481.49	3.907
481.84	4.743
482.19	3.742
482.53	4.329
482.88	4.475
483.23	4.802
483.58	3.537
483.92	4.610
484.27	4.064
484.62	4.167
484.97	4.393
485.31	4.505
485.66	4.780
486.01	4.654
486.36	4.470
486.70	5.138
487.05	4.933
487.40	4.853
487.75	4.809
488.09	4.846
488.44	4.624
488.79	5.126
489.13	4.671
489.48	4.272
489.83	4.588
490.17	4.496
490.52	4.310
490.87	4.738
491.22	4.073
491.56	4.693
491.91	4.928
492.26	4.587
492.60	4.635
492.95	4.476
493.30	4.348
493.64	4.512
493.99	4.605
494.34	3.963
494.68	4.283
495.03	4.934
495.37	4.350
495.72	4.127
496.07	5.039
496.41	4.462
496.76	4.420
497.11	3.822
497.45	4.273
497.80	4.620
498.14	4.626
498.49	4.458
498.84	4.570
499.18	4.858
499.53	4.484
499.87	4.747
500.22	3.963
500.56	4.813
500.91	4.577
501.26	5.182
501.60	4.286
501.95	4.993
502.29	4.212
502.64	4.635
502.98	4.443
503.33	4.276
503.67	4.317
504.02	4.597
504.36	4.826
504.71	4.593
505.06	4.457
505.40	4.296
505.75	4.599
506.09	4.466
506.44	4.875
506.78	4.495
507.13	5.071
507.47	4.927
507.82	4.261
508.16	4.302
508.51	4.407
508.85	3.921
509.19	4.642
509.54	5.283
509.88	4.274
510.23	4.905
510.57	5.075
510.92	4.257
511.26	4.425
511.61	3.959
511.95	4.880
512.30	5.022
512.64	4.348
512.98	4.402
513.33	4.486
513.67	4.844
514.02	5.008
514.36	4.859
514.70	4.115
515.05	4.745
515.39	4.829
515.74	4.984
516.08	5.018
516.42	4.971
516.77	5.100
517.11	4.642
517.46	4.878
517.80	4.971
518.14	5.550
518.49	4.826
518.83	4.630
519.17	4.362
519.52	4.612
519.86	5.069
520.20	5.059
520.55	4.710
520.89	4.336
521.23	4.076
521.58	5.028
521.92	4.193
522.26	4.467
522.61	5.093
522.95	4.614
523.29	4.425
523.64	4.877
523.98	4.678
524.32	5.731
524.66	4.952
525.01	4.926
525.35	4.825
525.69	4.698
526.04	5.166
526.38	5.115
526.72	5.306
527.06	4.633
527.41	4.315
527.75	4.454
528.09	4.841
528.43	5.210
528.78	4.335
529.12	4.989
529.46	5.396
529.80	4.805
530.15	4.870
530.49	4.448
530.83	5.372
531.17	3.883
531.51	4.633
531.86	4.868
532.20	5.610
532.54	4.847
532.88	4.606
533.22	4.891
533.57	4.732
533.91	5.724
534.25	4.862
534.59	5.057
534.93	4.584
535.27	4.507
535.62	5.571
535.96	5.636
536.30	4.877
536.64	4.925
536.98	5.228
537.32	5.802
537.66	5.427
538.01	5.196
538.35	4.629
538.69	4.026
539.03	4.844
539.37	4.711
539.71	4.985
540.05	5.635
540.39	4.707
540.73	5.039
541.07	4.537
541.42	4.843
541.76	4.982
542.10	4.704
542.44	4.750
542.78	4.988
543.12	5.602
543.46	4.823
543.80	4.197
544.14	4.369
544.48	5.024
544.82	5.087
545.16	5.188
545.50	5.273
545.84	5.266
546.18	6.667
546.52	5.032
546.86	5.472
547.20	5.789
547.54	4.806
547.88	4.762
548.22	4.444
548.56	5.500
548.90	4.418
549.24	4.985
549.58	5.363
549.92	4.847
550.26	5.761
550.60	5.233
550.94	6.274
551.28	5.545
551.62	5.256
551.96	6.278
552.30	6.119
552.64	4.854
552.98	4.741
553.32	5.016
553.66	5.016
554.00	5.044
554.34	4.891
554.68	5.036
555.02	5.585
555.36	5.917
555.69	4.869
556.03	5.107
556.37	6.008
556.71	5.073
557.05	4.984
557.39	3.849
557.73	4.888
558.07	5.099
558.41	5.382
558.75	5.341
559.08	5.776
559.42	4.938
559.76	5.631
560.10	4.956
560.44	4.815
560.78	5.563
561.12	4.988
561.45	5.900
561.79	5.006
562.13	5.792
562.47	5.734
562.81	5.316
563.15	5.177
563.48	5.594
563.82	5.200
564.16	4.664
564.50	4.768
564.84	5.015
565.17	5.235
565.51	5.524
565.85	4.929
566.19	4.608
566.52	5.383
566.86	5.037
567.20	4.948
567.54	4.780
567.88	5.046
568.21	6.028
568.55	5.180
568.89	5.538
569.23	5.915
569.56	5.197
569.90	5.880
570.24	5.228
570.57	5.292
570.91	5.175
571.25	5.872
571.59	5.427
571.92	5.197
572.26	5.161
572.60	5.597
572.93	5.789
573.27	5.676
573.61	5.876
573.95	5.681
574.28	5.910
574.62	5.616
574.96	5.315
575.29	5.772
575.63	5.683
575.97	5.629
576.30	5.724
576.64	5.703
576.98	5.581
577.31	5.848
577.65	5.881
577.98	5.817
578.32	5.258
578.66	5.692
578.99	5.857
579.33	5.914
579.67	5.440
580.00	5.754
580.34	5.955
580.67	5.583
581.01	5.625
581.35	5.806
581.68	5.697
582.02	5.798
582.35	5.788
582.69	6.038
583.02	5.719
583.36	5.792
583.70	5.658
584.03	5.808
584.37	5.850
584.70	5.599
585.04	5.627
585.37	5.590
585.71	5.717
586.04	5.526
586.38	5.757
586.72	5.139
587.05	5.014
587.39	5.834
587.72	5.383
588.06	5.754
588.39	5.900
588.73	5.741
589.06	5.813
589.40	5.685
589.73	5.945
590.07	5.537
590.40	6.322
590.73	5.726
591.07	5.622
591.40	5.288
591.74	5.564
592.07	5.725
592.41	5.402
592.74	5.786
593.08	5.828
593.41	5.920
593.75	5.690
594.08	5.877
594.41	5.865
594.75	5.281
595.08	4.980
595.42	5.422
595.75	5.586
596.09	5.930
596.42	5.769
596.75	5.944
597.09	6.222
597.42	5.721
597.75	5.645
598.09	5.357
598.42	6.273
598.76	5.808
599.09	5.696
599.42	5.732
599.76	5.447
600.09	5.806
600.42	5.672
600.76	5.680
601.09	5.642
601.42	5.973
601.76	5.379
602.09	5.897
602.42	5.634
602.76	5.867
603.09	5.764
603.42	5.383
603.76	5.567
604.09	6.388
604.42	5.688
604.76	5.594
605.09	5.584
605.42	5.582
605.75	5.346
606.09	5.711
606.42	5.509
606.75	5.697
607.09	5.261
607.42	5.665
607.75	5.901
608.08	5.288
608.42	5.603
608.75	6.053
609.08	5.136
609.41	5.602
609.75	5.134
610.08	5.673
610.41	5.183
610.74	5.630
611.07	5.018
611.41	5.605
611.74	5.681
612.07	5.704
612.40	5.181
612.73	5.086
613.07	5.770
613.40	5.919
613.73	5.441
614.06	5.986
614.39	5.734
614.72	5.240
615.06	5.294
615.39	5.172
615.72	5.498
616.05	5.925
616.38	5.752
616.71	6.061
617.05	5.485
617.38	6.207
617.71	5.670
618.04	6.152
618.37	6.066
618.70	5.486
619.03	5.078
619.36	5.795
619.69	5.381
620.03	5.085
620.36	5.828
620.69	5.490
621.02	5.381
621.35	5.007
621.68	5.423
622.01	4.840
622.34	5.997
622.67	5.223
623.00	4.858
623.33	5.508
623.66	5.642
623.99	4.477
624.32	6.563
624.65	4.891
624.99	4.811
625.32	6.270
625.65	5.799
625.98	5.220
626.31	5.811
626.64	5.421
626.97	5.176
627.30	3.797
627.63	4.951
627.96	5.856
628.29	5.447
628.62	4.702
628.95	4.820
629.28	6.117
629.61	5.219
629.94	5.021
630.26	5.424
630.59	3.886
630.92	3.463
631.25	5.277
631.58	5.650
631.91	4.686
632.24	4.323
632.57	4.744
632.90	4.915
633.23	4.796
633.56	4.490
633.89	4.545
634.22	5.198
634.55	4.906
634.88	4.113
635.20	5.382
635.53	4.633
635.86	4.117
636.19	5.832
636.52	5.380
636.85	5.618
637.18	5.198
637.51	4.624
637.83	6.202
638.16	5.300
638.49	3.521
638.82	4.510
639.15	4.238
639.48	5.427
639.81	4.850
640.13	5.418
640.46	1.818
640.79	3.064
641.12	4.720
641.45	4.141
641.77	6.162
642.10	3.543
642.43	4.255
642.76	4.201
643.09	2.877
643.41	3.501
643.74	3.862
644.07	5.931
644.40	3.395
644.73	2.758
645.05	1.762
645.38	4.317
645.71	3.519
646.04	5.308
646.36	4.380
646.69	3.834
647.02	5.199
647.35	3.206
647.67	4.670
648.00	3.185
648.33	4.204
648.66	3.566
648.98	3.129
649.31	4.330
649.64	4.382
649.96	4.775
650.29	1.530
650.62	3.536
650.94	3.153
651.27	1.198
651.60	4.386
651.92	2.280
652.25	4.776
652.58	3.989
652.90	3.488
653.23	4.507
653.56	3.138
653.88	5.197
654.21	5.211
654.54	4.046
654.86	5.099
655.19	4.266
655.52	4.789
