SpectraSuite Data File
++++++++++++++++++++++++++++++++++++
Date: Thu May 14 16:00:32 PDT 2015
User: schluterlab
Dark Spectrum Present: Yes
Reference Spectrum Present: Yes
Number of Sampled Component Spectra: 1
Spectrometers: USB2E3373
Integration Time (usec): 3000 (USB2E3373)
Spectra Averaged: 3 (USB2E3373)
Boxcar Smoothing: 0 (USB2E3373)
Correct for Electrical Dark: No (USB2E3373)
Strobe/Lamp Enabled: No (USB2E3373)
Correct for Detector Non-linearity: No (USB2E3373)
Correct for Stray Light: No (USB2E3373)
Number of Pixels in Processed Spectrum: 2048
>>>>>Begin Processed Spectral Data<<<<<
178.53	0.000
178.91	271.429
179.29	-2300.000
179.67	-2400.000
180.04	221.429
180.42	210.000
180.80	260.000
181.18	-1900.000
181.56	-1000.000
181.94	300.000
182.31	-175.000
182.69	400.000
183.07	-400.000
183.45	475.000
183.83	-366.667
184.20	-600.000
184.58	2300.000
184.96	-550.000
185.34	-144.444
185.72	-260.000
186.09	266.667
186.47	900.000
186.85	440.000
187.23	-300.000
187.61	-2200.000
187.98	460.000
188.36	675.000
188.74	-300.000
189.12	-433.333
189.49	-93.750
189.87	-237.500
190.25	-133.333
190.63	-340.000
191.00	-233.333
191.38	0.000
191.76	-700.000
192.14	-450.000
192.51	1100.000
192.89	-183.333
193.27	0.000
193.65	-114.286
194.02	-1900.000
194.40	-242.857
194.78	271.429
195.15	0.000
195.53	-145.455
195.91	0.000
196.29	-250.000
196.66	-153.846
197.04	-2500.000
197.42	-157.143
197.79	-700.000
198.17	-262.500
198.55	-414.286
198.92	-111.111
199.30	-400.000
199.68	-109.091
200.05	-64.286
200.43	-750.000
200.81	314.286
201.18	0.000
201.56	300.000
201.94	0.000
202.31	633.333
202.69	-188.889
203.07	1800.000
203.44	-77.778
203.82	-300.000
204.19	-133.333
204.57	-250.000
204.95	-200.000
205.32	-2000.000
205.70	500.000
206.08	-350.000
206.45	-333.333
206.83	560.000
207.20	-316.667
207.58	-440.000
207.96	-333.333
208.33	-200.000
208.71	158.333
209.08	-100.000
209.46	0.000
209.84	300.000
210.21	900.000
210.59	900.000
210.96	800.000
211.34	-400.000
211.71	-237.500
212.09	-1900.000
212.46	0.000
212.84	1350.000
213.22	-400.000
213.59	-400.000
213.97	-170.000
214.34	-700.000
214.72	500.000
215.09	-600.000
215.47	0.000
215.84	285.714
216.22	1150.000
216.59	-360.000
216.97	-420.000
217.34	-400.000
217.72	-150.000
218.09	-425.000
218.47	-425.000
218.84	0.000
219.22	300.000
219.59	-100.000
219.97	-55.000
220.34	1450.000
220.72	-200.000
221.09	-130.769
221.47	-666.667
221.84	-180.000
222.22	-228.571
222.59	0.000
222.97	-150.000
223.34	-360.000
223.72	-1600.000
224.09	-550.000
224.46	-625.000
224.84	-400.000
225.21	-400.000
225.59	-475.000
225.96	-575.000
226.34	-73.077
226.71	333.333
227.08	-600.000
227.46	-106.667
227.83	-475.000
228.21	-105.263
228.58	175.000
228.95	450.000
229.33	-116.667
229.70	-160.000
230.08	-10.526
230.45	240.000
230.82	-500.000
231.20	-85.714
231.57	-83.333
231.95	-154.545
232.32	-127.273
232.69	-90.000
233.07	-375.000
233.44	-64.706
233.81	-170.000
234.19	-27.778
234.56	-18.182
234.93	-13.793
235.31	-52.632
235.68	-50.000
236.05	-70.000
236.43	-23.077
236.80	0.000
237.17	-22.222
237.55	-15.152
237.92	-100.000
238.29	0.000
238.67	-15.909
239.04	-19.444
239.41	-19.048
239.79	13.043
240.16	5.556
240.53	6.522
240.91	-35.294
241.28	9.836
241.65	4.478
242.02	21.622
242.40	-15.385
242.77	10.667
243.14	7.317
243.51	-5.263
243.89	1.282
244.26	23.762
244.63	14.706
245.00	19.626
245.38	11.404
245.75	7.965
246.12	22.222
246.49	11.628
246.87	9.286
247.24	19.205
247.61	16.447
247.98	24.832
248.36	27.778
248.73	18.405
249.10	21.311
249.47	26.368
249.84	26.178
250.22	26.425
250.59	22.778
250.96	30.000
251.33	27.551
251.70	23.504
252.08	22.500
252.45	26.639
252.82	23.140
253.19	23.437
253.56	28.517
253.94	23.462
254.31	24.242
254.68	27.273
255.05	30.293
255.42	26.871
255.79	27.832
256.16	23.179
256.54	25.828
256.91	29.508
257.28	28.525
257.65	24.522
258.02	22.124
258.39	25.356
258.76	31.804
259.14	29.023
259.51	32.853
259.88	24.079
260.25	25.278
260.62	29.315
260.99	28.415
261.36	31.099
261.73	28.382
262.10	27.747
262.47	30.027
262.85	31.818
263.22	27.792
263.59	27.368
263.96	28.133
264.33	28.900
264.70	29.136
265.07	29.594
265.44	31.066
265.81	27.083
266.18	29.932
266.55	30.804
266.92	30.752
267.29	29.978
267.66	31.042
268.03	28.166
268.40	27.349
268.77	30.296
269.14	28.855
269.51	29.386
269.88	31.148
270.25	29.376
270.62	29.114
270.99	30.505
271.36	28.911
271.73	29.273
272.10	30.862
272.47	30.261
272.84	28.715
273.21	29.860
273.58	27.823
273.95	29.615
274.32	27.567
274.69	27.273
275.06	27.106
275.43	26.433
275.80	30.688
276.17	27.222
276.54	28.731
276.91	26.297
277.28	29.476
277.65	29.982
278.02	29.044
278.39	27.717
278.76	26.011
279.13	27.305
279.50	29.381
279.87	30.233
280.23	27.641
280.60	29.153
280.97	32.237
281.34	28.693
281.71	28.934
282.08	28.073
282.45	27.660
282.82	29.513
283.19	26.494
283.56	30.000
283.92	30.631
284.29	27.962
284.66	28.243
285.03	25.801
285.40	30.448
285.77	29.876
286.14	29.313
286.51	29.528
286.87	26.856
287.24	28.163
287.61	26.906
287.98	25.378
288.35	26.923
288.72	25.000
289.08	26.501
289.45	25.888
289.82	23.645
290.19	27.730
290.56	26.620
290.93	25.250
291.29	26.309
291.66	25.620
292.03	25.373
292.40	25.578
292.77	24.933
293.13	24.357
293.50	24.573
293.87	22.953
294.24	26.933
294.60	25.158
294.97	22.685
295.34	23.688
295.71	23.834
296.08	23.127
296.44	23.407
296.81	22.899
297.18	21.918
297.55	22.759
297.91	22.657
298.28	19.550
298.65	23.424
299.02	21.842
299.38	21.396
299.75	21.145
300.12	21.528
300.48	23.733
300.85	22.497
301.22	22.707
301.59	20.320
301.95	21.243
302.32	23.333
302.69	22.782
303.05	22.851
303.42	22.062
303.79	21.771
304.15	21.451
304.52	22.516
304.89	21.571
305.25	20.911
305.62	21.108
305.99	21.237
306.35	22.883
306.72	22.337
307.09	21.320
307.45	22.360
307.82	21.796
308.19	22.503
308.55	22.179
308.92	22.590
309.29	21.648
309.65	20.858
310.02	21.188
310.38	21.949
310.75	20.777
311.12	22.531
311.48	22.092
311.85	21.083
312.22	21.252
312.58	21.315
312.95	21.511
313.31	22.222
313.68	21.703
314.05	21.861
314.41	22.040
314.78	21.708
315.14	21.597
315.51	21.699
315.87	22.232
316.24	22.192
316.61	21.581
316.97	20.633
317.34	20.811
317.70	21.485
318.07	21.693
318.43	21.854
318.80	22.826
319.16	21.288
319.53	19.794
319.89	20.508
320.26	20.730
320.62	20.745
320.99	20.499
321.35	20.518
321.72	22.698
322.08	20.379
322.45	21.861
322.81	21.300
323.18	22.035
323.54	21.897
323.91	21.797
324.27	20.912
324.64	22.334
325.00	21.144
325.37	21.294
325.73	21.240
326.10	22.303
326.46	21.987
326.83	22.018
327.19	20.709
327.56	21.581
327.92	22.345
328.29	21.694
328.65	20.268
329.01	21.912
329.38	21.230
329.74	21.575
330.11	21.918
330.47	21.988
330.84	21.792
331.20	20.833
331.56	21.664
331.93	21.172
332.29	21.186
332.66	21.927
333.02	21.189
333.38	21.141
333.75	20.707
334.11	22.102
334.48	21.617
334.84	22.345
335.20	20.067
335.57	21.332
335.93	20.992
336.29	20.300
336.66	21.615
337.02	19.900
337.38	20.578
337.75	20.165
338.11	20.101
338.47	21.505
338.84	19.966
339.20	20.303
339.56	20.346
339.93	19.951
340.29	20.048
340.65	19.140
341.02	20.351
341.38	21.099
341.74	19.935
342.11	21.078
342.47	19.142
342.83	20.692
343.20	20.605
343.56	20.690
343.92	19.055
344.28	19.844
344.65	20.775
345.01	20.593
345.37	20.684
345.73	19.330
346.10	21.217
346.46	20.174
346.82	19.775
347.19	20.168
347.55	21.472
347.91	20.357
348.27	19.575
348.63	20.183
349.00	19.314
349.36	19.405
349.72	20.015
350.08	19.688
350.45	19.848
350.81	19.306
351.17	19.549
351.53	20.091
351.89	20.425
352.26	19.627
352.62	19.104
352.98	18.931
353.34	18.223
353.70	20.647
354.07	19.598
354.43	19.590
354.79	19.671
355.15	18.396
355.51	20.249
355.87	19.447
356.24	20.837
356.60	17.960
356.96	19.496
357.32	19.033
357.68	19.107
358.04	19.611
358.40	19.701
358.77	20.175
359.13	19.055
359.49	18.885
359.85	18.564
360.21	19.082
360.57	18.090
360.93	19.252
361.29	19.579
361.66	18.827
362.02	19.415
362.38	20.028
362.74	18.226
363.10	20.014
363.46	18.698
363.82	18.608
364.18	19.071
364.54	19.364
364.90	19.398
365.26	18.138
365.62	18.867
365.98	19.809
366.35	18.993
366.71	19.184
367.07	19.350
367.43	18.713
367.79	19.044
368.15	19.732
368.51	19.215
368.87	20.118
369.23	18.400
369.59	19.809
369.95	19.270
370.31	19.109
370.67	18.638
371.03	20.152
371.39	18.805
371.75	19.326
372.11	20.190
372.47	18.077
372.83	18.783
373.19	19.746
373.55	19.715
373.91	18.473
374.27	18.952
374.63	19.418
374.99	18.369
375.35	18.766
375.71	18.903
376.07	18.076
376.42	19.144
376.78	19.702
377.14	18.465
377.50	19.165
377.86	19.458
378.22	19.341
378.58	19.441
378.94	18.955
379.30	19.332
379.66	19.929
380.02	19.965
380.38	19.009
380.74	19.099
381.09	19.686
381.45	19.773
381.81	20.492
382.17	18.884
382.53	19.532
382.89	20.147
383.25	19.285
383.61	17.766
383.97	19.494
384.32	19.378
384.68	18.677
385.04	20.127
385.40	19.093
385.76	20.223
386.12	19.749
386.48	19.941
386.83	19.905
387.19	19.293
387.55	18.603
387.91	20.205
388.27	20.323
388.62	19.187
388.98	18.556
389.34	20.153
389.70	19.640
390.06	20.545
390.42	19.518
390.77	20.710
391.13	19.660
391.49	19.444
391.85	20.364
392.20	20.225
392.56	20.496
392.92	19.466
393.28	19.403
393.64	19.274
393.99	20.163
394.35	20.152
394.71	18.802
395.07	19.401
395.42	19.532
395.78	20.536
396.14	20.261
396.50	20.131
396.85	20.215
397.21	20.059
397.57	20.318
397.92	20.619
398.28	20.098
398.64	19.165
399.00	19.581
399.35	19.948
399.71	19.837
400.07	20.326
400.42	20.431
400.78	20.023
401.14	19.806
401.49	20.239
401.85	20.000
402.21	20.684
402.57	20.833
402.92	20.508
403.28	20.258
403.63	19.570
403.99	20.368
404.35	19.784
404.70	19.320
405.06	20.163
405.42	20.082
405.77	20.665
406.13	20.475
406.49	21.002
406.84	20.443
407.20	21.073
407.55	19.685
407.91	20.365
408.27	20.730
408.62	20.710
408.98	20.778
409.34	19.765
409.69	21.137
410.05	20.047
410.40	21.288
410.76	20.471
411.11	21.274
411.47	20.332
411.83	20.341
412.18	21.205
412.54	21.517
412.89	21.071
413.25	20.824
413.60	20.793
413.96	20.804
414.31	21.246
414.67	21.646
415.03	20.431
415.38	20.933
415.74	21.564
416.09	20.605
416.45	20.601
416.80	21.297
417.16	21.264
417.51	20.735
417.87	21.521
418.22	20.359
418.58	20.818
418.93	22.002
419.29	21.702
419.64	20.408
420.00	21.484
420.35	21.617
420.71	20.563
421.06	20.759
421.42	22.534
421.77	21.379
422.12	20.877
422.48	21.557
422.83	21.906
423.19	21.061
423.54	21.515
423.90	21.093
424.25	21.227
424.61	20.953
424.96	21.197
425.31	21.497
425.67	21.739
426.02	21.915
426.38	21.814
426.73	21.540
427.09	21.799
427.44	20.972
427.79	21.946
428.15	21.804
428.50	20.955
428.85	21.355
429.21	21.915
429.56	21.520
429.92	21.622
430.27	21.590
430.62	21.006
430.98	21.495
431.33	21.114
431.68	20.642
432.04	21.737
432.39	21.907
432.74	21.861
433.10	21.471
433.45	20.903
433.80	20.976
434.16	21.849
434.51	21.942
434.86	22.584
435.22	22.264
435.57	22.229
435.92	22.649
436.28	21.274
436.63	22.174
436.98	21.578
437.34	21.702
437.69	21.354
438.04	21.206
438.39	21.884
438.75	20.808
439.10	21.829
439.45	21.688
439.81	21.130
440.16	21.716
440.51	22.297
440.86	21.401
441.22	22.133
441.57	21.646
441.92	21.387
442.27	21.263
442.63	21.610
442.98	21.825
443.33	21.988
443.68	22.151
444.03	22.766
444.39	22.423
444.74	22.052
445.09	22.149
445.44	22.497
445.79	22.270
446.15	21.891
446.50	21.757
446.85	22.325
447.20	22.437
447.55	21.496
447.91	21.309
448.26	21.247
448.61	21.467
448.96	22.157
449.31	21.898
449.66	22.113
450.02	22.574
450.37	22.749
450.72	21.152
451.07	22.039
451.42	21.433
451.77	21.790
452.12	22.235
452.47	21.153
452.83	22.072
453.18	21.074
453.53	21.310
453.88	21.480
454.23	22.712
454.58	21.532
454.93	22.269
455.28	21.915
455.63	21.717
455.98	22.235
456.34	21.378
456.69	21.105
457.04	21.690
457.39	21.729
457.74	22.260
458.09	20.923
458.44	22.468
458.79	21.248
459.14	21.762
459.49	21.336
459.84	21.616
460.19	20.766
460.54	21.976
460.89	21.652
461.24	21.839
461.59	21.361
461.94	20.593
462.29	22.452
462.64	22.450
462.99	21.720
463.34	22.518
463.69	21.747
464.04	22.068
464.39	22.029
464.74	21.437
465.09	20.819
465.44	21.513
465.79	21.735
466.14	21.678
466.49	21.316
466.84	21.928
467.19	22.023
467.54	20.858
467.89	21.379
468.24	21.717
468.59	20.556
468.94	20.862
469.29	20.636
469.64	20.915
469.99	21.479
470.34	22.092
470.68	21.668
471.03	20.956
471.38	21.714
471.73	21.001
472.08	20.749
472.43	21.252
472.78	21.725
473.13	21.745
473.48	20.967
473.83	22.287
474.17	21.571
474.52	20.926
474.87	21.207
475.22	21.915
475.57	21.028
475.92	20.707
476.27	21.140
476.61	21.236
476.96	21.272
477.31	21.040
477.66	21.931
478.01	21.301
478.36	21.236
478.70	20.887
479.05	21.575
479.40	22.063
479.75	23.007
480.10	20.701
480.45	21.559
480.79	21.995
481.14	21.921
481.49	21.717
481.84	22.019
482.19	21.548
482.53	21.557
482.88	22.242
483.23	21.787
483.58	21.441
483.92	21.853
484.27	21.507
484.62	20.710
484.97	21.851
485.31	21.542
485.66	20.875
486.01	20.018
486.36	21.016
486.70	22.030
487.05	22.662
487.40	23.241
487.75	23.384
488.09	23.331
488.44	22.935
488.79	23.373
489.13	22.665
489.48	21.282
489.83	21.167
490.17	20.737
490.52	21.305
490.87	21.658
491.22	20.624
491.56	21.544
491.91	21.064
492.26	22.155
492.60	21.469
492.95	21.369
493.30	21.560
493.64	20.894
493.99	21.053
494.34	21.037
494.68	20.557
495.03	21.806
495.37	21.793
495.72	21.088
496.07	22.305
496.41	21.707
496.76	21.059
497.11	21.401
497.45	21.666
497.80	21.279
498.14	21.406
498.49	20.956
498.84	21.161
499.18	21.772
499.53	22.063
499.87	22.022
500.22	20.659
500.56	21.008
500.91	21.785
501.26	21.409
501.60	21.034
501.95	21.754
502.29	21.150
502.64	21.557
502.98	21.225
503.33	20.994
503.67	21.326
504.02	21.191
504.36	21.761
504.71	21.681
505.06	21.328
505.40	21.664
505.75	21.721
506.09	21.455
506.44	21.170
506.78	21.927
507.13	21.761
507.47	21.459
507.82	22.206
508.16	21.128
508.51	21.331
508.85	21.918
509.19	21.459
509.54	22.286
509.88	21.758
510.23	21.904
510.57	22.040
510.92	21.529
511.26	21.212
511.61	20.666
511.95	21.425
512.30	21.713
512.64	21.289
512.98	21.311
513.33	22.379
513.67	21.367
514.02	22.177
514.36	21.995
514.70	22.135
515.05	22.054
515.39	22.257
515.74	22.057
516.08	21.500
516.42	22.240
516.77	22.450
517.11	21.196
517.46	21.315
517.80	22.341
518.14	22.089
518.49	22.343
518.83	21.501
519.17	21.540
519.52	21.593
519.86	21.753
520.20	22.045
520.55	22.180
520.89	21.734
521.23	21.776
521.58	22.147
521.92	21.643
522.26	21.077
522.61	22.222
522.95	22.088
523.29	21.782
523.64	21.861
523.98	22.305
524.32	23.037
524.66	22.254
525.01	23.046
525.35	21.999
525.69	21.984
526.04	22.044
526.38	22.184
526.72	22.030
527.06	22.698
527.41	22.974
527.75	22.803
528.09	23.081
528.43	22.262
528.78	22.254
529.12	21.674
529.46	22.597
529.80	22.311
530.15	22.667
530.49	22.539
530.83	22.373
531.17	22.700
531.51	23.586
531.86	23.197
532.20	22.317
532.54	22.262
532.88	22.788
533.22	22.687
533.57	22.274
533.91	22.671
534.25	22.272
534.59	22.529
534.93	21.732
535.27	22.479
535.62	22.968
535.96	23.417
536.30	22.620
536.64	23.483
536.98	22.509
537.32	22.593
537.66	23.643
538.01	22.115
538.35	21.437
538.69	22.596
539.03	23.728
539.37	23.027
539.71	22.342
540.05	22.182
540.39	21.516
540.73	22.890
541.07	23.666
541.42	21.677
541.76	22.657
542.10	22.437
542.44	22.533
542.78	22.445
543.12	22.169
543.46	22.466
543.80	21.403
544.14	22.501
544.48	23.109
544.82	22.202
545.16	22.600
545.50	22.469
545.84	23.209
546.18	23.580
546.52	22.293
546.86	22.704
547.20	21.565
547.54	21.973
547.88	22.664
548.22	21.988
548.56	21.592
548.90	22.149
549.24	23.283
549.58	22.397
549.92	22.130
550.26	23.107
550.60	22.399
550.94	22.445
551.28	22.970
551.62	21.968
551.96	22.460
552.30	23.008
552.64	22.340
552.98	21.959
553.32	22.379
553.66	21.736
554.00	22.573
554.34	21.236
554.68	21.821
555.02	21.748
555.36	21.959
555.69	21.525
556.03	21.564
556.37	22.716
556.71	22.321
557.05	21.853
557.39	21.433
557.73	21.598
558.07	21.854
558.41	22.392
558.75	21.636
559.08	22.060
559.42	21.262
559.76	22.456
560.10	22.036
560.44	21.966
560.78	22.188
561.12	22.229
561.45	22.689
561.79	21.917
562.13	22.859
562.47	21.393
562.81	21.456
563.15	22.285
563.48	22.250
563.82	21.342
564.16	21.018
564.50	22.288
564.84	20.472
565.17	21.353
565.51	21.461
565.85	22.506
566.19	21.832
566.52	22.762
566.86	21.449
567.20	20.663
567.54	22.146
567.88	22.579
568.21	22.381
568.55	22.062
568.89	23.105
569.23	21.969
569.56	22.431
569.90	22.131
570.24	22.159
570.57	22.386
570.91	22.015
571.25	21.608
571.59	22.516
571.92	22.148
572.26	22.234
572.60	22.331
572.93	22.182
573.27	22.282
573.61	22.287
573.95	22.190
574.28	22.822
574.62	22.033
574.96	21.769
575.29	21.987
575.63	22.315
575.97	22.132
576.30	22.206
576.64	21.952
576.98	22.164
577.31	21.835
577.65	22.059
577.98	22.327
578.32	21.732
578.66	22.032
578.99	22.302
579.33	22.521
579.67	22.756
580.00	22.522
580.34	22.404
580.67	22.573
581.01	22.090
581.35	21.742
581.68	21.721
582.02	21.612
582.35	21.983
582.69	22.785
583.02	22.538
583.36	22.571
583.70	22.881
584.03	23.398
584.37	23.328
584.70	22.323
585.04	22.134
585.37	21.675
585.71	21.726
586.04	21.576
586.38	22.168
586.72	21.860
587.05	21.463
587.39	22.039
587.72	21.866
588.06	22.074
588.39	22.131
588.73	21.614
589.06	22.884
589.40	22.219
589.73	22.172
590.07	22.679
590.40	22.143
590.73	21.916
591.07	21.407
591.40	21.540
591.74	20.787
592.07	22.290
592.41	21.215
592.74	20.909
593.08	21.561
593.41	21.231
593.75	21.264
594.08	21.660
594.41	21.923
594.75	21.089
595.08	21.097
595.42	21.429
595.75	21.440
596.09	21.654
596.42	21.354
596.75	22.115
597.09	21.899
597.42	21.176
597.75	21.521
598.09	21.706
598.42	21.632
598.76	20.634
599.09	20.719
599.42	19.846
599.76	20.634
600.09	20.354
600.42	21.088
600.76	20.839
601.09	20.544
601.42	20.872
601.76	21.034
602.09	21.194
602.42	20.792
602.76	20.996
603.09	21.402
603.42	21.207
603.76	20.684
604.09	20.937
604.42	20.881
604.76	20.510
605.09	20.622
605.42	21.372
605.75	21.000
606.09	21.090
606.42	20.722
606.75	20.127
607.09	20.853
607.42	20.270
607.75	20.399
608.08	20.481
608.42	20.073
608.75	20.688
609.08	21.010
609.41	20.600
609.75	20.402
610.08	20.580
610.41	20.518
610.74	20.630
611.07	21.181
611.41	21.031
611.74	20.831
612.07	20.290
612.40	20.390
612.73	20.489
613.07	21.320
613.40	21.078
613.73	20.270
614.06	20.216
614.39	19.339
614.72	19.796
615.06	20.452
615.39	19.188
615.72	20.332
616.05	20.447
616.38	20.686
616.71	19.697
617.05	19.968
617.38	20.439
617.71	20.842
618.04	19.914
618.37	20.874
618.70	20.023
619.03	19.176
619.36	20.530
619.69	19.603
620.03	19.209
620.36	19.939
620.69	19.926
621.02	19.423
621.35	20.610
621.68	20.390
622.01	20.142
622.34	18.619
622.67	19.863
623.00	18.489
623.33	19.244
623.66	19.390
623.99	19.421
624.32	19.688
624.65	18.211
624.99	19.441
625.32	20.444
625.65	19.150
625.98	18.915
626.31	19.064
626.64	19.634
626.97	19.430
627.30	18.755
627.63	18.530
627.96	20.646
628.29	19.922
628.62	18.052
628.95	18.405
629.28	17.842
629.61	18.771
629.94	18.577
630.26	18.305
630.59	18.566
630.92	18.355
631.25	20.036
