SpectraSuite Data File
++++++++++++++++++++++++++++++++++++
Date: Thu May 14 16:00:46 PDT 2015
User: schluterlab
Dark Spectrum Present: Yes
Reference Spectrum Present: Yes
Number of Sampled Component Spectra: 1
Spectrometers: USB2E3373
Integration Time (usec): 3000 (USB2E3373)
Spectra Averaged: 3 (USB2E3373)
Boxcar Smoothing: 0 (USB2E3373)
Correct for Electrical Dark: No (USB2E3373)
Strobe/Lamp Enabled: No (USB2E3373)
Correct for Detector Non-linearity: No (USB2E3373)
Correct for Stray Light: No (USB2E3373)
Number of Pixels in Processed Spectrum: 2048
>>>>>Begin Processed Spectral Data<<<<<
178.53	0.000
178.91	214.286
179.29	-2000.000
179.67	-2100.000
180.04	178.571
180.42	130.000
180.80	460.000
181.18	-2600.000
181.56	-500.000
181.94	450.000
182.31	-350.000
182.69	400.000
183.07	-1100.000
183.45	725.000
183.83	-266.667
184.20	-633.333
184.58	1600.000
184.96	-350.000
185.34	-155.556
185.72	-160.000
186.09	144.444
186.47	1350.000
186.85	320.000
187.23	-166.667
187.61	-2000.000
187.98	420.000
188.36	500.000
188.74	-450.000
189.12	-266.667
189.49	-56.250
189.87	-325.000
190.25	-177.778
190.63	-340.000
191.00	-222.222
191.38	0.000
191.76	-375.000
192.14	-316.667
192.51	1000.000
192.89	-216.667
193.27	0.000
193.65	-285.714
194.02	-2500.000
194.40	-271.429
194.78	285.714
195.15	0.000
195.53	-100.000
195.91	0.000
196.29	-400.000
196.66	-123.077
197.04	-2100.000
197.42	-342.857
197.79	-1150.000
198.17	-262.500
198.55	-400.000
198.92	-200.000
199.30	-237.500
199.68	-81.818
200.05	-92.857
200.43	-1050.000
200.81	414.286
201.18	0.000
201.56	233.333
201.94	0.000
202.31	700.000
202.69	-222.222
203.07	1000.000
203.44	-177.778
203.82	-250.000
204.19	-100.000
204.57	-283.333
204.95	-237.500
205.32	-2400.000
205.70	525.000
206.08	-350.000
206.45	-216.667
206.83	580.000
207.20	-333.333
207.58	-480.000
207.96	-416.667
208.33	-233.333
208.71	116.667
209.08	-100.000
209.46	0.000
209.84	283.333
210.21	1050.000
210.59	900.000
210.96	733.333
211.34	-550.000
211.71	-225.000
212.09	-1900.000
212.46	0.000
212.84	1300.000
213.22	-420.000
213.59	-525.000
213.97	-180.000
214.34	-733.333
214.72	400.000
215.09	-500.000
215.47	0.000
215.84	300.000
216.22	950.000
216.59	-220.000
216.97	-400.000
217.34	-325.000
217.72	-100.000
218.09	-475.000
218.47	-500.000
218.84	0.000
219.22	380.000
219.59	-64.706
219.97	-105.000
220.34	1300.000
220.72	-122.222
221.09	-69.231
221.47	-300.000
221.84	-220.000
222.22	-271.429
222.59	0.000
222.97	-175.000
223.34	-520.000
223.72	-1600.000
224.09	-400.000
224.46	-525.000
224.84	-300.000
225.21	-200.000
225.59	-325.000
225.96	-475.000
226.34	-46.154
226.71	383.333
227.08	-1000.000
227.46	-73.333
227.83	-600.000
228.21	-63.158
228.58	175.000
228.95	1250.000
229.33	-116.667
229.70	-130.000
230.08	15.789
230.45	200.000
230.82	-600.000
231.20	-121.429
231.57	-183.333
231.95	-227.273
232.32	-45.455
232.69	-75.000
233.07	-300.000
233.44	-123.529
233.81	-180.000
234.19	-72.222
234.56	-68.182
234.93	-41.379
235.31	-110.526
235.68	-88.889
236.05	-115.000
236.43	-3.846
236.80	-8.000
237.17	-37.037
237.55	-21.212
237.92	-280.000
238.29	-35.484
238.67	-25.000
239.04	-36.111
239.41	-45.238
239.79	-39.130
240.16	-27.778
240.53	-39.130
240.91	-33.333
241.28	-18.033
241.65	1.493
242.02	-13.514
242.40	-20.000
242.77	-12.000
243.14	-19.512
243.51	-23.684
243.89	-21.795
244.26	-2.970
244.63	-12.745
245.00	-14.019
245.38	-1.754
245.75	-15.929
246.12	-3.968
246.49	-12.403
246.87	-5.000
247.24	-3.974
247.61	-5.263
247.98	-0.671
248.36	-3.086
248.73	-4.294
249.10	-4.372
249.47	4.478
249.84	5.236
250.22	-2.073
250.59	-3.889
250.96	1.818
251.33	-4.592
251.70	7.265
252.08	-1.250
252.45	-0.410
252.82	-1.653
253.19	2.734
253.56	1.901
253.94	-3.077
254.31	2.652
254.68	5.594
255.05	6.840
255.42	2.041
255.79	0.647
256.16	3.311
256.54	-1.987
256.91	1.311
257.28	0.656
257.65	0.637
258.02	1.770
258.39	2.564
258.76	4.587
259.14	3.448
259.51	3.458
259.88	-0.283
260.25	1.667
260.62	6.575
260.99	5.191
261.36	5.094
261.73	1.061
262.10	-0.549
262.47	3.217
262.85	6.818
263.22	1.299
263.59	0.263
263.96	5.115
264.33	1.023
264.70	4.198
265.07	6.205
265.44	5.669
265.81	1.620
266.18	4.308
266.55	2.455
266.92	1.595
267.29	4.158
267.66	4.213
268.03	3.057
268.40	3.549
268.77	0.683
269.14	1.322
269.51	3.070
269.88	5.943
270.25	6.237
270.62	3.376
270.99	6.869
271.36	5.149
271.73	4.126
272.10	5.411
272.47	2.405
272.84	4.418
273.21	4.609
273.58	3.024
273.95	3.654
274.32	3.422
274.69	1.741
275.06	5.311
275.43	1.479
275.80	4.586
276.17	3.519
276.54	2.612
276.91	2.147
277.28	4.340
277.65	5.386
278.02	4.412
278.39	3.261
278.76	3.691
279.13	2.660
279.50	5.842
279.87	5.367
280.23	2.465
280.60	4.576
280.97	4.770
281.34	3.735
281.71	6.261
282.08	3.987
282.45	3.273
282.82	3.140
283.19	2.908
283.56	2.459
283.92	5.556
284.29	5.845
284.66	4.105
285.03	2.083
285.40	4.019
285.77	3.560
286.14	4.580
286.51	4.110
286.87	4.739
287.24	3.614
287.61	2.392
287.98	4.683
288.35	3.994
288.72	3.846
289.08	5.417
289.45	3.698
289.82	3.313
290.19	4.310
290.56	3.944
290.93	3.424
291.29	3.030
291.66	4.408
292.03	2.849
292.40	5.850
292.77	2.830
293.13	5.007
293.50	3.811
293.87	3.356
294.24	4.000
294.60	3.540
294.97	2.953
295.34	3.201
295.71	2.270
296.08	4.134
296.44	3.799
296.81	3.654
297.18	4.110
297.55	3.302
297.91	3.677
298.28	2.370
298.65	4.281
299.02	2.479
299.38	3.661
299.75	3.271
300.12	3.125
300.48	4.147
300.85	4.387
301.22	2.908
301.59	3.881
301.95	4.068
302.32	6.111
302.69	3.943
303.05	5.441
303.42	3.659
303.79	4.167
304.15	4.311
304.52	3.066
304.89	3.351
305.25	4.141
305.62	3.448
305.99	3.608
306.35	3.327
306.72	2.792
307.09	2.843
307.45	4.658
307.82	4.642
308.19	4.339
308.55	4.339
308.92	4.382
309.29	4.885
309.65	3.899
310.02	4.257
310.38	3.740
310.75	4.078
311.12	5.657
311.48	3.812
311.85	4.653
312.22	4.649
312.58	4.225
312.95	4.302
313.31	4.968
313.68	5.678
314.05	6.233
314.41	6.193
314.78	5.813
315.14	5.445
315.51	6.094
315.87	6.121
316.24	7.032
316.61	8.526
316.97	6.516
317.34	7.496
317.70	7.686
318.07	7.672
318.43	7.653
318.80	9.950
319.16	8.841
319.53	7.369
319.89	8.501
320.26	10.409
320.62	9.131
320.99	10.342
321.35	10.813
321.72	10.977
322.08	11.001
322.45	11.201
322.81	11.282
323.18	12.035
323.54	12.328
323.91	12.989
324.27	12.565
324.64	12.930
325.00	13.267
325.37	14.251
325.73	14.463
326.10	14.031
326.46	14.821
326.83	15.853
327.19	14.488
327.56	14.308
327.92	14.241
328.29	14.435
328.65	14.154
329.01	15.567
329.38	15.754
329.74	16.610
330.11	15.411
330.47	15.922
330.84	15.504
331.20	15.833
331.56	15.945
331.93	15.481
332.29	16.441
332.66	15.532
333.02	15.578
333.38	15.772
333.75	16.162
334.11	16.430
334.48	15.264
334.84	17.077
335.20	14.610
335.57	17.201
335.93	16.612
336.29	16.473
336.66	16.653
337.02	15.385
337.38	15.816
337.75	16.446
338.11	16.400
338.47	16.625
338.84	15.821
339.20	16.175
339.56	16.392
339.93	16.502
340.29	15.942
340.65	16.139
341.02	16.201
341.38	17.704
341.74	16.384
342.11	16.331
342.47	15.965
342.83	15.700
343.20	17.089
343.56	15.317
343.92	15.132
344.28	16.875
344.65	17.597
345.01	16.615
345.37	17.418
345.73	15.511
346.10	17.161
346.46	15.823
346.82	16.180
347.19	16.272
347.55	17.451
347.91	15.602
348.27	16.388
348.63	16.375
349.00	16.480
349.36	16.431
349.72	16.071
350.08	16.048
350.45	16.198
350.81	16.667
351.17	15.940
351.53	16.073
351.89	16.553
352.26	16.045
352.62	15.896
352.98	16.107
353.34	14.862
353.70	17.257
354.07	15.276
354.43	16.097
354.79	15.034
355.15	15.305
355.51	17.251
355.87	16.230
356.24	16.730
356.60	16.038
356.96	16.086
357.32	15.316
357.68	16.179
358.04	15.644
358.40	16.119
358.77	16.520
359.13	14.623
359.49	15.836
359.85	15.809
360.21	17.073
360.57	16.152
360.93	15.867
361.29	16.351
361.66	16.148
362.02	16.562
362.38	15.460
362.74	17.039
363.10	16.437
363.46	16.343
363.82	16.903
364.18	15.904
364.54	17.635
364.90	16.789
365.26	16.552
365.62	17.400
365.98	17.427
366.35	16.242
366.71	17.687
367.07	16.509
367.43	16.875
367.79	17.054
368.15	17.124
368.51	17.659
368.87	17.505
369.23	17.000
369.59	17.213
369.95	18.053
370.31	18.231
370.67	17.194
371.03	16.967
371.39	16.655
371.75	17.607
372.11	17.344
372.47	18.483
372.83	17.474
373.19	17.545
373.55	17.141
373.91	17.791
374.27	18.241
374.63	17.591
374.99	17.772
375.35	19.156
375.71	17.290
376.07	18.786
376.42	18.199
376.78	18.521
377.14	18.278
377.50	17.963
377.86	19.150
378.22	19.102
378.58	19.144
378.94	19.249
379.30	18.805
379.66	18.519
380.02	18.638
380.38	19.297
380.74	19.155
381.09	18.990
381.45	18.807
381.81	20.316
382.17	18.824
382.53	18.713
382.89	19.582
383.25	19.519
383.61	19.097
383.97	18.728
384.32	20.574
384.68	19.432
385.04	19.375
385.40	20.625
385.76	20.164
386.12	19.868
386.48	19.647
386.83	19.666
387.19	19.988
387.55	19.131
387.91	19.749
388.27	20.150
388.62	19.702
388.98	19.910
389.34	20.507
389.70	20.279
390.06	19.538
390.42	20.723
390.77	20.951
391.13	20.599
391.49	20.713
391.85	20.182
392.20	20.937
392.56	20.496
392.92	21.047
393.28	21.835
393.64	20.559
393.99	20.337
394.35	22.371
394.71	21.078
395.07	20.000
395.42	20.902
395.78	21.572
396.14	21.212
396.50	20.665
396.85	21.586
397.21	20.296
397.57	21.143
397.92	21.993
398.28	19.989
398.64	21.224
399.00	20.314
399.35	20.785
399.71	21.793
400.07	20.943
400.42	21.537
400.78	21.817
401.14	21.343
401.49	22.115
401.85	21.919
402.21	22.480
402.57	22.653
402.92	21.395
403.28	20.960
403.63	22.136
403.99	21.200
404.35	20.864
404.70	21.246
405.06	22.065
405.42	22.541
405.77	21.592
406.13	22.420
406.49	21.734
406.84	21.994
407.20	22.135
407.55	21.744
407.91	22.502
408.27	21.790
408.62	21.699
408.98	21.997
409.34	21.349
409.69	22.930
410.05	22.919
410.40	21.868
410.76	21.481
411.11	23.203
411.47	23.096
411.83	21.752
412.18	22.651
412.54	22.407
412.89	21.304
413.25	22.573
413.60	22.343
413.96	22.902
414.31	22.493
414.67	22.063
415.03	21.723
415.38	22.131
415.74	22.480
416.09	22.270
416.45	21.603
416.80	21.603
417.16	23.052
417.51	22.914
417.87	21.582
418.22	22.874
418.58	23.048
418.93	23.458
419.29	23.428
419.64	22.929
420.00	22.967
420.35	22.515
420.71	22.631
421.06	22.714
421.42	23.509
421.77	22.348
422.12	23.414
422.48	22.837
422.83	23.713
423.19	23.342
423.54	23.451
423.90	22.419
424.25	23.733
424.61	23.134
424.96	23.778
425.31	23.726
425.67	23.081
426.02	22.745
426.38	23.249
426.73	23.158
427.09	24.510
427.44	22.556
427.79	23.549
428.15	23.573
428.50	22.640
428.85	22.618
429.21	24.681
429.56	23.643
429.92	23.636
430.27	23.566
430.62	24.621
430.98	23.709
431.33	23.900
431.68	23.755
432.04	24.175
432.39	24.210
432.74	24.201
433.10	23.743
433.45	23.523
433.80	23.552
434.16	24.329
434.51	23.844
434.86	24.321
435.22	24.336
435.57	25.000
435.92	23.873
436.28	24.573
436.63	24.194
436.98	23.242
437.34	24.577
437.69	24.601
438.04	23.533
438.39	24.182
438.75	24.018
439.10	24.419
439.45	24.595
439.81	24.859
440.16	23.807
440.51	24.749
440.86	24.569
441.22	24.544
441.57	25.105
441.92	24.248
442.27	25.152
442.63	24.839
442.98	24.973
443.33	24.145
443.68	25.867
444.03	25.024
444.39	25.289
444.74	25.013
445.09	24.531
445.44	25.606
445.79	24.473
446.15	25.797
446.50	24.961
446.85	25.097
447.20	25.338
447.55	25.418
447.91	24.712
448.26	25.264
448.61	24.920
448.96	25.751
449.31	24.708
449.66	24.564
450.02	24.473
450.37	25.306
450.72	24.812
451.07	25.456
451.42	25.361
451.77	24.625
452.12	25.056
452.47	25.490
452.83	25.169
453.18	24.927
453.53	24.239
453.88	24.517
454.23	25.311
454.58	24.724
454.93	24.150
455.28	25.166
455.63	25.071
455.98	26.369
456.34	24.087
456.69	25.279
457.04	24.764
457.39	25.222
457.74	25.168
458.09	24.053
458.44	24.946
458.79	24.703
459.14	24.908
459.49	25.184
459.84	25.498
460.19	24.375
460.54	24.418
460.89	24.722
461.24	24.540
461.59	24.018
461.94	23.845
462.29	25.140
462.64	25.347
462.99	24.482
463.34	25.827
463.69	24.091
464.04	24.680
464.39	24.103
464.74	24.344
465.09	24.337
465.44	24.893
465.79	24.432
466.14	24.336
466.49	24.579
466.84	24.959
467.19	24.798
467.54	23.678
467.89	23.448
468.24	25.208
468.59	24.551
468.94	23.019
469.29	23.875
469.64	23.331
469.99	24.283
470.34	24.010
470.68	24.880
471.03	25.278
471.38	23.806
471.73	23.667
472.08	24.365
472.43	24.624
472.78	25.189
473.13	23.515
473.48	24.169
473.83	24.956
474.17	24.033
474.52	24.534
474.87	24.308
475.22	24.394
475.57	23.676
475.92	23.992
476.27	23.642
476.61	23.884
476.96	24.296
477.31	24.059
477.66	24.659
478.01	23.284
478.36	24.177
478.70	23.892
479.05	23.824
479.40	23.396
479.75	23.823
480.10	23.496
480.45	23.701
480.79	24.444
481.14	23.529
481.49	23.489
481.84	23.803
482.19	23.312
482.53	24.311
482.88	23.350
483.23	24.366
483.58	23.013
483.92	23.050
484.27	23.624
484.62	23.185
484.97	23.484
485.31	23.196
485.66	22.954
486.01	22.456
486.36	23.542
486.70	24.294
487.05	24.426
487.40	23.752
487.75	23.435
488.09	23.302
488.44	22.842
488.79	22.833
489.13	23.027
489.48	22.252
489.83	22.254
490.17	22.560
490.52	22.496
490.87	23.223
491.22	23.094
491.56	23.805
491.91	23.332
492.26	23.150
492.60	23.612
492.95	23.212
493.30	22.949
493.64	22.821
493.99	22.456
494.34	22.605
494.68	22.355
495.03	22.907
495.37	21.971
495.72	22.902
496.07	22.787
496.41	22.136
496.76	21.893
497.11	22.590
497.45	22.313
497.80	22.568
498.14	22.313
498.49	22.289
498.84	22.258
499.18	22.267
499.53	21.973
499.87	21.714
500.22	21.995
500.56	22.042
500.91	21.785
501.26	23.045
501.60	21.741
501.95	22.188
502.29	22.159
502.64	22.256
502.98	21.915
503.33	21.901
503.67	21.369
504.02	21.147
504.36	22.118
504.71	21.543
505.06	21.919
505.40	21.618
505.75	21.995
506.09	22.422
506.44	22.145
506.78	21.881
507.13	21.531
507.47	22.075
507.82	21.828
508.16	21.845
508.51	20.347
508.85	22.154
509.19	21.222
509.54	21.998
509.88	20.981
510.23	21.418
510.57	21.991
510.92	21.287
511.26	21.116
511.61	20.039
511.95	21.181
512.30	21.172
512.64	20.540
512.98	21.061
513.33	21.623
513.67	21.418
514.02	21.410
514.36	21.074
514.70	21.198
515.05	22.054
515.39	21.837
515.74	22.534
516.08	20.127
516.42	21.821
516.77	21.083
517.11	20.371
517.46	21.739
517.80	22.074
518.14	21.763
518.49	21.529
518.83	20.383
519.17	20.840
519.52	21.384
519.86	20.591
520.20	20.873
520.55	21.194
520.89	21.002
521.23	20.547
521.58	21.977
521.92	19.830
522.26	19.588
522.61	21.470
522.95	21.799
523.29	20.805
523.64	20.684
523.98	21.563
524.32	20.917
524.66	21.172
525.01	20.838
525.35	21.022
525.69	19.954
526.04	19.690
526.38	20.977
526.72	20.646
527.06	20.762
527.41	20.233
527.75	20.784
528.09	21.192
528.43	19.953
528.78	20.751
529.12	20.585
529.46	20.742
529.80	19.966
530.15	20.638
530.49	19.039
530.83	20.720
531.17	20.131
531.51	21.360
531.86	19.832
532.20	20.671
532.54	19.509
532.88	20.545
533.22	19.800
533.57	20.138
533.91	20.595
534.25	20.181
534.59	20.057
534.93	20.091
535.27	19.718
535.62	20.352
535.96	20.105
536.30	18.860
536.64	21.441
536.98	20.172
537.32	18.951
537.66	20.150
538.01	19.879
538.35	19.671
538.69	19.411
539.03	20.294
539.37	19.376
539.71	19.760
540.05	19.724
540.39	18.765
540.73	19.733
541.07	19.007
541.42	19.256
541.76	18.802
542.10	19.662
542.44	18.819
542.78	18.796
543.12	19.428
543.46	18.498
543.80	17.506
544.14	19.330
544.48	18.913
544.82	19.150
545.16	19.261
545.50	18.035
545.84	17.453
546.18	19.198
546.52	18.981
546.86	18.302
547.20	19.020
547.54	18.165
547.88	17.963
548.22	18.012
548.56	18.256
548.90	18.269
549.24	18.906
549.58	18.738
549.92	18.304
550.26	18.447
550.60	18.443
550.94	19.146
551.28	17.756
551.62	18.868
551.96	17.994
552.30	18.611
552.64	17.797
552.98	18.341
553.32	18.264
553.66	17.814
554.00	18.285
554.34	17.696
554.68	18.205
555.02	17.740
555.36	18.146
555.69	16.079
556.03	17.465
556.37	17.459
556.71	17.692
557.05	17.636
557.39	17.518
557.73	18.032
558.07	17.550
558.41	18.804
558.75	16.971
559.08	17.328
559.42	17.353
559.76	17.775
560.10	18.084
560.44	18.074
560.78	18.438
561.12	17.611
561.45	17.275
561.79	17.521
562.13	17.622
562.47	16.400
562.81	16.835
563.15	17.614
563.48	16.843
563.82	17.412
564.16	16.778
564.50	16.925
564.84	17.404
565.17	16.588
565.51	16.053
565.85	16.983
566.19	16.878
566.52	17.145
566.86	16.638
567.20	15.552
567.54	16.038
567.88	17.227
568.21	16.453
568.55	16.595
568.89	16.069
569.23	17.068
569.56	16.960
569.90	16.857
570.24	16.863
570.57	16.260
570.91	16.626
571.25	16.430
571.59	16.532
571.92	16.365
572.26	16.120
572.60	16.244
572.93	16.337
573.27	16.044
573.61	16.596
573.95	16.048
574.28	15.978
574.62	16.235
574.96	15.770
575.29	15.730
575.63	16.055
575.97	15.569
576.30	15.889
576.64	15.867
576.98	15.786
577.31	15.769
577.65	16.240
577.98	15.644
578.32	15.426
578.66	15.812
578.99	15.605
579.33	15.740
579.67	14.937
580.00	15.509
580.34	15.598
580.67	15.556
581.01	15.448
581.35	15.878
581.68	15.759
582.02	15.603
582.35	15.932
582.69	16.114
583.02	15.324
583.36	15.671
583.70	15.724
584.03	14.759
584.37	15.552
584.70	15.208
585.04	15.066
585.37	15.068
585.71	15.426
586.04	15.324
586.38	15.390
586.72	14.991
587.05	15.247
587.39	15.258
587.72	15.694
588.06	15.788
588.39	15.634
588.73	15.026
589.06	15.124
589.40	15.120
589.73	15.392
590.07	15.385
590.40	15.619
590.73	14.740
591.07	15.227
591.40	14.969
591.74	14.547
592.07	14.901
592.41	15.103
592.74	14.945
593.08	15.605
593.41	15.369
593.75	15.201
594.08	14.602
594.41	14.808
594.75	15.311
595.08	15.007
595.42	15.130
595.75	14.627
596.09	15.351
596.42	14.833
596.75	15.091
597.09	14.545
597.42	14.700
597.75	14.308
598.09	14.762
598.42	14.717
598.76	14.253
599.09	14.204
599.42	14.113
599.76	14.394
600.09	14.515
600.42	14.448
600.76	14.267
601.09	14.371
601.42	14.246
601.76	14.655
602.09	14.260
602.42	14.177
602.76	14.207
603.09	14.060
603.42	13.909
603.76	13.883
604.09	14.798
604.42	14.018
604.76	14.384
605.09	14.280
605.42	13.716
605.75	13.846
606.09	13.550
606.42	13.827
606.75	13.568
607.09	13.786
607.42	14.027
607.75	14.224
608.08	13.575
608.42	13.422
608.75	13.806
609.08	13.752
609.41	13.498
609.75	13.750
610.08	14.028
610.41	13.551
610.74	13.739
611.07	13.854
611.41	14.081
611.74	13.580
612.07	13.558
612.40	13.593
612.73	13.790
613.07	13.154
613.40	14.581
613.73	13.866
614.06	13.641
614.39	13.654
614.72	12.858
615.06	13.811
615.39	13.098
615.72	13.791
616.05	13.210
616.38	13.471
616.71	13.114
617.05	12.460
617.38	13.376
617.71	13.283
618.04	13.869
618.37	14.044
618.70	13.292
619.03	12.366
619.36	12.947
619.69	12.940
620.03	13.120
620.36	12.699
620.69	12.338
621.02	14.304
621.35	13.716
621.68	13.811
622.01	13.238
622.34	12.901
622.67	13.402
623.00	12.416
623.33	12.608
623.66	12.776
623.99	12.113
624.32	12.930
624.65	12.934
624.99	13.199
625.32	13.912
625.65	13.014
625.98	13.085
626.31	13.466
626.64	13.114
626.97	12.603
627.30	11.693
627.63	12.303
627.96	12.462
628.29	13.074
628.62	11.503
628.95	12.270
629.28	13.424
629.61	13.131
629.94	12.469
630.26	12.119
630.59	12.608
630.92	11.515
631.25	13.059
631.58	13.653
631.91	12.371
632.24	12.008
632.57	11.860
632.90	11.133
633.23	12.041
633.56	11.837
633.89	11.983
634.22	12.890
634.55	12.944
634.88	10.281
