SpectraSuite Data File
++++++++++++++++++++++++++++++++++++
Date: Thu May 14 16:00:12 PDT 2015
User: schluterlab
Dark Spectrum Present: Yes
Reference Spectrum Present: Yes
Number of Sampled Component Spectra: 1
Spectrometers: USB2E3373
Integration Time (usec): 3000 (USB2E3373)
Spectra Averaged: 3 (USB2E3373)
Boxcar Smoothing: 0 (USB2E3373)
Correct for Electrical Dark: No (USB2E3373)
Strobe/Lamp Enabled: No (USB2E3373)
Correct for Detector Non-linearity: No (USB2E3373)
Correct for Stray Light: No (USB2E3373)
Number of Pixels in Processed Spectrum: 2048
>>>>>Begin Processed Spectral Data<<<<<
178.53	0.000
178.91	285.714
179.29	-2000.000
179.67	-2000.000
180.04	228.571
180.42	200.000
180.80	300.000
181.18	-800.000
181.56	-200.000
181.94	350.000
182.31	-450.000
182.69	533.333
183.07	-800.000
183.45	550.000
183.83	-200.000
184.20	-233.333
184.58	1100.000
184.96	-575.000
185.34	-133.333
185.72	-200.000
186.09	244.444
186.47	1250.000
186.85	400.000
187.23	-211.111
187.61	-2700.000
187.98	400.000
188.36	575.000
188.74	-175.000
189.12	-600.000
189.49	-112.500
189.87	-212.500
190.25	-188.889
190.63	-200.000
191.00	-255.556
191.38	0.000
191.76	-550.000
192.14	-200.000
192.51	1100.000
192.89	-316.667
193.27	0.000
193.65	-185.714
194.02	-3100.000
194.40	-242.857
194.78	185.714
195.15	0.000
195.53	-145.455
195.91	0.000
196.29	-275.000
196.66	-100.000
197.04	-3000.000
197.42	-242.857
197.79	-1100.000
198.17	-200.000
198.55	-300.000
198.92	-144.444
199.30	-337.500
199.68	-200.000
200.05	-121.429
200.43	-800.000
200.81	414.286
201.18	0.000
201.56	244.444
201.94	0.000
202.31	766.667
202.69	-211.111
203.07	1500.000
203.44	-200.000
203.82	-525.000
204.19	-125.000
204.57	-300.000
204.95	-200.000
205.32	-2300.000
205.70	325.000
206.08	-233.333
206.45	-100.000
206.83	500.000
207.20	-216.667
207.58	-380.000
207.96	-383.333
208.33	-150.000
208.71	133.333
209.08	-133.333
209.46	0.000
209.84	366.667
210.21	1050.000
210.59	1000.000
210.96	966.667
211.34	-550.000
211.71	-287.500
212.09	-2100.000
212.46	0.000
212.84	1650.000
213.22	-480.000
213.59	-650.000
213.97	-210.000
214.34	-633.333
214.72	266.667
215.09	-575.000
215.47	0.000
215.84	300.000
216.22	1450.000
216.59	-480.000
216.97	-380.000
217.34	-500.000
217.72	-200.000
218.09	-625.000
218.47	-475.000
218.84	0.000
219.22	320.000
219.59	-82.353
219.97	-50.000
220.34	1100.000
220.72	-233.333
221.09	-46.154
221.47	-433.333
221.84	-200.000
222.22	-314.286
222.59	0.000
222.97	-100.000
223.34	-260.000
223.72	-1900.000
224.09	-200.000
224.46	-425.000
224.84	-200.000
225.21	-185.714
225.59	-700.000
225.96	-600.000
226.34	-42.308
226.71	400.000
227.08	-850.000
227.46	-120.000
227.83	-525.000
228.21	-94.737
228.58	262.500
228.95	950.000
229.33	-66.667
229.70	-100.000
230.08	-63.158
230.45	290.000
230.82	-600.000
231.20	-114.286
231.57	-116.667
231.95	-136.364
232.32	-72.727
232.69	-80.000
233.07	-700.000
233.44	-94.118
233.81	-240.000
234.19	-94.444
234.56	-18.182
234.93	-27.586
235.31	-78.947
235.68	-100.000
236.05	-130.000
236.43	-46.154
236.80	-36.000
237.17	-29.630
237.55	-42.424
237.92	-310.000
238.29	-51.613
238.67	-40.909
239.04	-36.111
239.41	-54.762
239.79	-36.957
240.16	-40.741
240.53	-34.783
240.91	-54.902
241.28	-34.426
241.65	-16.418
242.02	-2.703
242.40	-41.538
242.77	-17.333
243.14	-30.488
243.51	-39.474
243.89	-28.205
244.26	-5.941
244.63	-12.745
245.00	-13.084
245.38	-14.035
245.75	-30.088
246.12	-10.317
246.49	-17.829
246.87	-8.571
247.24	-13.907
247.61	-9.868
247.98	-16.107
248.36	-15.432
248.73	-17.791
249.10	-5.464
249.47	-5.473
249.84	-5.236
250.22	-10.363
250.59	-13.333
250.96	-2.727
251.33	-12.755
251.70	-6.410
252.08	-3.333
252.45	-1.639
252.82	-9.504
253.19	-7.031
253.56	-4.943
253.94	-6.923
254.31	-6.061
254.68	1.748
255.05	-4.235
255.42	-6.122
255.79	-6.472
256.16	-5.629
256.54	-5.960
256.91	-3.934
257.28	-5.902
257.65	-4.459
258.02	-6.785
258.39	-4.843
258.76	-0.612
259.14	-4.023
259.51	-3.458
259.88	-6.799
260.25	-2.222
260.62	-3.562
260.99	-0.820
261.36	-3.217
261.73	-7.427
262.10	-8.242
262.47	-6.166
262.85	-0.253
263.22	-5.974
263.59	-10.263
263.96	-1.790
264.33	-5.115
264.70	-4.938
265.07	-2.625
265.44	0.000
265.81	-3.935
266.18	-2.948
266.55	-3.571
266.92	-6.378
267.29	-2.188
267.66	-1.996
268.03	-4.803
268.40	-1.461
268.77	-6.150
269.14	-7.269
269.51	-3.509
269.88	-0.820
270.25	-3.421
270.62	-2.321
270.99	-1.616
271.36	-1.584
271.73	-2.750
272.10	-2.405
272.47	-3.206
272.84	-4.016
273.21	-3.407
273.58	-4.435
273.95	-3.846
274.32	-4.563
274.69	-3.482
275.06	-2.198
275.43	-3.142
275.80	-1.235
276.17	-4.259
276.54	-3.731
276.91	-4.830
277.28	-3.436
277.65	-2.154
278.02	-2.757
278.39	-4.891
278.76	-3.515
279.13	-2.128
279.50	-2.921
279.87	-2.147
280.23	-5.106
280.60	-2.542
280.97	-2.138
281.34	-3.056
281.71	-0.338
282.08	-2.990
282.45	-4.746
282.82	-2.983
283.19	-3.554
283.56	-2.951
283.92	-1.051
284.29	-0.158
284.66	-2.627
285.03	-4.167
285.40	-1.855
285.77	-2.941
286.14	-3.206
286.51	-3.805
286.87	-3.160
287.24	-2.410
287.61	-2.840
287.98	-3.323
288.35	-1.923
288.72	-2.959
289.08	-2.196
289.45	-2.071
289.82	-2.560
290.19	-1.868
290.56	-2.113
290.93	-2.282
291.29	-2.342
291.66	-1.515
292.03	-2.035
292.40	-0.544
292.77	-2.830
293.13	-2.165
293.50	-2.760
293.87	-2.819
294.24	-1.467
294.60	-1.643
294.97	-3.490
295.34	-1.152
295.71	-2.396
296.08	-2.842
296.44	-1.716
296.81	-2.558
297.18	-2.366
297.55	-2.476
297.91	-1.779
298.28	-3.555
298.65	-0.951
299.02	-2.834
299.38	-1.602
299.75	-1.402
300.12	-2.546
300.48	-2.419
300.85	-1.350
301.22	-0.895
301.59	-1.826
301.95	-2.147
302.32	-1.667
302.69	-0.876
303.05	-1.197
303.42	-1.663
303.79	-1.354
304.15	-1.577
304.52	-1.163
304.89	-1.466
305.25	-0.621
305.62	-1.776
305.99	-0.825
306.35	-1.310
306.72	-1.965
307.09	-2.335
307.45	-1.139
307.82	-1.009
308.19	-1.615
308.55	-0.193
308.92	-1.168
309.29	-0.479
309.65	-1.754
310.02	-1.485
310.38	-1.181
310.75	-1.456
311.12	-0.959
311.48	-2.053
311.85	-1.899
312.22	-1.423
312.58	-0.188
312.95	-1.816
313.31	-0.181
313.68	-0.275
314.05	-0.903
314.41	-0.729
314.78	-1.362
315.14	-0.544
315.51	-0.092
315.87	0.000
316.24	-1.279
316.61	-0.444
316.97	-1.810
317.34	-1.146
317.70	-0.873
318.07	-0.794
318.43	-0.085
318.80	0.418
319.16	-0.687
319.53	-1.714
319.89	-1.753
320.26	0.000
320.62	-1.330
320.99	-0.092
321.35	-1.571
321.72	-0.279
322.08	-1.623
322.45	-0.903
322.81	-0.903
323.18	-0.973
323.54	-0.690
323.91	-0.623
324.27	-0.688
324.64	-0.252
325.00	-0.746
325.37	-0.410
325.73	-0.413
326.10	0.568
326.46	-0.489
326.83	0.240
327.19	-0.945
327.56	0.158
327.92	-0.708
328.29	0.000
328.65	-0.168
329.01	-0.931
329.38	-0.758
329.74	-0.428
330.11	0.342
330.47	-1.179
330.84	-1.034
331.20	-0.083
331.56	-1.560
331.93	-0.837
332.29	-0.339
332.66	0.083
333.02	-0.586
333.38	-1.342
333.75	-0.758
334.11	-0.584
334.48	-0.495
334.84	0.425
335.20	-1.008
335.57	-0.253
335.93	0.331
336.29	-0.666
336.66	-0.757
337.02	-0.084
337.38	-0.510
337.75	-0.826
338.11	0.336
338.47	-0.248
338.84	-0.169
339.20	-1.011
339.56	-0.741
339.93	-0.903
340.29	-0.242
340.65	-0.568
341.02	0.000
341.38	-0.404
341.74	-0.242
342.11	0.322
342.47	-1.112
342.83	-0.242
343.20	-0.572
343.56	-0.882
343.92	-0.240
344.28	-0.313
344.65	0.078
345.01	-0.702
345.37	0.156
345.73	-1.637
346.10	-0.078
346.46	-0.712
346.82	1.124
347.19	0.153
347.55	0.303
347.91	-0.669
348.27	-0.607
348.63	0.762
349.00	-0.373
349.36	0.149
349.72	-0.446
350.08	0.371
350.45	-0.532
350.81	-0.528
351.17	0.150
351.53	-0.076
351.89	0.380
352.26	-0.149
352.62	-1.045
352.98	-0.229
353.34	-0.822
353.70	-0.770
354.07	0.522
354.43	-0.683
354.79	-0.224
355.15	0.442
355.51	0.000
355.87	-0.972
356.24	-0.380
356.60	-0.370
356.96	-0.519
357.32	0.000
357.68	-0.952
358.04	-1.198
358.40	-0.821
358.77	0.439
359.13	-1.403
359.49	-2.230
359.85	-1.015
360.21	-0.359
360.57	-1.077
360.93	-0.776
361.29	-0.421
361.66	-0.941
362.02	0.765
362.38	-0.773
362.74	-0.489
363.10	-0.138
363.46	-0.554
363.82	-0.852
364.18	-0.633
364.54	-0.553
364.90	-0.067
365.26	-1.034
365.62	0.467
365.98	-0.408
366.35	-0.604
366.71	-0.272
367.07	-0.609
367.43	0.131
367.79	-0.398
368.15	0.000
368.51	-0.609
368.87	0.000
369.23	-0.667
369.59	-0.410
369.95	-0.270
370.31	0.203
370.67	-0.619
371.03	-0.139
371.39	-0.537
371.75	-0.481
372.11	-0.339
372.47	-0.271
372.83	0.393
373.19	-0.200
373.55	-0.745
373.91	-0.545
374.27	-0.065
374.63	-0.880
374.99	-0.464
375.35	0.195
375.71	-0.581
376.07	-0.065
376.42	-0.063
376.78	-0.311
377.14	-0.561
377.50	-0.253
377.86	0.062
378.22	-0.120
378.58	-0.357
378.94	0.117
379.30	-0.469
379.66	-0.294
380.02	0.346
380.38	0.173
380.74	-0.113
381.09	-0.407
381.45	-0.170
381.81	0.059
382.17	-0.178
382.53	-0.292
382.89	0.113
383.25	-0.645
383.61	-1.215
383.97	-0.412
384.32	-0.179
384.68	-1.160
385.04	-0.174
385.40	-0.118
385.76	-0.176
386.12	0.120
386.48	-0.765
386.83	0.119
387.19	-0.290
387.55	-0.704
387.91	0.228
388.27	-0.115
388.62	-0.286
388.98	-0.846
389.34	0.059
389.70	-0.988
390.06	0.414
390.42	-0.663
390.77	0.120
391.13	-0.352
391.49	-0.060
391.85	-0.545
392.20	-0.178
392.56	0.532
392.92	0.164
393.28	-0.221
393.64	-0.447
393.99	0.174
394.35	-0.350
394.71	0.419
395.07	-0.898
395.42	-0.171
395.78	0.244
396.14	-0.119
396.50	0.238
396.85	0.119
397.21	-0.178
397.57	0.236
397.92	-0.057
398.28	-0.869
398.64	-0.286
399.00	-0.471
399.35	0.471
399.71	-0.380
400.07	0.056
400.42	-0.116
400.78	-0.174
401.14	0.000
401.49	-0.057
401.85	-0.988
402.21	-0.174
402.57	0.528
402.92	-0.118
403.28	-0.059
403.63	-0.537
403.99	-0.238
404.35	-0.114
404.70	0.283
405.06	-0.217
405.42	-1.112
405.77	0.545
406.13	0.432
406.49	-0.169
406.84	0.332
407.20	0.168
407.55	-0.606
407.91	-0.880
408.27	-0.236
408.62	0.058
408.98	0.348
409.34	-0.938
409.69	0.371
410.05	0.234
410.40	0.290
410.76	-0.673
411.11	0.000
411.47	-0.430
411.83	0.000
412.18	-0.181
412.54	0.593
412.89	-0.175
413.25	0.000
413.60	-0.460
413.96	0.117
414.31	0.510
414.67	0.239
415.03	0.062
415.38	-0.946
415.74	-0.122
416.09	0.185
416.45	0.501
416.80	-0.367
417.16	-0.255
417.51	-0.187
417.87	0.061
418.22	0.120
418.58	-0.310
418.93	0.757
419.29	-0.863
419.64	-0.480
420.00	-0.297
420.35	0.056
420.71	-0.287
421.06	-0.288
421.42	-0.172
421.77	-0.054
422.12	0.423
422.48	-0.256
422.83	0.657
423.19	0.159
423.54	-0.221
423.90	0.276
424.25	0.160
424.61	-0.918
424.96	0.329
425.31	0.531
425.67	0.054
426.02	0.000
426.38	0.000
426.73	-0.056
427.09	0.923
427.44	-0.601
427.79	-0.553
428.15	-0.742
428.50	-0.674
428.85	-0.517
429.21	0.266
429.56	-0.197
429.92	-0.197
430.27	0.145
430.62	-0.391
430.98	-0.246
431.33	0.049
431.68	0.192
432.04	-0.152
432.39	-0.589
432.74	-0.457
433.10	-0.324
433.45	-0.613
433.80	-0.268
434.16	0.568
434.51	0.051
434.86	-0.597
435.22	0.213
435.57	0.000
435.92	-0.167
436.28	-0.114
436.63	-0.218
436.98	-0.805
437.34	-0.225
437.69	-0.330
438.04	0.000
438.39	-0.460
438.75	-0.443
439.10	0.476
439.45	0.391
439.81	0.452
440.16	-0.429
440.51	0.279
440.86	-0.111
441.22	0.322
441.57	0.000
441.92	0.339
442.27	0.455
442.63	0.596
442.98	0.427
443.33	0.053
443.68	0.644
444.03	0.706
444.39	0.509
444.74	0.102
445.09	0.355
445.44	-0.105
445.79	0.287
446.15	0.411
446.50	0.362
446.85	0.340
447.20	0.387
447.55	0.680
447.91	-0.052
448.26	0.159
448.61	0.106
448.96	0.536
449.31	0.424
449.66	-0.545
450.02	0.844
450.37	0.479
450.72	0.054
451.07	0.399
451.42	0.173
451.77	-0.111
452.12	-0.282
452.47	-0.475
452.83	0.450
453.18	0.409
453.53	-0.287
453.88	0.607
454.23	0.678
454.58	0.290
454.93	0.000
455.28	0.301
455.63	0.398
455.98	0.447
456.34	0.177
456.69	0.235
457.04	0.000
457.39	0.277
457.74	0.056
458.09	0.055
458.44	0.700
458.79	0.103
459.14	0.472
459.49	-0.057
459.84	0.525
460.19	-0.222
460.54	0.341
460.89	0.424
461.24	-0.230
461.59	0.885
461.94	-0.285
462.29	0.504
462.64	0.060
462.99	-0.188
463.34	-0.649
463.69	0.821
464.04	0.834
464.39	0.336
464.74	0.627
465.09	0.461
465.44	0.483
465.79	0.952
466.14	0.782
466.49	1.053
466.84	0.220
467.19	0.462
467.54	-0.235
467.89	0.575
468.24	0.277
468.59	-0.290
468.94	0.175
469.29	0.120
469.64	-0.445
469.99	-0.255
470.34	-0.186
470.68	-0.137
471.03	-0.262
471.38	0.131
471.73	-0.520
472.08	0.000
472.43	0.361
472.78	0.693
473.13	0.253
473.48	0.483
473.83	0.174
474.17	0.352
474.52	-0.180
474.87	0.609
475.22	0.225
475.57	0.260
475.92	0.299
476.27	0.160
476.61	0.831
476.96	0.469
477.31	0.693
477.66	0.892
478.01	0.203
478.36	0.299
478.70	0.394
479.05	0.613
479.40	0.296
479.75	0.720
480.10	0.332
480.45	0.957
480.79	0.771
481.14	0.414
481.49	0.591
481.84	0.566
482.19	0.301
482.53	0.394
482.88	0.842
483.23	0.667
483.58	0.349
483.92	0.532
484.27	0.423
484.62	0.578
484.97	0.972
485.31	0.387
485.66	0.864
486.01	0.923
486.36	0.918
486.70	1.268
487.05	0.971
487.40	0.975
487.75	0.789
488.09	0.930
488.44	0.586
488.79	1.079
489.13	0.760
489.48	0.388
489.83	0.402
490.17	0.243
490.52	0.616
490.87	0.508
491.22	0.087
491.56	0.725
491.91	0.698
492.26	0.606
492.60	0.568
492.95	0.702
493.30	-0.090
493.64	0.613
493.99	0.439
494.34	0.348
494.68	0.557
495.03	0.529
495.37	0.089
495.72	0.317
496.07	0.701
496.41	0.343
496.76	0.584
497.11	-0.127
497.45	0.259
497.80	0.666
498.14	0.272
498.49	0.046
498.84	0.594
499.18	0.540
499.53	0.942
499.87	0.352
500.22	-0.267
500.56	0.225
500.91	0.458
501.26	0.773
501.60	0.442
501.95	0.564
502.29	0.658
502.64	0.656
502.98	0.604
503.33	0.518
503.67	-0.087
504.02	0.306
504.36	0.402
504.71	0.184
505.06	0.091
505.40	0.503
505.75	0.546
506.09	0.783
506.44	0.418
506.78	0.505
507.13	0.461
507.47	0.237
507.82	0.379
508.16	0.000
508.51	0.000
508.85	0.425
509.19	0.426
509.54	0.576
509.88	0.340
510.23	0.680
510.57	1.015
510.92	0.339
511.26	0.289
511.61	0.290
511.95	0.586
512.30	0.640
512.64	0.400
512.98	0.000
513.33	0.706
513.67	0.459
514.02	0.409
514.36	0.716
514.70	-0.365
515.05	0.365
515.39	0.682
515.74	0.954
516.08	0.211
516.42	0.157
516.77	0.053
517.11	0.155
517.46	0.848
517.80	0.428
518.14	0.762
518.49	0.759
518.83	1.277
519.17	0.269
519.52	0.210
519.86	0.475
520.20	1.171
520.55	0.329
520.89	0.169
521.23	0.503
521.58	0.395
521.92	0.907
522.26	0.630
522.61	0.116
522.95	0.519
523.29	0.287
523.64	0.000
523.98	0.913
524.32	1.605
524.66	0.398
525.01	0.396
525.35	0.460
525.69	0.000
526.04	0.287
526.38	0.230
526.72	0.692
527.06	0.528
527.41	0.525
527.75	0.475
528.09	0.177
528.43	1.066
528.78	0.231
529.12	0.573
529.46	-0.056
529.80	0.343
530.15	0.348
530.49	-0.059
530.83	0.472
531.17	0.299
531.51	0.241
531.86	0.781
532.20	0.732
532.54	0.120
532.88	0.424
533.22	1.061
533.57	0.981
533.91	0.617
534.25	1.074
534.59	0.115
534.93	0.396
535.27	0.620
535.62	0.569
535.96	0.232
536.30	0.823
536.64	0.601
536.98	0.677
537.32	0.864
537.66	0.437
538.01	-0.242
538.35	0.000
538.69	0.661
539.03	0.858
539.37	0.942
539.71	0.360
540.05	0.839
540.39	0.611
540.73	0.668
541.07	0.123
541.42	0.473
541.76	0.237
542.10	0.121
542.44	-0.305
542.78	0.365
543.12	1.013
543.46	0.611
543.80	0.000
544.14	0.539
544.48	1.182
544.82	0.359
545.16	0.239
545.50	0.180
545.84	0.796
546.18	1.111
546.52	0.701
546.86	0.566
547.20	0.827
547.54	0.187
547.88	0.241
548.22	-0.117
548.56	0.351
548.90	0.000
549.24	0.243
549.58	-0.063
549.92	-0.191
550.26	0.259
550.60	0.511
550.94	0.129
551.28	0.462
551.62	0.404
551.96	0.259
552.30	0.446
552.64	0.996
552.98	0.437
553.32	1.093
553.66	-0.064
554.00	0.567
554.34	0.515
554.68	0.775
555.02	-0.066
555.36	1.052
555.69	-0.448
556.03	-0.063
556.37	0.688
556.71	0.634
557.05	0.639
557.39	-0.066
557.73	0.396
558.07	-0.728
558.41	0.532
558.75	-0.068
559.08	0.209
559.42	-0.206
559.76	0.746
560.10	0.603
560.44	0.132
560.78	0.813
561.12	0.493
561.45	0.730
561.79	0.366
562.13	1.171
562.47	0.617
562.81	0.633
563.15	0.821
563.48	0.497
563.82	0.363
564.16	-0.061
564.50	0.536
564.84	0.649
565.17	0.353
565.51	0.173
565.85	0.119
566.19	-0.173
566.52	0.351
566.86	0.509
567.20	0.761
567.54	0.637
567.88	0.663
568.21	0.642
568.55	0.384
568.89	0.772
569.23	0.676
569.56	0.703
569.90	0.535
570.24	0.911
570.57	0.545
570.91	0.796
571.25	1.070
571.59	1.225
571.92	1.013
572.26	1.218
572.60	1.065
572.93	1.614
573.27	0.927
573.61	1.271
573.95	1.481
574.28	1.215
574.62	1.023
574.96	1.235
575.29	1.058
575.63	0.878
575.97	1.174
576.30	1.209
576.64	0.859
576.98	1.071
577.31	1.380
577.65	1.238
577.98	1.186
578.32	1.140
578.66	1.131
578.99	1.229
579.33	0.978
579.67	0.975
580.00	1.191
580.34	1.156
580.67	0.927
581.01	1.060
581.35	1.266
581.68	1.136
582.02	1.466
582.35	1.381
582.69	1.197
583.02	1.308
583.36	1.171
583.70	0.818
584.03	1.032
584.37	1.111
584.70	0.905
585.04	0.814
585.37	1.149
585.71	1.057
586.04	1.189
586.38	1.045
586.72	0.752
587.05	0.665
587.39	0.972
587.72	0.933
588.06	1.281
588.39	1.419
588.73	0.794
589.06	1.016
589.40	0.799
589.73	1.221
590.07	0.895
590.40	0.980
590.73	0.601
591.07	0.968
591.40	0.622
591.74	0.835
592.07	1.056
592.41	0.710
592.74	1.065
593.08	0.892
593.41	1.400
593.75	1.207
594.08	1.151
594.41	0.962
594.75	0.864
595.08	0.639
595.42	1.071
595.75	0.840
596.09	1.322
596.42	0.824
596.75	0.965
597.09	0.768
597.42	0.795
597.75	1.019
598.09	1.310
598.42	0.885
598.76	0.650
599.09	0.783
599.42	1.073
599.76	1.122
600.09	1.068
600.42	0.868
600.76	0.760
601.09	0.962
601.42	1.064
601.76	0.966
602.09	0.536
602.42	0.691
602.76	0.812
603.09	1.028
603.42	0.650
603.76	0.740
604.09	1.561
604.42	0.954
604.76	0.837
605.09	0.718
605.42	0.558
605.75	0.846
606.09	0.597
606.42	0.803
606.75	0.600
607.09	0.384
607.42	1.233
607.75	0.586
608.08	0.829
608.42	0.846
608.75	1.119
609.08	0.637
609.41	0.441
609.75	0.446
610.08	1.099
610.41	1.062
610.74	0.798
611.07	1.155
611.41	0.942
611.74	0.554
612.07	0.561
612.40	0.713
612.73	0.685
613.07	0.587
613.40	0.674
613.73	0.241
614.06	0.589
614.39	0.583
614.72	0.679
615.06	1.011
615.39	0.725
615.72	0.332
616.05	0.923
616.38	1.110
616.71	0.993
617.05	-0.160
617.38	1.659
617.71	0.756
618.04	0.863
618.37	1.311
618.70	0.792
619.03	0.060
619.36	0.493
619.69	0.512
620.03	0.942
620.36	0.000
620.69	0.062
621.02	0.459
621.35	0.000
621.68	0.940
622.01	0.498
622.34	-0.628
622.67	0.137
623.00	-0.540
623.33	0.398
623.66	0.259
623.99	-0.263
624.32	2.144
624.65	-0.257
624.99	0.520
625.32	1.110
625.65	0.405
625.98	0.068
626.31	-0.425
626.64	0.366
626.97	-0.300
627.30	-1.519
627.63	-0.225
627.96	0.976
628.29	-0.156
628.62	-0.504
628.95	-0.789
629.28	-0.935
629.61	-0.084
629.94	-1.172
630.26	-0.678
630.59	-0.173
630.92	-0.519
631.25	-0.268
631.58	-0.659
631.91	-0.094
632.24	-0.288
632.57	0.000
632.90	-1.204
633.23	0.102
633.56	-0.204
633.89	-0.930
634.22	-0.104
634.55	-0.939
634.88	-2.273
635.20	0.108
635.53	-0.791
635.86	-2.059
636.19	0.212
636.52	-0.422
636.85	-0.715
637.18	0.000
637.51	-2.151
637.83	-0.664
638.16	-1.498
638.49	0.117
638.82	-0.902
639.15	-1.947
639.48	-0.462
639.81	0.115
640.13	0.236
640.46	-1.333
640.79	-2.451
641.12	-0.373
641.45	-0.376
641.77	1.669
642.10	-2.231
642.43	-0.931
642.76	0.000
643.09	-1.781
643.41	-2.801
643.74	-1.931
644.07	0.138
