SpectraSuite Data File
++++++++++++++++++++++++++++++++++++
Date: Thu May 14 16:01:43 PDT 2015
User: schluterlab
Dark Spectrum Present: Yes
Reference Spectrum Present: Yes
Number of Sampled Component Spectra: 1
Spectrometers: USB2E3373
Integration Time (usec): 3000 (USB2E3373)
Spectra Averaged: 3 (USB2E3373)
Boxcar Smoothing: 0 (USB2E3373)
Correct for Electrical Dark: No (USB2E3373)
Strobe/Lamp Enabled: No (USB2E3373)
Correct for Detector Non-linearity: No (USB2E3373)
Correct for Stray Light: No (USB2E3373)
Number of Pixels in Processed Spectrum: 2048
>>>>>Begin Processed Spectral Data<<<<<
178.53	0.000
178.91	271.429
179.29	-1800.000
179.67	-1500.000
180.04	157.143
180.42	120.000
180.80	280.000
181.18	-2000.000
181.56	-700.000
181.94	500.000
182.31	-400.000
182.69	533.333
183.07	-500.000
183.45	350.000
183.83	-200.000
184.20	-466.667
184.58	1700.000
184.96	-600.000
185.34	-122.222
185.72	-160.000
186.09	277.778
186.47	1150.000
186.85	380.000
187.23	-144.444
187.61	-1900.000
187.98	300.000
188.36	500.000
188.74	-300.000
189.12	-433.333
189.49	-43.750
189.87	-225.000
190.25	-133.333
190.63	-240.000
191.00	-222.222
191.38	0.000
191.76	-450.000
192.14	-50.000
192.51	450.000
192.89	-116.667
193.27	0.000
193.65	-228.571
194.02	-2700.000
194.40	-157.143
194.78	257.143
195.15	0.000
195.53	-54.545
195.91	0.000
196.29	-100.000
196.66	-146.154
197.04	-2000.000
197.42	-114.286
197.79	-700.000
198.17	-200.000
198.55	-200.000
198.92	-177.778
199.30	-75.000
199.68	-118.182
200.05	-71.429
200.43	-1150.000
200.81	400.000
201.18	0.000
201.56	277.778
201.94	0.000
202.31	633.333
202.69	-233.333
203.07	1600.000
203.44	-177.778
203.82	-475.000
204.19	-141.667
204.57	-83.333
204.95	-262.500
205.32	-1300.000
205.70	525.000
206.08	-133.333
206.45	-183.333
206.83	480.000
207.20	-200.000
207.58	-500.000
207.96	-316.667
208.33	-150.000
208.71	125.000
209.08	-50.000
209.46	0.000
209.84	350.000
210.21	1200.000
210.59	1200.000
210.96	700.000
211.34	-375.000
211.71	-237.500
212.09	-1900.000
212.46	0.000
212.84	1100.000
213.22	-560.000
213.59	-400.000
213.97	-140.000
214.34	-533.333
214.72	316.667
215.09	-425.000
215.47	0.000
215.84	242.857
216.22	850.000
216.59	-520.000
216.97	-360.000
217.34	-500.000
217.72	-112.500
218.09	-525.000
218.47	-450.000
218.84	0.000
219.22	400.000
219.59	-58.824
219.97	-85.000
220.34	800.000
220.72	-222.222
221.09	-46.154
221.47	-266.667
221.84	-100.000
222.22	-257.143
222.59	0.000
222.97	-87.500
223.34	-380.000
223.72	-2100.000
224.09	-575.000
224.46	-600.000
224.84	-100.000
225.21	-242.857
225.59	-675.000
225.96	-575.000
226.34	-34.615
226.71	350.000
227.08	-1150.000
227.46	-80.000
227.83	-575.000
228.21	-84.211
228.58	200.000
228.95	1000.000
229.33	-25.000
229.70	-170.000
230.08	-10.526
230.45	240.000
230.82	-366.667
231.20	-85.714
231.57	-91.667
231.95	-109.091
232.32	-154.545
232.69	-5.000
233.07	-625.000
233.44	-82.353
233.81	-240.000
234.19	-22.222
234.56	-50.000
234.93	-27.586
235.31	-100.000
235.68	-77.778
236.05	-90.000
236.43	-23.077
236.80	-24.000
237.17	-37.037
237.55	-48.485
237.92	-240.000
238.29	-32.258
238.67	-9.091
239.04	-36.111
239.41	-30.952
239.79	-17.391
240.16	-16.667
240.53	-6.522
240.91	-19.608
241.28	-22.951
241.65	0.000
242.02	4.054
242.40	-27.692
242.77	-8.000
243.14	-4.878
243.51	-14.474
243.89	-8.974
244.26	7.921
244.63	11.765
245.00	-1.869
245.38	-1.754
245.75	-14.159
246.12	8.730
246.49	-5.426
246.87	1.429
247.24	3.974
247.61	3.289
247.98	3.356
248.36	1.852
248.73	-0.613
249.10	7.104
249.47	11.940
249.84	10.995
250.22	4.145
250.59	5.556
250.96	6.818
251.33	3.571
251.70	9.402
252.08	9.167
252.45	10.246
252.82	4.545
253.19	5.469
253.56	11.027
253.94	7.692
254.31	12.121
254.68	12.587
255.05	10.749
255.42	5.782
255.79	6.796
256.16	9.934
256.54	5.960
256.91	9.508
257.28	8.525
257.65	8.917
258.02	7.965
258.39	9.972
258.76	12.232
259.14	12.644
259.51	10.951
259.88	9.065
260.25	11.389
260.62	11.507
260.99	12.568
261.36	13.405
261.73	9.549
262.10	10.714
262.47	11.260
262.85	12.879
263.22	8.831
263.59	8.684
263.96	11.765
264.33	11.765
264.70	12.840
265.07	13.842
265.44	13.832
265.81	12.963
266.18	13.152
266.55	10.937
266.92	12.984
267.29	12.254
267.66	12.195
268.03	12.445
268.40	10.438
268.77	10.251
269.14	9.912
269.51	12.061
269.88	12.090
270.25	9.658
270.62	11.603
270.99	11.111
271.36	12.079
271.73	11.591
272.10	12.826
272.47	12.024
272.84	11.847
273.21	12.024
273.58	13.508
273.95	11.154
274.32	11.597
274.69	12.766
275.06	13.004
275.43	12.384
275.80	12.875
276.17	10.926
276.54	11.194
276.91	11.270
277.28	11.935
277.65	12.567
278.02	12.132
278.39	13.587
278.76	13.357
279.13	12.234
279.50	14.948
279.87	13.059
280.23	8.803
280.60	13.051
280.97	13.816
281.34	11.205
281.71	13.536
282.08	11.628
282.45	10.475
282.82	11.303
283.19	10.016
283.56	11.639
283.92	13.213
284.29	14.534
284.66	12.808
285.03	10.256
285.40	9.428
285.77	10.681
286.14	14.046
286.51	11.263
286.87	11.848
287.24	12.952
287.61	10.015
287.98	11.027
288.35	11.834
288.72	10.355
289.08	12.299
289.45	11.538
289.82	11.145
290.19	9.770
290.56	11.127
290.93	11.840
291.29	10.193
291.66	10.331
292.03	9.769
292.40	11.565
292.77	10.916
293.13	10.555
293.50	9.724
293.87	10.336
294.24	11.333
294.60	10.999
294.97	9.664
295.34	11.268
295.71	9.079
296.08	9.302
296.44	8.578
296.81	9.501
297.18	9.091
297.55	8.844
297.91	9.727
298.28	9.242
298.65	10.702
299.02	8.028
299.38	10.526
299.75	8.528
300.12	8.333
300.48	9.447
300.85	9.674
301.22	8.389
301.59	9.932
301.95	7.910
302.32	9.667
302.69	9.310
303.05	9.358
303.42	8.647
303.79	9.167
304.15	9.674
304.52	8.668
304.89	8.272
305.25	9.731
305.62	10.136
305.99	9.278
306.35	8.367
306.72	9.307
307.09	7.716
307.45	8.282
307.82	7.568
308.19	9.284
308.55	10.511
308.92	8.569
309.29	9.004
309.65	7.992
310.02	8.020
310.38	8.071
310.75	8.155
311.12	9.108
311.48	7.918
311.85	8.927
312.22	7.685
312.58	8.263
312.95	8.413
313.31	9.395
313.68	9.707
314.05	8.130
314.41	9.107
314.78	8.992
315.14	8.258
315.51	9.141
315.87	8.821
316.24	8.950
316.61	9.059
316.97	8.145
317.34	7.584
317.70	8.559
318.07	8.554
318.43	7.993
318.80	9.365
319.16	8.326
319.53	8.997
319.89	8.501
320.26	9.253
320.62	8.245
320.99	8.310
321.35	8.780
321.72	10.698
322.08	9.017
322.45	8.220
322.81	8.664
323.18	8.053
323.54	8.534
323.91	9.431
324.27	8.348
324.64	9.572
325.00	8.292
325.37	9.009
325.73	8.760
326.10	10.138
326.46	9.772
326.83	9.848
327.19	9.291
327.56	9.328
327.92	9.363
328.29	9.516
328.65	8.961
329.01	9.137
329.38	9.099
329.74	9.503
330.11	9.846
330.47	8.846
330.84	8.527
331.20	10.667
331.56	9.359
331.93	8.870
332.29	10.000
332.66	8.804
333.02	9.296
333.38	8.557
333.75	8.923
334.11	9.341
334.48	8.498
334.84	10.195
335.20	8.060
335.57	8.938
335.93	9.339
336.29	9.068
336.66	8.410
337.02	9.114
337.38	8.163
337.75	8.017
338.11	9.756
338.47	9.098
338.84	9.052
339.20	8.340
339.56	8.814
339.93	7.553
340.29	8.615
340.65	9.084
341.02	9.258
341.38	9.943
341.74	8.152
342.11	9.654
342.47	9.373
342.83	9.098
343.20	9.158
343.56	8.901
343.92	8.647
344.28	9.531
344.65	8.682
345.01	8.736
345.37	9.720
345.73	7.950
346.10	10.140
346.46	7.437
346.82	9.064
347.19	9.244
347.55	9.712
347.91	7.727
348.27	7.967
348.63	9.292
349.00	8.949
349.36	8.773
349.72	8.854
350.08	8.915
350.45	8.593
350.81	8.296
351.17	8.872
351.53	8.188
351.89	8.352
352.26	8.657
352.62	7.836
352.98	8.321
353.34	8.215
353.70	7.473
354.07	7.750
354.43	8.580
354.79	8.601
355.15	8.756
355.51	9.284
355.87	8.227
356.24	7.833
356.60	8.869
356.96	8.525
357.32	7.286
357.68	8.053
358.04	7.335
358.40	7.313
358.77	8.845
359.13	7.533
359.49	7.361
359.85	8.557
360.21	8.537
360.57	7.681
360.93	7.757
361.29	8.421
361.66	8.400
362.02	8.559
362.38	7.941
362.74	7.542
363.10	8.322
363.46	8.587
363.82	7.599
364.18	7.671
364.54	8.022
364.90	8.763
365.26	7.724
365.62	8.733
365.98	7.148
366.35	7.852
366.71	7.959
367.07	8.660
367.43	8.470
367.79	7.830
368.15	9.298
368.51	7.984
368.87	7.969
369.23	7.867
369.59	7.445
369.95	7.708
370.31	7.698
370.67	7.909
371.03	8.864
371.39	7.656
371.75	8.666
372.11	6.978
372.47	7.854
372.83	8.312
373.19	8.072
373.55	8.130
373.91	7.703
374.27	8.279
374.63	7.645
374.99	8.621
375.35	8.442
375.71	7.871
376.07	8.199
376.42	8.186
376.78	7.707
377.14	8.235
377.50	7.843
377.86	7.328
378.22	7.485
378.58	7.669
378.94	8.451
379.30	8.084
379.66	7.584
380.02	7.905
380.38	8.410
380.74	8.056
381.09	8.420
381.45	8.068
381.81	8.314
382.17	7.482
382.53	7.485
382.89	8.014
383.25	8.206
383.61	7.176
383.97	7.479
384.32	7.177
384.68	6.845
385.04	7.924
385.40	8.014
385.76	8.734
386.12	6.882
386.48	7.529
386.83	8.343
387.19	7.590
387.55	6.690
387.91	7.820
388.27	8.487
388.62	7.446
388.98	7.501
389.34	7.543
389.70	7.960
390.06	8.348
390.42	7.530
390.77	7.947
391.13	7.160
391.49	7.729
391.85	7.273
392.20	8.422
392.56	8.210
392.92	8.070
393.28	7.573
393.64	7.486
393.99	8.890
394.35	8.061
394.71	7.904
395.07	6.707
395.42	7.881
395.78	8.227
396.14	7.546
396.50	7.957
396.85	7.871
397.21	7.692
397.57	7.774
397.92	7.388
398.28	6.735
398.64	7.265
399.00	7.277
399.35	8.639
399.71	7.772
400.07	7.412
400.42	8.033
400.78	7.581
401.14	7.797
401.49	7.732
401.85	7.965
402.21	7.764
402.57	8.392
402.92	8.038
403.28	6.733
403.63	6.742
403.99	7.482
404.35	7.732
404.70	8.159
405.06	7.609
405.42	7.787
405.77	7.688
406.13	8.050
406.49	7.714
406.84	8.144
407.20	7.546
407.55	7.329
407.91	7.920
408.27	7.774
408.62	8.144
408.98	8.009
409.34	5.924
409.69	6.984
410.05	7.972
410.40	8.179
410.76	7.179
411.11	8.124
411.47	8.477
411.83	7.525
412.18	7.771
412.54	8.180
412.89	7.916
413.25	7.675
413.60	8.099
413.96	7.809
414.31	7.762
414.67	8.408
415.03	8.246
415.38	7.629
415.74	7.941
416.09	8.698
416.45	7.702
416.80	8.140
417.16	7.854
417.51	7.970
417.87	8.216
418.22	8.263
418.58	7.993
418.93	8.498
419.29	7.830
419.64	7.923
420.00	7.300
420.35	7.805
420.71	7.754
421.06	7.591
421.42	8.544
421.77	7.647
422.12	8.034
422.48	7.988
422.83	8.653
423.19	8.117
423.54	8.628
423.90	7.344
424.25	8.373
424.61	7.463
424.96	8.457
425.31	8.864
425.67	7.193
426.02	7.582
426.38	7.807
426.73	7.533
427.09	8.881
427.44	7.428
427.79	8.402
428.15	7.877
428.50	7.416
428.85	7.750
429.21	8.511
429.56	7.897
429.92	8.206
430.27	8.048
430.62	7.963
430.98	7.723
431.33	7.674
431.68	7.184
432.04	7.821
432.39	7.874
432.74	7.763
433.10	8.167
433.45	7.692
433.80	7.725
434.16	8.213
434.51	7.657
434.86	7.818
435.22	8.023
435.57	7.724
435.92	7.679
436.28	8.134
436.63	7.591
436.98	8.159
437.34	8.230
437.69	8.200
438.04	7.456
438.39	8.386
438.75	7.194
439.10	8.615
439.45	7.993
439.81	7.514
440.16	7.936
440.51	7.915
440.86	8.004
441.22	8.682
441.57	7.704
441.92	8.293
442.27	7.778
442.63	7.750
442.98	8.645
443.33	7.785
443.68	8.077
444.03	8.843
444.39	8.507
444.74	8.218
445.09	8.211
445.44	8.377
445.79	8.669
446.15	8.068
446.50	8.269
446.85	8.560
447.20	8.704
447.55	7.897
447.91	8.429
448.26	8.034
448.61	8.448
448.96	8.369
449.31	7.688
449.66	7.680
450.02	8.544
450.37	8.151
450.72	8.019
451.07	7.631
451.42	8.030
451.77	7.782
452.12	7.957
452.47	7.605
452.83	8.052
453.18	7.823
453.53	7.697
453.88	8.062
454.23	7.853
454.58	7.951
454.93	7.828
455.28	8.368
455.63	8.414
455.98	8.659
456.34	8.245
456.69	7.760
457.04	8.038
457.39	7.816
457.74	8.669
458.09	8.182
458.44	8.567
458.79	8.097
459.14	9.072
459.49	8.093
459.84	8.762
460.19	7.440
460.54	8.575
460.89	7.041
461.24	7.241
461.59	9.020
461.94	7.416
462.29	8.679
462.64	7.604
462.99	7.847
463.34	8.696
463.69	8.617
464.04	8.449
464.39	7.567
464.74	8.780
465.09	8.074
465.44	8.369
465.79	9.043
466.14	8.338
466.49	8.105
466.84	7.438
467.19	7.977
467.54	7.991
467.89	7.759
468.24	8.476
468.59	7.238
468.94	8.100
469.29	8.398
469.64	7.120
469.99	8.413
470.34	7.611
470.68	7.656
471.03	8.317
471.38	7.390
471.73	8.062
472.08	7.424
472.43	8.429
472.78	8.438
473.13	7.712
473.48	8.459
473.83	8.996
474.17	8.265
474.52	8.719
474.87	8.029
475.22	8.732
475.57	8.671
475.92	8.512
476.27	8.520
476.61	7.684
476.96	7.716
477.31	8.465
477.66	8.027
478.01	8.439
478.36	8.624
478.70	9.015
479.05	8.180
479.40	8.391
479.75	8.694
480.10	8.574
480.45	8.022
480.79	8.435
481.14	7.950
481.49	8.042
481.84	8.616
482.19	8.258
482.53	8.833
482.88	8.595
483.23	8.137
483.58	8.210
483.92	7.890
484.27	8.552
484.62	8.086
484.97	8.281
485.31	8.342
485.66	8.399
486.01	8.440
486.36	8.572
486.70	8.895
487.05	8.796
487.40	8.451
487.75	8.626
488.09	8.199
488.44	8.076
488.79	8.702
489.13	8.291
489.48	7.650
489.83	8.249
490.17	8.384
490.52	8.374
490.87	8.629
491.22	8.666
491.56	8.575
491.91	8.635
492.26	8.438
492.60	8.614
492.95	8.600
493.30	8.382
493.64	8.541
493.99	8.728
494.34	8.319
494.68	8.522
495.03	8.238
495.37	8.167
495.72	8.390
496.07	8.457
496.41	8.065
496.76	8.632
497.11	8.790
497.45	8.502
497.80	8.707
498.14	8.662
498.49	8.364
498.84	8.410
499.18	8.997
499.53	8.072
499.87	8.791
500.22	7.747
500.56	8.322
500.91	8.650
501.26	9.091
501.60	7.468
501.95	8.511
502.29	8.556
502.64	8.833
502.98	8.067
503.33	8.337
503.67	8.286
504.02	8.800
504.36	8.758
504.71	8.222
505.06	8.640
505.40	8.638
505.75	8.379
506.09	8.379
506.44	8.124
506.78	9.037
507.13	8.852
507.47	8.669
507.82	8.523
508.16	8.317
508.51	7.876
508.85	8.314
509.19	8.622
509.54	9.030
509.88	8.645
510.23	8.742
510.57	9.328
510.92	8.999
511.26	8.177
511.61	8.402
511.95	8.590
512.30	9.355
512.64	8.196
512.98	8.354
513.33	9.476
513.67	8.465
514.02	8.431
514.36	8.286
514.70	8.490
515.05	8.916
515.39	8.136
515.74	8.537
516.08	8.347
516.42	8.687
516.77	8.307
517.11	8.303
517.46	8.378
517.80	9.246
518.14	9.358
518.49	9.111
518.83	9.047
519.17	8.293
519.52	8.595
519.86	8.923
520.20	8.733
520.55	8.598
520.89	8.727
521.23	7.984
521.58	8.814
521.92	9.008
522.26	8.190
522.61	8.970
522.95	9.112
523.29	8.908
523.64	9.305
523.98	8.899
524.32	9.513
524.66	8.708
525.01	8.947
525.35	9.018
525.69	8.469
526.04	8.209
526.38	8.621
526.72	9.227
527.06	9.912
527.41	8.688
527.75	9.501
528.09	9.091
528.43	9.414
528.78	8.324
529.12	8.200
529.46	8.375
529.80	8.696
530.15	8.696
530.49	9.015
530.83	8.560
531.17	9.020
531.51	8.484
531.86	9.555
532.20	9.207
532.54	8.797
532.88	9.758
533.22	9.134
533.57	9.463
533.91	9.035
534.25	9.723
534.59	8.966
534.93	8.036
535.27	8.845
535.62	9.380
535.96	9.471
536.30	8.754
536.64	9.369
536.98	9.287
537.32	9.753
537.66	9.170
538.01	8.157
538.35	8.770
538.69	8.714
539.03	9.626
539.37	8.304
539.71	9.309
540.05	9.233
540.39	8.619
540.73	8.500
541.07	9.381
541.42	8.801
541.76	8.837
542.10	9.349
542.44	8.404
542.78	8.273
543.12	9.356
543.46	8.669
543.80	8.393
544.14	9.096
544.48	9.279
544.82	8.917
545.16	9.243
545.50	8.688
545.84	8.879
546.18	8.580
546.52	9.045
546.86	8.868
547.20	9.097
547.54	8.614
547.88	8.921
548.22	8.304
548.56	8.602
548.90	8.776
549.24	8.389
549.58	9.464
549.92	8.291
550.26	9.773
550.60	8.296
550.94	9.120
551.28	8.647
551.62	9.030
551.96	9.061
552.30	9.688
552.64	9.459
552.98	9.046
553.32	9.389
553.66	8.682
554.00	9.142
554.34	8.623
554.68	8.522
555.02	8.673
555.36	9.336
555.69	8.200
556.03	9.269
556.37	9.637
556.71	8.561
557.05	9.010
557.39	8.228
557.73	8.851
558.07	8.874
558.41	9.502
558.75	9.939
559.08	9.047
559.42	8.573
559.76	9.701
560.10	9.042
560.44	8.971
560.78	9.438
561.12	10.160
561.45	9.124
561.79	9.707
562.13	9.365
562.47	8.015
562.81	8.924
563.15	9.280
563.48	9.385
563.82	9.069
564.16	8.601
564.50	8.641
564.84	8.791
565.17	9.176
565.51	9.321
565.85	9.382
566.19	8.698
566.52	9.245
566.86	8.829
567.20	8.700
567.54	9.134
567.88	8.869
568.21	9.881
568.55	8.873
568.89	9.260
569.23	9.210
569.56	9.261
569.90	9.052
570.24	9.039
570.57	8.595
570.91	8.512
571.25	9.170
571.59	8.711
571.92	8.875
572.26	8.602
572.60	8.982
572.93	8.851
573.27	8.767
573.61	8.920
573.95	8.983
574.28	9.133
574.62	8.686
574.96	8.359
575.29	8.482
575.63	8.824
575.97	8.814
576.30	8.438
576.64	8.494
576.98	8.724
577.31	8.607
577.65	8.791
577.98	9.168
578.32	8.457
578.66	8.971
578.99	8.847
579.33	8.382
579.67	8.908
580.00	8.564
580.34	8.770
580.67	8.650
581.01	8.330
581.35	8.767
581.68	8.926
582.02	9.055
582.35	8.895
582.69	8.638
583.02	8.578
583.36	8.914
583.70	8.384
584.03	8.327
584.37	8.344
584.70	8.582
585.04	8.021
585.37	8.595
585.71	8.738
586.04	8.675
586.38	8.728
586.72	8.323
587.05	8.058
587.39	8.352
587.72	8.804
588.06	8.656
588.39	8.588
588.73	8.439
589.06	8.465
589.40	8.543
589.73	8.580
590.07	8.853
590.40	8.891
590.73	8.554
591.07	8.935
591.40	8.942
591.74	8.426
592.07	9.054
592.41	8.399
592.74	9.052
593.08	9.236
593.41	9.361
593.75	8.420
594.08	8.513
594.41	8.333
594.75	8.403
595.08	8.412
595.42	8.442
595.75	8.880
596.09	9.217
596.42	8.635
596.75	8.877
597.09	8.929
597.42	8.025
597.75	8.702
598.09	8.730
598.42	8.967
598.76	8.292
599.09	8.829
599.42	8.783
599.76	8.683
600.09	8.809
600.42	9.142
600.76	8.454
601.09	8.762
601.42	8.788
601.76	8.655
602.09	8.470
602.42	8.651
602.76	8.303
603.09	8.994
603.42	8.634
603.76	8.527
604.09	9.120
604.42	8.514
604.76	8.067
605.09	8.935
605.42	8.692
605.75	8.615
606.09	8.921
606.42	8.865
606.75	8.471
607.09	7.834
607.42	8.748
607.75	8.011
608.08	8.208
608.42	8.303
608.75	8.209
609.08	8.319
609.41	8.425
609.75	8.482
610.08	8.839
610.41	8.794
610.74	8.655
611.07	8.659
611.41	9.238
611.74	8.868
612.07	8.696
612.40	7.890
612.73	8.313
613.07	8.655
613.40	8.807
613.73	8.474
614.06	8.881
614.39	8.066
614.72	8.588
615.06	8.951
615.39	8.845
615.72	8.436
616.05	8.451
616.38	9.132
616.71	8.359
617.05	7.827
617.38	9.042
617.71	9.341
618.04	8.904
618.37	8.251
618.70	8.993
619.03	8.065
619.36	7.953
619.69	7.880
620.03	9.102
620.36	8.650
620.69	8.452
621.02	8.465
621.35	8.781
621.68	8.604
622.01	8.114
622.34	8.020
622.67	9.485
623.00	8.097
623.33	10.020
623.66	9.274
623.99	8.361
624.32	8.707
624.65	9.009
624.99	8.583
625.32	9.406
625.65	8.361
625.98	8.475
626.31	9.213
626.64	9.011
626.97	8.327
627.30	7.289
627.63	9.227
627.96	9.835
628.29	8.638
628.62	7.557
628.95	9.641
629.28	7.392
629.61	7.912
629.94	7.950
630.26	7.458
630.59	8.377
630.92	8.312
631.25	9.302
631.58	9.322
631.91	7.779
632.24	8.549
632.57	9.108
632.90	7.723
633.23	7.959
633.56	7.755
633.89	7.128
634.22	8.732
634.55	7.620
634.88	8.117
635.20	9.903
635.53	10.056
635.86	8.451
636.19	8.908
636.52	8.650
636.85	8.172
637.18	8.316
637.51	8.602
637.83	8.859
638.16	8.065
638.49	7.981
638.82	8.794
639.15	8.247
639.48	8.776
639.81	8.776
640.13	8.952
640.46	7.758
640.79	8.456
641.12	7.578
641.45	8.156
641.77	9.628
642.10	8.005
642.43	9.309
642.76	8.672
643.09	8.219
643.41	7.703
643.74	7.034
644.07	10.069
644.40	7.214
644.73	8.563
645.05	7.489
645.38	8.201
645.71	9.091
646.04	9.900
646.36	8.467
646.69	8.282
647.02	9.174
647.35	8.244
647.67	6.280
648.00	8.439
648.33	8.559
648.66	8.131
648.98	9.116
649.31	10.014
649.64	9.562
649.96	9.814
650.29	6.537
650.62	9.477
650.94	8.258
651.27	7.036
651.60	8.333
651.92	6.687
652.25	8.973
652.58	7.153
652.90	6.541
653.23	9.014
653.56	7.275
653.88	10.534
654.21	8.310
