SpectraSuite Data File
++++++++++++++++++++++++++++++++++++
Date: Thu May 14 16:02:17 PDT 2015
User: schluterlab
Dark Spectrum Present: Yes
Reference Spectrum Present: Yes
Number of Sampled Component Spectra: 1
Spectrometers: USB2E3373
Integration Time (usec): 3000 (USB2E3373)
Spectra Averaged: 3 (USB2E3373)
Boxcar Smoothing: 0 (USB2E3373)
Correct for Electrical Dark: No (USB2E3373)
Strobe/Lamp Enabled: No (USB2E3373)
Correct for Detector Non-linearity: No (USB2E3373)
Correct for Stray Light: No (USB2E3373)
Number of Pixels in Processed Spectrum: 2048
>>>>>Begin Processed Spectral Data<<<<<
178.53	0.000
178.91	214.286
179.29	-1900.000
179.67	-1100.000
180.04	192.857
180.42	180.000
180.80	440.000
181.18	-1600.000
181.56	-200.000
181.94	400.000
182.31	-300.000
182.69	500.000
183.07	-600.000
183.45	400.000
183.83	-300.000
184.20	-700.000
184.58	1700.000
184.96	-525.000
185.34	-155.556
185.72	-160.000
186.09	255.556
186.47	650.000
186.85	440.000
187.23	-244.444
187.61	-2200.000
187.98	200.000
188.36	425.000
188.74	-300.000
189.12	-433.333
189.49	-100.000
189.87	-112.500
190.25	-66.667
190.63	-420.000
191.00	-200.000
191.38	0.000
191.76	-575.000
192.14	-350.000
192.51	950.000
192.89	-116.667
193.27	0.000
193.65	-200.000
194.02	-2400.000
194.40	-257.143
194.78	300.000
195.15	0.000
195.53	-100.000
195.91	0.000
196.29	-125.000
196.66	-138.462
197.04	-2300.000
197.42	-300.000
197.79	-1000.000
198.17	-225.000
198.55	-200.000
198.92	-111.111
199.30	-200.000
199.68	-90.909
200.05	-35.714
200.43	-1350.000
200.81	242.857
201.18	0.000
201.56	266.667
201.94	0.000
202.31	566.667
202.69	-188.889
203.07	1200.000
203.44	-144.444
203.82	-375.000
204.19	-125.000
204.57	-283.333
204.95	-137.500
205.32	-2000.000
205.70	375.000
206.08	-216.667
206.45	-216.667
206.83	380.000
207.20	-166.667
207.58	-320.000
207.96	-216.667
208.33	-83.333
208.71	141.667
209.08	-33.333
209.46	0.000
209.84	300.000
210.21	500.000
210.59	850.000
210.96	600.000
211.34	-425.000
211.71	-275.000
212.09	-1800.000
212.46	0.000
212.84	1250.000
213.22	-240.000
213.59	-25.000
213.97	-60.000
214.34	-700.000
214.72	350.000
215.09	-375.000
215.47	0.000
215.84	357.143
216.22	1200.000
216.59	-260.000
216.97	-340.000
217.34	-375.000
217.72	-237.500
218.09	-150.000
218.47	-350.000
218.84	0.000
219.22	500.000
219.59	-58.824
219.97	-25.000
220.34	850.000
220.72	-288.889
221.09	-53.846
221.47	-466.667
221.84	-60.000
222.22	-185.714
222.59	0.000
222.97	-125.000
223.34	-460.000
223.72	-1500.000
224.09	-600.000
224.46	-350.000
224.84	-160.000
225.21	-257.143
225.59	-550.000
225.96	-575.000
226.34	-38.462
226.71	400.000
227.08	-800.000
227.46	-60.000
227.83	-550.000
228.21	-47.368
228.58	200.000
228.95	950.000
229.33	-108.333
229.70	-100.000
230.08	5.263
230.45	240.000
230.82	-566.667
231.20	-57.143
231.57	-83.333
231.95	-154.545
232.32	-90.909
232.69	-10.000
233.07	-150.000
233.44	-70.588
233.81	-120.000
234.19	27.778
234.56	4.545
234.93	-17.241
235.31	-47.368
235.68	-77.778
236.05	-50.000
236.43	11.538
236.80	48.000
237.17	-14.815
237.55	-30.303
237.92	-90.000
238.29	-29.032
238.67	-18.182
239.04	-5.556
239.41	-14.286
239.79	-8.696
240.16	7.407
240.53	-21.739
240.91	-1.961
241.28	-1.639
241.65	7.463
242.02	21.622
242.40	7.692
242.77	9.333
243.14	10.976
243.51	6.579
243.89	20.513
244.26	15.842
244.63	23.529
245.00	10.280
245.38	23.684
245.75	15.044
246.12	15.079
246.49	19.380
246.87	20.000
247.24	23.841
247.61	21.053
247.98	22.148
248.36	17.901
248.73	18.405
249.10	22.951
249.47	27.363
249.84	28.272
250.22	23.316
250.59	24.444
250.96	29.091
251.33	19.388
251.70	27.350
252.08	27.500
252.45	25.820
252.82	26.446
253.19	24.219
253.56	25.856
253.94	26.538
254.31	24.242
254.68	30.070
255.05	28.339
255.42	22.109
255.79	20.388
256.16	24.172
256.54	28.146
256.91	29.508
257.28	27.213
257.65	24.841
258.02	27.434
258.39	26.211
258.76	32.416
259.14	29.023
259.51	28.242
259.88	28.329
260.25	28.333
260.62	28.219
260.99	28.415
261.36	27.078
261.73	25.464
262.10	24.451
262.47	28.954
262.85	29.545
263.22	30.130
263.59	29.211
263.96	27.877
264.33	28.900
264.70	28.395
265.07	32.458
265.44	29.932
265.81	28.009
266.18	31.973
266.55	27.679
266.92	26.651
267.29	28.884
267.66	30.599
268.03	28.603
268.40	27.557
268.77	26.879
269.14	26.211
269.51	29.605
269.88	32.787
270.25	27.767
270.62	30.380
270.99	29.091
271.36	28.713
271.73	25.147
272.10	30.261
272.47	30.461
272.84	27.510
273.21	26.854
273.58	26.210
273.95	28.462
274.32	27.757
274.69	27.853
275.06	31.319
275.43	26.802
275.80	26.455
276.17	27.778
276.54	28.358
276.91	28.086
277.28	28.029
277.65	28.187
278.02	27.390
278.39	26.630
278.76	25.835
279.13	27.660
279.50	28.694
279.87	28.801
280.23	23.768
280.60	28.475
280.97	27.796
281.34	28.353
281.71	27.919
282.08	27.409
282.45	27.823
282.82	26.531
283.19	28.918
283.56	25.082
283.92	26.426
284.29	29.700
284.66	28.407
285.03	24.359
285.40	26.584
285.77	26.161
286.14	27.023
286.51	29.072
286.87	25.434
287.24	25.904
287.61	26.457
287.98	25.076
288.35	28.107
288.72	25.148
289.08	26.354
289.45	26.036
289.82	24.398
290.19	24.282
290.56	25.211
290.93	26.391
291.29	25.344
291.66	26.997
292.03	24.695
292.40	24.490
292.77	24.798
293.13	24.493
293.50	23.653
293.87	23.490
294.24	23.333
294.60	23.641
294.97	22.819
295.34	24.456
295.71	22.699
296.08	22.868
296.44	21.324
296.81	22.412
297.18	21.918
297.55	20.165
297.91	21.352
298.28	21.564
298.65	22.235
299.02	21.488
299.38	21.053
299.75	21.028
300.12	20.486
300.48	21.544
300.85	21.597
301.22	20.246
301.59	22.146
301.95	20.113
302.32	18.778
302.69	20.482
303.05	21.328
303.42	21.175
303.79	20.833
304.15	21.030
304.52	20.613
304.89	20.942
305.25	19.669
305.62	20.481
305.99	20.206
306.35	20.665
306.72	22.544
307.09	20.508
307.45	19.565
307.82	19.980
308.19	19.879
308.55	20.251
308.92	20.935
309.29	22.031
309.65	20.858
310.02	20.099
310.38	20.177
310.75	20.777
311.12	21.764
311.48	21.310
311.85	21.462
312.22	19.260
312.58	19.906
312.95	19.216
313.31	21.771
313.68	21.245
314.05	22.132
314.41	21.311
314.78	22.071
315.14	21.506
315.51	20.960
315.87	21.692
316.24	22.648
316.61	21.581
316.97	22.443
317.34	21.340
317.70	23.755
318.07	23.721
318.43	22.109
318.80	24.582
319.16	23.262
319.53	21.937
319.89	23.225
320.26	24.555
320.62	23.759
320.99	24.100
321.35	25.508
321.72	25.488
322.08	25.248
322.45	24.932
322.81	26.444
323.18	25.664
323.54	26.379
323.91	27.936
324.27	25.904
324.64	28.296
325.00	25.705
325.37	27.764
325.73	28.843
326.10	27.981
326.46	28.990
326.83	30.104
327.19	28.976
327.56	29.723
327.92	28.403
328.29	28.629
328.65	29.146
329.01	30.880
329.38	31.171
329.74	31.421
330.11	29.538
330.47	30.918
330.84	30.405
331.20	30.750
331.56	30.936
331.93	31.297
332.29	30.932
332.66	30.980
333.02	30.653
333.38	29.614
333.75	31.481
334.11	31.776
334.48	31.766
334.84	32.031
335.20	30.982
335.57	31.029
335.93	31.818
336.29	30.283
336.66	29.184
337.02	31.020
337.38	31.463
337.75	30.992
338.11	31.034
338.47	30.687
338.84	30.034
339.20	30.160
339.56	31.054
339.93	31.034
340.29	29.791
340.65	29.440
341.02	30.168
341.38	31.932
341.74	30.589
342.11	30.652
342.47	29.865
342.83	30.435
343.20	31.480
343.56	30.393
343.92	30.745
344.28	30.313
344.65	31.085
345.01	30.031
345.37	31.726
345.73	29.696
346.10	29.953
346.46	30.222
346.82	30.112
347.19	30.481
347.55	30.653
347.91	29.123
348.27	30.121
348.63	30.312
349.00	30.052
349.36	29.368
349.72	29.092
350.08	30.238
350.45	29.886
350.81	29.940
351.17	29.173
351.53	29.947
351.89	30.372
352.26	29.925
352.62	30.522
352.98	30.153
353.34	28.902
353.70	29.045
354.07	29.657
354.43	28.778
354.79	29.993
355.15	29.728
355.51	29.605
355.87	29.020
356.24	29.810
356.60	28.751
356.96	28.466
357.32	27.658
357.68	27.965
358.04	28.668
358.40	29.328
358.77	28.436
359.13	28.360
359.49	27.732
359.85	28.136
360.21	28.981
360.57	28.643
360.93	29.267
361.29	28.491
361.66	28.168
362.02	29.923
362.38	29.585
362.74	29.120
363.10	29.780
363.46	28.809
363.82	28.835
364.18	29.134
364.54	29.737
364.90	29.833
365.26	28.897
365.62	29.467
365.98	28.387
366.35	28.993
366.71	28.912
367.07	29.432
367.43	28.825
367.79	29.064
368.15	29.967
368.51	28.890
368.87	28.413
369.23	28.867
369.59	29.577
369.95	29.750
370.31	28.764
370.67	28.955
371.03	29.571
371.39	29.013
371.75	28.748
372.11	28.726
372.47	29.452
372.83	29.254
373.19	28.085
373.55	28.930
373.91	28.698
374.27	29.948
374.63	30.311
374.99	29.045
375.35	29.805
375.71	29.806
376.07	29.567
376.42	29.030
376.78	30.019
377.14	28.821
377.50	30.234
377.86	29.495
378.22	29.521
378.58	29.191
378.94	28.756
379.30	29.115
379.66	30.159
380.02	30.352
380.38	29.954
380.74	30.873
381.09	29.733
381.45	29.886
381.81	30.562
382.17	30.285
382.53	30.175
382.89	29.176
383.25	30.657
383.61	30.613
383.97	29.976
384.32	30.682
384.68	30.626
385.04	30.480
385.40	31.880
385.76	31.184
386.12	29.862
386.48	30.882
386.83	30.572
387.19	30.301
387.55	30.106
387.91	31.279
388.27	31.236
388.62	30.813
388.98	30.682
389.34	31.114
389.70	31.668
390.06	30.255
390.42	30.482
390.77	31.908
391.13	30.751
391.49	31.884
391.85	30.182
392.20	32.088
392.56	31.778
392.92	31.189
393.28	32.062
393.64	31.061
393.99	31.261
394.35	31.600
394.71	32.395
395.07	30.898
395.42	31.525
395.78	33.211
396.14	31.788
396.50	31.413
396.85	32.916
397.21	32.604
397.57	32.097
397.92	32.589
398.28	31.505
398.64	31.808
399.00	30.262
399.35	32.042
399.71	31.685
400.07	31.948
400.42	32.072
400.78	31.771
401.14	31.986
401.49	33.258
401.85	32.209
402.21	32.155
402.57	32.688
402.92	32.210
403.28	31.909
403.63	31.742
403.99	31.057
404.35	30.870
404.70	32.238
405.06	31.576
405.42	31.792
405.77	32.879
406.13	31.334
406.49	32.601
406.84	32.909
407.20	32.197
407.55	31.678
407.91	32.307
408.27	31.920
408.62	32.461
408.98	32.327
409.34	32.434
409.69	32.818
410.05	31.712
410.40	32.889
410.76	32.586
411.11	32.846
411.47	33.108
411.83	32.745
412.18	32.530
412.54	32.839
412.89	33.353
413.25	32.562
413.60	32.165
413.96	33.042
414.31	33.201
414.67	33.572
415.03	33.231
415.38	33.544
415.74	33.232
416.09	33.683
416.45	33.751
416.80	32.436
417.16	32.567
417.51	33.686
417.87	32.434
418.22	33.713
418.58	33.395
418.93	32.771
419.29	34.710
419.64	33.253
420.00	33.175
420.35	33.184
420.71	32.855
421.06	33.640
421.42	34.346
421.77	33.226
422.12	34.461
422.48	33.794
422.83	33.680
423.19	33.634
423.54	34.679
423.90	33.076
424.25	33.493
424.61	32.664
424.96	33.498
425.31	34.554
425.67	34.031
426.02	34.090
426.38	34.328
426.73	33.984
427.09	34.083
427.44	33.643
427.79	34.052
428.15	33.904
428.50	34.213
428.85	34.615
429.21	34.362
429.56	34.057
429.92	33.317
430.27	35.036
430.62	35.369
430.98	34.235
431.33	33.822
431.68	34.339
432.04	34.688
432.39	34.655
432.74	34.475
433.10	35.316
433.45	34.448
433.80	34.871
434.16	35.640
434.51	36.485
434.86	36.428
435.22	35.972
435.57	35.967
435.92	35.114
436.28	35.324
436.63	36.319
436.98	35.802
437.34	35.682
437.69	35.168
438.04	36.171
438.39	35.841
438.75	36.027
439.10	36.152
439.45	34.992
439.81	36.554
440.16	35.335
440.51	36.065
440.86	35.631
441.22	36.120
441.57	37.264
441.92	37.488
442.27	37.576
442.63	37.705
442.98	36.393
443.33	37.664
443.68	38.008
444.03	38.335
444.39	37.356
444.74	37.672
445.09	38.419
445.44	38.725
445.79	37.596
446.15	38.181
446.50	37.571
446.85	38.959
447.20	38.540
447.55	38.232
447.91	37.696
448.26	38.636
448.61	37.407
448.96	39.217
449.31	37.699
449.66	38.889
450.02	38.397
450.37	38.998
450.72	39.128
451.07	38.440
451.42	39.399
451.77	37.910
452.12	39.786
452.47	38.740
452.83	39.471
453.18	38.004
453.53	37.967
453.88	38.818
454.23	37.853
454.58	38.712
454.93	39.138
455.28	40.217
455.63	39.795
455.98	39.330
456.34	38.693
456.69	39.330
457.04	40.248
457.39	39.523
457.74	39.933
458.09	39.813
458.44	40.679
458.79	39.247
459.14	38.595
459.49	38.936
459.84	39.769
460.19	39.311
460.54	40.034
460.89	39.915
461.24	39.598
461.59	39.181
461.94	37.593
462.29	39.586
462.64	38.564
462.99	39.046
463.34	38.741
463.69	38.980
464.04	38.966
464.39	40.471
464.74	38.883
465.09	38.985
465.44	39.592
465.79	39.662
466.14	38.510
466.49	39.526
466.84	40.220
467.19	38.844
467.54	37.838
467.89	37.874
468.24	39.335
468.59	37.580
468.94	37.937
469.29	37.792
469.64	38.398
469.99	38.623
470.34	38.366
470.68	38.209
471.03	39.293
471.38	37.672
471.73	37.841
472.08	39.023
472.43	39.193
472.78	38.728
473.13	38.748
473.48	39.154
473.83	39.466
474.17	39.977
474.52	39.687
474.87	38.704
475.22	40.000
475.57	38.733
475.92	38.377
476.27	38.552
476.61	38.941
476.96	39.103
477.31	38.416
477.66	40.031
478.01	38.943
478.36	37.836
478.70	39.015
479.05	39.315
479.40	39.240
479.75	39.049
480.10	39.270
480.45	39.517
480.79	38.503
481.14	39.108
481.49	38.801
481.84	39.643
482.19	39.183
482.53	39.834
482.88	38.768
483.23	39.262
483.58	37.860
483.92	37.589
484.27	38.400
484.62	38.573
484.97	38.958
485.31	38.648
485.66	38.428
486.01	39.280
486.36	40.150
486.70	41.570
487.05	40.749
487.40	39.146
487.75	39.109
488.09	37.757
488.44	36.467
488.79	37.639
489.13	36.604
489.48	37.010
489.83	37.022
490.17	37.991
490.52	37.274
490.87	37.394
491.22	37.695
491.56	37.969
491.91	37.811
492.26	37.430
492.60	37.167
492.95	36.902
493.30	37.741
493.64	38.239
493.99	37.193
494.34	36.019
494.68	37.002
495.03	36.960
495.37	36.795
495.72	36.780
496.07	37.248
496.41	36.036
496.76	37.698
497.11	37.665
497.45	36.815
497.80	37.228
498.14	37.052
498.49	36.949
498.84	37.112
499.18	36.752
499.53	36.637
499.87	37.055
500.22	36.198
500.56	35.493
500.91	36.201
501.26	37.545
501.60	36.898
501.95	36.083
502.29	36.814
502.64	37.648
502.98	35.893
503.33	36.026
503.67	36.066
504.02	35.902
504.36	36.461
504.71	35.645
505.06	36.107
505.40	36.792
505.75	36.020
506.09	37.201
506.44	37.001
506.78	36.422
507.13	36.376
507.47	36.333
507.82	36.222
508.16	35.421
508.51	35.443
508.85	36.231
509.19	35.718
509.54	35.687
509.88	35.211
510.23	35.891
510.57	35.379
510.92	35.656
511.26	34.632
511.61	34.862
511.95	35.188
512.30	35.549
512.64	34.433
512.98	35.218
513.33	34.929
513.67	35.186
514.02	35.309
514.36	35.550
514.70	35.833
515.05	34.932
515.39	34.856
515.74	35.154
516.08	34.865
516.42	35.426
516.77	34.543
517.11	34.605
517.46	33.987
517.80	35.436
518.14	34.222
518.49	34.924
518.83	33.475
519.17	33.710
519.52	34.329
519.86	34.530
520.20	34.665
520.55	34.611
520.89	33.727
521.23	33.110
521.58	33.785
521.92	32.975
522.26	34.364
522.61	33.854
522.95	34.371
523.29	33.736
523.64	33.016
523.98	35.083
524.32	35.014
524.66	35.287
525.01	33.465
525.35	32.453
525.69	34.223
526.04	33.295
526.38	33.563
526.72	33.333
527.06	33.372
527.41	33.411
527.75	32.898
528.09	32.940
528.43	33.629
528.78	32.832
529.12	33.372
529.46	33.446
529.80	33.009
530.15	33.449
530.49	32.503
530.83	34.120
531.17	33.453
531.51	32.912
531.86	33.233
532.20	33.171
532.54	32.136
532.88	32.364
533.22	33.235
533.57	32.891
533.91	32.941
534.25	33.239
534.59	33.103
534.93	33.220
535.27	32.620
535.62	32.746
535.96	33.295
536.30	31.904
536.64	34.174
536.98	33.087
537.32	32.284
537.66	32.002
538.01	32.205
538.35	32.704
538.69	32.812
539.03	32.373
539.37	32.568
539.71	32.252
540.05	31.595
540.39	31.968
540.73	31.269
541.07	31.821
541.42	31.719
541.76	31.554
542.10	31.906
542.44	31.060
542.78	32.543
543.12	31.406
543.46	31.441
543.80	30.336
544.14	31.478
544.48	32.092
544.82	31.239
545.16	31.187
545.50	30.857
545.84	31.292
546.18	31.914
546.52	30.828
546.86	30.566
547.20	30.980
547.54	31.336
547.88	30.802
548.22	31.053
548.56	31.480
548.90	30.985
549.24	30.517
549.58	30.726
549.92	30.485
550.26	29.903
550.60	30.185
550.94	30.466
551.28	30.099
551.62	30.997
551.96	28.997
552.30	30.593
552.64	31.052
552.98	30.443
553.32	31.576
553.66	30.225
554.00	31.211
554.34	30.502
554.68	29.245
555.02	28.844
555.36	30.178
555.69	29.596
556.03	28.878
556.37	30.413
556.71	29.930
557.05	29.010
557.39	28.932
557.73	29.260
558.07	29.669
558.41	29.967
558.75	28.533
559.08	29.297
559.42	28.738
559.76	29.308
560.10	29.136
560.44	28.496
560.78	30.563
561.12	29.433
561.45	29.927
561.79	30.098
562.13	29.452
562.47	28.237
562.81	29.430
563.15	29.609
563.48	28.589
563.82	29.081
564.16	29.194
564.50	28.546
564.84	29.145
565.17	28.353
565.51	29.056
565.85	29.157
566.19	27.650
566.52	27.736
566.86	29.428
567.20	28.983
567.54	28.784
567.88	30.122
568.21	29.051
568.55	29.592
568.89	30.413
569.23	30.292
569.56	29.465
569.90	30.185
570.24	30.422
570.57	30.083
570.91	30.220
571.25	29.968
571.59	30.309
571.92	29.851
572.26	29.936
572.60	29.129
572.93	29.251
573.27	29.194
573.61	28.984
573.95	29.133
574.28	30.227
574.62	29.559
574.96	29.687
575.29	29.015
575.63	29.476
575.97	29.246
576.30	28.497
576.64	29.611
576.98	29.408
577.31	29.325
577.65	30.169
577.98	30.196
578.32	29.822
578.66	29.212
578.99	28.855
579.33	28.324
579.67	28.241
580.00	28.636
580.34	28.861
580.67	28.420
581.01	29.057
581.35	28.911
581.68	29.317
582.02	29.577
582.35	30.286
582.69	29.798
583.02	29.434
583.36	28.548
583.70	28.516
584.03	27.982
584.37	28.092
584.70	27.848
585.04	28.272
585.37	28.082
585.71	29.040
586.04	29.150
586.38	28.807
586.72	28.027
587.05	27.782
587.39	28.472
587.72	28.589
588.06	28.844
588.39	28.479
588.73	27.751
589.06	27.991
589.40	28.027
589.73	27.539
590.07	26.989
590.40	27.755
590.73	28.208
591.07	27.215
591.40	27.605
591.74	26.590
592.07	28.015
592.41	27.090
592.74	28.364
593.08	28.599
593.41	28.580
593.75	28.218
594.08	28.113
594.41	27.115
594.75	27.101
595.08	28.028
595.42	27.597
595.75	27.672
596.09	28.194
596.42	27.123
596.75	27.017
597.09	26.222
597.42	26.857
597.75	26.460
598.09	26.905
598.42	27.583
598.76	27.054
599.09	27.447
599.42	27.221
599.76	27.237
600.09	27.895
600.42	26.894
600.76	26.816
601.09	27.215
601.42	26.021
601.76	26.897
602.09	25.840
602.42	26.390
602.76	25.720
603.09	26.615
603.42	26.951
603.76	26.920
604.09	27.608
604.42	26.569
604.76	25.913
605.09	25.728
605.42	25.758
605.75	26.577
606.09	26.502
606.42	26.158
606.75	25.862
607.09	25.998
607.42	25.819
607.75	25.518
608.08	25.651
608.42	25.635
608.75	25.332
609.08	25.042
609.41	25.584
609.75	25.402
610.08	26.297
610.41	25.106
610.74	26.092
611.07	25.444
611.41	25.426
611.74	25.358
612.07	25.900
612.40	25.095
612.73	24.743
613.07	25.477
613.40	25.217
613.73	25.903
614.06	24.583
614.39	24.684
614.72	25.182
615.06	24.928
615.39	24.698
615.72	24.171
616.05	24.964
616.38	24.117
616.71	24.556
617.05	23.589
617.38	25.147
617.71	24.028
618.04	24.609
618.37	24.754
618.70	25.000
619.03	23.835
619.36	24.044
619.69	22.870
620.03	24.419
620.36	24.172
620.69	23.442
621.02	23.294
621.35	23.585
621.68	23.717
622.01	24.270
622.34	23.291
622.67	23.918
623.00	21.660
623.33	23.424
623.66	23.606
623.99	23.502
624.32	24.366
624.65	23.681
624.99	24.122
625.32	23.775
625.65	23.399
625.98	21.966
626.31	22.254
626.64	23.443
626.97	22.881
627.30	22.020
627.63	23.031
627.96	22.973
628.29	22.568
628.62	19.983
628.95	22.174
629.28	21.240
629.61	22.727
629.94	21.925
630.26	21.525
630.59	22.107
630.92	21.645
631.25	21.556
631.58	22.222
