SpectraSuite Data File
++++++++++++++++++++++++++++++++++++
Date: Thu May 14 16:02:14 PDT 2015
User: schluterlab
Dark Spectrum Present: Yes
Reference Spectrum Present: Yes
Number of Sampled Component Spectra: 1
Spectrometers: USB2E3373
Integration Time (usec): 3000 (USB2E3373)
Spectra Averaged: 3 (USB2E3373)
Boxcar Smoothing: 0 (USB2E3373)
Correct for Electrical Dark: No (USB2E3373)
Strobe/Lamp Enabled: No (USB2E3373)
Correct for Detector Non-linearity: No (USB2E3373)
Correct for Stray Light: No (USB2E3373)
Number of Pixels in Processed Spectrum: 2048
>>>>>Begin Processed Spectral Data<<<<<
178.53	0.000
178.91	285.714
179.29	-1900.000
179.67	-1200.000
180.04	192.857
180.42	150.000
180.80	400.000
181.18	-600.000
181.56	-900.000
181.94	450.000
182.31	-400.000
182.69	433.333
183.07	-600.000
183.45	425.000
183.83	-233.333
184.20	-200.000
184.58	1000.000
184.96	-325.000
185.34	-100.000
185.72	-200.000
186.09	255.556
186.47	800.000
186.85	600.000
187.23	-255.556
187.61	-2400.000
187.98	580.000
188.36	400.000
188.74	-475.000
189.12	-433.333
189.49	-93.750
189.87	-212.500
190.25	-211.111
190.63	-400.000
191.00	-177.778
191.38	0.000
191.76	-525.000
192.14	-250.000
192.51	750.000
192.89	-150.000
193.27	0.000
193.65	-285.714
194.02	-2700.000
194.40	-28.571
194.78	200.000
195.15	0.000
195.53	-109.091
195.91	0.000
196.29	-225.000
196.66	-61.538
197.04	-1500.000
197.42	-257.143
197.79	-850.000
198.17	-250.000
198.55	-328.571
198.92	-166.667
199.30	-300.000
199.68	-154.545
200.05	-100.000
200.43	-950.000
200.81	214.286
201.18	0.000
201.56	266.667
201.94	0.000
202.31	666.667
202.69	-266.667
203.07	2000.000
203.44	-88.889
203.82	-275.000
204.19	-66.667
204.57	-366.667
204.95	-62.500
205.32	-2100.000
205.70	425.000
206.08	-200.000
206.45	-116.667
206.83	420.000
207.20	-183.333
207.58	-580.000
207.96	-216.667
208.33	-33.333
208.71	158.333
209.08	0.000
209.46	0.000
209.84	316.667
210.21	450.000
210.59	500.000
210.96	533.333
211.34	-250.000
211.71	-237.500
212.09	-1900.000
212.46	0.000
212.84	1000.000
213.22	-260.000
213.59	-350.000
213.97	-70.000
214.34	-266.667
214.72	233.333
215.09	-450.000
215.47	0.000
215.84	171.429
216.22	1100.000
216.59	-200.000
216.97	-440.000
217.34	-450.000
217.72	-125.000
218.09	-300.000
218.47	-450.000
218.84	0.000
219.22	180.000
219.59	-76.471
219.97	-80.000
220.34	850.000
220.72	-211.111
221.09	-15.385
221.47	-500.000
221.84	-80.000
222.22	-271.429
222.59	0.000
222.97	-137.500
223.34	-200.000
223.72	-1300.000
224.09	-475.000
224.46	-425.000
224.84	-180.000
225.21	-271.429
225.59	-300.000
225.96	-400.000
226.34	-23.077
226.71	400.000
227.08	-650.000
227.46	-66.667
227.83	-400.000
228.21	-42.105
228.58	225.000
228.95	550.000
229.33	-91.667
229.70	-50.000
230.08	15.789
230.45	130.000
230.82	-200.000
231.20	-35.714
231.57	-158.333
231.95	-163.636
232.32	-100.000
232.69	-45.000
233.07	-300.000
233.44	-94.118
233.81	-120.000
234.19	-22.222
234.56	-40.909
234.93	-13.793
235.31	-26.316
235.68	5.556
236.05	-50.000
236.43	-26.923
236.80	4.000
237.17	-25.926
237.55	-36.364
237.92	-170.000
238.29	-29.032
238.67	-2.273
239.04	-16.667
239.41	7.143
239.79	-10.870
240.16	-9.259
240.53	-2.174
240.91	-7.843
241.28	-3.279
241.65	7.463
242.02	21.622
242.40	-10.769
242.77	-2.667
243.14	-4.878
243.51	-2.632
243.89	12.821
244.26	21.782
244.63	9.804
245.00	11.215
245.38	8.772
245.75	-3.540
246.12	21.429
246.49	13.178
246.87	14.286
247.24	15.232
247.61	17.105
247.98	14.765
248.36	6.790
248.73	14.724
249.10	22.404
249.47	24.378
249.84	24.084
250.22	18.653
250.59	20.556
250.96	18.636
251.33	19.898
251.70	25.214
252.08	25.833
252.45	18.852
252.82	22.727
253.19	21.875
253.56	21.673
253.94	20.385
254.31	21.970
254.68	28.671
255.05	23.779
255.42	23.469
255.79	18.447
256.16	23.510
256.54	22.517
256.91	21.311
257.28	20.656
257.65	22.293
258.02	17.404
258.39	20.228
258.76	26.911
259.14	23.851
259.51	21.614
259.88	24.929
260.25	21.389
260.62	25.753
260.99	25.956
261.36	25.469
261.73	19.629
262.10	24.725
262.47	23.592
262.85	27.273
263.22	21.039
263.59	18.158
263.96	25.320
264.33	22.762
264.70	24.444
265.07	20.525
265.44	25.170
265.81	22.222
266.18	22.449
266.55	24.330
266.92	21.640
267.29	25.602
267.66	23.725
268.03	24.891
268.40	21.712
268.77	24.374
269.14	22.026
269.51	22.588
269.88	25.410
270.25	24.547
270.62	25.738
270.99	26.869
271.36	25.347
271.73	25.147
272.10	25.852
272.47	26.854
272.84	23.494
273.21	24.048
273.58	25.202
273.95	23.077
274.32	23.574
274.69	24.178
275.06	25.641
275.43	21.811
275.80	24.339
276.17	22.963
276.54	22.761
276.91	22.182
277.28	25.678
277.65	23.698
278.02	24.816
278.39	22.464
278.76	22.671
279.13	21.986
279.50	24.742
279.87	23.435
280.23	18.310
280.60	22.712
280.97	22.533
281.34	23.939
281.71	25.888
282.08	23.920
282.45	24.386
282.82	24.019
283.19	22.779
283.56	24.098
283.92	23.423
284.29	22.749
284.66	22.332
285.03	20.192
285.40	23.493
285.77	22.291
286.14	22.443
286.51	22.527
286.87	20.695
287.24	22.139
287.61	23.468
287.98	23.716
288.35	23.225
288.72	21.154
289.08	24.890
289.45	21.746
289.82	20.633
290.19	21.264
290.56	22.676
290.93	21.683
291.29	20.386
291.66	20.799
292.03	19.539
292.40	21.497
292.77	22.102
293.13	20.704
293.50	20.368
293.87	21.611
294.24	21.733
294.60	20.101
294.97	19.329
295.34	20.487
295.71	19.546
296.08	18.605
296.44	19.240
296.81	19.001
297.18	17.933
297.55	18.514
297.91	19.929
298.28	17.773
298.65	18.193
299.02	19.008
299.38	17.963
299.75	18.224
300.12	19.097
300.48	19.816
300.85	18.673
301.22	18.680
301.59	17.009
301.95	18.418
302.32	18.000
302.69	18.072
303.05	17.410
303.42	17.406
303.79	18.542
304.15	18.717
304.52	17.653
304.89	16.859
305.25	17.495
305.62	16.928
305.99	17.320
306.35	17.742
306.72	18.201
307.09	16.751
307.45	17.805
307.82	18.063
308.19	17.558
308.55	18.419
308.92	18.111
309.29	17.529
309.65	17.641
310.02	16.535
310.38	17.913
310.75	18.155
311.12	18.121
311.48	17.595
311.85	18.898
312.22	18.596
312.58	17.465
312.95	16.922
313.31	18.157
313.68	18.132
314.05	18.790
314.41	17.122
314.78	17.984
315.14	19.328
315.51	18.006
315.87	18.362
316.24	19.178
316.61	18.739
316.97	19.095
317.34	18.254
317.70	20.524
318.07	19.048
318.43	19.388
318.80	20.401
319.16	19.313
319.53	18.680
319.89	19.194
320.26	20.374
320.62	19.326
320.99	20.683
321.35	21.719
321.72	20.558
322.08	19.297
322.45	21.229
322.81	22.653
323.18	21.062
323.54	22.155
323.91	21.797
324.27	22.117
324.64	22.082
325.00	22.056
325.37	22.195
325.73	23.140
326.10	22.871
326.46	23.290
326.83	24.660
327.19	22.677
327.56	23.794
327.92	21.951
328.29	23.387
328.65	22.864
329.01	22.758
329.38	24.010
329.74	23.801
330.11	23.801
330.47	24.347
330.84	23.859
331.20	23.917
331.56	23.570
331.93	22.929
332.29	24.068
332.66	24.419
333.02	23.367
333.38	23.238
333.75	24.242
334.11	24.437
334.48	24.505
334.84	25.149
335.20	22.502
335.57	24.874
335.93	23.719
336.29	23.295
336.66	23.213
337.02	23.829
337.38	25.595
337.75	23.388
338.11	24.138
338.47	23.325
338.84	22.927
339.20	22.409
339.56	23.558
339.93	22.989
340.29	22.947
340.65	24.169
341.02	23.703
341.38	23.686
341.74	23.325
342.11	23.652
342.47	22.399
342.83	23.913
343.20	23.957
343.56	23.416
343.92	23.379
344.28	23.984
344.65	23.953
345.01	22.855
345.37	23.328
345.73	22.447
346.10	24.025
346.46	23.813
346.82	22.846
347.19	23.147
347.55	23.445
347.91	23.105
348.27	23.293
348.63	24.219
349.00	23.117
349.36	22.230
349.72	22.842
350.08	23.403
350.45	22.510
350.81	23.002
351.17	21.729
351.53	23.654
351.89	24.222
352.26	23.060
352.62	22.687
352.98	23.817
353.34	23.152
353.70	22.727
354.07	23.920
354.43	23.235
354.79	23.111
355.15	23.326
355.51	22.807
355.87	22.364
356.24	23.118
356.60	22.321
356.96	22.683
357.32	22.082
357.68	22.182
358.04	21.707
358.40	23.060
358.77	22.953
359.13	22.378
359.49	22.007
359.85	22.190
360.21	22.669
360.57	23.331
360.93	22.144
361.29	23.579
361.66	22.520
362.02	23.312
362.38	23.050
362.74	21.997
363.10	24.072
363.46	23.338
363.82	23.722
364.18	22.238
364.54	22.683
364.90	23.478
365.26	23.310
365.62	23.133
365.98	23.281
366.35	23.356
366.71	24.082
367.07	23.275
367.43	23.112
367.79	23.557
368.15	24.615
368.51	23.816
368.87	23.383
369.23	23.333
369.59	23.156
369.95	23.259
370.31	23.700
370.67	24.072
371.03	23.546
371.39	22.901
371.75	23.796
372.11	22.900
372.47	24.103
372.83	23.364
373.19	22.682
373.55	23.848
373.91	22.904
374.27	23.351
374.63	24.290
374.99	23.210
375.35	23.377
375.71	23.548
376.07	23.693
376.42	24.496
376.78	25.109
377.14	23.144
377.50	24.225
377.86	24.815
378.22	24.431
378.58	24.495
378.94	24.178
379.30	23.960
379.66	24.574
380.02	24.409
380.38	25.173
380.74	24.169
381.09	24.274
381.45	24.091
381.81	24.883
382.17	24.644
382.53	24.854
382.89	24.153
383.25	24.267
383.61	24.190
383.97	23.793
384.32	24.581
384.68	23.550
385.04	24.407
385.40	25.162
385.76	25.557
386.12	25.194
386.48	24.824
386.83	25.030
387.19	24.855
387.55	23.650
387.91	23.402
388.27	24.480
388.62	25.601
388.98	25.155
389.34	25.044
389.70	24.753
390.06	24.156
390.42	24.578
390.77	25.527
391.13	25.117
391.49	24.457
391.85	24.242
392.20	24.852
392.56	25.399
392.92	24.646
393.28	25.815
393.64	24.972
393.99	25.625
394.35	25.584
394.71	24.970
395.07	25.150
395.42	24.729
395.78	25.655
396.14	24.955
396.50	24.287
396.85	25.760
397.21	25.858
397.57	25.088
397.92	25.487
398.28	24.498
398.64	24.199
399.00	24.974
399.35	24.398
399.71	25.761
400.07	25.716
400.42	25.262
400.78	24.653
401.14	25.839
401.49	25.810
401.85	24.593
402.21	25.261
402.57	25.939
402.92	25.473
403.28	24.707
403.63	24.523
403.99	24.406
404.35	26.038
404.70	25.949
405.06	24.674
405.42	25.995
405.77	25.573
406.13	25.608
406.49	25.225
406.84	25.263
407.20	25.992
407.55	25.015
407.91	25.079
408.27	24.912
408.62	25.364
408.98	25.189
409.34	25.279
409.69	25.525
410.05	26.143
410.40	25.928
410.76	25.687
411.11	25.073
411.47	25.061
411.83	25.573
412.18	25.904
412.54	24.422
412.89	25.204
413.25	25.226
413.60	25.273
413.96	24.942
414.31	24.306
414.67	25.283
415.03	25.169
415.38	24.716
415.74	25.046
416.09	25.787
416.45	25.110
416.80	24.725
417.16	25.287
417.51	25.405
417.87	24.954
418.22	25.030
418.58	24.659
418.93	25.378
419.29	25.092
419.64	24.790
420.00	24.451
420.35	24.818
420.71	24.182
421.06	25.417
421.42	24.943
421.77	24.286
422.12	24.630
422.48	25.550
422.83	26.013
423.19	25.517
423.54	24.945
423.90	25.124
424.25	25.013
424.61	24.742
424.96	26.194
425.31	25.690
425.67	24.691
426.02	24.516
426.38	25.718
426.73	24.833
427.09	26.009
427.44	24.850
427.79	25.484
428.15	25.114
428.50	25.000
428.85	24.684
429.21	25.745
429.56	25.321
429.92	24.963
430.27	24.723
430.62	24.475
430.98	25.184
431.33	25.562
431.68	24.952
432.04	25.038
432.39	24.692
432.74	24.886
433.10	24.824
433.45	25.028
433.80	25.161
434.16	25.465
434.51	26.053
434.86	25.516
435.22	25.930
435.57	25.708
435.92	24.485
436.28	25.313
436.63	26.270
436.98	24.960
437.34	25.705
437.69	24.271
438.04	25.066
438.39	25.388
438.75	25.235
439.10	26.691
439.45	25.154
439.81	25.650
440.16	25.308
440.51	25.139
440.86	24.847
441.22	24.330
441.57	26.101
441.92	25.897
442.27	26.818
442.63	25.832
442.98	25.880
443.33	25.408
443.68	26.511
444.03	26.905
444.39	25.613
444.74	26.289
445.09	25.342
445.44	26.080
445.79	25.718
446.15	26.259
446.50	24.961
446.85	26.167
447.20	25.870
447.55	26.674
447.91	26.230
448.26	26.110
448.61	25.983
448.96	26.127
449.31	26.405
449.66	25.599
450.02	26.213
450.37	25.839
450.72	25.727
451.07	26.253
451.42	25.650
451.77	25.236
452.12	26.580
452.47	25.609
452.83	26.239
453.18	26.153
453.53	25.215
453.88	25.456
454.23	26.158
454.58	26.407
454.93	25.850
455.28	26.249
455.63	25.696
455.98	25.531
456.34	25.677
456.69	26.161
457.04	26.300
457.39	25.222
457.74	25.895
458.09	24.986
458.44	25.862
458.79	25.735
459.14	25.275
459.49	25.467
459.84	26.338
460.19	25.930
460.54	26.292
460.89	26.310
461.24	26.034
461.59	26.231
461.94	25.328
462.29	26.316
462.64	26.192
462.99	25.487
463.34	24.984
463.69	24.560
464.04	26.181
464.39	26.289
464.74	24.629
465.09	25.894
465.44	26.556
465.79	25.806
466.14	25.378
466.49	25.947
466.84	25.895
467.19	25.665
467.54	24.971
467.89	25.115
468.24	24.931
468.59	24.725
468.94	24.942
469.29	24.475
469.64	25.238
469.99	24.920
470.34	25.062
470.68	25.359
471.03	24.361
471.38	24.657
471.73	25.098
472.08	24.810
472.43	24.684
472.78	25.756
473.13	25.537
473.48	25.196
473.83	25.131
474.17	24.560
474.52	25.436
474.87	25.415
475.22	25.465
475.57	25.026
475.92	24.689
476.27	24.494
476.61	25.441
476.96	23.931
477.31	25.149
477.66	25.289
478.01	24.759
478.36	24.925
478.70	24.581
479.05	25.665
479.40	24.383
479.75	25.600
480.10	24.586
480.45	25.661
480.79	25.306
481.14	24.357
481.49	24.671
481.84	24.891
482.19	25.118
482.53	25.142
482.88	25.210
483.23	24.544
483.58	24.192
483.92	23.892
484.27	24.513
484.62	24.340
484.97	24.844
485.31	24.498
485.66	23.927
486.01	24.321
486.36	25.226
486.70	26.268
487.05	26.288
487.40	25.261
487.75	25.216
488.09	25.247
488.44	24.414
488.79	24.755
489.13	24.439
489.48	23.029
489.83	23.260
490.17	23.005
490.52	23.112
490.87	23.604
491.22	24.263
491.56	24.531
491.91	23.681
492.26	23.756
492.60	24.224
492.95	23.080
493.30	23.084
493.64	22.908
493.99	23.553
494.34	23.084
494.68	23.426
495.03	24.141
495.37	22.858
495.72	22.857
496.07	23.094
496.41	23.466
496.76	23.269
497.11	23.524
497.45	23.263
497.80	23.501
498.14	22.676
498.49	22.702
498.84	23.309
499.18	23.167
499.53	23.632
499.87	22.989
500.22	22.173
500.56	22.132
500.91	22.929
501.26	23.409
501.60	22.536
501.95	22.970
502.29	22.949
502.64	23.262
502.98	22.994
503.33	22.549
503.67	22.634
504.02	22.198
504.36	23.235
504.71	22.692
505.06	22.556
505.40	22.989
505.75	22.541
506.09	22.145
506.44	22.609
506.78	23.394
507.13	23.329
507.47	22.406
507.82	22.206
508.16	22.132
508.51	22.504
508.85	22.485
509.19	22.406
509.54	22.382
509.88	22.341
510.23	23.118
510.57	22.910
510.92	22.738
511.26	21.693
511.61	22.163
511.95	22.060
512.30	22.452
512.64	21.589
512.98	23.312
513.33	22.681
513.67	22.132
514.02	22.483
514.36	21.586
514.70	21.562
515.05	21.898
515.39	21.942
515.74	23.118
516.08	22.240
516.42	21.873
516.77	21.767
517.11	21.403
517.46	23.012
517.80	22.715
518.14	23.069
518.49	22.017
518.83	22.512
519.17	22.079
519.52	21.908
519.86	21.911
520.20	22.311
520.55	21.139
520.89	22.072
521.23	22.111
521.58	22.260
521.92	20.567
522.26	21.649
522.61	22.222
522.95	22.030
523.29	21.322
523.64	22.365
523.98	22.419
524.32	23.438
524.66	22.766
525.01	20.838
525.35	21.654
525.69	21.578
526.04	21.527
526.38	22.184
526.72	21.511
527.06	21.408
527.41	21.808
527.75	21.793
528.09	21.960
528.43	22.025
528.78	21.503
529.12	21.617
529.46	22.428
529.80	22.140
530.15	22.551
530.49	21.234
530.83	22.196
531.17	21.924
531.51	21.119
531.86	22.476
532.20	22.500
532.54	21.484
532.88	21.636
533.22	21.155
533.57	22.389
533.91	22.166
534.25	22.159
534.59	21.897
534.93	21.619
535.27	20.958
535.62	22.172
535.96	22.545
536.30	21.563
536.64	22.883
536.98	22.202
537.32	21.914
537.66	21.959
538.01	20.544
538.35	22.046
538.69	21.034
539.03	21.643
539.37	22.085
539.71	21.261
540.05	21.703
540.39	21.760
540.73	21.008
541.07	21.582
541.42	21.500
541.76	21.174
542.10	21.713
542.44	20.767
542.78	21.715
543.12	21.454
543.46	20.818
543.80	21.163
544.14	21.305
544.48	21.454
544.82	22.202
545.16	21.348
545.50	22.409
545.84	21.372
546.18	22.099
546.52	21.401
546.86	21.069
547.20	20.992
547.54	21.348
547.88	20.916
548.22	20.526
548.56	21.767
548.90	21.731
549.24	21.398
549.58	21.893
549.92	21.173
550.26	22.265
550.60	21.123
550.94	19.534
551.28	20.594
551.62	20.620
551.96	20.453
552.30	21.989
552.64	21.717
552.98	20.898
553.32	21.286
553.66	20.643
554.00	20.933
554.34	21.622
554.68	20.658
555.02	21.682
555.36	21.105
555.69	20.115
556.03	20.618
556.37	21.464
556.71	21.179
557.05	20.703
557.39	20.770
557.73	19.881
558.07	20.132
558.41	20.731
558.75	19.540
559.08	20.738
559.42	20.370
559.76	20.828
560.10	19.826
560.44	20.251
560.78	21.125
561.12	20.197
561.45	21.290
561.79	21.062
562.13	20.518
562.47	19.359
562.81	20.506
563.15	20.518
563.48	20.572
563.82	20.314
564.16	19.624
564.50	19.905
564.84	20.295
565.17	21.059
565.51	20.253
565.85	20.190
566.19	19.643
566.52	20.831
566.86	20.600
567.20	19.848
567.54	20.499
567.88	20.693
568.21	20.306
568.55	20.144
568.89	21.471
569.23	21.377
569.56	21.219
569.90	21.525
570.24	21.821
570.57	21.264
570.91	21.066
571.25	20.827
571.59	21.820
571.92	21.615
572.26	20.831
572.60	20.857
572.93	21.514
573.27	21.551
573.61	21.096
573.95	20.879
574.28	21.841
574.62	21.305
574.96	20.975
575.29	21.304
575.63	20.975
575.97	21.102
576.30	20.651
576.64	21.618
576.98	20.729
577.31	21.397
577.65	21.461
577.98	21.235
578.32	20.978
578.66	21.410
578.99	20.930
579.33	21.254
579.67	21.170
580.00	20.814
580.34	20.746
580.67	20.874
581.01	20.727
581.35	21.255
581.68	21.100
582.02	21.124
582.35	21.424
582.69	21.536
583.02	21.230
583.36	20.969
583.70	20.813
584.03	21.046
584.37	20.662
584.70	20.367
585.04	20.274
585.37	20.968
585.71	20.561
586.04	20.960
586.38	21.054
586.72	20.105
587.05	20.312
587.39	20.868
587.72	20.502
588.06	20.044
588.39	20.115
588.73	20.476
589.06	20.260
589.40	20.283
589.73	20.501
590.07	20.027
590.40	20.419
590.73	19.689
591.07	19.620
591.40	19.557
591.74	19.754
592.07	20.341
592.41	19.677
592.74	19.737
593.08	20.318
593.41	20.677
593.75	20.259
594.08	20.327
594.41	20.096
594.75	20.392
595.08	19.751
595.42	19.935
595.75	20.342
596.09	20.332
596.42	19.455
596.75	19.568
597.09	20.202
597.42	19.388
597.75	19.404
598.09	20.357
598.42	19.300
598.76	19.450
599.09	19.865
599.42	19.578
599.76	19.776
600.09	19.953
600.42	19.920
600.76	19.881
601.09	19.615
601.42	20.014
601.76	19.690
602.09	20.050
602.42	19.411
602.76	19.594
603.09	19.383
603.42	19.834
603.76	19.168
604.09	19.375
604.42	19.303
604.76	19.559
605.09	19.585
605.42	19.059
605.75	19.423
606.09	19.186
606.42	19.591
606.75	18.666
607.09	19.009
607.42	18.960
607.75	19.930
608.08	18.587
608.42	19.186
608.75	19.237
609.08	19.312
609.41	19.232
609.75	17.991
610.08	19.129
610.41	18.989
610.74	18.992
611.07	18.162
611.41	19.596
611.74	18.753
612.07	19.495
612.40	18.346
612.73	19.315
613.07	19.022
613.40	18.912
613.73	18.440
614.06	19.235
614.39	18.562
614.72	19.214
615.06	17.661
615.39	18.946
615.72	19.005
616.05	18.067
616.38	19.677
616.71	17.973
617.05	18.797
617.38	18.566
617.71	19.006
618.04	19.266
618.37	19.235
618.70	18.439
619.03	17.742
619.36	17.571
619.69	17.809
620.03	18.267
620.36	17.791
620.69	17.582
621.02	18.701
621.35	18.287
621.68	18.583
622.01	17.580
622.34	17.085
622.67	18.076
623.00	16.059
623.33	18.646
623.66	18.677
623.99	17.051
624.32	18.194
624.65	17.053
624.99	18.466
625.32	18.419
625.65	18.543
625.98	17.153
626.31	17.080
626.64	17.143
626.97	17.254
627.30	15.945
627.63	17.254
627.96	18.393
628.29	16.809
628.62	16.121
628.95	17.266
629.28	17.077
629.61	16.667
629.94	16.736
630.26	17.966
630.59	16.839
630.92	16.710
631.25	16.905
631.58	18.456
