SpectraSuite Data File
++++++++++++++++++++++++++++++++++++
Date: Thu May 14 16:03:33 PDT 2015
User: schluterlab
Dark Spectrum Present: Yes
Reference Spectrum Present: Yes
Number of Sampled Component Spectra: 1
Spectrometers: USB2E3373
Integration Time (usec): 3000 (USB2E3373)
Spectra Averaged: 3 (USB2E3373)
Boxcar Smoothing: 0 (USB2E3373)
Correct for Electrical Dark: No (USB2E3373)
Strobe/Lamp Enabled: No (USB2E3373)
Correct for Detector Non-linearity: No (USB2E3373)
Correct for Stray Light: No (USB2E3373)
Number of Pixels in Processed Spectrum: 2048
>>>>>Begin Processed Spectral Data<<<<<
178.53	0.000
178.91	228.571
179.29	-2100.000
179.67	-1300.000
180.04	200.000
180.42	170.000
180.80	320.000
181.18	-1300.000
181.56	-900.000
181.94	350.000
182.31	-325.000
182.69	666.667
183.07	-500.000
183.45	475.000
183.83	-200.000
184.20	-200.000
184.58	1900.000
184.96	-425.000
185.34	-211.111
185.72	-260.000
186.09	244.444
186.47	850.000
186.85	500.000
187.23	-144.444
187.61	-2400.000
187.98	300.000
188.36	650.000
188.74	-350.000
189.12	-366.667
189.49	-43.750
189.87	-237.500
190.25	-144.444
190.63	-160.000
191.00	-244.444
191.38	0.000
191.76	-575.000
192.14	-250.000
192.51	700.000
192.89	16.667
193.27	0.000
193.65	-128.571
194.02	-2100.000
194.40	-285.714
194.78	357.143
195.15	0.000
195.53	-81.818
195.91	0.000
196.29	-125.000
196.66	-107.692
197.04	-2300.000
197.42	-357.143
197.79	-800.000
198.17	-212.500
198.55	-314.286
198.92	-200.000
199.30	-200.000
199.68	-145.455
200.05	-107.143
200.43	-950.000
200.81	328.571
201.18	0.000
201.56	200.000
201.94	0.000
202.31	433.333
202.69	-55.556
203.07	2400.000
203.44	-122.222
203.82	-325.000
204.19	-91.667
204.57	-316.667
204.95	-325.000
205.32	-800.000
205.70	325.000
206.08	-66.667
206.45	-316.667
206.83	620.000
207.20	-250.000
207.58	-540.000
207.96	-283.333
208.33	-183.333
208.71	166.667
209.08	-33.333
209.46	0.000
209.84	200.000
210.21	1150.000
210.59	800.000
210.96	800.000
211.34	-450.000
211.71	-175.000
212.09	-1500.000
212.46	0.000
212.84	1550.000
213.22	-460.000
213.59	-375.000
213.97	-110.000
214.34	-333.333
214.72	400.000
215.09	-275.000
215.47	0.000
215.84	328.571
216.22	950.000
216.59	-300.000
216.97	-340.000
217.34	-500.000
217.72	-100.000
218.09	-225.000
218.47	-325.000
218.84	0.000
219.22	240.000
219.59	-58.824
219.97	-40.000
220.34	1100.000
220.72	-166.667
221.09	-76.923
221.47	-533.333
221.84	-180.000
222.22	-171.429
222.59	0.000
222.97	-37.500
223.34	-320.000
223.72	-1400.000
224.09	-300.000
224.46	-425.000
224.84	-40.000
225.21	-285.714
225.59	-350.000
225.96	-525.000
226.34	-46.154
226.71	283.333
227.08	-550.000
227.46	-80.000
227.83	-375.000
228.21	-73.684
228.58	300.000
228.95	500.000
229.33	-100.000
229.70	-190.000
230.08	-36.842
230.45	220.000
230.82	-400.000
231.20	-78.571
231.57	-66.667
231.95	-81.818
232.32	-109.091
232.69	-25.000
233.07	-475.000
233.44	-58.824
233.81	-140.000
234.19	-77.778
234.56	-45.455
234.93	-10.345
235.31	-100.000
235.68	-83.333
236.05	-140.000
236.43	-30.769
236.80	0.000
237.17	-51.852
237.55	-30.303
237.92	-220.000
238.29	-45.161
238.67	-40.909
239.04	-38.889
239.41	-28.571
239.79	-10.870
240.16	-40.741
240.53	-21.739
240.91	-58.824
241.28	-24.590
241.65	-16.418
242.02	-29.730
242.40	-29.231
242.77	-25.333
243.14	-19.512
243.51	-32.895
243.89	-37.179
244.26	-16.832
244.63	-7.843
245.00	-1.869
245.38	-13.158
245.75	-12.389
246.12	-9.524
246.49	-10.853
246.87	-2.143
247.24	-3.974
247.61	-5.921
247.98	-14.094
248.36	-10.494
248.73	-15.337
249.10	-9.290
249.47	-0.995
249.84	-3.665
250.22	-6.736
250.59	-8.889
250.96	-2.727
251.33	-13.265
251.70	-0.427
252.08	-2.083
252.45	-4.098
252.82	-4.959
253.19	-8.203
253.56	-0.380
253.94	-6.154
254.31	-4.545
254.68	-3.147
255.05	0.000
255.42	-2.041
255.79	-7.767
256.16	-5.960
256.54	-4.967
256.91	-1.639
257.28	-6.230
257.65	-6.688
258.02	-6.785
258.39	-2.564
258.76	0.000
259.14	-4.310
259.51	-3.746
259.88	-3.399
260.25	-4.444
260.62	-5.205
260.99	-2.732
261.36	0.000
261.73	-5.570
262.10	-3.297
262.47	-2.949
262.85	0.505
263.22	-4.935
263.59	-6.579
263.96	-2.813
264.33	-4.348
264.70	-2.469
265.07	-0.955
265.44	1.814
265.81	-3.009
266.18	-1.814
266.55	-1.563
266.92	-4.100
267.29	-0.219
267.66	-2.882
268.03	-1.092
268.40	-3.132
268.77	-5.467
269.14	-2.643
269.51	-1.754
269.88	-0.615
270.25	-2.817
270.62	-1.688
270.99	-1.414
271.36	-1.188
271.73	-2.358
272.10	-1.804
272.47	-0.601
272.84	0.602
273.21	-1.603
273.58	-1.210
273.95	-1.538
274.32	-3.612
274.69	-4.062
275.06	-2.015
275.43	-3.882
275.80	-0.705
276.17	-3.889
276.54	-1.866
276.91	-1.610
277.28	-0.904
277.65	-0.539
278.02	-0.368
278.39	-2.174
278.76	-2.988
279.13	-1.773
279.50	-0.515
279.87	-1.252
280.23	-4.754
280.60	0.508
280.97	-1.151
281.34	-3.565
281.71	-1.523
282.08	-1.827
282.45	-2.619
282.82	-1.413
283.19	-3.231
283.56	-1.803
283.92	-0.300
284.29	-0.632
284.66	-0.328
285.03	-3.205
285.40	0.000
285.77	-1.858
286.14	0.305
286.51	-1.826
286.87	-1.580
287.24	-1.355
287.61	-1.794
287.98	-1.813
288.35	-0.888
288.72	-1.183
289.08	-0.439
289.45	-0.444
289.82	-0.904
290.19	-1.580
290.56	-1.549
290.93	-2.425
291.29	-1.791
291.66	-2.342
292.03	-1.628
292.40	0.000
292.77	-2.426
293.13	-0.812
293.50	-2.497
293.87	-1.611
294.24	0.000
294.60	-0.379
294.97	-2.148
295.34	0.768
295.71	-0.883
296.08	-1.292
296.44	-1.348
296.81	-0.365
297.18	-1.619
297.55	0.000
297.91	-0.830
298.28	-1.896
298.65	-0.476
299.02	0.000
299.38	-0.801
299.75	-0.701
300.12	-0.347
300.48	-0.115
300.85	-0.450
301.22	0.671
301.59	-0.114
301.95	-0.226
302.32	-0.556
302.69	0.110
303.05	0.109
303.42	-0.554
303.79	-0.625
304.15	-0.946
304.52	-1.268
304.89	-0.209
305.25	0.311
305.62	-1.149
305.99	-0.825
306.35	0.101
306.72	-0.103
307.09	-1.421
307.45	-0.828
307.82	0.000
308.19	0.202
308.55	1.157
308.92	0.292
309.29	1.341
309.65	-1.072
310.02	-0.396
310.38	-0.787
310.75	-0.194
311.12	-0.096
311.48	-0.587
311.85	0.380
312.22	0.474
312.58	1.315
312.95	0.574
313.31	1.084
313.68	1.465
314.05	1.987
314.41	1.548
314.78	1.090
315.14	1.543
315.51	0.554
315.87	1.890
316.24	1.461
316.61	2.309
316.97	2.081
317.34	1.411
317.70	2.707
318.07	2.822
318.43	3.146
318.80	4.013
319.16	2.489
319.53	1.971
319.89	2.366
320.26	4.093
320.62	2.660
320.99	3.693
321.35	2.865
321.72	4.930
322.08	3.517
322.45	3.704
322.81	4.332
323.18	3.540
323.54	4.569
323.91	4.715
324.27	4.647
324.64	5.793
325.00	4.809
325.37	5.651
325.73	4.876
326.10	6.002
326.46	6.107
326.83	5.685
327.19	5.827
327.56	5.296
327.92	4.091
328.29	5.081
328.65	5.444
329.01	4.399
329.38	6.740
329.74	5.394
330.11	7.620
330.47	5.897
330.84	5.771
331.20	7.167
331.56	6.239
331.93	6.360
332.29	6.441
332.66	6.063
333.02	6.114
333.38	5.872
333.75	6.481
334.11	6.505
334.48	5.446
334.84	7.307
335.20	5.709
335.57	6.324
335.93	6.942
336.29	6.323
336.66	5.803
337.02	5.686
337.38	6.037
337.75	6.446
338.11	5.551
338.47	6.948
338.84	5.753
339.20	6.318
339.56	5.437
339.93	6.076
340.29	7.568
340.65	6.732
341.02	7.662
341.38	6.952
341.74	7.103
342.11	6.758
342.47	5.957
342.83	7.488
343.20	7.441
343.56	6.496
343.92	5.765
344.28	6.406
344.65	7.054
345.01	7.254
345.37	7.076
345.73	5.456
346.10	6.864
346.46	5.934
346.82	6.816
347.19	6.188
347.55	7.663
347.91	6.686
348.27	5.994
348.63	6.474
349.00	6.786
349.36	8.178
349.72	7.515
350.08	7.429
350.45	5.551
350.81	7.014
351.17	6.917
351.53	6.899
351.89	7.365
352.26	6.045
352.62	6.642
352.98	7.252
353.34	6.348
353.70	5.932
354.07	7.303
354.43	6.910
354.79	6.806
355.15	7.064
355.51	7.675
355.87	5.984
356.24	7.833
356.60	8.352
356.96	6.597
357.32	6.691
357.68	6.662
358.04	6.512
358.40	6.567
358.77	7.310
359.13	6.795
359.49	6.543
359.85	7.542
360.21	7.963
360.57	7.251
360.93	7.546
361.29	8.561
361.66	6.951
362.02	7.724
362.38	7.660
362.74	7.472
363.10	8.253
363.46	8.172
363.82	7.884
364.18	7.741
364.54	8.506
364.90	8.227
365.26	7.241
365.62	8.200
365.98	8.237
366.35	7.450
366.71	9.048
367.07	8.593
367.43	9.192
367.79	8.958
368.15	8.629
368.51	8.457
368.87	8.491
369.23	8.733
369.59	8.607
369.95	8.316
370.31	9.251
370.67	8.047
371.03	8.587
371.39	7.723
371.75	9.354
372.11	7.724
372.47	8.192
372.83	9.162
373.19	8.739
373.55	9.282
373.91	8.248
374.27	9.314
374.63	8.863
374.99	8.820
375.35	9.416
375.71	9.355
376.07	9.361
376.42	9.698
376.78	9.944
377.14	9.233
377.50	9.488
377.86	10.406
378.22	10.120
378.58	10.226
378.94	10.153
379.30	10.252
379.66	9.524
380.02	9.636
380.38	10.253
380.74	10.761
381.09	10.337
381.45	9.034
381.81	10.422
382.17	10.926
382.53	9.942
382.89	10.553
383.25	10.141
383.61	9.896
383.97	10.130
384.32	9.928
384.68	10.035
385.04	11.163
385.40	10.725
385.76	10.668
386.12	10.652
386.48	10.529
386.83	11.442
387.19	10.776
387.55	10.915
387.91	10.445
388.27	11.605
388.62	11.569
388.98	10.434
389.34	11.903
389.70	11.563
390.06	11.012
390.42	11.506
390.77	11.921
391.13	11.150
391.49	11.111
391.85	10.485
392.20	11.447
392.56	12.168
392.92	11.450
393.28	11.609
393.64	11.061
393.99	11.156
394.35	11.507
394.71	12.216
395.07	10.838
395.42	10.851
395.78	12.675
396.14	11.468
396.50	11.520
396.85	11.091
397.21	11.538
397.57	11.543
397.92	12.142
398.28	10.918
398.64	11.842
399.00	10.681
399.35	11.099
399.71	11.957
400.07	11.847
400.42	11.467
400.78	11.285
401.14	12.123
401.49	11.597
401.85	11.744
402.21	11.587
402.57	11.854
402.92	12.175
403.28	11.066
403.63	10.740
403.99	11.639
404.35	12.166
404.70	11.955
405.06	11.848
405.42	11.241
405.77	11.069
406.13	11.237
406.49	12.106
406.84	12.576
407.20	11.962
407.55	10.600
407.91	11.439
408.27	11.307
408.62	12.275
408.98	11.666
409.34	10.440
409.69	11.681
410.05	11.606
410.40	11.833
410.76	11.497
411.11	11.397
411.47	11.732
411.83	12.052
412.18	11.747
412.54	11.025
412.89	11.758
413.25	11.061
413.60	12.177
413.96	11.772
414.31	11.558
414.67	11.568
415.03	11.754
415.38	11.097
415.74	12.034
416.09	11.598
416.45	11.459
416.80	11.016
417.16	12.452
417.51	11.768
417.87	10.668
418.22	11.257
418.58	11.152
418.93	11.525
419.29	11.406
419.64	10.864
420.00	10.742
420.35	11.960
420.71	10.913
421.06	10.466
421.42	11.640
421.77	11.147
422.12	11.469
422.48	11.521
422.83	11.336
423.19	11.247
423.54	11.670
423.90	10.823
424.25	11.680
424.61	10.390
424.96	12.081
425.31	12.049
425.67	10.091
426.02	11.234
426.38	10.907
426.73	10.770
427.09	11.765
427.44	11.196
427.79	10.945
428.15	10.674
428.50	10.562
428.85	10.505
429.21	10.957
429.56	11.303
429.92	10.663
430.27	10.747
430.62	10.845
430.98	11.018
431.33	10.997
431.68	10.489
432.04	11.021
432.39	10.927
432.74	10.845
433.10	11.249
433.45	10.647
433.80	9.818
434.16	10.589
434.51	11.202
434.86	10.478
435.22	11.105
435.57	11.439
435.92	10.573
436.28	11.035
436.63	10.213
436.98	10.574
437.34	10.090
437.69	10.017
438.04	10.788
438.39	11.143
438.75	10.681
439.10	10.465
439.45	10.676
439.81	9.944
440.16	10.509
440.51	10.981
440.86	10.172
441.22	10.932
441.57	10.639
441.92	10.281
442.27	10.253
442.63	10.184
442.98	10.832
443.33	10.836
443.68	11.100
444.03	11.054
444.39	10.633
444.74	10.669
445.09	10.340
445.44	10.116
445.79	10.967
446.15	10.175
446.50	10.956
446.85	10.117
447.20	10.735
447.55	11.140
447.91	9.791
448.26	10.518
448.61	10.255
448.96	11.212
449.31	9.544
449.66	9.586
450.02	10.549
450.37	10.389
450.72	9.419
451.07	9.681
451.42	9.763
451.77	8.894
452.12	10.102
452.47	9.269
452.83	10.360
453.18	9.340
453.53	8.845
453.88	10.050
454.23	10.226
454.58	9.460
454.93	9.223
455.28	10.054
455.63	9.721
455.98	10.279
456.34	9.835
456.69	9.289
457.04	9.693
457.39	9.922
457.74	10.179
458.09	9.116
458.44	9.159
458.79	9.180
459.14	8.652
459.49	9.791
459.84	9.864
460.19	9.328
460.54	9.256
460.89	9.105
461.24	8.563
461.59	9.020
461.94	9.127
462.29	9.854
462.64	9.415
462.99	8.663
463.34	9.604
463.69	9.203
464.04	9.672
464.39	8.296
464.74	8.837
465.09	9.112
465.44	9.335
465.79	9.466
466.14	9.015
466.49	9.211
466.84	8.650
467.19	9.017
467.54	8.402
467.89	9.195
468.24	9.252
468.59	8.107
468.94	8.042
469.29	8.818
469.64	8.519
469.99	8.094
470.34	7.488
470.68	8.749
471.03	9.627
471.38	7.848
471.73	7.542
472.08	8.058
472.43	9.091
472.78	9.005
473.13	7.901
473.48	8.882
473.83	8.764
474.17	8.558
474.52	8.479
474.87	9.136
475.22	8.225
475.57	8.255
475.92	9.258
476.27	7.934
476.61	8.879
476.96	8.186
477.31	8.564
477.66	8.762
478.01	8.592
478.36	7.727
478.70	8.325
479.05	8.231
479.40	8.342
479.75	8.694
480.10	8.148
480.45	8.067
480.79	8.390
481.14	8.180
481.49	7.497
481.84	8.225
482.19	8.043
482.53	8.439
482.88	8.197
483.23	7.781
483.58	7.948
483.92	7.137
484.27	8.298
484.62	7.508
484.97	7.970
485.31	7.533
485.66	8.021
486.01	7.738
486.36	7.776
486.70	8.558
487.05	8.320
487.40	8.033
487.75	7.812
488.09	7.749
488.44	7.676
488.79	7.723
489.13	7.965
489.48	6.563
489.83	7.364
490.17	6.926
490.52	7.266
490.87	7.403
491.22	6.932
491.56	7.295
491.91	7.065
492.26	7.356
492.60	6.603
492.95	7.065
493.30	7.441
493.64	6.746
493.99	7.237
494.34	6.751
494.68	6.852
495.03	7.137
495.37	7.457
495.72	6.803
496.07	7.450
496.41	6.435
496.76	7.298
497.11	7.006
497.45	6.172
497.80	7.108
498.14	6.485
498.49	6.801
498.84	6.490
499.18	6.793
499.53	6.771
499.87	6.989
500.22	5.744
500.56	5.893
500.91	6.133
501.26	6.545
501.60	6.186
501.95	6.730
502.29	6.275
502.64	6.559
502.98	6.471
503.33	6.134
503.67	6.411
504.02	6.261
504.36	6.568
504.71	6.385
505.06	6.094
505.40	6.124
505.75	6.375
506.09	6.215
506.44	5.571
506.78	6.881
507.13	6.086
507.47	6.253
507.82	6.250
508.16	5.688
508.51	5.720
508.85	6.377
509.19	6.253
509.54	6.244
509.88	5.974
510.23	5.682
510.57	6.477
510.92	6.096
511.26	5.051
511.61	5.649
511.95	4.880
512.30	6.204
512.64	6.047
512.98	5.953
513.33	6.401
513.67	6.068
514.02	5.876
514.36	5.882
514.70	5.573
515.05	5.944
515.39	6.194
515.74	6.151
516.08	6.075
516.42	6.279
516.77	5.941
517.11	5.209
517.46	6.257
517.80	6.360
518.14	5.930
518.49	6.128
518.83	5.535
519.17	5.439
519.52	5.765
519.86	5.913
520.20	6.337
520.55	5.586
520.89	5.405
521.23	4.690
521.58	5.989
521.92	5.779
522.26	5.956
522.61	5.093
522.95	5.190
523.29	5.632
523.64	5.549
523.98	5.933
524.32	6.074
524.66	5.748
525.01	5.776
525.35	4.997
525.69	4.872
526.04	4.937
526.38	5.230
526.72	5.421
527.06	4.751
527.41	5.598
527.75	5.523
528.09	4.959
528.43	5.802
528.78	4.624
529.12	5.275
529.46	5.228
529.80	5.549
530.15	5.623
530.49	4.330
530.83	5.372
531.17	4.301
531.51	5.415
531.86	4.928
532.20	5.366
532.54	4.548
532.88	4.909
533.22	5.952
533.57	5.424
533.91	5.948
534.25	5.653
534.59	4.828
534.93	4.414
535.27	5.352
535.62	5.458
535.96	4.648
536.30	5.405
536.64	4.264
536.98	5.535
537.32	4.877
537.66	5.303
538.01	5.317
538.35	4.872
538.69	4.748
539.03	5.212
539.37	5.359
539.71	5.045
540.05	5.096
540.39	4.890
540.73	4.675
541.07	4.292
541.42	4.253
541.76	4.152
542.10	5.006
542.44	4.446
542.78	5.231
543.12	5.185
543.46	4.518
543.80	4.436
544.14	4.967
544.48	5.142
544.82	5.446
545.16	4.711
545.50	4.853
545.84	3.980
546.18	5.617
546.52	3.885
546.86	4.654
547.20	4.389
547.54	4.370
547.88	4.039
548.22	4.269
548.56	4.506
548.90	3.881
549.24	5.350
549.58	3.975
549.92	4.401
550.26	4.660
550.60	4.531
550.94	4.528
551.28	4.554
551.62	3.571
551.96	4.984
552.30	4.844
552.64	4.667
552.98	3.993
553.32	4.180
553.66	4.244
554.00	4.540
554.34	3.990
554.68	4.325
555.02	4.336
555.36	5.128
555.69	3.652
556.03	4.035
556.37	4.318
556.71	3.805
557.05	4.153
557.39	3.583
557.73	4.029
558.07	3.510
558.41	3.987
558.75	3.719
559.08	3.827
559.42	3.772
559.76	4.613
560.10	3.952
560.44	3.364
560.78	4.688
561.12	4.002
561.45	4.440
561.79	3.968
562.13	3.635
562.47	3.329
562.81	4.051
563.15	4.482
563.48	4.723
563.82	3.990
564.16	3.513
564.50	4.052
564.84	4.189
565.17	3.765
565.51	3.855
565.85	3.979
566.19	3.399
566.52	3.569
566.86	3.792
567.20	3.752
567.54	3.080
567.88	4.128
568.21	4.496
568.55	4.508
568.89	4.267
569.23	4.394
569.56	3.517
569.90	4.455
570.24	3.946
570.57	3.624
570.91	3.613
571.25	3.876
571.59	4.063
571.92	3.865
572.26	4.209
572.60	4.232
572.93	4.119
573.27	3.934
573.61	4.262
573.95	4.370
574.28	4.462
574.62	3.934
574.96	4.124
575.29	4.142
575.63	4.204
575.97	4.120
576.30	3.948
576.64	4.032
576.98	3.986
577.31	4.161
577.65	3.921
577.98	4.047
578.32	3.971
578.66	4.052
578.99	4.034
579.33	3.957
579.67	4.034
580.00	3.731
580.34	3.796
580.67	3.994
581.01	3.548
581.35	4.267
581.68	3.957
582.02	4.202
582.35	4.209
582.69	3.900
583.02	3.831
583.36	3.984
583.70	3.613
584.03	3.984
584.37	3.653
584.70	3.912
585.04	3.604
585.37	3.712
585.71	3.862
586.04	3.985
586.38	3.877
586.72	3.685
587.05	3.198
587.39	3.765
587.72	3.660
588.06	3.965
588.39	3.908
588.73	3.836
589.06	3.612
589.40	3.780
589.73	3.824
590.07	3.548
590.40	4.598
590.73	3.888
591.07	3.723
591.40	3.499
591.74	3.617
592.07	3.857
592.41	2.997
592.74	3.905
593.08	3.917
593.41	3.937
593.75	3.764
594.08	3.423
594.41	3.654
594.75	3.520
595.08	3.398
595.42	3.539
595.75	4.294
596.09	3.287
596.42	3.726
596.75	3.589
597.09	4.081
597.42	3.258
597.75	3.528
598.09	4.127
598.42	3.458
598.76	3.210
599.09	3.702
599.42	3.621
599.76	3.235
600.09	3.604
600.42	3.570
600.76	3.600
601.09	3.219
601.42	3.193
601.76	3.379
602.09	3.574
602.42	3.272
602.76	3.542
603.09	3.231
603.42	3.071
603.76	3.524
604.09	3.868
604.42	3.743
604.76	3.349
605.09	3.151
605.42	3.628
605.75	3.615
606.09	3.135
606.42	3.502
606.75	3.223
607.09	3.226
607.42	4.123
607.75	3.439
608.08	3.078
608.42	2.983
608.75	3.566
609.08	2.844
609.41	3.705
609.75	3.080
610.08	3.386
610.41	2.889
610.74	3.445
611.07	3.064
611.41	3.632
611.74	3.187
612.07	3.226
612.40	2.852
612.73	3.130
613.07	3.081
613.40	3.417
613.73	3.563
614.06	2.993
614.39	3.256
614.72	3.105
615.06	3.032
615.39	2.803
615.72	3.365
616.05	3.254
616.38	3.330
616.71	2.926
617.05	2.023
617.38	4.013
617.71	3.024
618.04	3.130
618.37	3.115
618.70	3.054
619.03	2.688
619.36	3.144
619.69	2.691
620.03	2.574
620.36	2.577
620.69	2.406
621.02	2.690
621.35	2.540
621.68	3.471
622.01	2.705
622.34	2.301
622.67	2.612
623.00	1.552
623.33	3.318
623.66	3.502
623.99	2.107
624.32	3.574
624.65	2.767
624.99	2.796
625.32	3.788
625.65	2.765
625.98	2.034
626.31	2.622
626.64	3.223
626.97	2.326
627.30	1.974
627.63	2.326
627.96	3.679
628.29	2.179
628.62	1.511
628.95	2.103
629.28	1.359
629.61	2.778
629.94	1.590
630.26	2.034
630.59	2.591
630.92	1.818
631.25	2.236
631.58	2.637
631.91	1.125
632.24	2.882
632.57	2.941
632.90	1.906
633.23	2.245
633.56	2.755
633.89	1.446
634.22	1.871
634.55	1.357
634.88	1.623
635.20	2.368
635.53	2.147
635.86	1.625
636.19	3.712
636.52	2.848
636.85	2.554
637.18	1.040
637.51	1.935
637.83	2.547
638.16	2.765
638.49	1.878
638.82	2.029
639.15	1.489
639.48	2.309
639.81	3.002
640.13	1.649
640.46	0.000
640.79	-0.735
641.12	2.360
641.45	1.129
641.77	2.567
642.10	0.919
642.43	3.723
642.76	1.897
643.09	1.096
643.41	0.140
643.74	3.172
644.07	2.207
644.40	0.990
644.73	1.597
645.05	0.147
645.38	0.863
645.71	1.760
646.04	3.300
646.36	1.314
646.69	1.534
647.02	2.446
647.35	2.443
647.67	0.966
648.00	0.159
648.33	1.051
