SpectraSuite Data File
++++++++++++++++++++++++++++++++++++
Date: Thu May 14 16:03:06 PDT 2015
User: schluterlab
Dark Spectrum Present: Yes
Reference Spectrum Present: Yes
Number of Sampled Component Spectra: 1
Spectrometers: USB2E3373
Integration Time (usec): 3000 (USB2E3373)
Spectra Averaged: 3 (USB2E3373)
Boxcar Smoothing: 0 (USB2E3373)
Correct for Electrical Dark: No (USB2E3373)
Strobe/Lamp Enabled: No (USB2E3373)
Correct for Detector Non-linearity: No (USB2E3373)
Correct for Stray Light: No (USB2E3373)
Number of Pixels in Processed Spectrum: 2048
>>>>>Begin Processed Spectral Data<<<<<
178.53	0.000
178.91	228.571
179.29	-2500.000
179.67	-1400.000
180.04	214.286
180.42	190.000
180.80	320.000
181.18	-1600.000
181.56	-400.000
181.94	450.000
182.31	-575.000
182.69	466.667
183.07	-750.000
183.45	450.000
183.83	-183.333
184.20	-600.000
184.58	1800.000
184.96	-475.000
185.34	-144.444
185.72	-240.000
186.09	266.667
186.47	600.000
186.85	460.000
187.23	-266.667
187.61	-1400.000
187.98	340.000
188.36	625.000
188.74	-425.000
189.12	-100.000
189.49	-87.500
189.87	-362.500
190.25	-155.556
190.63	-300.000
191.00	-244.444
191.38	0.000
191.76	-500.000
192.14	-350.000
192.51	950.000
192.89	-50.000
193.27	0.000
193.65	-157.143
194.02	-2000.000
194.40	-228.571
194.78	285.714
195.15	0.000
195.53	-145.455
195.91	0.000
196.29	-375.000
196.66	-161.538
197.04	-1500.000
197.42	-200.000
197.79	-1150.000
198.17	-262.500
198.55	-285.714
198.92	-122.222
199.30	-250.000
199.68	-118.182
200.05	-64.286
200.43	-550.000
200.81	271.429
201.18	0.000
201.56	266.667
201.94	0.000
202.31	600.000
202.69	-188.889
203.07	600.000
203.44	-166.667
203.82	-350.000
204.19	-100.000
204.57	-100.000
204.95	-212.500
205.32	-1100.000
205.70	425.000
206.08	-283.333
206.45	-100.000
206.83	460.000
207.20	-200.000
207.58	-480.000
207.96	-283.333
208.33	-83.333
208.71	175.000
209.08	-166.667
209.46	0.000
209.84	283.333
210.21	650.000
210.59	1100.000
210.96	766.667
211.34	-300.000
211.71	-262.500
212.09	-1400.000
212.46	0.000
212.84	1100.000
213.22	-380.000
213.59	-100.000
213.97	0.000
214.34	-333.333
214.72	150.000
215.09	-400.000
215.47	0.000
215.84	128.571
216.22	1050.000
216.59	-100.000
216.97	-340.000
217.34	-400.000
217.72	-87.500
218.09	-500.000
218.47	-600.000
218.84	0.000
219.22	60.000
219.59	-64.706
219.97	-55.000
220.34	1100.000
220.72	-77.778
221.09	-84.615
221.47	-700.000
221.84	-230.000
222.22	-271.429
222.59	0.000
222.97	-187.500
223.34	-300.000
223.72	-800.000
224.09	-300.000
224.46	-575.000
224.84	-80.000
225.21	-314.286
225.59	-775.000
225.96	-275.000
226.34	-30.769
226.71	283.333
227.08	-950.000
227.46	-100.000
227.83	-550.000
228.21	-52.632
228.58	137.500
228.95	1150.000
229.33	-91.667
229.70	-170.000
230.08	26.316
230.45	160.000
230.82	-433.333
231.20	-85.714
231.57	-66.667
231.95	-100.000
232.32	-45.455
232.69	10.000
233.07	-200.000
233.44	-17.647
233.81	-80.000
234.19	-44.444
234.56	-77.273
234.93	-20.690
235.31	-26.316
235.68	-83.333
236.05	-75.000
236.43	23.077
236.80	-4.000
237.17	-44.444
237.55	-15.152
237.92	-50.000
238.29	-32.258
238.67	-13.636
239.04	13.889
239.41	-19.048
239.79	32.609
240.16	14.815
240.53	6.522
240.91	-1.961
241.28	-6.557
241.65	19.403
242.02	4.054
242.40	6.154
242.77	16.000
243.14	-3.659
243.51	1.316
243.89	7.692
244.26	13.861
244.63	15.686
245.00	18.692
245.38	16.667
245.75	2.655
246.12	15.079
246.49	20.930
246.87	15.000
247.24	21.854
247.61	13.816
247.98	17.450
248.36	12.963
248.73	10.429
249.10	22.404
249.47	22.886
249.84	20.419
250.22	20.725
250.59	17.778
250.96	20.909
251.33	20.918
251.70	18.803
252.08	22.083
252.45	20.902
252.82	20.661
253.19	18.359
253.56	17.871
253.94	19.615
254.31	24.242
254.68	22.028
255.05	24.430
255.42	23.129
255.79	23.301
256.16	23.841
256.54	22.517
256.91	24.262
257.28	24.918
257.65	21.975
258.02	21.534
258.39	25.071
258.76	25.382
259.14	27.011
259.51	21.902
259.88	23.229
260.25	24.444
260.62	24.932
260.99	27.049
261.36	23.324
261.73	23.077
262.10	24.176
262.47	23.861
262.85	26.263
263.22	21.299
263.59	19.737
263.96	24.808
264.33	23.274
264.70	25.185
265.07	25.776
265.44	26.304
265.81	25.000
266.18	24.717
266.55	24.554
266.92	24.601
267.29	24.945
267.66	23.282
268.03	24.454
268.40	25.470
268.77	25.057
269.14	24.670
269.51	25.219
269.88	27.869
270.25	21.932
270.62	25.316
270.99	24.848
271.36	26.535
271.73	23.379
272.10	28.257
272.47	25.651
272.84	24.297
273.21	24.248
273.58	26.008
273.95	25.962
274.32	22.433
274.69	23.791
275.06	25.275
275.43	20.887
275.80	24.691
276.17	24.630
276.54	22.388
276.91	23.792
277.28	25.859
277.65	26.391
278.02	24.081
278.39	24.457
278.76	25.483
279.13	23.404
279.50	23.711
279.87	25.760
280.23	22.887
280.60	24.068
280.97	23.355
281.34	23.939
281.71	27.073
282.08	23.090
282.45	22.913
282.82	23.234
283.19	22.132
283.56	22.295
283.92	24.925
284.29	25.118
284.66	23.153
285.03	22.115
285.40	22.566
285.77	23.839
286.14	24.122
286.51	24.810
286.87	21.011
287.24	23.946
287.61	22.571
287.98	20.544
288.35	23.225
288.72	22.041
289.08	23.280
289.45	22.041
289.82	22.440
290.19	24.282
290.56	23.803
290.93	23.680
291.29	19.697
291.66	22.039
292.03	20.760
292.40	23.129
292.77	21.024
293.13	19.621
293.50	19.448
293.87	19.329
294.24	21.333
294.60	18.331
294.97	20.403
295.34	19.974
295.71	19.168
296.08	19.121
296.44	18.750
296.81	20.219
297.18	18.680
297.55	19.575
297.91	18.505
298.28	16.706
298.65	19.620
299.02	19.008
299.38	20.366
299.75	17.991
300.12	18.056
300.48	18.548
300.85	18.898
301.22	18.680
301.59	18.493
301.95	17.740
302.32	20.222
302.69	18.620
303.05	17.737
303.42	18.514
303.79	18.750
304.15	19.348
304.52	18.076
304.89	17.487
305.25	18.116
305.62	17.764
305.99	18.351
306.35	17.540
306.72	17.580
307.09	16.853
307.45	18.944
307.82	16.044
308.19	17.053
308.55	17.743
308.92	16.943
309.29	17.241
309.65	16.569
310.02	17.228
310.38	17.224
310.75	17.087
311.12	17.354
311.48	17.498
311.85	17.379
312.22	16.983
312.58	16.995
312.95	16.252
313.31	17.073
313.68	17.216
314.05	17.344
314.41	17.031
314.78	16.076
315.14	17.332
315.51	16.436
315.87	16.922
316.24	17.717
316.61	16.519
316.97	15.928
317.34	16.402
317.70	17.555
318.07	16.931
318.43	16.497
318.80	18.060
319.16	16.395
319.53	15.938
319.89	16.039
320.26	16.370
320.62	15.957
320.99	17.913
321.35	17.652
321.72	17.209
322.08	16.141
322.45	17.615
322.81	16.877
323.18	15.664
323.54	16.552
323.91	16.103
324.27	16.867
324.64	17.548
325.00	16.915
325.37	16.626
325.73	16.942
326.10	16.383
326.46	17.834
326.83	17.054
327.19	16.772
327.56	16.047
327.92	15.893
328.29	16.452
328.65	15.662
329.01	15.821
329.38	15.838
329.74	15.668
330.11	16.952
330.47	17.018
330.84	15.418
331.20	17.167
331.56	15.771
331.93	16.987
332.29	17.712
332.66	17.110
333.02	15.829
333.38	15.856
333.75	16.582
334.11	15.763
334.48	15.017
334.84	16.653
335.20	15.617
335.57	15.936
335.93	16.860
336.29	13.561
336.66	15.728
337.02	16.890
337.38	15.561
337.75	15.372
338.11	17.073
338.47	16.046
338.84	16.413
339.20	14.322
339.56	15.898
339.93	15.599
340.29	15.056
340.65	15.410
341.02	16.121
341.38	16.411
341.74	16.223
342.11	15.286
342.47	14.456
342.83	16.667
343.20	15.454
343.56	15.397
343.92	16.253
344.28	15.469
344.65	16.124
345.01	15.367
345.37	15.008
345.73	14.497
346.10	15.289
346.46	15.111
346.82	15.506
347.19	15.126
347.55	15.402
347.91	15.379
348.27	14.871
348.63	15.308
349.00	15.138
349.36	14.870
349.72	15.551
350.08	15.973
350.45	14.601
350.81	14.480
351.17	13.534
351.53	16.528
351.89	15.945
352.26	15.075
352.62	13.657
352.98	14.427
353.34	14.040
353.70	14.946
354.07	14.605
354.43	14.351
354.79	14.809
355.15	14.570
355.51	15.863
355.87	15.108
356.24	14.905
356.60	14.930
356.96	14.529
357.32	13.755
357.68	13.470
358.04	14.371
358.40	14.104
358.77	14.620
359.13	13.885
359.49	13.680
359.85	16.171
360.21	14.921
360.57	14.860
360.93	14.528
361.29	15.439
361.66	14.337
362.02	15.449
362.38	13.633
362.74	14.036
363.10	14.718
363.46	14.751
363.82	14.489
364.18	14.075
364.54	14.385
364.90	14.047
365.26	14.690
365.62	14.800
365.98	14.568
366.35	14.161
366.71	14.082
367.07	14.885
367.43	14.970
367.79	14.599
368.15	14.649
368.51	14.885
368.87	14.435
369.23	14.067
369.59	14.686
369.95	13.590
370.31	14.787
370.67	15.131
371.03	14.058
371.39	14.305
371.75	15.199
372.11	14.295
372.47	13.812
372.83	14.660
373.19	14.343
373.55	14.363
373.91	13.020
374.27	14.036
374.63	14.141
374.99	13.727
375.35	14.286
375.71	14.452
376.07	14.074
376.42	14.295
376.78	14.543
377.14	14.660
377.50	14.168
377.86	14.532
378.22	14.491
378.58	14.031
378.94	13.967
379.30	13.415
379.66	14.403
380.02	14.310
380.38	13.767
380.74	13.690
381.09	13.589
381.45	14.205
381.81	13.934
382.17	14.311
382.53	13.450
382.89	13.883
383.25	14.068
383.61	13.889
383.97	13.899
384.32	14.533
384.68	13.805
385.04	14.806
385.40	14.084
385.76	13.834
386.12	13.285
386.48	13.706
386.83	13.707
387.19	14.137
387.55	13.322
387.91	13.299
388.27	14.319
388.62	13.574
388.98	13.142
389.34	13.789
389.70	13.655
390.06	14.032
390.42	13.313
390.77	13.727
391.13	14.026
391.49	13.889
391.85	12.848
392.20	13.820
392.56	13.703
392.92	13.413
393.28	13.875
393.64	13.743
393.99	14.468
394.35	14.720
394.71	13.413
395.07	13.234
395.42	13.478
395.78	14.138
396.14	13.963
396.50	13.658
396.85	14.013
397.21	13.373
397.57	14.605
397.92	14.147
398.28	12.928
398.64	14.531
399.00	13.927
399.35	13.455
399.71	13.098
400.07	13.532
400.42	13.446
400.78	13.657
401.14	13.147
401.49	13.644
401.85	13.779
402.21	13.673
402.57	13.556
402.92	13.712
403.28	13.115
403.63	13.007
403.99	13.480
404.35	12.848
404.70	12.635
405.06	13.043
405.42	12.998
405.77	14.504
406.13	13.830
406.49	12.894
406.84	13.573
407.20	13.304
407.55	12.841
407.91	13.828
408.27	13.722
408.62	14.020
408.98	13.233
409.34	12.962
409.69	13.288
410.05	13.951
410.40	13.747
410.76	13.236
411.11	13.910
411.47	13.575
411.83	13.992
412.18	13.373
412.54	13.515
412.89	13.853
413.25	13.375
413.60	12.981
413.96	14.103
414.31	13.598
414.67	13.953
415.03	13.846
415.38	14.187
415.74	13.622
416.09	12.955
416.45	13.087
416.80	13.525
417.16	13.857
417.51	14.321
417.87	12.753
418.22	14.431
418.58	13.073
418.93	13.737
419.29	13.255
419.64	13.505
420.00	13.650
420.35	13.869
420.71	13.038
421.06	13.341
421.42	13.475
421.77	13.355
422.12	13.425
422.48	13.159
422.83	13.855
423.19	13.634
423.54	13.440
423.90	13.031
424.25	13.173
424.61	13.088
424.96	13.839
425.31	13.694
425.67	13.366
426.02	14.001
426.38	13.375
426.73	12.333
427.09	13.610
427.44	13.545
427.79	12.493
428.15	12.443
428.50	13.034
428.85	12.744
429.21	13.723
429.56	12.981
429.92	13.366
430.27	13.880
430.62	13.288
430.98	13.576
431.33	13.294
431.68	13.554
432.04	13.459
432.39	12.801
432.74	13.813
433.10	12.872
433.45	12.375
433.80	13.466
434.16	13.843
434.51	13.772
434.86	13.301
435.22	13.124
435.57	12.854
435.92	13.133
436.28	12.856
436.63	13.708
436.98	13.312
437.34	12.852
437.69	12.163
438.04	13.538
438.39	13.785
438.75	12.673
439.10	13.319
439.45	12.353
439.81	13.616
440.16	12.172
440.51	13.601
440.86	12.896
441.22	13.237
441.57	13.050
441.92	13.385
442.27	13.687
442.63	13.214
442.98	13.501
443.33	13.572
443.68	13.578
444.03	13.641
444.39	13.592
444.74	14.191
445.09	13.786
445.44	13.962
445.79	13.985
446.15	12.950
446.50	12.713
446.85	14.105
447.20	12.911
447.55	13.598
447.91	13.037
448.26	12.579
448.61	12.752
448.96	13.841
449.31	12.937
449.66	12.963
450.02	13.291
450.37	13.958
450.72	13.025
451.07	12.984
451.42	12.998
451.77	12.896
452.12	13.205
452.47	12.656
452.83	12.950
453.18	13.018
453.53	12.924
453.88	13.142
454.23	12.994
454.58	13.639
454.93	12.439
455.28	12.944
455.63	13.360
455.98	13.128
456.34	12.721
456.69	12.111
457.04	13.593
457.39	13.082
457.74	14.206
458.09	12.685
458.44	14.440
458.79	12.481
459.14	13.372
459.49	13.016
459.84	13.064
460.19	12.771
460.54	13.572
460.89	13.129
461.24	12.586
461.59	13.337
461.94	12.778
462.29	13.382
462.64	12.070
462.99	11.990
463.34	14.212
463.69	13.540
464.04	12.952
464.39	13.285
464.74	12.828
465.09	12.341
465.44	13.466
465.79	13.432
466.14	13.288
466.49	13.211
466.84	12.342
467.19	12.948
467.54	12.808
467.89	11.897
468.24	13.075
468.59	12.623
468.94	12.121
469.29	12.837
469.64	12.142
469.99	12.428
470.34	13.181
470.68	12.645
471.03	12.901
471.38	12.753
471.73	12.094
472.08	11.739
472.43	12.523
472.78	13.224
473.13	12.769
473.48	13.051
473.83	13.465
474.17	12.896
474.52	12.026
474.87	13.344
475.22	13.127
475.57	13.292
475.92	12.992
476.27	12.780
476.61	12.098
476.96	12.096
477.31	12.871
477.66	13.274
478.01	12.811
478.36	13.310
478.70	13.103
479.05	13.548
479.40	12.586
479.75	13.016
480.10	13.595
480.45	12.944
480.79	13.016
481.14	13.006
481.49	12.949
481.84	14.099
482.19	13.677
482.53	13.030
482.88	13.336
483.23	13.562
483.58	12.707
483.92	12.544
484.27	13.124
484.62	12.954
484.97	13.414
485.31	12.988
485.66	13.233
486.01	13.758
486.36	14.297
486.70	14.852
487.05	13.926
487.40	13.722
487.75	13.511
488.09	12.821
488.44	12.855
488.79	13.019
489.13	12.708
489.48	11.922
489.83	12.757
490.17	12.313
490.52	12.972
490.87	12.944
491.22	13.172
491.56	12.457
491.91	12.952
492.26	13.025
492.60	12.505
492.95	13.295
493.30	12.461
493.64	12.878
493.99	13.421
494.34	13.066
494.68	12.377
495.03	13.260
495.37	13.182
495.72	12.789
496.07	13.322
496.41	12.355
496.76	13.303
497.11	12.951
497.45	12.905
497.80	13.550
498.14	12.426
498.49	13.051
498.84	12.203
499.18	13.090
499.53	13.229
499.87	13.055
500.22	12.467
500.56	12.551
500.91	12.540
501.26	13.091
501.60	11.887
501.95	13.113
502.29	12.813
502.64	13.030
502.98	13.330
503.33	12.657
503.67	12.080
504.02	13.222
504.36	12.377
504.71	12.540
505.06	13.142
505.40	12.980
505.75	12.842
506.09	13.214
506.44	13.324
506.78	12.661
507.13	12.494
507.47	13.311
507.82	12.121
508.16	13.241
508.51	12.283
508.85	13.132
509.19	12.601
509.54	12.392
509.88	12.482
510.23	13.356
510.57	12.953
510.92	12.046
511.26	13.083
511.61	12.603
511.95	13.324
512.30	12.605
512.64	13.043
512.98	12.456
513.33	12.752
513.67	12.392
514.02	12.979
514.36	12.430
514.70	13.073
515.05	12.930
515.39	13.176
515.74	13.150
516.08	12.361
516.42	13.501
516.77	12.829
517.11	12.842
517.46	13.203
517.80	13.041
518.14	13.166
518.49	12.907
518.83	12.720
519.17	12.978
519.52	13.050
519.86	13.094
520.20	12.726
520.55	12.760
520.89	12.894
521.23	12.563
521.58	13.503
521.92	12.861
522.26	13.001
522.61	13.368
522.95	12.976
523.29	12.874
523.64	13.341
523.98	13.691
524.32	13.582
524.66	12.977
525.01	12.571
525.35	13.441
525.69	12.645
526.04	12.859
526.38	12.816
526.72	12.918
527.06	13.724
527.41	13.294
527.75	13.064
528.09	12.574
528.43	12.493
528.78	12.601
529.12	13.016
529.46	13.097
529.80	12.872
530.15	13.333
530.49	13.642
530.83	13.282
531.17	13.023
531.51	12.696
531.86	13.582
532.20	13.171
532.54	13.046
532.88	13.394
533.22	13.435
533.57	14.022
533.91	13.300
534.25	13.284
534.59	13.908
534.93	13.073
535.27	13.014
535.62	14.554
535.96	13.422
536.30	13.043
536.64	13.574
536.98	13.161
537.32	13.519
537.66	14.099
538.01	12.628
538.35	12.546
538.69	12.861
539.03	13.857
539.37	13.781
539.71	13.033
540.05	13.849
540.39	12.775
540.73	12.750
541.07	12.937
541.42	13.054
541.76	13.167
542.10	13.932
542.44	12.972
542.78	13.443
543.12	14.064
543.46	12.943
543.80	12.830
544.14	13.166
544.48	13.652
544.82	13.645
545.16	13.775
545.50	13.481
545.84	12.799
546.18	14.259
546.52	14.140
546.86	12.956
547.20	13.359
547.54	12.797
547.88	12.477
548.22	13.918
548.56	13.166
548.90	13.134
549.24	13.009
549.58	12.808
549.92	12.755
550.26	13.786
550.60	13.338
550.94	13.195
551.28	14.125
551.62	14.286
551.96	12.880
552.30	12.874
552.64	13.068
552.98	13.475
553.32	12.733
553.66	12.476
554.00	13.997
554.34	12.741
554.68	12.976
555.02	12.812
555.36	13.872
555.69	13.004
556.03	12.295
556.37	13.642
556.71	13.443
557.05	13.994
557.39	13.139
557.73	13.408
558.07	12.583
558.41	13.289
558.75	13.252
559.08	12.804
559.42	11.660
559.76	14.043
560.10	13.664
560.44	12.863
560.78	13.625
561.12	13.732
561.45	13.564
561.79	13.553
562.13	13.185
562.47	13.194
562.81	12.785
563.15	13.573
563.48	13.487
563.82	13.059
564.16	13.022
564.50	13.945
564.84	13.097
565.17	13.529
565.51	13.234
565.85	13.895
566.19	13.479
566.52	13.341
566.86	12.903
567.20	12.942
567.54	14.180
567.88	13.761
568.21	13.735
568.55	13.765
568.89	14.299
569.23	14.195
569.56	14.185
569.90	14.148
570.24	13.963
570.57	14.112
570.91	14.238
571.25	14.637
571.59	15.001
571.92	14.366
572.26	14.082
572.60	13.787
572.93	13.999
573.27	13.965
573.61	14.214
573.95	14.202
574.28	14.085
574.62	14.120
574.96	14.424
575.29	14.122
575.63	13.929
575.97	14.156
576.30	13.940
576.64	13.791
576.98	14.715
577.31	14.301
577.65	14.321
577.98	14.627
578.32	14.506
578.66	14.041
578.99	14.172
579.33	13.917
579.67	13.781
580.00	13.868
580.34	14.376
580.67	14.078
581.01	14.150
581.35	14.553
581.68	14.534
582.02	14.853
582.35	14.485
582.69	14.745
583.02	14.110
583.36	14.274
583.70	14.042
584.03	13.799
584.37	13.848
584.70	13.619
585.04	13.927
585.37	13.809
585.71	13.981
586.04	14.399
586.38	14.183
586.72	13.713
587.05	13.738
587.39	13.912
587.72	14.043
588.06	14.072
588.39	13.816
588.73	13.545
589.06	14.221
589.40	14.444
589.73	13.625
590.07	14.092
590.40	14.368
590.73	13.715
591.07	14.036
591.40	13.336
591.74	13.434
592.07	14.819
592.41	13.407
592.74	14.271
593.08	14.650
593.41	15.165
593.75	14.339
594.08	14.450
594.41	14.199
594.75	13.517
595.08	14.334
595.42	13.701
595.75	14.272
596.09	13.758
596.42	14.117
596.75	13.547
597.09	13.535
597.42	13.945
597.75	13.446
598.09	14.087
598.42	14.274
598.76	13.336
599.09	14.062
599.42	14.214
599.76	14.394
600.09	14.515
600.42	14.081
600.76	14.498
601.09	13.740
601.42	13.663
601.76	13.793
602.09	13.724
602.42	13.959
602.76	13.985
603.09	13.436
603.42	14.017
603.76	13.707
604.09	14.159
604.42	14.092
604.76	13.851
605.09	13.761
605.42	13.596
605.75	14.308
606.09	13.923
606.42	13.900
606.75	14.130
607.09	13.210
607.42	13.680
607.75	13.794
608.08	13.496
608.42	13.462
608.75	14.262
609.08	12.903
609.41	13.322
609.75	13.170
610.08	13.852
610.41	13.764
610.74	13.529
611.07	13.499
611.41	13.767
611.74	13.533
612.07	13.511
612.40	13.546
612.73	13.105
613.07	13.594
613.40	13.715
613.73	13.577
614.06	14.426
614.39	13.751
614.72	14.071
615.06	13.571
615.39	12.953
615.72	14.218
616.05	13.259
616.38	14.581
616.71	13.532
617.05	12.939
617.38	14.286
617.71	13.229
618.04	13.923
618.37	13.716
618.70	13.801
619.03	12.784
619.36	13.317
619.69	12.748
620.03	13.685
620.36	13.865
620.69	13.695
621.02	13.517
621.35	13.861
621.68	12.726
622.01	12.100
622.34	12.971
622.67	13.265
623.00	12.686
623.33	13.338
623.66	14.267
623.99	12.508
624.32	13.840
624.65	13.127
624.99	14.369
625.32	13.129
625.65	13.216
625.98	12.203
626.31	13.324
626.64	13.040
626.97	12.078
627.30	11.541
627.63	12.678
627.96	13.964
628.29	13.074
628.62	12.175
628.95	12.007
629.28	13.254
629.61	12.710
629.94	11.464
630.26	11.780
630.59	12.435
630.92	12.035
631.25	13.417
631.58	13.559
