SpectraSuite Data File
++++++++++++++++++++++++++++++++++++
Date: Thu May 14 16:04:50 PDT 2015
User: schluterlab
Dark Spectrum Present: Yes
Reference Spectrum Present: Yes
Number of Sampled Component Spectra: 1
Spectrometers: USB2E3373
Integration Time (usec): 3000 (USB2E3373)
Spectra Averaged: 3 (USB2E3373)
Boxcar Smoothing: 0 (USB2E3373)
Correct for Electrical Dark: No (USB2E3373)
Strobe/Lamp Enabled: No (USB2E3373)
Correct for Detector Non-linearity: No (USB2E3373)
Correct for Stray Light: No (USB2E3373)
Number of Pixels in Processed Spectrum: 2048
>>>>>Begin Processed Spectral Data<<<<<
178.53	0.000
178.91	214.286
179.29	-2400.000
179.67	-1600.000
180.04	228.571
180.42	140.000
180.80	280.000
181.18	-1000.000
181.56	-1100.000
181.94	250.000
182.31	-225.000
182.69	366.667
183.07	-500.000
183.45	400.000
183.83	-266.667
184.20	-600.000
184.58	1900.000
184.96	-525.000
185.34	-111.111
185.72	-180.000
186.09	277.778
186.47	1100.000
186.85	320.000
187.23	-177.778
187.61	-2600.000
187.98	320.000
188.36	400.000
188.74	-525.000
189.12	-466.667
189.49	-56.250
189.87	-250.000
190.25	-33.333
190.63	-260.000
191.00	-211.111
191.38	0.000
191.76	-300.000
192.14	-283.333
192.51	1050.000
192.89	-216.667
193.27	0.000
193.65	-157.143
194.02	-1500.000
194.40	-114.286
194.78	185.714
195.15	0.000
195.53	-109.091
195.91	0.000
196.29	-275.000
196.66	-92.308
197.04	-1200.000
197.42	-285.714
197.79	-850.000
198.17	-187.500
198.55	-242.857
198.92	-155.556
199.30	-112.500
199.68	-27.273
200.05	-14.286
200.43	-1050.000
200.81	300.000
201.18	0.000
201.56	255.556
201.94	0.000
202.31	633.333
202.69	-166.667
203.07	600.000
203.44	-22.222
203.82	-225.000
204.19	-91.667
204.57	-450.000
204.95	-212.500
205.32	-300.000
205.70	425.000
206.08	-200.000
206.45	-183.333
206.83	460.000
207.20	-116.667
207.58	-380.000
207.96	-216.667
208.33	-150.000
208.71	108.333
209.08	-33.333
209.46	0.000
209.84	350.000
210.21	500.000
210.59	600.000
210.96	466.667
211.34	-25.000
211.71	-100.000
212.09	-1800.000
212.46	0.000
212.84	900.000
213.22	-520.000
213.59	-275.000
213.97	-130.000
214.34	-500.000
214.72	216.667
215.09	-350.000
215.47	0.000
215.84	85.714
216.22	1100.000
216.59	-220.000
216.97	-360.000
217.34	-100.000
217.72	-112.500
218.09	-325.000
218.47	-300.000
218.84	0.000
219.22	340.000
219.59	-29.412
219.97	10.000
220.34	650.000
220.72	-188.889
221.09	-53.846
221.47	-100.000
221.84	-100.000
222.22	-100.000
222.59	0.000
222.97	-125.000
223.34	-480.000
223.72	-1900.000
224.09	-425.000
224.46	-550.000
224.84	-280.000
225.21	-185.714
225.59	-500.000
225.96	-350.000
226.34	-11.538
226.71	416.667
227.08	-650.000
227.46	-26.667
227.83	-200.000
228.21	-5.263
228.58	175.000
228.95	1000.000
229.33	-75.000
229.70	-150.000
230.08	-21.053
230.45	130.000
230.82	-433.333
231.20	-71.429
231.57	-33.333
231.95	-118.182
232.32	-72.727
232.69	-25.000
233.07	-425.000
233.44	-111.765
233.81	-200.000
234.19	-16.667
234.56	0.000
234.93	-13.793
235.31	-36.842
235.68	-11.111
236.05	-20.000
236.43	19.231
236.80	-4.000
237.17	-18.519
237.55	-12.121
237.92	-210.000
238.29	-25.806
238.67	-15.909
239.04	-8.333
239.41	-16.667
239.79	-8.696
240.16	-3.704
240.53	2.174
240.91	-3.922
241.28	-4.918
241.65	8.955
242.02	9.459
242.40	-3.077
242.77	12.000
243.14	6.098
243.51	2.632
243.89	6.410
244.26	9.901
244.63	19.608
245.00	9.346
245.38	10.526
245.75	-1.770
246.12	15.079
246.49	12.403
246.87	17.143
247.24	11.921
247.61	19.079
247.98	10.738
248.36	9.877
248.73	8.589
249.10	10.383
249.47	19.403
249.84	24.084
250.22	19.171
250.59	20.000
250.96	17.273
251.33	15.306
251.70	16.667
252.08	17.083
252.45	17.623
252.82	14.876
253.19	19.531
253.56	20.532
253.94	15.385
254.31	18.182
254.68	22.028
255.05	20.847
255.42	19.388
255.79	15.534
256.16	20.530
256.54	15.232
256.91	22.295
257.28	17.049
257.65	16.242
258.02	17.404
258.39	20.228
258.76	22.018
259.14	20.690
259.51	17.579
259.88	18.130
260.25	20.278
260.62	20.000
260.99	20.765
261.36	21.180
261.73	21.220
262.10	19.505
262.47	17.694
262.85	20.960
263.22	19.481
263.59	14.737
263.96	20.972
264.33	20.205
264.70	21.975
265.07	22.912
265.44	23.810
265.81	20.139
266.18	21.088
266.55	18.080
266.92	22.323
267.29	21.663
267.66	18.182
268.03	20.524
268.40	21.712
268.77	19.362
269.14	18.282
269.51	18.640
269.88	20.287
270.25	21.127
270.62	19.620
270.99	22.626
271.36	22.772
271.73	20.039
272.10	22.645
272.47	18.637
272.84	19.076
273.21	18.838
273.58	21.169
273.95	19.808
274.32	17.681
274.69	18.956
275.06	19.597
275.43	19.039
275.80	20.282
276.17	20.000
276.54	18.470
276.91	20.394
277.28	19.168
277.65	19.390
278.02	18.750
278.39	20.109
278.76	18.278
279.13	20.213
279.50	21.478
279.87	21.467
280.23	17.254
280.60	19.831
280.97	20.724
281.34	19.525
281.71	19.120
282.08	18.439
282.45	18.658
282.82	19.152
283.19	19.063
283.56	18.033
283.92	20.120
284.29	23.381
284.66	21.018
285.03	16.667
285.40	19.011
285.77	19.040
286.14	20.611
286.51	18.569
286.87	20.221
287.24	20.030
287.61	17.040
287.98	19.033
288.35	19.379
288.72	17.456
289.08	20.644
289.45	18.343
289.82	18.223
290.19	17.672
290.56	19.718
290.93	19.116
291.29	17.493
291.66	17.218
292.03	16.554
292.40	19.184
292.77	18.059
293.13	16.779
293.50	16.820
293.87	17.315
294.24	18.667
294.60	16.941
294.97	16.913
295.34	17.414
295.71	16.898
296.08	16.537
296.44	16.912
296.81	17.052
297.18	16.936
297.55	16.274
297.91	14.591
298.28	15.995
298.65	15.339
299.02	15.348
299.38	16.133
299.75	16.589
300.12	17.130
300.48	17.051
300.85	16.198
301.22	16.555
301.59	15.297
301.95	16.158
302.32	16.778
302.69	16.101
303.05	16.213
303.42	16.630
303.79	16.562
304.15	16.614
304.52	16.068
304.89	15.288
305.25	15.735
305.62	16.928
305.99	15.464
306.35	14.516
306.72	16.029
307.09	15.635
307.45	15.631
307.82	14.632
308.19	14.934
308.55	16.683
308.92	15.093
309.29	16.475
309.65	14.912
310.02	16.436
310.38	16.535
310.75	16.117
311.12	17.162
311.48	15.934
311.85	15.859
312.22	16.414
312.58	17.089
312.95	16.730
313.31	16.893
313.68	17.582
314.05	17.886
314.41	17.760
314.78	15.895
315.14	17.332
315.51	17.636
315.87	17.732
316.24	18.721
316.61	17.496
316.97	16.833
317.34	19.048
317.70	18.253
318.07	18.166
318.43	18.452
318.80	19.314
319.16	18.541
319.53	17.823
319.89	17.178
320.26	19.128
320.62	17.642
320.99	18.652
321.35	19.316
321.72	19.721
322.08	18.305
322.45	19.693
322.81	20.397
323.18	19.204
323.54	19.914
323.91	20.463
324.27	19.191
324.64	21.327
325.00	20.149
325.37	20.639
325.73	19.752
326.10	22.060
326.46	22.068
326.83	22.658
327.19	21.496
327.56	21.739
327.92	22.109
328.29	21.048
328.65	21.776
329.01	22.504
329.38	21.146
329.74	23.459
330.11	22.432
330.47	23.673
330.84	22.911
331.20	22.333
331.56	22.530
331.93	23.013
332.29	21.949
332.66	23.090
333.02	22.027
333.38	21.812
333.75	23.401
334.11	22.852
334.48	22.937
334.84	24.384
335.20	23.090
335.57	22.260
335.93	23.554
336.29	22.795
336.66	22.204
337.02	22.910
337.38	23.129
337.75	22.066
338.11	22.708
338.47	23.325
338.84	22.673
339.20	22.746
339.56	21.993
339.93	23.892
340.29	22.625
340.65	23.277
341.02	23.703
341.38	22.312
341.74	22.437
342.11	24.216
342.47	21.525
342.83	23.591
343.20	22.813
343.56	22.935
343.92	23.299
344.28	22.500
344.65	22.868
345.01	23.557
345.37	22.784
345.73	22.214
346.10	22.777
346.46	22.547
346.82	22.846
347.19	23.147
347.55	24.052
347.91	23.254
348.27	22.762
348.63	23.839
349.00	23.043
349.36	23.271
349.72	22.173
350.08	23.031
350.45	22.890
350.81	23.831
351.17	23.383
351.53	23.048
351.89	23.007
352.26	23.881
352.62	23.209
352.98	22.290
353.34	23.002
353.70	23.729
354.07	22.429
354.43	21.488
354.79	22.663
355.15	23.326
355.51	23.611
355.87	23.336
356.24	24.183
356.60	23.947
356.96	22.832
357.32	22.900
357.68	23.060
358.04	23.728
358.40	23.955
358.77	23.757
359.13	23.634
359.49	23.271
359.85	23.278
360.21	23.816
360.57	23.762
360.93	23.413
361.29	24.421
361.66	23.606
362.02	24.356
362.38	24.104
362.74	24.372
363.10	24.415
363.46	23.684
363.82	23.295
364.18	23.505
364.54	24.274
364.90	24.682
365.26	24.552
365.62	24.333
365.98	23.690
366.35	23.758
366.71	24.490
367.07	24.899
367.43	23.900
367.79	25.547
368.15	24.348
368.51	24.019
368.87	24.494
369.23	24.400
369.59	24.932
369.95	24.882
370.31	24.510
370.67	24.691
371.03	24.723
371.39	24.312
371.75	25.309
372.11	25.474
372.47	24.915
372.83	25.524
373.19	24.883
373.55	25.407
373.91	24.267
374.27	24.968
374.63	25.507
374.99	25.531
375.35	25.649
375.71	25.355
376.07	24.726
376.42	26.071
376.78	25.668
377.14	24.641
377.50	26.059
377.86	26.232
378.22	25.329
378.58	25.922
378.94	25.411
379.30	25.308
379.66	26.220
380.02	25.563
380.38	26.843
380.74	25.803
381.09	27.003
381.45	26.875
381.81	27.108
382.17	26.544
382.53	26.608
382.89	26.298
383.25	26.671
383.61	25.231
383.97	25.677
384.32	26.794
384.68	26.218
385.04	26.316
385.40	26.105
385.76	26.553
386.12	26.691
386.48	28.118
386.83	27.235
387.19	25.724
387.55	27.289
387.91	26.826
388.27	27.367
388.62	27.606
388.98	26.509
389.34	27.166
389.70	28.239
390.06	25.992
390.42	27.108
390.77	28.055
391.13	27.523
391.49	28.019
391.85	26.545
392.20	27.284
392.56	27.820
392.92	27.863
393.28	27.640
393.64	27.989
393.99	28.472
394.35	28.213
394.71	28.144
395.07	26.647
395.42	27.756
395.78	28.336
396.14	28.342
396.50	27.435
396.85	28.145
397.21	28.343
397.57	27.562
397.92	28.465
398.28	27.431
398.64	28.089
399.00	27.696
399.35	28.168
399.71	28.641
400.07	27.962
400.42	27.707
400.78	27.662
401.14	28.059
401.49	28.653
401.85	28.198
402.21	28.621
402.57	28.932
402.92	28.723
403.28	27.927
403.63	28.043
403.99	27.969
404.35	28.539
404.70	29.745
405.06	27.989
405.42	28.689
405.77	28.953
406.13	28.255
406.49	28.716
406.84	28.864
407.20	28.899
407.55	28.346
407.91	28.850
408.27	28.916
408.62	29.610
408.98	29.367
409.34	27.449
409.69	28.801
410.05	28.957
410.40	28.712
410.76	28.603
411.11	28.930
411.47	29.914
411.83	29.571
412.18	30.120
412.54	29.046
412.89	28.463
413.25	29.120
413.60	28.949
413.96	29.604
414.31	27.592
414.67	29.577
415.03	28.492
415.38	29.508
415.74	29.016
416.09	29.241
416.45	28.554
416.80	28.764
417.16	29.374
417.51	29.141
417.87	29.062
418.22	28.982
418.58	28.748
418.93	29.336
419.29	30.271
419.64	29.472
420.00	29.733
420.35	29.085
420.71	28.432
421.06	28.062
421.42	29.415
421.77	28.595
422.12	29.017
422.48	29.595
422.83	29.792
423.19	28.382
423.54	29.591
423.90	29.597
424.25	29.600
424.61	28.875
424.96	29.050
425.31	29.724
425.67	29.361
426.02	29.828
426.38	29.277
426.73	29.185
427.09	30.161
427.44	29.492
427.79	29.077
428.15	28.995
428.50	29.157
428.85	28.071
429.21	30.213
429.56	28.677
429.92	28.943
430.27	29.542
430.62	29.116
430.98	29.021
431.33	28.837
431.68	28.544
432.04	29.050
432.39	28.977
432.74	29.281
433.10	29.259
433.45	29.431
433.80	29.024
434.16	29.236
434.51	29.548
434.86	30.185
435.22	29.968
435.57	29.835
435.92	29.549
436.28	29.181
436.63	28.946
436.98	28.556
437.34	29.763
437.69	28.619
438.04	28.926
438.39	29.179
438.75	28.168
439.10	29.123
439.45	29.234
439.81	28.814
440.16	28.954
440.51	29.654
440.86	28.738
441.22	29.153
441.57	29.088
441.92	29.534
442.27	29.394
442.63	29.111
442.98	29.242
443.33	29.300
443.68	29.980
444.03	30.480
444.39	29.635
444.74	29.607
445.09	28.383
445.44	29.610
445.79	29.693
446.15	29.856
446.50	28.941
446.85	29.912
447.20	29.207
447.55	29.655
447.91	28.691
448.26	30.021
448.61	29.012
448.96	29.614
449.31	29.056
449.66	28.050
450.02	29.430
450.37	30.847
450.72	29.440
451.07	28.018
451.42	28.769
451.77	29.238
452.12	29.345
452.47	29.174
452.83	29.673
453.18	28.897
453.53	29.925
453.88	29.818
454.23	29.153
454.58	29.890
454.93	28.944
455.28	29.922
455.63	29.107
455.98	29.553
456.34	29.270
456.69	29.159
457.04	30.378
457.39	29.656
457.74	29.586
458.09	28.775
458.44	29.741
458.79	29.654
459.14	29.103
459.49	29.315
459.84	29.276
460.19	29.539
460.54	29.585
460.89	29.222
461.24	28.736
461.59	29.884
461.94	28.237
462.29	29.787
462.64	29.028
462.99	30.006
463.34	28.942
463.69	28.898
464.04	29.906
464.39	28.924
464.74	29.190
465.09	29.815
465.44	29.238
465.79	29.402
466.14	28.713
466.49	29.947
466.84	29.697
467.19	29.884
467.54	29.495
467.89	29.310
468.24	29.529
468.59	28.952
468.94	29.079
469.29	29.934
469.64	28.226
469.99	30.083
470.34	29.641
470.68	30.895
471.03	29.993
471.38	30.281
471.73	28.088
472.08	29.949
472.43	29.982
472.78	29.786
473.13	30.278
473.48	30.876
473.83	30.006
474.17	29.777
474.52	32.051
474.87	30.565
475.22	30.761
475.57	30.633
475.92	30.363
476.27	29.553
476.61	30.685
476.96	30.240
477.31	31.188
477.66	30.745
478.01	29.741
478.36	29.611
478.70	30.049
479.05	31.902
479.40	31.046
479.75	30.307
480.10	30.554
480.45	30.629
480.79	30.794
481.14	30.836
481.49	31.077
481.84	31.767
482.19	30.151
482.53	30.695
482.88	31.103
483.23	31.436
483.58	30.830
483.92	29.832
484.27	30.398
484.62	30.446
484.97	30.521
485.31	29.989
485.66	28.841
486.01	28.513
486.36	28.838
486.70	29.849
487.05	30.864
487.40	30.346
487.75	30.458
488.09	31.305
488.44	30.179
488.79	30.590
489.13	30.232
489.48	30.563
489.83	30.986
490.17	30.012
490.52	30.419
490.87	31.049
491.22	30.979
491.56	30.631
491.91	31.444
492.26	30.766
492.60	30.302
492.95	31.110
493.30	30.883
493.64	31.318
493.99	30.132
494.34	31.185
494.68	30.578
495.03	31.630
495.37	31.913
495.72	31.202
496.07	31.420
496.41	30.674
496.76	31.401
497.11	30.234
497.45	31.075
497.80	31.408
498.14	31.973
498.49	31.526
498.84	31.627
499.18	31.084
499.53	31.211
499.87	31.385
500.22	30.410
500.56	31.399
500.91	31.304
501.26	32.364
501.60	31.374
501.95	31.437
502.29	31.593
502.64	32.138
502.98	30.716
503.33	31.577
503.67	31.749
504.02	31.611
504.36	32.887
504.71	32.017
505.06	31.105
505.40	32.038
505.75	32.149
506.09	32.090
506.44	33.333
506.78	32.936
507.13	32.181
507.47	32.354
507.82	32.150
508.16	33.509
508.51	31.927
508.85	33.585
509.19	32.923
509.54	33.141
509.88	33.560
510.23	34.434
510.57	33.929
510.92	33.817
511.26	33.718
511.61	32.786
511.95	34.212
512.30	35.106
512.64	33.633
512.98	33.817
513.33	34.778
513.67	34.523
514.02	34.696
514.36	33.913
514.70	34.740
515.05	35.297
515.39	34.961
515.74	35.207
516.08	35.077
516.42	36.578
516.77	36.225
517.11	34.915
517.46	36.373
517.80	36.344
518.14	36.289
518.49	36.497
518.83	36.828
519.17	35.541
519.52	36.268
519.86	36.853
520.20	36.794
520.55	36.473
520.89	36.937
521.23	36.851
521.58	37.401
521.92	38.017
522.26	38.202
522.61	37.789
522.95	37.255
523.29	38.621
523.64	38.229
523.98	38.391
524.32	39.943
524.66	38.076
525.01	38.448
525.35	38.196
525.69	37.471
526.04	37.658
526.38	38.736
526.72	38.985
527.06	38.768
527.41	40.000
527.75	40.439
528.09	38.725
528.43	38.129
528.78	38.902
529.12	38.761
529.46	38.954
529.80	39.016
530.15	39.188
530.49	39.383
530.83	39.433
531.17	39.904
531.51	40.253
531.86	41.286
532.20	40.305
532.54	38.600
532.88	40.909
533.22	39.364
533.57	39.527
533.91	39.731
534.25	39.175
534.59	40.460
534.93	39.728
535.27	39.944
535.62	40.421
535.96	40.267
536.30	39.718
536.64	41.441
536.98	41.328
537.32	40.309
537.66	42.171
538.01	39.154
538.35	40.621
538.69	39.603
539.03	41.631
539.37	40.989
539.71	40.721
540.05	40.707
540.39	40.037
540.73	39.223
541.07	41.140
541.42	40.697
541.76	39.383
542.10	40.290
542.44	40.804
542.78	40.024
543.12	40.346
543.46	41.087
543.80	39.808
544.14	40.575
544.48	39.953
544.82	41.293
545.16	40.906
545.50	41.642
545.84	40.416
546.18	41.605
546.52	40.892
546.86	40.126
547.20	40.585
547.54	40.449
547.88	41.290
548.22	40.702
548.56	40.433
548.90	40.537
549.24	41.581
549.58	40.820
549.92	40.625
550.26	41.748
550.60	38.800
550.94	40.944
551.28	40.594
551.62	42.049
551.96	39.741
552.30	41.109
552.64	40.012
552.98	40.299
553.32	41.222
553.66	41.158
554.00	40.731
554.34	41.248
554.68	39.897
555.02	40.210
555.36	41.946
555.69	41.192
556.03	40.668
556.37	40.113
556.71	40.457
557.05	41.022
557.39	40.478
557.73	40.819
558.07	39.404
558.41	40.930
558.75	41.109
559.08	40.710
559.42	40.809
559.76	40.366
560.10	40.723
560.44	39.776
560.78	39.938
561.12	40.394
561.45	40.085
561.79	40.415
562.13	40.357
562.47	40.506
562.81	40.316
563.15	39.583
563.48	40.025
563.82	39.722
564.16	39.249
564.50	39.213
564.84	39.469
565.17	39.353
565.51	38.608
565.85	40.261
566.19	39.977
566.52	39.848
566.86	39.332
567.20	39.097
567.54	39.193
567.88	38.889
568.21	38.785
568.55	39.185
568.89	38.947
569.23	38.741
569.56	38.531
569.90	37.277
570.24	37.841
570.57	37.235
570.91	35.885
571.25	36.853
571.59	36.571
571.92	36.274
572.26	36.210
572.60	36.391
572.93	36.460
573.27	37.089
573.61	36.554
573.95	36.004
574.28	35.272
574.62	35.948
574.96	35.223
575.29	35.999
575.63	35.874
575.97	35.952
576.30	35.751
576.64	35.648
576.98	35.194
577.31	35.655
577.65	35.638
577.98	35.505
578.32	34.547
578.66	35.036
578.99	34.917
579.33	35.616
579.67	35.721
580.00	35.424
580.34	35.166
580.67	34.863
581.01	35.418
581.35	34.541
581.68	34.729
582.02	34.186
582.35	34.791
582.69	34.827
583.02	34.928
583.36	35.100
583.70	34.878
584.03	35.037
584.37	35.127
584.70	34.597
585.04	34.783
585.37	34.512
585.71	34.542
586.04	34.919
586.38	34.401
586.72	34.821
587.05	34.638
587.39	34.380
587.72	34.809
588.06	34.865
588.39	34.478
588.73	34.815
589.06	34.481
589.40	35.526
589.73	35.315
590.07	35.113
590.40	35.598
590.73	34.783
591.07	36.225
591.40	35.031
591.74	35.652
592.07	36.257
592.41	34.858
592.74	35.428
593.08	35.000
593.41	34.296
593.75	34.943
594.08	35.050
594.41	34.968
594.75	34.374
595.08	35.061
595.42	35.162
595.75	34.614
596.09	34.565
596.42	35.113
596.75	35.237
597.09	35.636
597.42	35.399
597.75	34.888
598.09	35.119
598.42	35.625
598.76	34.696
599.09	34.674
599.42	33.356
599.76	33.807
600.09	34.334
600.42	34.168
600.76	34.544
601.09	34.086
601.42	33.986
601.76	33.793
602.09	34.132
602.42	34.060
602.76	34.280
603.09	34.545
603.42	35.332
603.76	34.073
604.09	34.705
604.42	33.468
604.76	33.600
605.09	34.503
605.42	34.450
605.75	34.692
606.09	34.304
606.42	33.710
606.75	33.546
607.09	33.218
607.42	33.834
607.75	33.998
608.08	34.294
608.42	32.971
608.75	34.536
609.08	34.423
609.41	34.010
609.75	33.795
610.08	33.949
610.41	33.517
610.74	33.319
611.07	33.881
611.41	33.812
611.74	33.441
612.07	34.409
612.40	34.173
612.73	34.377
613.07	33.985
613.40	34.360
613.73	34.425
614.06	34.347
614.39	34.014
614.72	34.449
615.06	33.494
615.39	33.301
615.72	33.555
616.05	34.386
616.38	33.249
616.71	35.057
617.05	33.813
617.38	34.831
617.71	34.611
618.04	33.297
618.37	34.153
618.70	35.011
619.03	34.588
619.36	33.662
619.69	34.785
620.03	34.840
620.36	34.294
620.69	35.225
621.02	34.777
621.35	35.922
621.68	36.298
622.01	35.018
622.34	34.031
622.67	34.983
623.00	33.468
623.33	36.231
623.66	35.409
623.99	34.496
624.32	34.633
624.65	33.784
624.99	35.826
625.32	35.010
625.65	35.131
625.98	34.441
626.31	34.798
626.64	35.824
626.97	34.359
627.30	35.232
627.63	34.884
627.96	35.661
628.29	34.786
628.62	36.188
628.95	36.459
629.28	34.325
629.61	35.017
629.94	34.477
630.26	34.915
630.59	35.751
630.92	35.584
631.25	36.583
631.58	36.252
