SpectraSuite Data File
++++++++++++++++++++++++++++++++++++
Date: Thu May 14 16:05:02 PDT 2015
User: schluterlab
Dark Spectrum Present: Yes
Reference Spectrum Present: Yes
Number of Sampled Component Spectra: 1
Spectrometers: USB2E3373
Integration Time (usec): 3000 (USB2E3373)
Spectra Averaged: 3 (USB2E3373)
Boxcar Smoothing: 0 (USB2E3373)
Correct for Electrical Dark: No (USB2E3373)
Strobe/Lamp Enabled: No (USB2E3373)
Correct for Detector Non-linearity: No (USB2E3373)
Correct for Stray Light: No (USB2E3373)
Number of Pixels in Processed Spectrum: 2048
>>>>>Begin Processed Spectral Data<<<<<
178.53	0.000
178.91	142.857
179.29	-1300.000
179.67	-1800.000
180.04	207.143
180.42	160.000
180.80	340.000
181.18	-900.000
181.56	100.000
181.94	325.000
182.31	-50.000
182.69	533.333
183.07	-650.000
183.45	425.000
183.83	-166.667
184.20	-433.333
184.58	1100.000
184.96	-425.000
185.34	-122.222
185.72	-340.000
186.09	277.778
186.47	900.000
186.85	360.000
187.23	-166.667
187.61	-1900.000
187.98	380.000
188.36	600.000
188.74	-525.000
189.12	-300.000
189.49	-25.000
189.87	-100.000
190.25	-111.111
190.63	-240.000
191.00	-133.333
191.38	0.000
191.76	-575.000
192.14	-250.000
192.51	700.000
192.89	-33.333
193.27	0.000
193.65	-142.857
194.02	-1700.000
194.40	-114.286
194.78	185.714
195.15	0.000
195.53	-90.909
195.91	0.000
196.29	-250.000
196.66	-69.231
197.04	-2200.000
197.42	-228.571
197.79	-700.000
198.17	-100.000
198.55	-300.000
198.92	-100.000
199.30	-175.000
199.68	-118.182
200.05	-35.714
200.43	-650.000
200.81	342.857
201.18	0.000
201.56	222.222
201.94	0.000
202.31	533.333
202.69	-200.000
203.07	1200.000
203.44	-111.111
203.82	-250.000
204.19	-100.000
204.57	-216.667
204.95	-162.500
205.32	-1600.000
205.70	250.000
206.08	-83.333
206.45	-166.667
206.83	480.000
207.20	-200.000
207.58	-480.000
207.96	-283.333
208.33	-100.000
208.71	116.667
209.08	-150.000
209.46	0.000
209.84	416.667
210.21	600.000
210.59	400.000
210.96	266.667
211.34	-150.000
211.71	-187.500
212.09	-2200.000
212.46	0.000
212.84	1100.000
213.22	-380.000
213.59	-425.000
213.97	-10.000
214.34	-466.667
214.72	266.667
215.09	-325.000
215.47	0.000
215.84	171.429
216.22	900.000
216.59	-300.000
216.97	-320.000
217.34	-175.000
217.72	-37.500
218.09	-425.000
218.47	-125.000
218.84	0.000
219.22	240.000
219.59	-88.235
219.97	-35.000
220.34	800.000
220.72	-66.667
221.09	-61.538
221.47	-466.667
221.84	-150.000
222.22	-171.429
222.59	0.000
222.97	-212.500
223.34	-500.000
223.72	-2300.000
224.09	-300.000
224.46	-575.000
224.84	-180.000
225.21	-400.000
225.59	-375.000
225.96	-375.000
226.34	3.846
226.71	433.333
227.08	-700.000
227.46	-13.333
227.83	-325.000
228.21	-84.211
228.58	150.000
228.95	1000.000
229.33	-16.667
229.70	-170.000
230.08	5.263
230.45	230.000
230.82	-466.667
231.20	-85.714
231.57	-66.667
231.95	-118.182
232.32	-36.364
232.69	0.000
233.07	-350.000
233.44	-94.118
233.81	-200.000
234.19	-27.778
234.56	-77.273
234.93	-27.586
235.31	-31.579
235.68	-83.333
236.05	-95.000
236.43	11.538
236.80	-4.000
237.17	-29.630
237.55	-18.182
237.92	-100.000
238.29	0.000
238.67	-38.636
239.04	0.000
239.41	-19.048
239.79	-26.087
240.16	-5.556
240.53	-4.348
240.91	-19.608
241.28	-9.836
241.65	22.388
242.02	18.919
242.40	-1.538
242.77	5.333
243.14	-2.439
243.51	-21.053
243.89	0.000
244.26	9.901
244.63	16.667
245.00	14.953
245.38	12.281
245.75	2.655
246.12	19.048
246.49	11.628
246.87	10.714
247.24	13.245
247.61	12.500
247.98	6.711
248.36	6.790
248.73	9.816
249.10	8.197
249.47	16.915
249.84	17.801
250.22	15.026
250.59	16.667
250.96	15.909
251.33	16.837
251.70	18.803
252.08	18.333
252.45	14.754
252.82	18.595
253.19	11.719
253.56	14.829
253.94	14.231
254.31	17.045
254.68	16.783
255.05	18.893
255.42	18.027
255.79	16.828
256.16	16.887
256.54	14.238
256.91	16.721
257.28	15.410
257.65	14.331
258.02	12.094
258.39	17.379
258.76	21.407
259.14	19.540
259.51	18.156
259.88	18.980
260.25	20.000
260.62	18.082
260.99	17.486
261.36	19.303
261.73	16.446
262.10	18.132
262.47	18.231
262.85	22.475
263.22	16.883
263.59	15.789
263.96	19.182
264.33	15.857
264.70	21.481
265.07	20.764
265.44	19.274
265.81	17.361
266.18	18.594
266.55	18.973
266.92	16.401
267.29	19.694
267.66	19.956
268.03	19.432
268.40	17.745
268.77	17.312
269.14	17.621
269.51	19.518
269.88	19.877
270.25	18.913
270.62	20.042
270.99	18.586
271.36	18.218
271.73	17.878
272.10	21.443
272.47	17.034
272.84	20.281
273.21	19.439
273.58	19.960
273.95	17.308
274.32	19.202
274.69	20.696
275.06	19.048
275.43	18.669
275.80	21.517
276.17	18.333
276.54	16.791
276.91	15.385
277.28	18.807
277.65	19.928
278.02	18.199
278.39	17.391
278.76	19.332
279.13	17.908
279.50	20.275
279.87	20.036
280.23	13.908
280.60	19.153
280.97	17.434
281.34	17.317
281.71	20.474
282.08	18.439
282.45	19.640
282.82	17.582
283.19	17.609
283.56	18.525
283.92	18.468
284.29	18.641
284.66	18.883
285.03	17.628
285.40	18.702
285.77	19.195
286.14	19.237
286.51	18.721
286.87	18.009
287.24	17.771
287.61	18.685
287.98	17.523
288.35	17.751
288.72	18.343
289.08	19.180
289.45	18.491
289.82	18.675
290.19	18.678
290.56	18.732
290.93	18.830
291.29	17.355
291.66	18.733
292.03	18.996
292.40	19.728
292.77	16.307
293.13	18.945
293.50	18.528
293.87	18.792
294.24	19.333
294.60	18.710
294.97	16.242
295.34	17.926
295.71	17.781
296.08	17.313
296.44	18.627
296.81	17.052
297.18	16.065
297.55	18.278
297.91	17.794
298.28	17.654
298.65	19.382
299.02	17.473
299.38	17.735
299.75	17.290
300.12	17.245
300.48	17.857
300.85	17.773
301.22	18.121
301.59	17.808
301.95	18.531
302.32	20.111
302.69	17.525
303.05	19.151
303.42	18.182
303.79	17.812
304.15	17.560
304.52	17.970
304.89	17.068
305.25	18.530
305.62	17.764
305.99	18.351
306.35	17.843
306.72	20.062
307.09	17.462
307.45	19.669
307.82	19.273
308.19	18.466
308.55	18.997
308.92	19.182
309.29	19.923
309.65	19.103
310.02	18.614
310.38	18.406
310.75	20.291
311.12	19.271
311.48	18.182
311.85	20.133
312.22	20.873
312.58	19.437
312.95	20.363
313.31	19.964
313.68	19.872
314.05	22.042
314.41	21.494
314.78	20.436
315.14	21.234
315.51	22.161
315.87	21.152
316.24	22.740
316.61	23.002
316.97	21.719
317.34	22.134
317.70	22.445
318.07	23.721
318.43	22.194
318.80	22.742
319.16	23.262
319.53	22.279
319.89	22.524
320.26	23.843
320.62	23.759
320.99	22.992
321.35	24.954
321.72	25.116
322.08	23.986
322.45	25.474
322.81	24.729
323.18	26.106
323.54	25.259
323.91	26.601
324.27	26.506
324.64	26.448
325.00	26.617
325.37	27.027
325.73	27.603
326.10	26.845
326.46	27.606
326.83	28.263
327.19	26.614
327.56	28.458
327.92	26.672
328.29	26.694
328.65	28.057
329.01	28.342
329.38	29.318
329.74	28.510
330.11	27.825
330.47	27.211
330.84	29.285
331.20	28.917
331.56	29.896
331.93	30.126
332.29	28.983
332.66	29.651
333.02	27.806
333.38	28.020
333.75	28.872
334.11	29.191
334.48	29.373
334.84	28.887
335.20	28.631
335.57	29.258
335.93	29.587
336.29	29.118
336.66	29.773
337.02	28.177
337.38	28.741
337.75	28.182
338.11	29.857
338.47	28.701
338.84	29.780
339.20	28.812
339.56	28.336
339.93	29.310
340.29	28.180
340.65	28.386
341.02	28.970
341.38	28.779
341.74	29.298
342.11	30.330
342.47	28.118
342.83	29.710
343.20	29.518
343.56	29.270
343.92	29.063
344.28	29.609
344.65	28.992
345.01	29.719
345.37	29.393
345.73	27.903
346.10	29.095
346.46	29.430
346.82	29.363
347.19	29.794
347.55	29.287
347.91	28.083
348.27	28.983
348.63	29.703
349.00	29.157
349.36	29.591
349.72	29.911
350.08	29.049
350.45	29.886
350.81	28.959
351.17	29.323
351.53	30.553
351.89	29.992
352.26	29.328
352.62	29.552
352.98	29.084
353.34	29.201
353.70	30.123
354.07	29.359
354.43	30.524
354.79	30.292
355.15	29.360
355.51	29.678
355.87	29.768
356.24	30.190
356.60	30.377
356.96	31.134
357.32	30.335
357.68	29.283
358.04	30.165
358.40	30.299
358.77	29.898
359.13	30.281
359.49	29.740
359.85	31.255
360.21	29.842
360.57	29.864
360.93	29.831
361.29	31.228
361.66	30.920
362.02	31.663
362.38	32.256
362.74	31.145
363.10	31.431
363.46	30.748
363.82	32.884
364.18	30.542
364.54	31.604
364.90	30.970
365.26	32.966
365.62	32.267
365.98	32.880
366.35	30.940
366.71	30.544
367.07	31.597
367.43	32.699
367.79	33.378
368.15	32.508
368.51	33.085
368.87	31.940
369.23	32.200
369.59	32.445
369.95	33.333
370.31	33.761
370.67	33.700
371.03	32.964
371.39	32.102
371.75	33.631
372.11	33.875
372.47	33.649
372.83	33.050
373.19	33.089
373.55	33.198
373.91	32.924
374.27	33.441
374.63	35.318
374.99	33.621
375.35	34.351
375.71	34.710
376.07	34.216
376.42	33.816
376.78	34.742
377.14	34.373
377.50	34.851
377.86	35.530
378.22	34.910
378.58	35.434
378.94	35.857
379.30	35.501
379.66	35.215
380.02	35.545
380.38	36.060
380.74	35.437
381.09	36.469
381.45	35.284
381.81	36.651
382.17	35.867
382.53	34.737
382.89	35.948
383.25	36.166
383.61	36.111
383.97	35.689
384.32	36.782
384.68	36.775
385.04	37.189
385.40	37.183
385.76	36.928
386.12	36.445
386.48	37.706
386.83	37.843
387.19	37.891
387.55	37.148
387.91	36.815
388.27	38.626
388.62	37.572
388.98	36.830
389.34	38.126
389.70	37.885
390.06	37.774
390.42	37.771
390.77	37.387
391.13	39.143
391.49	38.225
391.85	38.848
392.20	38.019
392.56	38.748
392.92	38.386
393.28	38.751
393.64	38.603
393.99	38.989
394.35	39.720
394.71	39.341
395.07	38.503
395.42	38.664
395.78	40.098
396.14	38.978
396.50	39.430
396.85	38.402
397.21	38.107
397.57	39.517
397.92	40.206
398.28	39.109
398.64	38.787
399.00	38.534
399.35	38.534
399.71	39.076
400.07	39.697
400.42	39.756
400.78	40.567
401.14	39.727
401.49	39.966
401.85	40.814
402.21	39.803
402.57	40.434
402.92	39.953
403.28	38.466
403.63	39.737
403.99	39.786
404.35	39.227
404.70	40.000
405.06	38.804
405.42	40.398
405.77	40.458
406.13	40.194
406.49	40.428
406.84	39.778
407.20	40.078
407.55	40.400
407.91	40.729
408.27	40.165
408.62	39.151
408.98	40.627
409.34	40.235
409.69	41.286
410.05	39.859
410.40	40.835
410.76	39.428
411.11	41.555
411.47	40.663
411.83	40.506
412.18	40.723
412.54	41.020
412.89	40.279
413.25	40.181
413.60	40.666
413.96	41.783
414.31	39.320
414.67	40.489
415.03	40.369
415.38	40.984
415.74	41.539
416.09	40.716
416.45	39.449
416.80	40.881
417.16	41.060
417.51	40.349
417.87	40.711
418.22	40.539
418.58	40.149
418.93	41.502
419.29	41.369
419.64	40.336
420.00	40.297
420.35	40.707
420.71	39.977
421.06	40.196
421.42	40.998
421.77	39.795
422.12	40.645
422.48	41.731
422.83	40.581
423.19	40.265
423.54	40.929
423.90	39.978
424.25	41.600
424.61	39.552
424.96	40.253
425.31	40.711
425.67	41.331
426.02	41.837
426.38	40.700
426.73	41.071
427.09	41.119
427.44	40.142
427.79	40.575
428.15	40.126
428.50	39.944
428.85	40.069
429.21	41.277
429.56	40.918
429.92	40.541
430.27	41.398
430.62	40.840
430.98	40.679
431.33	40.958
431.68	40.517
432.04	40.325
432.39	40.761
432.74	40.240
433.10	41.103
433.45	40.357
433.80	40.665
434.16	40.444
434.51	40.904
434.86	41.477
435.22	41.339
435.57	41.156
435.92	41.959
436.28	41.240
436.63	41.289
436.98	40.902
437.34	41.770
437.69	40.782
438.04	40.984
438.39	40.437
438.75	40.786
439.10	41.860
439.45	40.302
439.81	40.169
440.16	39.946
440.51	40.412
440.86	40.245
441.22	41.426
441.57	41.509
441.92	41.853
442.27	41.263
442.63	41.331
442.98	41.729
443.33	40.505
443.68	41.477
444.03	41.533
444.39	42.164
444.74	41.041
445.09	39.990
445.44	41.096
445.79	41.427
446.15	40.904
446.50	40.413
446.85	40.516
447.20	40.522
447.55	39.906
447.91	39.843
448.26	40.433
448.61	40.489
448.96	41.631
449.31	40.615
449.66	39.869
450.02	41.878
450.37	40.330
450.72	42.196
451.07	40.490
451.42	40.612
451.77	39.800
452.12	41.648
452.47	40.761
452.83	40.766
453.18	40.222
453.53	40.666
453.88	40.309
454.23	39.718
454.58	39.350
454.93	40.534
455.28	40.337
455.63	40.136
455.98	40.615
456.34	40.224
456.69	40.447
457.04	40.721
457.39	40.022
457.74	40.548
458.09	39.703
458.44	41.110
458.79	40.021
459.14	40.010
459.49	39.672
459.84	40.084
460.19	39.700
460.54	40.602
460.89	41.133
461.24	39.483
461.59	41.561
461.94	39.019
462.29	40.370
462.64	38.986
462.99	39.485
463.34	40.234
463.69	38.980
464.04	40.245
464.39	40.078
464.74	38.997
465.09	39.965
465.44	40.021
465.79	40.561
466.14	40.281
466.49	40.368
466.84	39.174
467.19	38.786
467.54	38.719
467.89	38.391
468.24	38.560
468.59	37.522
468.94	38.520
469.29	39.712
469.64	38.144
469.99	39.069
470.34	39.171
470.68	39.029
471.03	38.507
471.38	38.849
471.73	39.012
472.08	39.150
472.43	39.374
472.78	39.169
473.13	39.507
473.48	38.731
473.83	39.582
474.17	38.159
474.52	40.409
474.87	38.870
475.22	39.380
475.57	38.110
475.92	38.925
476.27	39.350
476.61	38.162
476.96	38.217
477.31	38.416
477.66	39.244
478.01	37.722
478.36	38.534
478.70	38.719
479.05	40.082
479.40	38.796
479.75	38.617
480.10	38.607
480.45	37.785
480.79	38.685
481.14	38.557
481.49	38.710
481.84	38.164
482.19	38.882
482.53	38.566
482.88	38.414
483.23	38.773
483.58	38.297
483.92	37.234
484.27	37.553
484.62	36.799
484.97	38.336
485.31	36.959
485.66	36.295
486.01	37.433
486.36	37.839
486.70	39.066
487.05	39.085
487.40	38.054
487.75	37.532
488.09	36.461
488.44	36.159
488.79	36.223
489.13	36.894
489.48	36.699
489.83	36.539
490.17	36.412
490.52	36.371
490.87	36.041
491.22	36.525
491.56	37.073
491.91	36.546
492.26	36.434
492.60	37.298
492.95	36.595
493.30	36.934
493.64	36.969
493.99	36.711
494.34	36.150
494.68	36.360
495.03	36.344
495.37	36.218
495.72	35.828
496.07	36.328
496.41	36.251
496.76	35.947
497.11	36.603
497.45	36.340
497.80	36.428
498.14	36.417
498.49	36.029
498.84	36.015
499.18	35.403
499.53	35.874
499.87	36.000
500.22	35.040
500.56	35.313
500.91	35.652
501.26	36.545
501.60	35.086
501.95	35.215
502.29	35.981
502.64	35.767
502.98	35.418
503.33	35.896
503.67	35.543
504.02	35.114
504.36	36.327
504.71	35.554
505.06	34.516
505.40	35.055
505.75	35.428
506.09	35.359
506.44	36.072
506.78	35.917
507.13	35.823
507.47	36.049
507.82	36.127
508.16	35.899
508.51	35.021
508.85	34.530
509.19	35.670
509.54	35.495
509.88	35.988
510.23	36.037
510.57	35.476
510.92	35.172
511.26	34.873
511.61	34.524
511.95	34.358
512.30	35.746
512.64	34.883
512.98	34.467
513.33	35.887
513.67	35.696
514.02	35.360
514.36	35.601
514.70	34.479
515.05	34.724
515.39	34.856
515.74	35.525
516.08	35.552
516.42	35.113
516.77	34.069
517.11	34.141
517.46	35.419
517.80	34.313
518.14	35.147
518.49	35.683
518.83	34.912
519.17	34.303
519.52	35.325
519.86	35.692
520.20	34.558
520.55	34.337
520.89	34.459
521.23	33.501
521.58	35.085
521.92	34.674
522.26	33.562
522.61	35.243
522.95	35.352
523.29	35.000
523.64	34.922
523.98	34.740
524.32	35.817
524.66	35.515
525.01	34.315
525.35	34.061
525.69	35.441
526.04	33.812
526.38	34.655
526.72	34.198
527.06	35.015
527.41	34.286
527.75	34.382
528.09	35.301
528.43	34.340
528.78	34.855
529.12	34.060
529.46	34.289
529.80	34.039
530.15	34.783
530.49	34.520
530.83	34.002
531.17	34.289
531.51	33.815
531.86	35.397
532.20	34.146
532.54	33.932
532.88	34.909
533.22	33.707
533.57	33.583
533.91	33.670
534.25	33.635
534.59	34.310
534.93	34.126
535.27	34.366
535.62	34.736
535.96	34.399
536.30	33.549
536.64	33.574
536.98	34.010
537.32	34.383
537.66	34.373
538.01	34.079
538.35	33.496
538.69	33.654
539.03	34.273
539.37	32.921
539.71	34.114
540.05	34.053
540.39	32.396
540.73	34.123
541.07	32.986
541.42	32.250
541.76	33.452
542.10	33.233
542.44	32.704
542.78	32.908
543.12	32.718
543.46	33.028
543.80	33.153
544.14	33.034
544.48	33.865
544.82	32.974
545.16	33.393
545.50	31.636
545.84	32.027
546.18	33.704
546.52	32.994
546.86	33.082
547.20	33.015
547.54	32.772
547.88	32.550
548.22	32.047
548.56	32.651
548.90	32.836
549.24	33.435
549.58	32.934
549.92	32.781
550.26	32.298
550.60	32.546
550.94	31.759
551.28	32.211
551.62	32.749
551.96	33.204
552.30	32.377
552.64	32.607
552.98	32.813
553.32	32.605
553.66	32.412
554.00	32.787
554.34	31.660
554.68	31.569
555.02	31.472
555.36	33.070
555.69	31.775
556.03	31.778
556.37	32.228
556.71	32.023
557.05	31.182
557.39	33.046
557.73	31.704
558.07	31.457
558.41	31.296
558.75	31.508
559.08	32.498
559.42	31.001
559.76	30.529
560.10	31.547
560.44	31.662
560.78	31.375
561.12	31.034
561.45	32.482
561.79	31.258
562.13	31.608
562.47	30.641
562.81	31.203
563.15	31.881
563.48	30.516
563.82	31.741
564.16	31.314
564.50	31.824
564.84	31.091
565.17	30.471
565.51	30.552
565.85	30.701
566.19	31.164
566.52	31.656
566.86	32.258
567.20	31.158
567.54	30.377
567.88	31.397
568.21	31.225
568.55	31.079
568.89	31.729
569.23	30.249
569.56	32.044
569.90	31.468
570.24	31.771
570.57	31.334
570.91	30.710
571.25	31.270
571.59	31.394
571.92	31.477
572.26	31.286
572.60	30.494
572.93	29.836
573.27	30.598
573.61	30.863
573.95	30.639
574.28	30.273
574.62	30.355
574.96	30.834
575.29	29.896
575.63	30.862
575.97	30.060
576.30	30.175
576.64	30.398
576.98	30.843
577.31	30.859
577.65	30.953
577.98	30.572
578.32	30.539
578.66	30.437
578.99	30.494
579.33	30.703
579.67	29.488
580.00	29.872
580.34	30.236
580.67	29.898
581.01	29.944
581.35	29.788
581.68	30.790
582.02	30.586
582.35	30.516
582.69	30.551
583.02	30.368
583.36	30.212
583.70	29.675
584.03	28.990
584.37	29.055
584.70	28.973
585.04	29.412
585.37	29.231
585.71	29.083
586.04	29.899
586.38	29.526
586.72	29.606
587.05	29.522
587.39	29.195
587.72	29.809
588.06	29.908
588.39	29.375
588.73	28.889
589.06	29.176
589.40	29.041
589.73	29.145
590.07	29.178
590.40	29.412
590.73	28.420
591.07	28.779
591.40	29.082
591.74	28.577
592.07	28.908
592.41	28.904
592.74	28.860
593.08	30.064
593.41	29.921
593.75	29.023
594.08	29.597
594.41	29.263
594.75	28.429
595.08	28.398
595.42	28.669
595.75	28.964
596.09	29.007
596.42	28.090
596.75	28.406
597.09	29.374
597.42	28.804
597.75	29.087
598.09	28.095
598.42	28.629
598.76	28.315
599.09	28.480
599.42	28.126
599.76	28.029
600.09	29.196
600.42	28.996
600.76	28.864
601.09	28.178
601.42	28.321
601.76	27.759
602.09	28.020
602.42	28.026
602.76	28.118
603.09	28.561
603.42	29.082
603.76	28.295
604.09	29.560
604.42	28.220
604.76	27.930
605.09	28.041
605.42	27.472
605.75	27.269
606.09	27.809
606.42	28.055
606.75	27.661
607.09	27.112
607.42	27.399
607.75	28.331
608.08	27.230
608.42	27.449
608.75	27.985
609.08	26.613
609.41	27.614
609.75	27.634
610.08	28.364
610.41	27.060
610.74	26.807
611.07	27.442
611.41	26.951
611.74	28.083
612.07	27.069
612.40	27.757
612.73	27.384
613.07	27.824
613.40	27.526
613.73	27.347
614.06	27.036
614.39	26.774
614.72	26.929
615.06	27.623
615.39	26.196
615.72	27.299
616.05	27.489
616.38	28.355
616.71	27.220
617.05	26.837
617.38	27.287
617.71	26.782
618.04	27.955
618.37	27.541
618.70	26.923
619.03	26.404
619.36	25.586
619.69	26.778
620.03	27.370
620.36	26.074
620.69	26.835
621.02	27.165
621.35	28.520
621.68	26.030
622.01	27.402
622.34	26.011
622.67	27.491
623.00	26.113
623.33	27.405
623.66	26.070
623.99	26.728
624.32	26.901
624.65	26.255
624.99	27.698
625.32	27.694
625.65	26.905
625.98	26.373
626.31	26.506
626.64	25.714
626.97	26.332
627.30	25.588
627.63	25.281
627.96	26.502
628.29	27.004
628.62	25.693
628.95	26.380
629.28	26.168
629.61	27.104
629.94	25.188
630.26	25.932
630.59	26.770
630.92	26.147
631.25	27.013
631.58	26.083
631.91	26.242
