SpectraSuite Data File
++++++++++++++++++++++++++++++++++++
Date: Thu May 14 16:04:47 PDT 2015
User: schluterlab
Dark Spectrum Present: Yes
Reference Spectrum Present: Yes
Number of Sampled Component Spectra: 1
Spectrometers: USB2E3373
Integration Time (usec): 3000 (USB2E3373)
Spectra Averaged: 3 (USB2E3373)
Boxcar Smoothing: 0 (USB2E3373)
Correct for Electrical Dark: No (USB2E3373)
Strobe/Lamp Enabled: No (USB2E3373)
Correct for Detector Non-linearity: No (USB2E3373)
Correct for Stray Light: No (USB2E3373)
Number of Pixels in Processed Spectrum: 2048
>>>>>Begin Processed Spectral Data<<<<<
178.53	0.000
178.91	342.857
179.29	-2200.000
179.67	-1300.000
180.04	228.571
180.42	130.000
180.80	320.000
181.18	-2200.000
181.56	-1300.000
181.94	350.000
182.31	-450.000
182.69	533.333
183.07	-700.000
183.45	500.000
183.83	-283.333
184.20	-300.000
184.58	800.000
184.96	-475.000
185.34	-77.778
185.72	-140.000
186.09	188.889
186.47	1050.000
186.85	480.000
187.23	-166.667
187.61	-2300.000
187.98	140.000
188.36	275.000
188.74	-325.000
189.12	-433.333
189.49	-68.750
189.87	-87.500
190.25	-144.444
190.63	-140.000
191.00	-177.778
191.38	0.000
191.76	-625.000
192.14	-200.000
192.51	600.000
192.89	-216.667
193.27	0.000
193.65	-242.857
194.02	-1900.000
194.40	-114.286
194.78	242.857
195.15	0.000
195.53	-136.364
195.91	0.000
196.29	-225.000
196.66	-46.154
197.04	-1500.000
197.42	-114.286
197.79	-850.000
198.17	-275.000
198.55	-257.143
198.92	-77.778
199.30	-100.000
199.68	-27.273
200.05	-107.143
200.43	-450.000
200.81	371.429
201.18	0.000
201.56	266.667
201.94	0.000
202.31	533.333
202.69	-222.222
203.07	600.000
203.44	-111.111
203.82	-475.000
204.19	-91.667
204.57	-100.000
204.95	-175.000
205.32	-900.000
205.70	425.000
206.08	-300.000
206.45	-216.667
206.83	440.000
207.20	-266.667
207.58	-460.000
207.96	-233.333
208.33	-266.667
208.71	100.000
209.08	-66.667
209.46	0.000
209.84	400.000
210.21	950.000
210.59	750.000
210.96	466.667
211.34	-150.000
211.71	25.000
212.09	-2100.000
212.46	0.000
212.84	1050.000
213.22	-380.000
213.59	-375.000
213.97	-50.000
214.34	-833.333
214.72	366.667
215.09	-450.000
215.47	0.000
215.84	157.143
216.22	1250.000
216.59	-360.000
216.97	-120.000
217.34	-275.000
217.72	-87.500
218.09	-325.000
218.47	-200.000
218.84	0.000
219.22	220.000
219.59	-100.000
219.97	-20.000
220.34	1000.000
220.72	-177.778
221.09	-84.615
221.47	-633.333
221.84	-20.000
222.22	-200.000
222.59	0.000
222.97	-200.000
223.34	-360.000
223.72	-1100.000
224.09	-275.000
224.46	-325.000
224.84	-20.000
225.21	-171.429
225.59	-425.000
225.96	-325.000
226.34	-23.077
226.71	400.000
227.08	-1100.000
227.46	-73.333
227.83	-475.000
228.21	-10.526
228.58	62.500
228.95	750.000
229.33	0.000
229.70	-40.000
230.08	15.789
230.45	180.000
230.82	-666.667
231.20	-100.000
231.57	-150.000
231.95	-100.000
232.32	-90.909
232.69	-45.000
233.07	-425.000
233.44	-52.941
233.81	-50.000
234.19	-27.778
234.56	-31.818
234.93	34.483
235.31	-36.842
235.68	-83.333
236.05	-80.000
236.43	-19.231
236.80	-4.000
237.17	-37.037
237.55	-27.273
237.92	-90.000
238.29	-35.484
238.67	-20.455
239.04	-22.222
239.41	-2.381
239.79	0.000
240.16	11.111
240.53	0.000
240.91	-17.647
241.28	3.279
241.65	7.463
242.02	22.973
242.40	10.769
242.77	21.333
243.14	14.634
243.51	5.263
243.89	21.795
244.26	34.653
244.63	20.588
245.00	22.430
245.38	19.298
245.75	7.965
246.12	18.254
246.49	20.930
246.87	20.714
247.24	26.490
247.61	30.263
247.98	20.134
248.36	23.457
248.73	20.245
249.10	23.497
249.47	32.836
249.84	36.649
250.22	23.316
250.59	25.000
250.96	27.727
251.33	22.449
251.70	26.496
252.08	26.250
252.45	29.098
252.82	30.579
253.19	21.094
253.56	25.475
253.94	26.154
254.31	25.758
254.68	31.469
255.05	22.476
255.42	26.190
255.79	27.832
256.16	29.470
256.54	21.523
256.91	26.885
257.28	29.836
257.65	29.618
258.02	24.484
258.39	30.199
258.76	29.664
259.14	31.609
259.51	29.683
259.88	27.195
260.25	29.722
260.62	28.767
260.99	27.049
261.36	32.172
261.73	28.117
262.10	27.747
262.47	29.759
262.85	30.051
263.22	31.169
263.59	25.263
263.96	30.179
264.33	28.389
264.70	29.877
265.07	30.788
265.44	31.066
265.81	28.935
266.18	30.385
266.55	29.241
266.92	31.435
267.29	30.853
267.66	27.938
268.03	31.004
268.40	27.766
268.77	28.474
269.14	29.295
269.51	29.825
269.88	31.148
270.25	25.956
270.62	28.903
270.99	29.899
271.36	28.317
271.73	29.273
272.10	30.060
272.47	30.661
272.84	26.908
273.21	26.253
273.58	28.831
273.95	27.115
274.32	26.806
274.69	27.853
275.06	27.473
275.43	26.063
275.80	29.982
276.17	26.667
276.54	26.679
276.91	25.581
277.28	27.486
277.65	28.007
278.02	26.471
278.39	28.261
278.76	25.659
279.13	26.950
279.50	28.351
279.87	29.159
280.23	25.528
280.60	28.475
280.97	27.961
281.34	26.316
281.71	29.611
282.08	27.741
282.45	27.660
282.82	26.688
283.19	26.010
283.56	25.902
283.92	27.327
284.29	29.384
284.66	26.929
285.03	27.404
285.40	27.512
285.77	27.399
286.14	26.718
286.51	25.723
286.87	26.224
287.24	26.506
287.61	27.653
287.98	25.378
288.35	26.479
288.72	27.959
289.08	26.501
289.45	25.296
289.82	26.054
290.19	25.718
290.56	26.479
290.93	28.531
291.29	26.997
291.66	24.793
292.03	23.745
292.40	26.395
292.77	26.280
293.13	23.545
293.50	22.733
293.87	23.893
294.24	26.667
294.60	25.158
294.97	24.161
295.34	24.840
295.71	22.446
296.08	22.351
296.44	23.529
296.81	22.777
297.18	23.661
297.55	24.528
297.91	23.013
298.28	20.498
298.65	23.306
299.02	22.786
299.38	22.769
299.75	22.547
300.12	21.296
300.48	23.041
300.85	23.960
301.22	22.819
301.59	21.804
301.95	22.486
302.32	21.444
302.69	23.111
303.05	22.851
303.42	22.506
303.79	22.188
304.15	22.503
304.52	20.719
304.89	21.675
305.25	21.532
305.62	22.675
305.99	22.474
306.35	21.472
306.72	23.371
307.09	21.624
307.45	22.567
307.82	23.915
308.19	22.301
308.55	23.240
308.92	22.980
309.29	22.893
309.65	21.735
310.02	21.386
310.38	22.638
310.75	23.592
311.12	23.969
311.48	22.581
311.85	23.457
312.22	23.719
312.58	23.286
312.95	23.518
313.31	24.661
313.68	23.810
314.05	24.210
314.41	26.138
314.78	24.886
315.14	24.773
315.51	25.854
315.87	24.662
316.24	25.936
316.61	26.199
316.97	23.982
317.34	25.661
317.70	26.288
318.07	25.397
318.43	26.276
318.80	27.174
319.16	27.039
319.53	24.507
319.89	26.468
320.26	25.890
320.62	26.862
320.99	27.054
321.35	27.264
321.72	28.651
322.08	28.043
322.45	28.636
322.81	27.708
323.18	27.345
323.54	29.052
323.91	29.181
324.27	28.744
324.64	30.227
325.00	30.514
325.37	31.122
325.73	30.331
326.10	30.900
326.46	31.270
326.83	31.785
327.19	32.047
327.56	32.095
327.92	32.179
328.29	31.210
328.65	32.915
329.01	33.164
329.38	32.182
329.74	33.733
330.11	35.188
330.47	33.867
330.84	33.592
331.20	33.750
331.56	34.835
331.93	34.561
332.29	36.102
332.66	35.548
333.02	34.506
333.38	34.899
333.75	35.522
334.11	35.863
334.48	35.396
334.84	36.024
335.20	34.929
335.57	35.582
335.93	37.025
336.29	35.524
336.66	35.997
337.02	34.783
337.38	35.969
337.75	35.207
338.11	36.669
338.47	36.973
338.84	36.294
339.20	35.383
339.56	34.596
339.93	35.550
340.29	34.783
340.65	36.659
341.02	36.313
341.38	35.974
341.74	36.239
342.11	37.249
342.47	35.266
342.83	37.118
343.20	37.531
343.56	36.969
343.92	36.990
344.28	36.484
344.65	35.736
345.01	36.427
345.37	37.636
345.73	35.152
346.10	36.427
346.46	36.709
346.82	35.880
347.19	36.669
347.55	37.102
347.91	36.330
348.27	37.329
348.63	38.005
349.00	37.286
349.36	36.952
349.72	35.640
350.08	37.221
350.45	36.654
350.81	38.160
351.17	36.842
351.53	37.074
351.89	37.661
352.26	37.910
352.62	37.910
352.98	37.939
353.34	36.296
353.70	38.059
354.07	37.109
354.43	38.345
354.79	38.519
355.15	38.411
355.51	37.865
355.87	37.023
356.24	38.327
356.60	37.103
356.96	38.028
357.32	37.621
357.68	37.848
358.04	38.174
358.40	36.940
358.77	38.889
359.13	38.109
359.49	36.059
359.85	37.854
360.21	37.733
360.57	38.263
360.93	38.717
361.29	37.474
361.66	39.537
362.02	39.109
362.38	38.580
362.74	40.014
363.10	39.752
363.46	39.335
363.82	39.631
364.18	38.987
364.54	38.935
364.90	38.930
365.26	40.138
365.62	39.867
365.98	40.776
366.35	39.597
366.71	40.272
367.07	41.001
367.43	38.345
367.79	39.881
368.15	41.003
368.51	40.528
368.87	39.647
369.23	39.667
369.59	40.984
369.95	39.959
370.31	40.851
370.67	40.371
371.03	41.066
371.39	39.825
371.75	41.334
372.11	40.108
372.47	39.878
372.83	40.576
373.19	40.627
373.55	41.328
373.91	41.036
374.27	42.303
374.63	42.287
374.99	41.313
375.35	41.948
375.71	42.194
376.07	41.898
376.42	41.121
376.78	42.759
377.14	41.859
377.50	42.315
377.86	42.426
378.22	42.335
378.58	43.639
378.94	42.019
379.30	42.941
379.66	42.563
380.02	42.816
380.38	43.433
380.74	43.775
381.09	43.438
381.45	43.523
381.81	44.438
382.17	42.815
382.53	43.509
382.89	42.664
383.25	44.725
383.61	42.245
383.97	43.816
384.32	46.292
384.68	43.213
385.04	44.824
385.40	45.138
385.76	44.900
386.12	44.285
386.48	44.353
386.83	45.828
387.19	44.844
387.55	45.423
387.91	45.491
388.27	45.554
388.62	45.074
388.98	44.050
389.34	45.256
389.70	46.426
390.06	44.642
390.42	45.964
390.77	45.876
391.13	45.305
391.49	45.894
391.85	45.515
392.20	46.856
392.56	46.190
392.92	46.728
393.28	47.595
393.64	46.704
393.99	45.671
394.35	47.780
394.71	47.605
395.07	45.868
395.42	46.716
395.78	47.715
396.14	46.702
396.50	47.150
396.85	46.452
397.21	45.858
397.57	48.292
397.92	47.938
398.28	47.474
398.64	46.110
399.00	46.283
399.35	47.225
399.71	48.207
400.07	47.951
400.42	48.545
400.78	48.206
401.14	48.662
401.49	48.778
401.85	48.023
402.21	49.247
402.57	48.885
402.92	49.823
403.28	47.951
403.63	47.912
403.99	49.109
404.35	48.209
404.70	49.008
405.06	48.261
405.42	48.829
405.77	50.109
406.13	49.001
406.49	49.493
406.84	49.086
407.20	50.531
407.55	49.364
407.91	49.466
408.27	49.176
408.62	49.971
408.98	50.319
409.34	48.563
409.69	50.371
410.05	50.059
410.40	50.870
410.76	49.299
411.11	50.263
411.47	50.799
411.83	50.323
412.18	50.663
412.54	50.563
412.89	50.524
413.25	50.847
413.60	49.339
413.96	51.748
414.31	50.822
414.67	49.791
415.03	50.708
415.38	50.883
415.74	49.725
416.09	53.054
416.45	51.158
416.80	50.857
417.16	51.341
417.51	50.498
417.87	52.299
418.22	50.958
418.58	51.859
418.93	52.154
419.29	51.233
419.64	51.261
420.00	52.166
420.35	51.881
420.71	51.177
421.06	51.064
421.42	51.319
421.77	50.081
422.12	50.687
422.48	51.562
422.83	52.245
423.19	51.565
423.54	51.991
423.90	51.408
424.25	52.427
424.61	52.124
424.96	52.444
425.31	51.911
425.67	51.047
426.02	52.297
426.38	52.239
426.73	51.339
427.09	52.076
427.44	51.120
427.79	52.184
428.15	51.884
428.50	52.191
428.85	51.206
429.21	52.340
429.56	51.728
429.92	51.351
430.27	51.470
430.62	52.320
430.98	51.156
431.33	51.320
431.68	51.006
432.04	52.666
432.39	53.508
432.74	51.941
433.10	53.056
433.45	52.230
433.80	51.502
434.16	51.911
434.51	54.214
434.86	53.040
435.22	52.816
435.57	54.068
435.92	53.033
436.28	52.503
436.63	53.304
436.98	51.315
437.34	53.495
437.69	52.119
438.04	52.671
438.39	53.073
438.75	52.241
439.10	52.061
439.45	52.990
439.81	52.542
440.16	52.922
440.51	51.394
440.86	52.752
441.22	51.768
441.57	53.407
441.92	51.940
442.27	53.939
442.63	53.055
442.98	53.095
443.33	52.393
443.68	53.617
444.03	52.587
444.39	53.028
444.74	53.037
445.09	52.255
445.44	53.583
445.79	52.826
446.15	53.905
446.50	52.558
446.85	52.772
447.20	51.596
447.55	52.720
447.91	52.618
448.26	53.066
448.61	52.869
448.96	54.614
449.31	52.969
449.66	52.778
450.02	53.165
450.37	52.531
450.72	53.175
451.07	53.872
451.42	52.513
451.77	53.141
452.12	54.176
452.47	53.357
452.83	54.730
453.18	54.874
453.53	53.073
453.88	52.181
454.23	54.463
454.58	53.337
454.93	53.398
455.28	54.365
455.63	52.985
455.98	53.073
456.34	52.120
456.69	53.674
457.04	54.551
457.39	53.160
457.74	54.027
458.09	52.608
458.44	54.634
458.79	53.378
459.14	52.543
459.49	53.707
459.84	53.253
460.19	53.914
460.54	53.379
460.89	54.050
461.24	53.966
461.59	53.735
461.94	53.736
462.29	54.143
462.64	54.013
462.99	53.547
463.34	54.056
463.69	53.693
464.04	53.585
464.39	54.428
464.74	53.022
465.09	54.152
465.44	52.575
465.79	52.829
466.14	52.267
466.49	54.579
466.84	54.325
467.19	53.584
467.54	52.761
467.89	53.046
468.24	53.463
468.59	54.372
468.94	53.438
469.29	54.529
469.64	53.973
469.99	53.983
470.34	54.889
470.68	56.323
471.03	55.141
471.38	54.088
471.73	54.681
472.08	55.393
472.43	54.425
472.78	55.793
473.13	55.247
473.48	55.166
473.83	56.065
474.17	54.689
474.52	56.464
474.87	54.485
475.22	56.338
475.57	55.348
475.92	55.152
476.27	55.378
476.61	54.517
476.96	54.745
477.31	54.901
477.66	55.929
478.01	55.160
478.36	55.783
478.70	55.320
479.05	55.419
479.40	56.663
479.75	54.995
480.10	55.613
480.45	55.515
480.79	55.964
481.14	54.504
481.49	55.657
481.84	56.179
482.19	55.656
482.53	56.143
482.88	56.890
483.23	56.781
483.58	56.201
483.92	55.142
484.27	55.250
484.62	55.693
484.97	55.093
485.31	54.558
485.66	52.066
486.01	50.323
486.36	51.860
486.70	53.532
487.05	55.487
487.40	55.120
487.75	55.522
488.09	55.931
488.44	55.179
488.79	55.953
489.13	55.250
489.48	55.961
489.83	56.298
490.17	56.015
490.52	55.747
490.87	55.880
491.22	57.452
491.56	56.698
491.91	56.127
492.26	56.512
492.60	56.493
492.95	56.384
493.30	57.060
493.64	56.855
493.99	57.281
494.34	56.228
494.68	56.702
495.03	56.079
495.37	57.079
495.72	57.551
496.07	56.617
496.41	56.542
496.76	56.339
497.11	57.749
497.45	56.884
497.80	56.775
498.14	57.279
498.49	56.710
498.84	58.455
499.18	57.175
499.53	57.892
499.87	58.286
500.22	57.213
500.56	56.905
500.91	57.437
501.26	57.909
501.60	57.269
501.95	57.577
502.29	58.140
502.64	58.155
502.98	57.463
503.33	56.587
503.67	57.523
504.02	56.786
504.36	59.160
504.71	60.175
505.06	58.436
505.40	59.278
505.75	59.335
506.09	59.024
506.44	60.121
506.78	59.587
507.13	58.230
507.47	59.687
507.82	58.617
508.16	59.751
508.51	60.056
508.85	58.762
509.19	60.114
509.54	60.375
509.88	59.932
510.23	60.466
510.57	60.416
510.92	60.377
511.26	59.163
511.61	59.054
511.95	59.785
512.30	62.235
512.64	59.570
512.98	60.480
513.33	61.845
513.67	62.213
514.02	61.114
514.36	62.199
514.70	61.406
515.05	62.669
515.39	62.205
515.74	63.150
516.08	62.758
516.42	63.213
516.77	62.881
517.11	62.403
517.46	62.831
517.80	62.961
518.14	64.744
518.49	64.100
518.83	61.948
519.17	62.412
519.52	63.784
519.86	63.886
520.20	64.483
520.55	65.991
520.89	64.696
521.23	64.042
521.58	66.271
521.92	65.609
522.26	64.834
522.61	64.815
522.95	65.802
523.29	65.977
523.64	65.471
523.98	66.458
524.32	67.908
524.66	65.509
525.01	65.572
525.35	65.537
525.69	65.545
526.04	65.959
526.38	65.977
526.72	66.667
527.06	67.977
527.41	67.522
527.75	68.112
528.09	67.237
528.43	66.726
528.78	67.168
529.12	65.195
529.46	66.048
529.80	67.391
530.15	65.739
530.49	67.200
530.83	67.946
531.17	67.622
531.51	68.953
531.86	68.209
532.20	67.622
532.54	66.008
532.88	67.152
533.22	66.293
533.57	66.936
533.91	67.059
534.25	66.874
534.59	67.184
534.93	66.497
535.27	67.042
535.62	67.311
535.96	69.320
536.30	66.157
536.64	66.967
536.98	68.942
537.32	66.543
537.66	68.497
538.01	67.009
538.35	67.357
538.69	67.188
539.03	68.608
539.37	66.608
539.71	67.447
540.05	67.806
540.39	67.848
540.73	67.213
541.07	69.283
541.42	67.690
541.76	67.556
542.10	67.491
542.44	67.661
542.78	67.883
543.12	65.971
543.46	66.850
543.80	66.367
544.14	67.504
544.48	67.139
544.82	68.582
545.16	67.680
545.50	68.424
545.84	66.993
546.18	68.580
546.52	68.344
546.86	68.239
547.20	69.084
547.54	66.667
547.88	67.269
548.22	66.257
548.56	66.530
548.90	67.881
549.24	68.571
549.58	67.066
549.92	67.730
550.26	68.932
550.60	67.709
550.94	68.693
551.28	67.525
551.62	70.620
551.96	66.019
552.30	68.642
552.64	68.015
552.98	66.875
553.32	68.424
553.66	68.232
554.00	68.222
554.34	67.246
554.68	67.786
555.02	67.871
555.36	69.822
555.69	67.136
556.03	66.583
556.37	67.084
556.71	68.992
557.05	68.818
557.39	68.082
557.73	69.749
558.07	68.477
558.41	68.771
558.75	69.777
559.08	68.337
559.42	69.410
559.76	67.707
560.10	69.324
560.44	69.195
560.78	67.375
561.12	67.488
561.45	68.127
561.79	67.643
562.13	67.714
562.47	68.126
562.81	68.291
563.15	68.434
563.48	68.614
563.82	67.170
564.16	66.505
564.50	67.461
564.84	66.785
565.17	67.529
565.51	66.858
565.85	67.815
566.19	66.014
566.52	66.823
566.86	66.271
567.20	65.416
567.54	66.437
567.88	66.769
568.21	66.008
568.55	66.091
568.89	64.367
569.23	64.259
569.56	63.423
569.90	63.471
570.24	62.934
570.57	62.316
570.91	61.053
571.25	61.180
571.59	61.341
571.92	61.087
572.26	60.561
572.60	61.125
572.93	61.063
573.27	61.169
573.61	59.926
573.95	59.966
574.28	58.841
574.62	59.504
574.96	58.800
575.29	58.779
575.63	59.552
575.97	59.808
576.30	59.240
576.64	59.628
576.98	60.114
577.31	59.593
577.65	59.451
577.98	58.283
578.32	58.154
578.66	58.217
578.99	58.059
579.33	59.649
579.67	58.840
580.00	58.980
580.34	58.202
580.67	58.782
581.01	59.217
581.35	58.523
581.68	57.498
582.02	57.264
582.35	58.632
582.69	58.775
583.02	58.662
583.36	59.129
583.70	59.418
584.03	60.043
584.37	59.714
584.70	59.046
585.04	58.428
585.37	58.175
585.71	57.368
586.04	58.388
586.38	57.846
586.72	58.536
587.05	59.453
587.39	59.187
587.72	59.091
588.06	58.970
588.39	58.825
588.73	59.206
589.06	60.299
589.40	60.787
589.73	60.990
590.07	60.013
590.40	60.345
590.73	59.385
591.07	60.834
591.40	61.198
591.74	61.049
592.07	60.658
592.41	60.292
592.74	59.283
593.08	59.268
593.41	59.522
593.75	58.592
594.08	59.406
594.41	59.615
594.75	58.353
595.08	59.690
595.42	60.032
595.75	60.381
596.09	60.488
596.42	60.480
596.75	61.328
597.09	60.889
597.42	60.667
597.75	59.428
598.09	59.762
598.42	60.756
598.76	59.763
599.09	58.526
599.42	58.062
599.76	58.930
600.09	58.425
600.42	57.524
600.76	59.016
601.09	58.546
601.42	58.943
601.76	58.621
602.09	59.042
602.42	59.651
602.76	58.708
603.09	59.765
603.42	58.851
603.76	58.739
604.09	59.865
604.42	58.752
604.76	59.665
605.09	60.271
605.42	58.772
605.75	58.615
606.09	59.388
606.42	58.300
606.75	58.696
607.09	58.333
607.42	58.767
607.75	59.476
608.08	58.248
608.42	58.686
608.75	59.950
609.08	57.598
609.41	59.109
609.75	59.732
610.08	59.938
610.41	58.879
610.74	58.739
611.07	59.769
611.41	59.641
611.74	59.769
612.07	59.748
612.40	59.030
612.73	60.538
613.07	58.240
613.40	60.731
613.73	59.701
614.06	61.482
614.39	59.670
614.72	59.486
615.06	58.807
615.39	60.077
615.72	59.668
616.05	58.524
616.38	60.999
616.71	60.345
617.05	60.224
617.38	59.979
617.71	60.583
618.04	60.443
618.37	62.240
618.70	62.217
619.03	61.290
619.36	62.022
619.69	62.140
620.03	61.645
620.36	60.675
620.69	61.629
621.02	63.255
621.35	66.328
621.68	64.642
622.01	62.705
622.34	63.877
622.67	62.405
623.00	62.078
623.33	62.376
623.66	62.062
623.99	61.949
624.32	62.378
624.65	61.776
624.99	62.809
625.32	62.639
625.65	61.497
625.98	62.034
626.31	62.863
626.64	62.784
626.97	63.916
627.30	62.566
627.63	63.091
627.96	63.363
628.29	62.412
628.62	65.155
628.95	64.943
629.28	64.571
629.61	64.478
629.94	63.347
630.26	63.390
630.59	64.767
630.92	63.203
631.25	65.385
631.58	66.478
631.91	65.886
