SpectraSuite Data File
++++++++++++++++++++++++++++++++++++
Date: Thu May 14 16:04:33 PDT 2015
User: schluterlab
Dark Spectrum Present: Yes
Reference Spectrum Present: Yes
Number of Sampled Component Spectra: 1
Spectrometers: USB2E3373
Integration Time (usec): 3000 (USB2E3373)
Spectra Averaged: 3 (USB2E3373)
Boxcar Smoothing: 0 (USB2E3373)
Correct for Electrical Dark: No (USB2E3373)
Strobe/Lamp Enabled: No (USB2E3373)
Correct for Detector Non-linearity: No (USB2E3373)
Correct for Stray Light: No (USB2E3373)
Number of Pixels in Processed Spectrum: 2048
>>>>>Begin Processed Spectral Data<<<<<
178.53	0.000
178.91	185.714
179.29	-2100.000
179.67	-1900.000
180.04	200.000
180.42	60.000
180.80	260.000
181.18	-1100.000
181.56	-1400.000
181.94	375.000
182.31	-325.000
182.69	533.333
183.07	-650.000
183.45	575.000
183.83	-266.667
184.20	-700.000
184.58	900.000
184.96	-475.000
185.34	-155.556
185.72	-80.000
186.09	255.556
186.47	800.000
186.85	440.000
187.23	-244.444
187.61	-2000.000
187.98	100.000
188.36	575.000
188.74	-375.000
189.12	-233.333
189.49	-50.000
189.87	-150.000
190.25	-100.000
190.63	-260.000
191.00	-177.778
191.38	0.000
191.76	-675.000
192.14	-216.667
192.51	300.000
192.89	-200.000
193.27	0.000
193.65	-114.286
194.02	-2200.000
194.40	-85.714
194.78	214.286
195.15	0.000
195.53	-154.545
195.91	0.000
196.29	-325.000
196.66	-115.385
197.04	-2000.000
197.42	-271.429
197.79	-800.000
198.17	-200.000
198.55	-171.429
198.92	-144.444
199.30	-125.000
199.68	-136.364
200.05	-42.857
200.43	-850.000
200.81	385.714
201.18	0.000
201.56	288.889
201.94	0.000
202.31	700.000
202.69	-277.778
203.07	1800.000
203.44	-11.111
203.82	-175.000
204.19	-8.333
204.57	-250.000
204.95	-162.500
205.32	-1100.000
205.70	350.000
206.08	-50.000
206.45	-83.333
206.83	300.000
207.20	-50.000
207.58	-540.000
207.96	-283.333
208.33	-83.333
208.71	100.000
209.08	-16.667
209.46	0.000
209.84	300.000
210.21	600.000
210.59	800.000
210.96	666.667
211.34	-325.000
211.71	-175.000
212.09	-1200.000
212.46	0.000
212.84	1450.000
213.22	-300.000
213.59	-325.000
213.97	-40.000
214.34	-500.000
214.72	383.333
215.09	-350.000
215.47	0.000
215.84	242.857
216.22	1150.000
216.59	-140.000
216.97	-200.000
217.34	-375.000
217.72	-187.500
218.09	-450.000
218.47	-575.000
218.84	0.000
219.22	260.000
219.59	-41.176
219.97	-45.000
220.34	800.000
220.72	-166.667
221.09	-84.615
221.47	-533.333
221.84	-190.000
222.22	-171.429
222.59	0.000
222.97	-137.500
223.34	-420.000
223.72	-1500.000
224.09	-375.000
224.46	-525.000
224.84	-220.000
225.21	-200.000
225.59	-350.000
225.96	-350.000
226.34	-23.077
226.71	366.667
227.08	-750.000
227.46	-133.333
227.83	-425.000
228.21	-36.842
228.58	212.500
228.95	1050.000
229.33	-91.667
229.70	-70.000
230.08	26.316
230.45	200.000
230.82	-533.333
231.20	-50.000
231.57	16.667
231.95	-81.818
232.32	-90.909
232.69	-35.000
233.07	-425.000
233.44	-52.941
233.81	-100.000
234.19	-5.556
234.56	-36.364
234.93	-6.897
235.31	-15.789
235.68	-61.111
236.05	-45.000
236.43	-15.385
236.80	16.000
237.17	-22.222
237.55	-9.091
237.92	-130.000
238.29	-51.613
238.67	-20.455
239.04	0.000
239.41	-23.810
239.79	-8.696
240.16	1.852
240.53	-2.174
240.91	3.922
241.28	1.639
241.65	22.388
242.02	14.865
242.40	-7.692
242.77	14.667
243.14	6.098
243.51	3.947
243.89	15.385
244.26	28.713
244.63	20.588
245.00	17.757
245.38	18.421
245.75	16.814
246.12	20.635
246.49	17.829
246.87	23.571
247.24	23.841
247.61	30.263
247.98	25.503
248.36	20.370
248.73	22.699
249.10	22.951
249.47	24.876
249.84	27.749
250.22	22.798
250.59	21.111
250.96	28.636
251.33	20.918
251.70	24.359
252.08	23.333
252.45	25.410
252.82	20.248
253.19	24.219
253.56	24.335
253.94	23.077
254.31	25.000
254.68	29.021
255.05	26.710
255.42	27.891
255.79	24.919
256.16	27.815
256.54	24.834
256.91	28.525
257.28	27.541
257.65	26.752
258.02	25.074
258.39	26.211
258.76	32.110
259.14	29.598
259.51	26.513
259.88	22.946
260.25	30.000
260.62	28.493
260.99	31.421
261.36	29.491
261.73	23.607
262.10	30.769
262.47	28.954
262.85	31.818
263.22	25.455
263.59	25.263
263.96	28.389
264.33	29.156
264.70	32.346
265.07	30.549
265.44	28.345
265.81	27.315
266.18	30.385
266.55	30.804
266.92	28.929
267.29	28.884
267.66	27.938
268.03	27.074
268.40	27.766
268.77	27.790
269.14	31.278
269.51	28.070
269.88	28.893
270.25	29.779
270.62	29.325
270.99	27.475
271.36	27.327
271.73	31.827
272.10	30.461
272.47	30.461
272.84	26.104
273.21	26.253
273.58	26.210
273.95	29.038
274.32	26.616
274.69	26.692
275.06	29.121
275.43	24.399
275.80	28.219
276.17	27.407
276.54	25.933
276.91	27.191
277.28	28.029
277.65	30.880
278.02	27.941
278.39	28.804
278.76	28.295
279.13	28.723
279.50	27.663
279.87	27.191
280.23	24.824
280.60	25.932
280.97	27.467
281.34	27.844
281.71	29.272
282.08	26.744
282.45	25.368
282.82	27.473
283.19	26.979
283.56	24.918
283.92	27.628
284.29	26.856
284.66	28.407
285.03	24.519
285.40	25.657
285.77	25.387
286.14	26.107
286.51	26.180
286.87	25.434
287.24	26.205
287.61	26.756
287.98	24.622
288.35	26.036
288.72	24.852
289.08	25.329
289.45	24.556
289.82	23.645
290.19	23.994
290.56	26.197
290.93	23.680
291.29	24.931
291.66	22.590
292.03	23.745
292.40	25.850
292.77	23.989
293.13	22.869
293.50	21.419
293.87	23.221
294.24	24.667
294.60	22.503
294.97	22.550
295.34	23.816
295.71	21.690
296.08	20.026
296.44	21.691
296.81	21.924
297.18	20.922
297.55	20.873
297.91	21.590
298.28	20.379
298.65	19.857
299.02	20.661
299.38	20.252
299.75	20.794
300.12	20.602
300.48	20.392
300.85	20.247
301.22	21.253
301.59	19.521
301.95	21.469
302.32	20.333
302.69	20.153
303.05	19.260
303.42	19.069
303.79	19.479
304.15	18.822
304.52	18.710
304.89	19.372
305.25	19.358
305.62	18.704
305.99	20.825
306.35	18.044
306.72	20.476
307.09	18.579
307.45	20.600
307.82	20.383
308.19	17.760
308.55	19.865
308.92	19.474
309.29	19.636
309.65	20.078
310.02	19.109
310.38	18.602
310.75	19.806
311.12	19.751
311.48	18.182
311.85	18.044
312.22	19.545
312.58	18.404
312.95	17.495
313.31	18.790
313.68	20.147
314.05	19.151
314.41	19.581
314.78	19.074
315.14	18.693
315.51	19.114
315.87	19.892
316.24	19.635
316.61	19.005
316.97	18.371
317.34	19.048
317.70	18.603
318.07	18.166
318.43	18.963
318.80	19.398
319.16	18.197
319.53	18.595
319.89	16.126
320.26	18.060
320.62	17.996
320.99	18.560
321.35	18.484
321.72	19.535
322.08	19.657
322.45	18.880
322.81	19.224
323.18	18.142
323.54	19.655
323.91	19.217
324.27	18.417
324.64	18.808
325.00	18.574
325.37	18.591
325.73	18.099
326.10	18.329
326.46	18.404
326.83	18.335
327.19	18.898
327.56	18.261
327.92	18.489
328.29	17.500
328.65	18.258
329.01	18.528
329.38	18.955
329.74	18.236
330.11	18.836
330.47	19.629
330.84	18.346
331.20	20.000
331.56	17.678
331.93	18.494
332.29	19.322
332.66	17.442
333.02	18.593
333.38	17.785
333.75	18.687
334.11	18.098
334.48	17.904
334.84	19.796
335.20	17.800
335.57	18.971
335.93	18.926
336.29	16.556
336.66	18.503
337.02	16.973
337.38	17.942
337.75	18.678
338.11	18.839
338.47	18.445
338.84	17.766
339.20	17.102
339.56	18.287
339.93	18.062
340.29	17.794
340.65	17.275
341.02	18.196
341.38	18.513
341.74	18.483
342.11	17.619
342.47	16.759
342.83	18.599
343.20	17.989
343.56	17.723
343.92	16.974
344.28	17.969
344.65	18.450
345.01	17.863
345.37	17.418
345.73	16.836
346.10	17.707
346.46	16.851
346.82	17.753
347.19	17.189
347.55	17.223
347.91	17.608
348.27	16.995
348.63	17.289
349.00	16.853
349.36	17.844
349.72	18.006
350.08	18.351
350.45	16.426
350.81	16.817
351.17	16.917
351.53	16.755
351.89	17.995
352.26	17.836
352.62	16.343
352.98	17.176
353.34	15.982
353.70	15.948
354.07	16.095
354.43	17.008
354.79	17.203
355.15	16.336
355.51	16.740
355.87	16.679
356.24	17.490
356.60	17.443
356.96	16.457
357.32	16.283
357.68	15.959
358.04	16.542
358.40	15.970
358.77	17.544
359.13	15.214
359.49	15.465
359.85	16.171
360.21	16.212
360.57	16.224
360.93	16.150
361.29	15.930
361.66	15.713
362.02	16.980
362.38	16.163
362.74	15.642
363.10	16.781
363.46	15.928
363.82	16.761
364.18	16.045
364.54	17.012
364.90	16.856
365.26	16.345
365.62	17.200
365.98	16.746
366.35	15.839
366.71	17.551
367.07	16.103
367.43	16.218
367.79	15.727
368.15	17.191
368.51	16.712
368.87	16.460
369.23	16.133
369.59	16.189
369.95	16.024
370.31	15.463
370.67	15.612
371.03	15.859
371.39	15.111
371.75	16.300
372.11	15.854
372.47	15.369
372.83	15.903
373.19	15.944
373.55	15.447
373.91	15.337
374.27	15.847
374.63	15.223
374.99	16.180
375.35	15.974
375.71	15.613
376.07	16.269
376.42	15.617
376.78	15.413
377.14	15.533
377.50	15.813
377.86	16.256
378.22	15.988
378.58	16.350
378.94	15.845
379.30	15.876
379.66	16.285
380.02	16.042
380.38	16.475
380.74	15.662
381.09	15.679
381.45	15.625
381.81	15.984
382.17	15.736
382.53	15.439
382.89	15.858
383.25	15.533
383.61	15.914
383.97	15.312
384.32	15.371
384.68	14.849
385.04	16.079
385.40	15.734
385.76	16.237
386.12	15.560
386.48	15.118
386.83	17.044
387.19	16.280
387.55	14.789
387.91	15.468
388.27	15.647
388.62	15.578
388.98	14.608
389.34	16.028
389.70	15.456
390.06	14.742
390.42	16.084
390.77	15.172
391.13	15.200
391.49	15.278
391.85	14.727
392.20	16.251
392.56	15.180
392.92	16.031
393.28	15.699
393.64	15.140
393.99	15.979
394.35	16.355
394.71	15.509
395.07	15.808
395.42	15.306
395.78	15.722
396.14	15.805
396.50	15.024
396.85	15.086
397.21	15.325
397.57	15.607
397.92	15.235
398.28	15.426
398.64	15.389
399.00	15.288
399.35	14.293
399.71	15.217
400.07	14.992
400.42	15.832
400.78	15.856
401.14	15.709
401.49	16.032
401.85	14.360
402.21	15.353
402.57	15.728
402.92	15.248
403.28	15.047
403.63	14.558
403.99	15.143
404.35	14.838
404.70	14.958
405.06	15.000
405.42	15.340
405.77	15.867
406.13	15.181
406.49	15.259
406.84	14.903
407.20	14.757
407.55	15.445
407.91	15.273
408.27	15.077
408.62	15.183
408.98	14.858
409.34	14.370
409.69	15.328
410.05	15.533
410.40	16.241
410.76	14.582
411.11	15.780
411.47	15.725
411.83	15.873
412.18	15.241
412.54	15.945
412.89	14.959
413.25	15.237
413.60	16.140
413.96	15.967
414.31	15.524
414.67	15.086
415.03	15.508
415.38	15.259
415.74	14.661
416.09	16.039
416.45	15.028
416.80	15.116
417.16	15.900
417.51	14.508
417.87	15.635
418.22	15.090
418.58	15.180
418.93	15.716
419.29	15.660
419.64	15.006
420.00	15.134
420.35	15.160
420.71	15.049
421.06	15.009
421.42	15.080
421.77	14.809
422.12	15.328
422.48	14.900
422.83	15.991
423.19	14.536
423.54	15.100
423.90	15.185
424.25	15.200
424.61	15.499
424.96	15.815
425.31	15.817
425.67	14.868
426.02	14.167
426.38	14.925
426.73	14.788
427.09	15.744
427.44	14.746
427.79	15.312
428.15	14.612
428.50	14.494
428.85	14.925
429.21	16.064
429.56	15.400
429.92	16.167
430.27	14.747
430.62	15.095
430.98	15.199
431.33	15.396
431.68	14.416
432.04	15.236
432.39	14.944
432.74	14.555
433.10	15.846
433.45	14.939
433.80	14.807
434.16	15.444
434.51	15.211
434.86	14.875
435.22	15.197
435.57	15.920
435.92	15.359
436.28	15.643
436.63	14.855
436.98	14.761
437.34	15.163
437.69	15.025
438.04	15.124
438.39	14.360
438.75	14.499
439.10	15.222
439.45	15.260
439.81	15.028
440.16	14.424
440.51	15.217
440.86	14.897
441.22	15.541
441.57	14.937
441.92	15.616
442.27	15.101
442.63	14.605
442.98	14.995
443.33	15.413
443.68	15.808
444.03	15.757
444.39	15.858
444.74	15.518
445.09	15.256
445.44	16.228
445.79	15.517
446.15	15.005
446.50	15.142
446.85	15.370
447.20	15.280
447.55	14.278
447.91	15.131
448.26	15.751
448.61	15.781
448.96	17.114
449.31	15.005
449.66	14.542
450.02	15.243
450.37	15.770
450.72	14.909
451.07	14.920
451.42	14.385
451.77	14.175
452.12	15.181
452.47	14.201
452.83	14.809
453.18	14.828
453.53	14.589
453.88	14.412
454.23	15.141
454.58	15.322
454.93	14.442
455.28	14.690
455.63	15.634
455.98	14.972
456.34	15.430
456.69	14.756
457.04	14.775
457.39	14.911
457.74	15.604
458.09	13.893
458.44	15.948
458.79	14.647
459.14	14.788
459.49	14.997
459.84	15.005
460.19	14.881
460.54	15.162
460.89	14.770
461.24	14.310
461.59	15.108
461.94	14.718
462.29	14.614
462.64	14.243
462.99	15.819
463.34	14.406
463.69	14.889
464.04	15.453
464.39	15.247
464.74	15.051
465.09	14.937
465.44	14.700
465.79	15.812
466.14	15.425
466.49	14.737
466.84	14.215
467.19	15.029
467.54	14.219
467.89	14.368
468.24	15.069
468.59	14.534
468.94	14.336
469.29	14.397
469.64	14.050
469.99	14.723
470.34	14.109
470.68	14.833
471.03	15.128
471.38	13.473
471.73	13.654
472.08	14.911
472.43	14.750
472.78	14.421
473.13	14.539
473.48	15.045
473.83	15.206
474.17	14.596
474.52	14.853
474.87	16.002
475.22	14.535
475.57	14.590
475.92	14.833
476.27	14.856
476.61	15.057
476.96	14.755
477.31	14.851
477.66	14.900
478.01	14.489
478.36	14.307
478.70	15.271
479.05	15.286
479.40	14.659
479.75	15.514
480.10	15.443
480.45	14.540
480.79	14.694
481.14	14.890
481.49	15.402
481.84	15.405
482.19	15.054
482.53	15.173
482.88	15.197
483.23	15.696
483.58	14.148
483.92	14.317
484.27	14.945
484.62	14.728
484.97	14.502
485.31	14.713
485.66	14.880
486.01	14.866
486.36	15.230
486.70	16.073
487.05	16.264
487.40	16.020
487.75	15.980
488.09	15.666
488.44	15.197
488.79	15.548
489.13	15.025
489.48	14.680
489.83	13.843
490.17	14.419
490.52	14.204
490.87	14.002
491.22	14.471
491.56	14.889
491.91	15.264
492.26	14.626
492.60	14.298
492.95	14.085
493.30	14.343
493.64	14.104
493.99	14.518
494.34	14.024
494.68	14.518
495.03	14.670
495.37	14.558
495.72	14.422
496.07	14.987
496.41	13.771
496.76	14.554
497.11	14.565
497.45	14.674
497.80	14.394
498.14	14.830
498.49	14.476
498.84	14.991
499.18	14.260
499.53	14.753
499.87	14.857
500.22	13.847
500.56	14.215
500.91	14.874
501.26	15.045
501.60	14.008
501.95	15.154
502.29	14.261
502.64	14.561
502.98	14.280
503.33	13.823
503.67	13.694
504.02	14.405
504.36	14.835
504.71	14.469
505.06	14.416
505.40	13.940
505.75	15.073
506.09	14.273
506.44	14.485
506.78	14.266
507.13	14.154
507.47	14.448
507.82	14.110
508.16	14.293
508.51	13.971
508.85	14.124
509.19	14.590
509.54	14.601
509.88	13.987
510.23	14.716
510.57	14.355
510.92	13.933
511.26	13.901
511.61	13.423
511.95	13.665
512.30	14.476
512.64	13.443
512.98	13.557
513.33	14.617
513.67	13.819
514.02	14.308
514.36	14.220
514.70	13.438
515.05	13.973
515.39	13.648
515.74	14.952
516.08	14.369
516.42	14.390
516.77	13.985
517.11	13.925
517.46	14.634
517.80	14.858
518.14	14.037
518.49	14.534
518.83	14.210
519.17	13.786
519.52	14.675
519.86	14.361
520.20	14.590
520.55	14.129
520.89	14.245
521.23	13.847
521.58	14.633
521.92	13.768
522.26	13.345
522.61	14.062
522.95	13.841
523.29	14.195
523.64	14.742
523.98	13.748
524.32	15.014
524.66	13.887
525.01	13.533
525.35	13.728
525.69	14.153
526.04	13.548
526.38	14.368
526.72	14.360
527.06	13.431
527.41	14.577
527.75	13.361
528.09	13.991
528.43	13.736
528.78	13.757
529.12	13.131
529.46	13.772
529.80	14.645
530.15	13.565
530.49	13.108
530.83	14.286
531.17	14.217
531.51	14.320
531.86	13.882
532.20	14.207
532.54	13.764
532.88	14.061
533.22	14.732
533.57	13.964
533.91	14.422
534.25	14.019
534.59	13.793
534.93	14.318
535.27	14.873
535.62	13.985
535.96	13.945
536.30	13.749
536.64	15.736
536.98	14.145
537.32	14.383
537.66	14.722
538.01	13.897
538.35	14.434
538.69	13.582
539.03	14.960
539.37	14.252
539.71	14.174
540.05	14.808
540.39	12.958
540.73	14.633
541.07	14.163
541.42	14.176
541.76	13.701
542.10	13.752
542.44	13.216
542.78	14.538
543.12	14.362
543.46	13.858
543.80	14.209
544.14	14.303
544.48	14.657
544.82	15.021
545.16	14.431
545.50	14.320
545.84	14.207
546.18	14.938
546.52	13.694
546.86	14.465
547.20	13.995
547.54	14.045
547.88	14.286
548.22	14.503
548.56	14.394
548.90	14.687
549.24	14.468
549.58	15.016
549.92	13.584
550.26	14.951
550.60	14.103
550.94	14.166
551.28	14.323
551.62	14.286
551.96	13.269
552.30	14.404
552.64	14.686
552.98	14.099
553.32	14.662
553.66	14.277
554.00	14.376
554.34	13.320
554.68	13.428
555.02	13.535
555.36	14.859
555.69	13.965
556.03	14.439
556.37	14.393
556.71	14.141
557.05	14.824
557.39	14.134
557.73	14.729
558.07	14.437
558.41	15.083
558.75	13.996
559.08	14.544
559.42	13.649
559.76	14.043
560.10	14.133
560.44	13.984
560.78	14.938
561.12	14.347
561.45	15.146
561.79	14.408
562.13	14.787
562.47	14.242
562.81	13.987
563.15	13.952
563.48	14.046
563.82	14.994
564.16	13.992
564.50	14.422
564.84	15.103
565.17	15.000
565.51	14.672
565.85	14.667
566.19	14.113
566.52	14.453
566.86	14.488
567.20	13.921
567.54	15.029
567.88	14.679
568.21	15.069
568.55	14.964
568.89	15.161
569.23	15.801
569.56	15.514
569.90	15.217
570.24	15.548
570.57	15.138
570.91	15.370
571.25	15.534
571.59	15.836
571.92	15.219
572.26	15.828
572.60	15.807
572.93	16.309
573.27	16.493
573.61	15.776
573.95	16.096
574.28	15.978
574.62	15.803
574.96	15.527
575.29	15.774
575.63	16.008
575.97	16.263
576.30	15.717
576.64	15.891
576.98	16.219
577.31	16.229
577.65	16.364
577.98	16.114
578.32	16.345
578.66	16.076
578.99	16.363
579.33	16.185
579.67	15.911
580.00	16.071
580.34	16.558
580.67	15.909
581.01	16.119
581.35	16.131
581.68	16.078
582.02	16.075
582.35	16.656
582.69	16.507
583.02	16.558
583.36	16.328
583.70	15.633
584.03	15.935
584.37	15.749
584.70	16.137
585.04	15.857
585.37	16.107
585.71	15.707
586.04	15.918
586.38	15.970
586.72	15.342
587.05	15.324
587.39	16.255
587.72	16.148
588.06	16.320
588.39	15.957
588.73	16.349
589.06	16.027
589.40	15.642
589.73	15.746
590.07	15.948
590.40	16.396
590.73	15.306
591.07	16.046
591.40	15.669
591.74	15.223
592.07	15.875
592.41	15.260
592.74	15.193
593.08	16.083
593.41	15.981
593.75	16.092
594.08	15.147
594.41	15.801
594.75	15.775
595.08	15.646
595.42	15.682
595.75	15.951
596.09	15.723
596.42	15.478
596.75	16.210
597.09	16.040
597.42	15.058
597.75	15.445
598.09	15.873
598.42	16.043
598.76	14.788
599.09	15.344
599.42	15.320
599.76	15.187
600.09	15.749
600.42	15.249
600.76	15.357
601.09	15.101
601.42	15.551
601.76	15.621
602.09	15.082
602.42	15.558
602.76	15.535
603.09	15.749
603.42	16.004
603.76	15.645
604.09	16.111
604.42	15.670
604.76	15.297
605.09	15.716
605.42	15.710
605.75	16.038
606.09	15.304
606.42	15.359
606.75	14.993
607.09	14.747
607.42	15.491
607.75	15.709
608.08	15.351
608.42	15.276
608.75	15.299
609.08	15.025
609.41	14.733
609.75	15.223
610.08	15.303
610.41	14.911
610.74	15.210
611.07	15.364
611.41	14.933
611.74	15.242
612.07	14.914
612.40	14.829
612.73	15.550
613.07	14.963
613.40	15.111
613.73	15.166
614.06	15.604
614.39	15.209
614.72	14.944
615.06	15.784
615.39	14.790
615.72	14.929
616.05	14.716
616.38	15.136
616.71	15.047
617.05	14.696
617.38	15.516
617.71	15.551
618.04	15.111
618.37	15.355
618.70	15.215
619.03	14.636
619.36	14.303
619.69	14.606
620.03	14.375
620.36	14.479
620.69	13.819
621.02	14.698
621.35	13.570
621.68	14.389
622.01	15.302
622.34	13.877
622.67	14.433
623.00	13.698
623.33	15.461
623.66	14.332
623.99	14.022
624.32	15.010
624.65	14.157
624.99	14.954
625.32	15.545
625.65	15.307
625.98	13.627
626.31	14.033
626.64	14.725
626.97	13.428
627.30	13.819
627.63	14.554
627.96	14.940
628.29	13.852
628.62	14.274
628.95	13.585
629.28	14.274
629.61	14.226
629.94	12.636
630.26	12.542
630.59	13.990
630.92	13.420
631.25	14.490
631.58	14.030
631.91	12.933
