SpectraSuite Data File
++++++++++++++++++++++++++++++++++++
Date: Thu May 14 16:05:07 PDT 2015
User: schluterlab
Dark Spectrum Present: Yes
Reference Spectrum Present: Yes
Number of Sampled Component Spectra: 1
Spectrometers: USB2E3373
Integration Time (usec): 3000 (USB2E3373)
Spectra Averaged: 3 (USB2E3373)
Boxcar Smoothing: 0 (USB2E3373)
Correct for Electrical Dark: No (USB2E3373)
Strobe/Lamp Enabled: No (USB2E3373)
Correct for Detector Non-linearity: No (USB2E3373)
Correct for Stray Light: No (USB2E3373)
Number of Pixels in Processed Spectrum: 2048
>>>>>Begin Processed Spectral Data<<<<<
178.53	0.000
178.91	214.286
179.29	-2400.000
179.67	-1300.000
180.04	214.286
180.42	110.000
180.80	500.000
181.18	-1100.000
181.56	-500.000
181.94	400.000
182.31	-375.000
182.69	600.000
183.07	-350.000
183.45	425.000
183.83	-150.000
184.20	-333.333
184.58	1000.000
184.96	-525.000
185.34	-144.444
185.72	-180.000
186.09	200.000
186.47	650.000
186.85	340.000
187.23	-166.667
187.61	-1200.000
187.98	300.000
188.36	475.000
188.74	-475.000
189.12	-400.000
189.49	-6.250
189.87	-137.500
190.25	-66.667
190.63	-80.000
191.00	-77.778
191.38	0.000
191.76	-475.000
192.14	-183.333
192.51	850.000
192.89	-166.667
193.27	0.000
193.65	-85.714
194.02	-2200.000
194.40	-300.000
194.78	328.571
195.15	0.000
195.53	-27.273
195.91	0.000
196.29	-225.000
196.66	-76.923
197.04	-1600.000
197.42	-300.000
197.79	-100.000
198.17	-62.500
198.55	-328.571
198.92	-155.556
199.30	-37.500
199.68	-81.818
200.05	-107.143
200.43	-700.000
200.81	228.571
201.18	0.000
201.56	244.444
201.94	0.000
202.31	433.333
202.69	-155.556
203.07	800.000
203.44	-77.778
203.82	-250.000
204.19	-166.667
204.57	-333.333
204.95	-100.000
205.32	-2000.000
205.70	325.000
206.08	-300.000
206.45	-250.000
206.83	400.000
207.20	-316.667
207.58	-320.000
207.96	-266.667
208.33	-166.667
208.71	175.000
209.08	50.000
209.46	0.000
209.84	333.333
210.21	500.000
210.59	900.000
210.96	566.667
211.34	-400.000
211.71	-187.500
212.09	-1600.000
212.46	0.000
212.84	1650.000
213.22	-340.000
213.59	-250.000
213.97	-50.000
214.34	-200.000
214.72	233.333
215.09	-225.000
215.47	0.000
215.84	200.000
216.22	1100.000
216.59	-240.000
216.97	-280.000
217.34	-175.000
217.72	0.000
218.09	-325.000
218.47	-525.000
218.84	0.000
219.22	380.000
219.59	-35.294
219.97	-5.000
220.34	1150.000
220.72	-211.111
221.09	-76.923
221.47	-333.333
221.84	-140.000
222.22	-157.143
222.59	0.000
222.97	37.500
223.34	-360.000
223.72	-1500.000
224.09	-300.000
224.46	-300.000
224.84	-320.000
225.21	-228.571
225.59	-550.000
225.96	-500.000
226.34	-15.385
226.71	316.667
227.08	-850.000
227.46	-66.667
227.83	-325.000
228.21	-47.368
228.58	137.500
228.95	650.000
229.33	-50.000
229.70	-120.000
230.08	-26.316
230.45	170.000
230.82	-366.667
231.20	-107.143
231.57	8.333
231.95	-172.727
232.32	-90.909
232.69	-60.000
233.07	-325.000
233.44	-5.882
233.81	-120.000
234.19	-27.778
234.56	13.636
234.93	-6.897
235.31	-94.737
235.68	-55.556
236.05	-110.000
236.43	-11.538
236.80	4.000
237.17	-3.704
237.55	-24.242
237.92	-190.000
238.29	-22.581
238.67	4.545
239.04	-36.111
239.41	-11.905
239.79	-6.522
240.16	3.704
240.53	-21.739
240.91	1.961
241.28	-9.836
241.65	0.000
242.02	8.108
242.40	-4.615
242.77	4.000
243.14	13.415
243.51	-6.579
243.89	11.538
244.26	18.812
244.63	9.804
245.00	13.084
245.38	10.526
245.75	0.885
246.12	10.317
246.49	12.403
246.87	17.857
247.24	15.894
247.61	18.421
247.98	14.094
248.36	14.198
248.73	9.816
249.10	16.393
249.47	17.910
249.84	19.372
250.22	16.580
250.59	20.556
250.96	15.455
251.33	15.816
251.70	14.530
252.08	19.583
252.45	15.164
252.82	13.223
253.19	15.234
253.56	18.251
253.94	16.154
254.31	14.015
254.68	19.930
255.05	16.612
255.42	16.327
255.79	15.534
256.16	15.563
256.54	17.219
256.91	16.393
257.28	15.410
257.65	16.879
258.02	15.929
258.39	18.803
258.76	18.043
259.14	19.828
259.51	20.749
259.88	19.263
260.25	18.333
260.62	20.000
260.99	19.399
261.36	22.520
261.73	19.629
262.10	16.209
262.47	17.158
262.85	20.455
263.22	15.844
263.59	14.474
263.96	17.903
264.33	15.345
264.70	20.988
265.07	17.900
265.44	20.181
265.81	18.287
266.18	20.181
266.55	20.089
266.92	15.034
267.29	20.131
267.66	18.625
268.03	21.179
268.40	18.998
268.77	17.084
269.14	17.181
269.51	19.298
269.88	21.311
270.25	18.913
270.62	20.253
270.99	20.404
271.36	21.584
271.73	20.629
272.10	19.238
272.47	18.236
272.84	18.273
273.21	19.439
273.58	17.944
273.95	17.692
274.32	16.350
274.69	17.602
275.06	19.414
275.43	16.821
275.80	19.224
276.17	15.926
276.54	19.963
276.91	16.995
277.28	18.626
277.65	19.749
278.02	16.912
278.39	18.297
278.76	19.859
279.13	17.553
279.50	18.557
279.87	19.857
280.23	17.606
280.60	19.831
280.97	17.599
281.34	18.336
281.71	19.459
282.08	16.445
282.45	16.203
282.82	18.524
283.19	17.609
283.56	17.377
283.92	18.619
284.29	18.957
284.66	17.241
285.03	17.468
285.40	18.702
285.77	17.957
286.14	18.473
286.51	20.700
286.87	18.957
287.24	19.127
287.61	18.834
287.98	17.069
288.35	21.302
288.72	16.864
289.08	18.741
289.45	17.456
289.82	17.620
290.19	18.822
290.56	19.577
290.93	17.261
291.29	19.835
291.66	18.044
292.03	17.503
292.40	19.728
292.77	17.655
293.13	19.350
293.50	16.032
293.87	16.779
294.24	20.133
294.60	18.331
294.97	17.181
295.34	19.078
295.71	18.033
296.08	17.054
296.44	17.402
296.81	18.636
297.18	18.431
297.55	19.104
297.91	17.319
298.28	17.062
298.65	17.598
299.02	17.473
299.38	17.963
299.75	17.523
300.12	16.435
300.48	17.972
300.85	18.223
301.22	18.568
301.59	19.863
301.95	18.079
302.32	19.000
302.69	17.744
303.05	18.281
303.42	19.069
303.79	18.021
304.15	18.086
304.52	17.653
304.89	18.010
305.25	17.288
305.62	17.764
305.99	18.557
306.35	17.944
306.72	19.752
307.09	17.766
307.45	18.737
307.82	19.072
308.19	18.870
308.55	19.865
308.92	19.766
309.29	18.678
309.65	19.396
310.02	18.911
310.38	19.783
310.75	19.612
311.12	20.614
311.48	19.062
311.85	19.183
312.22	20.588
312.58	19.906
312.95	19.981
313.31	20.145
313.68	21.612
314.05	21.680
314.41	22.678
314.78	21.526
315.14	22.232
315.51	21.791
315.87	22.682
316.24	21.187
316.61	22.025
316.97	20.724
317.34	23.457
317.70	23.755
318.07	23.986
318.43	22.789
318.80	23.411
319.16	22.918
319.53	23.136
319.89	22.787
320.26	24.021
320.62	22.695
320.99	22.715
321.35	23.752
321.72	24.837
322.08	23.895
322.45	24.752
322.81	25.451
323.18	25.929
323.54	25.172
323.91	25.623
324.27	26.076
324.64	26.868
325.00	25.456
325.37	25.962
325.73	26.198
326.10	26.277
326.46	27.850
326.83	27.382
327.19	27.717
327.56	26.798
327.92	27.459
328.29	27.581
328.65	26.549
329.01	27.665
329.38	29.149
329.74	28.596
330.11	27.825
330.47	27.633
330.84	27.649
331.20	28.333
331.56	28.163
331.93	27.782
332.29	27.712
332.66	29.319
333.02	26.717
333.38	27.685
333.75	28.030
334.11	28.857
334.48	28.713
334.84	28.802
335.20	28.463
335.57	29.005
335.93	28.430
336.29	26.705
336.66	26.913
337.02	28.094
337.38	28.656
337.75	27.769
338.11	27.754
338.47	28.371
338.84	27.496
339.20	25.864
339.56	27.512
339.93	28.325
340.29	28.341
340.65	26.602
341.02	27.933
341.38	28.294
341.74	27.845
342.11	27.273
342.47	26.767
342.83	27.778
343.20	27.473
343.56	27.265
343.92	28.423
344.28	27.656
344.65	28.217
345.01	26.833
345.37	28.227
345.73	27.124
346.10	29.719
346.46	28.639
346.82	28.614
347.19	28.648
347.55	28.376
347.91	27.117
348.27	27.542
348.63	27.799
349.00	27.964
349.36	28.625
349.72	29.092
350.08	28.009
350.45	28.289
350.81	28.281
351.17	28.195
351.53	28.810
351.89	28.322
352.26	27.537
352.62	27.836
352.98	27.863
353.34	27.857
353.70	29.584
354.07	28.092
354.43	29.233
354.79	27.823
355.15	28.256
355.51	29.313
355.87	28.197
356.24	28.593
356.60	27.568
356.96	29.652
357.32	28.178
357.68	28.404
358.04	28.593
358.40	28.507
358.77	29.386
359.13	28.730
359.49	28.996
359.85	30.457
360.21	29.053
360.57	29.146
360.93	29.055
361.29	29.053
361.66	29.109
362.02	29.158
362.38	29.726
362.74	29.539
363.10	30.124
363.46	29.778
363.82	30.540
364.18	29.838
364.54	29.737
364.90	31.171
365.26	30.483
365.62	30.533
365.98	30.225
366.35	30.537
366.71	30.816
367.07	30.650
367.43	30.007
367.79	29.993
368.15	31.839
368.51	30.379
368.87	30.438
369.23	30.867
369.59	31.899
369.95	29.885
370.31	30.317
370.67	30.674
371.03	31.856
371.39	31.028
371.75	31.087
372.11	31.775
372.47	30.941
372.83	31.283
373.19	30.687
373.55	31.098
373.91	30.879
374.27	31.630
374.63	32.409
374.99	32.228
375.35	31.558
375.71	31.097
376.07	31.633
376.42	31.108
376.78	31.821
377.14	32.002
377.50	33.207
377.86	33.128
378.22	32.575
378.58	32.580
378.94	32.512
379.30	32.572
379.66	33.333
380.02	32.776
380.38	33.583
380.74	32.620
381.09	33.508
381.45	33.409
381.81	34.953
382.17	34.145
382.53	33.977
382.89	33.239
383.25	32.825
383.61	32.870
383.97	33.569
384.32	34.330
384.68	34.165
385.04	34.413
385.40	34.414
385.76	34.936
386.12	34.231
386.48	34.412
386.83	35.638
387.19	34.183
387.55	34.507
387.91	34.132
388.27	34.411
388.62	34.880
388.98	34.067
389.34	34.119
389.70	35.619
390.06	34.873
390.42	34.277
390.77	35.099
391.13	35.387
391.49	35.386
391.85	34.667
392.20	35.706
392.56	35.558
392.92	35.115
393.28	34.660
393.64	34.749
393.99	35.735
394.35	36.098
394.71	35.808
395.07	35.389
395.42	34.323
395.78	36.258
396.14	36.185
396.50	35.629
396.85	36.374
397.21	36.272
397.57	36.101
397.92	36.254
398.28	36.067
398.64	35.469
399.00	35.131
399.35	35.550
399.71	36.033
400.07	36.777
400.42	36.554
400.78	36.921
401.14	35.515
401.49	36.498
401.85	36.860
402.21	36.443
402.57	37.089
402.92	37.057
403.28	36.475
403.63	36.695
403.99	36.520
404.35	35.816
404.70	37.054
405.06	35.598
405.42	36.710
405.77	36.641
406.13	37.007
406.49	36.543
406.84	36.565
407.20	36.389
407.55	36.342
407.91	36.266
408.27	36.101
408.62	36.358
408.98	36.506
409.34	35.543
409.69	36.403
410.05	37.046
410.40	37.181
410.76	36.904
411.11	38.106
411.47	36.609
411.83	37.037
412.18	37.229
412.54	36.811
412.89	36.380
413.25	36.907
413.60	36.473
413.96	36.888
414.31	36.827
414.67	36.494
415.03	36.615
415.38	37.264
415.74	36.897
416.09	37.323
416.45	36.506
416.80	36.047
417.16	37.037
417.51	36.986
417.87	36.419
418.22	36.766
418.58	36.555
418.93	37.369
419.29	37.115
419.64	36.675
420.00	37.685
420.35	36.328
420.71	36.760
421.06	37.148
421.42	37.328
421.77	35.433
422.12	36.945
422.48	37.174
422.83	37.623
423.19	36.870
423.54	37.942
423.90	36.610
424.25	37.280
424.61	36.395
424.96	36.793
425.31	37.420
425.67	36.983
426.02	36.635
426.38	37.199
426.73	37.556
427.09	37.947
427.44	36.537
427.79	36.429
428.15	37.443
428.50	36.742
428.85	36.510
429.21	37.500
429.56	36.821
429.92	36.708
430.27	37.060
430.62	37.616
430.98	37.039
431.33	36.119
431.68	37.213
432.04	36.770
432.39	37.386
432.74	38.185
433.10	38.399
433.45	36.232
433.80	36.695
434.16	37.603
434.51	37.359
434.86	37.948
435.22	37.194
435.57	37.500
435.92	37.173
436.28	37.600
436.63	38.613
436.98	37.359
437.34	37.091
437.69	37.149
438.04	37.652
438.39	37.220
438.75	37.465
439.10	37.474
439.45	37.283
439.81	36.497
440.16	36.032
440.51	37.681
440.86	37.688
441.22	36.924
441.57	37.841
441.92	36.857
442.27	37.273
442.63	36.761
442.98	37.140
443.33	37.296
443.68	37.265
444.03	37.676
444.39	37.633
444.74	36.856
445.09	37.962
445.44	37.250
445.79	38.218
446.15	37.205
446.50	37.519
446.85	37.840
447.20	36.799
447.55	36.977
447.91	37.277
448.26	37.051
448.61	36.238
448.96	38.519
449.31	37.381
449.66	36.220
450.02	37.605
450.37	38.039
450.72	36.921
451.07	37.244
451.42	37.666
451.77	35.909
452.12	37.472
452.47	36.661
452.83	37.556
453.18	36.602
453.53	36.588
453.88	36.720
454.23	36.836
454.58	36.042
454.93	36.468
455.28	37.447
455.63	36.555
455.98	37.095
456.34	36.985
456.69	37.331
457.04	37.648
457.39	37.195
457.74	37.304
458.09	36.793
458.44	36.584
458.79	36.411
459.14	36.445
459.49	36.899
459.84	37.093
460.19	36.258
460.54	36.173
460.89	37.110
461.24	36.552
461.59	37.189
461.94	36.167
462.29	37.234
462.64	35.848
462.99	35.970
463.34	35.691
463.69	35.522
464.04	37.187
464.39	36.379
464.74	36.203
465.09	35.928
465.44	35.354
465.79	35.854
466.14	36.113
466.49	36.684
466.84	35.647
467.19	35.145
467.54	34.900
467.89	35.287
468.24	35.956
468.59	34.858
468.94	34.674
469.29	35.333
469.64	35.664
469.99	35.054
470.34	35.272
470.68	35.543
471.03	35.363
471.38	34.794
471.73	34.720
472.08	35.025
472.43	34.738
472.78	34.068
473.13	33.692
473.48	34.985
473.83	35.403
474.17	34.291
474.52	34.636
474.87	35.216
475.22	35.099
475.57	34.943
475.92	34.943
476.27	34.771
476.61	34.631
476.96	33.733
477.31	35.198
477.66	35.414
478.01	34.774
478.36	34.048
478.70	34.877
479.05	33.998
479.40	34.255
479.75	34.390
480.10	34.676
480.45	34.731
480.79	35.420
481.14	34.605
481.49	34.621
481.84	34.291
482.19	33.849
482.53	34.587
482.88	34.648
483.23	33.704
483.58	33.581
483.92	33.555
484.27	33.785
484.62	33.292
484.97	34.642
485.31	33.615
485.66	32.433
486.01	33.093
486.36	33.844
486.70	35.116
487.05	35.915
487.40	34.897
487.75	33.766
488.09	33.812
488.44	33.785
488.79	33.524
489.13	33.490
489.48	33.010
489.83	32.958
490.17	32.564
490.52	32.759
490.87	32.826
491.22	32.669
491.56	33.148
491.91	32.883
492.26	32.843
492.60	32.838
492.95	32.207
493.30	32.273
493.64	32.633
493.99	32.719
494.34	31.969
494.68	32.463
495.03	32.291
495.37	32.401
495.72	31.746
496.07	32.296
496.41	31.060
496.76	32.360
497.11	32.739
497.45	31.636
497.80	31.586
498.14	32.517
498.49	31.801
498.84	31.947
499.18	32.119
499.53	31.435
499.87	32.484
500.22	31.434
500.56	31.849
500.91	31.487
501.26	31.955
501.60	31.021
501.95	31.828
502.29	31.417
502.64	32.269
502.98	31.061
503.33	31.620
503.67	31.182
504.02	31.130
504.36	31.233
504.71	30.914
505.06	31.514
505.40	31.353
505.75	31.193
506.09	30.939
506.44	31.244
506.78	31.147
507.13	31.074
507.47	30.791
507.82	30.966
508.16	31.119
508.51	30.895
508.85	31.460
509.19	31.502
509.54	30.932
509.88	29.529
510.23	30.209
510.57	30.836
510.92	31.205
511.26	30.159
511.61	30.130
511.95	30.210
512.30	30.675
512.64	29.935
512.98	30.665
513.33	30.948
513.67	30.291
514.02	30.455
514.36	30.895
514.70	30.469
515.05	30.031
515.39	30.551
515.74	30.965
516.08	30.851
516.42	30.455
516.77	30.284
517.11	30.015
517.46	29.852
517.80	29.984
518.14	30.794
518.49	29.555
518.83	29.431
519.17	29.725
519.52	29.507
519.86	30.465
520.20	29.925
520.55	29.737
520.89	29.448
521.23	29.816
521.58	29.548
521.92	29.405
522.26	27.606
522.61	29.919
522.95	29.700
523.29	30.057
523.64	29.036
523.98	28.694
524.32	30.258
524.66	29.254
525.01	28.879
525.35	27.743
525.69	28.886
526.04	28.588
526.38	29.253
526.72	28.431
527.06	28.915
527.41	28.805
527.75	29.394
528.09	29.398
528.43	28.715
528.78	28.324
529.12	28.727
529.46	27.993
529.80	28.490
530.15	28.986
530.49	27.995
530.83	28.040
531.17	28.256
531.51	28.039
531.86	28.425
532.20	29.634
532.54	27.588
532.88	29.212
533.22	27.991
533.57	28.102
533.91	27.946
534.25	28.321
534.59	28.908
534.93	27.561
535.27	27.324
535.62	28.141
535.96	28.356
536.30	28.143
536.64	28.348
536.98	29.028
537.32	27.284
537.66	28.072
538.01	27.795
538.35	27.162
538.69	27.043
539.03	28.449
539.37	27.797
539.71	27.808
540.05	27.278
540.39	26.528
540.73	27.626
541.07	27.713
541.42	27.053
541.76	27.877
542.10	27.563
542.44	26.979
542.78	27.737
543.12	27.235
543.46	26.190
543.80	25.420
544.14	26.451
544.48	27.778
544.82	27.528
545.16	26.714
545.50	26.842
545.84	26.148
546.18	27.160
546.52	26.624
546.86	27.044
547.20	27.545
547.54	26.654
547.88	26.703
548.22	26.316
548.56	26.039
548.90	26.746
549.24	27.356
549.58	26.057
549.92	26.849
550.26	25.761
550.60	26.101
550.94	25.679
551.28	25.743
551.62	26.819
551.96	25.631
552.30	26.068
552.64	25.451
552.98	25.951
553.32	25.916
553.66	25.916
554.00	26.545
554.34	26.384
554.68	25.823
555.02	25.427
555.36	26.298
555.69	24.856
556.03	25.410
556.37	25.657
556.71	25.238
557.05	26.390
557.39	25.017
557.73	25.561
558.07	24.702
558.41	25.249
558.75	24.476
559.08	25.818
559.42	24.897
559.76	25.848
560.10	25.251
560.44	25.000
560.78	25.437
561.12	24.569
561.45	25.487
561.79	25.092
562.13	25.632
562.47	24.723
562.81	24.873
563.15	24.558
563.48	24.301
563.82	24.426
564.16	24.531
564.50	24.732
564.84	24.602
565.17	25.353
565.51	23.993
565.85	25.000
566.19	24.424
566.52	23.932
566.86	24.618
567.20	24.524
567.54	24.429
567.88	24.720
568.21	25.049
568.55	26.235
568.89	25.329
569.23	25.898
569.56	24.619
569.90	25.196
570.24	25.295
570.57	24.407
570.91	24.709
571.25	25.253
571.59	25.355
571.92	25.053
572.26	25.278
572.60	24.843
572.93	24.993
573.27	24.698
573.61	24.881
573.95	24.909
574.28	25.064
574.62	24.443
574.96	24.702
575.29	24.477
575.63	24.371
575.97	24.479
576.30	24.204
576.64	24.505
576.98	24.579
577.31	24.726
577.65	24.598
577.98	24.548
578.32	24.343
578.66	24.463
578.99	24.063
579.33	24.277
579.67	24.297
580.00	23.960
580.34	23.975
580.67	24.250
581.01	24.427
581.35	23.807
581.68	24.366
582.02	24.805
582.35	24.844
582.69	24.461
583.02	24.257
583.36	24.132
583.70	23.676
584.03	23.398
584.37	23.574
584.70	23.130
585.04	23.227
585.37	23.509
585.71	23.581
586.04	23.382
586.38	23.398
586.72	22.687
587.05	23.510
587.39	23.535
587.72	23.947
588.06	23.525
588.39	23.649
588.73	23.016
589.06	23.363
589.40	23.510
589.73	22.976
590.07	22.646
590.40	22.921
590.73	23.047
591.07	22.785
591.40	22.395
591.74	22.576
592.07	23.224
592.41	23.502
592.74	22.861
593.08	22.994
593.41	23.214
593.75	23.218
594.08	23.326
594.41	22.917
594.75	22.982
595.08	22.779
595.42	22.338
595.75	22.893
596.09	22.907
596.42	22.967
596.75	22.540
597.09	22.667
597.42	22.447
597.75	21.991
598.09	22.183
598.42	22.155
598.76	21.590
599.09	21.894
599.42	22.226
599.76	21.855
600.09	22.155
600.42	22.289
600.76	22.127
601.09	21.772
601.42	21.970
601.76	21.793
602.09	21.623
602.42	21.301
602.76	21.661
603.09	22.283
603.42	22.760
603.76	21.564
604.09	23.208
604.42	21.908
604.76	22.222
605.09	21.899
605.42	21.890
605.75	21.231
606.09	21.874
606.42	21.890
606.75	21.214
607.09	20.853
607.42	21.195
607.75	21.571
608.08	21.350
608.42	20.758
608.75	21.849
609.08	20.925
609.41	20.909
609.75	21.250
610.08	22.296
610.41	21.283
610.74	20.672
611.07	21.181
611.41	21.525
611.74	21.201
612.07	21.131
612.40	20.770
612.73	20.293
613.07	21.271
613.40	21.463
613.73	20.318
614.06	21.295
614.39	20.700
614.72	20.039
615.06	19.971
615.39	20.251
615.72	20.332
616.05	20.641
616.38	20.131
616.71	21.108
617.05	19.489
617.38	21.188
617.71	20.140
618.04	20.130
618.37	20.273
618.70	20.814
619.03	19.952
619.36	19.174
619.69	20.307
620.03	19.711
620.36	18.773
620.69	20.049
621.02	19.948
621.35	19.739
621.68	20.680
622.01	19.146
622.34	18.619
622.67	18.694
623.00	18.691
623.33	20.040
623.66	20.039
623.99	19.421
624.32	20.403
624.65	19.434
624.99	19.246
625.32	21.032
625.65	20.701
625.98	18.712
626.31	18.710
626.64	20.147
626.97	19.880
627.30	19.286
627.63	19.880
627.96	19.670
628.29	19.844
628.62	18.136
628.95	18.931
629.28	18.607
629.61	19.697
629.94	17.071
630.26	18.983
630.59	20.380
630.92	17.835
631.25	19.767
631.58	19.586
631.91	17.713
