SpectraSuite Data File
++++++++++++++++++++++++++++++++++++
Date: Thu May 14 16:04:45 PDT 2015
User: schluterlab
Dark Spectrum Present: Yes
Reference Spectrum Present: Yes
Number of Sampled Component Spectra: 1
Spectrometers: USB2E3373
Integration Time (usec): 3000 (USB2E3373)
Spectra Averaged: 3 (USB2E3373)
Boxcar Smoothing: 0 (USB2E3373)
Correct for Electrical Dark: No (USB2E3373)
Strobe/Lamp Enabled: No (USB2E3373)
Correct for Detector Non-linearity: No (USB2E3373)
Correct for Stray Light: No (USB2E3373)
Number of Pixels in Processed Spectrum: 2048
>>>>>Begin Processed Spectral Data<<<<<
178.53	0.000
178.91	171.429
179.29	-2000.000
179.67	-1500.000
180.04	250.000
180.42	100.000
180.80	300.000
181.18	-1800.000
181.56	-700.000
181.94	425.000
182.31	-150.000
182.69	800.000
183.07	-350.000
183.45	375.000
183.83	-216.667
184.20	-700.000
184.58	1300.000
184.96	-600.000
185.34	-133.333
185.72	-120.000
186.09	255.556
186.47	600.000
186.85	500.000
187.23	-233.333
187.61	-1300.000
187.98	240.000
188.36	525.000
188.74	-300.000
189.12	-300.000
189.49	-62.500
189.87	-162.500
190.25	-144.444
190.63	-220.000
191.00	-144.444
191.38	0.000
191.76	-500.000
192.14	-250.000
192.51	350.000
192.89	-200.000
193.27	0.000
193.65	-171.429
194.02	-2900.000
194.40	-114.286
194.78	157.143
195.15	0.000
195.53	-27.273
195.91	0.000
196.29	-175.000
196.66	-92.308
197.04	-2300.000
197.42	-185.714
197.79	-550.000
198.17	-150.000
198.55	-157.143
198.92	-100.000
199.30	-250.000
199.68	-54.545
200.05	-85.714
200.43	-950.000
200.81	171.429
201.18	0.000
201.56	188.889
201.94	0.000
202.31	533.333
202.69	-233.333
203.07	1100.000
203.44	-188.889
203.82	-300.000
204.19	-100.000
204.57	-383.333
204.95	-287.500
205.32	-1700.000
205.70	225.000
206.08	-400.000
206.45	-200.000
206.83	420.000
207.20	-83.333
207.58	-220.000
207.96	-350.000
208.33	-100.000
208.71	141.667
209.08	-116.667
209.46	0.000
209.84	383.333
210.21	550.000
210.59	750.000
210.96	433.333
211.34	-275.000
211.71	-125.000
212.09	-700.000
212.46	0.000
212.84	1250.000
213.22	-160.000
213.59	-200.000
213.97	-130.000
214.34	-500.000
214.72	333.333
215.09	-200.000
215.47	0.000
215.84	242.857
216.22	850.000
216.59	-200.000
216.97	-180.000
217.34	-350.000
217.72	-62.500
218.09	-425.000
218.47	-525.000
218.84	0.000
219.22	160.000
219.59	-82.353
219.97	-60.000
220.34	1100.000
220.72	-222.222
221.09	-76.923
221.47	-466.667
221.84	-70.000
222.22	-200.000
222.59	0.000
222.97	-112.500
223.34	-340.000
223.72	-300.000
224.09	-300.000
224.46	-475.000
224.84	-240.000
225.21	-271.429
225.59	-600.000
225.96	-450.000
226.34	-38.462
226.71	400.000
227.08	-1100.000
227.46	-73.333
227.83	-500.000
228.21	-10.526
228.58	125.000
228.95	950.000
229.33	-91.667
229.70	-50.000
230.08	36.842
230.45	220.000
230.82	-366.667
231.20	-50.000
231.57	-58.333
231.95	-109.091
232.32	9.091
232.69	-70.000
233.07	-450.000
233.44	-47.059
233.81	-200.000
234.19	-44.444
234.56	-77.273
234.93	17.241
235.31	5.263
235.68	-44.444
236.05	-60.000
236.43	11.538
236.80	12.000
237.17	-37.037
237.55	-27.273
237.92	-120.000
238.29	-16.129
238.67	-18.182
239.04	-27.778
239.41	-42.857
239.79	-2.174
240.16	-18.519
240.53	-19.565
240.91	-25.490
241.28	0.000
241.65	8.955
242.02	4.054
242.40	1.538
242.77	-2.667
243.14	-1.220
243.51	-7.895
243.89	-3.846
244.26	14.851
244.63	10.784
245.00	10.280
245.38	9.649
245.75	3.540
246.12	19.048
246.49	18.605
246.87	10.000
247.24	17.881
247.61	12.500
247.98	8.725
248.36	15.432
248.73	9.816
249.10	10.383
249.47	17.413
249.84	18.325
250.22	16.580
250.59	17.222
250.96	18.182
251.33	16.327
251.70	16.667
252.08	20.833
252.45	15.984
252.82	18.595
253.19	16.406
253.56	18.251
253.94	17.692
254.31	18.939
254.68	22.378
255.05	20.521
255.42	19.388
255.79	16.828
256.16	19.536
256.54	16.225
256.91	18.033
257.28	18.361
257.65	17.197
258.02	15.929
258.39	16.524
258.76	20.489
259.14	20.977
259.51	15.562
259.88	17.280
260.25	16.944
260.62	21.644
260.99	19.672
261.36	20.643
261.73	15.915
262.10	19.780
262.47	15.550
262.85	21.717
263.22	16.104
263.59	15.000
263.96	23.529
264.33	18.159
264.70	19.012
265.07	20.525
265.44	21.088
265.81	19.213
266.18	20.635
266.55	19.196
266.92	19.134
267.29	19.037
267.66	17.960
268.03	18.777
268.40	20.042
268.77	17.084
269.14	18.943
269.51	19.956
269.88	19.877
270.25	20.523
270.62	20.886
270.99	19.596
271.36	20.396
271.73	18.468
272.10	22.244
272.47	18.637
272.84	19.076
273.21	20.842
273.58	20.161
273.95	20.577
274.32	19.962
274.69	21.083
275.06	20.147
275.43	18.484
275.80	19.224
276.17	18.333
276.54	20.709
276.91	19.141
277.28	17.541
277.65	19.210
278.02	18.199
278.39	19.022
278.76	18.629
279.13	19.504
279.50	19.072
279.87	18.784
280.23	16.725
280.60	17.966
280.97	19.079
281.34	16.469
281.71	20.135
282.08	19.103
282.45	18.167
282.82	18.524
283.19	17.124
283.56	16.557
283.92	19.820
284.29	18.167
284.66	20.525
285.03	17.949
285.40	18.083
285.77	18.576
286.14	18.473
286.51	20.091
286.87	17.062
287.24	20.030
287.61	20.329
287.98	19.033
288.35	18.047
288.72	17.012
289.08	18.594
289.45	18.787
289.82	16.717
290.19	18.966
290.56	17.746
290.93	17.832
291.29	19.835
291.66	17.631
292.03	16.961
292.40	17.551
292.77	18.059
293.13	17.997
293.50	16.426
293.87	17.181
294.24	18.533
294.60	16.056
294.97	14.497
295.34	18.822
295.71	16.015
296.08	15.762
296.44	16.422
296.81	17.783
297.18	14.819
297.55	16.274
297.91	15.896
298.28	16.469
298.65	16.766
299.02	16.175
299.38	16.705
299.75	14.720
300.12	15.394
300.48	16.820
300.85	16.198
301.22	16.219
301.59	15.639
301.95	16.497
302.32	16.222
302.69	16.429
303.05	15.669
303.42	15.743
303.79	16.771
304.15	15.668
304.52	16.385
304.89	15.812
305.25	16.253
305.62	17.032
305.99	16.701
306.35	16.028
306.72	17.477
307.09	16.142
307.45	17.598
307.82	16.044
308.19	16.347
308.55	16.393
308.92	16.943
309.29	16.571
309.65	15.595
310.02	17.228
310.38	15.945
310.75	17.282
311.12	17.833
311.48	15.738
311.85	18.708
312.22	16.888
312.58	16.714
312.95	17.591
313.31	17.886
313.68	18.681
314.05	19.422
314.41	19.035
314.78	18.892
315.14	19.691
315.51	19.391
315.87	19.712
316.24	20.365
316.61	21.670
316.97	20.724
317.34	20.899
317.70	20.699
318.07	20.547
318.43	21.514
318.80	21.405
319.16	21.116
319.53	20.223
319.89	20.684
320.26	20.819
320.62	20.567
320.99	20.776
321.35	21.349
321.72	24.186
322.08	23.895
322.45	22.584
322.81	24.549
323.18	23.805
323.54	24.138
323.91	25.267
324.27	23.924
324.64	24.265
325.00	25.041
325.37	26.208
325.73	26.529
326.10	26.521
326.46	28.909
326.83	27.942
327.19	27.795
327.56	28.300
327.92	27.695
328.29	28.952
328.65	28.476
329.01	30.288
329.38	30.497
329.74	29.880
330.11	29.709
330.47	30.666
330.84	29.888
331.20	31.000
331.56	31.023
331.93	31.130
332.29	32.119
332.66	31.894
333.02	30.737
333.38	31.124
333.75	32.071
334.11	31.359
334.48	31.353
334.84	33.475
335.20	31.570
335.57	33.558
335.93	33.306
336.29	30.948
336.66	32.128
337.02	32.609
337.38	33.503
337.75	32.893
338.11	32.044
338.47	31.596
338.84	33.756
339.20	32.687
339.56	32.784
339.93	33.169
340.29	32.367
340.65	33.901
341.02	33.839
341.38	34.115
341.74	32.930
342.11	33.548
342.47	32.327
342.83	34.138
343.20	33.769
343.56	33.200
343.92	34.508
344.28	34.531
344.65	34.109
345.01	34.399
345.37	34.837
345.73	34.451
346.10	34.867
346.46	35.047
346.82	33.933
347.19	33.843
347.55	34.143
347.91	34.027
348.27	34.901
348.63	35.491
349.00	34.526
349.36	34.052
349.72	34.970
350.08	35.364
350.45	36.122
350.81	34.314
351.17	35.489
351.53	34.420
351.89	35.080
352.26	34.254
352.62	35.000
352.98	36.260
353.34	34.653
353.70	35.824
354.07	34.948
354.43	35.687
354.79	35.378
355.15	34.879
355.51	36.257
355.87	34.630
356.24	36.046
356.60	34.885
356.96	35.656
357.32	35.688
357.68	36.530
358.04	35.853
358.40	36.194
358.77	36.404
359.13	35.968
359.49	34.721
359.85	35.678
360.21	36.155
360.57	36.683
360.93	36.037
361.29	36.070
361.66	37.581
362.02	38.274
362.38	36.543
362.74	35.684
363.10	37.070
363.46	36.704
363.82	37.003
364.18	37.227
364.54	36.860
364.90	36.388
365.26	36.897
365.62	38.067
365.98	36.964
366.35	37.718
366.71	37.415
367.07	37.957
367.43	36.638
367.79	38.155
368.15	38.261
368.51	38.160
368.87	36.708
369.23	36.933
369.59	38.798
369.95	37.661
370.31	37.137
370.67	36.520
371.03	37.881
371.39	38.012
371.75	37.895
372.11	37.466
372.47	37.779
372.83	38.743
373.19	38.826
373.55	38.347
373.91	37.219
374.27	38.616
374.63	38.972
374.99	39.721
375.35	39.416
375.71	37.613
376.07	38.735
376.42	39.547
376.78	38.347
377.14	38.802
377.50	38.836
377.86	39.039
378.22	39.820
378.58	40.369
378.94	39.261
379.30	39.367
379.66	39.624
380.02	39.411
380.38	41.359
380.74	40.394
381.09	40.360
381.45	39.659
381.81	40.398
382.17	40.261
382.53	39.708
382.89	40.181
383.25	40.680
383.61	40.856
383.97	40.459
384.32	40.849
384.68	41.415
385.04	41.353
385.40	41.662
385.76	41.735
386.12	40.275
386.48	41.824
386.83	42.014
387.19	41.483
387.55	40.317
387.91	41.381
388.27	41.455
388.62	41.180
388.98	41.117
389.34	41.956
389.70	42.127
390.06	41.445
390.42	41.807
390.77	42.505
391.13	41.080
391.49	43.599
391.85	43.273
392.20	42.230
392.56	41.878
392.92	41.058
393.28	42.067
393.64	42.235
393.99	42.127
394.35	42.874
394.71	42.515
395.07	41.377
395.42	41.805
395.78	42.962
396.14	42.840
396.50	42.577
396.85	40.966
397.21	42.485
397.57	42.815
397.92	43.471
398.28	41.825
398.64	42.391
399.00	41.623
399.35	43.717
399.71	43.261
400.07	44.413
400.42	43.248
400.78	42.593
401.14	43.028
401.49	43.547
401.85	44.070
402.21	43.627
402.57	44.777
402.92	44.917
403.28	42.916
403.63	42.780
403.99	42.874
404.35	42.808
404.70	42.380
405.06	43.152
405.42	43.150
405.77	44.002
406.13	44.625
406.49	43.975
406.84	43.823
407.20	44.271
407.55	43.307
407.91	44.123
408.27	43.698
408.62	44.212
408.98	43.761
409.34	43.871
409.69	43.572
410.05	43.787
410.40	44.896
410.76	45.597
411.11	45.237
411.47	43.919
411.83	45.973
412.18	45.181
412.54	43.687
412.89	45.227
413.25	44.244
413.60	44.917
413.96	44.814
414.31	44.873
414.67	44.126
415.03	44.800
415.38	46.028
415.74	43.800
416.09	44.417
416.45	43.582
416.80	44.064
417.16	46.041
417.51	44.458
417.87	45.248
418.22	45.329
418.58	46.097
418.93	45.634
419.29	44.760
419.64	45.078
420.00	44.392
420.35	45.312
420.71	44.170
421.06	45.141
421.42	44.782
421.77	43.780
422.12	45.402
422.48	44.854
422.83	45.893
423.19	45.995
423.54	46.515
423.90	44.064
424.25	45.120
424.61	45.235
424.96	46.074
425.31	44.533
425.67	44.391
426.02	46.154
426.38	45.350
426.73	45.201
427.09	46.367
427.44	45.330
427.79	45.274
428.15	45.263
428.50	45.112
428.85	44.489
429.21	45.798
429.56	44.472
429.92	44.717
430.27	44.578
430.62	44.700
430.98	44.171
431.33	44.379
431.68	43.870
432.04	45.404
432.39	44.885
432.74	44.578
433.10	44.835
433.45	44.203
433.80	44.635
434.16	44.628
434.51	45.170
434.86	46.471
435.22	45.643
435.57	45.578
435.92	45.186
436.28	45.620
436.63	45.931
436.98	45.464
437.34	46.787
437.69	44.799
438.04	44.209
438.39	44.917
438.75	44.936
439.10	45.719
439.45	45.221
439.81	45.141
440.16	44.933
440.51	45.318
440.86	44.414
441.22	44.480
441.57	45.650
441.92	44.956
442.27	46.162
442.63	45.007
442.98	46.905
443.33	45.345
443.68	44.747
444.03	45.908
444.39	45.724
444.74	45.125
445.09	44.653
445.44	45.943
445.79	45.690
446.15	44.450
446.50	45.840
446.85	46.206
447.20	45.019
447.55	45.816
447.91	45.445
448.26	44.715
448.61	44.793
448.96	46.620
449.31	44.857
449.66	45.425
450.02	45.411
450.37	44.006
450.72	44.349
451.07	44.248
451.42	45.061
451.77	45.748
452.12	45.485
452.47	44.801
452.83	46.227
453.18	45.126
453.53	44.285
453.88	44.782
454.23	44.294
454.58	45.618
454.93	46.177
455.28	45.575
455.63	44.287
455.98	45.866
456.34	44.170
456.69	45.032
457.04	46.099
457.39	44.900
457.74	45.694
458.09	45.470
458.44	44.666
458.79	44.507
459.14	43.891
459.49	45.331
459.84	45.016
460.19	45.086
460.54	45.769
460.89	45.368
461.24	45.402
461.59	44.992
461.94	43.525
462.29	45.801
462.64	44.900
462.99	45.825
463.34	44.062
463.69	44.373
464.04	45.748
464.39	45.852
464.74	44.584
465.09	45.559
465.44	45.655
465.79	44.632
466.14	44.659
466.49	45.842
466.84	45.785
467.19	46.532
467.54	45.006
467.89	44.598
468.24	44.543
468.59	45.281
468.94	43.823
469.29	45.591
469.64	45.137
469.99	45.507
470.34	46.163
470.68	46.070
471.03	46.038
471.38	46.109
471.73	45.904
472.08	46.129
472.43	46.057
472.78	45.529
473.13	45.322
473.48	46.042
473.83	46.082
474.17	45.721
474.52	46.542
474.87	44.906
475.22	45.972
475.57	45.431
475.92	46.093
476.27	46.060
476.61	45.016
476.96	46.350
477.31	47.277
477.66	46.905
478.01	45.958
478.36	45.414
478.70	46.404
479.05	46.217
479.40	46.989
479.75	46.446
480.10	46.897
480.45	46.490
480.79	46.349
481.14	45.864
481.49	45.479
481.84	46.780
482.19	46.581
482.53	46.786
482.88	47.054
483.23	47.354
483.58	46.725
483.92	46.055
484.27	45.385
484.62	46.328
484.97	46.034
485.31	45.864
485.66	43.478
486.01	42.271
486.36	43.410
486.70	44.910
487.05	46.989
487.40	46.645
487.75	46.768
488.09	47.873
488.44	46.640
488.79	47.926
489.13	46.162
489.48	46.058
489.83	45.634
490.17	46.092
490.52	45.690
490.87	47.250
491.22	46.750
491.56	46.331
491.91	46.271
492.26	45.954
492.60	46.524
492.95	46.687
493.30	46.392
493.64	46.693
493.99	47.237
494.34	47.387
494.68	47.281
495.03	47.445
495.37	47.625
495.72	46.848
496.07	47.239
496.41	47.447
496.76	47.039
497.11	47.049
497.45	47.691
497.80	47.490
498.14	47.347
498.49	47.197
498.84	47.349
499.18	46.649
499.53	47.668
499.87	46.681
500.22	46.483
500.56	47.548
500.91	48.055
501.26	48.273
501.60	48.343
501.95	47.330
502.29	46.863
502.64	48.054
502.98	47.843
503.33	46.955
503.67	48.365
504.02	47.680
504.36	49.196
504.71	48.875
505.06	48.249
505.40	48.766
505.75	47.678
506.09	49.309
506.44	49.629
506.78	48.624
507.13	48.041
507.47	49.171
507.82	49.053
508.16	49.379
508.51	48.851
508.85	48.890
509.19	48.887
509.54	50.865
509.88	49.781
510.23	50.656
510.57	50.797
510.92	49.734
511.26	49.110
511.61	48.865
511.95	48.804
512.30	51.009
512.64	48.076
512.98	50.725
513.33	50.958
513.67	51.045
514.02	51.303
514.36	49.821
514.70	50.000
515.05	51.929
515.39	51.024
515.74	53.022
516.08	50.924
516.42	52.381
516.77	51.472
517.11	51.160
517.46	52.174
517.80	53.875
518.14	53.428
518.49	53.471
518.83	51.197
519.17	51.535
519.52	51.992
519.86	52.640
520.20	52.875
520.55	53.067
520.89	55.011
521.23	53.099
521.58	54.068
521.92	53.371
522.26	53.837
522.61	53.762
522.95	54.152
523.29	53.563
523.64	53.924
523.98	55.448
524.32	55.415
524.66	53.443
525.01	53.114
525.35	53.130
525.69	55.278
526.04	54.133
526.38	55.402
526.72	54.210
527.06	56.481
527.41	56.152
527.75	56.116
528.09	54.782
528.43	55.536
528.78	55.665
529.12	54.415
529.46	54.469
529.80	55.950
530.15	56.290
530.49	56.109
530.83	56.553
531.17	56.571
531.51	56.679
531.86	56.911
532.20	58.232
532.54	55.296
532.88	56.848
533.22	55.215
533.57	55.626
533.91	56.285
534.25	55.738
534.59	56.322
534.93	55.461
535.27	57.408
535.62	57.419
535.96	56.944
536.30	56.228
536.64	58.318
536.98	57.503
537.32	57.037
537.66	57.330
538.01	56.133
538.35	56.760
538.69	56.791
539.03	57.511
539.37	55.830
539.71	57.598
540.05	57.794
540.39	55.012
540.73	56.831
541.07	56.898
541.42	56.881
541.76	56.702
542.10	56.514
542.44	58.404
542.78	56.326
543.12	56.794
543.46	56.532
543.80	57.134
544.14	57.690
544.48	56.738
544.82	57.271
545.16	57.782
545.50	58.538
545.84	57.195
546.18	58.765
546.52	58.408
546.86	56.855
547.20	59.160
547.54	56.804
547.88	56.058
548.22	57.018
548.56	56.934
548.90	57.552
549.24	57.751
549.58	57.413
549.92	57.079
550.26	58.058
550.60	57.116
550.94	59.056
551.28	57.492
551.62	57.817
551.96	56.764
552.30	58.254
552.64	57.996
552.98	58.391
553.32	58.006
553.66	58.199
554.00	57.945
554.34	58.945
554.68	56.165
555.02	59.001
555.36	59.632
555.69	57.335
556.03	58.386
556.37	58.260
556.71	57.641
557.05	58.339
557.39	59.058
557.73	57.530
558.07	58.940
558.41	59.336
558.75	59.973
559.08	59.847
559.42	59.053
559.76	58.277
560.10	57.401
560.44	58.113
560.78	58.500
561.12	58.251
561.45	59.307
561.79	57.387
562.13	58.226
562.47	57.152
562.81	59.114
563.15	58.649
563.48	57.738
563.82	57.013
564.16	56.148
564.50	56.794
564.84	57.168
565.17	58.176
565.51	56.617
565.85	57.898
566.19	57.200
566.52	57.519
566.86	58.574
567.20	56.933
567.54	57.196
567.88	58.002
568.21	57.856
568.55	57.218
568.89	57.558
569.23	56.020
569.56	55.139
569.90	54.847
570.24	55.076
570.57	54.811
570.91	54.715
571.25	53.920
571.59	53.994
571.92	53.811
572.26	53.759
572.60	54.955
572.93	54.050
573.27	53.779
573.61	53.600
573.95	53.508
574.28	53.142
574.62	53.388
574.96	52.139
575.29	51.928
575.63	53.800
575.97	53.916
576.30	53.565
576.64	53.686
576.98	52.961
577.31	52.825
577.65	53.178
577.98	52.391
578.32	52.105
578.66	52.488
578.99	52.673
579.33	54.068
579.67	54.352
580.00	53.450
580.34	53.469
580.67	53.707
581.01	52.856
581.35	52.562
581.68	52.138
582.02	51.629
582.35	53.157
582.69	53.626
583.02	53.485
583.36	54.405
583.70	54.419
584.03	54.116
584.37	54.579
584.70	54.230
585.04	53.894
585.37	52.916
585.71	52.039
586.04	53.148
586.38	52.971
586.72	53.347
587.05	54.387
587.39	54.001
587.72	53.804
588.06	53.748
588.39	53.821
588.73	53.228
589.06	55.107
589.40	55.009
589.73	54.724
590.07	54.377
590.40	54.462
590.73	54.896
591.07	55.436
591.40	54.666
591.74	55.286
592.07	55.095
592.41	53.509
592.74	53.887
593.08	54.108
593.41	54.243
593.75	53.592
594.08	54.256
594.41	54.615
594.75	54.301
595.08	54.946
595.42	54.123
595.75	55.118
596.09	55.473
596.42	55.930
596.75	56.426
597.09	55.071
597.42	54.430
597.75	54.763
598.09	54.484
598.42	54.805
598.76	53.993
599.09	54.646
599.42	51.928
599.76	54.044
600.09	53.987
600.42	52.986
600.76	53.336
601.09	53.833
601.42	53.484
601.76	54.483
602.09	54.718
602.42	54.562
602.76	54.723
603.09	55.250
603.42	55.058
603.76	54.299
604.09	55.145
604.42	54.826
604.76	53.691
605.09	54.368
605.42	56.140
605.75	54.885
606.09	54.013
606.42	53.995
606.75	53.561
607.09	54.531
607.42	54.875
607.75	54.084
608.08	54.696
608.42	54.897
608.75	55.141
609.08	55.518
609.41	55.404
609.75	55.893
610.08	55.805
610.41	55.692
610.74	55.042
611.07	55.950
611.41	56.547
611.74	55.612
612.07	54.885
612.40	55.798
612.73	56.968
613.07	55.746
613.40	56.015
613.73	55.705
614.06	55.545
614.39	54.713
614.72	56.429
615.06	54.379
615.39	54.616
615.72	55.592
616.05	55.221
616.38	57.164
616.71	56.061
617.05	54.686
617.38	56.554
617.71	57.019
618.04	55.747
618.37	56.831
618.70	56.900
619.03	56.511
619.36	57.583
619.69	57.399
620.03	57.125
620.36	56.810
620.69	56.570
621.02	58.333
621.35	59.724
621.68	58.641
622.01	58.149
622.34	57.950
622.67	56.976
623.00	57.355
623.33	58.062
623.66	57.069
623.99	58.065
624.32	57.245
624.65	56.628
624.99	57.932
625.32	58.001
625.65	57.923
625.98	57.966
626.31	58.398
626.64	58.755
626.97	59.340
627.30	58.542
627.63	59.565
627.96	59.459
628.29	57.665
628.62	58.522
628.95	61.788
629.28	59.813
629.61	59.933
629.94	60.084
630.26	59.661
630.59	57.427
630.92	59.567
631.25	60.644
631.58	60.264
