SpectraSuite Data File
++++++++++++++++++++++++++++++++++++
Date: Thu May 14 16:04:59 PDT 2015
User: schluterlab
Dark Spectrum Present: Yes
Reference Spectrum Present: Yes
Number of Sampled Component Spectra: 1
Spectrometers: USB2E3373
Integration Time (usec): 3000 (USB2E3373)
Spectra Averaged: 3 (USB2E3373)
Boxcar Smoothing: 0 (USB2E3373)
Correct for Electrical Dark: No (USB2E3373)
Strobe/Lamp Enabled: No (USB2E3373)
Correct for Detector Non-linearity: No (USB2E3373)
Correct for Stray Light: No (USB2E3373)
Number of Pixels in Processed Spectrum: 2048
>>>>>Begin Processed Spectral Data<<<<<
178.53	0.000
178.91	157.143
179.29	-2300.000
179.67	-1300.000
180.04	207.143
180.42	190.000
180.80	460.000
181.18	-2400.000
181.56	-700.000
181.94	300.000
182.31	-200.000
182.69	633.333
183.07	-600.000
183.45	650.000
183.83	-300.000
184.20	-100.000
184.58	1200.000
184.96	-575.000
185.34	-100.000
185.72	-160.000
186.09	322.222
186.47	450.000
186.85	400.000
187.23	-177.778
187.61	-2100.000
187.98	180.000
188.36	275.000
188.74	-475.000
189.12	-466.667
189.49	-25.000
189.87	-287.500
190.25	-77.778
190.63	-200.000
191.00	-188.889
191.38	0.000
191.76	-225.000
192.14	-66.667
192.51	850.000
192.89	-150.000
193.27	0.000
193.65	-171.429
194.02	-2700.000
194.40	-228.571
194.78	185.714
195.15	0.000
195.53	-109.091
195.91	0.000
196.29	-50.000
196.66	-69.231
197.04	-1800.000
197.42	-271.429
197.79	-950.000
198.17	-225.000
198.55	-257.143
198.92	-144.444
199.30	-50.000
199.68	-36.364
200.05	-42.857
200.43	-600.000
200.81	257.143
201.18	0.000
201.56	211.111
201.94	0.000
202.31	433.333
202.69	-244.444
203.07	800.000
203.44	-133.333
203.82	-600.000
204.19	8.333
204.57	-266.667
204.95	-150.000
205.32	-1800.000
205.70	325.000
206.08	-283.333
206.45	-116.667
206.83	320.000
207.20	-200.000
207.58	-440.000
207.96	-300.000
208.33	-150.000
208.71	175.000
209.08	-16.667
209.46	0.000
209.84	383.333
210.21	250.000
210.59	450.000
210.96	733.333
211.34	-325.000
211.71	-125.000
212.09	-1300.000
212.46	0.000
212.84	1300.000
213.22	-620.000
213.59	-450.000
213.97	-120.000
214.34	-366.667
214.72	366.667
215.09	-450.000
215.47	0.000
215.84	185.714
216.22	1000.000
216.59	-300.000
216.97	-300.000
217.34	-250.000
217.72	-112.500
218.09	-275.000
218.47	-425.000
218.84	0.000
219.22	160.000
219.59	-35.294
219.97	-25.000
220.34	1300.000
220.72	-244.444
221.09	-30.769
221.47	-366.667
221.84	-90.000
222.22	-142.857
222.59	0.000
222.97	-37.500
223.34	-400.000
223.72	-1900.000
224.09	-250.000
224.46	-475.000
224.84	-220.000
225.21	-200.000
225.59	-325.000
225.96	-325.000
226.34	-7.692
226.71	400.000
227.08	-400.000
227.46	-86.667
227.83	-250.000
228.21	-26.316
228.58	125.000
228.95	850.000
229.33	-58.333
229.70	-40.000
230.08	-47.368
230.45	260.000
230.82	-166.667
231.20	-121.429
231.57	-66.667
231.95	-118.182
232.32	-109.091
232.69	-55.000
233.07	-275.000
233.44	-29.412
233.81	-170.000
234.19	-72.222
234.56	-59.091
234.93	13.793
235.31	-57.895
235.68	-55.556
236.05	-80.000
236.43	-26.923
236.80	-28.000
237.17	-44.444
237.55	-33.333
237.92	-160.000
238.29	-22.581
238.67	-11.364
239.04	-16.667
239.41	-30.952
239.79	-10.870
240.16	-3.704
240.53	-15.217
240.91	-25.490
241.28	-11.475
241.65	2.985
242.02	-8.108
242.40	-35.385
242.77	-22.667
243.14	-12.195
243.51	-27.632
243.89	-21.795
244.26	-5.941
244.63	2.941
245.00	-5.607
245.38	-11.404
245.75	-23.894
246.12	-5.556
246.49	-10.078
246.87	-0.714
247.24	-3.974
247.61	-6.579
247.98	-8.054
248.36	-9.877
248.73	-7.975
249.10	-3.825
249.47	-0.995
249.84	-3.665
250.22	-6.736
250.59	-5.000
250.96	0.000
251.33	-13.776
251.70	-2.564
252.08	-2.500
252.45	0.000
252.82	-3.306
253.19	-4.297
253.56	-1.141
253.94	-1.154
254.31	-3.409
254.68	-0.350
255.05	1.954
255.42	-0.340
255.79	-2.265
256.16	-3.974
256.54	-8.609
256.91	-3.607
257.28	-2.295
257.65	-3.185
258.02	-4.425
258.39	0.855
258.76	1.529
259.14	-1.724
259.51	-2.594
259.88	-1.983
260.25	-1.111
260.62	1.096
260.99	1.913
261.36	0.268
261.73	-1.061
262.10	-0.824
262.47	-3.217
262.85	1.515
263.22	-1.558
263.59	-3.684
263.96	0.767
264.33	-1.279
264.70	-0.494
265.07	0.955
265.44	2.494
265.81	-1.157
266.18	-0.907
266.55	0.000
266.92	0.456
267.29	2.626
267.66	-0.887
268.03	-0.873
268.40	0.418
268.77	-2.050
269.14	-3.524
269.51	0.219
269.88	3.484
270.25	1.610
270.62	1.266
270.99	1.414
271.36	2.574
271.73	0.393
272.10	1.002
272.47	0.000
272.84	0.000
273.21	0.401
273.58	1.008
273.95	0.000
274.32	-3.232
274.69	-2.128
275.06	-0.183
275.43	-0.555
275.80	0.705
276.17	-0.556
276.54	0.373
276.91	0.358
277.28	0.362
277.65	0.898
278.02	1.103
278.39	0.362
278.76	0.703
279.13	0.532
279.50	2.405
279.87	1.252
280.23	-0.704
280.60	0.339
280.97	0.000
281.34	-1.019
281.71	2.538
282.08	0.664
282.45	-0.164
282.82	1.570
283.19	-1.939
283.56	-0.820
283.92	1.652
284.29	1.422
284.66	0.821
285.03	-0.321
285.40	1.700
285.77	1.393
286.14	2.137
286.51	-0.304
286.87	0.474
287.24	2.410
287.61	0.747
287.98	1.662
288.35	1.183
288.72	-0.592
289.08	0.586
289.45	1.479
289.82	0.000
290.19	1.149
290.56	1.690
290.93	1.284
291.29	1.653
291.66	-0.275
292.03	0.136
292.40	2.857
292.77	0.943
293.13	1.353
293.50	0.131
293.87	0.940
294.24	2.000
294.60	2.276
294.97	0.000
295.34	2.177
295.71	1.009
296.08	0.517
296.44	2.574
296.81	2.071
297.18	1.494
297.55	0.943
297.91	1.542
298.28	0.474
298.65	1.665
299.02	0.590
299.38	2.517
299.75	0.701
300.12	0.463
300.48	1.613
300.85	1.912
301.22	2.013
301.59	1.256
301.95	1.356
302.32	2.667
302.69	1.424
303.05	1.306
303.42	0.665
303.79	1.979
304.15	2.629
304.52	1.268
304.89	2.094
305.25	1.760
305.62	1.881
305.99	2.165
306.35	2.722
306.72	2.792
307.09	1.320
307.45	2.692
307.82	1.110
308.19	2.321
308.55	3.375
308.92	2.337
309.29	3.161
309.65	2.339
310.02	1.980
310.38	2.657
310.75	3.107
311.12	3.931
311.48	3.226
311.85	2.659
312.22	2.562
312.58	3.380
312.95	3.824
313.31	3.794
313.68	5.220
314.05	4.968
314.41	4.827
314.78	4.178
315.14	5.626
315.51	6.094
315.87	6.031
316.24	6.301
316.61	7.105
316.97	5.973
317.34	5.820
317.70	6.026
318.07	7.319
318.43	9.269
318.80	9.365
319.16	8.927
319.53	8.312
319.89	8.151
320.26	10.498
320.62	10.195
320.99	10.342
321.35	11.645
321.72	12.465
322.08	10.460
322.45	13.098
322.81	12.455
323.18	12.743
323.54	15.000
323.91	14.413
324.27	13.941
324.64	15.365
325.00	15.340
325.37	16.790
325.73	17.190
326.10	18.086
326.46	18.404
326.83	19.135
327.19	19.055
327.56	19.447
327.92	20.456
328.29	19.919
328.65	20.519
329.01	20.474
329.38	21.820
329.74	22.688
330.11	22.603
330.47	22.831
330.84	24.289
331.20	23.333
331.56	23.744
331.93	24.100
332.29	24.153
332.66	24.003
333.02	24.623
333.38	22.903
333.75	24.411
334.11	24.937
334.48	25.495
334.84	24.299
335.20	23.762
335.57	25.379
335.93	25.620
336.29	24.792
336.66	23.802
337.02	25.251
337.38	24.915
337.75	24.298
338.11	24.643
338.47	24.814
338.84	23.604
339.20	24.768
339.56	24.217
339.93	24.302
340.29	23.430
340.65	24.655
341.02	25.938
341.38	25.869
341.74	24.052
342.11	25.181
342.47	23.511
342.83	24.960
343.20	25.511
343.56	24.619
343.92	24.259
344.28	25.234
344.65	25.504
345.01	24.727
345.37	23.639
345.73	24.084
346.10	26.053
346.46	25.158
346.82	25.318
347.19	24.370
347.55	25.797
347.91	25.409
348.27	24.431
348.63	24.829
349.00	23.863
349.36	24.907
349.72	24.554
350.08	25.483
350.45	24.335
350.81	24.284
351.17	24.737
351.53	24.716
351.89	24.525
352.26	25.149
352.62	24.776
352.98	24.733
353.34	24.869
353.70	25.424
354.07	24.367
354.43	24.677
354.79	25.056
355.15	24.135
355.51	24.854
355.87	23.485
356.24	24.335
356.60	24.464
356.96	25.130
357.32	23.717
357.68	24.451
358.04	24.925
358.40	24.328
358.77	23.099
359.13	24.520
359.49	23.717
359.85	22.843
360.21	25.251
360.57	25.341
360.93	23.907
361.29	24.140
361.66	24.403
362.02	26.374
362.38	24.596
362.74	25.279
363.10	24.347
363.46	24.861
363.82	25.213
364.18	24.771
364.54	24.136
364.90	24.348
365.26	23.379
365.62	25.133
365.98	25.868
366.35	25.034
366.71	25.442
367.07	25.169
367.43	24.228
367.79	25.415
368.15	25.084
368.51	25.778
368.87	24.886
369.23	24.933
369.59	24.522
369.95	25.625
370.31	25.861
370.67	25.241
371.03	24.100
371.39	24.580
371.75	25.378
372.11	26.084
372.47	24.306
372.83	25.262
373.19	25.817
373.55	24.661
373.91	24.881
374.27	25.162
374.63	25.846
374.99	24.934
375.35	24.870
375.71	25.484
376.07	24.532
376.42	25.882
376.78	25.917
377.14	25.452
377.50	26.312
377.86	25.616
378.22	25.389
378.58	25.505
378.94	25.117
379.30	25.835
379.66	26.514
380.02	25.736
380.38	26.498
380.74	25.803
381.09	25.610
381.45	25.455
381.81	26.230
382.17	25.950
382.53	25.380
382.89	26.072
383.25	26.084
383.61	25.637
383.97	25.029
384.32	26.256
384.68	24.942
385.04	25.506
385.40	26.635
385.76	27.257
386.12	25.913
386.48	26.941
386.83	26.341
387.19	26.130
387.55	25.528
387.91	26.769
388.27	25.577
388.62	26.403
388.98	26.114
389.34	26.164
389.70	26.671
390.06	26.761
390.42	26.506
390.77	25.527
391.13	25.998
391.49	26.570
391.85	26.364
392.20	26.750
392.56	26.462
392.92	26.227
393.28	27.363
393.64	26.480
393.99	27.077
394.35	27.220
394.71	26.347
395.07	26.287
395.42	26.556
395.78	27.544
396.14	27.570
396.50	26.128
396.85	25.939
397.21	25.917
397.57	26.796
397.92	27.262
398.28	25.964
398.64	26.087
399.00	25.340
399.35	26.230
399.71	26.087
400.07	27.063
400.42	27.008
400.78	26.968
401.14	26.124
401.49	26.265
401.85	26.628
402.21	27.231
402.57	28.228
402.92	26.950
403.28	26.815
403.63	26.372
403.99	26.841
404.35	26.208
404.70	26.912
405.06	26.685
405.42	26.639
405.77	27.099
406.13	26.526
406.49	26.126
406.84	26.648
407.20	25.713
407.55	27.135
407.91	27.027
408.27	26.620
408.62	26.585
408.98	26.814
409.34	26.217
409.69	26.329
410.05	26.788
410.40	27.204
410.76	27.314
411.11	27.236
411.47	27.027
411.83	27.396
412.18	26.928
412.54	27.504
412.89	26.834
413.25	27.088
413.60	27.455
413.96	25.466
414.31	27.195
414.67	26.714
415.03	26.031
415.38	26.671
415.74	26.268
416.09	26.712
416.45	26.174
416.80	27.295
417.16	27.331
417.51	26.961
417.87	26.180
418.22	26.347
418.58	25.774
418.93	26.542
419.29	26.572
419.64	26.230
420.00	26.588
420.35	26.783
420.71	26.249
421.06	26.912
421.42	27.236
421.77	26.494
422.12	26.480
422.48	26.779
422.83	26.616
423.19	27.427
423.54	27.876
423.90	26.726
424.25	26.987
424.61	26.866
424.96	26.689
425.31	27.070
425.67	26.516
426.02	26.729
426.38	27.440
426.73	26.060
427.09	27.797
427.44	26.980
427.79	26.810
428.15	27.112
428.50	27.416
428.85	27.210
429.21	26.702
429.56	27.394
429.92	26.437
430.27	26.940
430.62	27.357
430.98	26.660
431.33	26.686
431.68	26.485
432.04	27.171
432.39	27.156
432.74	27.283
433.10	26.555
433.45	26.533
433.80	26.717
434.16	27.273
434.51	27.441
434.86	27.036
435.22	27.311
435.57	27.712
435.92	26.210
436.28	27.247
436.63	27.854
436.98	27.053
437.34	27.339
437.69	27.298
438.04	27.181
438.39	27.053
438.75	26.342
439.10	27.431
439.45	27.110
439.81	27.401
440.16	27.185
440.51	27.258
440.86	27.682
441.22	26.795
441.57	26.887
441.92	26.867
442.27	27.172
442.63	28.167
442.98	27.908
443.33	27.617
443.68	27.304
444.03	28.081
444.39	27.601
444.74	27.310
445.09	27.623
445.44	27.503
445.79	27.538
446.15	27.184
446.50	27.028
446.85	27.772
447.20	27.128
447.55	27.720
447.91	27.435
448.26	27.061
448.61	27.683
448.96	28.219
449.31	27.359
449.66	26.852
450.02	27.004
450.37	27.331
450.72	27.610
451.07	27.847
451.42	28.018
451.77	27.293
452.12	27.596
452.47	28.402
452.83	28.097
453.18	27.262
453.53	27.111
453.88	27.388
454.23	27.571
454.58	27.336
454.93	27.245
455.28	28.417
455.63	27.402
455.98	27.151
456.34	27.385
456.69	27.396
457.04	27.187
457.39	27.328
457.74	28.188
458.09	27.567
458.44	28.394
458.79	28.159
459.14	27.163
459.49	27.448
459.84	27.545
460.19	26.263
460.54	27.541
460.89	27.581
461.24	26.494
461.59	27.892
461.94	26.640
462.29	27.436
462.64	26.856
462.99	27.370
463.34	27.969
463.69	27.374
464.04	27.960
464.39	27.242
464.74	26.967
465.09	26.759
465.44	26.931
465.79	27.076
466.14	26.785
466.49	27.526
466.84	27.769
467.19	26.821
467.54	26.733
467.89	26.782
468.24	27.645
468.59	26.288
468.94	26.515
469.29	25.855
469.64	25.811
469.99	27.024
470.34	27.104
470.68	27.409
471.03	27.046
471.38	27.338
471.73	26.008
472.08	27.411
472.43	27.032
472.78	26.259
473.13	27.307
473.48	27.311
473.83	26.756
474.17	27.257
474.52	26.759
474.87	26.966
475.22	27.155
475.57	27.155
475.92	26.879
476.27	26.677
476.61	27.570
476.96	26.017
477.31	27.277
477.66	27.702
478.01	26.080
478.36	26.820
478.70	26.355
479.05	26.687
479.40	27.246
479.75	26.273
480.10	26.386
480.45	27.256
480.79	26.712
481.14	26.700
481.49	26.670
481.84	27.023
482.19	26.624
482.53	26.891
482.88	26.761
483.23	26.856
483.58	26.419
483.92	25.754
484.27	25.995
484.62	25.908
484.97	26.827
485.31	26.012
485.66	24.791
486.01	25.152
486.36	25.532
486.70	26.509
487.05	26.981
487.40	26.260
487.75	26.310
488.09	26.599
488.44	25.339
488.79	25.970
489.13	25.561
489.48	24.971
489.83	25.674
490.17	25.395
490.52	26.149
490.87	26.269
491.22	25.953
491.56	25.469
491.91	26.472
492.26	25.746
492.60	26.410
492.95	25.801
493.30	25.594
493.64	25.975
493.99	25.044
494.34	25.740
494.68	25.567
495.03	25.903
495.37	26.454
495.72	25.941
496.07	25.767
496.41	24.882
496.76	25.521
497.11	26.157
497.45	25.205
497.80	24.878
498.14	26.122
498.49	26.057
498.84	25.457
499.18	25.596
499.53	25.874
499.87	25.670
500.22	24.933
500.56	25.551
500.91	25.538
501.26	25.682
501.60	25.232
501.95	25.532
502.29	24.835
502.64	25.754
502.98	25.108
503.33	24.924
503.67	25.774
504.02	25.044
504.36	25.380
504.71	24.897
505.06	25.466
505.40	25.640
505.75	25.273
506.09	25.184
506.44	24.977
506.78	24.862
507.13	25.542
507.47	24.680
507.82	25.237
508.16	25.048
508.51	25.176
508.85	25.886
509.19	25.059
509.54	25.841
509.88	25.206
510.23	25.498
510.57	25.955
510.92	25.254
511.26	25.445
511.61	24.336
511.95	24.646
512.30	24.963
512.64	24.838
512.98	24.162
513.33	24.950
513.67	24.732
514.02	24.374
514.36	25.422
514.70	25.104
515.05	24.557
515.39	25.039
515.74	25.080
516.08	24.934
516.42	25.327
516.77	25.394
517.11	23.672
517.46	24.390
517.80	25.067
518.14	24.755
518.49	25.054
518.83	24.162
519.17	24.502
519.52	24.423
519.86	25.079
520.20	24.228
520.55	24.863
520.89	23.311
521.23	24.456
521.58	24.746
521.92	24.476
522.26	23.540
522.61	25.405
522.95	24.279
523.29	24.540
523.64	23.879
523.98	24.815
524.32	25.158
524.66	23.904
525.01	24.179
525.35	24.986
525.69	24.188
526.04	23.536
526.38	24.655
526.72	24.279
527.06	24.575
527.41	23.032
527.75	25.000
528.09	23.377
528.43	23.683
528.78	23.064
529.12	23.394
529.46	23.834
529.80	24.771
530.15	23.884
530.49	23.310
530.83	23.908
531.17	23.238
531.51	23.706
531.86	24.339
532.20	23.841
532.54	23.878
532.88	23.273
533.22	23.571
533.57	24.120
533.91	23.850
534.25	23.403
534.59	23.908
534.93	23.826
535.27	23.606
535.62	23.820
535.96	23.823
536.30	23.267
536.64	23.243
536.98	23.862
537.32	24.198
537.66	22.957
538.01	21.571
538.35	21.985
538.69	23.498
539.03	23.053
539.37	23.027
539.71	22.823
540.05	23.022
540.39	21.699
540.73	22.283
541.07	22.685
541.42	22.800
541.76	22.361
542.10	22.557
542.44	22.899
542.78	23.175
543.12	23.242
543.46	22.589
543.80	21.703
544.14	22.561
544.48	23.463
544.82	23.339
545.16	22.481
545.50	22.469
545.84	22.045
546.18	22.963
546.52	22.166
546.86	22.075
547.20	21.565
547.54	21.660
547.88	21.579
548.22	22.105
548.56	22.235
548.90	21.791
549.24	21.398
549.58	22.019
549.92	22.194
550.26	22.071
550.60	22.655
550.94	21.928
551.28	21.452
551.62	23.046
551.96	21.618
552.30	20.905
552.64	22.589
552.98	21.772
553.32	21.865
553.66	21.158
554.00	21.438
554.34	21.686
554.68	21.240
555.02	21.485
555.36	21.828
555.69	21.525
556.03	21.122
556.37	20.150
556.71	21.179
557.05	21.789
557.39	20.969
557.73	21.004
558.07	21.192
558.41	21.528
558.75	21.974
559.08	22.129
559.42	20.919
559.76	21.642
560.10	20.630
560.44	21.240
560.78	21.875
561.12	20.690
561.45	21.229
561.79	21.306
562.13	21.873
562.47	20.469
562.81	20.633
563.15	21.023
563.48	21.690
563.82	20.677
564.16	20.533
564.50	20.024
564.84	20.177
565.17	20.412
565.51	20.311
565.85	20.784
566.19	20.449
566.52	19.953
566.86	20.770
567.20	20.174
567.54	20.393
567.88	19.980
568.21	19.713
568.55	20.048
568.89	20.018
569.23	20.406
569.56	20.164
569.90	19.886
570.24	19.899
570.57	19.532
570.91	18.922
571.25	20.075
571.59	19.594
571.92	18.870
572.26	19.534
572.60	19.028
572.93	19.482
573.27	19.331
573.61	19.428
573.95	19.131
574.28	19.224
574.62	18.622
574.96	18.372
575.29	18.903
575.63	18.457
575.97	19.066
576.30	18.653
576.64	19.017
576.98	18.952
577.31	19.032
577.65	19.067
577.98	18.863
578.32	18.386
578.66	18.357
578.99	18.595
579.33	18.697
579.67	18.608
580.00	18.678
580.34	19.066
580.67	18.005
581.01	18.758
581.35	18.235
581.68	18.367
582.02	18.094
582.35	18.941
582.69	18.543
583.02	18.296
583.36	18.258
583.70	18.382
584.03	18.143
584.37	18.711
584.70	18.411
585.04	17.740
585.37	17.830
585.71	18.188
586.04	18.362
586.38	18.315
586.72	17.649
587.05	17.933
587.39	18.424
587.72	17.943
588.06	18.109
588.39	18.347
588.73	17.778
589.06	17.692
589.40	17.732
589.73	18.413
590.07	18.302
590.40	18.323
590.73	18.028
591.07	18.243
591.40	17.691
591.74	17.806
592.07	18.149
592.41	17.192
592.74	18.175
593.08	17.675
593.41	18.314
593.75	17.615
594.08	17.752
594.41	17.853
594.75	17.004
595.08	16.925
595.42	17.825
595.75	17.630
596.09	17.994
596.42	17.306
596.75	16.982
597.09	17.859
597.42	17.441
597.75	17.797
598.09	17.778
598.42	18.134
598.76	16.890
599.09	16.768
599.42	17.030
599.76	17.365
600.09	17.551
600.42	17.251
600.76	16.876
601.09	16.827
601.42	16.821
601.76	17.000
602.09	17.084
602.42	16.249
602.76	16.900
603.09	17.070
603.42	17.233
603.76	16.667
604.09	17.246
604.42	17.505
604.76	17.085
605.09	17.072
605.42	16.587
605.75	16.385
606.09	16.051
606.42	16.527
606.75	15.855
607.09	16.743
607.42	16.493
607.75	16.530
608.08	16.456
608.42	16.848
608.75	17.123
609.08	16.766
609.41	16.012
609.75	16.652
610.08	16.799
610.41	16.100
610.74	15.672
611.07	16.829
611.41	17.175
611.74	16.628
612.07	16.643
612.40	16.445
612.73	16.626
613.07	16.381
613.40	16.362
613.73	16.707
614.06	15.898
614.39	15.841
614.72	16.642
615.06	16.121
615.39	15.708
615.72	16.256
616.05	16.707
616.38	15.691
616.71	16.196
617.05	16.400
617.38	16.533
617.71	16.253
618.04	15.920
618.37	16.448
618.70	16.572
619.03	15.233
619.36	15.660
619.69	16.208
620.03	16.384
620.36	16.319
620.69	16.039
621.02	16.667
621.35	15.965
621.68	17.570
622.01	15.943
622.34	15.411
622.67	15.670
623.00	15.115
623.33	15.660
623.66	16.083
623.99	15.602
624.32	16.634
624.65	16.088
624.99	16.515
625.32	17.374
625.65	16.993
625.98	14.915
626.31	14.954
626.64	15.604
626.97	15.004
627.30	14.958
627.63	15.079
627.96	16.667
628.29	14.708
628.62	15.617
628.95	16.039
629.28	15.973
629.61	16.751
629.94	14.812
630.26	15.085
630.59	15.199
630.92	15.931
631.25	16.458
631.58	16.008
631.91	14.902
632.24	15.754
632.57	16.983
632.90	14.845
633.23	15.306
633.56	15.408
633.89	15.186
634.22	15.281
