SpectraSuite Data File
++++++++++++++++++++++++++++++++++++
Date: Wed May 13 19:19:06 PDT 2015
User: schluterlab
Dark Spectrum Present: Yes
Reference Spectrum Present: Yes
Number of Sampled Component Spectra: 1
Spectrometers: USB2E3373
Integration Time (usec): 3000 (USB2E3373)
Spectra Averaged: 3 (USB2E3373)
Boxcar Smoothing: 0 (USB2E3373)
Correct for Electrical Dark: No (USB2E3373)
Strobe/Lamp Enabled: No (USB2E3373)
Correct for Detector Non-linearity: No (USB2E3373)
Correct for Stray Light: No (USB2E3373)
Number of Pixels in Processed Spectrum: 2048
>>>>>Begin Processed Spectral Data<<<<<
178.53	0.000
178.91	-1375.000
179.29	-1375.000
179.67	-261.111
180.04	-1650.000
180.42	2500.000
180.80	1320.000
181.18	-1375.000
181.56	828.571
181.94	0.000
182.31	-842.857
182.69	1833.333
183.07	-587.500
183.45	-666.667
183.83	590.909
184.20	-420.000
184.58	3050.000
184.96	7200.000
185.34	-840.000
185.72	-700.000
186.09	-2450.000
186.47	3200.000
186.85	3050.000
187.23	5500.000
187.61	-1900.000
187.98	1350.000
188.36	563.636
188.74	581.818
189.12	-1120.000
189.49	570.000
189.87	-5600.000
190.25	-1475.000
190.63	392.857
191.00	523.077
191.38	1100.000
191.76	-1250.000
192.14	1750.000
192.51	600.000
192.89	1083.333
193.27	762.500
193.65	-1325.000
194.02	620.000
194.40	1020.000
194.78	550.000
195.15	550.000
195.53	790.000
195.91	-2650.000
196.29	412.500
196.66	363.158
197.04	-410.000
197.42	0.000
197.79	620.000
198.17	-5300.000
198.55	828.571
198.92	712.500
199.30	1060.000
199.68	0.000
200.05	327.778
200.43	857.143
200.81	5300.000
201.18	1933.333
201.56	-1700.000
201.94	777.778
202.31	666.667
202.69	491.667
203.07	620.000
203.44	0.000
203.82	1350.000
204.19	914.286
204.57	521.429
204.95	725.000
205.32	1766.667
205.70	536.364
206.08	450.000
206.45	3250.000
206.83	381.250
207.20	1000.000
207.58	880.000
207.96	388.889
208.33	787.500
208.71	-850.000
209.08	757.143
209.46	633.333
209.84	427.273
210.21	-1766.667
210.59	1500.000
210.96	-612.500
211.34	2700.000
211.71	650.000
212.09	916.667
212.46	0.000
212.84	1900.000
213.22	1575.000
213.59	-4700.000
213.97	866.667
214.34	800.000
214.72	600.000
215.09	1120.000
215.47	-2700.000
215.84	-2800.000
216.22	1900.000
216.59	471.429
216.97	1525.000
217.34	490.909
217.72	-916.667
218.09	0.000
218.47	-6000.000
218.84	777.778
219.22	757.143
219.59	1633.333
219.97	-771.429
220.34	1220.000
220.72	-1566.667
221.09	492.857
221.47	1700.000
221.84	-933.333
222.22	0.000
222.59	1625.000
222.97	-2900.000
223.34	1140.000
223.72	484.615
224.09	1240.000
224.46	2600.000
224.84	-5800.000
225.21	-1120.000
225.59	-5500.000
225.96	700.000
226.34	340.000
226.71	2700.000
227.08	750.000
227.46	670.000
227.83	-1475.000
228.21	-1750.000
228.58	722.222
228.95	-2400.000
229.33	-2500.000
229.70	1866.667
230.08	842.857
230.45	-960.000
230.82	466.667
231.20	933.333
231.57	742.857
231.95	566.667
232.32	290.909
232.69	472.727
233.07	871.429
233.44	415.385
233.81	-1933.333
234.19	294.737
234.56	375.000
234.93	341.667
235.31	509.091
235.68	469.231
236.05	342.857
236.43	181.818
236.80	278.947
237.17	4900.000
237.55	238.095
237.92	189.286
238.29	247.619
238.67	138.710
239.04	200.000
239.41	133.333
239.79	115.217
240.16	138.095
240.53	115.909
240.91	111.765
241.28	98.000
241.65	108.000
242.02	84.058
242.40	90.323
242.77	81.667
243.14	62.366
243.51	69.663
243.89	55.294
244.26	61.111
244.63	55.914
245.00	54.255
245.38	54.455
245.75	50.467
246.12	34.862
246.49	54.015
246.87	57.600
247.24	39.231
247.61	47.857
247.98	41.830
248.36	27.703
248.73	40.127
249.10	36.306
249.47	34.463
249.84	35.829
250.22	26.203
250.59	26.627
250.96	29.293
251.33	33.175
251.70	30.198
252.08	26.667
252.45	25.112
252.82	27.826
253.19	25.957
253.56	30.588
253.94	23.651
254.31	22.266
254.68	25.385
255.05	22.140
255.42	24.390
255.79	22.794
256.16	25.271
256.54	20.495
256.91	21.708
257.28	15.108
257.65	20.132
258.02	22.360
258.39	18.612
258.76	20.401
259.14	17.857
259.51	17.629
259.88	20.497
260.25	17.825
260.62	17.630
260.99	18.944
261.36	17.718
261.73	17.765
262.10	15.407
262.47	16.338
262.85	17.827
263.22	13.960
263.59	17.379
263.96	15.659
264.33	15.927
264.70	15.789
265.07	19.182
265.44	15.404
265.81	15.085
266.18	13.065
266.55	15.854
266.92	12.531
267.29	13.889
267.66	15.367
268.03	14.545
268.40	12.850
268.77	11.695
269.14	10.586
269.51	14.447
269.88	16.317
270.25	13.093
270.62	12.135
270.99	16.129
271.36	15.880
271.73	13.785
272.10	11.739
272.47	13.548
272.84	14.286
273.21	15.514
273.58	13.974
273.95	13.627
274.32	11.570
274.69	11.991
275.06	10.630
275.43	13.191
275.80	13.427
276.17	12.220
276.54	13.306
276.91	13.439
277.28	11.523
277.65	11.992
278.02	11.801
278.39	11.523
278.76	12.182
279.13	11.698
279.50	13.035
279.87	11.554
280.23	11.178
280.60	8.511
280.97	11.645
281.34	10.973
281.71	13.091
282.08	11.516
282.45	8.000
282.82	11.012
283.19	9.447
283.56	11.754
283.92	11.337
284.29	10.053
284.66	9.800
285.03	8.137
285.40	12.324
285.77	8.923
286.14	8.808
286.51	10.333
286.87	12.137
287.24	11.075
287.61	9.149
287.98	10.227
288.35	9.826
288.72	9.813
289.08	9.703
289.45	9.885
289.82	9.593
290.19	8.634
290.56	10.567
290.93	7.704
291.29	8.282
291.66	9.587
292.03	11.773
292.40	12.335
292.77	9.024
293.13	8.358
293.50	9.038
293.87	9.037
294.24	8.889
294.60	8.588
294.97	9.593
295.34	9.168
295.71	10.227
296.08	6.695
296.44	7.703
296.81	7.133
297.18	8.943
297.55	6.596
297.91	8.047
298.28	8.701
298.65	9.269
299.02	7.773
299.38	7.968
299.75	6.604
300.12	7.152
300.48	8.000
300.85	6.289
301.22	7.898
301.59	7.323
301.95	8.060
302.32	7.317
302.69	7.407
303.05	7.394
303.42	6.790
303.79	7.248
304.15	5.594
304.52	5.562
304.89	6.504
305.25	6.961
305.62	8.041
305.99	7.320
306.35	6.935
306.72	6.951
307.09	6.548
307.45	7.095
307.82	6.027
308.19	7.837
308.55	7.120
308.92	5.908
309.29	5.702
309.65	5.514
310.02	6.660
310.38	6.237
310.75	6.864
311.12	6.960
311.48	6.688
311.85	6.709
312.22	6.348
312.58	5.613
312.95	6.864
313.31	6.117
313.68	6.549
314.05	8.284
314.41	6.231
314.78	6.647
315.14	5.660
315.51	7.003
315.87	6.733
316.24	6.455
316.61	6.433
316.97	5.969
317.34	4.697
317.70	6.501
318.07	6.833
318.43	6.458
318.80	6.654
319.16	7.345
319.53	5.629
319.89	8.095
320.26	7.000
320.62	6.052
320.99	6.263
321.35	5.455
321.72	6.879
322.08	7.700
322.45	8.657
322.81	7.074
323.18	7.707
323.54	7.328
323.91	6.509
324.27	6.692
324.64	5.219
325.00	5.861
325.37	6.369
325.73	6.732
326.10	7.414
326.46	5.735
326.83	6.903
327.19	6.319
327.56	5.836
327.92	7.437
328.29	6.300
328.65	6.722
329.01	6.318
329.38	5.550
329.74	5.448
330.11	5.938
330.47	6.979
330.84	8.180
331.20	7.013
331.56	6.972
331.93	6.204
332.29	7.098
332.66	7.257
333.02	5.941
333.38	6.594
333.75	6.952
334.11	6.584
334.48	5.679
334.84	6.434
335.20	7.273
335.57	6.800
335.93	5.357
336.29	6.044
336.66	5.771
337.02	5.973
337.38	5.556
337.75	6.417
338.11	6.356
338.47	5.341
338.84	6.324
339.20	5.138
339.56	6.569
339.93	5.909
340.29	5.344
340.65	5.971
341.02	6.370
341.38	6.228
341.74	5.789
342.11	5.502
342.47	5.551
342.83	7.192
343.20	6.407
343.56	6.318
343.92	6.667
344.28	5.527
344.65	6.621
345.01	5.303
345.37	5.146
345.73	5.753
346.10	6.309
346.46	6.102
346.82	6.178
347.19	5.764
347.55	6.076
347.91	5.825
348.27	6.902
348.63	5.686
349.00	5.987
349.36	5.008
349.72	6.576
350.08	5.186
350.45	6.021
350.81	6.418
351.17	6.969
351.53	4.996
351.89	4.785
352.26	6.472
352.62	7.137
352.98	5.511
353.34	6.327
353.70	5.074
354.07	6.774
354.43	5.317
354.79	5.792
355.15	5.028
355.51	6.395
355.87	6.204
356.24	6.678
356.60	5.132
356.96	5.310
357.32	5.315
357.68	6.378
358.04	6.097
358.40	6.888
358.77	5.869
359.13	5.209
359.49	5.490
359.85	4.762
360.21	4.625
360.57	5.759
360.93	4.923
361.29	5.593
361.66	5.108
362.02	5.075
362.38	6.236
362.74	5.580
363.10	4.515
363.46	5.136
363.82	5.215
364.18	5.507
364.54	5.498
364.90	5.737
365.26	5.074
365.62	5.405
365.98	4.383
366.35	4.155
366.71	5.134
367.07	4.224
367.43	4.572
367.79	5.639
368.15	6.753
368.51	4.797
368.87	5.068
369.23	4.462
369.59	4.779
369.95	4.191
370.31	5.769
370.67	5.000
371.03	5.768
371.39	4.446
371.75	5.000
372.11	5.619
372.47	5.645
372.83	5.115
373.19	5.130
373.55	5.100
373.91	5.596
374.27	4.399
374.63	4.800
374.99	6.003
375.35	4.606
375.71	5.141
376.07	5.624
376.42	5.158
376.78	5.368
377.14	5.020
377.50	5.430
377.86	4.255
378.22	5.563
378.58	4.511
378.94	4.148
379.30	4.008
379.66	4.442
380.02	4.607
380.38	4.250
380.74	4.202
381.09	4.523
381.45	4.794
381.81	5.528
382.17	4.395
382.53	4.403
382.89	4.012
383.25	4.503
383.61	4.585
383.97	5.128
384.32	4.991
384.68	4.151
385.04	4.241
385.40	4.830
385.76	4.238
386.12	4.663
386.48	5.035
386.83	4.298
387.19	5.195
387.55	4.515
387.91	4.172
388.27	3.066
388.62	4.856
388.98	3.378
389.34	4.944
389.70	4.476
390.06	4.816
390.42	4.734
390.77	4.835
391.13	4.084
391.49	4.569
391.85	4.137
392.20	4.164
392.56	4.735
392.92	4.944
393.28	3.550
393.64	4.856
393.99	4.887
394.35	3.908
394.71	4.580
395.07	4.860
395.42	4.821
395.78	5.025
396.14	4.966
396.50	4.762
396.85	4.514
397.21	3.761
397.57	4.154
397.92	4.387
398.28	3.756
398.64	4.600
399.00	4.197
399.35	4.061
399.71	3.762
400.07	4.672
400.42	5.215
400.78	4.282
401.14	4.695
401.49	4.716
401.85	3.932
402.21	3.713
402.57	4.010
402.92	4.414
403.28	4.934
403.63	4.332
403.99	4.395
404.35	4.545
404.70	4.197
405.06	3.902
405.42	4.180
405.77	3.657
406.13	4.289
406.49	4.317
406.84	4.548
407.20	3.369
407.55	4.531
407.91	4.067
408.27	3.063
408.62	4.094
408.98	4.350
409.34	3.936
409.69	3.806
410.05	4.213
410.40	3.914
410.76	4.241
411.11	4.584
411.47	4.281
411.83	4.643
412.18	3.834
412.54	4.732
412.89	4.880
413.25	4.486
413.60	4.138
413.96	3.825
414.31	4.253
414.67	4.816
415.03	4.238
415.38	5.541
415.74	4.823
416.09	4.703
416.45	3.815
416.80	4.164
417.16	5.027
417.51	4.512
417.87	3.789
418.22	4.164
418.58	5.165
418.93	4.238
419.29	4.519
419.64	4.408
420.00	4.695
420.35	4.638
420.71	4.842
421.06	4.475
421.42	4.795
421.77	4.260
422.12	3.425
422.48	3.292
422.83	4.252
423.19	4.641
423.54	4.121
423.90	4.290
424.25	4.188
424.61	3.750
424.96	4.023
425.31	4.817
425.67	4.157
426.02	4.057
426.38	5.067
426.73	4.037
427.09	4.620
427.44	4.198
427.79	3.910
428.15	4.464
428.50	4.389
428.85	4.529
429.21	3.755
429.56	3.059
429.92	3.724
430.27	3.724
430.62	3.891
430.98	4.411
431.33	3.866
431.68	4.817
432.04	4.260
432.39	3.826
432.74	4.189
433.10	3.622
433.45	4.315
433.80	3.991
434.16	4.113
434.51	4.053
434.86	3.991
435.22	4.113
435.57	3.830
435.92	4.154
436.28	4.152
436.63	4.857
436.98	3.434
437.34	4.711
437.69	4.434
438.04	4.103
438.39	4.060
438.75	4.358
439.10	4.916
439.45	4.014
439.81	3.867
440.16	4.235
440.51	4.452
440.86	3.995
441.22	3.782
441.57	4.299
441.92	3.941
442.27	4.198
442.63	4.423
442.98	4.845
443.33	4.565
443.68	3.665
444.03	3.856
444.39	3.311
444.74	4.113
445.09	3.881
445.44	4.265
445.79	3.909
446.15	4.870
446.50	4.416
446.85	3.957
447.20	4.284
447.55	4.243
447.91	4.413
448.26	4.118
448.61	4.409
448.96	4.651
449.31	4.837
449.66	4.952
450.02	4.401
450.37	3.401
450.72	3.723
451.07	4.083
451.42	4.559
451.77	4.991
452.12	4.273
452.47	4.789
452.83	4.138
453.18	4.279
453.53	4.762
453.88	3.839
454.23	4.483
454.58	4.846
454.93	4.641
455.28	4.177
455.63	4.490
455.98	4.881
456.34	4.334
456.69	4.822
457.04	4.582
457.39	3.741
457.74	4.237
458.09	4.715
458.44	4.618
458.79	3.850
459.14	4.063
459.49	4.962
459.84	4.543
460.19	4.302
460.54	4.572
460.89	4.334
461.24	4.189
461.59	5.578
461.94	4.254
462.29	5.519
462.64	3.893
462.99	4.750
463.34	5.533
463.69	4.315
464.04	4.522
464.39	4.058
464.74	4.932
465.09	4.463
465.44	4.211
465.79	4.139
466.14	4.324
466.49	4.505
466.84	5.020
467.19	5.190
467.54	4.625
467.89	4.022
468.24	5.294
468.59	4.762
468.94	4.826
469.29	4.627
469.64	5.221
469.99	4.736
470.34	4.491
470.68	5.029
471.03	4.150
471.38	4.726
471.73	5.130
472.08	4.803
472.43	5.025
472.78	4.147
473.13	5.263
473.48	4.494
473.83	5.122
474.17	4.169
474.52	4.342
474.87	4.553
475.22	4.643
475.57	3.923
475.92	3.930
476.27	3.890
476.61	4.302
476.96	4.288
477.31	4.239
477.66	4.540
478.01	4.234
478.36	4.812
478.70	3.375
479.05	3.887
479.40	4.197
479.75	4.016
480.10	3.231
480.45	3.855
480.79	3.392
481.14	3.669
481.49	3.892
481.84	3.704
482.19	3.498
482.53	4.128
482.88	4.002
483.23	4.393
483.58	3.776
483.92	3.983
484.27	3.355
484.62	3.750
484.97	3.193
485.31	3.082
485.66	2.729
486.01	2.248
486.36	2.046
486.70	2.123
487.05	2.188
487.40	2.681
487.75	2.574
488.09	2.912
488.44	2.702
488.79	3.472
489.13	3.552
489.48	3.263
489.83	2.935
490.17	3.858
490.52	3.587
490.87	3.573
491.22	4.002
491.56	2.961
491.91	3.537
492.26	3.445
492.60	3.779
492.95	3.508
493.30	3.879
493.64	3.686
493.99	3.575
494.34	3.839
494.68	4.487
495.03	4.417
495.37	3.583
495.72	3.606
496.07	4.130
496.41	3.407
496.76	3.650
497.11	3.602
497.45	3.493
497.80	4.079
498.14	3.333
498.49	3.366
498.84	4.027
499.18	3.286
499.53	3.561
499.87	3.495
500.22	4.098
500.56	4.223
500.91	3.606
501.26	3.841
501.60	4.271
501.95	3.804
502.29	4.217
502.64	3.305
502.98	3.319
503.33	3.885
503.67	3.944
504.02	3.695
504.36	4.305
504.71	4.104
505.06	4.096
505.40	3.792
505.75	3.664
506.09	3.790
506.44	3.897
506.78	3.897
507.13	4.038
507.47	4.242
507.82	4.357
508.16	3.799
508.51	4.110
508.85	3.426
509.19	3.878
509.54	4.388
509.88	4.225
510.23	4.165
510.57	5.005
510.92	4.298
511.26	4.471
511.61	4.461
511.95	3.862
512.30	3.871
512.64	4.245
512.98	4.502
513.33	5.139
513.67	4.055
514.02	3.842
514.36	4.424
514.70	4.040
515.05	3.904
515.39	4.879
515.74	3.941
516.08	5.254
516.42	4.661
516.77	5.630
517.11	4.495
517.46	4.966
517.80	5.052
518.14	4.227
518.49	4.609
518.83	4.830
519.17	4.157
519.52	4.641
519.86	5.077
520.20	4.971
520.55	4.907
520.89	3.954
521.23	4.946
521.58	4.382
521.92	5.144
522.26	4.210
522.61	4.424
522.95	4.481
523.29	4.808
523.64	4.817
523.98	5.114
524.32	4.825
524.66	5.232
525.01	5.270
525.35	4.213
525.69	4.680
526.04	4.611
526.38	5.125
526.72	4.663
527.06	5.336
527.41	3.713
527.75	5.016
528.09	4.560
528.43	5.672
528.78	5.286
529.12	4.909
529.46	5.511
529.80	5.136
530.15	5.296
530.49	5.108
530.83	4.747
531.17	5.744
531.51	5.837
531.86	5.032
532.20	5.541
532.54	5.445
532.88	5.263
533.22	4.185
533.57	4.691
533.91	4.515
534.25	4.860
534.59	4.637
534.93	5.235
535.27	5.371
535.62	5.128
535.96	5.210
536.30	4.005
536.64	5.795
536.98	5.109
537.32	4.674
537.66	5.000
538.01	5.201
538.35	5.301
538.69	5.616
539.03	4.678
539.37	3.962
539.71	4.148
540.05	4.706
540.39	5.449
540.73	4.851
541.07	5.191
541.42	5.023
541.76	5.742
542.10	5.433
542.44	5.033
542.78	6.851
543.12	4.543
543.46	5.574
543.80	5.010
544.14	5.135
544.48	5.016
544.82	4.747
545.16	5.205
545.50	4.756
545.84	5.175
546.18	5.993
546.52	5.506
546.86	5.017
547.20	5.597
547.54	5.745
547.88	5.612
548.22	5.417
548.56	5.472
548.90	4.930
549.24	4.714
549.58	6.207
549.92	5.426
550.26	5.043
550.60	5.740
550.94	5.775
551.28	4.316
551.62	6.111
551.96	4.772
552.30	5.666
552.64	5.815
552.98	4.610
553.32	5.529
553.66	5.794
554.00	5.216
554.34	5.452
554.68	5.579
555.02	5.642
555.36	5.846
555.69	5.345
556.03	5.384
556.37	5.593
556.71	4.980
557.05	5.882
557.39	5.668
557.73	5.857
558.07	5.946
558.41	4.703
558.75	5.364
559.08	6.189
559.42	5.367
559.76	6.103
560.10	5.282
560.44	5.171
560.78	5.256
561.12	5.079
561.45	5.671
561.79	4.680
562.13	4.963
562.47	5.328
562.81	5.091
563.15	5.351
563.48	5.305
563.82	5.284
564.16	5.036
564.50	4.622
564.84	5.499
565.17	5.470
565.51	4.728
565.85	5.520
566.19	4.571
566.52	5.636
566.86	3.918
567.20	5.366
567.54	4.566
567.88	4.128
568.21	5.185
568.55	4.146
568.89	3.696
569.23	4.189
569.56	4.453
569.90	3.472
570.24	3.122
570.57	3.570
570.91	3.264
571.25	3.397
571.59	3.417
571.92	3.111
572.26	3.322
572.60	3.273
572.93	3.178
573.27	3.520
573.61	3.518
573.95	2.972
574.28	2.714
574.62	2.818
574.96	2.724
575.29	2.910
575.63	2.718
575.97	2.838
576.30	3.080
576.64	2.881
576.98	2.698
577.31	2.911
577.65	2.693
577.98	2.654
578.32	2.661
578.66	3.040
578.99	2.579
579.33	3.050
579.67	2.627
580.00	3.261
580.34	2.729
580.67	2.789
581.01	2.878
581.35	2.618
581.68	2.548
582.02	2.466
582.35	2.568
582.69	2.975
583.02	2.804
583.36	2.974
583.70	2.872
584.03	3.213
584.37	3.347
584.70	2.978
585.04	2.935
585.37	3.122
585.71	3.219
586.04	3.189
586.38	3.083
586.72	3.507
587.05	3.043
587.39	2.797
587.72	3.040
588.06	2.828
588.39	3.292
588.73	3.139
589.06	3.366
589.40	3.401
589.73	3.625
590.07	3.452
590.40	3.215
590.73	3.552
591.07	3.907
591.40	4.049
591.74	4.286
592.07	4.188
592.41	4.217
592.74	4.045
593.08	3.564
593.41	3.575
593.75	3.342
594.08	3.352
594.41	3.782
594.75	3.660
595.08	4.116
595.42	3.433
595.75	3.561
596.09	4.206
596.42	3.733
596.75	3.926
597.09	4.632
597.42	4.005
597.75	3.450
598.09	4.435
598.42	4.253
598.76	3.932
599.09	3.497
599.42	3.530
599.76	3.770
600.09	3.169
600.42	3.725
600.76	3.250
601.09	4.226
601.42	3.691
601.76	3.833
602.09	3.676
602.42	3.702
602.76	4.152
603.09	4.209
603.42	4.451
603.76	3.773
604.09	3.412
604.42	3.547
604.76	4.302
605.09	4.281
605.42	4.147
605.75	4.139
606.09	3.294
606.42	3.719
606.75	4.231
607.09	4.772
607.42	4.365
607.75	3.544
608.08	4.342
608.42	4.393
608.75	4.463
609.08	3.932
609.41	4.664
609.75	3.811
610.08	4.665
610.41	4.050
610.74	3.832
611.07	4.842
611.41	4.318
611.74	4.927
612.07	4.607
612.40	5.037
612.73	4.737
613.07	4.526
613.40	5.108
613.73	3.933
614.06	4.677
614.39	4.667
614.72	4.842
615.06	5.095
615.39	4.087
615.72	4.448
616.05	4.838
616.38	5.114
616.71	4.572
617.05	4.653
617.38	5.111
617.71	4.565
618.04	5.228
618.37	5.500
618.70	5.538
619.03	5.724
619.36	5.703
619.69	5.141
620.03	5.495
620.36	5.080
620.69	6.301
621.02	5.678
621.35	6.030
621.68	5.374
622.01	6.424
622.34	6.430
622.67	5.703
623.00	4.989
623.33	5.004
623.66	5.790
623.99	5.744
624.32	6.419
624.65	6.497
624.99	4.887
625.32	5.358
625.65	6.161
625.98	6.149
626.31	6.765
626.64	6.857
626.97	6.567
627.30	5.819
627.63	6.645
627.96	6.560
628.29	5.862
628.62	7.319
628.95	8.208
629.28	6.934
629.61	8.616
629.94	6.571
630.26	6.864
630.59	7.245
630.92	6.609
631.25	6.910
631.58	7.407
631.91	7.099
632.24	6.013
632.57	7.555
632.90	8.772
633.23	7.942
633.56	8.475
633.89	8.720
634.22	8.059
634.55	9.231
634.88	6.946
635.20	7.885
635.53	8.554
635.86	8.540
636.19	7.647
636.52	8.651
636.85	8.133
637.18	7.719
637.51	9.102
637.83	6.905
638.16	8.951
638.49	8.816
638.82	9.482
639.15	9.000
639.48	9.476
639.81	10.724
640.13	9.245
640.46	9.933
640.79	9.511
641.12	7.840
641.45	8.240
641.77	8.837
642.10	8.480
642.43	8.108
642.76	9.907
643.09	9.969
643.41	9.256
643.74	11.111
644.07	10.213
644.40	10.736
644.73	11.969
645.05	10.618
645.38	9.795
645.71	12.238
646.04	10.133
646.36	11.185
646.69	12.375
647.02	11.565
647.35	12.371
647.67	12.212
648.00	12.358
648.33	9.736
648.66	8.333
648.98	11.844
649.31	8.670
649.64	9.716
649.96	10.283
650.29	10.427
650.62	9.061
650.94	12.156
651.27	12.500
651.60	11.814
651.92	11.821
652.25	11.075
652.58	9.969
652.90	10.900
653.23	10.786
