SpectraSuite Data File
++++++++++++++++++++++++++++++++++++
Date: Sat May 16 11:17:30 PDT 2015
User: schluterlab
Dark Spectrum Present: Yes
Reference Spectrum Present: Yes
Number of Sampled Component Spectra: 1
Spectrometers: USB2E3373
Integration Time (usec): 3000 (USB2E3373)
Spectra Averaged: 3 (USB2E3373)
Boxcar Smoothing: 0 (USB2E3373)
Correct for Electrical Dark: No (USB2E3373)
Strobe/Lamp Enabled: No (USB2E3373)
Correct for Detector Non-linearity: No (USB2E3373)
Correct for Stray Light: No (USB2E3373)
Number of Pixels in Processed Spectrum: 2048
>>>>>Begin Processed Spectral Data<<<<<
178.53	0.000
178.91	106.667
179.29	466.667
179.67	-500.000
180.04	-61.538
180.42	500.000
180.80	-75.000
181.18	350.000
181.56	-12.500
181.94	900.000
182.31	575.000
182.69	7.692
183.07	-500.000
183.45	1250.000
183.83	233.333
184.20	-142.857
184.58	-75.000
184.96	-125.000
185.34	118.750
185.72	-100.000
186.09	266.667
186.47	-175.000
186.85	-162.500
187.23	-37.500
187.61	25.000
187.98	-175.000
188.36	-75.000
188.74	-62.500
189.12	1900.000
189.49	257.143
189.87	58.333
190.25	375.000
190.63	-7.143
191.00	-188.889
191.38	320.000
191.76	-66.667
192.14	460.000
192.51	-80.000
192.89	-433.333
193.27	0.000
193.65	-88.889
194.02	28.571
194.40	266.667
194.78	-10.000
195.15	-800.000
195.53	-181.818
195.91	-350.000
196.29	120.000
196.66	-633.333
197.04	2000.000
197.42	150.000
197.79	53.333
198.17	-166.667
198.55	-500.000
198.92	-1400.000
199.30	200.000
199.68	-750.000
200.05	-100.000
200.43	-133.333
200.81	-1300.000
201.18	-58.333
201.56	100.000
201.94	80.000
202.31	4.545
202.69	-70.000
203.07	-90.000
203.44	400.000
203.82	-383.333
204.19	-450.000
204.57	-25.000
204.95	400.000
205.32	-31.250
205.70	700.000
206.08	-100.000
206.45	-22.222
206.83	-150.000
207.20	200.000
207.58	-600.000
207.96	-266.667
208.33	-150.000
208.71	-77.778
209.08	120.000
209.46	-285.714
209.84	800.000
210.21	0.000
210.59	60.000
210.96	-0.000
211.34	-200.000
211.71	-300.000
212.09	250.000
212.46	650.000
212.84	-2500.000
213.22	800.000
213.59	83.333
213.97	11.111
214.34	70.000
214.72	-80.000
215.09	-333.333
215.47	-50.000
215.84	-50.000
216.22	-60.000
216.59	13.333
216.97	-450.000
217.34	600.000
217.72	-71.429
218.09	-83.333
218.47	-128.571
218.84	214.286
219.22	-14.286
219.59	0.000
219.97	228.571
220.34	350.000
220.72	162.500
221.09	-92.308
221.47	0.000
221.84	166.667
222.22	-700.000
222.59	500.000
222.97	-100.000
223.34	-450.000
223.72	33.333
224.09	7.143
224.46	-375.000
224.84	71.429
225.21	-171.429
225.59	-54.545
225.96	-112.500
226.34	-28.571
226.71	-55.556
227.08	55.000
227.46	1400.000
227.83	-85.714
228.21	-250.000
228.58	-250.000
228.95	-12.500
229.33	-1100.000
229.70	-380.000
230.08	-950.000
230.45	-41.667
230.82	-50.000
231.20	-900.000
231.57	-600.000
231.95	400.000
232.32	4.762
232.69	-44.444
233.07	-214.286
233.44	-600.000
233.81	-66.667
234.19	-44.444
234.56	-37.500
234.93	56.250
235.31	-228.571
235.68	-128.571
236.05	-70.588
236.43	-22.727
236.80	3.226
237.17	-16.667
237.55	4.762
237.92	-50.000
238.29	5.714
238.67	35.294
239.04	5.556
239.41	-32.258
239.79	-17.949
240.16	16.667
240.53	-7.273
240.91	15.385
241.28	7.273
241.65	12.308
242.02	16.393
242.40	-3.279
242.77	15.152
243.14	13.559
243.51	-7.143
243.89	3.797
244.26	15.730
244.63	15.789
245.00	16.842
245.38	15.254
245.75	20.354
246.12	12.800
246.49	14.961
246.87	10.569
247.24	11.864
247.61	7.627
247.98	11.972
248.36	11.189
248.73	21.519
249.10	6.369
249.47	15.205
249.84	18.750
250.22	11.905
250.59	16.384
250.96	16.230
251.33	18.483
251.70	16.827
252.08	20.379
252.45	11.848
252.82	14.286
253.19	16.596
253.56	16.532
253.94	14.346
254.31	18.884
254.68	21.951
255.05	17.742
255.42	17.460
255.79	17.921
256.16	14.510
256.54	19.118
256.91	15.152
257.28	14.286
257.65	15.603
258.02	19.811
258.39	18.060
258.76	15.878
259.14	13.580
259.51	17.049
259.88	15.549
260.25	20.186
260.62	18.328
260.99	16.914
261.36	17.378
261.73	20.231
262.10	21.111
262.47	15.385
262.85	18.286
263.22	17.192
263.59	15.077
263.96	17.681
264.33	17.344
264.70	17.403
265.07	15.659
265.44	17.313
265.81	15.504
266.18	16.709
266.55	17.892
266.92	20.403
267.29	18.160
267.66	19.259
268.03	18.841
268.40	18.779
268.77	18.313
269.14	16.937
269.51	20.000
269.88	12.615
270.25	16.550
270.62	17.391
270.99	16.667
271.36	17.016
271.73	15.919
272.10	17.620
272.47	17.556
272.84	20.000
273.21	17.890
273.58	18.462
273.95	15.132
274.32	20.362
274.69	17.068
275.06	20.450
275.43	14.509
275.80	19.348
276.17	17.155
276.54	19.959
276.91	19.753
277.28	16.227
277.65	17.149
278.02	17.537
278.39	17.485
278.76	19.323
279.13	17.391
279.50	19.682
279.87	19.027
280.23	19.433
280.60	19.881
280.97	14.951
281.34	19.536
281.71	20.000
282.08	19.960
282.45	15.071
282.82	18.217
283.19	18.909
283.56	18.864
283.92	19.435
284.29	18.030
284.66	17.086
285.03	18.895
285.40	18.635
285.77	19.825
286.14	18.773
286.51	17.229
286.87	18.875
287.24	17.918
287.61	17.355
287.98	16.984
288.35	18.017
288.72	16.808
289.08	16.949
289.45	19.192
289.82	15.744
290.19	18.391
290.56	16.364
290.93	16.375
291.29	16.370
291.66	16.586
292.03	18.995
292.40	17.620
292.77	15.994
293.13	19.024
293.50	16.939
293.87	18.252
294.24	16.893
294.60	16.212
294.97	16.995
295.34	17.037
295.71	17.411
296.08	16.283
296.44	14.592
296.81	15.242
297.18	14.789
297.55	17.655
297.91	17.992
298.28	15.890
298.65	16.597
299.02	15.909
299.38	16.310
299.75	15.489
300.12	16.410
300.48	15.857
300.85	16.121
301.22	16.300
301.59	15.995
301.95	18.388
302.32	14.081
302.69	15.545
303.05	15.140
303.42	15.625
303.79	16.627
304.15	15.166
304.52	16.919
304.89	16.175
305.25	16.728
305.62	15.864
305.99	16.608
306.35	16.648
306.72	14.806
307.09	16.459
307.45	16.118
307.82	13.631
308.19	15.324
308.55	15.686
308.92	14.608
309.29	15.027
309.65	14.952
310.02	15.011
310.38	14.486
310.75	15.061
311.12	14.876
311.48	14.509
311.85	15.242
312.22	15.448
312.58	16.378
312.95	14.985
313.31	14.685
313.68	15.879
314.05	15.430
314.41	14.185
314.78	14.785
315.14	14.906
315.51	15.805
315.87	16.070
316.24	16.229
316.61	16.507
316.97	16.418
317.34	15.800
317.70	15.492
318.07	15.951
318.43	13.764
318.80	16.244
319.16	15.854
319.53	15.414
319.89	14.864
320.26	14.902
320.62	13.462
320.99	15.622
321.35	14.089
321.72	15.353
322.08	16.123
322.45	15.743
322.81	16.138
323.18	15.466
323.54	15.342
323.91	16.682
324.27	15.779
324.64	15.996
325.00	15.707
325.37	15.385
325.73	16.798
326.10	15.678
326.46	16.025
326.83	16.170
327.19	16.847
327.56	18.825
327.92	16.992
328.29	16.883
328.65	15.182
329.01	17.580
329.38	18.198
329.74	18.040
330.11	17.679
330.47	16.621
330.84	19.248
331.20	18.592
331.56	16.682
331.93	18.917
332.29	19.178
332.66	17.910
333.02	19.367
333.38	19.624
333.75	18.967
334.11	18.133
334.48	17.829
334.84	19.773
335.20	19.149
335.57	19.856
335.93	20.501
336.29	19.398
336.66	18.590
337.02	20.901
337.38	18.984
337.75	19.842
338.11	19.678
338.47	20.819
338.84	20.236
339.20	19.859
339.56	20.856
339.93	18.695
340.29	19.486
340.65	20.979
341.02	21.417
341.38	20.472
341.74	19.560
342.11	19.113
342.47	19.227
342.83	20.487
343.20	20.325
343.56	19.020
343.92	20.618
344.28	20.606
344.65	19.059
345.01	19.832
345.37	20.100
345.73	19.313
346.10	18.643
346.46	20.065
346.82	19.086
347.19	20.378
347.55	19.422
347.91	20.079
348.27	19.570
348.63	19.871
349.00	20.843
349.36	18.891
349.72	21.736
350.08	20.690
350.45	19.937
350.81	21.736
351.17	20.096
351.53	19.730
351.89	20.129
352.26	19.535
352.62	21.121
352.98	20.728
353.34	19.984
353.70	20.077
354.07	21.715
354.43	21.028
354.79	19.651
355.15	19.968
355.51	19.844
355.87	20.949
356.24	20.016
356.60	21.837
356.96	21.324
357.32	20.348
357.68	20.153
358.04	20.169
358.40	20.804
358.77	20.634
359.13	21.270
359.49	21.618
359.85	20.579
360.21	20.548
360.57	19.880
360.93	21.111
361.29	21.749
361.66	20.351
362.02	20.784
362.38	20.470
362.74	21.685
363.10	20.086
363.46	22.578
363.82	20.117
364.18	21.997
364.54	21.301
364.90	20.755
365.26	21.184
365.62	21.454
365.98	22.119
366.35	20.986
366.71	21.846
367.07	22.301
367.43	22.649
367.79	21.787
368.15	20.910
368.51	22.517
368.87	23.146
369.23	22.246
369.59	22.569
369.95	21.846
370.31	22.785
370.67	22.054
371.03	21.939
371.39	21.499
371.75	22.389
372.11	22.669
372.47	21.475
372.83	22.809
373.19	22.786
373.55	22.660
373.91	22.048
374.27	22.587
374.63	21.394
374.99	23.505
375.35	22.678
375.71	23.498
376.07	22.793
376.42	21.589
376.78	23.464
377.14	23.458
377.50	22.760
377.86	22.887
378.22	22.550
378.58	22.545
378.94	22.565
379.30	23.949
379.66	23.740
380.02	23.529
380.38	23.202
380.74	23.564
381.09	23.492
381.45	24.165
381.81	22.928
382.17	23.496
382.53	23.587
382.89	24.402
383.25	23.961
383.61	23.939
383.97	24.189
384.32	24.468
384.68	24.486
385.04	23.973
385.40	24.163
385.76	24.146
386.12	23.860
386.48	24.938
386.83	24.356
387.19	24.806
387.55	24.955
387.91	23.889
388.27	24.005
388.62	25.000
388.98	25.015
389.34	24.357
389.70	24.970
390.06	23.990
390.42	25.256
390.77	25.047
391.13	25.466
391.49	25.016
391.85	25.062
392.20	24.272
392.56	25.046
392.92	24.415
393.28	25.144
393.64	24.654
393.99	24.677
394.35	25.547
394.71	25.757
395.07	25.926
395.42	24.672
395.78	25.267
396.14	26.168
396.50	24.771
396.85	25.478
397.21	25.152
397.57	25.532
397.92	25.293
398.28	25.222
398.64	25.461
399.00	26.067
399.35	25.366
399.71	26.190
400.07	25.791
400.42	25.852
400.78	25.164
401.14	24.251
401.49	25.236
401.85	24.710
402.21	25.924
402.57	25.485
402.92	26.180
403.28	25.368
403.63	25.404
403.99	25.420
404.35	24.517
404.70	25.336
405.06	25.663
405.42	25.646
405.77	24.604
406.13	25.270
406.49	25.764
406.84	24.595
407.20	25.559
407.55	25.839
407.91	25.130
408.27	25.245
408.62	25.075
408.98	25.288
409.34	24.863
409.69	24.890
410.05	24.864
410.40	24.831
410.76	26.260
411.11	24.626
411.47	25.703
411.83	26.161
412.18	25.124
412.54	25.015
412.89	26.185
413.25	25.561
413.60	24.848
413.96	24.892
414.31	26.300
414.67	25.079
415.03	26.391
415.38	26.090
415.74	25.644
416.09	26.790
416.45	24.802
416.80	25.943
417.16	25.116
417.51	26.658
417.87	26.084
418.22	25.348
418.58	25.738
418.93	26.671
419.29	26.851
419.64	25.251
420.00	26.428
420.35	26.138
420.71	26.170
421.06	26.213
421.42	26.171
421.77	26.075
422.12	25.909
422.48	26.082
422.83	26.595
423.19	26.281
423.54	26.686
423.90	26.258
424.25	25.848
424.61	26.538
424.96	27.150
425.31	27.054
425.67	25.960
426.02	25.990
426.38	26.860
426.73	26.008
427.09	27.451
427.44	26.534
427.79	26.686
428.15	26.212
428.50	26.452
428.85	27.098
429.21	26.453
429.56	26.510
429.92	26.653
430.27	26.520
430.62	27.220
430.98	26.085
431.33	26.894
431.68	26.917
432.04	27.532
432.39	27.066
432.74	26.679
433.10	27.406
433.45	26.540
433.80	26.540
434.16	27.297
434.51	27.342
434.86	27.827
435.22	27.116
435.57	27.173
435.92	27.198
436.28	26.944
436.63	27.586
436.98	26.804
437.34	27.643
437.69	26.546
438.04	27.113
438.39	27.677
438.75	27.357
439.10	27.818
439.45	27.399
439.81	28.313
440.16	27.882
440.51	28.176
440.86	27.299
441.22	27.197
441.57	27.842
441.92	28.082
442.27	27.435
442.63	28.004
442.98	27.427
443.33	27.787
443.68	27.097
444.03	27.456
444.39	27.215
444.74	27.478
445.09	27.138
445.44	28.700
445.79	27.333
446.15	27.492
446.50	27.001
446.85	27.091
447.20	27.375
447.55	28.066
447.91	28.467
448.26	28.045
448.61	27.731
448.96	27.675
449.31	26.719
449.66	27.762
450.02	28.144
450.37	27.478
450.72	27.006
451.07	28.410
451.42	27.695
451.77	27.828
452.12	27.771
452.47	27.141
452.83	27.665
453.18	27.894
453.53	28.172
453.88	29.007
454.23	28.356
454.58	29.708
454.93	28.275
455.28	28.043
455.63	28.133
455.98	28.434
456.34	27.637
456.69	28.205
457.04	28.580
457.39	27.572
457.74	28.234
458.09	28.364
458.44	29.157
458.79	27.298
459.14	28.694
459.49	28.834
459.84	28.893
460.19	28.103
460.54	28.494
460.89	27.803
461.24	28.840
461.59	28.546
461.94	28.517
462.29	27.397
462.64	28.524
462.99	28.983
463.34	28.967
463.69	28.880
464.04	28.354
464.39	27.658
464.74	27.660
465.09	28.202
465.44	28.539
465.79	28.257
466.14	28.769
466.49	28.497
466.84	28.451
467.19	28.803
467.54	27.911
467.89	29.593
468.24	28.325
468.59	29.169
468.94	28.682
469.29	29.565
469.64	28.369
469.99	28.967
470.34	28.925
470.68	29.288
471.03	29.043
471.38	27.361
471.73	28.112
472.08	29.250
472.43	27.928
472.78	29.133
473.13	28.429
473.48	28.909
473.83	29.032
474.17	28.280
474.52	30.243
474.87	28.788
475.22	29.617
475.57	28.222
475.92	29.644
476.27	28.571
476.61	28.732
476.96	28.787
477.31	28.794
477.66	29.386
478.01	30.362
478.36	28.601
478.70	29.738
479.05	29.638
479.40	29.585
479.75	29.154
480.10	28.968
480.45	28.482
480.79	29.418
481.14	30.206
481.49	28.800
481.84	29.635
482.19	29.694
482.53	29.735
482.88	30.327
483.23	29.577
483.58	30.296
483.92	30.291
484.27	28.977
484.62	29.330
484.97	28.839
485.31	28.480
485.66	27.671
486.01	27.739
486.36	28.745
486.70	29.601
487.05	28.241
487.40	28.953
487.75	28.636
488.09	29.123
488.44	28.992
488.79	29.537
489.13	29.783
489.48	30.220
489.83	29.476
490.17	30.083
490.52	30.435
490.87	29.145
491.22	30.079
491.56	29.954
491.91	30.057
492.26	29.811
492.60	29.829
492.95	29.795
493.30	29.586
493.64	29.760
493.99	30.115
494.34	30.286
494.68	30.056
495.03	29.685
495.37	29.892
495.72	30.157
496.07	29.986
496.41	30.570
496.76	29.817
497.11	30.570
497.45	30.939
497.80	30.765
498.14	29.961
498.49	30.337
498.84	29.515
499.18	29.971
499.53	30.882
499.87	29.681
500.22	30.098
500.56	30.365
500.91	29.704
501.26	30.859
501.60	30.188
501.95	30.725
502.29	30.184
502.64	30.504
502.98	30.187
503.33	30.498
503.67	29.741
504.02	29.503
504.36	31.029
504.71	30.395
505.06	30.255
505.40	30.589
505.75	31.098
506.09	30.283
506.44	30.476
506.78	31.009
507.13	30.536
507.47	31.768
507.82	30.872
508.16	31.295
508.51	30.809
508.85	31.522
509.19	30.822
509.54	31.290
509.88	31.117
510.23	31.080
510.57	31.323
510.92	31.901
511.26	31.313
511.61	30.400
511.95	30.981
512.30	30.951
512.64	30.607
512.98	32.123
513.33	32.400
513.67	31.547
514.02	31.040
514.36	31.579
514.70	32.484
515.05	31.732
515.39	32.007
515.74	32.112
516.08	31.988
516.42	32.521
516.77	31.947
517.11	32.380
517.46	32.476
517.80	32.611
518.14	32.548
518.49	32.098
518.83	32.404
519.17	32.860
519.52	31.984
519.86	33.811
520.20	32.641
520.55	32.431
520.89	32.311
521.23	32.723
521.58	34.420
521.92	32.996
522.26	32.571
522.61	33.460
522.95	32.738
523.29	33.542
523.64	32.730
523.98	32.973
524.32	32.998
524.66	32.919
525.01	33.141
525.35	33.441
525.69	33.572
526.04	34.073
526.38	33.991
526.72	31.928
527.06	33.789
527.41	33.993
527.75	32.871
528.09	34.348
528.43	34.951
528.78	33.606
529.12	35.147
529.46	33.441
529.80	34.151
530.15	32.968
530.49	33.312
530.83	34.971
531.17	33.468
531.51	33.423
531.86	33.838
532.20	34.548
532.54	33.289
532.88	34.256
533.22	33.556
533.57	33.290
533.91	32.522
534.25	32.621
534.59	32.730
534.93	33.292
535.27	33.858
535.62	33.696
535.96	33.613
536.30	32.395
536.64	34.064
536.98	33.969
537.32	33.241
537.66	34.216
538.01	33.540
538.35	34.865
538.69	34.024
539.03	33.988
539.37	33.333
539.71	33.089
540.05	34.407
540.39	34.695
540.73	34.140
541.07	34.699
541.42	32.681
541.76	32.226
542.10	34.099
542.44	33.711
542.78	34.464
543.12	33.876
543.46	33.493
543.80	32.642
544.14	33.109
544.48	34.055
544.82	33.288
545.16	34.004
545.50	33.176
545.84	34.631
546.18	35.090
546.52	33.784
546.86	33.476
547.20	33.896
547.54	33.609
547.88	34.307
548.22	31.782
548.56	32.599
548.90	34.030
549.24	33.847
549.58	33.945
549.92	33.922
550.26	34.610
550.60	33.215
550.94	33.358
551.28	34.086
551.62	34.269
551.96	34.153
552.30	33.798
552.64	33.427
552.98	34.898
553.32	33.911
553.66	34.679
554.00	34.257
554.34	33.357
554.68	33.406
555.02	34.226
555.36	34.795
555.69	34.026
556.03	32.491
556.37	33.570
556.71	33.787
557.05	34.516
557.39	34.595
557.73	34.354
558.07	34.514
558.41	33.732
558.75	33.840
559.08	32.918
559.42	34.609
559.76	33.589
560.10	35.198
560.44	34.465
560.78	32.637
561.12	32.850
561.45	34.521
561.79	33.868
562.13	33.731
562.47	34.104
562.81	33.027
563.15	33.450
563.48	34.278
563.82	34.077
564.16	34.009
564.50	34.610
564.84	33.598
565.17	34.218
565.51	33.116
565.85	34.888
566.19	34.453
566.52	33.007
566.86	33.628
567.20	34.504
567.54	34.318
567.88	32.887
568.21	33.166
568.55	32.927
568.89	31.909
569.23	31.698
569.56	31.610
569.90	32.258
570.24	32.356
570.57	30.756
570.91	30.534
571.25	30.642
571.59	31.502
571.92	30.863
572.26	31.096
572.60	30.158
572.93	30.876
573.27	30.518
573.61	30.341
573.95	30.495
574.28	30.088
574.62	30.757
574.96	29.711
575.29	30.386
575.63	30.688
575.97	30.313
576.30	30.419
576.64	30.313
576.98	29.983
577.31	29.988
577.65	30.306
577.98	29.956
578.32	29.888
578.66	29.803
578.99	29.830
579.33	30.570
579.67	29.850
580.00	29.960
580.34	30.137
580.67	30.449
581.01	29.822
581.35	30.044
581.68	29.351
582.02	29.521
582.35	29.330
582.69	30.449
583.02	29.819
583.36	30.172
583.70	29.928
584.03	30.927
584.37	30.284
584.70	30.849
585.04	30.405
585.37	29.905
585.71	29.753
586.04	29.838
586.38	30.313
586.72	30.073
587.05	30.331
587.39	29.964
587.72	30.157
588.06	30.784
588.39	30.647
588.73	30.809
589.06	30.946
589.40	31.398
589.73	31.339
590.07	30.663
590.40	31.402
590.73	31.307
591.07	31.967
591.40	32.452
591.74	31.538
592.07	31.622
592.41	31.762
592.74	30.592
593.08	31.651
593.41	30.493
593.75	29.443
594.08	30.625
594.41	31.091
594.75	30.578
595.08	30.451
595.42	30.997
595.75	31.128
596.09	31.160
596.42	31.137
596.75	31.479
597.09	31.745
597.42	31.340
597.75	31.267
598.09	31.315
598.42	31.860
598.76	30.731
599.09	29.597
599.42	30.334
599.76	30.880
600.09	31.069
600.42	30.839
600.76	30.621
601.09	30.991
601.42	30.787
601.76	31.464
602.09	30.675
602.42	31.276
602.76	30.287
603.09	31.250
603.42	31.507
603.76	31.033
604.09	31.037
604.42	31.391
604.76	31.269
605.09	31.555
605.42	31.959
605.75	30.918
606.09	30.884
606.42	30.708
606.75	31.602
607.09	31.275
607.42	30.634
607.75	30.993
608.08	31.812
608.42	31.930
608.75	31.121
609.08	30.882
609.41	30.942
609.75	30.961
610.08	32.010
610.41	31.181
610.74	32.108
611.07	31.795
611.41	31.114
611.74	32.596
612.07	32.170
612.40	31.023
612.73	31.395
613.07	32.141
613.40	32.512
613.73	30.736
614.06	31.411
614.39	32.694
614.72	31.564
615.06	31.522
615.39	30.277
615.72	31.559
616.05	31.695
616.38	31.921
616.71	31.592
617.05	32.087
617.38	32.508
617.71	30.958
618.04	32.484
618.37	31.761
618.70	32.986
619.03	32.634
619.36	33.333
619.69	32.376
620.03	31.612
620.36	32.349
620.69	32.950
621.02	32.420
621.35	33.065
621.68	33.852
622.01	34.061
622.34	32.764
622.67	31.875
623.00	33.206
623.33	34.328
623.66	31.758
623.99	32.556
624.32	33.110
624.65	32.892
624.99	33.532
625.32	31.961
625.65	32.401
625.98	33.646
626.31	33.279
626.64	33.473
626.97	33.818
627.30	33.106
627.63	33.247
627.96	33.681
628.29	34.743
628.62	35.435
628.95	33.760
629.28	33.553
629.61	32.287
629.94	32.609
630.26	33.698
630.59	35.578
630.92	33.634
631.25	34.778
631.58	35.026
631.91	34.574
632.24	35.889
632.57	33.778
