SpectraSuite Data File
++++++++++++++++++++++++++++++++++++
Date: Sat May 16 11:44:43 PDT 2015
User: schluterlab
Dark Spectrum Present: Yes
Reference Spectrum Present: Yes
Number of Sampled Component Spectra: 1
Spectrometers: USB2E3373
Integration Time (usec): 3000 (USB2E3373)
Spectra Averaged: 3 (USB2E3373)
Boxcar Smoothing: 0 (USB2E3373)
Correct for Electrical Dark: No (USB2E3373)
Strobe/Lamp Enabled: No (USB2E3373)
Correct for Detector Non-linearity: No (USB2E3373)
Correct for Stray Light: No (USB2E3373)
Number of Pixels in Processed Spectrum: 2048
>>>>>Begin Processed Spectral Data<<<<<
178.53	0.000
178.91	113.333
179.29	666.667
179.67	-900.000
180.04	-53.846
180.42	1300.000
180.80	350.000
181.18	450.000
181.56	-212.500
181.94	1100.000
182.31	525.000
182.69	-30.769
183.07	-933.333
183.45	1500.000
183.83	900.000
184.20	-214.286
184.58	-250.000
184.96	-350.000
185.34	193.750
185.72	-425.000
186.09	316.667
186.47	-237.500
186.85	-87.500
187.23	-87.500
187.61	-275.000
187.98	-337.500
188.36	-187.500
188.74	-237.500
189.12	1600.000
189.49	328.571
189.87	-83.333
190.25	275.000
190.63	-50.000
191.00	-144.444
191.38	520.000
191.76	-26.667
192.14	540.000
192.51	-240.000
192.89	-500.000
193.27	0.000
193.65	-188.889
194.02	-300.000
194.40	600.000
194.78	-40.000
195.15	-1300.000
195.53	-63.636
195.91	-400.000
196.29	200.000
196.66	-566.667
197.04	1600.000
197.42	-250.000
197.79	46.667
198.17	-533.333
198.55	-850.000
198.92	-1600.000
199.30	287.500
199.68	-600.000
200.05	-122.222
200.43	-211.111
200.81	-600.000
201.18	-91.667
201.56	185.714
201.94	-80.000
202.31	9.091
202.69	0.000
203.07	-140.000
203.44	633.333
203.82	-400.000
204.19	-425.000
204.57	-50.000
204.95	-1300.000
205.32	-43.750
205.70	300.000
206.08	-2000.000
206.45	-33.333
206.83	-900.000
207.20	150.000
207.58	-733.333
207.96	-100.000
208.33	-125.000
208.71	-122.222
209.08	170.000
209.46	-285.714
209.84	850.000
210.21	0.000
210.59	-35.000
210.96	1800.000
211.34	-183.333
211.71	-500.000
212.09	400.000
212.46	850.000
212.84	-1900.000
213.22	200.000
213.59	116.667
213.97	-88.889
214.34	130.000
214.72	-160.000
215.09	-266.667
215.47	-216.667
215.84	-150.000
216.22	-80.000
216.59	-66.667
216.97	-300.000
217.34	550.000
217.72	-142.857
218.09	-233.333
218.47	-300.000
218.84	257.143
219.22	-28.571
219.59	0.000
219.97	242.857
220.34	400.000
220.72	237.500
221.09	-30.769
221.47	0.000
221.84	266.667
222.22	-200.000
222.59	400.000
222.97	-225.000
223.34	-950.000
223.72	-800.000
224.09	-135.714
224.46	-375.000
224.84	-14.286
225.21	-142.857
225.59	-72.727
225.96	-37.500
226.34	-57.143
226.71	-122.222
227.08	-50.000
227.46	2200.000
227.83	-214.286
228.21	-137.500
228.58	850.000
228.95	-87.500
229.33	-1300.000
229.70	-360.000
230.08	-1300.000
230.45	83.333
230.82	-66.667
231.20	-600.000
231.57	-700.000
231.95	800.000
232.32	9.524
232.69	-155.556
233.07	-171.429
233.44	-1050.000
233.81	-153.333
234.19	-166.667
234.56	-37.500
234.93	-3.125
235.31	-200.000
235.68	-128.571
236.05	-105.882
236.43	-72.727
236.80	-6.452
237.17	-20.833
237.55	-85.714
237.92	-81.818
238.29	-17.143
238.67	-29.412
239.04	-16.667
239.41	-29.032
239.79	-38.462
240.16	-28.571
240.53	-16.364
240.91	12.821
241.28	-27.273
241.65	10.769
242.02	-9.836
242.40	-31.148
242.77	-9.091
243.14	-27.119
243.51	-2.857
243.89	-6.329
244.26	-16.854
244.63	17.895
245.00	-2.105
245.38	-1.695
245.75	7.080
246.12	0.800
246.49	-0.787
246.87	0.000
247.24	-12.712
247.61	-8.475
247.98	5.634
248.36	-1.399
248.73	0.633
249.10	0.000
249.47	8.772
249.84	3.977
250.22	-2.381
250.59	5.650
250.96	3.665
251.33	6.161
251.70	7.692
252.08	4.739
252.45	2.370
252.82	4.762
253.19	5.957
253.56	8.468
253.94	1.688
254.31	1.717
254.68	8.130
255.05	3.629
255.42	5.952
255.79	2.151
256.16	3.922
256.54	4.044
256.91	6.818
257.28	3.297
257.65	0.355
258.02	11.321
258.39	4.348
258.76	2.703
259.14	1.852
259.51	6.230
259.88	3.963
260.25	6.832
260.62	5.466
260.99	4.748
261.36	6.707
261.73	7.514
262.10	6.944
262.47	4.558
262.85	9.429
263.22	6.017
263.59	3.077
263.96	7.246
264.33	7.046
264.70	5.249
265.07	7.967
265.44	6.718
265.81	4.134
266.18	4.810
266.55	4.412
266.92	6.045
267.29	6.780
267.66	6.173
268.03	8.213
268.40	6.808
268.77	6.747
269.14	6.265
269.51	5.057
269.88	2.982
270.25	3.030
270.62	5.492
270.99	3.378
271.36	2.331
271.73	5.830
272.10	4.805
272.47	4.222
272.84	8.000
273.21	6.193
273.58	5.714
273.95	1.096
274.32	4.751
274.69	5.908
275.06	8.998
275.43	5.580
275.80	7.332
276.17	5.021
276.54	9.369
276.91	6.996
277.28	6.085
277.65	5.579
278.02	4.802
278.39	6.483
278.76	5.976
279.13	5.534
279.50	5.964
279.87	5.074
280.23	5.061
280.60	6.163
280.97	5.243
281.34	4.449
281.71	6.154
282.08	6.250
282.45	5.295
282.82	5.426
283.19	6.364
283.56	8.608
283.92	6.007
284.29	6.134
284.66	7.554
285.03	8.200
285.40	5.351
285.77	7.544
286.14	5.596
286.51	7.105
286.87	5.445
287.24	8.532
287.61	6.777
287.98	6.586
288.35	6.612
288.72	5.263
289.08	5.593
289.45	5.892
289.82	5.709
290.19	8.046
290.56	5.950
290.93	7.154
291.29	5.835
291.66	5.475
292.03	8.477
292.40	6.777
292.77	6.522
293.13	6.504
293.50	7.281
293.87	7.209
294.24	8.296
294.60	5.455
294.97	7.891
295.34	5.926
295.71	8.333
296.08	5.376
296.44	6.009
296.81	8.547
297.18	7.746
297.55	7.627
297.91	8.926
298.28	7.671
298.65	5.858
299.02	8.556
299.38	7.487
299.75	6.522
300.12	8.718
300.48	8.568
300.85	7.208
301.22	8.021
301.59	6.892
301.95	8.438
302.32	7.301
302.69	9.058
303.05	7.692
303.42	8.500
303.79	10.287
304.15	8.294
304.52	8.168
304.89	8.383
305.25	7.204
305.62	7.521
305.99	8.952
306.35	9.323
306.72	8.087
307.09	9.194
307.45	7.264
307.82	7.486
308.19	7.942
308.55	8.170
308.92	7.304
309.29	8.000
309.65	7.635
310.02	7.775
310.38	8.000
310.75	8.402
311.12	8.161
311.48	8.559
311.85	8.960
312.22	8.754
312.58	9.461
312.95	8.461
313.31	9.990
313.68	8.844
314.05	9.001
314.41	7.847
314.78	7.393
315.14	9.082
315.51	7.295
315.87	8.712
316.24	8.844
316.61	9.885
316.97	9.055
317.34	8.478
317.70	8.163
318.07	8.489
318.43	8.427
318.80	10.423
319.16	8.724
319.53	8.835
319.89	8.467
320.26	8.333
320.62	7.981
320.99	8.657
321.35	8.079
321.72	7.881
322.08	9.792
322.45	8.218
322.81	9.126
323.18	9.510
323.54	9.427
323.91	9.546
324.27	8.460
324.64	9.324
325.00	10.733
325.37	10.136
325.73	11.724
326.10	9.212
326.46	9.632
326.83	10.723
327.19	10.842
327.56	11.670
327.92	11.810
328.29	11.602
328.65	10.182
329.01	12.102
329.38	11.954
329.74	12.179
330.11	11.967
330.47	11.807
330.84	12.832
331.20	12.726
331.56	12.033
331.93	13.144
332.29	13.242
332.66	13.521
333.02	12.851
333.38	13.082
333.75	14.426
334.11	13.244
334.48	12.798
334.84	14.261
335.20	13.741
335.57	13.177
335.93	14.324
336.29	13.818
336.66	14.273
337.02	15.135
337.38	14.349
337.75	14.399
338.11	14.580
338.47	14.502
338.84	14.428
339.20	14.675
339.56	15.062
339.93	15.432
340.29	15.235
340.65	14.423
341.02	15.261
341.38	13.985
341.74	15.580
342.11	14.420
342.47	15.365
342.83	14.358
343.20	14.944
343.56	14.286
343.92	14.691
344.28	17.073
344.65	14.686
345.01	14.622
345.37	15.033
345.73	13.993
346.10	14.800
346.46	15.435
346.82	14.916
347.19	14.215
347.55	14.446
347.91	15.197
348.27	14.320
348.63	16.236
349.00	15.752
349.36	14.052
349.72	15.525
350.08	14.996
350.45	15.130
350.81	15.525
351.17	15.434
351.53	15.354
351.89	15.198
352.26	16.744
352.62	16.590
352.98	15.269
353.34	16.307
353.70	14.826
354.07	16.601
354.43	16.601
354.79	15.372
355.15	15.575
355.51	14.219
355.87	16.680
356.24	15.965
356.60	17.164
356.96	16.166
357.32	16.706
357.68	15.709
358.04	15.935
358.40	15.700
358.77	15.920
359.13	16.220
359.49	16.100
359.85	15.625
360.21	16.667
360.57	17.395
360.93	15.111
361.29	16.517
361.66	15.473
362.02	15.976
362.38	16.654
362.74	16.410
363.10	15.352
363.46	17.379
363.82	16.910
364.18	16.643
364.54	17.441
364.90	16.911
365.26	16.976
365.62	16.679
365.98	17.994
366.35	16.761
366.71	17.266
367.07	16.020
367.43	17.982
367.79	16.701
368.15	16.927
368.51	18.042
368.87	17.857
369.23	17.263
369.59	17.639
369.95	17.759
370.31	17.862
370.67	17.354
371.03	17.493
371.39	17.468
371.75	18.026
372.11	17.575
372.47	17.932
372.83	18.081
373.19	18.643
373.55	18.508
373.91	18.777
374.27	17.728
374.63	17.943
374.99	18.220
375.35	19.246
375.71	19.311
376.07	18.344
376.42	18.344
376.78	18.235
377.14	18.237
377.50	18.827
377.86	18.986
378.22	18.593
378.58	18.901
378.94	18.927
379.30	19.805
379.66	20.097
380.02	19.014
380.38	19.577
380.74	19.461
381.09	19.977
381.45	19.690
381.81	19.298
382.17	19.925
382.53	19.210
382.89	20.395
383.25	19.627
383.61	19.811
383.97	19.963
384.32	20.463
384.68	20.798
385.04	20.350
385.40	20.450
385.76	20.671
386.12	21.049
386.48	20.297
386.83	20.552
387.19	20.741
387.55	20.836
387.91	21.162
388.27	20.446
388.62	21.214
388.98	20.472
389.34	20.318
389.70	20.585
390.06	20.696
390.42	20.897
390.77	20.379
391.13	21.304
391.49	21.709
391.85	21.197
392.20	21.420
392.56	21.136
392.92	20.936
393.28	22.044
393.64	22.129
393.99	21.908
394.35	21.594
394.71	21.001
395.07	22.222
395.42	21.454
395.78	20.867
396.14	22.056
396.50	22.141
396.85	22.332
397.21	21.507
397.57	22.553
397.92	22.073
398.28	22.611
398.64	22.308
399.00	23.146
399.35	21.815
399.71	22.648
400.07	22.448
400.42	22.506
400.78	21.825
401.14	22.156
401.49	22.642
401.85	22.331
402.21	22.288
402.57	22.633
402.92	22.593
403.28	21.569
403.63	21.750
403.99	22.436
404.35	22.585
404.70	22.352
405.06	22.203
405.42	22.571
405.77	22.285
406.13	22.147
406.49	22.588
406.84	22.136
407.20	22.850
407.55	22.609
407.91	21.826
408.27	23.100
408.62	22.730
408.98	22.317
409.34	22.486
409.69	23.629
410.05	23.347
410.40	22.931
410.76	22.881
411.11	22.569
411.47	22.890
411.83	23.350
412.18	22.958
412.54	22.758
412.89	23.269
413.25	22.432
413.60	22.357
413.96	22.243
414.31	23.303
414.67	23.111
415.03	23.739
415.38	22.902
415.74	23.776
416.09	23.146
416.45	22.024
416.80	22.692
417.16	22.658
417.51	23.375
417.87	23.366
418.22	22.882
418.58	22.850
418.93	23.605
419.29	23.087
419.64	22.613
420.00	22.722
420.35	22.413
420.71	23.049
421.06	23.787
421.42	22.541
421.77	23.506
422.12	23.167
422.48	23.784
422.83	23.519
423.19	23.441
423.54	22.997
423.90	23.019
424.25	23.133
424.61	23.281
424.96	24.342
425.31	23.253
425.67	23.037
426.02	22.892
426.38	24.259
426.73	23.904
427.09	23.100
427.44	23.864
427.79	23.256
428.15	23.279
428.50	23.460
428.85	23.801
429.21	23.409
429.56	24.167
429.92	23.447
430.27	23.230
430.62	23.877
430.98	23.262
431.33	24.066
431.68	24.558
432.04	23.783
432.39	24.786
432.74	24.580
433.10	23.523
433.45	24.583
433.80	23.740
434.16	24.342
434.51	23.726
434.86	24.956
435.22	24.833
435.57	23.256
435.92	23.505
436.28	24.214
436.63	23.799
436.98	23.654
437.34	24.513
437.69	24.329
438.04	24.163
438.39	24.970
438.75	24.738
439.10	24.375
439.45	24.019
439.81	24.699
440.16	24.361
440.51	24.706
440.86	24.754
441.22	23.936
441.57	25.526
441.92	24.757
442.27	24.297
442.63	24.142
442.98	24.549
443.33	24.547
443.68	23.919
444.03	25.049
444.39	24.816
444.74	25.000
445.09	24.616
445.44	25.549
445.79	23.916
446.15	25.575
446.50	24.115
446.85	25.038
447.20	24.821
447.55	24.917
447.91	24.705
448.26	23.855
448.61	24.675
448.96	24.762
449.31	24.746
449.66	25.587
450.02	24.986
450.37	25.507
450.72	25.763
451.07	25.519
451.42	24.226
451.77	25.733
452.12	25.209
452.47	25.126
452.83	25.684
453.18	25.743
453.53	26.057
453.88	26.675
454.23	25.212
454.58	26.290
454.93	26.322
455.28	25.112
455.63	25.123
455.98	25.241
456.34	24.333
456.69	26.079
457.04	25.323
457.39	25.000
457.74	25.871
458.09	25.348
458.44	25.924
458.79	26.121
459.14	26.412
459.49	25.340
459.84	25.632
460.19	25.119
460.54	25.953
460.89	26.233
461.24	25.440
461.59	26.612
461.94	26.607
462.29	26.802
462.64	26.877
462.99	27.041
463.34	25.591
463.69	26.654
464.04	25.659
464.39	26.344
464.74	25.887
465.09	25.737
465.44	25.381
465.79	26.283
466.14	26.755
466.49	26.425
466.84	27.791
467.19	27.244
467.54	25.253
467.89	26.387
468.24	26.366
468.59	27.420
468.94	26.302
469.29	26.836
469.64	26.887
469.99	28.292
470.34	27.455
470.68	27.616
471.03	26.703
471.38	26.944
471.73	28.182
472.08	27.577
472.43	27.477
472.78	27.067
473.13	26.176
473.48	27.760
473.83	28.102
474.17	27.707
474.52	27.941
474.87	27.622
475.22	27.611
475.57	27.944
475.92	27.970
476.27	27.657
476.61	28.338
476.96	28.675
477.31	27.987
477.66	27.117
478.01	28.309
478.36	27.763
478.70	28.564
479.05	28.772
479.40	27.979
479.75	27.625
480.10	27.927
480.45	27.901
480.79	27.986
481.14	28.249
481.49	28.025
481.84	28.803
482.19	28.552
482.53	28.598
482.88	28.192
483.23	28.122
483.58	29.093
483.92	28.524
484.27	27.293
484.62	27.991
484.97	27.903
485.31	26.592
485.66	25.768
486.01	25.368
486.36	26.298
486.70	27.609
487.05	26.879
487.40	27.537
487.75	27.260
488.09	26.899
488.44	28.214
488.79	27.662
489.13	29.175
489.48	28.385
489.83	28.777
490.17	28.428
490.52	29.891
490.87	29.192
491.22	28.912
491.56	29.167
491.91	29.198
492.26	29.198
492.60	28.497
492.95	28.891
493.30	29.204
493.64	29.196
493.99	29.446
494.34	29.571
494.68	30.197
495.03	29.111
495.37	29.351
495.72	28.487
496.07	29.376
496.41	30.431
496.76	29.589
497.11	29.722
497.45	29.167
497.80	29.665
498.14	29.813
498.49	29.332
498.84	30.194
499.18	30.312
499.53	29.615
499.87	29.778
500.22	29.951
500.56	29.915
500.91	30.985
501.26	31.393
501.60	30.284
501.95	30.386
502.29	30.137
502.64	30.269
502.98	30.283
503.33	30.357
503.67	29.981
504.02	30.372
504.36	30.882
504.71	30.598
505.06	30.205
505.40	31.138
505.75	30.945
506.09	31.446
506.44	30.877
506.78	31.009
507.13	31.308
507.47	32.551
507.82	31.079
508.16	31.710
508.51	31.170
508.85	30.849
509.19	32.025
509.54	32.875
509.88	31.968
510.23	31.918
510.57	32.434
510.92	32.868
511.26	31.898
511.61	32.127
511.95	31.250
512.30	31.886
512.64	32.610
512.98	32.893
513.33	32.015
513.67	33.277
514.02	32.271
514.36	32.964
514.70	32.654
515.05	32.990
515.39	32.987
515.74	33.042
516.08	33.602
516.42	34.164
516.77	34.662
517.11	34.554
517.46	34.868
517.80	35.018
518.14	33.937
518.49	33.831
518.83	33.887
519.17	33.925
519.52	33.835
519.86	34.588
520.20	35.269
520.55	34.831
520.89	34.627
521.23	34.127
521.58	34.734
521.92	35.845
522.26	34.413
522.61	34.728
522.95	34.844
523.29	35.235
523.64	34.416
523.98	34.628
524.32	35.135
524.66	34.783
525.01	34.682
525.35	36.469
525.69	35.979
526.04	36.684
526.38	36.601
526.72	35.504
527.06	35.417
527.41	35.842
527.75	35.050
528.09	35.738
528.43	36.066
528.78	36.181
529.12	36.300
529.46	36.276
529.80	35.119
530.15	35.737
530.49	35.252
530.83	35.363
531.17	36.229
531.51	36.772
531.86	35.681
532.20	35.155
532.54	36.430
532.88	36.891
533.22	36.430
533.57	35.509
533.91	36.205
534.25	35.072
534.59	34.229
534.93	34.661
535.27	35.368
535.62	35.742
535.96	36.005
536.30	35.013
536.64	35.657
536.98	36.935
537.32	35.522
537.66	36.524
538.01	34.983
538.35	35.203
538.69	35.361
539.03	35.884
539.37	35.862
539.71	35.557
540.05	35.915
540.39	36.357
540.73	36.075
541.07	35.861
541.42	35.652
541.76	34.817
542.10	36.327
542.44	35.043
542.78	36.024
543.12	36.864
543.46	34.589
543.80	34.181
544.14	34.520
544.48	36.220
544.82	35.318
545.16	35.010
545.50	35.195
545.84	37.204
546.18	35.576
546.52	36.415
546.86	35.897
547.20	37.131
547.54	35.744
547.88	35.567
548.22	34.666
548.56	35.271
548.90	36.456
549.24	36.370
549.58	35.356
549.92	35.972
550.26	37.066
550.60	35.206
550.94	37.445
551.28	36.117
551.62	36.189
551.96	35.601
552.30	35.679
552.64	36.312
552.98	36.790
553.32	35.281
553.66	37.130
554.00	35.252
554.34	35.668
554.68	36.330
555.02	36.324
555.36	35.586
555.69	35.458
556.03	36.140
556.37	35.633
556.71	35.433
557.05	37.177
557.39	36.451
557.73	36.761
558.07	36.172
558.41	37.098
558.75	36.502
559.08	35.486
559.42	37.519
559.76	36.196
560.10	36.540
560.44	36.055
560.78	36.047
561.12	35.956
561.45	36.027
561.79	36.167
562.13	35.905
562.47	35.364
562.81	34.724
563.15	36.179
563.48	36.144
563.82	34.821
564.16	35.835
564.50	35.618
564.84	35.714
565.17	36.273
565.51	35.919
565.85	36.849
566.19	36.298
566.52	35.616
566.86	34.387
567.20	36.138
567.54	35.440
567.88	34.115
568.21	33.949
568.55	33.881
568.89	33.400
569.23	33.133
569.56	31.274
569.90	32.337
570.24	32.431
570.57	31.564
570.91	31.622
571.25	31.907
571.59	31.689
571.92	31.429
572.26	30.887
572.60	31.337
572.93	30.753
573.27	30.732
573.61	30.284
573.95	30.442
574.28	29.907
574.62	30.427
574.96	30.160
575.29	29.751
575.63	30.502
575.97	29.908
576.30	29.844
576.64	30.705
576.98	29.833
577.31	30.012
577.65	29.434
577.98	29.209
578.32	29.762
578.66	29.980
578.99	30.308
579.33	30.319
579.67	30.307
580.00	30.109
580.34	29.574
580.67	30.154
581.01	29.159
581.35	29.708
581.68	29.523
582.02	29.447
582.35	29.046
582.69	29.825
583.02	29.951
583.36	30.219
583.70	29.647
584.03	30.954
584.37	29.689
584.70	29.606
585.04	29.949
585.37	29.045
585.71	29.753
586.04	29.559
586.38	29.778
586.72	30.524
587.05	30.105
587.39	29.855
587.72	29.891
588.06	30.289
588.39	29.991
588.73	30.054
589.06	30.627
589.40	31.432
589.73	31.409
590.07	30.736
590.40	31.144
590.73	31.867
591.07	31.270
591.40	31.846
591.74	31.668
592.07	31.577
592.41	31.550
592.74	31.091
593.08	30.965
593.41	30.592
593.75	29.641
594.08	30.913
594.41	31.238
594.75	31.144
595.08	30.789
595.42	31.105
595.75	30.834
596.09	30.695
596.42	31.056
596.75	31.048
597.09	31.656
597.42	31.296
597.75	31.355
598.09	31.586
598.42	31.551
598.76	30.274
599.09	30.505
599.42	30.757
599.76	30.804
600.09	30.344
600.42	31.029
600.76	30.358
601.09	30.194
601.42	30.036
601.76	30.374
602.09	31.207
602.42	30.864
602.76	31.450
603.09	31.250
603.42	30.983
603.76	31.392
604.09	30.877
604.42	30.808
604.76	31.662
605.09	31.420
605.42	32.314
605.75	31.479
606.09	30.428
606.42	30.708
606.75	30.915
607.09	31.275
607.42	30.634
607.75	31.302
608.08	31.631
608.42	31.977
608.75	30.654
609.08	31.710
609.41	30.942
609.75	31.204
610.08	31.275
610.41	30.554
610.74	31.915
611.07	32.252
611.41	30.812
611.74	32.339
612.07	33.512
612.40	31.183
612.73	32.041
613.07	31.205
613.40	33.005
613.73	32.153
614.06	31.631
614.39	33.427
614.72	31.676
615.06	31.630
615.39	31.416
615.72	32.645
616.05	31.806
616.38	33.024
616.71	32.432
617.05	32.630
617.38	33.375
617.71	32.064
618.04	32.298
618.37	33.459
618.70	34.029
619.03	32.498
619.36	34.390
619.69	34.458
620.03	33.196
620.36	34.318
620.69	32.950
621.02	34.323
621.35	34.032
621.68	34.836
622.01	35.356
622.34	34.317
622.67	33.281
623.00	34.583
623.33	33.806
623.66	33.530
623.99	33.534
624.32	33.333
624.65	33.113
624.99	34.279
625.32	34.431
625.65	33.411
625.98	34.429
626.31	34.339
626.64	34.728
626.97	34.161
627.30	34.213
627.63	33.420
627.96	34.900
628.29	34.651
628.62	35.817
628.95	37.303
629.28	35.150
629.61	35.819
629.94	35.161
630.26	37.575
630.59	37.990
630.92	37.137
631.25	36.492
631.58	36.296
631.91	35.638
632.24	36.556
632.57	38.333
632.90	37.126
633.23	37.383
633.56	37.076
633.89	38.915
634.22	37.072
634.55	37.981
634.88	37.969
635.20	36.205
635.53	38.041
635.86	37.406
