SpectraSuite Data File
++++++++++++++++++++++++++++++++++++
Date: Sat May 16 11:42:32 PDT 2015
User: schluterlab
Dark Spectrum Present: Yes
Reference Spectrum Present: Yes
Number of Sampled Component Spectra: 1
Spectrometers: USB2E3373
Integration Time (usec): 3000 (USB2E3373)
Spectra Averaged: 3 (USB2E3373)
Boxcar Smoothing: 0 (USB2E3373)
Correct for Electrical Dark: No (USB2E3373)
Strobe/Lamp Enabled: No (USB2E3373)
Correct for Detector Non-linearity: No (USB2E3373)
Correct for Stray Light: No (USB2E3373)
Number of Pixels in Processed Spectrum: 2048
>>>>>Begin Processed Spectral Data<<<<<
178.53	0.000
178.91	193.333
179.29	833.333
179.67	-700.000
180.04	-84.615
180.42	1400.000
180.80	225.000
181.18	375.000
181.56	-87.500
181.94	500.000
182.31	575.000
182.69	0.000
183.07	-500.000
183.45	1400.000
183.83	366.667
184.20	-285.714
184.58	-100.000
184.96	-350.000
185.34	150.000
185.72	-375.000
186.09	366.667
186.47	-162.500
186.85	-125.000
187.23	-75.000
187.61	-275.000
187.98	-162.500
188.36	-200.000
188.74	-212.500
189.12	1800.000
189.49	414.286
189.87	-25.000
190.25	475.000
190.63	-64.286
191.00	-177.778
191.38	440.000
191.76	-66.667
192.14	540.000
192.51	-340.000
192.89	-666.667
193.27	0.000
193.65	-88.889
194.02	-257.143
194.40	633.333
194.78	-110.000
195.15	-600.000
195.53	-200.000
195.91	-200.000
196.29	300.000
196.66	-500.000
197.04	1700.000
197.42	-375.000
197.79	26.667
198.17	-366.667
198.55	-700.000
198.92	-1000.000
199.30	337.500
199.68	-300.000
200.05	-155.556
200.43	-211.111
200.81	-2100.000
201.18	-158.333
201.56	285.714
201.94	-60.000
202.31	22.727
202.69	-30.000
203.07	0.000
203.44	633.333
203.82	-466.667
204.19	-500.000
204.57	-175.000
204.95	-1800.000
205.32	-75.000
205.70	500.000
206.08	-1300.000
206.45	-55.556
206.83	-1000.000
207.20	-450.000
207.58	-766.667
207.96	-600.000
208.33	-62.500
208.71	-255.556
209.08	220.000
209.46	-400.000
209.84	750.000
210.21	0.000
210.59	40.000
210.96	400.000
211.34	-466.667
211.71	-433.333
212.09	125.000
212.46	800.000
212.84	-2000.000
213.22	766.667
213.59	100.000
213.97	-100.000
214.34	130.000
214.72	-130.000
215.09	-166.667
215.47	-150.000
215.84	-90.000
216.22	-190.000
216.59	-40.000
216.97	-625.000
217.34	850.000
217.72	-42.857
218.09	-250.000
218.47	-242.857
218.84	271.429
219.22	-271.429
219.59	0.000
219.97	128.571
220.34	450.000
220.72	312.500
221.09	-46.154
221.47	0.000
221.84	366.667
222.22	-300.000
222.59	1300.000
222.97	-112.500
223.34	-900.000
223.72	-600.000
224.09	-35.714
224.46	-475.000
224.84	-71.429
225.21	-171.429
225.59	-36.364
225.96	-137.500
226.34	-271.429
226.71	-155.556
227.08	-5.000
227.46	2400.000
227.83	-100.000
228.21	-150.000
228.58	300.000
228.95	-43.750
229.33	-2300.000
229.70	-380.000
230.08	-700.000
230.45	41.667
230.82	-200.000
231.20	-1400.000
231.57	-800.000
231.95	1400.000
232.32	-33.333
232.69	-77.778
233.07	-257.143
233.44	-850.000
233.81	-80.000
234.19	-44.444
234.56	-68.750
234.93	-3.125
235.31	-471.429
235.68	-135.714
236.05	-23.529
236.43	-131.818
236.80	-25.806
237.17	-33.333
237.55	-47.619
237.92	-118.182
238.29	-54.286
238.67	-23.529
239.04	-30.556
239.41	-45.161
239.79	-46.154
240.16	-16.667
240.53	-34.545
240.91	-12.821
241.28	-25.455
241.65	-16.923
242.02	-4.918
242.40	-11.475
242.77	-16.667
243.14	-35.593
243.51	-35.714
243.89	-8.861
244.26	-5.618
244.63	-5.263
245.00	-10.526
245.38	0.847
245.75	-8.850
246.12	-14.400
246.49	-3.937
246.87	-1.626
247.24	-9.322
247.61	-12.712
247.98	-7.746
248.36	-16.084
248.73	-12.025
249.10	-12.739
249.47	-1.754
249.84	2.273
250.22	-12.500
250.59	0.565
250.96	-6.806
251.33	-0.474
251.70	-2.885
252.08	-4.265
252.45	-6.161
252.82	-8.095
253.19	-3.830
253.56	-4.839
253.94	-6.751
254.31	-5.579
254.68	-5.285
255.05	-8.065
255.42	-2.381
255.79	-5.018
256.16	-4.706
256.54	-6.985
256.91	-5.303
257.28	-2.564
257.65	-0.355
258.02	0.314
258.39	-5.017
258.76	-4.730
259.14	-4.012
259.51	-0.656
259.88	-2.439
260.25	0.621
260.62	-1.929
260.99	-5.935
261.36	-1.829
261.73	1.156
262.10	-0.556
262.47	0.000
262.85	2.571
263.22	-4.871
263.59	-8.923
263.96	-3.768
264.33	-3.523
264.70	-4.696
265.07	-3.846
265.44	0.000
265.81	-1.034
266.18	-3.797
266.55	1.225
266.92	-0.756
267.29	-2.421
267.66	-2.222
268.03	-0.966
268.40	-1.643
268.77	-0.964
269.14	-3.712
269.51	-1.609
269.88	-2.294
270.25	-2.331
270.62	-0.915
270.99	-3.829
271.36	-0.699
271.73	-3.363
272.10	-1.831
272.47	-3.111
272.84	0.444
273.21	0.459
273.58	-1.978
273.95	-2.193
274.32	-2.262
274.69	1.094
275.06	0.204
275.43	-4.688
275.80	0.000
276.17	-0.837
276.54	-1.222
276.91	-0.823
277.28	0.203
277.65	-1.240
278.02	-0.418
278.39	-1.768
278.76	-4.183
279.13	-0.198
279.50	0.000
279.87	-2.748
280.23	-0.202
280.60	-1.590
280.97	-2.524
281.34	-2.128
281.71	-0.577
282.08	-3.024
282.45	-5.906
282.82	-1.938
283.19	-0.727
283.56	0.733
283.92	-0.353
284.29	-0.558
284.66	-1.079
285.03	0.357
285.40	-1.107
285.77	-0.351
286.14	0.542
286.51	-1.599
286.87	-0.544
287.24	1.365
287.61	-0.661
287.98	-2.426
288.35	-1.157
288.72	-1.698
289.08	-2.373
289.45	0.337
289.82	-1.557
290.19	0.821
290.56	-1.983
290.93	-1.113
291.29	-0.162
291.66	0.161
292.03	0.471
292.40	-0.301
292.77	-1.242
293.13	0.000
293.50	0.594
293.87	-0.920
294.24	0.452
294.60	-2.121
294.97	-1.366
295.34	-0.593
295.71	-1.339
296.08	-4.147
296.44	-1.288
296.81	1.709
297.18	-0.986
297.55	-0.565
297.91	1.255
298.28	-0.685
298.65	-2.232
299.02	2.005
299.38	0.401
299.75	-0.136
300.12	2.436
300.48	0.512
300.85	-1.048
301.22	0.259
301.59	0.260
301.95	1.259
302.32	0.000
302.69	0.857
303.05	1.343
303.42	-1.750
303.79	-0.598
304.15	0.711
304.52	0.350
304.89	0.826
305.25	-1.465
305.62	-0.940
305.99	2.002
306.35	1.332
306.72	-0.569
307.09	1.476
307.45	0.681
307.82	0.447
308.19	0.112
308.55	0.109
308.92	0.107
309.29	0.541
309.65	1.485
310.02	1.188
310.38	0.432
310.75	2.561
311.12	2.996
311.48	1.566
311.85	1.236
312.22	2.369
312.58	3.866
312.95	1.937
313.31	2.498
313.68	4.322
314.05	5.341
314.41	2.515
314.78	1.998
315.14	3.060
315.51	3.749
315.87	4.647
316.24	4.568
316.61	5.374
316.97	5.871
317.34	5.491
317.70	4.174
318.07	6.437
318.43	5.805
318.80	7.981
319.16	6.473
319.53	6.109
319.89	6.585
320.26	7.157
320.62	7.404
320.99	8.756
321.35	6.404
321.72	7.062
322.08	8.704
322.45	7.327
322.81	9.990
323.18	10.086
323.54	10.166
323.91	11.492
324.27	11.787
324.64	12.888
325.00	13.438
325.37	14.389
325.73	16.273
326.10	14.260
326.46	16.375
326.83	15.660
327.19	16.931
327.56	18.825
327.92	18.267
328.29	18.961
328.65	18.273
329.01	18.286
329.38	20.339
329.74	21.703
330.11	22.121
330.47	21.708
330.84	21.448
331.20	22.744
331.56	21.513
331.93	22.380
332.29	23.470
332.66	23.178
333.02	22.534
333.38	23.297
333.75	23.598
334.11	23.911
334.48	24.184
334.84	24.759
335.20	24.202
335.57	25.000
335.93	26.141
336.29	24.801
336.66	23.436
337.02	25.766
337.38	24.599
337.75	24.759
338.11	25.671
338.47	25.000
338.84	25.953
339.20	25.132
339.56	25.758
339.93	26.808
340.29	24.092
340.65	24.563
341.02	25.211
341.38	25.274
341.74	24.471
342.11	25.341
342.47	25.236
342.83	23.678
343.20	25.448
343.56	23.347
343.92	25.125
344.28	26.577
344.65	25.000
345.01	25.126
345.37	26.661
345.73	24.304
346.10	23.712
346.46	24.695
346.82	24.860
347.19	25.801
347.55	25.040
347.91	25.906
348.27	25.776
348.63	24.798
349.00	25.457
349.36	24.590
349.72	26.035
350.08	25.020
350.45	25.059
350.81	25.318
351.17	25.563
351.53	24.264
351.89	26.192
352.26	25.349
352.62	26.190
352.98	25.079
353.34	24.700
353.70	24.170
354.07	26.121
354.43	26.561
354.79	25.357
355.15	25.799
355.51	24.375
355.87	24.032
356.24	25.338
356.60	26.591
356.96	26.944
357.32	25.891
357.68	25.211
358.04	25.558
358.40	26.450
358.77	26.352
359.13	26.090
359.49	26.077
359.85	25.305
360.21	26.027
360.57	26.431
360.93	26.000
361.29	27.280
361.66	24.695
362.02	25.592
362.38	26.339
362.74	26.960
363.10	26.399
363.46	27.137
363.82	26.676
364.18	26.556
364.54	27.377
364.90	27.184
365.26	27.175
365.62	27.655
365.98	28.023
366.35	26.901
366.71	26.920
367.07	28.017
367.43	27.728
367.79	27.285
368.15	26.743
368.51	27.972
368.87	27.610
369.23	27.789
369.59	27.222
369.95	26.779
370.31	27.567
370.67	25.380
371.03	27.332
371.39	27.086
371.75	28.255
372.11	27.762
372.47	27.549
372.83	28.025
373.19	28.714
373.55	28.290
373.91	28.450
374.27	27.995
374.63	27.122
374.99	28.581
375.35	27.860
375.71	28.899
376.07	28.953
376.42	27.417
376.78	28.627
377.14	29.492
377.50	29.207
377.86	28.088
378.22	28.769
378.58	29.030
378.94	28.545
379.30	28.580
379.66	29.933
380.02	28.105
380.38	28.640
380.74	29.250
381.09	29.057
381.45	29.833
381.81	29.401
382.17	29.449
382.53	29.119
382.89	29.426
383.25	30.163
383.61	29.068
383.97	30.251
384.32	29.287
384.68	30.048
385.04	29.891
385.40	30.006
385.76	30.732
386.12	29.794
386.48	31.374
386.83	29.939
387.19	30.663
387.55	29.982
387.91	30.350
388.27	29.976
388.62	30.829
388.98	30.588
389.34	30.539
389.70	30.633
390.06	30.889
390.42	31.987
390.77	30.473
391.13	31.677
391.49	31.878
391.85	30.611
392.20	30.279
392.56	30.238
392.92	31.147
393.28	31.171
393.64	31.329
393.99	31.015
394.35	31.813
394.71	30.574
395.07	31.952
395.42	30.036
395.78	31.113
396.14	32.025
396.50	31.560
396.85	31.277
397.21	31.774
397.57	31.185
397.92	32.553
398.28	32.722
398.64	32.897
399.00	31.910
399.35	32.356
399.71	33.159
400.07	32.060
400.42	32.725
400.78	31.902
401.14	32.874
401.49	31.840
401.85	32.642
402.21	32.539
402.57	31.978
402.92	32.914
403.28	33.211
403.63	31.336
403.99	32.567
404.35	32.488
404.70	32.885
405.06	33.160
405.42	32.841
405.77	32.127
406.13	34.015
406.49	33.853
406.84	33.113
407.20	33.274
407.55	33.186
407.91	32.189
408.27	34.007
408.62	32.892
408.98	32.747
409.34	33.882
409.69	32.892
410.05	33.354
410.40	33.599
410.76	33.847
411.11	32.980
411.47	33.760
411.83	33.924
412.18	33.663
412.54	33.191
412.89	32.989
413.25	32.999
413.60	33.536
413.96	34.011
414.31	33.578
414.67	33.270
415.03	33.894
415.38	34.938
415.74	33.892
416.09	33.696
416.45	33.862
416.80	34.200
417.16	32.625
417.51	35.259
417.87	34.887
418.22	35.335
418.58	34.981
418.93	35.009
419.29	34.567
419.64	34.359
420.00	35.966
420.35	35.009
420.71	35.054
421.06	36.391
421.42	34.895
421.77	35.846
422.12	36.150
422.48	35.061
422.83	35.080
423.19	35.189
423.54	35.735
423.90	34.876
424.25	35.124
424.61	36.550
424.96	36.396
425.31	35.718
425.67	36.619
426.02	36.489
426.38	37.326
426.73	37.931
427.09	36.520
427.44	37.045
427.79	36.802
428.15	37.223
428.50	38.182
428.85	36.990
429.21	36.691
429.56	37.760
429.92	37.675
430.27	37.338
430.62	38.036
430.98	37.428
431.33	38.047
431.68	38.713
432.04	39.340
432.39	39.316
432.74	37.770
433.10	38.042
433.45	37.939
433.80	38.018
434.16	38.689
434.51	39.123
434.86	38.957
435.22	38.363
435.57	39.474
435.92	39.156
436.28	39.169
436.63	38.496
436.98	38.603
437.34	39.102
437.69	39.148
438.04	39.875
438.39	39.531
438.75	38.708
439.10	39.423
439.45	38.865
439.81	39.819
440.16	39.637
440.51	40.176
440.86	39.040
441.22	39.856
441.57	40.158
441.92	41.023
442.27	41.017
442.63	39.753
442.98	41.309
443.33	40.747
443.68	40.438
444.03	40.324
444.39	40.822
444.74	43.062
445.09	40.625
445.44	41.137
445.79	41.815
446.15	41.895
446.50	40.229
446.85	40.790
447.20	40.603
447.55	41.547
447.91	41.550
448.26	41.620
448.61	41.596
448.96	42.745
449.31	41.488
449.66	42.702
450.02	41.607
450.37	41.159
450.72	40.395
451.07	42.426
451.42	41.760
451.77	42.490
452.12	42.372
452.47	42.569
452.83	41.817
453.18	42.568
453.53	42.786
453.88	44.079
454.23	41.778
454.58	42.449
454.93	42.003
455.28	43.531
455.63	43.305
455.98	43.795
456.34	41.360
456.69	42.902
457.04	42.717
457.39	42.165
457.74	43.296
458.09	42.807
458.44	43.360
458.79	42.377
459.14	43.925
459.49	42.866
459.84	43.170
460.19	43.317
460.54	42.892
460.89	42.993
461.24	43.048
461.59	43.845
461.94	43.794
462.29	43.597
462.64	44.335
462.99	44.177
463.34	42.741
463.69	43.257
464.04	41.301
464.39	43.369
464.74	42.908
465.09	43.536
465.44	43.711
465.79	43.429
466.14	43.959
466.49	43.063
466.84	42.917
467.19	42.706
467.54	42.911
467.89	43.342
468.24	43.112
468.59	42.473
468.94	43.666
469.29	42.820
469.64	43.464
469.99	44.632
470.34	43.554
470.68	43.895
471.03	44.184
471.38	43.611
471.73	44.406
472.08	43.641
472.43	43.694
472.78	43.467
473.13	42.942
473.48	44.033
473.83	43.424
474.17	43.694
474.52	44.246
474.87	43.590
475.22	41.829
475.57	43.444
475.92	43.898
476.27	43.714
476.61	44.000
476.96	43.712
477.31	43.811
477.66	44.328
478.01	44.571
478.36	43.216
478.70	44.367
479.05	43.862
479.40	43.938
479.75	42.864
480.10	43.750
480.45	42.988
480.79	44.176
481.14	44.205
481.49	43.659
481.84	42.718
482.19	43.033
482.53	43.608
482.88	42.857
483.23	43.333
483.58	43.478
483.92	44.004
484.27	42.136
484.62	43.326
484.97	42.323
485.31	41.856
485.66	40.211
486.01	40.496
486.36	42.284
486.70	43.016
487.05	43.274
487.40	42.842
487.75	42.139
488.09	41.909
488.44	42.050
488.79	42.483
489.13	42.221
489.48	43.434
489.83	42.533
490.17	42.926
490.52	44.384
490.87	43.603
491.22	43.111
491.56	42.963
491.91	44.370
492.26	43.538
492.60	43.245
492.95	43.503
493.30	42.973
493.64	43.912
493.99	43.021
494.34	44.286
494.68	43.165
495.03	42.878
495.37	43.265
495.72	43.173
496.07	43.407
496.41	44.187
496.76	43.699
497.11	43.335
497.45	43.918
497.80	44.622
498.14	42.633
498.49	43.646
498.84	42.184
499.18	43.421
499.53	44.423
499.87	43.388
500.22	43.382
500.56	44.322
500.91	43.054
501.26	42.989
501.60	43.187
501.95	43.043
502.29	42.230
502.64	43.659
502.98	43.603
503.33	42.340
503.67	42.002
504.02	42.926
504.36	43.284
504.71	43.313
505.06	42.886
505.40	43.263
505.75	42.785
506.09	42.619
506.44	44.160
506.78	43.001
507.13	43.563
507.47	43.453
507.82	43.056
508.16	43.731
508.51	42.607
508.85	42.236
509.19	42.072
509.54	43.446
509.88	42.979
510.23	43.344
510.57	42.698
510.92	44.576
511.26	42.850
511.61	43.521
511.95	43.373
512.30	42.826
512.64	42.627
512.98	42.574
513.33	43.108
513.67	41.932
514.02	42.562
514.36	42.438
514.70	43.520
515.05	43.339
515.39	42.503
515.74	42.699
516.08	42.017
516.42	42.606
516.77	43.847
517.11	43.478
517.46	44.079
517.80	44.103
518.14	42.935
518.49	43.096
518.83	42.018
519.17	43.043
519.52	42.047
519.86	42.533
520.20	43.276
520.55	41.415
520.89	42.142
521.23	42.125
521.58	42.947
521.92	43.889
522.26	42.857
522.61	42.395
522.95	42.884
523.29	43.197
523.64	43.785
523.98	42.775
524.32	42.489
524.66	42.360
525.01	43.096
525.35	43.299
525.69	43.201
526.04	42.950
526.38	43.094
526.72	41.699
527.06	43.945
527.41	41.452
527.75	41.716
528.09	41.827
528.43	41.639
528.78	41.771
529.12	43.150
529.46	41.495
529.80	40.865
530.15	42.885
530.49	42.044
530.83	41.912
531.17	41.010
531.51	41.661
531.86	40.948
532.20	40.891
532.54	41.110
532.88	41.502
533.22	41.711
533.57	40.209
533.91	39.825
534.25	40.729
534.59	40.287
534.93	39.764
535.27	41.284
535.62	40.665
535.96	40.207
536.30	40.183
536.64	40.505
536.98	41.455
537.32	40.359
537.66	39.851
538.01	39.519
538.35	40.811
538.69	39.104
539.03	39.336
539.37	40.186
539.71	39.293
540.05	38.725
540.39	41.343
540.73	39.668
541.07	38.934
541.42	39.230
541.76	38.804
542.10	40.311
542.44	38.574
542.78	40.027
543.12	39.443
543.46	38.356
543.80	38.261
544.14	38.617
544.48	39.173
544.82	39.175
545.16	38.162
545.50	37.349
545.84	38.108
546.18	39.182
546.52	38.834
546.86	39.031
547.20	38.256
547.54	37.879
547.88	38.421
548.22	36.959
548.56	36.807
548.90	38.612
549.24	37.772
549.58	38.603
549.92	37.739
550.26	38.439
550.60	37.198
550.94	39.051
551.28	37.472
551.62	37.888
551.96	38.350
552.30	36.725
552.64	37.016
552.98	38.332
553.32	37.229
553.66	37.419
554.00	38.380
554.34	36.751
554.68	37.208
555.02	37.627
555.36	36.377
555.69	36.891
556.03	37.263
556.37	37.055
556.71	36.578
557.05	37.546
557.39	37.491
557.73	37.345
558.07	36.850
558.41	37.023
558.75	37.338
559.08	36.109
559.42	37.289
559.76	37.807
560.10	38.031
560.44	36.416
560.78	36.813
561.12	35.611
561.45	37.123
561.79	35.958
562.13	36.045
562.47	35.294
562.81	35.219
563.15	35.759
563.48	36.213
563.82	36.376
564.16	34.415
564.50	35.753
564.84	35.516
565.17	34.682
565.51	35.332
565.85	36.782
566.19	35.573
566.52	34.247
566.86	35.145
567.20	36.017
567.54	35.204
567.88	34.115
568.21	35.123
568.55	34.517
568.89	33.250
569.23	33.364
569.56	32.745
569.90	32.455
570.24	32.507
570.57	32.091
570.91	31.622
571.25	31.809
571.59	32.095
571.92	31.518
572.26	31.636
572.60	31.461
572.93	31.310
573.27	30.884
573.61	30.370
573.95	31.054
574.28	30.451
574.62	31.164
574.96	30.833
575.29	30.361
575.63	30.422
575.97	29.935
576.30	30.310
576.64	30.601
576.98	29.983
577.31	29.607
577.65	30.552
577.98	30.247
578.32	29.867
578.66	30.334
578.99	30.117
579.33	29.565
579.67	29.166
580.00	29.340
580.34	29.305
580.67	29.493
581.01	28.976
581.35	29.623
581.68	29.122
582.02	29.576
582.35	29.046
582.69	29.604
583.02	29.996
583.36	29.695
583.70	29.493
584.03	29.445
584.37	29.689
584.70	29.104
585.04	28.861
585.37	28.496
585.71	29.342
586.04	29.281
586.38	28.843
586.72	29.961
587.05	29.199
587.39	29.746
587.72	29.015
588.06	29.298
588.39	28.852
588.73	29.179
589.06	29.795
589.40	29.955
589.73	29.816
590.07	29.461
590.40	29.557
590.73	30.188
591.07	29.631
591.40	30.373
591.74	29.713
592.07	29.955
592.41	29.512
592.74	29.669
593.08	29.488
593.41	28.914
593.75	28.816
594.08	29.583
594.41	29.649
594.75	29.709
595.08	29.023
595.42	29.227
595.75	29.217
596.09	29.336
596.42	29.746
596.75	28.935
597.09	29.475
597.42	28.983
597.75	29.717
598.09	29.282
598.42	28.856
598.76	28.488
599.09	28.532
599.42	27.720
599.76	28.728
600.09	28.397
600.42	28.181
600.76	29.266
601.09	28.181
601.42	28.334
601.76	28.894
602.09	27.771
602.42	28.683
602.76	27.669
603.09	28.871
603.42	28.122
603.76	28.440
604.09	28.234
604.42	27.977
604.76	28.696
605.09	28.165
605.42	29.122
605.75	27.943
606.09	27.937
606.42	27.566
606.75	28.081
607.09	28.187
607.42	27.289
607.75	27.770
608.08	29.146
608.42	27.578
608.75	27.196
609.08	28.008
609.41	27.454
609.75	27.938
610.08	27.549
610.41	27.807
610.74	27.901
611.07	28.499
611.41	26.626
611.74	28.946
612.07	28.357
612.40	27.878
612.73	28.002
613.07	28.288
613.40	28.736
613.73	27.357
614.06	27.018
614.39	28.241
614.72	27.989
615.06	28.098
615.39	27.781
615.72	27.268
616.05	27.112
616.38	27.684
616.71	27.688
617.05	28.166
617.38	27.802
617.71	26.904
618.04	28.447
618.37	27.233
618.70	28.162
619.03	28.504
619.36	29.316
619.69	28.212
620.03	28.375
620.36	27.286
620.69	28.500
621.02	29.300
621.35	28.387
621.68	28.443
622.01	28.964
622.34	28.261
622.67	27.266
623.00	28.233
623.33	28.134
623.66	27.622
623.99	28.120
624.32	27.530
624.65	26.932
624.99	27.259
625.32	27.171
625.65	26.807
625.98	27.934
626.31	28.956
626.64	26.695
626.97	27.997
627.30	28.511
627.63	27.547
627.96	28.198
628.29	28.676
628.62	27.507
628.95	28.051
629.28	27.444
629.61	28.263
629.94	28.922
630.26	28.926
630.59	30.151
630.92	28.228
631.25	28.226
631.58	29.206
631.91	28.085
632.24	27.222
632.57	27.889
632.90	29.195
