SpectraSuite Data File
++++++++++++++++++++++++++++++++++++
Date: Sat May 16 11:39:36 PDT 2015
User: schluterlab
Dark Spectrum Present: Yes
Reference Spectrum Present: Yes
Number of Sampled Component Spectra: 1
Spectrometers: USB2E3373
Integration Time (usec): 3000 (USB2E3373)
Spectra Averaged: 3 (USB2E3373)
Boxcar Smoothing: 0 (USB2E3373)
Correct for Electrical Dark: No (USB2E3373)
Strobe/Lamp Enabled: No (USB2E3373)
Correct for Detector Non-linearity: No (USB2E3373)
Correct for Stray Light: No (USB2E3373)
Number of Pixels in Processed Spectrum: 2048
>>>>>Begin Processed Spectral Data<<<<<
178.53	0.000
178.91	126.667
179.29	166.667
179.67	-1300.000
180.04	-38.462
180.42	1300.000
180.80	600.000
181.18	100.000
181.56	-87.500
181.94	500.000
182.31	475.000
182.69	-100.000
183.07	-600.000
183.45	1450.000
183.83	400.000
184.20	-185.714
184.58	-112.500
184.96	-550.000
185.34	162.500
185.72	-600.000
186.09	200.000
186.47	-212.500
186.85	-175.000
187.23	-50.000
187.61	-225.000
187.98	-212.500
188.36	-50.000
188.74	-175.000
189.12	2100.000
189.49	442.857
189.87	-75.000
190.25	200.000
190.63	-85.714
191.00	-166.667
191.38	320.000
191.76	20.000
192.14	500.000
192.51	-220.000
192.89	-433.333
193.27	0.000
193.65	-111.111
194.02	-357.143
194.40	766.667
194.78	-120.000
195.15	-700.000
195.53	-272.727
195.91	-450.000
196.29	200.000
196.66	-766.667
197.04	2300.000
197.42	-150.000
197.79	-33.333
198.17	-433.333
198.55	-300.000
198.92	-900.000
199.30	300.000
199.68	-800.000
200.05	-211.111
200.43	-166.667
200.81	-1500.000
201.18	-100.000
201.56	271.429
201.94	-66.667
202.31	36.364
202.69	-30.000
203.07	-40.000
203.44	533.333
203.82	-233.333
204.19	-250.000
204.57	100.000
204.95	-600.000
205.32	-56.250
205.70	800.000
206.08	-2600.000
206.45	-11.111
206.83	-750.000
207.20	-150.000
207.58	-500.000
207.96	-566.667
208.33	-100.000
208.71	-88.889
209.08	280.000
209.46	-157.143
209.84	950.000
210.21	0.000
210.59	40.000
210.96	600.000
211.34	-516.667
211.71	-200.000
212.09	225.000
212.46	1350.000
212.84	-2800.000
213.22	833.333
213.59	66.667
213.97	-88.889
214.34	150.000
214.72	-140.000
215.09	-600.000
215.47	-316.667
215.84	-10.000
216.22	-140.000
216.59	-73.333
216.97	-400.000
217.34	900.000
217.72	-200.000
218.09	-316.667
218.47	-85.714
218.84	328.571
219.22	-157.143
219.59	0.000
219.97	300.000
220.34	450.000
220.72	150.000
221.09	-84.615
221.47	0.000
221.84	700.000
222.22	-600.000
222.59	500.000
222.97	-162.500
223.34	-1250.000
223.72	-533.333
224.09	-114.286
224.46	-650.000
224.84	-71.429
225.21	-257.143
225.59	-45.455
225.96	-112.500
226.34	-228.571
226.71	-77.778
227.08	-10.000
227.46	1700.000
227.83	-271.429
228.21	-125.000
228.58	900.000
228.95	-37.500
229.33	-1800.000
229.70	-340.000
230.08	-1550.000
230.45	-50.000
230.82	-250.000
231.20	-1700.000
231.57	-350.000
231.95	3000.000
232.32	-19.048
232.69	-166.667
233.07	-214.286
233.44	-1250.000
233.81	-20.000
234.19	-100.000
234.56	-100.000
234.93	-21.875
235.31	-314.286
235.68	-150.000
236.05	-41.176
236.43	-90.909
236.80	-29.032
237.17	-66.667
237.55	-14.286
237.92	-100.000
238.29	-8.571
238.67	-32.353
239.04	-25.000
239.41	-54.839
239.79	-28.205
240.16	-23.810
240.53	-38.182
240.91	-20.513
241.28	-18.182
241.65	-6.154
242.02	-18.033
242.40	-18.033
242.77	-13.636
243.14	-23.729
243.51	-32.857
243.89	-10.127
244.26	-4.494
244.63	1.053
245.00	-3.158
245.38	-5.085
245.75	7.080
246.12	-7.200
246.49	1.575
246.87	-12.195
247.24	-5.085
247.61	-12.712
247.98	0.704
248.36	-9.091
248.73	5.696
249.10	3.822
249.47	2.924
249.84	5.114
250.22	-11.310
250.59	2.260
250.96	1.047
251.33	5.213
251.70	0.962
252.08	0.000
252.45	-0.948
252.82	-0.952
253.19	4.681
253.56	-2.419
253.94	4.641
254.31	0.429
254.68	4.472
255.05	1.613
255.42	9.921
255.79	2.509
256.16	5.490
256.54	3.676
256.91	4.545
257.28	0.000
257.65	3.191
258.02	9.434
258.39	2.341
258.76	-1.014
259.14	1.852
259.51	3.934
259.88	6.098
260.25	6.832
260.62	2.894
260.99	4.451
261.36	4.573
261.73	8.092
262.10	4.722
262.47	6.268
262.85	6.571
263.22	6.304
263.59	4.615
263.96	4.058
264.33	5.149
264.70	2.486
265.07	2.747
265.44	2.067
265.81	3.359
266.18	5.316
266.55	5.147
266.92	6.297
267.29	4.358
267.66	4.444
268.03	5.072
268.40	6.808
268.77	6.747
269.14	6.032
269.51	7.356
269.88	3.211
270.25	3.263
270.62	3.890
270.99	6.081
271.36	3.963
271.73	6.054
272.10	3.432
272.47	5.333
272.84	7.333
273.21	4.358
273.58	6.813
273.95	4.825
274.32	5.204
274.69	7.221
275.06	6.748
275.43	3.795
275.80	6.314
276.17	4.812
276.54	7.739
276.91	5.144
277.28	6.085
277.65	5.579
278.02	7.516
278.39	9.627
278.76	5.578
279.13	5.929
279.50	5.567
279.87	4.228
280.23	6.478
280.60	5.567
280.97	3.689
281.34	5.222
281.71	6.731
282.08	4.234
282.45	4.888
282.82	6.008
283.19	6.182
283.56	7.143
283.92	7.420
284.29	4.833
284.66	4.676
285.03	6.774
285.40	5.720
285.77	6.842
286.14	6.498
286.51	4.440
286.87	5.263
287.24	6.997
287.61	4.793
287.98	5.026
288.35	6.116
288.72	5.093
289.08	3.729
289.45	4.040
289.82	5.536
290.19	6.076
290.56	4.298
290.93	5.087
291.29	4.052
291.66	4.348
292.03	5.965
292.40	5.120
292.77	4.814
293.13	6.504
293.50	5.795
293.87	5.368
294.24	4.977
294.60	2.576
294.97	7.436
295.34	5.481
295.71	4.018
296.08	3.840
296.44	3.433
296.81	4.986
297.18	4.225
297.55	5.791
297.91	6.276
298.28	3.562
298.65	4.463
299.02	5.481
299.38	5.481
299.75	3.533
300.12	4.744
300.48	5.627
300.85	4.325
301.22	5.304
301.59	3.511
301.95	6.171
302.32	4.042
302.69	4.774
303.05	3.785
303.42	4.500
303.79	4.067
304.15	4.858
304.52	5.134
304.89	5.195
305.25	2.320
305.62	4.230
305.99	5.771
306.35	5.327
306.72	2.847
307.09	5.108
307.45	4.767
307.82	4.246
308.19	4.586
308.55	4.031
308.92	3.974
309.29	4.432
309.65	3.499
310.02	4.968
310.38	2.811
310.75	5.225
311.12	4.855
311.48	5.010
311.85	4.016
312.22	3.399
312.58	4.069
312.95	4.179
313.31	3.896
313.68	5.226
314.05	3.462
314.41	3.219
314.78	3.097
315.14	5.726
315.51	5.066
315.87	4.840
316.24	3.984
316.61	4.127
316.97	3.980
317.34	4.143
317.70	3.803
318.07	4.198
318.43	3.745
318.80	5.728
319.16	3.002
319.53	3.759
319.89	3.104
320.26	5.098
320.62	5.096
320.99	3.980
321.35	2.759
321.72	4.401
322.08	3.561
322.45	2.871
322.81	4.035
323.18	4.707
323.54	5.176
323.91	4.171
324.27	4.278
324.64	3.382
325.00	4.276
325.37	4.615
325.73	4.899
326.10	3.189
326.46	4.991
326.83	4.085
327.19	4.087
327.56	4.344
327.92	4.078
328.29	4.935
328.65	2.818
329.01	4.505
329.38	3.747
329.74	4.853
330.11	3.808
330.47	3.906
330.84	4.400
331.20	3.971
331.56	4.011
331.93	3.464
332.29	4.292
332.66	4.126
333.02	3.801
333.38	4.211
333.75	5.254
334.11	3.822
334.48	4.060
334.84	5.074
335.20	3.812
335.57	3.791
335.93	4.745
336.29	3.632
336.66	3.084
337.02	4.595
337.38	2.585
337.75	3.863
338.11	3.131
338.47	3.915
338.84	3.539
339.20	3.603
339.56	4.991
339.93	3.968
340.29	3.277
340.65	4.196
341.02	3.963
341.38	4.044
341.74	4.064
342.11	3.925
342.47	3.433
342.83	3.442
343.20	4.099
343.56	3.102
343.92	4.758
344.28	4.458
344.65	3.300
345.01	3.529
345.37	5.316
345.73	3.519
346.10	3.516
346.46	3.168
346.82	3.288
347.19	3.369
347.55	4.334
347.91	4.016
348.27	3.262
348.63	4.443
349.00	4.694
349.36	2.420
349.72	5.334
350.08	3.609
350.45	3.388
350.81	4.538
351.17	3.457
351.53	2.546
351.89	3.638
352.26	3.488
352.62	4.839
352.98	3.956
353.34	4.077
353.70	4.170
354.07	4.013
354.43	3.241
354.79	2.853
355.15	3.514
355.51	3.125
355.87	3.636
356.24	3.336
356.60	4.674
356.96	4.465
357.32	3.405
357.68	4.061
358.04	3.541
358.40	3.326
358.77	3.478
359.13	3.673
359.49	4.535
359.85	3.659
360.21	5.023
360.57	3.614
360.93	4.593
361.29	2.840
361.66	3.049
362.02	2.959
362.38	3.742
362.74	3.590
363.10	3.659
363.46	4.345
363.82	3.571
364.18	4.848
364.54	4.432
364.90	3.215
365.26	3.424
365.62	3.136
365.98	4.339
366.35	3.662
366.71	3.594
367.07	2.823
367.43	5.010
367.79	3.643
368.15	2.987
368.51	4.545
368.87	3.777
369.23	4.211
369.59	3.819
369.95	3.805
370.31	4.219
370.67	2.675
371.03	4.227
371.39	4.031
371.75	4.006
372.11	3.802
372.47	3.254
372.83	4.312
373.19	3.500
373.55	5.208
373.91	3.912
374.27	3.285
374.63	4.279
374.99	5.216
375.35	4.509
375.71	4.862
376.07	2.943
376.42	3.510
376.78	4.183
377.14	4.203
377.50	4.062
377.86	3.381
378.22	3.643
378.58	4.262
378.94	3.329
379.30	4.692
379.66	4.372
380.02	3.862
380.38	3.988
380.74	3.107
381.09	3.984
381.45	3.938
381.81	3.690
382.17	3.885
382.53	3.404
382.89	3.947
383.25	5.238
383.61	3.420
383.97	4.042
384.32	4.193
384.68	4.716
385.04	4.106
385.40	3.713
385.76	4.024
386.12	4.247
386.48	4.517
386.83	4.172
387.19	4.662
387.55	4.119
387.91	4.327
388.27	3.317
388.62	3.966
388.98	3.513
389.34	3.856
389.70	4.019
390.06	4.475
390.42	3.654
390.77	4.101
391.13	4.286
391.49	4.616
391.85	4.800
392.20	3.095
392.56	3.726
392.92	4.564
393.28	4.822
393.64	3.969
393.99	4.738
394.35	4.197
394.71	3.891
395.07	4.583
395.42	3.754
395.78	3.394
396.14	4.237
396.50	4.587
396.85	4.010
397.21	4.496
397.57	4.255
397.92	4.098
398.28	4.556
398.64	4.462
399.00	4.719
399.35	4.115
399.71	4.762
400.07	4.537
400.42	4.562
400.78	4.114
401.14	4.371
401.49	3.950
401.85	3.905
402.21	4.768
402.57	4.672
402.92	4.279
403.28	3.983
403.63	4.194
403.99	4.537
404.35	3.986
404.70	4.564
405.06	5.190
405.42	3.813
405.77	3.846
406.13	4.202
406.49	4.194
406.84	4.079
407.20	5.065
407.55	4.117
407.91	4.339
408.27	4.841
408.62	4.390
408.98	5.094
409.34	3.839
409.69	4.285
410.05	4.427
410.40	3.985
410.76	4.742
411.11	4.489
411.47	4.220
411.83	5.012
412.18	4.022
412.54	3.966
412.89	4.557
413.25	4.014
413.60	3.038
413.96	4.067
414.31	4.587
414.67	3.556
415.03	4.528
415.38	4.619
415.74	4.832
416.09	4.028
416.45	4.233
416.80	4.616
417.16	3.787
417.51	4.859
417.87	4.207
418.22	4.425
418.58	4.685
418.93	4.905
419.29	5.207
419.64	3.706
420.00	5.103
420.35	3.962
420.71	4.202
421.06	4.852
421.42	4.215
421.77	4.188
422.12	4.701
422.48	4.276
422.83	4.841
423.19	4.399
423.54	4.669
423.90	3.528
424.25	5.090
424.61	4.584
424.96	4.857
425.31	4.975
425.67	4.585
426.02	4.246
426.38	5.263
426.73	4.208
427.09	4.167
427.44	4.943
427.79	3.663
428.15	4.668
428.50	5.161
428.85	4.436
429.21	5.036
429.56	4.531
429.92	5.361
430.27	5.184
430.62	5.172
430.98	4.496
431.33	4.216
431.68	4.879
432.04	4.757
432.39	5.071
432.74	5.096
433.10	4.502
433.45	5.009
433.80	4.367
434.16	4.890
434.51	4.767
434.86	5.214
435.22	5.011
435.57	4.590
435.92	4.865
436.28	4.273
436.63	4.918
436.98	4.009
437.34	5.080
437.69	5.309
438.04	4.935
438.39	5.054
438.75	4.773
439.10	5.053
439.45	4.768
439.81	5.000
440.16	4.656
440.51	5.765
440.86	4.569
441.22	4.754
441.57	4.947
441.92	4.859
442.27	4.654
442.63	4.667
442.98	4.120
443.33	4.613
443.68	4.169
444.03	4.912
444.39	5.091
444.74	5.562
445.09	4.715
445.44	4.671
445.79	4.793
446.15	4.984
446.50	4.518
446.85	4.926
447.20	5.005
447.55	4.917
447.91	5.390
448.26	4.302
448.61	4.810
448.96	5.042
449.31	4.679
449.66	4.579
450.02	3.989
450.37	5.159
450.72	4.463
451.07	4.400
451.42	4.647
451.77	4.907
452.12	4.827
452.47	5.290
452.83	4.426
453.18	5.123
453.53	5.162
453.88	5.502
454.23	4.655
454.58	5.221
454.93	5.479
455.28	4.653
455.63	5.651
455.98	5.663
456.34	4.384
456.69	5.879
457.04	5.409
457.39	5.024
457.74	4.784
458.09	5.742
458.44	5.254
458.79	4.316
459.14	5.419
459.49	5.092
459.84	5.453
460.19	5.012
460.54	4.961
460.89	4.428
461.24	4.554
461.59	6.155
461.94	5.092
462.29	5.956
462.64	5.534
462.99	5.957
463.34	4.524
463.69	5.471
464.04	5.272
464.39	4.659
464.74	5.556
465.09	4.871
465.44	4.738
465.79	5.697
466.14	4.833
466.49	5.181
466.84	5.282
467.19	4.676
467.54	4.684
467.89	4.994
468.24	5.641
468.59	4.809
468.94	4.887
469.29	5.198
469.64	6.132
469.99	5.942
470.34	5.277
470.68	6.395
471.03	5.850
471.38	4.792
471.73	4.825
472.08	4.886
472.43	5.084
472.78	5.333
473.13	4.175
473.48	5.233
473.83	5.831
474.17	5.414
474.52	5.051
474.87	5.944
475.22	5.015
475.57	5.167
475.92	5.616
476.27	5.143
476.61	5.577
476.96	4.528
477.31	5.490
477.66	5.368
478.01	5.673
478.36	5.238
478.70	6.086
479.05	5.300
479.40	5.285
479.75	5.810
480.10	5.754
480.45	4.400
480.79	5.281
481.14	6.121
481.49	5.276
481.84	5.548
482.19	5.939
482.53	5.777
482.88	5.268
483.23	5.681
483.58	6.244
483.92	5.447
484.27	5.583
484.62	5.270
484.97	5.417
485.31	5.280
485.66	5.456
486.01	5.202
486.36	5.624
486.70	5.690
487.05	5.206
487.40	5.743
487.75	5.531
488.09	4.910
488.44	5.176
488.79	5.660
489.13	5.363
489.48	5.873
489.83	5.633
490.17	5.398
490.52	5.978
490.87	5.589
491.22	5.838
491.56	6.157
491.91	6.298
492.26	5.849
492.60	5.661
492.95	5.950
493.30	5.812
493.64	5.830
493.99	5.641
494.34	5.952
494.68	6.367
495.03	6.023
495.37	5.408
495.72	5.894
496.07	6.804
496.41	6.809
496.76	6.027
497.11	6.029
497.45	6.801
497.80	5.953
498.14	6.434
498.49	5.123
498.84	6.117
499.18	6.628
499.53	6.624
499.87	5.502
500.22	5.980
500.56	5.753
500.91	6.059
501.26	6.696
501.60	5.633
501.95	6.570
502.29	5.479
502.64	6.601
502.98	5.271
503.33	6.062
503.67	6.322
504.02	5.698
504.36	6.520
504.71	5.876
505.06	5.292
505.40	6.238
505.75	6.352
506.09	5.865
506.44	5.313
506.78	6.322
507.13	5.767
507.47	5.947
507.82	6.402
508.16	6.736
508.51	6.028
508.85	6.056
509.19	5.756
509.54	6.078
509.88	6.489
510.23	6.132
510.57	6.402
510.92	6.176
511.26	6.220
511.61	6.156
511.95	6.196
512.30	6.267
512.64	5.732
512.98	6.491
513.33	6.425
513.67	6.700
514.02	6.600
514.36	7.091
514.70	6.055
515.05	6.346
515.39	6.978
515.74	6.981
516.08	6.801
516.42	6.516
516.77	7.106
517.11	7.208
517.46	7.177
517.80	7.581
518.14	6.522
518.49	7.233
518.83	5.519
519.17	6.454
519.52	6.767
519.86	7.348
520.20	6.540
520.55	6.400
520.89	6.512
521.23	7.692
521.58	6.708
521.92	7.283
522.26	7.619
522.61	5.957
522.95	6.765
523.29	7.210
523.64	7.245
523.98	6.365
524.32	7.228
524.66	6.584
525.01	7.771
525.35	7.216
525.69	7.612
526.04	7.507
526.38	7.766
526.72	6.641
527.06	7.292
527.41	6.733
527.75	6.469
528.09	7.346
528.43	6.885
528.78	7.161
529.12	7.426
529.46	7.410
529.80	6.908
530.15	8.564
530.49	7.697
530.83	7.728
531.17	7.003
531.51	6.229
531.86	7.176
532.20	6.748
532.54	7.620
532.88	7.049
533.22	7.420
533.57	7.507
533.91	7.241
534.25	6.474
534.59	6.808
534.93	7.156
535.27	7.678
535.62	7.545
535.96	7.175
536.30	7.330
536.64	6.906
536.98	7.203
537.32	6.427
537.66	6.314
538.01	7.354
538.35	7.162
538.69	7.219
539.03	7.515
539.37	6.254
539.71	6.738
540.05	7.402
540.39	7.618
540.73	6.358
541.07	7.582
541.42	6.280
541.76	6.312
542.10	8.305
542.44	7.395
542.78	7.327
543.12	6.993
543.46	6.370
543.80	6.890
544.14	6.246
544.48	7.480
544.82	7.172
545.16	7.847
545.50	6.460
545.84	7.302
546.18	7.836
546.52	7.610
546.86	6.909
547.20	7.806
547.54	6.474
547.88	7.233
548.22	5.701
548.56	6.079
548.90	7.884
549.24	6.517
549.58	6.845
549.92	7.420
550.26	7.731
550.60	7.966
550.94	7.080
551.28	7.223
551.62	6.942
551.96	8.177
552.30	8.153
552.64	7.319
552.98	7.779
553.32	7.215
553.66	7.354
554.00	7.392
554.34	6.570
554.68	6.798
555.02	7.453
555.36	7.764
555.69	6.805
556.03	6.877
556.37	7.326
556.71	6.943
557.05	7.761
557.39	6.385
557.73	7.586
558.07	7.310
558.41	7.479
558.75	7.452
559.08	6.926
559.42	7.963
559.76	7.132
560.10	7.308
560.44	8.020
560.78	6.681
561.12	7.591
561.45	8.699
561.79	7.387
562.13	7.784
562.47	7.003
562.81	6.011
563.15	7.908
563.48	7.256
563.82	7.573
564.16	6.829
564.50	7.124
564.84	6.944
565.17	7.294
565.51	7.040
565.85	7.573
566.19	7.312
566.52	7.175
566.86	6.005
567.20	8.051
567.54	7.974
567.88	7.035
568.21	6.208
568.55	6.363
568.89	6.312
569.23	7.080
569.56	6.389
569.90	6.806
570.24	6.877
570.57	6.538
570.91	6.392
571.25	6.550
571.59	6.338
571.92	6.548
572.26	6.291
572.60	6.143
572.93	5.884
573.27	6.280
573.61	6.051
573.95	6.280
574.28	5.800
574.62	5.999
574.96	6.231
575.29	6.250
575.63	6.212
575.97	6.284
576.30	6.221
576.64	6.266
576.98	6.270
577.31	5.769
577.65	6.263
577.98	6.186
578.32	6.125
578.66	5.815
578.99	6.186
579.33	5.853
579.67	6.011
580.00	5.853
580.34	5.871
580.67	6.031
581.01	5.782
581.35	6.186
581.68	5.725
582.02	6.022
582.35	5.703
582.69	5.715
583.02	6.167
583.36	5.982
583.70	5.479
584.03	6.250
584.37	5.927
584.70	5.921
585.04	6.000
585.37	5.513
585.71	6.096
586.04	6.256
586.38	5.827
586.72	6.116
587.05	6.400
587.39	6.446
587.72	5.973
588.06	5.805
588.39	6.095
588.73	6.337
589.06	6.266
589.40	6.870
589.73	6.339
590.07	6.409
590.40	6.790
590.73	6.198
591.07	6.516
591.40	6.976
591.74	6.473
592.07	6.081
592.41	6.709
592.74	6.457
593.08	7.003
593.41	6.382
593.75	5.935
594.08	6.147
594.41	6.691
594.75	6.531
595.08	6.466
595.42	6.575
595.75	5.990
596.09	6.403
596.42	6.792
596.75	6.296
597.09	7.035
597.42	6.504
597.75	6.554
598.09	6.688
598.42	6.938
598.76	6.105
599.09	6.196
599.42	6.190
599.76	6.644
600.09	6.603
600.42	6.988
600.76	6.215
601.09	6.494
601.42	6.292
601.76	6.231
602.09	6.258
602.42	6.420
602.76	5.858
603.09	6.613
603.42	6.285
603.76	6.302
604.09	6.648
604.42	6.203
604.76	6.803
605.09	7.369
605.42	6.294
605.75	6.210
606.09	6.517
606.42	6.494
606.75	6.526
607.09	6.925
607.42	6.338
607.75	6.490
608.08	6.959
608.42	6.717
608.75	6.355
609.08	6.624
609.41	6.328
609.75	6.826
610.08	7.010
610.41	6.651
610.74	6.867
611.07	6.643
611.41	5.749
611.74	7.147
612.07	6.713
612.40	6.930
612.73	6.516
613.07	6.494
613.40	7.608
613.73	6.866
614.06	6.315
614.39	7.159
614.72	6.145
615.06	7.283
615.39	6.674
615.72	6.790
616.05	6.184
616.38	7.023
616.71	7.207
617.05	7.358
617.38	7.492
617.71	6.695
618.04	6.460
618.37	6.352
618.70	6.845
619.03	7.109
619.36	7.893
619.69	7.753
620.03	7.438
620.36	6.892
620.69	6.461
621.02	6.317
621.35	8.145
621.68	7.213
622.01	7.443
622.34	7.764
622.67	6.641
623.00	7.422
623.33	7.910
623.66	7.238
623.99	7.218
624.32	7.217
624.65	7.211
624.99	7.020
625.32	7.111
625.65	7.459
625.98	7.199
626.31	7.504
626.64	7.197
626.97	6.507
627.30	8.000
627.63	6.822
627.96	7.137
628.29	7.904
628.62	7.545
628.95	7.283
629.28	7.049
629.61	6.869
629.94	8.129
630.26	7.853
630.59	7.538
630.92	8.408
631.25	9.677
631.58	8.360
631.91	5.851
632.24	6.889
632.57	8.444
632.90	6.897
633.23	8.061
633.56	7.251
633.89	7.665
634.22	7.202
634.55	7.812
634.88	8.706
635.20	6.617
635.53	7.379
635.86	6.927
636.19	7.204
636.52	7.527
636.85	8.063
637.18	5.125
637.51	7.807
637.83	6.658
638.16	6.184
638.49	6.345
638.82	8.494
639.15	9.728
639.48	5.707
639.81	10.235
640.13	7.973
640.46	7.692
640.79	8.964
641.12	10.296
641.45	8.321
641.77	6.587
642.10	8.761
642.43	7.891
642.76	7.874
643.09	8.254
643.41	10.159
643.74	9.221
644.07	8.580
644.40	8.428
644.73	9.571
645.05	6.845
645.38	8.278
645.71	9.794
646.04	8.571
646.36	8.028
646.69	9.689
647.02	8.664
647.35	6.137
647.67	7.299
648.00	9.490
648.33	10.287
648.66	6.290
648.98	6.210
649.31	8.923
649.64	7.031
649.96	7.849
650.29	6.393
650.62	8.778
650.94	7.083
651.27	9.185
651.60	6.228
651.92	7.705
652.25	7.012
652.58	5.451
652.90	8.347
653.23	8.871
653.56	7.358
653.88	7.869
654.21	10.235
654.54	9.468
654.86	7.705
655.19	8.596
655.52	6.803
655.84	6.087
656.17	6.623
