SpectraSuite Data File
++++++++++++++++++++++++++++++++++++
Date: Sat May 16 11:17:38 PDT 2015
User: schluterlab
Dark Spectrum Present: Yes
Reference Spectrum Present: Yes
Number of Sampled Component Spectra: 1
Spectrometers: USB2E3373
Integration Time (usec): 3000 (USB2E3373)
Spectra Averaged: 3 (USB2E3373)
Boxcar Smoothing: 0 (USB2E3373)
Correct for Electrical Dark: No (USB2E3373)
Strobe/Lamp Enabled: No (USB2E3373)
Correct for Detector Non-linearity: No (USB2E3373)
Correct for Stray Light: No (USB2E3373)
Number of Pixels in Processed Spectrum: 2048
>>>>>Begin Processed Spectral Data<<<<<
178.53	0.000
178.91	80.000
179.29	400.000
179.67	-700.000
180.04	-53.846
180.42	1300.000
180.80	325.000
181.18	125.000
181.56	37.500
181.94	900.000
182.31	175.000
182.69	0.000
183.07	-66.667
183.45	1000.000
183.83	200.000
184.20	-71.429
184.58	-112.500
184.96	-50.000
185.34	131.250
185.72	-400.000
186.09	216.667
186.47	-175.000
186.85	0.000
187.23	-62.500
187.61	25.000
187.98	-237.500
188.36	-62.500
188.74	-62.500
189.12	900.000
189.49	185.714
189.87	-58.333
190.25	450.000
190.63	-50.000
191.00	-211.111
191.38	60.000
191.76	-40.000
192.14	440.000
192.51	-260.000
192.89	-66.667
193.27	0.000
193.65	-133.333
194.02	-228.571
194.40	233.333
194.78	-60.000
195.15	-500.000
195.53	0.000
195.91	-450.000
196.29	-100.000
196.66	-333.333
197.04	3000.000
197.42	25.000
197.79	86.667
198.17	-333.333
198.55	-650.000
198.92	-1100.000
199.30	50.000
199.68	-900.000
200.05	-122.222
200.43	-11.111
200.81	-1700.000
201.18	-75.000
201.56	228.571
201.94	6.667
202.31	22.727
202.69	40.000
203.07	-110.000
203.44	300.000
203.82	-66.667
204.19	-325.000
204.57	175.000
204.95	-1300.000
205.32	25.000
205.70	1100.000
206.08	-1600.000
206.45	-27.778
206.83	-550.000
207.20	-50.000
207.58	-566.667
207.96	-333.333
208.33	-137.500
208.71	-211.111
209.08	160.000
209.46	-42.857
209.84	500.000
210.21	0.000
210.59	80.000
210.96	300.000
211.34	-216.667
211.71	-33.333
212.09	225.000
212.46	950.000
212.84	-2500.000
213.22	433.333
213.59	100.000
213.97	-44.444
214.34	150.000
214.72	-10.000
215.09	33.333
215.47	-233.333
215.84	10.000
216.22	0.000
216.59	0.000
216.97	-425.000
217.34	-250.000
217.72	-142.857
218.09	-166.667
218.47	-57.143
218.84	57.143
219.22	-71.429
219.59	0.000
219.97	257.143
220.34	200.000
220.72	212.500
221.09	-15.385
221.47	0.000
221.84	233.333
222.22	0.000
222.59	1900.000
222.97	-125.000
223.34	-450.000
223.72	-233.333
224.09	-50.000
224.46	-300.000
224.84	-57.143
225.21	-142.857
225.59	45.455
225.96	-62.500
226.34	-142.857
226.71	-22.222
227.08	45.000
227.46	1000.000
227.83	-185.714
228.21	-200.000
228.58	550.000
228.95	-18.750
229.33	-500.000
229.70	-120.000
230.08	-950.000
230.45	-41.667
230.82	-216.667
231.20	-1100.000
231.57	-450.000
231.95	1600.000
232.32	-14.286
232.69	0.000
233.07	-157.143
233.44	-450.000
233.81	-40.000
234.19	-144.444
234.56	37.500
234.93	56.250
235.31	-228.571
235.68	-107.143
236.05	-64.706
236.43	-68.182
236.80	-19.355
237.17	-8.333
237.55	-52.381
237.92	-50.000
238.29	-42.857
238.67	8.824
239.04	-13.889
239.41	-35.484
239.79	-28.205
240.16	-9.524
240.53	-21.818
240.91	-5.128
241.28	14.545
241.65	7.692
242.02	13.115
242.40	-4.918
242.77	-7.576
243.14	-15.254
243.51	-12.857
243.89	-7.595
244.26	5.618
244.63	9.474
245.00	-2.105
245.38	1.695
245.75	0.885
246.12	2.400
246.49	-2.362
246.87	-4.065
247.24	-7.627
247.61	-10.169
247.98	1.408
248.36	-0.699
248.73	1.899
249.10	1.911
249.47	5.263
249.84	8.523
250.22	-8.333
250.59	2.825
250.96	6.283
251.33	5.687
251.70	2.404
252.08	3.791
252.45	1.422
252.82	3.810
253.19	3.404
253.56	7.258
253.94	4.641
254.31	6.009
254.68	8.130
255.05	5.242
255.42	9.524
255.79	5.735
256.16	5.490
256.54	8.824
256.91	3.409
257.28	4.396
257.65	4.255
258.02	8.176
258.39	5.351
258.76	3.041
259.14	4.012
259.51	9.836
259.88	5.488
260.25	6.522
260.62	8.039
260.99	1.484
261.36	6.402
261.73	5.202
262.10	11.111
262.47	5.413
262.85	9.714
263.22	8.023
263.59	5.846
263.96	6.667
264.33	6.775
264.70	6.630
265.07	7.418
265.44	5.943
265.81	5.685
266.18	2.278
266.55	4.412
266.92	8.312
267.29	6.053
267.66	5.185
268.03	7.971
268.40	7.277
268.77	5.301
269.14	6.961
269.51	6.667
269.88	5.275
270.25	3.030
270.62	6.636
270.99	7.207
271.36	5.594
271.73	5.157
272.10	5.492
272.47	6.222
272.84	8.444
273.21	8.486
273.58	6.813
273.95	7.456
274.32	7.014
274.69	9.190
275.06	8.180
275.43	3.125
275.80	7.332
276.17	7.322
276.54	8.554
276.91	6.996
277.28	7.708
277.65	7.438
278.02	6.263
278.39	7.073
278.76	8.765
279.13	7.312
279.50	6.362
279.87	4.440
280.23	8.502
280.60	6.958
280.97	5.049
281.34	7.737
281.71	8.269
282.08	5.444
282.45	6.721
282.82	6.202
283.19	7.455
283.56	10.073
283.92	6.007
284.29	5.576
284.66	4.317
285.03	8.734
285.40	7.011
285.77	9.123
286.14	7.040
286.51	7.105
286.87	5.626
287.24	8.191
287.61	8.595
287.98	6.932
288.35	4.628
288.72	5.433
289.08	5.254
289.45	5.051
289.82	4.671
290.19	7.225
290.56	5.620
290.93	6.995
291.29	6.159
291.66	6.763
292.03	7.692
292.40	7.530
292.77	5.901
293.13	7.805
293.50	6.984
293.87	6.288
294.24	8.748
294.60	4.848
294.97	8.194
295.34	5.185
295.71	6.399
296.08	5.684
296.44	6.438
296.81	7.123
297.18	5.775
297.55	6.780
297.91	8.926
298.28	6.849
298.65	7.113
299.02	8.155
299.38	7.353
299.75	5.435
300.12	6.154
300.48	8.312
300.85	6.815
301.22	6.856
301.59	7.282
301.95	9.068
302.32	4.824
302.69	5.998
303.05	6.105
303.42	6.000
303.79	6.100
304.15	7.346
304.52	6.301
304.89	6.257
305.25	5.250
305.62	7.051
305.99	8.716
306.35	6.992
306.72	6.492
307.09	8.286
307.45	6.129
307.82	5.251
308.19	7.271
308.55	6.972
308.92	6.122
309.29	7.568
309.65	7.211
310.02	7.883
310.38	7.027
310.75	8.094
311.12	9.091
311.48	7.620
311.85	8.136
312.22	9.990
312.58	8.749
312.95	7.441
313.31	7.992
313.68	9.447
314.05	8.803
314.41	7.344
314.78	7.892
315.14	10.563
315.51	9.017
315.87	9.584
316.24	10.204
316.61	9.981
316.97	8.856
317.34	9.441
317.70	9.647
318.07	9.888
318.43	9.925
318.80	10.892
319.16	9.287
319.53	10.150
319.89	9.219
320.26	11.078
320.62	9.423
320.99	11.144
321.35	9.458
321.72	11.361
322.08	12.760
322.45	10.297
322.81	11.431
323.18	12.584
323.54	12.569
323.91	12.604
324.27	12.072
324.64	13.254
325.00	14.311
325.37	14.751
325.73	15.748
326.10	14.083
326.46	14.974
326.83	15.745
327.19	15.930
327.56	17.206
327.92	16.907
328.29	18.095
328.65	16.818
329.01	18.286
329.38	18.376
329.74	18.132
330.11	18.858
330.47	19.074
330.84	20.715
331.20	19.765
331.56	20.237
331.93	20.604
332.29	22.648
332.66	22.125
333.02	21.176
333.38	22.401
333.75	23.687
334.11	22.667
334.48	22.683
334.84	23.622
335.20	24.911
335.57	23.375
335.93	24.530
336.29	22.675
336.66	24.670
337.02	24.955
337.38	24.599
337.75	24.583
338.11	24.597
338.47	23.932
338.84	25.318
339.20	23.638
339.56	25.758
339.93	24.868
340.29	24.978
340.65	25.699
341.02	25.885
341.38	25.021
341.74	25.572
342.11	24.829
342.47	24.807
342.83	24.517
343.20	24.851
343.56	24.490
343.92	25.209
344.28	26.156
344.65	23.845
345.01	25.378
345.37	25.748
345.73	24.059
346.10	23.549
346.46	24.614
346.82	24.940
347.19	24.733
347.55	25.522
347.91	25.591
348.27	22.116
348.63	25.444
349.00	25.537
349.36	23.185
349.72	25.000
350.08	25.180
350.45	24.035
350.81	25.159
351.17	24.196
351.53	23.707
351.89	25.384
352.26	24.264
352.62	25.499
352.98	24.367
353.34	24.780
353.70	23.398
354.07	24.862
354.43	25.850
354.79	25.357
355.15	24.681
355.51	24.062
355.87	25.296
356.24	25.258
356.60	26.591
356.96	24.788
357.32	24.703
357.68	24.368
358.04	25.096
358.40	24.517
358.77	24.034
359.13	24.024
359.49	24.792
359.85	25.305
360.21	25.495
360.57	26.054
360.93	25.259
361.29	25.486
361.66	25.457
362.02	25.000
362.38	25.092
362.74	24.835
363.10	24.390
363.46	25.071
363.82	23.980
364.18	25.326
364.54	26.162
364.90	25.856
365.26	25.321
365.62	26.372
365.98	26.174
366.35	25.634
366.71	25.793
367.07	25.970
367.43	25.944
367.79	24.948
368.15	25.320
368.51	26.224
368.87	25.893
369.23	26.456
369.59	25.556
369.95	25.088
370.31	25.668
370.67	24.801
371.03	25.292
371.39	24.399
371.75	26.609
372.11	25.897
372.47	26.247
372.83	26.217
373.19	25.786
373.55	26.108
373.91	25.391
374.27	25.736
374.63	26.984
374.99	26.843
375.35	25.370
375.71	27.684
376.07	26.626
376.42	24.768
376.78	26.993
377.14	27.322
377.50	28.369
377.86	27.113
378.22	27.638
378.58	27.733
378.94	26.942
379.30	27.179
379.66	27.444
380.02	27.273
380.38	27.915
380.74	27.081
381.09	27.534
381.45	27.864
381.81	27.526
382.17	28.008
382.53	27.052
382.89	27.811
383.25	28.116
383.61	27.417
383.97	28.169
384.32	28.223
384.68	28.597
385.04	28.804
385.40	27.572
385.76	28.110
386.12	28.795
386.48	28.342
386.83	28.466
387.19	29.050
387.55	28.649
387.91	29.520
388.27	29.433
388.62	29.327
388.98	29.194
389.34	28.458
389.70	27.893
390.06	28.465
390.42	29.423
390.77	29.274
391.13	29.255
391.49	30.256
391.85	28.803
392.20	28.155
392.56	29.261
392.92	29.207
393.28	29.679
393.64	29.284
393.99	30.646
394.35	29.015
394.71	28.968
395.07	29.441
395.42	28.248
395.78	28.096
396.14	30.156
396.50	29.847
396.85	28.624
397.21	28.615
397.57	29.119
397.92	29.391
398.28	29.500
398.64	29.209
399.00	30.000
399.35	29.087
399.71	30.023
400.07	29.552
400.42	29.805
400.78	28.503
401.14	29.162
401.49	29.245
401.85	30.079
402.21	30.334
402.57	29.551
402.92	29.452
403.28	28.922
403.63	29.299
403.99	28.838
404.35	28.684
404.70	29.257
405.06	28.316
405.42	29.520
405.77	27.658
406.13	28.563
406.49	29.239
406.84	28.614
407.20	29.093
407.55	30.019
407.91	28.109
408.27	29.779
408.62	28.262
408.98	28.805
409.34	28.154
409.69	28.166
410.05	28.502
410.40	28.510
410.76	28.512
411.11	28.803
411.47	28.453
411.83	28.423
412.18	28.218
412.54	28.249
412.89	28.554
413.25	26.919
413.60	27.825
413.96	27.665
414.31	28.930
414.67	27.810
415.03	29.819
415.38	28.953
415.74	28.802
416.09	29.220
416.45	27.976
416.80	29.714
417.16	28.239
417.51	29.219
417.87	28.608
418.22	28.508
418.58	28.434
418.93	30.717
419.29	29.046
419.64	27.889
420.00	30.316
420.35	27.912
420.71	29.952
421.06	29.231
421.42	28.630
421.77	28.755
422.12	28.819
422.48	29.877
422.83	29.442
423.19	29.399
423.54	29.107
423.90	29.034
424.25	28.620
424.61	30.157
424.96	29.491
425.31	30.073
425.67	29.685
426.02	28.801
426.38	30.913
426.73	29.281
427.09	28.983
427.44	30.568
427.79	30.116
428.15	30.162
428.50	30.674
428.85	30.096
429.21	30.216
429.56	30.833
429.92	30.511
430.27	29.661
430.62	30.408
430.98	30.005
431.33	30.523
431.68	31.153
432.04	30.050
432.39	30.085
432.74	31.655
433.10	30.163
433.45	30.052
433.80	29.787
434.16	30.521
434.51	30.356
434.86	31.283
435.22	30.234
435.57	30.783
435.92	30.246
436.28	31.217
436.63	30.582
436.98	30.069
437.34	30.656
437.69	30.747
438.04	31.197
438.39	31.047
438.75	30.850
439.10	30.927
439.45	29.813
439.81	31.687
440.16	30.097
440.51	30.588
440.86	30.538
441.22	30.735
441.57	32.000
441.92	31.304
442.27	31.115
442.63	30.955
442.98	29.628
443.33	30.752
443.68	30.745
444.03	30.550
444.39	31.473
444.74	31.883
445.09	30.976
445.44	31.570
445.79	31.668
446.15	31.325
446.50	30.757
446.85	30.836
447.20	31.869
447.55	31.878
447.91	32.285
448.26	31.564
448.61	30.900
448.96	33.501
449.31	30.947
449.66	31.712
450.02	31.357
450.37	31.362
450.72	31.412
451.07	32.370
451.42	30.979
451.77	31.837
452.12	31.526
452.47	32.053
452.83	32.790
453.18	32.574
453.53	31.903
453.88	32.536
454.23	31.439
454.58	31.945
454.93	32.305
455.28	32.314
455.63	32.125
455.98	33.614
456.34	32.084
456.69	33.208
457.04	32.391
457.39	32.297
457.74	32.487
458.09	32.135
458.44	33.661
458.79	31.614
459.14	32.972
459.49	33.393
459.84	31.759
460.19	32.757
460.54	31.700
460.89	32.119
461.24	31.573
461.59	32.005
461.94	32.591
462.29	32.519
462.64	33.465
462.99	34.404
463.34	32.613
463.69	32.634
464.04	33.216
464.39	31.362
464.74	32.447
465.09	31.690
465.44	32.826
465.79	31.980
466.14	32.969
466.49	31.088
466.84	32.533
467.19	33.915
467.54	32.405
467.89	32.676
468.24	32.126
468.59	33.479
468.94	32.862
469.29	32.229
469.64	33.154
469.99	33.086
470.34	32.999
470.68	32.994
471.03	32.829
471.38	32.361
471.73	32.657
472.08	33.467
472.43	32.175
472.78	33.667
473.13	32.273
473.48	33.121
473.83	32.816
474.17	32.866
474.52	34.783
474.87	33.159
475.22	32.979
475.57	32.667
475.92	33.099
476.27	32.743
476.61	33.127
476.96	32.364
477.31	34.015
477.66	32.097
478.01	32.955
478.36	33.368
478.70	32.888
479.05	33.153
479.40	33.731
479.75	32.467
480.10	33.036
480.45	32.350
480.79	33.119
481.14	33.969
481.49	33.398
481.84	32.732
482.19	33.257
482.53	33.333
482.88	32.795
483.23	33.662
483.58	33.673
483.92	33.779
484.27	32.654
484.62	33.261
484.97	32.424
485.31	32.320
485.66	31.843
486.01	32.206
486.36	31.869
486.70	32.293
487.05	32.498
487.40	32.399
487.75	32.594
488.09	32.520
488.44	32.375
488.79	32.331
489.13	32.522
489.48	33.483
489.83	33.537
490.17	33.566
490.52	34.511
490.87	33.025
491.22	33.863
491.56	32.917
491.91	33.779
492.26	33.632
492.60	33.682
492.95	33.222
493.30	33.492
493.64	33.192
493.99	33.126
494.34	34.524
494.68	34.036
495.03	32.648
495.37	33.727
495.72	33.251
496.07	34.632
496.41	34.507
496.76	33.196
497.11	33.679
497.45	33.956
497.80	34.267
498.14	33.890
498.49	34.355
498.84	33.155
499.18	34.747
499.53	33.415
499.87	34.218
500.22	34.853
500.56	34.167
500.91	33.842
501.26	34.692
501.60	33.077
501.95	34.396
502.29	34.058
502.64	34.559
502.98	33.301
503.33	33.083
503.67	34.100
504.02	33.559
504.36	35.441
504.71	33.688
505.06	34.049
505.40	34.381
505.75	34.096
506.09	34.226
506.44	34.436
506.78	34.320
507.13	33.934
507.47	34.950
507.82	33.505
508.16	34.715
508.51	35.394
508.85	33.799
509.19	33.857
509.54	35.148
509.88	34.362
510.23	34.696
510.57	35.079
510.92	35.016
511.26	32.961
511.61	33.693
511.95	34.644
512.30	34.964
512.64	34.168
512.98	34.873
513.33	34.871
513.67	34.338
514.02	34.564
514.36	34.072
514.70	35.088
515.05	35.277
515.39	35.352
515.74	34.439
516.08	35.562
516.42	34.391
516.77	34.604
517.11	35.297
517.46	36.483
517.80	35.078
518.14	35.085
518.49	34.907
518.83	34.659
519.17	34.695
519.52	34.818
519.86	35.484
520.20	35.636
520.55	36.000
520.89	34.815
521.23	35.531
521.58	35.674
521.92	35.782
522.26	35.238
522.61	34.918
522.95	35.737
523.29	36.803
523.64	35.728
523.98	34.564
524.32	35.261
524.66	34.286
525.01	34.875
525.35	34.021
525.69	34.483
526.04	35.705
526.38	36.983
526.72	34.802
527.06	35.677
527.41	35.578
527.75	34.785
528.09	35.870
528.43	35.279
528.78	34.862
529.12	35.595
529.46	35.438
529.80	35.249
530.15	35.673
530.49	34.605
530.83	36.346
531.17	35.960
531.51	36.035
531.86	35.418
532.20	34.885
532.54	35.896
532.88	34.717
533.22	34.693
533.57	35.836
533.91	34.395
534.25	33.815
534.59	33.791
534.93	33.914
535.27	35.116
535.62	34.974
535.96	34.583
536.30	35.406
536.64	35.060
536.98	35.523
537.32	34.070
537.66	36.117
538.01	34.708
538.35	35.541
538.69	34.158
539.03	35.003
539.37	35.529
539.71	35.023
540.05	34.407
540.39	35.526
540.73	35.314
541.07	36.475
541.42	34.639
541.76	34.419
542.10	35.449
542.44	35.110
542.78	36.024
543.12	35.166
543.46	34.589
543.80	35.385
544.14	35.662
544.48	34.252
544.82	34.574
545.16	34.742
545.50	33.715
545.84	35.118
546.18	35.368
546.52	34.637
546.86	34.544
547.20	35.724
547.54	34.022
547.88	34.506
548.22	33.224
548.56	34.001
548.90	34.973
549.24	33.987
549.58	35.004
549.92	34.134
550.26	34.827
550.60	34.566
550.94	33.942
551.28	34.838
551.62	35.007
551.96	34.515
552.30	34.704
552.64	34.764
552.98	35.039
553.32	35.354
553.66	36.626
554.00	36.461
554.34	34.296
554.68	35.599
555.02	35.601
555.36	34.436
555.69	35.029
556.03	34.947
556.37	35.562
556.71	36.149
557.05	35.698
557.39	34.447
557.73	35.740
558.07	35.795
558.41	35.527
558.75	36.046
559.08	34.008
559.42	35.069
559.76	35.966
560.10	36.092
560.44	36.199
560.78	34.586
561.12	35.749
561.45	35.548
561.79	35.261
562.13	35.133
562.47	35.364
562.81	34.936
563.15	34.710
563.48	34.969
563.82	34.753
564.16	34.077
564.50	34.274
564.84	33.929
565.17	34.350
565.51	34.615
565.85	35.970
566.19	35.046
566.52	34.964
566.86	34.576
567.20	35.956
567.54	34.790
567.88	34.673
568.21	35.067
568.55	34.730
568.89	33.201
569.23	33.272
569.56	32.787
569.90	32.494
570.24	33.070
570.57	32.337
570.91	32.778
571.25	32.490
571.59	32.282
571.92	32.649
572.26	32.624
572.60	32.144
572.93	31.991
573.27	32.378
573.61	31.431
573.95	31.746
574.28	31.668
574.62	32.384
574.96	31.605
575.29	31.784
575.63	32.095
575.97	31.526
576.30	31.570
576.64	31.645
576.98	31.525
577.31	31.800
577.65	31.559
577.98	31.576
578.32	31.509
578.66	31.727
578.99	31.431
579.33	31.299
579.67	31.144
580.00	31.176
580.34	31.825
580.67	31.503
581.01	31.147
581.35	31.517
581.68	31.031
582.02	31.357
582.35	31.350
582.69	31.576
583.02	32.073
583.36	31.649
583.70	31.260
584.03	32.516
584.37	31.827
584.70	31.721
585.04	31.823
585.37	31.217
585.71	32.148
586.04	32.143
586.38	31.088
586.72	31.454
587.05	31.436
587.39	31.276
587.72	31.962
588.06	31.444
588.39	31.586
588.73	32.921
589.06	32.417
589.40	32.360
589.73	32.507
590.07	31.610
590.40	32.768
590.73	33.027
591.07	32.910
591.40	33.146
591.74	33.145
592.07	33.784
592.41	33.121
592.74	32.321
593.08	31.960
593.41	32.796
593.75	32.410
594.08	32.423
594.41	32.865
594.75	32.352
595.08	32.218
595.42	32.623
595.75	32.304
596.09	32.402
596.42	33.306
596.75	32.945
597.09	33.704
597.42	32.693
597.75	33.348
598.09	32.897
598.42	32.523
598.76	32.517
599.09	31.610
599.42	32.680
599.76	32.239
600.09	33.435
600.42	32.397
600.76	33.145
601.09	32.624
601.42	32.054
601.76	32.671
602.09	32.556
602.42	33.128
602.76	32.239
603.09	32.782
603.42	32.232
603.76	32.788
604.09	31.838
604.42	32.140
604.76	32.229
605.09	33.499
605.42	32.447
605.75	32.902
606.09	33.333
606.42	32.174
606.75	32.374
607.09	33.172
607.42	32.306
607.75	33.245
608.08	32.625
608.42	33.113
608.75	32.243
609.08	33.122
609.41	32.735
609.75	33.057
610.08	34.069
610.41	32.916
610.74	33.946
611.07	34.077
611.41	32.173
611.74	33.522
612.07	33.405
612.40	32.836
612.73	32.741
613.07	32.581
613.40	33.881
613.73	33.460
614.06	32.180
614.39	33.991
614.72	32.793
615.06	32.826
615.39	32.664
615.72	33.786
616.05	32.137
616.38	34.649
616.71	32.673
617.05	33.957
617.38	33.932
617.71	34.091
618.04	33.975
618.37	32.956
618.70	34.289
619.03	33.108
619.36	34.179
619.69	34.171
620.03	32.507
620.36	33.896
620.69	33.955
621.02	32.953
621.35	34.194
621.68	34.508
622.01	35.032
622.34	35.637
622.67	34.297
623.00	35.195
623.33	34.478
623.66	33.604
623.99	34.135
624.32	35.268
624.65	34.143
624.99	34.055
625.32	34.880
625.65	36.597
625.98	34.820
626.31	35.726
626.64	34.393
626.97	33.990
627.30	34.213
627.63	34.542
627.96	34.900
628.29	35.386
628.62	34.957
628.95	35.433
629.28	35.338
629.61	35.427
629.94	34.972
630.26	35.586
630.59	36.382
630.92	35.636
631.25	35.585
631.58	35.556
631.91	35.000
632.24	36.889
632.57	36.556
632.90	36.092
633.23	37.266
633.56	36.842
633.89	37.854
634.22	35.773
634.55	33.894
634.88	36.638
635.20	35.206
635.53	37.405
635.86	36.272
636.19	35.775
636.52	37.754
