SpectraSuite Data File
++++++++++++++++++++++++++++++++++++
Date: Sat May 16 11:25:17 PDT 2015
User: schluterlab
Dark Spectrum Present: Yes
Reference Spectrum Present: Yes
Number of Sampled Component Spectra: 1
Spectrometers: USB2E3373
Integration Time (usec): 3000 (USB2E3373)
Spectra Averaged: 3 (USB2E3373)
Boxcar Smoothing: 0 (USB2E3373)
Correct for Electrical Dark: No (USB2E3373)
Strobe/Lamp Enabled: No (USB2E3373)
Correct for Detector Non-linearity: No (USB2E3373)
Correct for Stray Light: No (USB2E3373)
Number of Pixels in Processed Spectrum: 2048
>>>>>Begin Processed Spectral Data<<<<<
178.53	0.000
178.91	60.000
179.29	533.333
179.67	-1100.000
180.04	-38.462
180.42	1300.000
180.80	75.000
181.18	275.000
181.56	-75.000
181.94	600.000
182.31	825.000
182.69	-30.769
183.07	-466.667
183.45	1150.000
183.83	466.667
184.20	-71.429
184.58	-25.000
184.96	-425.000
185.34	118.750
185.72	-450.000
186.09	116.667
186.47	-200.000
186.85	-125.000
187.23	-150.000
187.61	-250.000
187.98	-325.000
188.36	-87.500
188.74	-87.500
189.12	1100.000
189.49	271.429
189.87	25.000
190.25	775.000
190.63	0.000
191.00	-177.778
191.38	320.000
191.76	-20.000
192.14	160.000
192.51	-120.000
192.89	-766.667
193.27	0.000
193.65	-88.889
194.02	-200.000
194.40	566.667
194.78	-120.000
195.15	-1800.000
195.53	-100.000
195.91	-333.333
196.29	500.000
196.66	-733.333
197.04	1900.000
197.42	-125.000
197.79	26.667
198.17	-166.667
198.55	-750.000
198.92	200.000
199.30	200.000
199.68	-700.000
200.05	-33.333
200.43	-177.778
200.81	-2700.000
201.18	-75.000
201.56	200.000
201.94	-73.333
202.31	-54.545
202.69	-60.000
203.07	-40.000
203.44	666.667
203.82	-483.333
204.19	-500.000
204.57	-350.000
204.95	-1600.000
205.32	0.000
205.70	1800.000
206.08	-1500.000
206.45	-27.778
206.83	-1100.000
207.20	-100.000
207.58	-800.000
207.96	-500.000
208.33	-112.500
208.71	-144.444
209.08	240.000
209.46	-257.143
209.84	650.000
210.21	0.000
210.59	-5.000
210.96	1300.000
211.34	-266.667
211.71	-33.333
212.09	275.000
212.46	1300.000
212.84	-1300.000
213.22	833.333
213.59	58.333
213.97	-88.889
214.34	200.000
214.72	-180.000
215.09	-133.333
215.47	-166.667
215.84	-30.000
216.22	-110.000
216.59	0.000
216.97	-675.000
217.34	750.000
217.72	-14.286
218.09	-266.667
218.47	-142.857
218.84	171.429
219.22	-114.286
219.59	0.000
219.97	157.143
220.34	425.000
220.72	300.000
221.09	23.077
221.47	0.000
221.84	533.333
222.22	-550.000
222.59	1200.000
222.97	-225.000
223.34	-1300.000
223.72	-366.667
224.09	-71.429
224.46	-425.000
224.84	-85.714
225.21	-157.143
225.59	-18.182
225.96	-150.000
226.34	-200.000
226.71	-144.444
227.08	15.000
227.46	1500.000
227.83	-114.286
228.21	-275.000
228.58	-50.000
228.95	-62.500
229.33	-1300.000
229.70	-420.000
230.08	-650.000
230.45	-116.667
230.82	-83.333
231.20	-1200.000
231.57	-300.000
231.95	2300.000
232.32	9.524
232.69	-111.111
233.07	-171.429
233.44	-450.000
233.81	-66.667
234.19	-133.333
234.56	-43.750
234.93	6.250
235.31	-328.571
235.68	-128.571
236.05	-41.176
236.43	-68.182
236.80	-25.806
237.17	-4.167
237.55	-9.524
237.92	-45.455
238.29	-37.143
238.67	-8.824
239.04	-22.222
239.41	-3.226
239.79	-35.897
240.16	2.381
240.53	-5.455
240.91	12.821
241.28	18.182
241.65	18.462
242.02	-1.639
242.40	-4.918
242.77	-9.091
243.14	0.000
243.51	1.429
243.89	-2.532
244.26	12.360
244.63	6.316
245.00	6.316
245.38	7.627
245.75	10.619
246.12	8.800
246.49	13.386
246.87	4.065
247.24	5.932
247.61	9.322
247.98	8.451
248.36	8.392
248.73	13.291
249.10	8.280
249.47	12.865
249.84	13.068
250.22	7.738
250.59	15.819
250.96	14.136
251.33	16.114
251.70	13.942
252.08	13.270
252.45	9.953
252.82	12.857
253.19	17.021
253.56	12.500
253.94	15.190
254.31	11.588
254.68	16.260
255.05	15.726
255.42	16.270
255.79	12.545
256.16	15.686
256.54	16.912
256.91	16.667
257.28	12.088
257.65	13.121
258.02	17.296
258.39	10.702
258.76	15.203
259.14	13.580
259.51	14.754
259.88	14.634
260.25	18.634
260.62	14.148
260.99	16.320
261.36	22.561
261.73	18.208
262.10	16.944
262.47	14.815
262.85	16.286
263.22	15.759
263.59	14.154
263.96	14.493
264.33	16.260
264.70	19.337
265.07	13.736
265.44	13.178
265.81	18.605
266.18	14.177
266.55	17.402
266.92	17.632
267.29	15.254
267.66	17.037
268.03	18.116
268.40	18.545
268.77	17.831
269.14	16.937
269.51	17.931
269.88	15.596
270.25	15.618
270.62	17.162
270.99	18.468
271.36	18.182
271.73	16.368
272.10	17.620
272.47	14.667
272.84	17.778
273.21	16.055
273.58	16.703
273.95	19.956
274.32	19.910
274.69	19.037
275.06	18.405
275.43	19.866
275.80	15.479
276.17	17.155
276.54	19.145
276.91	17.078
277.28	17.444
277.65	19.628
278.02	19.207
278.39	18.075
278.76	19.124
279.13	19.368
279.50	16.501
279.87	19.239
280.23	17.814
280.60	18.091
280.97	16.117
281.34	17.021
281.71	16.923
282.08	17.742
282.45	14.257
282.82	18.798
283.19	17.091
283.56	18.132
283.92	17.314
284.29	14.312
284.66	18.885
285.03	19.786
285.40	18.081
285.77	18.947
286.14	17.148
286.51	16.696
286.87	15.971
287.24	17.918
287.61	14.380
287.98	17.331
288.35	16.198
288.72	13.922
289.08	16.102
289.45	15.993
289.82	14.187
290.19	17.570
290.56	15.372
290.93	14.149
291.29	13.938
291.66	17.069
292.03	15.699
292.40	15.512
292.77	16.460
293.13	15.610
293.50	15.156
293.87	13.650
294.24	12.971
294.60	13.788
294.97	14.568
295.34	11.852
295.71	13.988
296.08	13.057
296.44	12.876
296.81	13.675
297.18	14.648
297.55	14.124
297.91	15.621
298.28	13.699
298.65	12.831
299.02	14.706
299.38	12.834
299.75	12.772
300.12	14.744
300.48	15.217
300.85	12.713
301.22	11.772
301.59	12.354
301.95	13.980
302.32	10.430
302.69	12.729
303.05	12.821
303.42	12.750
303.79	13.397
304.15	11.848
304.52	12.485
304.89	13.459
305.25	12.943
305.62	10.693
305.99	14.370
306.35	13.651
306.72	11.731
307.09	13.961
307.45	12.259
307.82	12.067
308.19	12.752
308.55	11.220
308.92	10.526
309.29	12.432
309.65	11.453
310.02	12.743
310.38	12.541
310.75	11.680
311.12	13.533
311.48	12.944
311.85	13.182
312.22	12.770
312.58	13.428
312.95	11.723
313.31	11.489
313.68	11.658
314.05	12.463
314.41	12.575
314.78	10.889
315.14	11.352
315.51	12.665
315.87	12.101
316.24	11.856
316.61	13.916
316.97	11.841
317.34	12.331
317.70	10.761
318.07	13.246
318.43	12.734
318.80	13.709
319.16	11.445
319.53	12.594
319.89	11.007
320.26	11.078
320.62	11.250
320.99	12.637
321.35	10.345
321.72	11.668
322.08	12.067
322.45	11.188
322.81	11.816
323.18	11.912
323.54	12.200
323.91	13.160
324.27	12.072
324.64	12.249
325.00	11.518
325.37	12.760
325.73	13.473
326.10	11.957
326.46	12.259
326.83	11.660
327.19	12.677
327.56	12.095
327.92	12.319
328.29	12.381
328.65	10.455
329.01	12.633
329.38	11.597
329.74	12.912
330.11	12.421
330.47	10.990
330.84	13.932
331.20	12.094
331.56	11.577
331.93	11.279
332.29	12.055
332.66	10.887
333.02	12.489
333.38	12.276
333.75	13.001
334.11	12.089
334.48	11.915
334.84	12.948
335.20	12.677
335.57	11.823
335.93	13.071
336.29	11.780
336.66	12.247
337.02	12.162
337.38	12.032
337.75	11.589
338.11	11.538
338.47	11.477
338.84	12.976
339.20	11.336
339.56	12.389
339.93	11.552
340.29	12.046
340.65	12.150
341.02	12.142
341.38	12.553
341.74	11.770
342.11	11.860
342.47	12.446
342.83	12.007
343.20	12.126
343.56	10.286
343.92	12.688
344.28	12.195
344.65	11.469
345.01	11.597
345.37	11.877
345.73	11.211
346.10	10.466
346.46	10.885
346.82	11.147
347.19	11.175
347.55	12.199
347.91	12.126
348.27	10.979
348.63	11.551
349.00	12.331
349.36	10.695
349.72	11.863
350.08	10.986
350.45	11.111
350.81	11.704
351.17	11.334
351.53	11.456
351.89	11.560
352.26	11.628
352.62	12.366
352.98	11.313
353.34	10.631
353.70	10.579
354.07	11.723
354.43	11.700
354.79	11.173
355.15	10.623
355.51	10.937
355.87	10.988
356.24	10.405
356.60	11.845
356.96	12.625
357.32	10.847
357.68	10.651
358.04	10.701
358.40	11.678
358.77	10.665
359.13	10.712
359.49	10.355
359.85	10.823
360.21	10.578
360.57	11.672
360.93	10.889
361.29	11.061
361.66	9.756
362.02	10.725
362.38	11.005
362.74	12.015
363.10	11.191
363.46	12.179
363.82	11.297
364.18	11.722
364.54	11.866
364.90	10.901
365.26	10.984
365.62	11.262
365.98	11.095
366.35	11.338
366.71	11.276
367.07	10.727
367.43	12.217
367.79	10.859
368.15	10.028
368.51	13.077
368.87	11.676
369.23	10.807
369.59	10.764
369.95	11.487
370.31	11.252
370.67	11.208
371.03	11.079
371.39	11.033
371.75	11.302
372.11	10.904
372.47	10.918
372.83	11.196
373.19	11.000
373.55	11.963
373.91	10.882
374.27	11.225
374.63	10.697
374.99	10.848
375.35	11.036
375.71	11.276
376.07	10.815
376.42	10.265
376.78	11.438
377.14	11.119
377.50	11.025
377.86	10.663
378.22	10.176
378.58	11.180
378.94	10.727
379.30	12.005
379.66	11.354
380.02	10.458
380.38	10.393
380.74	11.313
381.09	11.424
381.45	11.635
381.81	11.071
382.17	10.714
382.53	10.091
382.89	11.184
383.25	11.258
383.61	11.321
383.97	11.758
384.32	11.577
384.68	11.245
385.04	10.930
385.40	10.651
385.76	11.280
386.12	10.931
386.48	11.386
386.83	10.982
387.19	11.178
387.55	11.690
387.91	10.492
388.27	10.977
388.62	11.178
388.98	10.297
389.34	10.955
389.70	10.658
390.06	10.938
390.42	11.090
390.77	11.041
391.13	11.801
391.49	10.792
391.85	10.973
392.20	10.862
392.56	10.690
392.92	11.181
393.28	11.309
393.64	10.884
393.99	11.569
394.35	10.645
394.71	11.489
395.07	11.739
395.42	10.727
395.78	10.622
396.14	11.713
396.50	11.315
396.85	11.906
397.21	10.875
397.57	11.854
397.92	11.300
398.28	11.889
398.64	10.529
399.00	11.629
399.35	11.048
399.71	12.253
400.07	11.761
400.42	11.131
400.78	10.793
401.14	10.838
401.49	10.672
401.85	11.043
402.21	11.085
402.57	11.044
402.92	11.454
403.28	10.784
403.63	11.144
403.99	11.187
404.35	11.232
404.70	11.527
405.06	12.341
405.42	10.517
405.77	11.029
406.13	11.584
406.49	11.324
406.84	11.518
407.20	12.073
407.55	11.273
407.91	10.687
408.27	11.887
408.62	11.004
408.98	11.461
409.34	11.822
409.69	11.090
410.05	11.037
410.40	11.772
410.76	12.033
411.11	11.347
411.47	11.189
411.83	11.858
412.18	10.767
412.54	11.165
412.89	11.482
413.25	11.098
413.60	10.693
413.96	10.659
414.31	11.376
414.67	10.857
415.03	11.514
415.38	11.646
415.74	11.727
416.09	11.061
416.45	10.714
416.80	11.378
417.16	11.030
417.51	12.213
417.87	11.068
418.22	11.568
418.58	11.617
418.93	11.465
419.29	11.292
419.64	10.741
420.00	12.090
420.35	11.295
420.71	11.405
421.06	11.953
421.42	10.773
421.77	11.781
422.12	11.192
422.48	11.598
422.83	11.162
423.19	11.247
423.54	11.239
423.90	10.989
424.25	11.029
424.61	12.666
424.96	12.756
425.31	11.738
425.67	11.175
426.02	11.302
426.38	11.373
426.73	11.222
427.09	11.275
427.44	11.932
427.79	11.047
428.15	12.328
428.50	11.613
428.85	11.871
429.21	11.234
429.56	11.771
429.92	11.573
430.27	11.914
430.62	11.546
430.98	11.030
431.33	11.046
431.68	11.421
432.04	11.752
432.39	11.738
432.74	11.751
433.10	11.649
433.45	10.593
433.80	11.254
434.16	11.553
434.51	11.781
434.86	12.127
435.22	12.138
435.57	12.179
435.92	11.079
436.28	12.760
436.63	10.741
436.98	11.111
437.34	11.577
437.69	11.844
438.04	11.685
438.39	12.274
438.75	11.932
439.10	11.549
439.45	11.527
439.81	12.470
440.16	11.755
440.51	11.882
440.86	12.146
441.22	11.277
441.57	11.158
441.92	12.123
442.27	12.013
442.63	12.232
442.98	11.625
443.33	11.752
443.68	11.204
444.03	11.739
444.39	11.013
444.74	12.225
445.09	11.568
445.44	12.043
445.79	11.780
446.15	12.103
446.50	11.377
446.85	12.211
447.20	11.696
447.55	12.376
447.91	12.353
448.26	11.285
448.61	12.281
448.96	12.381
449.31	11.556
449.66	12.421
450.02	12.410
450.37	11.942
450.72	11.356
451.07	11.565
451.42	11.029
451.77	11.849
452.12	10.965
452.47	11.839
452.83	11.415
453.18	11.575
453.53	11.443
453.88	12.380
454.23	10.822
454.58	12.554
454.93	11.839
455.28	11.026
455.63	11.916
455.98	12.289
456.34	11.817
456.69	11.945
457.04	11.555
457.39	11.543
457.74	11.400
458.09	12.587
458.44	13.048
458.79	12.164
459.14	12.037
459.49	12.315
459.84	12.366
460.19	11.874
460.54	12.099
460.89	11.659
461.24	11.779
461.59	12.603
461.94	12.222
462.29	12.686
462.64	11.331
462.99	12.651
463.34	12.289
463.69	11.578
464.04	12.068
464.39	11.589
464.74	11.820
465.09	11.786
465.44	12.352
465.79	12.803
466.14	12.371
466.49	12.320
466.84	13.145
467.19	12.718
467.54	11.392
467.89	11.776
468.24	13.124
468.59	11.305
468.94	11.897
469.29	12.476
469.64	12.803
469.99	13.302
470.34	11.824
470.68	13.154
471.03	12.182
471.38	11.944
471.73	11.259
472.08	13.119
472.43	11.969
472.78	13.000
473.13	11.862
473.48	12.125
473.83	12.531
474.17	11.656
474.52	13.043
474.87	12.354
475.22	12.330
475.57	11.389
475.92	12.581
476.27	12.171
476.61	12.225
476.96	12.353
477.31	12.540
477.66	11.566
478.01	12.696
478.36	12.310
478.70	12.920
479.05	12.493
479.40	12.746
479.75	12.080
480.10	12.351
480.45	12.669
480.79	13.179
481.14	12.293
481.49	12.488
481.84	12.298
482.19	12.928
482.53	12.642
482.88	12.625
483.23	12.958
483.58	13.321
483.92	12.757
484.27	12.317
484.62	12.484
484.97	12.588
485.31	11.744
485.66	11.715
486.01	11.746
486.36	12.446
486.70	12.716
487.05	12.625
487.40	12.714
487.75	12.437
488.09	12.261
488.44	12.449
488.79	12.947
489.13	12.058
489.48	12.724
489.83	12.358
490.17	12.886
490.52	12.500
490.87	12.286
491.22	12.471
491.56	12.917
491.91	12.309
492.26	13.019
492.60	12.607
492.95	13.470
493.30	12.911
493.64	13.164
493.99	12.906
494.34	13.619
494.68	13.904
495.03	12.524
495.37	12.635
495.72	13.261
496.07	13.233
496.41	13.849
496.76	12.648
497.11	13.236
497.45	13.170
497.80	13.357
498.14	12.868
498.49	12.858
498.84	12.524
499.18	13.548
499.53	13.054
499.87	12.693
500.22	12.794
500.56	13.457
500.91	12.857
501.26	13.392
501.60	12.711
501.95	13.816
502.29	12.990
502.64	13.343
502.98	13.273
503.33	13.064
503.67	12.931
504.02	13.375
504.36	13.431
504.71	12.969
505.06	12.332
505.40	13.473
505.75	13.516
506.09	13.246
506.44	12.932
506.78	13.347
507.13	13.028
507.47	13.772
507.82	12.081
508.16	13.575
508.51	13.035
508.85	12.888
509.19	12.873
509.54	12.791
509.88	13.138
510.23	13.208
510.57	13.228
510.92	13.641
511.26	13.025
511.61	12.797
511.95	13.470
512.30	13.524
512.64	12.465
512.98	13.806
513.33	13.344
513.67	13.680
514.02	13.702
514.36	13.740
514.70	13.130
515.05	14.351
515.39	13.379
515.74	13.264
516.08	14.063
516.42	13.711
516.77	14.038
517.11	13.844
517.46	14.713
517.80	13.418
518.14	12.379
518.49	13.270
518.83	14.481
519.17	14.150
519.52	13.418
519.86	13.859
520.20	14.364
520.55	13.354
520.89	13.338
521.23	14.469
521.58	13.103
521.92	14.313
522.26	13.587
522.61	13.878
522.95	13.082
523.29	13.605
523.64	12.804
523.98	13.749
524.32	13.765
524.66	13.292
525.01	13.616
525.35	14.497
525.69	13.728
526.04	13.185
526.38	13.686
526.72	13.282
527.06	14.062
527.41	13.861
527.75	13.465
528.09	14.229
528.43	13.574
528.78	14.259
529.12	13.188
529.46	14.497
529.80	13.622
530.15	14.681
530.49	13.583
530.83	14.604
531.17	13.468
531.51	13.798
531.86	13.825
532.20	13.765
532.54	14.906
532.88	13.702
533.22	13.904
533.57	14.034
533.91	13.546
534.25	13.953
534.59	14.054
534.93	13.877
535.27	14.286
535.62	14.578
535.96	13.769
536.30	13.351
536.64	13.745
536.98	14.407
537.32	13.269
537.66	14.053
538.01	13.746
538.35	14.054
538.69	13.703
539.03	14.218
539.37	14.305
539.71	13.809
540.05	13.982
540.39	13.850
540.73	14.167
541.07	13.593
541.42	12.762
541.76	13.289
542.10	14.517
542.44	14.257
542.78	13.094
543.12	14.596
543.46	12.466
543.80	12.642
544.14	13.230
544.48	14.436
544.82	13.058
545.16	13.950
545.50	12.921
545.84	13.630
546.18	13.592
546.52	14.651
546.86	13.960
547.20	14.276
547.54	13.636
547.88	13.603
548.22	12.844
548.56	13.026
548.90	14.757
549.24	13.104
549.58	13.409
549.92	14.205
550.26	14.451
550.60	13.514
550.94	14.307
551.28	13.469
551.62	13.442
551.96	13.893
552.30	14.077
552.64	14.004
552.98	14.296
553.32	12.843
553.66	13.699
554.00	13.788
554.34	13.646
554.68	12.865
555.02	14.472
555.36	12.940
555.69	13.181
556.03	13.474
556.37	13.940
556.71	13.099
557.05	13.821
557.39	13.808
557.73	14.077
558.07	14.017
558.41	14.660
558.75	13.764
559.08	12.374
559.42	13.783
559.76	14.494
560.10	14.616
560.44	14.523
560.78	13.570
561.12	14.079
561.45	13.836
561.79	13.310
562.13	13.184
562.47	13.445
562.81	13.932
563.15	13.296
563.48	14.029
563.82	14.402
564.16	13.185
564.50	14.046
564.84	14.286
565.17	12.798
565.51	13.038
565.85	14.537
566.19	13.966
566.52	13.438
566.86	13.401
567.20	14.286
567.54	14.353
567.88	13.177
568.21	14.206
568.55	12.354
568.89	12.177
569.23	12.911
569.56	12.863
569.90	13.257
570.24	13.153
570.57	12.759
570.91	13.295
571.25	13.521
571.59	12.457
571.92	12.560
572.26	12.822
572.60	12.783
572.93	12.666
573.27	12.835
573.61	12.073
573.95	12.986
574.28	12.843
574.62	12.710
574.96	12.512
575.29	12.602
575.63	12.875
575.97	12.540
576.30	12.469
576.64	12.559
576.98	12.814
577.31	12.348
577.65	12.861
577.98	12.373
578.32	12.103
578.66	12.558
578.99	12.730
579.33	12.484
579.67	12.833
580.00	12.227
580.34	12.524
580.67	12.454
581.01	12.340
581.35	12.645
581.68	12.328
582.02	12.484
582.35	12.465
582.69	12.658
583.02	12.710
583.36	12.655
583.70	12.673
584.03	12.931
584.37	12.909
584.70	12.768
585.04	12.430
585.37	12.387
585.71	12.627
586.04	12.513
586.38	12.590
586.72	12.740
587.05	12.858
587.39	12.674
587.72	12.848
588.06	13.287
588.39	12.532
588.73	12.794
589.06	13.523
589.40	13.088
589.73	13.067
590.07	11.799
590.40	13.653
590.73	13.315
591.07	12.787
591.40	12.478
591.74	12.511
592.07	13.108
592.41	12.951
592.74	13.336
593.08	12.461
593.41	12.303
593.75	12.595
594.08	13.048
594.41	13.272
594.75	13.137
595.08	12.932
595.42	12.934
595.75	12.679
596.09	12.495
596.42	13.584
596.75	12.678
597.09	13.268
597.42	12.702
597.75	12.888
598.09	12.291
598.42	12.992
598.76	12.168
599.09	12.628
599.42	12.534
599.76	12.835
600.09	12.939
600.42	13.065
600.76	12.655
601.09	12.723
601.42	12.663
601.76	13.435
602.09	12.434
602.42	12.840
602.76	12.838
603.09	12.419
603.42	12.530
603.76	13.243
604.09	12.175
604.42	13.072
604.76	13.127
605.09	13.020
605.42	13.032
605.75	12.764
606.09	13.076
606.42	12.317
606.75	13.096
607.09	12.748
607.42	12.808
607.75	13.289
608.08	13.421
608.42	13.292
608.75	12.477
609.08	13.346
609.41	12.706
609.75	12.092
610.08	13.235
610.41	12.482
610.74	13.588
611.07	12.982
611.41	12.103
611.74	14.036
612.07	14.017
612.40	13.060
612.73	12.978
613.07	12.823
613.40	13.848
613.73	12.970
614.06	13.234
614.39	12.683
614.72	12.626
615.06	12.826
615.39	12.968
615.72	13.145
616.05	12.811
616.38	12.885
616.71	13.273
617.05	14.053
617.38	12.817
617.71	12.531
618.04	13.478
618.37	12.893
618.70	12.647
619.03	13.947
619.36	14.235
619.69	13.137
620.03	13.430
620.36	13.572
620.69	12.563
621.02	12.861
621.35	13.306
621.68	12.869
622.01	13.188
622.34	14.363
622.67	12.969
623.00	13.160
623.33	13.060
623.66	13.146
623.99	12.932
624.32	13.170
624.65	13.319
624.99	13.816
625.32	12.874
625.65	13.209
625.98	12.207
626.31	14.111
626.64	12.469
626.97	13.784
627.30	13.957
627.63	11.831
627.96	12.185
628.29	12.868
628.62	14.422
628.95	13.484
629.28	13.252
629.61	11.874
629.94	12.949
630.26	13.817
630.59	13.367
630.92	13.213
631.25	15.121
631.58	14.286
631.91	12.660
