SpectraSuite Data File
++++++++++++++++++++++++++++++++++++
Date: Sat May 16 11:15:52 PDT 2015
User: schluterlab
Dark Spectrum Present: Yes
Reference Spectrum Present: Yes
Number of Sampled Component Spectra: 1
Spectrometers: USB2E3373
Integration Time (usec): 3000 (USB2E3373)
Spectra Averaged: 3 (USB2E3373)
Boxcar Smoothing: 0 (USB2E3373)
Correct for Electrical Dark: No (USB2E3373)
Strobe/Lamp Enabled: No (USB2E3373)
Correct for Detector Non-linearity: No (USB2E3373)
Correct for Stray Light: No (USB2E3373)
Number of Pixels in Processed Spectrum: 2048
>>>>>Begin Processed Spectral Data<<<<<
178.53	0.000
178.91	13.333
179.29	433.333
179.67	-1000.000
180.04	-30.769
180.42	-0.000
180.80	225.000
181.18	450.000
181.56	62.500
181.94	-200.000
182.31	525.000
182.69	-23.077
183.07	-400.000
183.45	1050.000
183.83	400.000
184.20	-85.714
184.58	-112.500
184.96	-300.000
185.34	137.500
185.72	-225.000
186.09	83.333
186.47	-112.500
186.85	-75.000
187.23	-175.000
187.61	-225.000
187.98	-350.000
188.36	-187.500
188.74	-112.500
189.12	900.000
189.49	314.286
189.87	-58.333
190.25	25.000
190.63	42.857
191.00	-155.556
191.38	160.000
191.76	-73.333
192.14	200.000
192.51	-140.000
192.89	-366.667
193.27	0.000
193.65	-88.889
194.02	-142.857
194.40	233.333
194.78	-30.000
195.15	-300.000
195.53	-27.273
195.91	-350.000
196.29	20.000
196.66	-433.333
197.04	2000.000
197.42	0.000
197.79	80.000
198.17	-433.333
198.55	-300.000
198.92	-900.000
199.30	275.000
199.68	50.000
200.05	11.111
200.43	-200.000
200.81	-1800.000
201.18	-141.667
201.56	171.429
201.94	-60.000
202.31	36.364
202.69	60.000
203.07	50.000
203.44	366.667
203.82	-200.000
204.19	-475.000
204.57	-100.000
204.95	-800.000
205.32	37.500
205.70	-0.000
206.08	-1300.000
206.45	33.333
206.83	-200.000
207.20	-300.000
207.58	-600.000
207.96	-400.000
208.33	-62.500
208.71	-55.556
209.08	200.000
209.46	-142.857
209.84	550.000
210.21	0.000
210.59	105.000
210.96	600.000
211.34	-116.667
211.71	-500.000
212.09	125.000
212.46	700.000
212.84	-2600.000
213.22	100.000
213.59	25.000
213.97	0.000
214.34	130.000
214.72	-40.000
215.09	-133.333
215.47	-100.000
215.84	80.000
216.22	-10.000
216.59	33.333
216.97	-350.000
217.34	650.000
217.72	71.429
218.09	-233.333
218.47	-128.571
218.84	57.143
219.22	-57.143
219.59	0.000
219.97	42.857
220.34	550.000
220.72	137.500
221.09	-46.154
221.47	0.000
221.84	133.333
222.22	-450.000
222.59	700.000
222.97	-125.000
223.34	-350.000
223.72	-433.333
224.09	-57.143
224.46	-525.000
224.84	-21.429
225.21	-142.857
225.59	-27.273
225.96	-150.000
226.34	-100.000
226.71	-133.333
227.08	70.000
227.46	1400.000
227.83	14.286
228.21	-162.500
228.58	50.000
228.95	-62.500
229.33	-900.000
229.70	-260.000
230.08	-700.000
230.45	-66.667
230.82	-266.667
231.20	-800.000
231.57	0.000
231.95	1000.000
232.32	23.810
232.69	-100.000
233.07	0.000
233.44	-750.000
233.81	20.000
234.19	-77.778
234.56	-31.250
234.93	34.375
235.31	0.000
235.68	-7.143
236.05	-76.471
236.43	-9.091
236.80	-45.161
237.17	54.167
237.55	-19.048
237.92	-4.545
238.29	0.000
238.67	38.235
239.04	19.444
239.41	19.355
239.79	-25.641
240.16	-7.143
240.53	1.818
240.91	25.641
241.28	25.455
241.65	43.077
242.02	26.230
242.40	18.033
242.77	25.758
243.14	18.644
243.51	14.286
243.89	43.038
244.26	24.719
244.63	45.263
245.00	40.000
245.38	26.271
245.75	19.469
246.12	32.800
246.49	34.646
246.87	20.325
247.24	28.814
247.61	20.339
247.98	30.986
248.36	27.972
248.73	34.177
249.10	25.478
249.47	26.316
249.84	29.545
250.22	28.571
250.59	28.249
250.96	34.031
251.33	29.858
251.70	26.442
252.08	34.123
252.45	27.488
252.82	27.143
253.19	30.638
253.56	31.855
253.94	30.802
254.31	28.755
254.68	34.146
255.05	28.629
255.42	36.111
255.79	27.957
256.16	33.333
256.54	31.250
256.91	28.030
257.28	28.571
257.65	27.305
258.02	34.906
258.39	29.431
258.76	29.392
259.14	28.704
259.51	34.098
259.88	29.878
260.25	32.298
260.62	30.547
260.99	28.487
261.36	33.232
261.73	33.237
262.10	33.889
262.47	32.479
262.85	36.857
263.22	32.092
263.59	30.769
263.96	32.174
264.33	30.352
264.70	35.635
265.07	30.495
265.44	32.300
265.81	26.615
266.18	29.367
266.55	30.882
266.92	34.761
267.29	33.172
267.66	31.358
268.03	34.541
268.40	34.272
268.77	32.048
269.14	32.251
269.51	30.805
269.88	30.734
270.25	29.604
270.62	31.350
270.99	28.378
271.36	31.702
271.73	31.614
272.10	32.723
272.47	31.556
272.84	34.667
273.21	31.651
273.58	32.967
273.95	30.921
274.32	30.995
274.69	31.729
275.06	32.106
275.43	31.473
275.80	33.198
276.17	30.544
276.54	31.365
276.91	29.012
277.28	30.426
277.65	31.405
278.02	33.403
278.39	32.024
278.76	32.271
279.13	32.411
279.50	31.412
279.87	30.233
280.23	32.186
280.60	31.014
280.97	31.262
281.34	31.528
281.71	33.269
282.08	31.653
282.45	30.754
282.82	32.364
283.19	31.091
283.56	29.853
283.92	32.686
284.29	29.368
284.66	28.058
285.03	29.234
285.40	30.627
285.77	31.754
286.14	29.964
286.51	29.485
286.87	30.672
287.24	33.618
287.61	29.091
287.98	30.156
288.35	27.769
288.72	30.900
289.08	26.271
289.45	28.788
289.82	27.509
290.19	28.900
290.56	28.099
290.93	27.504
291.29	25.608
291.66	28.341
292.03	28.257
292.40	26.657
292.77	26.398
293.13	26.667
293.50	27.489
293.87	25.613
294.24	26.848
294.60	23.485
294.97	25.190
295.34	24.296
295.71	26.190
296.08	23.810
296.44	24.464
296.81	26.353
297.18	21.690
297.55	26.554
297.91	26.639
298.28	22.877
298.65	23.570
299.02	24.465
299.38	24.332
299.75	23.370
300.12	23.846
300.48	24.297
300.85	21.625
301.22	22.510
301.59	23.277
301.95	25.441
302.32	20.991
302.69	22.154
303.05	23.443
303.42	22.375
303.79	22.847
304.15	23.104
304.52	21.937
304.89	22.786
305.25	22.100
305.62	22.679
305.99	23.793
306.35	22.642
306.72	22.665
307.09	22.701
307.45	22.020
307.82	21.006
308.19	21.924
308.55	20.261
308.92	20.086
309.29	21.946
309.65	22.163
310.02	21.706
310.38	20.324
310.75	21.004
311.12	21.798
311.48	22.234
311.85	20.906
312.22	21.627
312.58	21.261
312.95	20.693
313.31	21.079
313.68	21.106
314.05	22.354
314.41	19.718
314.78	19.580
315.14	21.816
315.51	21.277
315.87	20.232
316.24	20.214
316.61	20.921
316.97	21.294
317.34	20.617
317.70	19.666
318.07	21.082
318.43	21.161
318.80	21.878
319.16	20.356
319.53	21.241
319.89	19.379
320.26	19.804
320.62	18.942
320.99	19.900
321.35	19.409
321.72	19.345
322.08	20.475
322.45	19.802
322.81	19.885
323.18	20.173
323.54	19.871
323.91	19.648
324.27	20.437
324.64	19.744
325.00	19.110
325.37	21.900
325.73	20.472
326.10	19.398
326.46	19.527
326.83	19.489
327.19	19.600
327.56	20.698
327.92	19.966
328.29	20.346
328.65	19.000
329.01	19.346
329.38	19.536
329.74	20.055
330.11	20.943
330.47	19.164
330.84	21.082
331.20	19.675
331.56	19.234
331.93	18.206
332.29	18.995
332.66	19.315
333.02	18.643
333.38	19.176
333.75	20.748
334.11	17.956
334.48	18.623
334.84	20.910
335.20	18.972
335.57	18.682
335.93	20.054
336.29	18.778
336.66	18.150
337.02	19.550
337.38	18.271
337.75	18.613
338.11	18.247
338.47	18.416
338.84	18.693
339.20	18.190
339.56	19.251
339.93	18.695
340.29	18.069
340.65	18.969
341.02	18.971
341.38	18.618
341.74	18.459
342.11	18.345
342.47	18.283
342.83	18.388
343.20	18.446
343.56	16.898
343.92	17.947
344.28	18.755
344.65	18.234
345.01	18.403
345.37	18.937
345.73	18.249
346.10	16.926
346.46	17.465
346.82	18.364
347.19	17.009
347.55	16.934
347.91	18.031
348.27	17.263
348.63	18.094
349.00	17.979
349.36	17.486
349.72	18.869
350.08	18.605
350.45	18.203
350.81	17.197
351.17	17.363
351.53	17.422
351.89	17.381
352.26	18.062
352.62	18.203
352.98	18.038
353.34	18.145
353.70	16.525
354.07	18.725
354.43	18.498
354.79	17.908
355.15	17.492
355.51	17.344
355.87	17.154
356.24	16.839
356.60	19.581
356.96	18.476
357.32	17.023
357.68	17.165
358.04	17.783
358.40	17.479
358.77	16.306
359.13	17.138
359.49	17.460
359.85	17.149
360.21	17.580
360.57	17.696
360.93	18.444
361.29	17.339
361.66	16.311
362.02	16.420
362.38	16.728
362.74	17.802
363.10	16.284
363.46	17.593
363.82	17.638
364.18	16.932
364.54	18.156
364.90	18.169
365.26	17.047
365.62	17.320
365.98	17.354
366.35	17.958
366.71	16.420
367.07	17.149
367.43	17.639
367.79	17.251
368.15	16.572
368.51	17.413
368.87	17.995
369.23	16.842
369.59	17.222
369.95	16.702
370.31	18.143
370.67	15.474
371.03	16.618
371.39	16.478
371.75	17.167
372.11	17.288
372.47	16.558
372.83	17.385
373.19	17.643
373.55	16.819
373.91	17.141
374.27	17.317
374.63	16.908
374.99	16.551
375.35	16.689
375.71	17.083
376.07	17.180
376.42	16.225
376.78	16.732
377.14	16.610
377.50	17.150
377.86	17.165
378.22	16.269
378.58	16.306
378.94	16.954
379.30	16.575
379.66	17.304
380.02	17.291
380.38	17.281
380.74	17.175
381.09	17.282
381.45	17.243
381.81	17.362
382.17	16.291
382.53	16.596
382.89	16.926
383.25	17.279
383.61	17.276
383.97	16.473
384.32	17.021
384.68	16.929
385.04	16.546
385.40	16.859
385.76	17.500
386.12	16.864
386.48	17.079
386.83	17.178
387.19	16.497
387.55	17.020
387.91	16.835
388.27	16.466
388.62	15.685
388.98	16.838
389.34	16.524
389.70	17.174
390.06	16.470
390.42	17.500
390.77	15.773
391.13	17.516
391.49	16.656
391.85	17.020
392.20	16.808
392.56	16.921
392.92	17.056
393.28	16.877
393.64	17.017
393.99	17.108
394.35	16.667
394.71	16.986
395.07	17.263
395.42	16.389
395.78	15.965
396.14	16.947
396.50	16.024
396.85	17.458
397.21	16.039
397.57	17.143
397.92	16.511
398.28	16.222
398.64	16.419
399.00	16.798
399.35	16.291
399.71	16.957
400.07	17.015
400.42	17.579
400.78	16.339
401.14	16.168
401.49	16.038
401.85	16.901
402.21	16.508
402.57	16.201
402.92	16.803
403.28	15.809
403.63	15.339
403.99	16.283
404.35	15.882
404.70	16.150
405.06	17.013
405.42	17.159
405.77	16.233
406.13	16.298
406.49	16.177
406.84	16.257
407.20	16.549
407.55	15.896
407.91	15.285
408.27	16.299
408.62	16.115
408.98	15.888
409.34	16.210
409.69	16.194
410.05	16.010
410.40	16.248
410.76	15.649
411.11	16.209
411.47	16.432
411.83	16.076
412.18	15.408
412.54	15.619
412.89	16.282
413.25	15.053
413.60	16.039
413.96	15.404
414.31	16.453
414.67	14.413
415.03	15.977
415.38	16.981
415.74	15.657
416.09	16.176
416.45	15.278
416.80	16.515
417.16	15.482
417.51	17.466
417.87	16.117
418.22	16.119
418.58	16.431
418.93	16.738
419.29	16.499
419.64	14.573
420.00	15.492
420.35	16.677
420.71	16.146
421.06	16.095
421.42	15.984
421.77	15.466
422.12	15.949
422.48	15.874
422.83	16.515
423.19	16.203
423.54	16.081
423.90	16.368
424.25	15.950
424.61	16.285
424.96	16.618
425.31	16.546
425.67	16.103
426.02	15.950
426.38	16.515
426.73	16.423
427.09	16.605
427.44	15.511
427.79	15.233
428.15	15.859
428.50	15.718
428.85	16.367
429.21	15.274
429.56	16.510
429.92	15.581
430.27	16.201
430.62	16.092
430.98	16.309
431.33	17.236
431.68	16.086
432.04	16.396
432.39	15.897
432.74	15.588
433.10	16.207
433.45	15.717
433.80	16.349
434.16	16.873
434.51	16.658
434.86	16.462
435.22	16.147
435.57	15.728
435.92	16.295
436.28	16.142
436.63	15.998
436.98	16.037
437.34	16.716
437.69	16.511
438.04	16.052
438.39	16.306
438.75	16.182
439.10	15.825
439.45	15.751
439.81	16.265
440.16	15.900
440.51	16.235
440.86	16.368
441.22	16.252
441.57	16.737
441.92	15.908
442.27	16.558
442.63	17.221
442.98	15.350
443.33	16.255
443.68	16.258
444.03	15.717
444.39	16.446
444.74	16.685
445.09	16.064
445.44	16.432
445.79	16.930
446.15	17.251
446.50	15.895
446.85	15.803
447.20	16.037
447.55	15.967
447.91	16.788
448.26	15.642
448.61	15.846
448.96	16.975
449.31	16.460
449.66	16.543
450.02	16.288
450.37	16.174
450.72	17.062
451.07	16.153
451.42	15.180
451.77	15.919
452.12	15.673
452.47	17.569
452.83	15.725
453.18	16.762
453.53	16.791
453.88	16.746
454.23	15.417
454.58	17.216
454.93	16.436
455.28	15.233
455.63	16.769
455.98	16.446
456.34	15.248
456.69	16.635
457.04	16.288
457.39	15.789
457.74	16.066
458.09	16.589
458.44	16.801
458.79	15.751
459.14	16.828
459.49	16.578
459.84	16.133
460.19	16.169
460.54	16.697
460.89	15.919
461.24	16.090
461.59	16.999
461.94	16.104
462.29	16.319
462.64	16.206
462.99	16.867
463.34	16.948
463.69	15.903
464.04	15.466
464.39	16.069
464.74	16.253
465.09	15.875
465.44	16.074
465.79	16.864
466.14	16.974
466.49	16.580
466.84	16.627
467.19	17.082
467.54	15.759
467.89	16.400
468.24	16.627
468.59	16.740
468.94	15.756
469.29	15.205
469.64	16.981
469.99	16.408
470.34	16.366
470.68	17.805
471.03	15.898
471.38	15.764
471.73	15.594
472.08	15.328
472.43	16.860
472.78	16.600
473.13	14.513
473.48	15.826
473.83	16.005
474.17	15.287
474.52	15.793
474.87	16.434
475.22	16.283
475.57	16.111
475.92	15.983
476.27	16.000
476.61	15.944
476.96	15.595
477.31	15.501
477.66	16.270
478.01	16.964
478.36	15.558
478.70	15.857
479.05	15.522
479.40	15.855
479.75	15.443
480.10	15.873
480.45	14.942
480.79	16.239
481.14	16.207
481.49	15.973
481.84	16.181
482.19	16.446
482.53	16.335
482.88	15.804
483.23	15.869
483.58	16.605
483.92	15.910
484.27	16.128
484.62	16.026
484.97	15.978
485.31	16.160
485.66	16.300
486.01	16.746
486.36	16.889
486.70	17.071
487.05	16.541
487.40	16.319
487.75	16.086
488.09	15.843
488.44	15.765
488.79	16.166
489.13	15.709
489.48	16.436
489.83	15.939
490.17	15.803
490.52	15.806
490.87	15.150
491.22	15.413
491.56	16.343
491.91	15.601
492.26	15.236
492.60	14.938
492.95	15.516
493.30	15.245
493.64	15.468
493.99	15.583
494.34	16.143
494.68	16.339
495.03	15.296
495.37	14.995
495.72	15.521
496.07	16.143
496.41	16.072
496.76	15.708
497.11	15.732
497.45	16.044
497.80	15.308
498.14	15.422
498.49	15.771
498.84	15.485
499.18	16.715
499.53	15.441
499.87	14.961
500.22	15.098
500.56	15.808
500.91	15.567
501.26	16.109
501.60	15.648
501.95	16.039
502.29	15.163
502.64	15.936
502.98	15.093
503.33	15.930
503.67	15.517
504.02	15.983
504.36	16.176
504.71	15.299
505.06	15.327
505.40	16.517
505.75	15.447
506.09	16.532
506.44	15.138
506.78	15.906
507.13	14.727
507.47	16.015
507.82	15.591
508.16	15.751
508.51	16.177
508.85	15.373
509.19	15.699
509.54	14.905
509.88	16.117
510.23	15.671
510.57	15.450
510.92	15.521
511.26	15.524
511.61	14.903
511.95	15.571
512.30	15.008
512.64	14.802
512.98	15.347
513.33	16.090
513.67	15.187
514.02	14.989
514.36	15.346
514.70	15.280
515.05	15.609
515.39	14.648
515.74	15.823
516.08	15.908
516.42	15.014
516.77	16.118
517.11	14.874
517.46	15.789
517.80	15.283
518.14	15.036
518.49	15.123
518.83	15.134
519.17	15.394
519.52	15.211
519.86	15.830
520.20	15.587
520.55	14.892
520.89	14.590
521.23	15.324
521.58	14.796
521.92	15.263
522.26	15.365
522.61	14.702
522.95	14.550
523.29	14.984
523.64	13.741
523.98	14.704
524.32	14.582
524.66	14.658
525.01	14.387
525.35	14.691
525.69	14.249
526.04	15.274
526.38	14.704
526.72	14.368
527.06	14.518
527.41	15.050
527.75	14.257
528.09	14.626
528.43	14.426
528.78	14.950
529.12	15.685
529.46	15.399
529.80	15.042
530.15	15.518
530.49	14.683
530.83	16.176
531.17	14.613
531.51	14.802
531.86	15.207
532.20	14.575
532.54	15.040
532.88	15.349
533.22	13.971
533.57	15.601
533.91	14.419
534.25	14.959
534.59	14.553
534.93	14.437
535.27	15.167
535.62	16.176
535.96	14.803
536.30	14.463
536.64	14.276
536.98	15.113
537.32	14.167
537.66	14.936
538.01	14.777
538.35	14.865
538.69	15.307
539.03	14.624
539.37	13.906
539.71	14.410
540.05	14.599
540.39	15.651
540.73	15.204
541.07	15.710
541.42	14.585
541.76	14.086
542.10	15.057
542.44	15.590
542.78	14.586
543.12	14.528
543.46	14.384
543.80	14.983
544.14	14.439
544.48	15.289
544.82	15.223
545.16	16.231
545.50	13.930
545.84	14.604
546.18	14.702
546.52	15.576
546.86	13.818
547.20	15.190
547.54	14.394
547.88	14.798
548.22	14.351
548.56	14.362
548.90	14.690
549.24	14.506
549.58	14.961
549.92	14.205
550.26	14.957
550.60	13.656
550.94	14.380
551.28	13.619
551.62	14.697
551.96	15.051
552.30	14.774
552.64	14.989
552.98	15.627
553.32	15.224
553.66	15.141
554.00	14.712
554.34	13.646
554.68	14.693
555.02	14.978
555.36	14.953
555.69	13.324
556.03	13.965
556.37	14.936
556.71	15.605
557.05	14.634
557.39	14.922
557.73	14.734
558.07	14.092
558.41	14.510
558.75	13.916
559.08	13.774
559.42	14.625
559.76	15.414
560.10	15.735
560.44	15.318
560.78	15.170
561.12	15.183
561.45	15.000
561.79	14.774
562.13	14.446
562.47	14.636
562.81	13.932
563.15	15.185
563.48	14.720
563.82	14.943
564.16	15.145
564.50	15.188
564.84	14.087
565.17	15.517
565.51	14.146
565.85	13.928
566.19	15.613
566.52	15.068
566.86	14.791
567.20	15.920
567.54	15.003
567.88	15.801
568.21	14.933
568.55	15.376
568.89	15.159
569.23	15.178
569.56	15.553
569.90	16.404
570.24	16.535
570.57	15.677
570.91	15.947
571.25	16.569
571.59	16.859
571.92	16.667
572.26	16.717
572.60	16.072
572.93	15.825
573.27	15.915
573.61	16.432
573.95	16.392
574.28	16.235
574.62	16.548
574.96	16.426
575.29	16.565
575.63	16.193
575.97	15.642
576.30	15.648
576.64	16.266
576.98	16.173
577.31	16.210
577.65	16.529
577.98	16.255
578.32	16.354
578.66	16.096
578.99	16.145
579.33	15.901
579.67	16.206
580.00	16.419
580.34	16.169
580.67	16.180
581.01	15.973
581.35	16.453
581.68	16.374
582.02	16.743
582.35	16.601
582.69	16.361
583.02	16.844
583.36	16.659
583.70	16.897
584.03	16.191
584.37	15.832
584.70	16.257
585.04	16.101
585.37	16.181
585.71	16.497
586.04	16.413
586.38	16.145
586.72	16.488
587.05	16.879
587.39	16.252
587.72	16.857
588.06	16.259
588.39	16.491
588.73	16.687
589.06	16.528
589.40	16.317
589.73	15.793
590.07	16.133
590.40	16.089
590.73	16.273
591.07	15.615
591.40	15.988
591.74	16.855
592.07	15.766
592.41	15.924
592.74	16.295
593.08	16.684
593.41	16.283
593.75	15.991
594.08	16.175
594.41	16.229
594.75	15.893
595.08	16.203
595.42	16.727
595.75	15.803
596.09	16.065
596.42	16.408
596.75	16.473
597.09	17.142
597.42	15.845
597.75	16.430
598.09	15.906
598.42	16.306
598.76	16.279
599.09	15.549
599.42	15.379
599.76	16.384
600.09	16.145
600.42	16.407
600.76	16.723
601.09	16.141
601.42	15.512
601.76	16.783
602.09	15.828
602.42	16.214
602.76	15.787
603.09	16.250
603.42	16.559
603.76	15.995
604.09	15.979
604.42	15.945
604.76	16.398
605.09	16.004
605.42	16.223
605.75	15.740
606.09	16.355
606.42	16.003
606.75	15.930
607.09	16.762
607.42	15.889
607.75	15.673
608.08	16.539
608.42	15.468
608.75	15.748
609.08	15.879
609.41	15.296
609.75	15.261
610.08	15.980
610.41	15.566
610.74	16.296
611.07	15.720
611.41	15.078
611.74	16.812
612.07	15.897
612.40	15.299
612.73	15.509
613.07	15.905
613.40	15.654
613.73	15.313
614.06	14.882
614.39	15.558
614.72	15.307
615.06	15.978
615.39	15.952
615.72	15.915
616.05	15.516
616.38	15.670
616.71	15.556
617.05	15.682
617.38	15.356
617.71	14.742
618.04	15.155
618.37	14.906
618.70	15.711
619.03	15.234
619.36	15.856
619.69	16.152
620.03	15.083
620.36	15.120
620.69	15.650
621.02	14.536
621.35	14.355
621.68	14.262
622.01	15.210
622.34	16.149
622.67	14.375
623.00	15.073
623.33	14.403
623.66	14.845
623.99	14.586
624.32	14.583
624.65	14.937
624.99	14.787
625.32	14.296
625.65	15.074
625.98	15.336
626.31	13.377
626.64	14.059
626.97	14.469
627.30	14.468
627.63	13.212
627.96	14.012
628.29	15.074
628.62	13.563
628.95	14.173
629.28	14.474
629.61	12.856
629.94	16.257
630.26	13.618
630.59	14.070
630.92	14.815
631.25	14.012
631.58	13.862
631.91	11.489
632.24	15.000
632.57	13.000
