SpectraSuite Data File
++++++++++++++++++++++++++++++++++++
Date: Sat May 16 11:39:59 PDT 2015
User: schluterlab
Dark Spectrum Present: Yes
Reference Spectrum Present: Yes
Number of Sampled Component Spectra: 1
Spectrometers: USB2E3373
Integration Time (usec): 3000 (USB2E3373)
Spectra Averaged: 3 (USB2E3373)
Boxcar Smoothing: 0 (USB2E3373)
Correct for Electrical Dark: No (USB2E3373)
Strobe/Lamp Enabled: No (USB2E3373)
Correct for Detector Non-linearity: No (USB2E3373)
Correct for Stray Light: No (USB2E3373)
Number of Pixels in Processed Spectrum: 2048
>>>>>Begin Processed Spectral Data<<<<<
178.53	0.000
178.91	153.333
179.29	566.667
179.67	-800.000
180.04	-138.462
180.42	900.000
180.80	400.000
181.18	550.000
181.56	-125.000
181.94	2100.000
182.31	400.000
182.69	-107.692
183.07	-966.667
183.45	1500.000
183.83	566.667
184.20	-285.714
184.58	-112.500
184.96	-150.000
185.34	125.000
185.72	-625.000
186.09	366.667
186.47	-225.000
186.85	-250.000
187.23	-87.500
187.61	-175.000
187.98	-387.500
188.36	-112.500
188.74	-200.000
189.12	1700.000
189.49	200.000
189.87	-58.333
190.25	550.000
190.63	-71.429
191.00	-188.889
191.38	340.000
191.76	-26.667
192.14	560.000
192.51	-220.000
192.89	-300.000
193.27	0.000
193.65	-133.333
194.02	-171.429
194.40	400.000
194.78	-130.000
195.15	-1500.000
195.53	-154.545
195.91	-333.333
196.29	60.000
196.66	-600.000
197.04	1700.000
197.42	-200.000
197.79	-6.667
198.17	-433.333
198.55	-700.000
198.92	-1500.000
199.30	250.000
199.68	-700.000
200.05	-88.889
200.43	-255.556
200.81	-1200.000
201.18	-25.000
201.56	200.000
201.94	-26.667
202.31	22.727
202.69	-60.000
203.07	-120.000
203.44	733.333
203.82	-383.333
204.19	-350.000
204.57	-250.000
204.95	-1400.000
205.32	-50.000
205.70	1500.000
206.08	-2200.000
206.45	-50.000
206.83	-1000.000
207.20	-50.000
207.58	-666.667
207.96	-400.000
208.33	-175.000
208.71	-88.889
209.08	160.000
209.46	-228.571
209.84	1000.000
210.21	0.000
210.59	30.000
210.96	1300.000
211.34	-300.000
211.71	-266.667
212.09	500.000
212.46	1050.000
212.84	-1600.000
213.22	500.000
213.59	100.000
213.97	-22.222
214.34	140.000
214.72	-60.000
215.09	-400.000
215.47	-166.667
215.84	-190.000
216.22	-90.000
216.59	-46.667
216.97	-375.000
217.34	1100.000
217.72	-214.286
218.09	-283.333
218.47	-271.429
218.84	271.429
219.22	-228.571
219.59	0.000
219.97	171.429
220.34	675.000
220.72	137.500
221.09	-92.308
221.47	0.000
221.84	466.667
222.22	-600.000
222.59	800.000
222.97	-212.500
223.34	-750.000
223.72	-300.000
224.09	-35.714
224.46	-450.000
224.84	-64.286
225.21	-200.000
225.59	-90.909
225.96	-212.500
226.34	-185.714
226.71	-177.778
227.08	-25.000
227.46	2200.000
227.83	-57.143
228.21	-250.000
228.58	650.000
228.95	-12.500
229.33	-900.000
229.70	-200.000
230.08	-900.000
230.45	-108.333
230.82	-150.000
231.20	-1200.000
231.57	-650.000
231.95	2000.000
232.32	0.000
232.69	-188.889
233.07	-171.429
233.44	-800.000
233.81	-120.000
234.19	-22.222
234.56	-31.250
234.93	-3.125
235.31	-257.143
235.68	-78.571
236.05	-105.882
236.43	-54.545
236.80	-12.903
237.17	-70.833
237.55	-52.381
237.92	-104.545
238.29	-60.000
238.67	-44.118
239.04	-27.778
239.41	-38.710
239.79	-64.103
240.16	-52.381
240.53	-27.273
240.91	-28.205
241.28	-14.545
241.65	0.000
242.02	-19.672
242.40	-18.033
242.77	-31.818
243.14	-30.508
243.51	-27.143
243.89	-13.924
244.26	-12.360
244.63	-6.316
245.00	-18.947
245.38	-7.627
245.75	-2.655
246.12	-4.800
246.49	-13.386
246.87	-13.008
247.24	-11.864
247.61	-21.186
247.98	-14.789
248.36	-13.287
248.73	-4.430
249.10	-14.650
249.47	-5.848
249.84	-2.841
250.22	-16.667
250.59	-1.695
250.96	-4.188
251.33	-3.318
251.70	-4.808
252.08	-7.109
252.45	-7.583
252.82	-6.190
253.19	-4.681
253.56	-9.274
253.94	-6.751
254.31	-5.579
254.68	-2.846
255.05	-4.839
255.42	-3.175
255.79	-4.301
256.16	-5.490
256.54	-0.735
256.91	-3.788
257.28	-12.821
257.65	-3.546
258.02	3.774
258.39	-3.010
258.76	-6.081
259.14	-8.025
259.51	-3.607
259.88	-2.744
260.25	-4.037
260.62	-5.145
260.99	-3.858
261.36	-4.878
261.73	-1.156
262.10	-0.556
262.47	-6.838
262.85	-0.571
263.22	-4.585
263.59	-8.000
263.96	-3.478
264.33	-2.168
264.70	-1.934
265.07	-3.571
265.44	-5.168
265.81	-3.359
266.18	-4.810
266.55	-2.451
266.92	-1.008
267.29	-2.663
267.66	-2.222
268.03	0.000
268.40	-1.408
268.77	-3.133
269.14	-2.552
269.51	-1.839
269.88	-4.128
270.25	-4.662
270.62	-4.348
270.99	-2.928
271.36	-0.699
271.73	-3.812
272.10	-3.204
272.47	-4.444
272.84	0.667
273.21	-3.211
273.58	-2.418
273.95	-3.947
274.32	-2.715
274.69	-1.751
275.06	-0.204
275.43	-2.455
275.80	0.815
276.17	-1.464
276.54	-0.611
276.91	-3.909
277.28	-1.014
277.65	-3.099
278.02	-2.505
278.39	-1.572
278.76	-1.992
279.13	-2.569
279.50	-2.386
279.87	-3.594
280.23	-1.619
280.60	-1.392
280.97	-4.660
281.34	-3.482
281.71	-1.538
282.08	-3.629
282.45	-5.092
282.82	-1.357
283.19	-2.909
283.56	0.000
283.92	0.353
284.29	-3.717
284.66	-1.439
285.03	-1.248
285.40	-1.661
285.77	-1.053
286.14	-1.986
286.51	-3.020
286.87	-1.633
287.24	-1.024
287.61	-0.496
287.98	-3.293
288.35	-3.471
288.72	-1.868
289.08	-4.407
289.45	-2.862
289.82	-3.979
290.19	-0.821
290.56	-4.132
290.93	-2.544
291.29	-3.241
291.66	-1.771
292.03	-0.471
292.40	-1.506
292.77	-1.863
293.13	-1.301
293.50	-0.743
293.87	-1.227
294.24	-0.151
294.60	-3.030
294.97	-0.607
295.34	-3.111
295.71	-0.744
296.08	-3.226
296.44	-3.004
296.81	-0.570
297.18	-2.394
297.55	-0.424
297.91	0.418
298.28	-1.096
298.65	-2.092
299.02	0.401
299.38	-2.005
299.75	-0.815
300.12	-0.641
300.48	-0.895
300.85	-1.311
301.22	-1.035
301.59	-1.170
301.95	0.504
302.32	-2.868
302.69	-0.734
303.05	-1.465
303.42	-1.750
303.79	-0.239
304.15	-0.948
304.52	-1.167
304.89	-0.472
305.25	-2.076
305.62	-1.175
305.99	-0.236
306.35	0.333
306.72	-2.392
307.09	0.454
307.45	-1.476
307.82	-2.235
308.19	-0.447
308.55	-0.545
308.92	-2.148
309.29	-0.865
309.65	0.000
310.02	-0.648
310.38	-0.432
310.75	-0.512
311.12	-0.723
311.48	0.418
311.85	0.721
312.22	-0.927
312.58	0.407
312.95	-0.612
313.31	-0.300
313.68	0.704
314.05	0.396
314.41	-0.704
314.78	-1.598
315.14	0.790
315.51	0.912
315.87	1.162
316.24	0.680
316.61	0.480
316.97	-0.199
317.34	0.578
317.70	0.649
318.07	1.119
318.43	1.124
318.80	1.315
319.16	0.375
319.53	1.222
319.89	0.564
320.26	0.588
320.62	1.058
320.99	1.493
321.35	-0.099
321.72	0.205
322.08	1.682
322.45	1.386
322.81	2.017
323.18	1.921
323.54	2.957
323.91	3.336
324.27	2.567
324.64	2.651
325.00	4.276
325.37	4.434
325.73	5.249
326.10	4.074
326.46	5.517
326.83	5.447
327.19	5.505
327.56	7.155
327.92	6.372
328.29	6.234
328.65	5.636
329.01	7.597
329.38	8.296
329.74	8.516
330.11	7.888
330.47	8.629
330.84	9.624
331.20	10.921
331.56	9.936
331.93	10.924
332.29	10.959
332.66	11.501
333.02	11.131
333.38	11.380
333.75	11.932
334.11	11.556
334.48	11.121
334.84	13.386
335.20	12.766
335.57	11.191
335.93	13.608
336.29	11.692
336.66	11.101
337.02	13.153
337.38	11.854
337.75	11.853
338.11	12.433
338.47	12.456
338.84	12.250
339.20	12.214
339.56	13.993
339.93	12.522
340.29	12.223
340.65	11.801
341.02	12.732
341.38	13.395
341.74	12.701
342.11	12.287
342.47	12.618
342.83	12.510
343.20	12.810
343.56	12.571
343.92	13.189
344.28	14.886
344.65	12.129
345.01	12.941
345.37	13.206
345.73	11.784
346.10	11.529
346.46	12.185
346.82	12.430
347.19	12.654
347.55	11.717
347.91	12.913
348.27	11.615
348.63	13.893
349.00	12.729
349.36	12.412
349.72	13.455
350.08	13.232
350.45	13.475
350.81	12.818
351.17	12.621
351.53	11.933
351.89	12.288
352.26	13.101
352.62	14.363
352.98	13.133
353.34	12.710
353.70	12.664
354.07	13.218
354.43	12.806
354.79	12.758
355.15	12.380
355.51	13.125
355.87	12.885
356.24	12.470
356.60	13.296
356.96	13.087
357.32	12.906
357.68	13.027
358.04	13.626
358.40	13.070
358.77	13.679
359.13	12.930
359.49	12.925
359.85	12.805
360.21	13.394
360.57	13.705
360.93	13.481
361.29	14.350
361.66	12.500
362.02	13.092
362.38	13.280
362.74	13.407
363.10	13.128
363.46	14.316
363.82	13.921
364.18	14.327
364.54	15.368
364.90	13.347
365.26	13.053
365.62	14.113
365.98	14.580
366.35	13.592
366.71	13.672
367.07	14.044
367.43	15.100
367.79	15.739
368.15	13.656
368.51	14.126
368.87	14.423
369.23	14.035
369.59	14.931
369.95	15.011
370.31	14.909
370.67	14.172
371.03	14.359
371.39	14.215
371.75	14.521
372.11	15.208
372.47	14.606
372.83	14.812
373.19	14.786
373.55	16.045
373.91	15.718
374.27	14.921
374.63	15.183
374.99	15.577
375.35	15.814
375.71	16.205
376.07	15.264
376.42	15.099
376.78	16.275
377.14	15.525
377.50	16.248
377.86	16.385
378.22	16.960
378.58	16.430
378.94	15.105
379.30	17.063
379.66	17.001
380.02	16.162
380.38	16.495
380.74	16.823
381.09	17.282
381.45	17.064
381.81	16.394
382.17	16.667
382.53	16.413
382.89	17.404
383.25	16.737
383.61	17.158
383.97	17.759
384.32	17.209
384.68	18.803
385.04	17.633
385.40	18.442
385.76	18.171
386.12	17.739
386.48	18.131
386.83	18.405
387.19	18.470
387.55	17.626
387.91	18.494
388.27	17.250
388.62	17.969
388.98	18.353
389.34	18.299
389.70	18.331
390.06	18.272
390.42	18.846
390.77	17.539
391.13	18.758
391.49	17.842
391.85	18.017
392.20	18.325
392.56	17.593
392.92	18.254
393.28	19.059
393.64	18.461
393.99	18.831
394.35	19.221
394.71	18.530
395.07	19.460
395.42	17.640
395.78	17.976
396.14	19.128
396.50	19.144
396.85	18.816
397.21	18.955
397.57	19.027
397.92	18.618
398.28	18.833
398.64	18.977
399.00	18.989
399.35	18.433
399.71	19.396
400.07	19.164
400.42	19.465
400.78	18.843
401.14	18.263
401.49	18.219
401.85	18.670
402.21	18.892
402.57	18.932
402.92	18.565
403.28	18.199
403.63	18.274
403.99	17.899
404.35	18.176
404.70	18.490
405.06	18.570
405.42	18.204
405.77	18.156
406.13	18.853
406.49	18.274
406.84	18.896
407.20	18.610
407.55	18.746
407.91	17.940
408.27	18.689
408.62	18.160
408.98	17.890
409.34	18.342
409.69	18.399
410.05	17.708
410.40	19.252
410.76	18.317
411.11	18.454
411.47	18.606
411.83	18.521
412.18	18.007
412.54	17.877
412.89	17.315
413.25	17.532
413.60	17.436
413.96	17.437
414.31	18.287
414.67	17.841
415.03	18.758
415.38	17.827
415.74	18.621
416.09	17.967
416.45	16.733
416.80	18.596
417.16	17.209
417.51	18.188
417.87	17.152
418.22	19.216
418.58	18.293
418.93	18.087
419.29	18.695
419.64	17.776
420.00	19.259
420.35	18.569
420.71	18.667
421.06	18.580
421.42	17.799
421.77	18.872
422.12	19.306
422.48	18.332
422.83	18.793
423.19	18.318
423.54	19.366
423.90	18.508
424.25	18.552
424.61	19.542
424.96	19.134
425.31	18.278
425.67	19.198
426.02	18.474
426.38	18.996
426.73	19.813
427.09	19.363
427.44	20.000
427.79	18.837
428.15	18.911
428.50	19.120
428.85	19.544
429.21	18.816
429.56	18.854
429.92	19.238
430.27	18.943
430.62	19.645
430.98	19.498
431.33	19.264
431.68	19.732
432.04	20.257
432.39	19.658
432.74	19.484
433.10	20.146
433.45	19.171
433.80	19.933
434.16	20.204
434.51	20.164
434.86	20.387
435.22	20.657
435.57	19.890
435.92	20.106
436.28	20.356
436.63	20.464
436.98	19.588
437.34	20.083
437.69	21.237
438.04	20.817
438.39	19.675
438.75	21.013
439.10	21.099
439.45	19.855
439.81	20.301
440.16	21.011
440.51	21.235
440.86	20.243
441.22	19.569
441.57	20.632
441.92	21.074
442.27	20.455
442.63	21.191
442.98	20.824
443.33	21.417
443.68	20.427
444.03	20.580
444.39	20.509
444.74	21.090
445.09	20.998
445.44	20.315
445.79	20.806
446.15	21.139
446.50	20.305
446.85	21.088
447.20	20.684
447.55	21.823
447.91	21.336
448.26	21.508
448.61	20.091
448.96	21.401
449.31	20.519
449.66	22.038
450.02	20.443
450.37	21.101
450.72	20.791
451.07	20.930
451.42	20.260
451.77	21.125
452.12	21.990
452.47	21.537
452.83	20.384
453.18	21.126
453.53	21.393
453.88	22.010
454.23	20.254
454.58	22.312
454.93	21.411
455.28	20.841
455.63	21.683
455.98	20.843
456.34	21.029
456.69	21.576
457.04	22.188
457.39	21.112
457.74	21.677
458.09	21.288
458.44	22.460
458.79	22.141
459.14	22.133
459.49	21.788
459.84	21.360
460.19	22.315
460.54	21.113
460.89	20.740
461.24	21.494
461.59	22.274
461.94	22.151
462.29	21.799
462.64	22.332
462.99	21.821
463.34	21.134
463.69	21.183
464.04	21.558
464.39	21.565
464.74	22.636
465.09	21.407
465.44	21.545
465.79	20.869
466.14	22.842
466.49	21.531
466.84	21.789
467.19	20.636
467.54	21.329
467.89	21.147
468.24	22.684
468.59	22.548
468.94	21.608
469.29	21.897
469.64	21.765
469.99	22.350
470.34	21.977
470.68	21.875
471.03	21.886
471.38	21.458
471.73	21.259
472.08	21.419
472.43	21.557
472.78	22.133
473.13	21.670
473.48	22.017
473.83	21.464
474.17	21.911
474.52	22.570
474.87	21.853
475.22	21.770
475.57	21.444
475.92	22.408
476.27	21.314
476.61	22.085
476.96	22.750
477.31	22.551
477.66	21.970
478.01	22.474
478.36	22.158
478.70	22.531
479.05	21.904
479.40	22.383
479.75	21.713
480.10	21.726
480.45	21.518
480.79	21.422
481.14	22.127
481.49	21.684
481.84	22.145
482.19	22.385
482.53	22.254
482.88	22.449
483.23	21.831
483.58	22.757
483.92	21.930
484.27	21.577
484.62	22.030
484.97	22.136
485.31	20.928
485.66	20.289
486.01	20.772
486.36	21.403
486.70	21.611
487.05	21.114
487.40	21.928
487.75	21.364
488.09	21.186
488.44	21.245
488.79	21.861
489.13	21.301
489.48	21.697
489.83	22.838
490.17	22.551
490.52	22.600
490.87	21.755
491.22	21.906
491.56	21.852
491.91	22.710
492.26	21.840
492.60	21.408
492.95	22.561
493.30	22.010
493.64	21.392
493.99	22.036
494.34	22.143
494.68	22.331
495.03	21.702
495.37	22.321
495.72	21.562
496.07	22.431
496.41	21.769
496.76	22.009
497.11	22.044
497.45	22.222
497.80	22.061
498.14	21.464
498.49	22.300
498.84	21.845
499.18	23.246
499.53	21.822
499.87	21.429
500.22	21.863
500.56	22.711
500.91	22.315
501.26	22.513
501.60	21.907
501.95	22.850
502.29	21.540
502.64	22.254
502.98	22.377
503.33	22.227
503.67	22.797
504.02	21.729
504.36	22.647
504.71	22.340
505.06	22.067
505.40	22.106
505.75	22.002
506.09	22.144
506.44	22.807
506.78	21.375
507.13	22.554
507.47	22.066
507.82	21.322
508.16	22.591
508.51	21.381
508.85	21.480
509.19	22.240
509.54	22.040
509.88	23.191
510.23	23.061
510.57	22.487
510.92	22.986
511.26	22.275
511.61	21.706
511.95	22.091
512.30	22.155
512.64	21.703
512.98	22.882
513.33	21.582
513.67	22.111
514.02	21.980
514.36	21.717
514.70	22.241
515.05	22.470
515.39	22.607
515.74	23.560
516.08	21.902
516.42	22.606
516.77	23.628
517.11	22.998
517.46	23.266
517.80	23.285
518.14	21.981
518.49	21.877
518.83	22.374
519.17	22.202
519.52	22.556
519.86	23.297
520.20	22.861
520.55	22.277
520.89	22.229
521.23	22.466
521.58	22.508
521.92	22.419
522.26	22.730
522.61	22.053
522.95	22.719
523.29	22.445
523.64	22.486
523.98	22.597
524.32	23.004
524.66	21.801
525.01	23.121
525.35	22.874
525.69	21.861
526.04	22.193
526.38	22.724
526.72	21.201
527.06	22.656
527.41	21.848
527.75	20.924
528.09	21.443
528.43	22.426
528.78	22.048
529.12	22.727
529.46	21.585
529.80	21.110
530.15	21.571
530.49	21.604
530.83	22.135
531.17	21.751
531.51	21.835
531.86	22.186
532.20	21.795
532.54	21.725
532.88	21.673
533.22	21.992
533.57	21.802
533.91	21.223
534.25	21.622
534.59	20.050
534.93	21.344
535.27	22.215
535.62	21.228
535.96	21.396
536.30	20.877
536.64	22.178
536.98	20.904
537.32	21.838
537.66	21.317
538.01	21.237
538.35	22.162
538.69	21.257
539.03	21.801
539.37	21.490
539.71	21.681
540.05	22.001
540.39	21.260
540.73	22.046
541.07	22.404
541.42	20.932
541.76	19.535
542.10	21.540
542.44	21.252
542.78	20.556
543.12	20.638
543.46	20.548
543.80	21.204
544.14	21.222
544.48	22.047
544.82	21.448
545.16	20.926
545.50	19.650
545.84	21.280
546.18	21.775
546.52	21.906
546.86	20.869
547.20	20.886
547.54	20.799
547.88	22.031
548.22	19.528
548.56	21.777
548.90	21.024
549.24	20.533
549.58	20.466
549.92	21.625
550.26	21.604
550.60	21.266
550.94	21.752
551.28	21.595
551.62	20.827
551.96	21.780
552.30	20.767
552.64	20.619
552.98	20.743
553.32	21.212
553.66	20.764
554.00	21.891
554.34	19.350
554.68	20.322
555.02	21.274
555.36	21.064
555.69	20.702
556.03	21.193
556.37	20.341
556.71	21.976
557.05	21.656
557.39	20.416
557.73	21.736
558.07	21.025
558.41	20.942
558.75	21.141
559.08	20.467
559.42	20.674
559.76	20.245
560.10	19.985
560.44	20.954
560.78	20.946
561.12	20.428
561.45	20.548
561.79	20.000
562.13	21.529
562.47	20.658
562.81	20.226
563.15	20.924
563.48	21.147
563.82	20.757
564.16	20.892
564.50	20.094
564.84	20.437
565.17	20.159
565.51	20.339
565.85	21.163
566.19	21.344
566.52	20.874
566.86	20.038
567.20	20.642
567.54	20.910
567.88	19.821
568.21	20.358
568.55	19.565
568.89	19.732
569.23	19.112
569.56	19.630
569.90	19.119
570.24	19.053
570.57	18.383
570.91	18.497
571.25	18.807
571.59	18.920
571.92	18.304
572.26	18.634
572.60	19.299
572.93	18.705
573.27	18.018
573.61	18.038
573.95	18.201
574.28	18.048
574.62	18.454
574.96	17.846
575.29	18.369
575.63	18.184
575.97	17.907
576.30	17.923
576.64	18.172
576.98	17.915
577.31	17.759
577.65	18.363
577.98	17.957
578.32	17.891
578.66	18.107
578.99	18.414
579.33	17.734
579.67	17.931
580.00	17.981
580.34	17.979
580.67	18.019
581.01	17.779
581.35	18.178
581.68	17.595
582.02	18.010
582.35	17.677
582.69	18.072
583.02	18.037
583.36	18.208
583.70	17.640
584.03	18.373
584.37	17.970
584.70	17.764
585.04	17.949
585.37	17.876
585.71	17.900
586.04	18.060
586.38	17.990
586.72	18.546
587.05	18.465
587.39	17.891
587.72	17.653
588.06	17.992
588.39	18.456
588.73	18.407
589.06	18.446
589.40	18.928
589.73	18.661
590.07	18.245
590.40	18.635
590.73	18.313
591.07	18.689
591.40	18.804
591.74	19.244
592.07	17.838
592.41	17.792
592.74	18.255
593.08	17.988
593.41	17.566
593.75	17.606
594.08	17.865
594.41	18.299
594.75	18.498
595.08	18.459
595.42	18.389
595.75	18.376
596.09	18.122
596.42	18.535
596.75	18.327
597.09	18.433
597.42	17.983
597.75	18.601
598.09	18.798
598.42	18.427
598.76	17.608
599.09	17.798
599.42	17.762
599.76	18.535
600.09	18.244
600.42	18.762
600.76	17.928
601.09	18.078
601.42	17.768
601.76	18.185
602.09	18.078
602.42	17.531
602.76	17.823
603.09	18.387
603.42	18.211
603.76	18.389
604.09	17.541
604.42	17.111
604.76	17.968
605.09	18.626
605.42	18.484
605.75	17.939
606.09	18.472
606.42	17.553
606.75	18.635
607.09	17.909
607.42	17.650
607.75	17.616
608.08	18.165
608.42	18.354
608.75	17.103
609.08	17.681
609.41	18.037
609.75	17.504
610.08	18.186
610.41	18.024
610.74	18.037
611.07	18.458
611.41	17.600
611.74	17.995
612.07	18.636
612.40	17.591
612.73	18.148
613.07	17.997
613.40	18.555
613.73	18.311
614.06	17.518
614.39	18.038
614.72	16.927
615.06	17.826
615.39	17.851
615.72	18.631
616.05	17.338
616.38	18.108
616.71	18.198
617.05	18.637
617.38	18.638
617.71	17.629
618.04	17.950
618.37	18.365
618.70	18.253
619.03	17.129
619.36	19.239
619.69	18.306
620.03	18.044
620.36	18.636
620.69	18.378
621.02	18.493
621.35	18.387
621.68	18.197
622.01	19.175
622.34	18.168
622.67	18.359
623.00	18.057
623.33	18.134
623.66	17.873
623.99	18.496
624.32	17.634
624.65	18.028
624.99	18.073
625.32	18.563
625.65	18.260
625.98	18.310
626.31	19.005
626.64	17.824
626.97	18.579
627.30	19.234
627.63	17.358
627.96	18.190
628.29	17.831
628.62	17.670
628.95	20.079
629.28	18.233
629.61	17.763
629.94	19.187
630.26	19.384
630.59	18.894
630.92	18.418
631.25	20.766
631.58	18.730
631.91	17.340
