SpectraSuite Data File
++++++++++++++++++++++++++++++++++++
Date: Sat May 16 11:21:18 PDT 2015
User: schluterlab
Dark Spectrum Present: Yes
Reference Spectrum Present: Yes
Number of Sampled Component Spectra: 1
Spectrometers: USB2E3373
Integration Time (usec): 3000 (USB2E3373)
Spectra Averaged: 3 (USB2E3373)
Boxcar Smoothing: 0 (USB2E3373)
Correct for Electrical Dark: No (USB2E3373)
Strobe/Lamp Enabled: No (USB2E3373)
Correct for Detector Non-linearity: No (USB2E3373)
Correct for Stray Light: No (USB2E3373)
Number of Pixels in Processed Spectrum: 2048
>>>>>Begin Processed Spectral Data<<<<<
178.53	0.000
178.91	173.333
179.29	500.000
179.67	-1900.000
180.04	-15.385
180.42	900.000
180.80	200.000
181.18	200.000
181.56	12.500
181.94	1500.000
182.31	325.000
182.69	-61.538
183.07	-566.667
183.45	1400.000
183.83	333.333
184.20	-228.571
184.58	-250.000
184.96	-225.000
185.34	118.750
185.72	-450.000
186.09	133.333
186.47	-237.500
186.85	-162.500
187.23	25.000
187.61	-150.000
187.98	-262.500
188.36	-112.500
188.74	-212.500
189.12	1100.000
189.49	357.143
189.87	-100.000
190.25	500.000
190.63	-35.714
191.00	-200.000
191.38	340.000
191.76	-20.000
192.14	360.000
192.51	-360.000
192.89	-366.667
193.27	0.000
193.65	-122.222
194.02	-100.000
194.40	666.667
194.78	-90.000
195.15	-500.000
195.53	-90.909
195.91	-366.667
196.29	200.000
196.66	-500.000
197.04	1700.000
197.42	-25.000
197.79	-6.667
198.17	-333.333
198.55	-800.000
198.92	-1300.000
199.30	162.500
199.68	-850.000
200.05	-77.778
200.43	-144.444
200.81	-1700.000
201.18	-58.333
201.56	228.571
201.94	-20.000
202.31	-9.091
202.69	80.000
203.07	-90.000
203.44	533.333
203.82	-266.667
204.19	-575.000
204.57	-325.000
204.95	-1600.000
205.32	6.250
205.70	300.000
206.08	-2100.000
206.45	-55.556
206.83	-750.000
207.20	-100.000
207.58	-866.667
207.96	-466.667
208.33	-112.500
208.71	-111.111
209.08	160.000
209.46	-171.429
209.84	850.000
210.21	0.000
210.59	20.000
210.96	200.000
211.34	-216.667
211.71	-33.333
212.09	300.000
212.46	1200.000
212.84	-1900.000
213.22	233.333
213.59	183.333
213.97	-88.889
214.34	140.000
214.72	-20.000
215.09	-466.667
215.47	-233.333
215.84	-140.000
216.22	0.000
216.59	-106.667
216.97	-350.000
217.34	750.000
217.72	-157.143
218.09	-233.333
218.47	-257.143
218.84	200.000
219.22	-114.286
219.59	0.000
219.97	200.000
220.34	425.000
220.72	112.500
221.09	-92.308
221.47	0.000
221.84	466.667
222.22	-300.000
222.59	1100.000
222.97	-137.500
223.34	-1050.000
223.72	0.000
224.09	-85.714
224.46	-200.000
224.84	7.143
225.21	-142.857
225.59	-136.364
225.96	-37.500
226.34	-14.286
226.71	-88.889
227.08	-25.000
227.46	1800.000
227.83	-100.000
228.21	-250.000
228.58	350.000
228.95	-56.250
229.33	-1200.000
229.70	-160.000
230.08	-800.000
230.45	-91.667
230.82	-133.333
231.20	-1200.000
231.57	-750.000
231.95	900.000
232.32	-14.286
232.69	-100.000
233.07	-342.857
233.44	-650.000
233.81	-80.000
234.19	-88.889
234.56	-37.500
234.93	-21.875
235.31	-300.000
235.68	-135.714
236.05	-41.176
236.43	-45.455
236.80	0.000
237.17	0.000
237.55	-52.381
237.92	-77.273
238.29	-11.429
238.67	-8.824
239.04	-33.333
239.41	-48.387
239.79	-58.974
240.16	-11.905
240.53	-14.545
240.91	-28.205
241.28	-30.909
241.65	23.077
242.02	0.000
242.40	-6.557
242.77	3.030
243.14	-11.864
243.51	-17.143
243.89	-6.329
244.26	8.989
244.63	2.105
245.00	6.316
245.38	14.407
245.75	7.965
246.12	0.000
246.49	11.024
246.87	3.252
247.24	-11.864
247.61	1.695
247.98	1.408
248.36	-0.699
248.73	6.962
249.10	3.822
249.47	2.339
249.84	7.386
250.22	4.167
250.59	5.650
250.96	7.330
251.33	9.479
251.70	6.250
252.08	6.635
252.45	7.583
252.82	4.286
253.19	5.957
253.56	5.242
253.94	7.173
254.31	7.725
254.68	8.537
255.05	4.032
255.42	6.349
255.79	5.735
256.16	5.490
256.54	8.824
256.91	10.227
257.28	5.495
257.65	7.801
258.02	12.893
258.39	5.017
258.76	2.027
259.14	6.481
259.51	10.492
259.88	8.232
260.25	10.559
260.62	8.039
260.99	6.825
261.36	11.890
261.73	9.249
262.10	12.222
262.47	5.983
262.85	9.143
263.22	8.023
263.59	5.231
263.96	6.957
264.33	7.046
264.70	9.669
265.07	6.044
265.44	9.044
265.81	8.269
266.18	7.089
266.55	8.088
266.92	8.564
267.29	7.990
267.66	6.667
268.03	11.594
268.40	8.685
268.77	7.229
269.14	7.889
269.51	8.506
269.88	5.275
270.25	7.226
270.62	8.009
270.99	6.757
271.36	9.790
271.73	8.744
272.10	9.382
272.47	6.000
272.84	12.889
273.21	9.633
273.58	7.473
273.95	9.649
274.32	9.276
274.69	11.597
275.06	10.225
275.43	6.250
275.80	10.794
276.17	6.904
276.54	12.016
276.91	7.407
277.28	8.722
277.65	7.645
278.02	9.603
278.39	10.216
278.76	7.769
279.13	9.289
279.50	7.753
279.87	7.611
280.23	9.109
280.60	8.946
280.97	6.990
281.34	8.704
281.71	10.577
282.08	11.492
282.45	6.925
282.82	6.783
283.19	7.273
283.56	9.158
283.92	10.601
284.29	7.993
284.66	8.813
285.03	10.160
285.40	8.487
285.77	9.474
286.14	8.664
286.51	7.460
286.87	7.985
287.24	10.410
287.61	7.438
287.98	8.839
288.35	8.264
288.72	5.772
289.08	7.458
289.45	8.586
289.82	5.882
290.19	8.867
290.56	5.124
290.93	6.518
291.29	6.159
291.66	7.890
292.03	7.378
292.40	9.036
292.77	7.143
293.13	8.130
293.50	6.984
293.87	7.055
294.24	7.541
294.60	4.545
294.97	7.739
295.34	5.926
295.71	7.292
296.08	6.759
296.44	5.293
296.81	8.262
297.18	6.901
297.55	6.356
297.91	7.252
298.28	6.712
298.65	7.671
299.02	8.289
299.38	6.150
299.75	7.065
300.12	7.308
300.48	6.266
300.85	7.471
301.22	7.245
301.59	7.282
301.95	6.801
302.32	4.824
302.69	8.568
303.05	5.495
303.42	6.875
303.79	6.459
304.15	6.398
304.52	7.351
304.89	6.848
305.25	5.495
305.62	5.993
305.99	9.305
306.35	7.325
306.72	6.834
307.09	7.378
307.45	6.243
307.82	5.140
308.19	5.481
308.55	6.972
308.92	5.908
309.29	5.730
309.65	6.469
310.02	7.883
310.38	5.189
310.75	6.352
311.12	6.198
311.48	5.741
311.85	7.209
312.22	6.179
312.58	7.121
312.95	6.524
313.31	7.093
313.68	7.437
314.05	7.913
314.41	5.030
314.78	6.094
315.14	6.713
315.51	6.079
315.87	7.938
316.24	6.900
316.61	7.678
316.97	6.567
317.34	6.551
317.70	4.917
318.07	6.157
318.43	5.805
318.80	6.854
319.16	6.285
319.53	6.485
319.89	5.174
320.26	5.490
320.62	5.865
320.99	6.269
321.35	6.010
321.72	4.811
322.08	8.012
322.45	5.248
322.81	6.532
323.18	6.148
323.54	6.285
323.91	6.580
324.27	6.654
324.64	5.850
325.00	6.195
325.37	6.154
325.73	7.437
326.10	5.846
326.46	6.743
326.83	6.468
327.19	6.505
327.56	7.240
327.92	6.202
328.29	6.494
328.65	5.545
329.01	6.449
329.38	5.709
329.74	6.410
330.11	6.890
330.47	6.085
330.84	8.524
331.20	5.957
331.56	5.834
331.93	6.661
332.29	7.397
332.66	5.619
333.02	5.611
333.38	6.720
333.75	6.144
334.11	5.867
334.48	6.267
334.84	7.612
335.20	5.851
335.57	6.318
335.93	7.878
336.29	7.263
336.66	6.696
337.02	6.216
337.38	5.971
337.75	6.760
338.11	6.619
338.47	5.961
338.84	6.534
339.20	5.975
339.56	6.952
339.93	5.644
340.29	6.200
340.65	6.469
341.02	7.251
341.38	5.981
341.74	6.943
342.11	6.143
342.47	5.494
342.83	4.954
343.20	6.234
343.56	6.286
343.92	6.427
344.28	6.897
344.65	6.023
345.01	5.546
345.37	6.977
345.73	4.746
346.10	5.315
346.46	5.849
346.82	5.373
347.19	5.670
347.55	6.260
347.91	5.906
348.27	4.932
348.63	7.108
349.00	7.160
349.36	5.230
349.72	6.449
350.08	6.415
350.45	6.068
350.81	6.210
351.17	5.949
351.53	4.455
351.89	5.982
352.26	5.814
352.62	5.914
352.98	6.487
353.34	5.436
353.70	5.946
354.07	6.766
354.43	5.771
354.79	5.864
355.15	6.230
355.51	5.781
355.87	5.771
356.24	5.322
356.60	6.527
356.96	6.313
357.32	5.463
357.68	6.130
358.04	5.928
358.40	5.568
358.77	5.796
359.13	5.050
359.49	6.198
359.85	5.640
360.21	5.479
360.57	6.627
360.93	6.444
361.29	5.904
361.66	4.954
362.02	5.547
362.38	6.016
362.74	5.934
363.10	6.026
363.46	7.051
363.82	6.341
364.18	5.572
364.54	7.362
364.90	5.311
365.26	6.063
365.62	6.700
365.98	7.041
366.35	6.479
366.71	5.779
367.07	5.716
367.43	6.795
367.79	6.598
368.15	5.405
368.51	6.224
368.87	6.662
369.23	5.965
369.59	6.042
369.95	5.990
370.31	6.118
370.67	5.351
371.03	6.268
371.39	6.153
371.75	6.652
372.11	6.313
372.47	5.423
372.83	7.163
373.19	6.571
373.55	7.037
373.91	5.761
374.27	5.955
374.63	6.901
374.99	6.815
375.35	5.922
375.71	6.820
376.07	6.229
376.42	5.828
376.78	6.928
377.14	5.898
377.50	6.834
377.86	6.697
378.22	5.967
378.58	6.362
378.94	5.425
379.30	6.338
379.66	6.679
380.02	6.952
380.38	6.767
380.74	6.096
381.09	6.620
381.45	6.265
381.81	6.050
382.17	6.830
382.53	5.957
382.89	6.639
383.25	6.924
383.61	6.663
383.97	6.124
384.32	6.696
384.68	6.711
385.04	6.522
385.40	6.817
385.76	6.524
386.12	6.808
386.48	7.488
386.83	7.178
387.19	7.113
387.55	6.481
387.91	6.580
388.27	6.755
388.62	6.791
388.98	6.481
389.34	6.854
389.70	7.004
390.06	6.526
390.42	6.474
390.77	6.435
391.13	8.012
391.49	6.737
391.85	7.232
392.20	6.250
392.56	6.781
392.92	6.218
393.28	7.118
393.64	6.915
393.99	7.631
394.35	6.691
394.71	7.041
395.07	6.968
395.42	6.794
395.78	6.788
396.14	8.037
396.50	6.789
396.85	7.465
397.21	7.047
397.57	7.538
397.92	7.436
398.28	7.389
398.64	7.615
399.00	8.034
399.35	7.384
399.71	7.607
400.07	8.239
400.42	7.725
400.78	6.917
401.14	7.365
401.49	7.901
401.85	7.505
402.21	7.330
402.57	7.828
402.92	7.489
403.28	7.475
403.63	7.130
403.99	7.023
404.35	7.548
404.70	8.309
405.06	7.901
405.42	6.765
405.77	7.636
406.13	7.382
406.49	7.909
406.84	7.259
407.20	8.068
407.55	6.840
407.91	6.736
408.27	8.211
408.62	8.479
408.98	6.792
409.34	7.495
409.69	8.570
410.05	7.702
410.40	7.725
410.76	8.180
411.11	7.793
411.47	7.353
411.83	7.702
412.18	7.116
412.54	7.566
412.89	8.323
413.25	7.202
413.60	7.290
413.96	7.270
414.31	7.890
414.67	7.365
415.03	8.603
415.38	7.612
415.74	7.796
416.09	7.609
416.45	7.407
416.80	8.518
417.16	7.841
417.51	8.995
417.87	7.638
418.22	7.775
418.58	9.243
418.93	8.216
419.29	8.469
419.64	7.915
420.00	8.202
420.35	7.806
420.71	7.743
421.06	8.639
421.42	6.967
421.77	8.152
422.12	8.170
422.48	7.910
422.83	8.713
423.19	8.185
423.54	8.242
423.90	7.750
424.25	8.428
424.61	8.082
424.96	8.836
425.31	7.770
425.67	7.851
426.02	7.745
426.38	8.288
426.73	7.832
427.09	8.333
427.44	8.580
427.79	8.314
428.15	8.139
428.50	8.094
428.85	8.393
429.21	7.969
429.56	8.125
429.92	9.168
430.27	8.175
430.62	8.830
430.98	8.521
431.33	8.485
431.68	8.901
432.04	8.394
432.39	8.832
432.74	7.674
433.10	8.272
433.45	7.887
433.80	7.839
434.16	8.006
434.51	8.548
434.86	9.080
435.22	8.630
435.57	7.834
435.92	8.206
436.28	8.902
436.63	8.875
436.98	7.732
437.34	9.273
437.69	7.760
438.04	8.168
438.39	8.965
438.75	8.324
439.10	8.551
439.45	7.544
439.81	8.133
440.16	9.256
440.51	9.176
440.86	8.849
441.22	8.015
441.57	8.526
441.92	8.900
442.27	8.279
442.63	8.691
442.98	8.070
443.33	8.072
443.68	8.807
444.03	8.890
444.39	9.104
444.74	8.866
445.09	8.662
445.44	9.004
445.79	7.955
446.15	8.927
446.50	7.839
446.85	9.338
447.20	8.121
447.55	9.171
447.91	8.759
448.26	8.324
448.61	8.659
448.96	8.964
449.31	8.455
449.66	9.273
450.02	8.199
450.37	8.290
450.72	8.136
451.07	8.862
451.42	8.055
451.77	8.857
452.12	9.297
452.47	8.627
452.83	8.736
453.18	9.551
453.53	8.831
453.88	9.330
454.23	8.646
454.58	9.633
454.93	9.194
455.28	8.923
455.63	9.644
455.98	8.916
456.34	8.704
456.69	9.881
457.04	8.359
457.39	8.852
457.74	8.919
458.09	9.745
458.44	9.815
458.79	8.352
459.14	9.469
459.49	10.006
459.84	9.668
460.19	8.890
460.54	9.014
460.89	8.184
461.24	9.411
461.59	10.023
461.94	9.675
462.29	9.946
462.64	9.420
462.99	9.772
463.34	8.710
463.69	9.288
464.04	9.959
464.39	9.140
464.74	10.225
465.09	8.238
465.44	9.024
465.79	9.081
466.14	9.724
466.49	9.269
466.84	9.904
467.19	9.289
467.54	8.987
467.89	9.803
468.24	9.917
468.59	9.744
468.94	9.196
469.29	9.227
469.64	10.580
469.99	9.993
470.34	9.152
470.68	10.247
471.03	10.599
471.38	10.278
471.73	9.860
472.08	9.772
472.43	9.781
472.78	10.400
473.13	8.284
473.48	9.700
473.83	9.864
474.17	9.172
474.52	10.614
474.87	10.664
475.22	9.204
475.57	9.389
475.92	9.719
476.27	9.086
476.61	9.070
476.96	10.229
477.31	10.226
477.66	9.186
478.01	10.535
478.36	9.062
478.70	10.198
479.05	10.600
479.40	10.155
479.75	9.735
480.10	9.921
480.45	9.720
480.79	9.773
481.14	9.935
481.49	9.729
481.84	10.171
482.19	9.913
482.53	10.085
482.88	9.872
483.23	10.235
483.58	10.870
483.92	9.938
484.27	9.659
484.62	9.892
484.97	9.977
485.31	9.248
485.66	8.757
486.01	9.044
486.36	9.321
486.70	9.244
487.05	9.195
487.40	9.562
487.75	9.517
488.09	9.296
488.44	9.472
488.79	9.904
489.13	9.814
489.48	10.604
489.83	10.742
490.17	10.361
490.52	10.779
490.87	10.439
491.22	10.696
491.56	10.694
491.91	10.735
492.26	10.142
492.60	10.419
492.95	10.138
493.30	10.767
493.64	10.437
493.99	10.373
494.34	10.286
494.68	11.236
495.03	10.660
495.37	10.177
495.72	10.855
496.07	11.028
496.41	10.699
496.76	10.685
497.11	10.410
497.45	11.207
497.80	10.605
498.14	11.002
498.49	11.150
498.84	11.165
499.18	11.745
499.53	10.619
499.87	10.376
500.22	11.667
500.56	10.805
500.91	10.837
501.26	11.451
501.60	10.207
501.95	11.208
502.29	10.959
502.64	11.315
502.98	10.973
503.33	11.466
503.67	10.249
504.02	10.140
504.36	10.980
504.71	10.993
505.06	10.884
505.40	11.727
505.75	10.925
506.09	11.325
506.44	10.877
506.78	11.540
507.13	10.608
507.47	11.163
507.82	11.513
508.16	11.554
508.51	11.798
508.85	11.646
509.19	10.832
509.54	11.734
509.88	11.968
510.23	12.421
510.57	11.534
510.92	12.675
511.26	11.164
511.61	11.339
511.95	12.500
512.30	11.875
512.64	11.297
512.98	11.606
513.33	12.356
513.67	11.781
514.02	11.689
514.36	12.465
514.70	12.677
515.05	12.064
515.39	12.341
515.74	12.973
516.08	13.314
516.42	12.861
516.77	12.536
517.11	12.071
517.46	12.440
517.80	12.936
518.14	12.742
518.49	12.074
518.83	11.810
519.17	12.789
519.52	12.840
519.86	13.321
520.20	12.347
520.55	12.492
520.89	12.336
521.23	13.919
521.58	12.915
521.92	13.616
522.26	13.270
522.61	12.991
522.95	12.508
523.29	13.793
523.64	12.680
523.98	13.749
524.32	13.074
524.66	12.981
525.01	12.203
525.35	13.595
525.69	13.142
526.04	13.446
526.38	14.131
526.72	12.261
527.06	14.128
527.41	13.201
527.75	13.069
528.09	14.494
528.43	12.918
528.78	13.882
529.12	13.828
529.46	13.466
529.80	12.782
530.15	14.424
530.49	13.325
530.83	14.145
531.17	12.458
531.51	14.066
531.86	13.825
532.20	13.900
532.54	14.572
532.88	13.702
533.22	13.436
533.57	14.230
533.91	13.109
534.25	13.325
534.59	13.429
534.93	13.441
535.27	14.223
535.62	15.090
535.96	13.510
536.30	13.351
536.64	14.210
536.98	14.336
537.32	13.753
537.66	14.257
538.01	13.471
538.35	13.919
538.69	13.971
539.03	12.999
539.37	13.041
539.71	14.143
540.05	13.914
540.39	13.573
540.73	14.167
541.07	14.139
541.42	13.572
541.76	13.355
542.10	14.855
542.44	14.390
542.78	13.297
543.12	13.917
543.46	13.562
543.80	13.043
544.14	13.432
544.48	14.173
544.82	13.870
545.16	14.017
545.50	13.190
545.84	14.186
546.18	13.662
546.52	13.656
546.86	14.459
547.20	15.260
547.54	13.774
547.88	14.731
548.22	13.237
548.56	12.892
548.90	13.747
549.24	13.735
549.58	14.255
549.92	14.558
550.26	13.728
550.60	14.723
550.94	13.942
551.28	13.695
551.62	13.959
551.96	14.544
552.30	14.495
552.64	14.075
552.98	15.067
553.32	13.636
553.66	14.275
554.00	13.930
554.34	13.502
554.68	14.181
555.02	14.327
555.36	14.306
555.69	13.825
556.03	13.263
556.37	13.442
556.71	14.173
557.05	14.117
557.39	13.512
557.73	14.515
558.07	14.092
558.41	13.239
558.75	14.905
559.08	13.385
559.42	16.003
559.76	14.571
560.10	14.914
560.44	15.462
560.78	13.361
561.12	14.148
561.45	14.247
561.79	12.544
562.13	14.446
562.47	14.776
562.81	13.861
563.15	13.576
563.48	14.375
563.82	14.199
564.16	13.387
564.50	13.642
564.84	13.624
565.17	13.329
565.51	14.016
565.85	13.252
566.19	14.032
566.52	13.894
566.86	13.843
567.20	15.012
567.54	13.940
567.88	12.619
568.21	13.535
568.55	13.362
568.89	12.376
569.23	12.355
569.56	11.896
569.90	12.864
570.24	12.326
570.57	11.986
570.91	11.527
571.25	11.900
571.59	12.020
571.92	11.815
572.26	11.744
572.60	11.852
572.93	11.768
573.27	11.067
573.61	11.012
573.95	11.655
574.28	11.056
574.62	11.337
574.96	11.142
575.29	11.179
575.63	11.441
575.97	11.084
576.30	11.291
576.64	11.175
576.98	10.998
577.31	11.061
577.65	11.228
577.98	11.065
578.32	10.735
578.66	10.834
578.99	10.939
579.33	11.002
579.67	11.007
580.00	10.863
580.34	10.837
580.67	11.498
581.01	10.969
581.35	10.856
581.68	10.744
582.02	10.813
582.35	10.444
582.69	11.008
583.02	11.074
583.36	11.201
583.70	10.753
584.03	10.991
584.37	10.961
584.70	11.129
585.04	10.709
585.37	10.668
585.71	10.910
586.04	10.917
586.38	11.200
586.72	11.556
587.05	11.328
587.39	11.117
587.72	11.070
588.06	11.142
588.39	10.624
588.73	11.406
589.06	11.861
589.40	12.092
589.73	11.756
590.07	11.763
590.40	11.734
590.73	11.595
591.07	12.131
591.40	12.132
591.74	12.076
592.07	12.342
592.41	11.932
592.74	11.914
593.08	11.981
593.41	11.217
593.75	11.210
594.08	12.150
594.41	12.163
594.75	12.269
595.08	11.805
595.42	11.850
595.75	11.172
596.09	11.835
596.42	12.070
596.75	12.031
597.09	12.956
597.42	12.003
597.75	11.957
598.09	12.110
598.42	12.108
598.76	11.877
599.09	12.036
599.42	11.111
599.76	11.665
600.09	12.176
600.42	12.305
600.76	12.128
601.09	11.774
601.42	11.318
601.76	12.305
602.09	11.984
602.42	11.646
602.76	11.757
603.09	11.774
603.42	11.684
603.76	11.927
604.09	12.335
604.42	12.115
604.76	11.819
605.09	12.161
605.42	12.855
605.75	11.772
606.09	12.370
606.42	11.144
606.75	12.795
607.09	12.042
607.42	12.588
607.75	12.141
608.08	12.698
608.42	11.968
608.75	11.963
609.08	12.518
609.41	11.809
609.75	12.921
610.08	12.353
610.41	12.289
610.74	12.959
611.07	12.830
611.41	12.506
611.74	12.494
612.07	13.265
612.40	12.473
612.73	12.332
613.07	12.328
613.40	13.684
613.73	12.916
614.06	12.466
614.39	13.247
614.72	11.397
615.06	12.880
615.39	12.263
615.72	12.873
616.05	11.982
616.38	12.536
616.71	13.273
617.05	13.269
617.38	13.313
617.71	13.268
618.04	13.230
618.37	12.264
618.70	13.429
619.03	13.406
619.36	13.460
619.69	14.645
620.03	13.705
620.36	13.643
620.69	14.286
621.02	13.927
621.35	13.548
621.68	13.607
622.01	14.159
622.34	13.354
622.67	13.984
623.00	13.849
623.33	14.030
623.66	13.589
623.99	13.534
624.32	13.988
624.65	13.907
624.99	13.966
625.32	13.698
625.65	14.685
625.98	13.380
626.31	14.111
626.64	14.812
626.97	14.384
627.30	14.638
627.63	14.076
627.96	14.534
628.29	14.154
628.62	14.327
628.95	14.961
629.28	14.944
629.61	14.328
629.94	15.028
630.26	15.805
630.59	16.080
630.92	14.114
631.25	16.230
631.58	15.767
631.91	14.787
632.24	15.111
632.57	16.778
632.90	15.632
633.23	14.953
633.56	15.673
633.89	16.509
634.22	15.821
634.55	17.308
634.88	16.445
635.20	15.106
635.53	16.031
635.86	15.617
636.19	16.728
636.52	17.085
636.85	14.561
637.18	13.250
637.51	17.100
637.83	17.976
638.16	15.526
638.49	17.379
638.82	16.602
639.15	17.510
639.48	14.397
639.81	19.779
640.13	16.081
640.46	16.952
640.79	17.927
641.12	17.207
641.45	18.077
641.77	15.868
642.10	16.767
642.43	17.451
642.76	17.480
643.09	17.778
643.41	19.048
643.74	18.760
644.07	17.941
644.40	18.476
644.73	15.677
645.05	17.863
645.38	19.868
