SpectraSuite Data File
++++++++++++++++++++++++++++++++++++
Date: Sat May 16 11:33:22 PDT 2015
User: schluterlab
Dark Spectrum Present: Yes
Reference Spectrum Present: Yes
Number of Sampled Component Spectra: 1
Spectrometers: USB2E3373
Integration Time (usec): 3000 (USB2E3373)
Spectra Averaged: 3 (USB2E3373)
Boxcar Smoothing: 0 (USB2E3373)
Correct for Electrical Dark: No (USB2E3373)
Strobe/Lamp Enabled: No (USB2E3373)
Correct for Detector Non-linearity: No (USB2E3373)
Correct for Stray Light: No (USB2E3373)
Number of Pixels in Processed Spectrum: 2048
>>>>>Begin Processed Spectral Data<<<<<
178.53	0.000
178.91	86.667
179.29	766.667
179.67	-900.000
180.04	-92.308
180.42	1400.000
180.80	400.000
181.18	375.000
181.56	-100.000
181.94	1200.000
182.31	575.000
182.69	-84.615
183.07	-566.667
183.45	1850.000
183.83	600.000
184.20	-257.143
184.58	-187.500
184.96	-525.000
185.34	143.750
185.72	-375.000
186.09	166.667
186.47	-137.500
186.85	-200.000
187.23	-37.500
187.61	-250.000
187.98	-137.500
188.36	-175.000
188.74	-125.000
189.12	1300.000
189.49	357.143
189.87	-91.667
190.25	125.000
190.63	-107.143
191.00	-155.556
191.38	300.000
191.76	-26.667
192.14	520.000
192.51	-360.000
192.89	-266.667
193.27	0.000
193.65	-11.111
194.02	-142.857
194.40	833.333
194.78	-190.000
195.15	-2100.000
195.53	-163.636
195.91	-350.000
196.29	460.000
196.66	-333.333
197.04	1400.000
197.42	100.000
197.79	13.333
198.17	-366.667
198.55	-700.000
198.92	-2400.000
199.30	337.500
199.68	-100.000
200.05	-100.000
200.43	-300.000
200.81	-2000.000
201.18	-108.333
201.56	185.714
201.94	-80.000
202.31	45.455
202.69	-40.000
203.07	-50.000
203.44	600.000
203.82	-300.000
204.19	-500.000
204.57	-400.000
204.95	-1300.000
205.32	-50.000
205.70	500.000
206.08	-1300.000
206.45	-11.111
206.83	-1150.000
207.20	-750.000
207.58	-933.333
207.96	-433.333
208.33	-112.500
208.71	-177.778
209.08	260.000
209.46	-157.143
209.84	700.000
210.21	0.000
210.59	-5.000
210.96	1400.000
211.34	-300.000
211.71	0.000
212.09	575.000
212.46	400.000
212.84	-2500.000
213.22	333.333
213.59	183.333
213.97	-77.778
214.34	120.000
214.72	30.000
215.09	-333.333
215.47	-150.000
215.84	-70.000
216.22	-200.000
216.59	-6.667
216.97	-450.000
217.34	950.000
217.72	-214.286
218.09	-316.667
218.47	-257.143
218.84	200.000
219.22	-171.429
219.59	0.000
219.97	242.857
220.34	500.000
220.72	325.000
221.09	-92.308
221.47	0.000
221.84	433.333
222.22	-800.000
222.59	1000.000
222.97	-225.000
223.34	-1050.000
223.72	-233.333
224.09	-64.286
224.46	-375.000
224.84	-71.429
225.21	-285.714
225.59	-109.091
225.96	-187.500
226.34	-85.714
226.71	-100.000
227.08	-10.000
227.46	2900.000
227.83	-85.714
228.21	-150.000
228.58	900.000
228.95	-56.250
229.33	-2300.000
229.70	-300.000
230.08	-400.000
230.45	-41.667
230.82	-116.667
231.20	-700.000
231.57	-1100.000
231.95	900.000
232.32	-42.857
232.69	-66.667
233.07	-171.429
233.44	-600.000
233.81	-86.667
234.19	-166.667
234.56	-25.000
234.93	-25.000
235.31	-357.143
235.68	-178.571
236.05	-94.118
236.43	-4.545
236.80	-22.581
237.17	4.167
237.55	-38.095
237.92	-40.909
238.29	-31.429
238.67	-11.765
239.04	-5.556
239.41	-51.613
239.79	-28.205
240.16	-21.429
240.53	-5.455
240.91	10.256
241.28	0.000
241.65	1.538
242.02	3.279
242.40	1.639
242.77	10.606
243.14	-10.169
243.51	-8.571
243.89	-5.063
244.26	-4.494
244.63	0.000
245.00	13.684
245.38	5.932
245.75	9.735
246.12	-2.400
246.49	9.449
246.87	5.691
247.24	-1.695
247.61	-2.542
247.98	-2.113
248.36	6.993
248.73	6.329
249.10	3.185
249.47	6.433
249.84	2.841
250.22	1.190
250.59	5.650
250.96	2.094
251.33	6.635
251.70	4.808
252.08	8.057
252.45	5.213
252.82	5.238
253.19	5.532
253.56	7.661
253.94	5.485
254.31	4.721
254.68	9.756
255.05	5.645
255.42	11.111
255.79	5.018
256.16	7.843
256.54	8.456
256.91	7.576
257.28	-1.465
257.65	4.255
258.02	13.208
258.39	8.027
258.76	6.081
259.14	6.173
259.51	10.492
259.88	6.402
260.25	10.870
260.62	11.254
260.99	4.154
261.36	7.012
261.73	9.827
262.10	8.889
262.47	9.402
262.85	9.143
263.22	9.456
263.59	6.462
263.96	8.696
264.33	10.027
264.70	11.878
265.07	7.418
265.44	7.235
265.81	5.685
266.18	6.076
266.55	8.088
266.92	8.816
267.29	10.169
267.66	11.111
268.03	11.594
268.40	9.390
268.77	10.120
269.14	10.209
269.51	9.885
269.88	7.110
270.25	10.490
270.62	5.721
270.99	9.459
271.36	10.956
271.73	8.744
272.10	9.153
272.47	7.111
272.84	10.889
273.21	10.780
273.58	10.549
273.95	8.114
274.32	10.633
274.69	9.628
275.06	12.270
275.43	7.589
275.80	10.998
276.17	11.506
276.54	11.813
276.91	9.053
277.28	8.722
277.65	8.264
278.02	8.977
278.39	8.251
278.76	8.167
279.13	10.277
279.50	10.736
279.87	10.571
280.23	9.312
280.60	7.952
280.97	6.990
281.34	7.930
281.71	10.385
282.08	8.065
282.45	7.536
282.82	9.302
283.19	7.273
283.56	11.905
283.92	11.661
284.29	9.294
284.66	9.532
285.03	8.378
285.40	9.779
285.77	9.649
286.14	9.928
286.51	8.881
286.87	8.530
287.24	11.263
287.61	9.421
287.98	8.666
288.35	9.752
288.72	8.319
289.08	6.102
289.45	8.249
289.82	8.651
290.19	10.837
290.56	7.438
290.93	8.744
291.29	6.483
291.66	8.213
292.03	10.361
292.40	7.078
292.77	8.230
293.13	8.130
293.50	9.361
293.87	7.975
294.24	7.541
294.60	5.000
294.97	10.319
295.34	9.185
295.71	7.589
296.08	7.988
296.44	8.298
296.81	6.695
297.18	7.887
297.55	8.898
297.91	9.763
298.28	7.671
298.65	6.695
299.02	8.957
299.38	8.556
299.75	8.424
300.12	8.974
300.48	8.568
300.85	6.029
301.22	6.468
301.59	8.192
301.95	9.572
302.32	6.780
302.69	8.446
303.05	7.937
303.42	7.000
303.79	8.373
304.15	8.057
304.52	6.301
304.89	8.501
305.25	8.791
305.62	6.463
305.99	10.247
306.35	8.213
306.72	7.062
307.09	8.400
307.45	8.059
307.82	7.263
308.19	7.047
308.55	9.041
308.92	6.767
309.29	8.108
309.65	9.756
310.02	9.611
310.38	7.568
310.75	9.631
311.12	9.711
311.48	9.603
311.85	9.269
312.22	10.093
312.58	10.885
312.95	9.990
313.31	10.090
313.68	11.156
314.05	10.682
314.41	9.658
314.78	10.190
315.14	12.734
315.51	12.361
315.87	12.197
316.24	12.342
316.61	12.956
316.97	14.328
317.34	13.295
317.70	12.523
318.07	14.366
318.43	12.828
318.80	16.432
319.16	13.227
319.53	14.474
319.89	14.111
320.26	16.569
320.62	15.000
320.99	16.915
321.35	13.695
321.72	16.479
322.08	17.606
322.45	17.327
322.81	17.483
323.18	19.020
323.54	17.560
323.91	17.609
324.27	18.441
324.64	19.196
325.00	19.110
325.37	20.090
325.73	20.997
326.10	19.398
326.46	20.665
326.83	22.298
327.19	21.268
327.56	22.998
327.92	23.280
328.29	21.991
328.65	21.455
329.01	22.527
329.38	22.302
329.74	23.168
330.11	22.937
330.47	24.160
330.84	24.381
331.20	24.097
331.56	22.242
331.93	24.512
332.29	24.201
332.66	24.144
333.02	22.353
333.38	23.925
333.75	24.577
334.11	24.622
334.48	22.860
334.84	24.759
335.20	24.468
335.57	24.278
335.93	24.709
336.29	25.155
336.66	22.819
337.02	24.595
337.38	24.866
337.75	23.968
338.11	25.313
338.47	24.555
338.84	24.955
339.20	24.077
339.56	25.312
339.93	24.868
340.29	24.535
340.65	24.563
341.02	25.295
341.38	24.263
341.74	25.064
342.11	25.427
342.47	23.348
342.83	24.937
343.20	25.278
343.56	23.755
343.92	25.876
344.28	25.736
344.65	23.845
345.01	24.538
345.37	25.166
345.73	24.059
346.10	23.222
346.46	23.477
346.82	24.539
347.19	26.130
347.55	24.559
347.91	24.803
348.27	23.548
348.63	24.475
349.00	24.264
349.36	24.122
349.72	24.522
350.08	25.581
350.45	23.956
350.81	23.965
351.17	24.759
351.53	23.628
351.89	24.414
352.26	24.264
352.62	25.499
352.98	24.130
353.34	25.020
353.70	23.784
354.07	25.020
354.43	25.217
354.79	25.357
355.15	24.441
355.51	24.844
355.87	24.427
356.24	23.670
356.60	25.866
356.96	25.866
357.32	24.941
357.68	24.368
358.04	24.711
358.40	24.594
358.77	25.425
359.13	25.784
359.49	24.717
359.85	23.933
360.21	25.419
360.57	25.226
360.93	25.185
361.29	25.037
361.66	23.476
362.02	25.370
362.38	25.605
362.74	25.788
363.10	25.610
363.46	25.926
363.82	25.146
364.18	25.326
364.54	26.733
364.90	25.367
365.26	24.893
365.62	26.515
365.98	26.387
366.35	25.915
366.71	25.018
367.07	25.688
367.43	26.150
367.79	25.498
368.15	24.964
368.51	26.503
368.87	27.541
369.23	27.158
369.59	26.528
369.95	26.568
370.31	27.567
370.67	25.669
371.03	25.802
371.39	26.662
371.75	27.468
372.11	28.336
372.47	26.681
372.83	27.191
373.19	26.643
373.55	27.797
373.91	26.671
374.27	27.995
374.63	27.536
374.99	28.651
375.35	26.851
375.71	27.481
376.07	28.337
376.42	27.881
376.78	28.497
377.14	29.153
377.50	28.369
377.86	28.088
378.22	28.455
378.58	28.289
378.94	28.730
379.30	29.007
379.66	29.569
380.02	29.947
380.38	29.426
380.74	28.664
381.09	29.291
381.45	29.415
381.81	29.643
382.17	29.386
382.53	28.207
382.89	29.187
383.25	29.982
383.61	30.012
383.97	30.741
384.32	30.350
384.68	30.351
385.04	30.616
385.40	31.589
385.76	30.793
386.12	30.231
386.48	31.250
386.83	30.245
387.19	30.663
387.55	31.072
387.91	31.120
388.27	31.001
388.62	30.769
388.98	31.254
389.34	30.294
389.70	31.060
390.06	31.262
390.42	32.115
390.77	32.429
391.13	32.609
391.49	32.564
391.85	31.796
392.20	31.371
392.56	31.582
392.92	32.402
393.28	32.032
393.64	33.674
393.99	32.431
394.35	33.029
394.71	31.624
395.07	33.082
395.42	32.002
395.78	33.061
396.14	33.396
396.50	32.783
396.85	32.387
397.21	32.746
397.57	32.280
397.92	31.850
398.28	34.111
398.64	32.362
399.00	33.933
399.35	33.709
399.71	34.379
400.07	34.149
400.42	34.307
400.78	32.737
401.14	33.353
401.49	34.198
401.85	34.960
402.21	34.207
402.57	32.524
402.92	34.298
403.28	33.885
403.63	33.014
403.99	33.810
404.35	33.635
404.70	34.348
405.06	33.968
405.42	32.718
405.77	33.314
406.13	34.412
406.49	33.913
406.84	32.933
407.20	35.336
407.55	34.832
407.91	33.808
408.27	35.110
408.62	34.576
408.98	35.779
409.34	33.882
409.69	33.585
410.05	34.324
410.40	35.684
410.76	35.862
411.11	34.539
411.47	34.591
411.83	35.513
412.18	35.520
412.54	34.655
412.89	35.358
413.25	34.711
413.60	34.569
413.96	34.997
414.31	36.330
414.67	34.286
415.03	34.994
415.38	35.459
415.74	35.631
416.09	34.719
416.45	36.640
416.80	37.061
417.16	35.282
417.51	35.653
417.87	36.052
418.22	36.536
418.58	36.329
418.93	36.603
419.29	35.822
419.64	37.312
420.00	37.485
420.35	37.611
420.71	37.395
421.06	37.811
421.42	36.241
421.77	37.465
422.12	37.941
422.48	37.467
422.83	37.528
423.19	36.915
423.54	37.695
423.90	37.305
424.25	37.443
424.61	38.420
424.96	39.438
425.31	38.849
425.67	38.281
426.02	37.751
426.38	39.625
426.73	39.626
427.09	39.706
427.44	37.955
427.79	38.372
428.15	39.437
428.50	40.000
428.85	39.928
429.21	39.015
429.56	39.115
429.92	40.030
430.27	39.133
430.62	39.498
430.98	39.049
431.33	40.768
431.68	41.019
432.04	40.123
432.39	40.627
432.74	40.588
433.10	39.899
433.45	40.184
433.80	40.817
434.16	40.731
434.51	40.712
434.86	41.886
435.22	41.314
435.57	40.575
435.92	40.914
436.28	41.365
436.63	39.796
436.98	40.550
437.34	41.642
437.69	41.715
438.04	41.350
438.39	41.276
438.75	42.375
439.10	42.254
439.45	41.581
439.81	41.988
440.16	41.624
440.51	41.824
440.86	42.626
441.22	41.294
441.57	42.158
441.92	42.353
442.27	43.182
442.63	42.221
442.98	42.494
443.33	44.042
443.68	42.262
444.03	42.387
444.39	43.612
444.74	42.841
445.09	42.818
445.44	43.444
445.79	43.090
446.15	44.414
446.50	42.787
446.85	43.202
447.20	43.871
447.55	42.762
447.91	44.189
448.26	43.520
448.61	43.577
448.96	44.370
449.31	43.856
449.66	44.820
450.02	42.604
450.37	43.188
450.72	44.237
451.07	44.940
451.42	44.238
451.77	45.302
452.12	43.564
452.47	44.773
452.83	43.739
453.18	44.592
453.53	43.657
453.88	45.395
454.23	43.894
454.58	46.240
454.93	45.088
455.28	44.933
455.63	45.332
455.98	44.819
456.34	44.155
456.69	45.278
457.04	44.622
457.39	44.139
457.74	43.414
458.09	45.128
458.44	45.554
458.79	44.563
459.14	45.009
459.49	45.885
459.84	44.913
460.19	44.749
460.54	43.920
460.89	44.114
461.24	45.780
461.59	45.369
461.94	45.258
462.29	44.491
462.64	45.520
462.99	46.452
463.34	45.307
463.69	45.229
464.04	44.054
464.39	44.504
464.74	43.558
465.09	44.317
465.44	44.388
465.79	44.952
466.14	46.318
466.49	45.596
466.84	44.958
467.19	45.200
467.54	44.114
467.89	45.006
468.24	44.477
468.59	44.597
468.94	44.695
469.29	43.925
469.64	44.946
469.99	44.632
470.34	45.023
470.68	46.076
471.03	46.387
471.38	45.278
471.73	45.385
472.08	44.578
472.43	44.144
472.78	44.800
473.13	45.063
473.48	45.437
473.83	45.037
474.17	45.669
474.52	47.315
474.87	44.406
475.22	44.779
475.57	44.778
475.92	44.654
476.27	44.171
476.61	45.239
476.96	44.941
477.31	45.479
477.66	45.158
478.01	44.787
478.36	44.474
478.70	45.115
479.05	45.592
479.40	44.974
479.75	43.833
480.10	44.395
480.45	43.133
480.79	45.212
481.14	45.008
481.49	44.482
481.84	42.950
482.19	44.678
482.53	44.602
482.88	44.756
483.23	44.272
483.58	44.912
483.92	44.768
484.27	43.376
484.62	44.665
484.97	43.920
485.31	42.848
485.66	41.334
486.01	42.500
486.36	43.239
486.70	44.207
487.05	43.250
487.40	43.002
487.75	42.953
488.09	42.063
488.44	42.896
488.79	42.872
489.13	42.982
489.48	43.679
489.83	42.838
490.17	42.838
490.52	44.475
490.87	43.187
491.22	42.971
491.56	43.565
491.91	44.227
492.26	43.726
492.60	43.911
492.95	44.027
493.30	43.973
493.64	42.924
493.99	43.881
494.34	44.333
494.68	43.399
495.03	44.025
495.37	44.297
495.72	43.468
496.07	44.862
496.41	43.863
496.76	43.927
497.11	44.136
497.45	44.540
497.80	44.572
498.14	44.450
498.49	43.898
498.84	42.913
499.18	43.908
499.53	44.472
499.87	43.098
500.22	44.265
500.56	43.772
500.91	43.448
501.26	43.426
501.60	43.332
501.95	44.348
502.29	42.891
502.64	43.659
502.98	43.507
503.33	43.609
503.67	43.966
504.02	42.298
504.36	44.314
504.71	44.124
505.06	43.285
505.40	43.862
505.75	43.902
506.09	44.590
506.44	42.757
506.78	43.552
507.13	43.409
507.47	44.288
507.82	43.108
508.16	43.834
508.51	43.534
508.85	43.478
509.19	43.537
509.54	43.710
509.88	44.096
510.23	43.501
510.57	44.021
510.92	42.213
511.26	43.062
511.61	42.927
511.95	43.696
512.30	43.321
512.64	42.627
512.98	43.784
513.33	43.767
513.67	43.216
514.02	44.072
514.36	44.100
514.70	44.143
515.05	43.682
515.39	42.618
515.74	43.688
516.08	42.767
516.42	43.116
516.77	43.501
517.11	43.478
517.46	44.019
517.80	44.826
518.14	43.841
518.49	42.977
518.83	43.739
519.17	43.339
519.52	43.204
519.86	43.369
520.20	43.704
520.55	44.800
520.89	43.707
521.23	43.162
521.58	43.762
521.92	43.889
522.26	43.111
522.61	43.156
522.95	43.523
523.29	43.135
523.64	42.723
523.98	43.221
524.32	44.626
524.66	44.286
525.01	43.288
525.35	44.459
525.69	43.787
526.04	43.538
526.38	44.812
526.72	44.061
527.06	43.294
527.41	43.828
527.75	42.442
528.09	43.878
528.43	43.672
528.78	43.028
529.12	43.150
529.46	44.008
529.80	43.254
530.15	42.627
530.49	42.238
530.83	43.418
531.17	43.030
531.51	43.871
531.86	43.252
532.20	43.185
532.54	43.650
532.88	43.676
533.22	44.184
533.57	43.995
533.91	42.385
534.25	43.243
534.59	42.723
534.93	42.502
535.27	43.235
535.62	43.223
535.96	43.051
536.30	42.932
536.64	43.293
536.98	43.997
537.32	42.502
537.66	42.974
538.01	43.574
538.35	43.311
538.69	43.249
539.03	42.519
539.37	43.446
539.71	43.296
540.05	43.454
540.39	43.767
540.73	43.746
541.07	44.194
541.42	42.201
541.76	41.462
542.10	43.282
542.44	42.905
542.78	42.877
543.12	42.430
543.46	41.301
543.80	42.943
544.14	42.042
544.48	42.454
544.82	43.234
545.16	42.656
545.50	41.655
545.84	43.811
546.18	44.244
546.52	43.599
546.86	42.735
547.20	43.601
547.54	42.700
547.88	43.862
548.22	41.547
548.56	44.155
548.90	43.868
549.24	43.167
549.58	43.472
549.92	42.473
550.26	44.220
550.60	41.821
550.94	41.752
551.28	42.739
551.62	43.722
551.96	43.560
552.30	43.484
552.64	42.083
552.98	43.728
553.32	42.785
553.66	43.331
554.00	44.136
554.34	44.188
554.68	42.690
555.02	44.428
555.36	42.775
555.69	42.908
556.03	42.667
556.37	42.461
556.71	43.665
557.05	44.494
557.39	42.168
557.73	44.712
558.07	43.632
558.41	43.231
558.75	43.954
559.08	42.023
559.42	43.721
559.76	43.482
560.10	44.072
560.44	44.436
560.78	42.728
561.12	42.788
561.45	42.945
561.79	42.857
562.13	42.917
562.47	42.367
562.81	43.564
563.15	43.037
563.48	43.815
563.82	43.881
564.16	41.853
564.50	43.347
564.84	42.725
565.17	42.971
565.51	43.155
565.85	43.949
566.19	43.478
566.52	42.857
566.86	43.426
567.20	43.705
567.54	43.532
567.88	41.597
568.21	43.736
568.55	42.471
568.89	41.252
569.23	41.416
569.56	41.488
569.90	41.975
570.24	41.864
570.57	40.281
570.91	40.632
571.25	40.791
571.59	40.899
571.92	40.685
572.26	40.354
572.60	40.925
572.93	40.260
573.27	39.878
573.61	39.748
573.95	40.553
574.28	39.202
574.62	40.061
574.96	39.631
575.29	39.405
575.63	40.111
575.97	39.590
576.30	39.874
576.64	40.339
576.98	39.413
577.31	39.881
577.65	40.148
577.98	39.942
578.32	39.529
578.66	40.084
578.99	40.053
579.33	39.990
579.67	39.716
580.00	39.484
580.34	39.628
580.67	40.034
581.01	39.899
581.35	39.617
581.68	39.179
582.02	40.132
582.35	39.773
582.69	40.270
583.02	40.252
583.36	39.609
583.70	40.169
584.03	40.167
584.37	40.622
584.70	39.968
585.04	39.443
585.37	38.926
585.71	39.163
586.04	40.147
586.38	40.364
586.72	39.656
587.05	40.640
587.39	39.934
587.72	40.483
588.06	40.605
588.39	40.188
588.73	40.917
589.06	40.537
589.40	41.532
589.73	40.262
590.07	40.605
590.40	40.701
590.73	40.624
591.07	40.123
591.40	42.461
591.74	41.095
592.07	41.757
592.41	41.274
592.74	41.122
593.08	41.538
593.41	41.086
593.75	40.224
594.08	41.445
594.41	41.146
594.75	40.770
595.08	42.030
595.42	41.763
595.75	41.161
596.09	41.211
596.42	41.326
596.75	41.138
597.09	41.273
597.42	40.375
597.75	41.763
598.09	41.889
598.42	41.140
598.76	41.362
599.09	40.963
599.42	41.061
599.76	41.336
600.09	41.260
600.42	41.246
600.76	41.808
601.09	41.436
601.42	40.879
601.76	40.771
602.09	40.613
602.42	41.811
602.76	41.670
603.09	41.371
603.42	40.935
603.76	41.364
604.09	40.689
604.42	41.216
604.76	41.343
605.09	40.958
605.42	41.667
605.75	41.699
606.09	40.847
606.42	41.517
606.75	41.134
607.09	41.773
607.42	41.725
607.75	41.722
608.08	41.573
608.42	42.006
608.75	41.682
609.08	41.939
609.41	42.103
609.75	42.857
610.08	42.353
610.41	41.205
610.74	41.151
611.07	42.241
611.41	41.957
611.74	42.468
612.07	42.803
612.40	41.791
612.73	41.896
613.07	42.653
613.40	43.897
613.73	42.452
614.06	42.339
614.39	44.138
614.72	42.011
615.06	42.065
615.39	41.725
615.72	42.640
616.05	42.352
616.38	43.993
616.71	42.883
617.05	43.727
617.38	43.653
617.71	43.428
618.04	43.727
618.37	44.088
618.70	43.937
619.03	43.196
619.36	43.199
619.69	44.078
620.03	42.218
620.36	44.233
620.69	43.862
621.02	44.140
621.35	45.000
621.68	45.574
622.01	44.822
622.34	44.643
622.67	44.141
623.00	44.529
623.33	45.149
623.66	43.722
623.99	43.534
624.32	43.824
624.65	42.899
624.99	45.183
625.32	44.162
625.65	45.455
625.98	43.740
626.31	46.248
626.64	45.272
626.97	45.291
627.30	44.681
627.63	43.610
627.96	46.562
628.29	46.599
628.62	45.081
628.95	46.949
629.28	44.925
629.61	45.437
629.94	45.463
630.26	45.924
630.59	46.734
630.92	45.045
631.25	44.254
631.58	44.656
631.91	45.957
632.24	47.222
632.57	48.111
632.90	48.276
633.23	46.846
633.56	44.678
633.89	45.991
634.22	45.455
634.55	46.995
