SpectraSuite Data File
++++++++++++++++++++++++++++++++++++
Date: Sat May 16 11:44:28 PDT 2015
User: schluterlab
Dark Spectrum Present: Yes
Reference Spectrum Present: Yes
Number of Sampled Component Spectra: 1
Spectrometers: USB2E3373
Integration Time (usec): 3000 (USB2E3373)
Spectra Averaged: 3 (USB2E3373)
Boxcar Smoothing: 0 (USB2E3373)
Correct for Electrical Dark: No (USB2E3373)
Strobe/Lamp Enabled: No (USB2E3373)
Correct for Detector Non-linearity: No (USB2E3373)
Correct for Stray Light: No (USB2E3373)
Number of Pixels in Processed Spectrum: 2048
>>>>>Begin Processed Spectral Data<<<<<
178.53	0.000
178.91	146.667
179.29	600.000
179.67	-500.000
180.04	-100.000
180.42	800.000
180.80	375.000
181.18	575.000
181.56	-25.000
181.94	900.000
182.31	550.000
182.69	-69.231
183.07	-633.333
183.45	1650.000
183.83	600.000
184.20	-285.714
184.58	-212.500
184.96	-400.000
185.34	162.500
185.72	-575.000
186.09	283.333
186.47	-137.500
186.85	-200.000
187.23	-175.000
187.61	-50.000
187.98	-250.000
188.36	-237.500
188.74	-62.500
189.12	700.000
189.49	242.857
189.87	-25.000
190.25	375.000
190.63	-50.000
191.00	-233.333
191.38	420.000
191.76	-6.667
192.14	620.000
192.51	-340.000
192.89	-233.333
193.27	0.000
193.65	-100.000
194.02	-271.429
194.40	666.667
194.78	-70.000
195.15	-2000.000
195.53	-90.909
195.91	-366.667
196.29	240.000
196.66	-566.667
197.04	2100.000
197.42	-25.000
197.79	13.333
198.17	-333.333
198.55	-600.000
198.92	-1200.000
199.30	312.500
199.68	-750.000
200.05	-111.111
200.43	-155.556
200.81	-2200.000
201.18	-83.333
201.56	142.857
201.94	-73.333
202.31	9.091
202.69	-120.000
203.07	-80.000
203.44	800.000
203.82	-450.000
204.19	-375.000
204.57	-175.000
204.95	-1400.000
205.32	-18.750
205.70	1400.000
206.08	-2100.000
206.45	-5.556
206.83	-700.000
207.20	-100.000
207.58	-533.333
207.96	-433.333
208.33	-225.000
208.71	-100.000
209.08	230.000
209.46	-171.429
209.84	700.000
210.21	0.000
210.59	40.000
210.96	1500.000
211.34	-150.000
211.71	-266.667
212.09	200.000
212.46	950.000
212.84	-2800.000
213.22	333.333
213.59	158.333
213.97	-88.889
214.34	250.000
214.72	-120.000
215.09	-233.333
215.47	-250.000
215.84	-190.000
216.22	-60.000
216.59	-73.333
216.97	-350.000
217.34	750.000
217.72	-128.571
218.09	-233.333
218.47	-200.000
218.84	228.571
219.22	-200.000
219.59	0.000
219.97	185.714
220.34	550.000
220.72	250.000
221.09	7.692
221.47	0.000
221.84	500.000
222.22	-500.000
222.59	1700.000
222.97	-337.500
223.34	-800.000
223.72	-500.000
224.09	-78.571
224.46	-375.000
224.84	14.286
225.21	-228.571
225.59	-45.455
225.96	-137.500
226.34	-157.143
226.71	-144.444
227.08	-35.000
227.46	2000.000
227.83	-185.714
228.21	-100.000
228.58	700.000
228.95	31.250
229.33	-800.000
229.70	-200.000
230.08	-1250.000
230.45	16.667
230.82	-333.333
231.20	-1100.000
231.57	-950.000
231.95	1600.000
232.32	9.524
232.69	-133.333
233.07	-200.000
233.44	-600.000
233.81	-60.000
234.19	-33.333
234.56	31.250
234.93	-3.125
235.31	-214.286
235.68	-128.571
236.05	-88.235
236.43	-86.364
236.80	-22.581
237.17	8.333
237.55	-47.619
237.92	-77.273
238.29	-42.857
238.67	8.824
239.04	8.333
239.41	9.677
239.79	-38.462
240.16	-26.190
240.53	10.909
240.91	15.385
241.28	25.455
241.65	35.385
242.02	13.115
242.40	13.115
242.77	1.515
243.14	8.475
243.51	11.429
243.89	25.316
244.26	13.483
244.63	20.000
245.00	12.632
245.38	23.729
245.75	26.549
246.12	13.600
246.49	22.047
246.87	16.260
247.24	18.644
247.61	14.407
247.98	23.239
248.36	12.587
248.73	34.177
249.10	19.745
249.47	22.807
249.84	27.273
250.22	18.452
250.59	23.729
250.96	23.037
251.33	30.332
251.70	25.000
252.08	29.858
252.45	24.171
252.82	23.333
253.19	22.553
253.56	24.597
253.94	23.207
254.31	25.751
254.68	20.732
255.05	29.435
255.42	28.968
255.79	24.731
256.16	29.412
256.54	29.412
256.91	28.409
257.28	24.176
257.65	27.305
258.02	31.761
258.39	28.094
258.76	24.324
259.14	23.457
259.51	31.475
259.88	29.573
260.25	28.571
260.62	30.868
260.99	28.190
261.36	32.012
261.73	32.659
262.10	28.056
262.47	28.205
262.85	30.286
263.22	27.221
263.59	28.615
263.96	30.145
264.33	27.371
264.70	32.873
265.07	28.297
265.44	26.873
265.81	28.941
266.18	27.848
266.55	28.922
266.92	31.234
267.29	30.751
267.66	30.123
268.03	33.333
268.40	28.638
268.77	28.675
269.14	27.842
269.51	30.805
269.88	29.128
270.25	26.107
270.62	28.146
270.99	27.703
271.36	28.671
271.73	26.906
272.10	29.291
272.47	30.667
272.84	31.111
273.21	31.651
273.58	30.110
273.95	29.167
274.32	31.900
274.69	34.354
275.06	29.448
275.43	28.795
275.80	28.310
276.17	30.126
276.54	29.328
276.91	29.012
277.28	29.615
277.65	31.818
278.02	29.436
278.39	30.059
278.76	29.482
279.13	29.447
279.50	30.417
279.87	28.118
280.23	30.972
280.60	29.225
280.97	27.184
281.34	29.400
281.71	30.192
282.08	32.661
282.45	27.088
282.82	30.039
283.19	28.909
283.56	30.586
283.92	30.389
284.29	29.182
284.66	28.058
285.03	29.768
285.40	30.074
285.77	30.351
286.14	27.437
286.51	29.307
286.87	30.853
287.24	29.352
287.61	26.942
287.98	27.556
288.35	25.950
288.72	27.674
289.08	25.085
289.45	28.283
289.82	25.433
290.19	29.064
290.56	26.281
290.93	26.391
291.29	25.770
291.66	27.053
292.03	27.316
292.40	26.506
292.77	26.242
293.13	27.317
293.50	25.260
293.87	24.387
294.24	24.434
294.60	24.091
294.97	27.314
295.34	23.407
295.71	24.256
296.08	24.578
296.44	22.318
296.81	22.365
297.18	24.225
297.55	24.435
297.91	24.547
298.28	22.740
298.65	23.989
299.02	25.000
299.38	22.594
299.75	23.505
300.12	22.949
300.48	23.146
300.85	22.674
301.22	23.027
301.59	22.237
301.95	23.300
302.32	22.295
302.69	22.154
303.05	22.222
303.42	20.750
303.79	22.249
304.15	22.630
304.52	21.937
304.89	21.133
305.25	21.245
305.62	21.622
305.99	21.790
306.35	21.088
306.72	20.957
307.09	22.361
307.45	19.523
307.82	20.894
308.19	21.029
308.55	20.697
308.92	19.012
309.29	21.405
309.65	20.997
310.02	20.734
310.38	20.324
310.75	20.594
311.12	20.248
311.48	20.042
311.85	21.627
312.22	19.979
312.58	20.346
312.95	19.470
313.31	20.779
313.68	21.910
314.05	20.277
314.41	18.712
314.78	20.380
315.14	20.434
315.51	19.656
315.87	21.297
316.24	20.311
316.61	20.729
316.97	20.995
317.34	19.653
317.70	18.553
318.07	19.869
318.43	20.037
318.80	21.878
319.16	18.105
319.53	20.865
319.89	20.038
320.26	21.275
320.62	18.750
320.99	18.905
321.35	17.931
321.72	19.652
322.08	20.079
322.45	18.515
322.81	18.828
323.18	19.981
323.54	20.610
323.91	19.648
324.27	19.106
324.64	19.287
325.00	19.110
325.37	18.914
325.73	21.172
326.10	18.601
326.46	19.877
326.83	18.553
327.19	19.683
327.56	20.698
327.92	18.862
328.29	19.740
328.65	19.909
329.01	19.170
329.38	19.179
329.74	19.414
330.11	18.404
330.47	18.710
330.84	20.165
331.20	18.682
331.56	19.508
331.93	19.361
332.29	19.909
332.66	19.666
333.02	17.647
333.38	18.996
333.75	19.590
334.11	18.756
334.48	18.976
334.84	19.423
335.20	18.883
335.57	19.404
335.93	20.143
336.29	17.006
336.66	17.709
337.02	17.387
337.38	18.717
337.75	18.525
338.11	18.068
338.47	18.594
338.84	18.603
339.20	18.541
339.56	19.340
339.93	17.989
340.29	17.892
340.65	17.570
341.02	18.550
341.38	17.944
341.74	17.697
342.11	17.321
342.47	16.996
342.83	17.296
343.20	18.360
343.56	16.980
343.92	17.613
344.28	18.503
344.65	17.327
345.01	17.395
345.37	18.605
345.73	16.367
346.10	16.517
346.46	17.222
346.82	16.680
347.19	17.338
347.55	18.299
347.91	17.795
348.27	17.422
348.63	18.901
349.00	17.661
349.36	16.862
349.72	18.949
350.08	17.803
350.45	17.888
350.81	17.596
351.17	16.881
351.53	16.945
351.89	16.492
352.26	17.752
352.62	18.740
352.98	17.326
353.34	17.746
353.70	16.216
354.07	17.309
354.43	17.628
354.79	17.036
355.15	17.252
355.51	16.953
355.87	16.996
356.24	17.077
356.60	17.566
356.96	17.013
357.32	17.340
357.68	17.011
358.04	16.782
358.40	17.169
358.77	16.615
359.13	16.450
359.49	17.838
359.85	17.149
360.21	17.808
360.57	17.620
360.93	17.037
361.29	17.339
361.66	15.320
362.02	16.420
362.38	17.682
362.74	16.923
363.10	16.930
363.46	17.877
363.82	16.545
364.18	18.162
364.54	19.442
364.90	16.143
365.26	16.762
365.62	17.035
365.98	17.639
366.35	16.972
366.71	16.843
367.07	17.431
367.43	17.982
367.79	17.526
368.15	17.141
368.51	17.622
368.87	18.407
369.23	16.912
369.59	16.528
369.95	18.252
370.31	16.807
370.67	16.992
371.03	17.128
371.39	16.124
371.75	17.239
372.11	18.006
372.47	15.835
372.83	17.107
373.19	16.214
373.55	17.382
373.91	17.141
374.27	17.112
374.63	17.529
374.99	17.872
375.35	17.766
375.71	17.961
376.07	18.001
376.42	15.695
376.78	17.059
377.14	18.169
377.50	17.408
377.86	17.165
378.22	17.023
378.58	17.048
378.94	16.708
379.30	17.367
379.66	16.576
380.02	16.280
380.38	16.858
380.74	16.354
381.09	16.696
381.45	16.587
381.81	16.515
382.17	16.917
382.53	16.292
382.89	17.225
383.25	17.520
383.61	17.748
383.97	17.208
384.32	16.771
384.68	17.775
385.04	17.633
385.40	16.738
385.76	17.683
386.12	16.740
386.48	18.007
386.83	17.055
387.19	17.513
387.55	17.444
387.91	17.131
388.27	16.104
388.62	16.947
388.98	16.475
389.34	16.830
389.70	17.418
390.06	16.843
390.42	17.564
390.77	17.035
391.13	17.329
391.49	17.904
391.85	17.394
392.20	16.262
392.56	16.738
392.92	17.513
393.28	17.394
393.64	16.597
393.99	17.600
394.35	17.092
394.71	17.542
395.07	17.577
395.42	16.508
395.78	16.342
396.14	17.570
396.50	17.554
396.85	17.458
397.21	18.044
397.57	17.508
397.92	17.506
398.28	17.278
398.64	17.490
399.00	17.865
399.35	16.855
399.71	17.422
400.07	17.254
400.42	17.883
400.78	17.233
401.14	17.425
401.49	17.453
401.85	17.389
402.21	17.044
402.57	18.143
402.92	18.062
403.28	18.137
403.63	17.915
403.99	17.775
404.35	16.787
404.70	16.969
405.06	17.647
405.42	17.712
405.77	16.176
406.13	16.979
406.49	17.196
406.84	17.037
407.20	18.787
407.55	16.846
407.91	16.969
408.27	18.382
408.62	18.160
408.98	17.950
409.34	18.038
409.69	18.021
410.05	17.223
410.40	17.351
410.76	18.731
411.11	17.706
411.47	17.967
411.83	18.093
412.18	16.770
412.54	16.351
412.89	17.618
413.25	16.824
413.60	16.646
413.96	16.759
414.31	17.859
414.67	17.079
415.03	17.012
415.38	17.567
415.74	17.590
416.09	17.903
416.45	16.402
416.80	18.596
417.16	16.678
417.51	17.663
417.87	17.023
418.22	17.193
418.58	17.587
418.93	17.045
419.29	17.691
419.64	17.588
420.00	17.558
420.35	18.096
420.71	17.947
421.06	18.225
421.42	17.681
421.77	17.979
422.12	17.459
422.48	16.836
422.83	18.166
423.19	17.316
423.54	17.579
423.90	17.756
424.25	17.251
424.61	18.275
424.96	17.905
425.31	17.608
425.67	17.937
426.02	16.523
426.38	18.088
426.73	17.534
427.09	17.463
427.44	18.352
427.79	17.093
428.15	18.073
428.50	18.182
428.85	17.326
429.21	17.211
429.56	17.448
429.92	17.786
430.27	16.849
430.62	18.391
430.98	17.041
431.33	18.890
431.68	17.587
432.04	18.075
432.39	18.462
432.74	17.146
433.10	17.895
433.45	17.559
433.80	17.693
434.16	17.679
434.51	18.247
434.86	17.458
435.22	18.318
435.57	18.237
435.92	18.113
436.28	17.864
436.63	16.789
436.98	17.411
437.34	17.484
437.69	17.795
438.04	17.187
438.39	18.051
438.75	16.822
439.10	18.712
439.45	16.838
439.81	18.313
440.16	17.774
440.51	17.471
440.86	18.334
441.22	17.579
441.57	18.211
441.92	18.363
442.27	18.128
442.63	17.865
442.98	17.099
443.33	18.122
443.68	17.926
444.03	18.075
444.39	18.062
444.74	17.566
445.09	17.050
445.44	18.008
445.79	17.899
446.15	17.798
446.50	17.148
446.85	18.009
447.20	18.080
447.55	18.840
447.91	17.967
448.26	17.989
448.61	18.619
448.96	18.936
449.31	18.038
449.66	17.687
450.02	16.620
450.37	17.449
450.72	17.345
451.07	17.662
451.42	17.286
451.77	18.073
452.12	17.700
452.47	18.262
452.83	18.055
453.18	18.027
453.53	17.973
453.88	17.943
454.23	17.412
454.58	18.459
454.93	17.821
455.28	17.400
455.63	17.445
455.98	18.494
456.34	17.471
456.69	18.512
457.04	17.701
457.39	18.242
457.74	17.779
458.09	19.084
458.44	18.880
458.79	17.209
459.14	18.369
459.49	17.703
459.84	18.550
460.19	18.556
460.54	18.330
460.89	18.049
461.24	18.397
461.59	19.109
461.94	18.523
462.29	18.404
462.64	18.577
462.99	19.143
463.34	18.636
463.69	18.321
464.04	16.813
464.39	17.204
464.74	17.967
465.09	17.799
465.44	18.951
465.79	17.879
466.14	18.412
466.49	18.595
466.84	18.727
467.19	17.830
467.54	17.848
467.89	18.002
468.24	18.468
468.59	18.176
468.94	18.392
469.29	16.959
469.64	18.733
469.99	19.041
470.34	18.504
470.68	19.041
471.03	19.202
471.38	17.083
471.73	19.231
472.08	17.738
472.43	19.112
472.78	19.000
473.13	17.959
473.48	18.634
473.83	18.610
474.17	18.471
474.52	18.798
474.87	18.298
475.22	18.053
475.57	17.778
475.92	18.089
476.27	17.829
476.61	18.986
476.96	18.893
477.31	18.407
477.66	18.152
478.01	19.071
478.36	19.172
478.70	18.687
479.05	18.659
479.40	18.808
479.75	18.502
480.10	18.304
480.45	18.133
480.79	18.954
481.14	18.565
481.49	18.732
481.84	18.816
482.19	18.593
482.53	18.750
482.88	18.984
483.23	18.216
483.58	18.918
483.92	18.634
484.27	17.767
484.62	18.747
484.97	18.083
485.31	17.440
485.66	17.767
486.01	17.500
486.36	17.844
486.70	18.488
487.05	17.830
487.40	17.949
487.75	17.996
488.09	17.820
488.44	18.471
488.79	18.429
489.13	18.182
489.48	18.923
489.83	18.603
490.17	18.981
490.52	19.022
490.87	18.661
491.22	18.776
491.56	18.796
491.91	19.609
492.26	19.245
492.60	18.839
492.95	19.229
493.30	19.009
493.64	18.195
493.99	18.642
494.34	19.048
494.68	19.803
495.03	18.308
495.37	18.682
495.72	19.450
496.07	19.193
496.41	19.176
496.76	19.132
497.11	19.595
497.45	19.636
497.80	18.809
498.14	18.615
498.49	18.835
498.84	18.689
499.18	19.103
499.53	18.997
499.87	18.629
500.22	19.608
500.56	18.709
500.91	18.276
501.26	19.457
501.60	18.633
501.95	19.324
502.29	18.517
502.64	18.765
502.98	19.023
503.33	18.421
503.67	18.439
504.02	19.025
504.36	18.725
504.71	17.984
505.06	19.271
505.40	19.611
505.75	18.801
506.09	19.363
506.44	19.248
506.78	19.769
507.13	18.641
507.47	19.927
507.82	19.721
508.16	20.000
508.51	19.114
508.85	19.720
509.19	19.309
509.54	19.397
509.88	19.734
510.23	19.287
510.57	19.735
510.92	19.871
511.26	18.767
511.61	19.060
511.95	19.397
512.30	19.791
512.64	19.254
512.98	19.087
513.33	20.099
513.67	19.040
514.02	19.128
514.36	18.615
514.70	19.921
515.05	19.783
515.39	19.377
515.74	20.768
516.08	20.058
516.42	19.830
516.77	20.393
517.11	19.680
517.46	20.156
517.80	20.638
518.14	19.444
518.49	20.383
518.83	20.712
519.17	20.722
519.52	19.318
519.86	20.311
520.20	20.599
520.55	19.508
520.89	19.599
521.23	21.001
521.58	20.376
521.92	21.279
522.26	20.762
522.61	19.328
522.95	19.592
523.29	20.251
523.64	20.425
523.98	20.369
524.32	20.993
524.66	19.565
525.01	20.360
525.35	21.070
525.69	19.974
526.04	20.170
526.38	21.961
526.72	19.668
527.06	21.354
527.41	20.396
527.75	19.670
528.09	20.649
528.43	20.393
528.78	21.106
529.12	21.639
529.46	20.941
529.80	20.852
530.15	20.541
530.49	21.087
530.83	21.676
531.17	20.606
531.51	20.161
531.86	20.935
532.20	21.525
532.54	19.920
532.88	20.487
533.22	20.989
533.57	21.214
533.91	19.788
534.25	20.742
534.59	20.050
534.93	19.726
535.27	20.705
535.62	20.588
535.96	19.845
536.30	20.942
536.64	20.784
536.98	19.986
537.32	20.387
537.66	20.163
538.01	19.794
538.35	20.743
538.69	19.920
539.03	21.259
539.37	20.825
539.71	20.814
540.05	20.905
540.39	20.845
540.73	21.147
541.07	20.560
541.42	19.986
541.76	19.336
542.10	20.189
542.44	20.320
542.78	19.946
543.12	21.045
543.46	20.068
543.80	20.535
544.14	19.678
544.48	20.669
544.82	20.095
545.16	19.987
545.50	19.987
545.84	20.584
546.18	20.804
546.52	20.199
546.86	19.801
547.20	20.605
547.54	20.455
547.88	19.774
548.22	19.463
548.56	19.906
548.90	19.879
549.24	20.673
549.58	20.960
549.92	20.000
550.26	21.893
550.60	20.270
550.94	20.876
551.28	20.316
551.62	20.901
551.96	20.405
552.30	19.791
552.64	20.690
552.98	21.233
553.32	19.625
553.66	20.115
554.00	21.819
554.34	20.000
554.68	19.810
555.02	21.201
555.36	20.633
555.69	20.487
556.03	20.281
556.37	20.626
556.71	21.117
557.05	21.138
557.39	20.341
557.73	21.517
558.07	20.950
558.41	21.316
558.75	20.304
559.08	19.767
559.42	21.210
559.76	21.319
560.10	21.104
560.44	21.387
560.78	20.111
561.12	18.772
561.45	20.548
561.79	20.279
562.13	20.407
562.47	20.728
562.81	19.943
563.15	19.944
563.48	20.249
563.82	21.231
564.16	20.757
564.50	20.027
564.84	20.833
565.17	20.756
565.51	20.600
565.85	21.298
566.19	21.212
566.52	19.635
566.86	19.532
567.20	20.400
567.54	19.728
567.88	20.156
568.21	20.134
568.55	19.777
568.89	20.129
569.23	19.343
569.56	19.126
569.90	19.552
570.24	19.466
570.57	19.016
570.91	18.837
571.25	18.645
571.59	18.451
571.92	18.274
572.26	19.143
572.60	18.244
572.93	18.303
573.27	17.957
573.61	18.038
573.95	18.654
574.28	18.177
574.62	18.149
574.96	18.096
575.29	17.861
575.63	18.051
575.97	17.988
576.30	18.279
576.64	18.251
576.98	17.990
577.31	18.236
577.65	18.631
577.98	18.248
578.32	17.723
578.66	18.107
578.99	18.199
579.33	18.161
579.67	18.565
580.00	17.808
580.34	18.126
580.67	18.338
581.01	17.482
581.35	18.115
581.68	17.653
582.02	17.753
582.35	17.847
582.69	18.052
583.02	18.037
583.36	17.779
583.70	18.484
584.03	18.023
584.37	17.835
584.70	18.451
585.04	17.747
585.37	18.091
585.71	18.045
586.04	18.212
586.38	17.723
586.72	18.292
587.05	18.210
587.39	18.301
587.72	18.397
588.06	18.074
588.39	17.858
588.73	18.196
589.06	18.414
589.40	18.550
589.73	18.484
590.07	18.135
590.40	18.635
590.73	18.273
591.07	18.852
591.40	18.111
591.74	18.983
592.07	18.514
592.41	17.919
592.74	18.947
593.08	18.469
593.41	18.158
593.75	17.474
594.08	17.973
594.41	18.669
594.75	18.724
595.08	18.835
595.42	18.425
595.75	18.412
596.09	19.014
596.42	19.026
596.75	18.629
597.09	19.279
597.42	18.114
597.75	18.822
598.09	18.482
598.42	18.648
598.76	18.522
599.09	18.508
599.42	17.955
599.76	18.460
600.09	19.084
600.42	19.256
600.76	18.531
601.09	18.268
601.42	18.124
601.76	19.081
602.09	18.405
602.42	18.930
602.76	18.072
603.09	18.911
603.42	18.775
603.76	19.107
604.09	18.823
604.42	18.568
604.76	18.666
605.09	19.078
605.42	18.794
605.75	19.405
606.09	18.929
606.42	18.182
606.75	18.291
607.09	18.306
607.42	18.354
607.75	18.587
608.08	18.888
608.42	18.543
608.75	18.411
609.08	18.412
609.41	18.934
609.75	18.284
610.08	19.314
610.41	19.133
610.74	19.149
611.07	19.168
611.41	18.911
611.74	19.640
612.07	19.549
612.40	18.763
612.73	19.386
613.07	18.767
613.40	20.416
613.73	19.564
614.06	18.616
614.39	18.940
614.72	19.106
615.06	18.804
615.39	19.371
615.72	18.577
616.05	18.995
616.38	19.327
616.71	18.438
617.05	18.999
617.38	19.381
617.71	18.919
618.04	19.689
618.37	19.748
618.70	20.013
619.03	19.160
619.36	19.873
619.69	19.813
620.03	19.766
620.36	19.550
620.69	18.952
621.02	20.244
621.35	19.194
621.68	20.000
622.01	21.117
622.34	20.109
622.67	19.688
623.00	20.352
623.33	19.030
623.66	19.793
623.99	19.925
624.32	20.387
624.65	19.426
624.99	19.343
625.32	20.434
625.65	19.969
625.98	19.484
626.31	21.533
626.64	20.000
626.97	20.634
627.30	20.511
627.63	19.257
627.96	20.888
628.29	19.210
628.62	20.917
628.95	20.079
629.28	19.737
629.61	20.314
629.94	20.699
630.26	21.372
630.59	22.010
630.92	20.621
631.25	21.673
631.58	20.106
