SpectraSuite Data File
++++++++++++++++++++++++++++++++++++
Date: Sat May 16 11:27:51 PDT 2015
User: schluterlab
Dark Spectrum Present: Yes
Reference Spectrum Present: Yes
Number of Sampled Component Spectra: 1
Spectrometers: USB2E3373
Integration Time (usec): 3000 (USB2E3373)
Spectra Averaged: 3 (USB2E3373)
Boxcar Smoothing: 0 (USB2E3373)
Correct for Electrical Dark: No (USB2E3373)
Strobe/Lamp Enabled: No (USB2E3373)
Correct for Detector Non-linearity: No (USB2E3373)
Correct for Stray Light: No (USB2E3373)
Number of Pixels in Processed Spectrum: 2048
>>>>>Begin Processed Spectral Data<<<<<
178.53	0.000
178.91	100.000
179.29	266.667
179.67	-600.000
180.04	-84.615
180.42	900.000
180.80	425.000
181.18	350.000
181.56	-87.500
181.94	800.000
182.31	650.000
182.69	-53.846
183.07	-466.667
183.45	1350.000
183.83	500.000
184.20	-257.143
184.58	-137.500
184.96	-425.000
185.34	162.500
185.72	-625.000
186.09	300.000
186.47	-212.500
186.85	-137.500
187.23	-62.500
187.61	-350.000
187.98	-325.000
188.36	-175.000
188.74	-200.000
189.12	1400.000
189.49	457.143
189.87	-58.333
190.25	75.000
190.63	-78.571
191.00	-244.444
191.38	360.000
191.76	33.333
192.14	500.000
192.51	-340.000
192.89	-500.000
193.27	0.000
193.65	-111.111
194.02	-214.286
194.40	400.000
194.78	-150.000
195.15	-700.000
195.53	-145.455
195.91	-400.000
196.29	300.000
196.66	-1066.667
197.04	2800.000
197.42	-100.000
197.79	-46.667
198.17	-100.000
198.55	-750.000
198.92	-500.000
199.30	212.500
199.68	-800.000
200.05	-177.778
200.43	-266.667
200.81	-300.000
201.18	-133.333
201.56	228.571
201.94	-100.000
202.31	22.727
202.69	50.000
203.07	-120.000
203.44	333.333
203.82	-266.667
204.19	-250.000
204.57	-500.000
204.95	-700.000
205.32	-12.500
205.70	1200.000
206.08	-1100.000
206.45	-27.778
206.83	-1000.000
207.20	-450.000
207.58	-766.667
207.96	-300.000
208.33	-37.500
208.71	-122.222
209.08	250.000
209.46	-200.000
209.84	1050.000
210.21	0.000
210.59	20.000
210.96	1100.000
211.34	-333.333
211.71	-266.667
212.09	250.000
212.46	900.000
212.84	-2200.000
213.22	366.667
213.59	200.000
213.97	-88.889
214.34	140.000
214.72	30.000
215.09	-566.667
215.47	-100.000
215.84	-110.000
216.22	-120.000
216.59	-86.667
216.97	-475.000
217.34	1050.000
217.72	-242.857
218.09	-333.333
218.47	-228.571
218.84	185.714
219.22	-28.571
219.59	0.000
219.97	171.429
220.34	450.000
220.72	250.000
221.09	-38.462
221.47	0.000
221.84	533.333
222.22	-450.000
222.59	1700.000
222.97	-212.500
223.34	-850.000
223.72	-333.333
224.09	-28.571
224.46	-250.000
224.84	-21.429
225.21	-200.000
225.59	-145.455
225.96	-250.000
226.34	-242.857
226.71	-355.556
227.08	-15.000
227.46	1700.000
227.83	-171.429
228.21	-250.000
228.58	1250.000
228.95	-81.250
229.33	-1900.000
229.70	-160.000
230.08	-450.000
230.45	-41.667
230.82	-83.333
231.20	-1400.000
231.57	-750.000
231.95	2200.000
232.32	0.000
232.69	-133.333
233.07	-242.857
233.44	-950.000
233.81	-53.333
234.19	-155.556
234.56	-37.500
234.93	-6.250
235.31	-342.857
235.68	-100.000
236.05	-147.059
236.43	-86.364
236.80	-48.387
237.17	-16.667
237.55	-52.381
237.92	-68.182
238.29	-20.000
238.67	2.941
239.04	-27.778
239.41	-22.581
239.79	-51.282
240.16	-35.714
240.53	-32.727
240.91	-58.974
241.28	-29.091
241.65	-23.077
242.02	-4.918
242.40	-34.426
242.77	-39.394
243.14	-33.898
243.51	-25.714
243.89	-21.519
244.26	-10.112
244.63	-3.158
245.00	-11.579
245.38	-0.847
245.75	-15.044
246.12	-6.400
246.49	-5.512
246.87	-10.569
247.24	-11.017
247.61	-16.949
247.98	-6.338
248.36	-9.790
248.73	-4.430
249.10	-11.465
249.47	-11.696
249.84	-11.364
250.22	-18.452
250.59	-3.390
250.96	-6.283
251.33	0.474
251.70	-9.615
252.08	-3.791
252.45	-7.583
252.82	-10.476
253.19	-4.681
253.56	-3.629
253.94	-2.532
254.31	-6.438
254.68	-1.626
255.05	-3.629
255.42	-2.778
255.79	-6.452
256.16	-5.490
256.54	-1.471
256.91	-4.167
257.28	-6.227
257.65	-4.255
258.02	-0.314
258.39	-5.351
258.76	-7.095
259.14	-4.938
259.51	-2.623
259.88	-3.659
260.25	-1.242
260.62	-2.251
260.99	-3.858
261.36	-1.829
261.73	-3.757
262.10	-1.667
262.47	-1.140
262.85	2.286
263.22	-2.865
263.59	-7.077
263.96	-0.870
264.33	-2.710
264.70	-2.210
265.07	-4.945
265.44	-5.168
265.81	-2.842
266.18	-5.063
266.55	-1.225
266.92	-3.526
267.29	-1.211
267.66	-2.716
268.03	0.725
268.40	-1.878
268.77	-0.723
269.14	-3.016
269.51	0.460
269.88	-3.211
270.25	-3.497
270.62	-2.746
270.99	-0.450
271.36	-1.632
271.73	-3.363
272.10	-3.432
272.47	-3.111
272.84	-1.111
273.21	0.459
273.58	-0.879
273.95	-3.947
274.32	-2.036
274.69	-1.313
275.06	1.431
275.43	-2.455
275.80	-1.222
276.17	-2.720
276.54	1.629
276.91	-3.086
277.28	-0.811
277.65	-2.066
278.02	-2.714
278.39	-1.572
278.76	-3.586
279.13	-0.593
279.50	-0.795
279.87	-2.960
280.23	-1.215
280.60	-0.994
280.97	-3.301
281.34	-2.128
281.71	-0.192
282.08	-2.823
282.45	-3.666
282.82	-1.744
283.19	-1.636
283.56	-1.648
283.92	-0.530
284.29	-2.788
284.66	-3.777
285.03	-1.604
285.40	-2.214
285.77	0.000
286.14	-2.347
286.51	-1.776
286.87	-2.722
287.24	-0.683
287.61	-0.496
287.98	-2.600
288.35	-1.322
288.72	-2.886
289.08	-2.542
289.45	-1.684
289.82	-1.903
290.19	-0.164
290.56	-1.488
290.93	-1.749
291.29	-3.079
291.66	-1.932
292.03	0.942
292.40	-1.355
292.77	-2.640
293.13	-0.976
293.50	-1.337
293.87	-0.307
294.24	0.000
294.60	-1.818
294.97	0.303
295.34	-2.667
295.71	-1.935
296.08	-3.533
296.44	-3.004
296.81	-1.709
297.18	-2.676
297.55	-1.412
297.91	-0.418
298.28	-2.466
298.65	-1.674
299.02	0.267
299.38	-2.005
299.75	-1.630
300.12	0.000
300.48	0.256
300.85	-0.917
301.22	-0.647
301.59	-1.430
301.95	0.630
302.32	-3.259
302.69	-0.122
303.05	-2.198
303.42	-1.125
303.79	-0.718
304.15	-0.237
304.52	-1.167
304.89	-1.063
305.25	-1.709
305.62	-1.410
305.99	0.118
306.35	-0.777
306.72	-1.139
307.09	-0.568
307.45	-2.043
307.82	-1.229
308.19	-0.783
308.55	-0.871
308.92	-0.859
309.29	-0.973
309.65	-0.106
310.02	-1.512
310.38	-1.514
310.75	-0.410
311.12	0.103
311.48	0.209
311.85	-1.030
312.22	0.000
312.58	-0.203
312.95	-0.917
313.31	-0.699
313.68	0.201
314.05	0.890
314.41	-1.408
314.78	-1.698
315.14	0.000
315.51	-0.608
315.87	0.290
316.24	0.097
316.61	-0.096
316.97	-0.697
317.34	-1.156
317.70	-0.928
318.07	1.119
318.43	-0.749
318.80	1.408
319.16	-0.469
319.53	-0.752
319.89	-1.129
320.26	0.882
320.62	-0.673
320.99	0.000
321.35	-2.069
321.72	-1.740
322.08	0.099
322.45	-1.089
322.81	-0.480
323.18	-0.096
323.54	0.000
323.91	-0.556
324.27	0.760
324.64	-0.274
325.00	0.698
325.37	-1.086
325.73	2.362
326.10	-1.151
326.46	0.175
326.83	0.170
327.19	0.167
327.56	1.448
327.92	0.510
328.29	0.260
328.65	-1.182
329.01	0.000
329.38	-0.178
329.74	0.549
330.11	0.725
330.47	-0.727
330.84	0.183
331.20	-0.542
331.56	0.456
331.93	-0.533
332.29	0.274
332.66	-0.527
333.02	0.181
333.38	-0.090
333.75	1.247
334.11	0.711
334.48	-0.883
334.84	1.137
335.20	-0.355
335.57	0.181
335.93	1.343
336.29	-0.266
336.66	-0.793
337.02	-0.180
337.38	0.624
337.75	-0.176
338.11	-0.537
338.47	-0.890
338.84	-0.363
339.20	0.088
339.56	0.267
339.93	0.176
340.29	-0.709
340.65	0.000
341.02	0.675
341.38	0.000
341.74	0.339
342.11	0.939
342.47	-0.429
342.83	0.000
343.20	-0.939
343.56	0.163
343.92	0.000
344.28	0.505
344.65	0.000
345.01	-0.672
345.37	0.498
345.73	-0.818
346.10	-0.654
346.46	-0.244
346.82	-0.241
347.19	-0.740
347.55	-0.883
347.91	0.315
348.27	-0.716
348.63	0.323
349.00	0.477
349.36	-0.390
349.72	1.035
350.08	0.241
350.45	-0.315
350.81	0.717
351.17	-0.080
351.53	-0.636
351.89	0.162
352.26	0.698
352.62	1.997
352.98	-0.316
353.34	-0.560
353.70	0.000
354.07	0.157
354.43	1.107
354.79	0.000
355.15	-1.198
355.51	0.391
355.87	-1.028
356.24	0.079
356.60	0.806
356.96	-0.539
357.32	-0.871
357.68	-0.153
358.04	0.308
358.40	-0.387
358.77	-0.309
359.13	0.536
359.49	1.134
359.85	-0.305
360.21	0.152
360.57	0.828
360.93	0.963
361.29	-1.046
361.66	-0.838
362.02	-0.740
362.38	0.293
362.74	-0.586
363.10	0.287
363.46	0.997
363.82	0.073
364.18	0.651
364.54	1.787
364.90	0.140
365.26	-0.285
365.62	0.855
365.98	0.853
366.35	0.211
366.71	-0.070
367.07	0.000
367.43	0.892
367.79	0.962
368.15	-0.640
368.51	0.699
368.87	0.893
369.23	1.123
369.59	0.556
369.95	0.493
370.31	0.070
370.67	-1.085
371.03	-0.073
371.39	-0.636
371.75	0.858
372.11	-0.359
372.47	0.000
372.83	0.278
373.19	0.000
373.55	0.563
373.91	0.498
374.27	0.479
374.63	0.690
374.99	1.043
375.35	0.067
375.71	1.283
376.07	-0.342
376.42	-0.596
376.78	0.392
377.14	0.068
377.50	0.709
377.86	0.715
378.22	0.817
378.58	0.988
378.94	0.432
379.30	0.914
379.66	0.729
380.02	0.059
380.38	-0.242
380.74	0.000
381.09	0.879
381.45	0.955
381.81	0.423
382.17	0.376
382.53	0.365
382.89	0.718
383.25	0.722
383.61	0.590
383.97	1.102
384.32	0.563
384.68	0.907
385.04	0.664
385.40	0.061
385.76	0.549
386.12	1.062
386.48	0.928
386.83	0.736
387.19	0.598
387.55	1.030
387.91	0.415
388.27	-0.362
388.62	1.262
388.98	0.485
389.34	0.612
389.70	0.609
390.06	0.684
390.42	0.962
390.77	0.000
391.13	0.435
391.49	0.998
391.85	1.122
392.20	-0.243
392.56	0.244
392.92	1.540
393.28	1.091
393.64	0.241
393.99	0.738
394.35	0.791
394.71	0.926
395.07	1.067
395.42	0.298
395.78	0.754
396.14	1.495
396.50	-0.122
396.85	1.049
397.21	0.729
397.57	1.216
397.92	1.288
398.28	0.722
398.64	0.892
399.00	1.180
399.35	0.620
399.71	1.510
400.07	1.254
400.42	1.277
400.78	0.716
401.14	0.958
401.49	0.825
401.85	1.342
402.21	0.775
402.57	1.214
402.92	0.629
403.28	0.858
403.63	-0.359
403.99	1.243
404.35	0.845
404.70	1.463
405.06	0.865
405.42	0.308
405.77	0.113
406.13	0.738
406.49	0.479
406.84	0.720
407.20	0.707
407.55	1.330
407.91	0.324
408.27	1.777
408.62	1.383
408.98	1.152
409.34	0.488
409.69	0.882
410.05	0.970
410.40	0.736
410.76	1.304
411.11	0.623
411.47	1.407
411.83	1.284
412.18	0.000
412.54	0.732
412.89	1.215
413.25	0.472
413.60	0.608
413.96	1.171
414.31	1.040
414.67	0.508
415.03	0.776
415.38	0.911
415.74	1.224
416.09	1.023
416.45	0.000
416.80	1.756
417.16	0.133
417.51	2.298
417.87	0.777
418.22	0.569
418.58	1.476
418.93	1.226
419.29	1.192
419.64	0.628
420.00	1.519
420.35	0.887
420.71	0.840
421.06	1.775
421.42	0.468
421.77	1.843
422.12	1.511
422.48	1.015
422.83	1.595
423.19	0.891
423.54	0.807
423.90	0.752
424.25	0.905
424.61	1.628
424.96	0.819
425.31	1.956
425.67	0.860
426.02	0.918
426.38	1.270
426.73	0.994
427.09	1.225
427.44	1.875
427.79	1.163
428.15	1.855
428.50	1.408
428.85	1.379
429.21	1.273
429.56	0.625
429.92	1.353
430.27	1.844
430.62	1.881
430.98	0.993
431.33	0.961
431.68	1.769
432.04	1.903
432.39	1.254
432.74	1.379
433.10	1.238
433.45	1.382
433.80	1.120
434.16	1.075
434.51	1.041
434.86	1.172
435.22	1.559
435.57	0.734
435.92	1.465
436.28	1.068
436.63	0.904
436.98	0.859
437.34	1.831
437.69	1.400
438.04	0.794
438.39	1.745
438.75	1.281
439.10	1.666
439.45	1.086
439.81	1.687
440.16	1.022
440.51	1.765
440.86	1.157
441.22	0.884
441.57	1.579
441.92	1.228
442.27	0.649
442.63	1.073
442.98	0.621
443.33	1.428
443.68	1.876
444.03	0.884
444.39	1.322
444.74	1.432
445.09	1.700
445.44	2.251
445.79	1.581
446.15	1.533
446.50	1.089
446.85	1.488
447.20	1.941
447.55	1.823
447.91	1.684
448.26	1.955
448.61	1.075
448.96	2.017
449.31	1.635
449.66	1.832
450.02	1.440
450.37	0.464
450.72	1.582
451.07	1.508
451.42	0.991
451.77	1.376
452.12	0.954
452.47	1.134
452.83	1.573
453.18	1.328
453.53	1.244
453.88	2.093
454.23	1.209
454.58	2.175
454.93	1.826
455.28	1.083
455.63	1.720
455.98	1.084
456.34	0.572
456.69	1.814
457.04	1.967
457.39	0.718
457.74	1.418
458.09	1.392
458.44	2.714
458.79	1.177
459.14	1.882
459.49	1.421
459.84	1.180
460.19	1.551
460.54	0.907
460.89	0.897
461.24	2.125
461.59	2.462
461.94	1.337
462.29	2.144
462.64	1.252
462.99	1.138
463.34	1.485
463.69	1.590
464.04	1.347
464.39	1.135
464.74	1.359
465.09	0.661
465.44	1.184
465.79	1.748
466.14	1.841
466.49	1.785
466.84	2.461
467.19	1.434
467.54	0.633
467.89	1.973
468.24	1.900
468.59	1.499
468.94	1.350
469.29	1.235
469.64	2.358
469.99	1.621
470.34	0.935
470.68	1.672
471.03	2.065
471.38	0.694
471.73	1.748
472.08	1.539
472.43	1.287
472.78	1.533
473.13	0.729
473.48	0.830
473.83	1.303
474.17	1.720
474.52	1.535
474.87	2.331
475.22	1.357
475.57	1.167
475.92	1.620
476.27	2.114
476.61	1.465
476.96	0.950
477.31	1.776
477.66	1.328
478.01	1.783
478.36	1.781
478.70	1.281
479.05	1.514
479.40	1.865
479.75	1.529
480.10	1.736
480.45	1.596
480.79	1.234
481.14	1.656
481.49	1.985
481.84	2.034
482.19	2.193
482.53	1.799
482.88	1.851
483.23	1.925
483.58	2.405
483.92	2.007
484.27	1.196
484.62	1.685
484.97	1.871
485.31	1.696
485.66	2.224
486.01	1.801
486.36	2.291
486.70	2.219
487.05	1.897
487.40	2.137
487.75	2.162
488.09	1.359
488.44	1.658
488.79	2.264
489.13	1.445
489.48	1.876
489.83	1.572
490.17	2.264
490.52	2.038
490.87	1.570
491.22	1.868
491.56	1.620
491.91	1.908
492.26	1.557
492.60	1.760
492.95	2.285
493.30	1.572
493.64	2.022
493.99	1.577
494.34	1.857
494.68	2.388
495.03	2.151
495.37	0.737
495.72	1.965
496.07	2.299
496.41	2.594
496.76	1.826
497.11	1.602
497.45	2.011
497.80	1.851
498.14	2.358
498.49	1.105
498.84	1.165
499.18	2.534
499.53	1.559
499.87	1.979
500.22	1.765
500.56	1.701
500.91	2.069
501.26	2.523
501.60	1.348
501.95	1.449
502.29	1.842
502.64	2.452
502.98	1.677
503.33	2.021
503.67	1.197
504.02	1.931
504.36	2.304
504.71	1.216
505.06	1.498
505.40	2.345
505.75	1.778
506.09	2.022
506.44	2.055
506.78	2.057
507.13	1.390
507.47	2.191
507.82	2.013
508.16	1.865
508.51	1.958
508.85	1.553
509.19	0.785
509.54	1.850
509.88	1.915
510.23	2.673
510.57	2.169
510.92	1.557
511.26	2.020
511.61	1.512
511.95	1.832
512.30	1.759
512.64	1.669
512.98	2.090
513.33	1.922
513.67	2.066
514.02	1.622
514.36	2.050
514.70	1.585
515.05	1.772
515.39	1.961
515.74	2.676
516.08	1.902
516.42	2.550
516.77	2.195
517.11	2.346
517.46	1.914
517.80	2.226
518.14	1.208
518.49	2.092
518.83	1.840
519.17	2.131
519.52	1.619
519.86	2.569
520.20	2.139
520.55	1.292
520.89	0.751
521.23	2.564
521.58	1.505
521.92	2.027
522.26	2.603
522.61	2.091
522.95	0.702
523.29	1.818
523.64	1.874
523.98	2.292
524.32	2.388
524.66	1.801
525.01	1.670
525.35	1.740
525.69	1.822
526.04	1.828
526.38	1.846
526.72	1.724
527.06	1.302
527.41	1.584
527.75	1.122
528.09	1.721
528.43	2.295
528.78	2.324
529.12	1.857
529.46	1.675
529.80	1.937
530.15	2.189
530.49	0.906
530.83	2.292
531.17	1.145
531.51	1.674
531.86	2.172
532.20	2.497
532.54	2.206
532.88	1.581
533.22	1.203
533.57	2.023
533.91	1.498
534.25	1.508
534.59	1.437
534.93	1.245
535.27	2.266
535.62	2.685
535.96	1.422
536.30	1.309
536.64	2.058
536.98	1.554
537.32	1.175
537.66	1.833
538.01	1.512
538.35	1.959
538.69	1.337
539.03	1.625
539.37	1.264
539.71	2.068
540.05	1.508
540.39	1.108
540.73	2.004
541.07	2.186
541.42	1.553
541.76	1.860
542.10	2.836
542.44	1.466
542.78	2.035
543.12	0.815
543.46	0.753
543.80	1.672
544.14	1.545
544.48	1.903
544.82	1.488
545.16	2.012
545.50	1.817
545.84	1.808
546.18	1.664
546.52	1.991
546.86	0.926
547.20	1.477
547.54	1.653
547.88	1.460
548.22	1.245
548.56	1.202
548.90	1.415
549.24	1.261
549.58	2.399
549.92	2.544
550.26	1.951
550.60	2.134
550.94	1.679
551.28	1.580
551.62	0.369
551.96	1.447
552.30	2.160
552.64	2.182
552.98	2.102
553.32	1.082
553.66	1.514
554.00	2.701
554.34	2.310
554.68	1.170
555.02	2.171
555.36	1.725
555.69	1.719
556.03	1.333
556.37	1.209
556.71	1.575
557.05	1.256
557.39	0.817
557.73	2.042
558.07	0.829
558.41	1.945
558.75	0.913
559.08	0.467
559.42	1.991
559.76	1.687
560.10	2.312
560.44	1.879
560.78	2.436
561.12	1.587
561.45	1.986
561.79	1.324
562.13	2.174
562.47	1.821
562.81	1.839
563.15	1.260
563.48	2.073
563.82	1.352
564.16	1.961
564.50	2.083
564.84	1.653
565.17	1.592
565.51	1.565
565.85	2.028
566.19	2.372
566.52	1.435
566.86	1.643
567.20	2.906
567.54	2.067
567.88	1.787
568.21	1.398
568.55	2.121
568.89	1.690
569.23	1.897
569.56	1.639
569.90	2.124
570.24	2.180
570.57	2.250
570.91	2.006
571.25	2.367
571.59	1.998
571.92	2.440
572.26	2.277
572.60	2.358
572.93	2.137
573.27	2.043
573.61	1.864
573.95	2.581
574.28	2.460
574.62	2.567
574.96	2.168
575.29	2.261
575.63	2.389
575.97	1.915
576.30	1.946
576.64	2.141
576.98	2.314
577.31	2.122
577.65	2.594
577.98	2.491
578.32	2.084
578.66	2.366
578.99	2.150
579.33	2.311
579.67	2.460
580.00	2.207
580.34	2.153
580.67	2.354
581.01	2.034
581.35	2.335
581.68	2.385
582.02	2.130
582.35	2.323
582.69	2.153
583.02	2.100
583.36	2.145
583.70	2.176
584.03	2.344
584.37	2.084
584.70	2.035
585.04	2.127
585.37	1.981
585.71	2.274
586.04	2.052
586.38	1.657
586.72	2.396
587.05	2.351
587.39	2.322
587.72	2.469
588.06	2.338
588.39	2.136
588.73	2.384
589.06	2.366
589.40	2.405
589.73	2.054
590.07	2.112
590.40	2.804
590.73	1.519
591.07	2.295
591.40	2.253
591.74	2.650
592.07	1.982
592.41	2.081
592.74	2.498
593.08	2.334
593.41	2.105
593.75	1.649
594.08	1.725
594.41	2.514
594.75	2.643
595.08	1.805
595.42	2.384
595.75	1.580
596.09	2.057
596.42	2.250
596.75	1.768
597.09	2.805
597.42	2.226
597.75	2.259
598.09	2.214
598.42	2.033
598.76	1.993
599.09	2.249
599.42	1.538
599.76	2.114
600.09	2.634
600.42	2.469
600.76	1.846
601.09	1.899
601.42	1.425
601.76	2.648
602.09	1.309
602.42	1.687
602.76	1.786
603.09	2.056
603.42	2.417
603.76	2.274
604.09	1.882
604.42	1.915
604.76	2.399
605.09	2.306
605.42	2.261
605.75	2.027
606.09	2.242
606.42	1.676
606.75	2.147
607.09	2.250
607.42	2.333
607.75	1.810
608.08	2.531
608.42	1.656
608.75	1.776
609.08	1.997
609.41	1.844
609.75	2.438
610.08	1.422
610.41	1.639
610.74	2.466
611.07	2.231
611.41	1.261
611.74	2.416
612.07	2.632
612.40	2.026
612.73	1.669
613.07	1.816
613.40	2.518
613.73	2.452
614.06	2.197
614.39	1.635
614.72	1.061
615.06	2.174
615.39	2.225
615.72	2.010
616.05	2.098
616.38	2.031
616.71	1.562
617.05	2.232
617.38	2.477
617.71	0.983
618.04	1.615
618.37	1.384
618.70	2.216
619.03	0.948
619.36	2.044
619.69	2.513
620.03	1.997
620.36	1.477
620.69	1.364
621.02	1.294
621.35	1.694
621.68	1.393
622.01	1.699
622.34	2.407
622.67	1.094
623.00	1.607
623.33	1.642
623.66	1.403
623.99	1.955
624.32	1.339
624.65	1.030
624.99	1.568
625.32	1.198
625.65	1.865
625.98	1.565
626.31	2.692
626.64	2.008
626.97	1.884
627.30	0.851
627.63	0.604
627.96	1.915
628.29	1.103
628.62	0.860
628.95	2.067
629.28	1.128
629.61	-0.294
629.94	1.701
630.26	1.590
630.59	3.015
630.92	1.401
631.25	2.823
631.58	0.529
631.91	-0.319
632.24	1.222
632.57	0.667
632.90	1.954
633.23	1.285
633.56	0.819
633.89	0.943
634.22	0.472
634.55	0.601
634.88	0.846
635.20	-0.125
635.53	0.763
635.86	0.126
636.19	1.099
636.52	0.597
636.85	1.444
637.18	-0.875
637.51	2.354
637.83	0.666
638.16	0.132
638.49	-0.690
638.82	0.000
639.15	1.556
639.48	-0.389
639.81	1.107
640.13	0.676
640.46	0.997
640.79	1.401
641.12	1.410
641.45	1.148
641.77	0.898
642.10	1.511
642.43	0.607
642.76	-0.315
643.09	-0.317
643.41	0.000
643.74	0.954
644.07	1.248
644.40	-0.324
644.73	1.485
645.05	0.000
645.38	0.497
645.71	2.062
646.04	1.513
646.36	-0.698
646.69	-0.346
647.02	-1.444
647.35	0.903
647.67	-0.730
648.00	0.000
648.33	2.867
648.66	-0.968
648.98	0.955
649.31	0.154
649.64	0.938
649.96	0.785
650.29	0.656
