SpectraSuite Data File
++++++++++++++++++++++++++++++++++++
Date: Sat May 16 11:30:52 PDT 2015
User: schluterlab
Dark Spectrum Present: Yes
Reference Spectrum Present: Yes
Number of Sampled Component Spectra: 1
Spectrometers: USB2E3373
Integration Time (usec): 3000 (USB2E3373)
Spectra Averaged: 3 (USB2E3373)
Boxcar Smoothing: 0 (USB2E3373)
Correct for Electrical Dark: No (USB2E3373)
Strobe/Lamp Enabled: No (USB2E3373)
Correct for Detector Non-linearity: No (USB2E3373)
Correct for Stray Light: No (USB2E3373)
Number of Pixels in Processed Spectrum: 2048
>>>>>Begin Processed Spectral Data<<<<<
178.53	0.000
178.91	93.333
179.29	566.667
179.67	-1500.000
180.04	-123.077
180.42	1300.000
180.80	600.000
181.18	425.000
181.56	-150.000
181.94	1300.000
182.31	400.000
182.69	-38.462
183.07	-800.000
183.45	950.000
183.83	366.667
184.20	-228.571
184.58	-162.500
184.96	-550.000
185.34	118.750
185.72	-475.000
186.09	200.000
186.47	-137.500
186.85	-162.500
187.23	-175.000
187.61	-150.000
187.98	-250.000
188.36	-162.500
188.74	-25.000
189.12	1700.000
189.49	442.857
189.87	-83.333
190.25	525.000
190.63	0.000
191.00	-277.778
191.38	120.000
191.76	-73.333
192.14	340.000
192.51	-140.000
192.89	-366.667
193.27	0.000
193.65	-55.556
194.02	-285.714
194.40	366.667
194.78	-60.000
195.15	-2200.000
195.53	-63.636
195.91	-466.667
196.29	300.000
196.66	-800.000
197.04	2200.000
197.42	-300.000
197.79	-26.667
198.17	-233.333
198.55	-400.000
198.92	-1900.000
199.30	262.500
199.68	-400.000
200.05	-200.000
200.43	-244.444
200.81	-1800.000
201.18	-83.333
201.56	85.714
201.94	-33.333
202.31	-36.364
202.69	-60.000
203.07	-100.000
203.44	500.000
203.82	-250.000
204.19	-325.000
204.57	-275.000
204.95	-2000.000
205.32	-62.500
205.70	1600.000
206.08	-800.000
206.45	-77.778
206.83	-700.000
207.20	-450.000
207.58	-700.000
207.96	-400.000
208.33	-200.000
208.71	-100.000
209.08	260.000
209.46	-157.143
209.84	650.000
210.21	0.000
210.59	30.000
210.96	1300.000
211.34	-200.000
211.71	-700.000
212.09	275.000
212.46	950.000
212.84	-3100.000
213.22	100.000
213.59	141.667
213.97	-77.778
214.34	200.000
214.72	-120.000
215.09	-300.000
215.47	-183.333
215.84	-50.000
216.22	-100.000
216.59	6.667
216.97	-200.000
217.34	950.000
217.72	-171.429
218.09	-433.333
218.47	-214.286
218.84	114.286
219.22	-128.571
219.59	0.000
219.97	257.143
220.34	450.000
220.72	225.000
221.09	-84.615
221.47	0.000
221.84	566.667
222.22	-700.000
222.59	1400.000
222.97	-337.500
223.34	-1000.000
223.72	-333.333
224.09	-135.714
224.46	-250.000
224.84	-78.571
225.21	-157.143
225.59	-109.091
225.96	-237.500
226.34	-157.143
226.71	-122.222
227.08	-20.000
227.46	1400.000
227.83	-100.000
228.21	-225.000
228.58	900.000
228.95	-37.500
229.33	-1700.000
229.70	-260.000
230.08	-1100.000
230.45	-25.000
230.82	-133.333
231.20	-300.000
231.57	-500.000
231.95	2500.000
232.32	19.048
232.69	-211.111
233.07	-214.286
233.44	-750.000
233.81	-100.000
234.19	-66.667
234.56	-12.500
234.93	-3.125
235.31	-185.714
235.68	-128.571
236.05	-105.882
236.43	-40.909
236.80	-58.065
237.17	-25.000
237.55	-14.286
237.92	-95.455
238.29	-14.286
238.67	-29.412
239.04	-30.556
239.41	-54.839
239.79	-53.846
240.16	-28.571
240.53	-32.727
240.91	-15.385
241.28	-25.455
241.65	-1.538
242.02	-14.754
242.40	-22.951
242.77	-18.182
243.14	-40.678
243.51	-25.714
243.89	-15.190
244.26	-12.360
244.63	-16.842
245.00	-2.105
245.38	-1.695
245.75	-6.195
246.12	0.800
246.49	-14.173
246.87	-12.195
247.24	-18.644
247.61	-10.169
247.98	-9.155
248.36	-15.385
248.73	-9.494
249.10	-11.465
249.47	-9.357
249.84	-7.955
250.22	-11.310
250.59	-5.085
250.96	-1.047
251.33	-1.422
251.70	-2.404
252.08	-1.422
252.45	-7.583
252.82	-6.190
253.19	-8.936
253.56	-4.032
253.94	-5.907
254.31	-5.150
254.68	-4.472
255.05	-4.839
255.42	-4.365
255.79	-6.452
256.16	-5.882
256.54	-2.574
256.91	-3.788
257.28	-3.297
257.65	-4.965
258.02	-0.943
258.39	-0.669
258.76	-7.770
259.14	-5.864
259.51	-5.574
259.88	0.000
260.25	-2.484
260.62	-5.466
260.99	-2.374
261.36	-1.220
261.73	0.289
262.10	-1.111
262.47	-4.843
262.85	-0.286
263.22	-6.017
263.59	-3.077
263.96	-1.159
264.33	-2.981
264.70	-3.591
265.07	-3.846
265.44	-2.584
265.81	-4.134
266.18	-3.291
266.55	-0.980
266.92	-1.259
267.29	-1.453
267.66	-3.951
268.03	-1.932
268.40	-0.939
268.77	-3.133
269.14	-3.016
269.51	-2.069
269.88	-6.422
270.25	-2.331
270.62	-1.373
270.99	-3.829
271.36	-3.030
271.73	-2.018
272.10	-1.602
272.47	-2.444
272.84	1.556
273.21	-2.064
273.58	-1.758
273.95	-2.412
274.32	-3.167
274.69	1.969
275.06	-1.840
275.43	-3.795
275.80	1.426
276.17	-1.046
276.54	-0.611
276.91	-0.412
277.28	-1.014
277.65	-2.273
278.02	-0.626
278.39	-0.196
278.76	-1.594
279.13	-2.964
279.50	-1.789
279.87	-1.691
280.23	-3.644
280.60	-0.596
280.97	-2.136
281.34	-2.128
281.71	-0.769
282.08	-2.218
282.45	-5.295
282.82	-1.550
283.19	-1.636
283.56	1.648
283.92	-0.707
284.29	-2.788
284.66	0.899
285.03	1.426
285.40	-0.554
285.77	-0.175
286.14	0.000
286.51	-2.131
286.87	-1.089
287.24	-0.853
287.61	-0.331
287.98	-3.293
288.35	-2.479
288.72	-0.509
289.08	-4.237
289.45	-0.673
289.82	-3.979
290.19	1.806
290.56	-2.479
290.93	-1.113
291.29	-2.107
291.66	-1.127
292.03	-0.314
292.40	-1.355
292.77	-1.863
293.13	-1.463
293.50	-0.892
293.87	-1.074
294.24	1.207
294.60	-3.788
294.97	-1.669
295.34	-1.481
295.71	-1.190
296.08	-2.611
296.44	-2.289
296.81	0.712
297.18	-1.127
297.55	-1.271
297.91	-0.139
298.28	-2.603
298.65	-2.232
299.02	0.000
299.38	-0.535
299.75	-0.408
300.12	-0.513
300.48	-0.512
300.85	-1.442
301.22	-0.259
301.59	-1.430
301.95	0.630
302.32	-2.868
302.69	-0.367
303.05	0.000
303.42	-1.125
303.79	-1.077
304.15	1.540
304.52	1.284
304.89	-0.945
305.25	-0.366
305.62	-1.175
305.99	1.296
306.35	0.444
306.72	-1.139
307.09	-0.114
307.45	0.114
307.82	-0.223
308.19	-0.224
308.55	0.218
308.92	-0.215
309.29	-0.324
309.65	-0.106
310.02	0.972
310.38	-0.541
310.75	-1.127
311.12	0.413
311.48	0.209
311.85	2.266
312.22	1.030
312.58	1.831
312.95	0.612
313.31	0.899
313.68	2.412
314.05	1.484
314.41	0.604
314.78	0.500
315.14	1.974
315.51	2.330
315.87	3.195
316.24	2.041
316.61	3.647
316.97	1.095
317.34	0.674
317.70	1.577
318.07	2.612
318.43	2.809
318.80	4.225
319.16	1.970
319.53	2.726
319.89	2.916
320.26	4.412
320.62	2.212
320.99	4.179
321.35	2.463
321.72	3.071
322.08	5.242
322.45	3.960
322.81	5.476
323.18	5.956
323.54	6.007
323.91	6.209
324.27	7.319
324.64	6.764
325.00	8.202
325.37	7.692
325.73	9.799
326.10	8.503
326.46	9.632
326.83	11.234
327.19	9.925
327.56	11.584
327.92	10.790
328.29	11.775
328.65	12.182
329.01	12.633
329.38	13.113
329.74	14.835
330.11	12.965
330.47	14.714
330.84	15.124
331.20	14.711
331.56	14.494
331.93	15.364
332.29	15.799
332.66	16.681
333.02	15.837
333.38	15.950
333.75	17.008
334.11	17.156
334.48	16.858
334.84	19.073
335.20	17.730
335.57	17.780
335.93	19.875
336.29	17.715
336.66	17.269
337.02	19.189
337.38	18.717
337.75	17.910
338.11	19.589
338.47	18.505
338.84	20.327
339.20	18.541
339.56	20.321
339.93	17.460
340.29	18.601
340.65	19.056
341.02	19.393
341.38	18.618
341.74	19.560
342.11	18.601
342.47	18.455
342.83	18.052
343.20	19.471
343.56	18.367
343.92	19.616
344.28	19.512
344.65	17.987
345.01	18.235
345.37	19.435
345.73	18.085
346.10	17.416
346.46	18.115
346.82	18.845
347.19	18.817
347.55	19.342
347.91	18.504
348.27	17.900
348.63	19.225
349.00	18.775
349.36	16.940
349.72	19.108
350.08	19.006
350.45	18.361
350.81	18.949
351.17	17.685
351.53	17.900
351.89	18.674
352.26	18.837
352.62	19.201
352.98	18.987
353.34	18.785
353.70	17.992
354.07	19.197
354.43	17.628
354.79	17.274
355.15	19.010
355.51	18.438
355.87	19.209
356.24	17.712
356.60	20.145
356.96	19.323
357.32	19.002
357.68	18.008
358.04	18.399
358.40	18.794
358.77	19.165
359.13	19.051
359.49	19.199
359.85	18.902
360.21	19.863
360.57	19.729
360.93	19.704
361.29	19.806
361.66	18.750
362.02	19.379
362.38	19.222
362.74	19.487
363.10	19.656
363.46	19.516
363.82	20.262
364.18	20.043
364.54	21.301
364.90	19.776
365.26	19.330
365.62	21.169
365.98	20.839
366.35	19.648
366.71	19.591
367.07	20.042
367.43	20.590
367.79	19.725
368.15	18.634
368.51	20.000
368.87	21.016
369.23	20.632
369.59	20.764
369.95	20.578
370.31	22.011
370.67	20.246
371.03	21.283
371.39	20.721
371.75	21.316
372.11	21.377
372.47	20.029
372.83	21.766
373.19	20.714
373.55	21.816
373.91	21.764
374.27	21.081
374.63	21.463
374.99	21.766
375.35	20.659
375.71	22.552
376.07	21.971
376.42	20.331
376.78	21.830
377.14	22.915
377.50	22.308
377.86	21.977
378.22	22.550
378.58	22.359
378.94	21.147
379.30	22.364
379.66	22.951
380.02	22.400
380.38	22.236
380.74	22.509
381.09	22.964
381.45	23.866
381.81	22.686
382.17	23.684
382.53	23.404
382.89	24.222
383.25	24.262
383.61	23.526
383.97	24.250
384.32	24.531
384.68	24.063
385.04	23.188
385.40	23.920
385.76	24.878
386.12	23.298
386.48	25.124
386.83	24.110
387.19	24.567
387.55	24.955
387.91	25.015
388.27	24.125
388.62	25.120
388.98	24.712
389.34	25.520
389.70	24.970
390.06	24.052
390.42	24.679
390.77	25.868
391.13	25.031
391.49	26.263
391.85	25.436
392.20	24.697
392.56	24.679
392.92	26.070
393.28	26.406
393.64	25.917
393.99	26.031
394.35	25.669
394.71	25.510
395.07	25.424
395.42	25.507
395.78	24.953
396.14	26.480
396.50	25.566
396.85	25.231
397.21	25.942
397.57	26.565
397.92	25.585
398.28	26.500
398.64	26.472
399.00	25.787
399.35	25.141
399.71	26.190
400.07	26.687
400.42	26.277
400.78	24.687
401.14	26.228
401.49	25.413
401.85	26.236
402.21	26.937
402.57	25.910
402.92	26.683
403.28	25.551
403.63	24.985
403.99	25.420
404.35	24.758
404.70	25.512
405.06	26.182
405.42	24.908
405.77	25.170
406.13	25.724
406.49	26.423
406.84	26.215
407.20	26.796
407.55	25.332
407.91	25.972
408.27	25.613
408.62	26.278
408.98	25.773
409.34	26.143
409.69	26.213
410.05	25.045
410.40	25.015
410.76	25.726
411.11	26.122
411.47	25.959
411.83	25.489
412.18	24.876
412.54	25.503
412.89	25.273
413.25	24.970
413.60	24.909
413.96	24.646
414.31	26.177
414.67	26.032
415.03	25.679
415.38	26.675
415.74	25.773
416.09	25.192
416.45	25.595
416.80	26.203
417.16	25.316
417.51	25.607
417.87	25.696
418.22	25.664
418.58	27.599
418.93	25.383
419.29	25.533
419.64	25.251
420.00	26.671
420.35	25.606
420.71	26.771
421.06	26.805
421.42	25.059
421.77	26.186
422.12	26.693
422.48	25.387
422.83	26.367
423.19	26.169
423.54	27.147
423.90	26.374
424.25	26.527
424.61	27.503
424.96	27.033
425.31	27.390
425.67	26.304
426.02	26.965
426.38	27.526
426.73	26.943
427.09	26.532
427.44	27.841
427.79	27.035
428.15	27.648
428.50	27.625
428.85	27.218
429.21	28.002
429.56	28.542
429.92	27.054
430.27	27.916
430.62	27.952
430.98	26.137
431.33	27.908
431.68	28.043
432.04	28.987
432.39	27.749
432.74	28.777
433.10	28.869
433.45	27.288
433.80	29.003
434.16	28.103
434.51	28.548
434.86	29.350
435.22	29.343
435.57	28.029
435.92	28.546
436.28	29.139
436.63	28.830
436.98	29.095
437.34	29.002
437.69	27.596
438.04	28.928
438.39	28.580
438.75	28.813
439.10	28.540
439.45	29.149
439.81	28.494
440.16	28.563
440.51	29.353
440.86	28.803
441.22	27.805
441.57	29.368
441.92	29.309
442.27	28.463
442.63	28.970
442.98	28.047
443.33	29.325
443.68	28.400
444.03	30.010
444.39	29.369
444.74	30.396
445.09	29.770
445.44	30.501
445.79	29.985
446.15	29.573
446.50	28.634
446.85	29.194
447.20	29.622
447.55	29.392
447.91	29.815
448.26	29.553
448.61	29.711
448.96	30.308
449.31	29.481
449.66	30.395
450.02	29.252
450.37	28.058
450.72	29.605
451.07	30.233
451.42	28.748
451.77	29.384
452.12	29.857
452.47	30.793
452.83	30.052
453.18	29.791
453.53	29.789
453.88	30.622
454.23	30.472
454.58	31.200
454.93	29.975
455.28	30.147
455.63	29.975
455.98	30.000
456.34	29.733
456.69	31.019
457.04	30.240
457.39	30.562
457.74	29.711
458.09	31.032
458.44	30.831
458.79	30.101
459.14	30.234
459.49	30.965
459.84	30.242
460.19	30.072
460.54	30.188
460.89	29.316
461.24	31.026
461.59	30.305
461.94	31.127
462.29	31.626
462.64	31.159
462.99	31.124
463.34	29.912
463.69	30.407
464.04	30.404
464.39	30.227
464.74	30.556
465.09	30.066
465.44	30.964
465.79	30.908
466.14	30.955
466.49	30.628
466.84	31.152
467.19	31.546
467.54	30.570
467.89	31.073
468.24	30.938
468.59	30.856
468.94	31.061
469.29	31.189
469.64	31.334
469.99	31.263
470.34	31.329
470.68	30.451
471.03	30.764
471.38	30.903
471.73	32.448
472.08	30.857
472.43	30.824
472.78	30.733
473.13	29.622
473.48	31.142
473.83	30.769
474.17	31.592
474.52	32.417
474.87	31.760
475.22	29.794
475.57	31.056
475.92	30.778
476.27	30.743
476.61	31.268
476.96	30.799
477.31	31.647
477.66	31.489
478.01	31.659
478.36	30.330
478.70	31.927
479.05	31.585
479.40	32.124
479.75	31.142
480.10	30.853
480.45	30.754
480.79	30.997
481.14	31.912
481.49	31.365
481.84	31.669
482.19	30.927
482.53	32.244
482.88	31.894
483.23	31.549
483.58	32.424
483.92	31.581
484.27	30.882
484.62	31.145
484.97	31.294
485.31	29.856
485.66	29.092
486.01	29.118
486.36	30.880
486.70	30.588
487.05	30.820
487.40	30.582
487.75	30.320
488.09	29.586
488.44	31.022
488.79	30.916
489.13	31.153
489.48	30.302
489.83	30.742
490.17	31.781
490.52	32.020
490.87	31.132
491.22	31.200
491.56	31.852
491.91	31.966
492.26	30.991
492.60	31.161
492.95	31.461
493.30	31.491
493.64	30.701
493.99	31.262
494.34	31.667
494.68	32.865
495.03	31.310
495.37	32.006
495.72	31.483
496.07	31.394
496.41	32.793
496.76	31.461
497.11	31.842
497.45	32.088
497.80	31.966
498.14	30.796
498.49	31.944
498.84	31.262
499.18	32.066
499.53	31.856
499.87	32.674
500.22	32.304
500.56	31.816
500.91	31.921
501.26	32.363
501.60	31.295
501.95	32.319
502.29	31.696
502.64	32.909
502.98	31.576
503.33	31.109
503.67	31.609
504.02	31.579
504.36	32.353
504.71	31.206
505.06	31.453
505.40	32.884
505.75	31.504
506.09	32.103
506.44	31.429
506.78	32.313
507.13	31.411
507.47	31.821
507.82	31.802
508.16	31.917
508.51	31.479
508.85	32.039
509.19	31.397
509.54	32.241
509.88	32.021
510.23	32.233
510.57	32.646
510.92	32.062
511.26	32.057
511.61	31.911
511.95	32.974
512.30	32.051
512.64	31.219
512.98	32.948
513.33	32.290
513.67	31.547
514.02	32.383
514.36	33.075
514.70	32.654
515.05	33.562
515.39	31.892
515.74	33.159
516.08	32.450
516.42	33.144
516.77	32.293
517.11	33.009
517.46	33.254
517.80	33.755
518.14	32.367
518.49	32.397
518.83	32.344
519.17	32.860
519.52	31.926
519.86	34.528
520.20	33.252
520.55	33.354
520.89	32.874
521.23	32.051
521.58	32.602
521.92	32.552
522.26	32.698
522.61	32.573
522.95	32.993
523.29	33.480
523.64	32.605
523.98	32.400
524.32	33.375
524.66	32.050
525.01	33.205
525.35	32.796
525.69	32.726
526.04	33.812
526.38	32.973
526.72	32.375
527.06	33.268
527.41	33.003
527.75	32.871
528.09	33.024
528.43	32.721
528.78	32.098
529.12	34.123
529.46	32.281
529.80	32.085
530.15	33.484
530.49	33.053
530.83	33.661
531.17	33.131
531.51	32.820
531.86	31.995
532.20	32.861
532.54	33.690
532.88	31.950
533.22	33.422
533.57	32.963
533.91	32.022
534.25	31.301
534.59	31.855
534.93	31.487
535.27	32.096
535.62	31.777
535.96	31.674
536.30	31.872
536.64	31.873
536.98	33.404
537.32	32.965
537.66	32.383
538.01	32.096
538.35	31.824
538.69	31.818
539.03	31.415
539.37	31.803
539.71	31.621
540.05	32.282
540.39	32.479
540.73	31.652
541.07	32.650
541.42	31.533
541.76	31.628
542.10	32.005
542.44	31.912
542.78	31.615
543.12	31.840
543.46	30.274
543.80	30.635
544.14	32.102
544.48	32.152
544.82	31.394
545.16	31.791
545.50	30.686
545.84	31.850
546.18	32.386
546.52	32.361
546.86	31.766
547.20	31.646
547.54	31.267
547.88	32.250
548.22	29.620
548.56	31.129
548.90	31.402
549.24	31.184
549.58	31.898
549.92	32.085
550.26	32.731
550.60	31.010
550.94	31.898
551.28	31.904
551.62	31.979
551.96	31.548
552.30	32.334
552.64	31.809
552.98	31.745
553.32	30.664
553.66	32.444
554.00	33.262
554.34	31.625
554.68	31.798
555.02	31.983
555.36	31.560
555.69	31.375
556.03	31.860
556.37	31.792
556.71	32.212
557.05	32.520
557.39	31.626
557.73	32.385
558.07	32.178
558.41	31.862
558.75	33.308
559.08	31.518
559.42	33.308
559.76	32.669
560.10	32.662
560.44	32.225
560.78	31.176
561.12	30.918
561.45	31.575
561.79	30.871
562.13	31.627
562.47	31.513
562.81	30.976
563.15	31.840
563.48	31.859
563.82	31.575
564.16	31.508
564.50	31.317
564.84	31.548
565.17	31.167
565.51	30.639
565.85	31.643
566.19	30.962
566.52	31.246
566.86	30.594
567.20	30.206
567.54	30.478
567.88	30.262
568.21	30.369
568.55	29.799
568.89	28.231
569.23	29.477
569.56	28.247
569.90	30.252
570.24	29.087
570.57	28.049
570.91	28.052
571.25	28.080
571.59	28.130
571.92	27.321
572.26	27.771
572.60	27.862
572.93	28.027
573.27	27.652
573.61	27.273
573.95	27.408
574.28	27.110
574.62	27.733
574.96	26.869
575.29	26.982
575.63	27.422
575.97	26.861
576.30	26.418
576.64	27.493
576.98	26.574
577.31	26.961
577.65	26.616
577.98	26.490
578.32	26.331
578.66	26.443
578.99	27.036
579.33	27.179
579.67	26.300
580.00	26.488
580.34	26.590
580.67	26.330
581.01	26.440
581.35	26.825
581.68	26.031
582.02	26.326
582.35	26.289
582.69	27.028
583.02	26.967
583.36	26.787
583.70	26.728
584.03	27.020
584.37	26.306
584.70	26.963
585.04	25.722
585.37	26.181
585.71	26.125
586.04	26.976
586.38	26.811
586.72	27.339
587.05	26.621
587.39	26.687
587.72	26.785
588.06	26.355
588.39	27.029
588.73	26.795
589.06	27.909
589.40	27.654
589.73	27.691
590.07	27.058
590.40	27.159
590.73	27.949
591.07	27.910
591.40	27.903
591.74	28.671
592.07	27.973
592.41	27.643
592.74	26.941
593.08	27.532
593.41	26.678
593.75	26.607
594.08	27.534
594.41	27.874
594.75	27.671
595.08	27.556
595.42	27.746
595.75	27.012
596.09	28.056
596.42	28.028
596.75	27.339
597.09	28.228
597.42	27.630
597.75	27.059
598.09	27.926
598.42	27.486
598.76	27.118
599.09	26.875
599.42	26.797
599.76	27.218
600.09	27.672
600.42	27.231
600.76	27.307
601.09	26.548
601.42	26.989
601.76	26.908
602.09	26.830
602.42	27.531
602.76	26.838
603.09	26.532
603.42	26.873
603.76	26.805
604.09	26.752
604.42	26.603
604.76	27.737
605.09	27.260
605.42	28.147
605.75	26.520
606.09	27.107
606.42	26.477
606.75	26.921
607.09	27.614
607.42	27.289
607.75	26.799
608.08	27.610
608.42	27.673
608.75	27.009
609.08	27.813
609.41	27.055
609.75	26.036
610.08	28.039
610.41	28.627
610.74	28.385
611.07	27.688
611.41	27.181
611.74	28.329
612.07	27.712
612.40	27.026
612.73	28.110
613.07	27.738
613.40	28.571
613.73	28.229
614.06	27.897
614.39	28.298
614.72	27.095
615.06	27.500
615.39	26.913
615.72	28.246
616.05	27.830
616.38	28.207
616.71	28.108
617.05	27.624
617.38	28.297
617.71	27.211
618.04	27.950
618.37	27.421
618.70	28.488
619.03	28.707
619.36	28.682
619.69	28.571
620.03	28.719
620.36	28.622
620.69	29.289
621.02	29.680
621.35	28.629
621.68	28.361
622.01	28.883
622.34	28.261
622.67	28.594
623.00	29.227
623.33	28.731
623.66	27.770
623.99	28.571
624.32	28.423
624.65	28.403
624.99	28.678
625.32	28.368
625.65	29.448
625.98	28.482
626.31	28.548
626.64	27.950
626.97	29.024
627.30	28.255
627.63	28.325
627.96	29.765
628.29	29.136
628.62	29.608
628.95	30.807
629.28	29.511
629.61	28.263
629.94	28.639
630.26	30.616
630.59	29.749
630.92	30.631
631.25	30.645
631.58	31.534
631.91	29.681
632.24	30.111
