SpectraSuite Data File
++++++++++++++++++++++++++++++++++++
Date: Sat May 16 11:24:25 PDT 2015
User: schluterlab
Dark Spectrum Present: Yes
Reference Spectrum Present: Yes
Number of Sampled Component Spectra: 1
Spectrometers: USB2E3373
Integration Time (usec): 3000 (USB2E3373)
Spectra Averaged: 3 (USB2E3373)
Boxcar Smoothing: 0 (USB2E3373)
Correct for Electrical Dark: No (USB2E3373)
Strobe/Lamp Enabled: No (USB2E3373)
Correct for Detector Non-linearity: No (USB2E3373)
Correct for Stray Light: No (USB2E3373)
Number of Pixels in Processed Spectrum: 2048
>>>>>Begin Processed Spectral Data<<<<<
178.53	0.000
178.91	126.667
179.29	500.000
179.67	-1400.000
180.04	0.000
180.42	900.000
180.80	400.000
181.18	250.000
181.56	-87.500
181.94	1200.000
182.31	475.000
182.69	-15.385
183.07	-366.667
183.45	1300.000
183.83	233.333
184.20	-357.143
184.58	-87.500
184.96	-375.000
185.34	118.750
185.72	-475.000
186.09	483.333
186.47	-350.000
186.85	-137.500
187.23	-125.000
187.61	-50.000
187.98	-187.500
188.36	-100.000
188.74	-187.500
189.12	2100.000
189.49	314.286
189.87	-58.333
190.25	475.000
190.63	-57.143
191.00	-211.111
191.38	280.000
191.76	-13.333
192.14	660.000
192.51	-380.000
192.89	-433.333
193.27	0.000
193.65	-122.222
194.02	-342.857
194.40	933.333
194.78	-160.000
195.15	-1500.000
195.53	-218.182
195.91	-316.667
196.29	140.000
196.66	-666.667
197.04	1800.000
197.42	-150.000
197.79	-20.000
198.17	-266.667
198.55	-1500.000
198.92	-500.000
199.30	150.000
199.68	-400.000
200.05	-155.556
200.43	-322.222
200.81	-600.000
201.18	-141.667
201.56	228.571
201.94	-33.333
202.31	36.364
202.69	50.000
203.07	-140.000
203.44	666.667
203.82	-233.333
204.19	-375.000
204.57	-300.000
204.95	-1500.000
205.32	-62.500
205.70	-100.000
206.08	-2100.000
206.45	-88.889
206.83	-1050.000
207.20	-200.000
207.58	-600.000
207.96	-500.000
208.33	-100.000
208.71	-88.889
209.08	240.000
209.46	-114.286
209.84	450.000
210.21	0.000
210.59	35.000
210.96	1600.000
211.34	-233.333
211.71	-366.667
212.09	300.000
212.46	1050.000
212.84	-2000.000
213.22	400.000
213.59	175.000
213.97	-22.222
214.34	80.000
214.72	-80.000
215.09	-800.000
215.47	-200.000
215.84	-110.000
216.22	-50.000
216.59	-53.333
216.97	-400.000
217.34	1000.000
217.72	-100.000
218.09	-250.000
218.47	-157.143
218.84	214.286
219.22	-214.286
219.59	0.000
219.97	114.286
220.34	425.000
220.72	262.500
221.09	-146.154
221.47	0.000
221.84	766.667
222.22	-300.000
222.59	2200.000
222.97	-162.500
223.34	-650.000
223.72	-600.000
224.09	-14.286
224.46	-350.000
224.84	-50.000
225.21	-285.714
225.59	-109.091
225.96	-200.000
226.34	-14.286
226.71	-188.889
227.08	-10.000
227.46	1900.000
227.83	-214.286
228.21	-237.500
228.58	700.000
228.95	-37.500
229.33	-1000.000
229.70	-220.000
230.08	-1150.000
230.45	-66.667
230.82	-283.333
231.20	-1200.000
231.57	-150.000
231.95	1900.000
232.32	-4.762
232.69	-155.556
233.07	-100.000
233.44	-850.000
233.81	-46.667
234.19	-166.667
234.56	-43.750
234.93	-12.500
235.31	-228.571
235.68	-135.714
236.05	-58.824
236.43	-90.909
236.80	-3.226
237.17	-29.167
237.55	-104.762
237.92	-127.273
238.29	-8.571
238.67	14.706
239.04	-38.889
239.41	-61.290
239.79	-76.923
240.16	-30.952
240.53	-20.000
240.91	-46.154
241.28	-14.545
241.65	21.538
242.02	-14.754
242.40	-27.869
242.77	-7.576
243.14	-25.424
243.51	-31.429
243.89	-8.861
244.26	-21.348
244.63	1.053
245.00	-4.211
245.38	-1.695
245.75	-3.540
246.12	-7.200
246.49	-8.661
246.87	-5.691
247.24	-9.322
247.61	-22.034
247.98	-5.634
248.36	-9.091
248.73	-3.165
249.10	-12.102
249.47	-4.094
249.84	-3.977
250.22	-14.286
250.59	-8.475
250.96	-3.141
251.33	-1.422
251.70	-6.731
252.08	-3.791
252.45	-6.161
252.82	-4.762
253.19	-8.936
253.56	-3.629
253.94	-2.954
254.31	-3.004
254.68	-2.033
255.05	-6.048
255.42	-0.794
255.79	-5.376
256.16	-1.961
256.54	-4.412
256.91	-7.197
257.28	-4.762
257.65	-3.546
258.02	3.145
258.39	-8.696
258.76	-8.108
259.14	-2.469
259.51	-0.328
259.88	-2.744
260.25	-1.553
260.62	-3.859
260.99	-5.045
261.36	0.305
261.73	-0.289
262.10	1.111
262.47	-3.134
262.85	2.857
263.22	-3.438
263.59	-3.077
263.96	-3.188
264.33	-2.168
264.70	-1.381
265.07	-2.198
265.44	-1.034
265.81	2.326
266.18	-3.544
266.55	-2.206
266.92	-3.023
267.29	-3.874
267.66	-2.716
268.03	0.000
268.40	0.000
268.77	-2.169
269.14	-1.856
269.51	-1.149
269.88	-0.688
270.25	-3.497
270.62	-1.373
270.99	-2.252
271.36	-2.331
271.73	-2.466
272.10	-1.831
272.47	-1.556
272.84	1.333
273.21	-3.211
273.58	-0.659
273.95	-1.974
274.32	-1.810
274.69	-1.532
275.06	-0.818
275.43	-3.348
275.80	1.222
276.17	1.464
276.54	0.407
276.91	-1.646
277.28	-1.014
277.65	-1.860
278.02	-1.044
278.39	-1.375
278.76	-2.390
279.13	-0.395
279.50	-0.994
279.87	-2.326
280.23	2.024
280.60	-1.392
280.97	-1.359
281.34	-0.967
281.71	-0.192
282.08	-1.210
282.45	-2.851
282.82	-0.388
283.19	-3.273
283.56	2.747
283.92	-0.707
284.29	-1.487
284.66	-1.259
285.03	0.535
285.40	0.923
285.77	0.526
286.14	0.361
286.51	-1.599
286.87	-2.722
287.24	-0.341
287.61	-0.165
287.98	-1.040
288.35	-1.157
288.72	-0.679
289.08	-0.678
289.45	0.168
289.82	-2.249
290.19	1.642
290.56	-2.149
290.93	0.000
291.29	-0.324
291.66	-0.644
292.03	-0.785
292.40	1.807
292.77	0.000
293.13	1.138
293.50	-0.743
293.87	-1.074
294.24	1.810
294.60	-0.909
294.97	1.214
295.34	-1.185
295.71	0.595
296.08	-2.611
296.44	0.572
296.81	0.285
297.18	0.282
297.55	0.424
297.91	0.976
298.28	-0.685
298.65	0.558
299.02	2.139
299.38	1.070
299.75	-0.272
300.12	0.641
300.48	2.941
300.85	0.393
301.22	0.517
301.59	0.390
301.95	0.756
302.32	-0.130
302.69	2.203
303.05	0.733
303.42	-0.125
303.79	0.718
304.15	0.948
304.52	0.933
304.89	0.826
305.25	0.122
305.62	1.175
305.99	2.120
306.35	1.221
306.72	0.456
307.09	2.270
307.45	0.227
307.82	0.335
308.19	1.230
308.55	0.980
308.92	0.537
309.29	0.432
309.65	1.591
310.02	1.188
310.38	1.081
310.75	1.742
311.12	2.066
311.48	1.148
311.85	2.266
312.22	1.545
312.58	2.848
312.95	1.835
313.31	2.398
313.68	2.010
314.05	4.055
314.41	1.308
314.78	1.499
315.14	2.962
315.51	2.938
315.87	2.711
316.24	3.304
316.61	4.031
316.97	3.483
317.34	2.312
317.70	1.948
318.07	4.757
318.43	4.588
318.80	4.977
319.16	3.565
319.53	3.008
319.89	2.728
320.26	3.039
320.62	2.885
320.99	4.577
321.35	3.645
321.72	2.354
322.08	3.660
322.45	2.871
322.81	4.803
323.18	4.803
323.54	4.529
323.91	4.727
324.27	4.753
324.64	4.296
325.00	5.410
325.37	4.434
325.73	5.424
326.10	3.543
326.46	5.517
326.83	5.106
327.19	5.755
327.56	6.388
327.92	5.183
328.29	5.974
328.65	3.818
329.01	6.272
329.38	4.282
329.74	6.685
330.11	6.618
330.47	5.540
330.84	6.966
331.20	5.054
331.56	5.378
331.93	5.950
332.29	5.753
332.66	6.058
333.02	6.787
333.38	6.004
333.75	7.836
334.11	5.867
334.48	6.002
334.84	7.349
335.20	5.940
335.57	6.137
335.93	7.789
336.29	5.403
336.66	5.991
337.02	6.306
337.38	5.615
337.75	5.882
338.11	6.082
338.47	6.317
338.84	6.534
339.20	6.854
339.56	7.041
339.93	6.173
340.29	5.669
340.65	4.808
341.02	7.251
341.38	5.981
341.74	7.197
342.11	5.802
342.47	5.837
342.83	6.465
343.20	6.661
343.56	5.143
343.92	6.511
344.28	6.812
344.65	5.776
345.01	5.798
345.37	6.811
345.73	5.483
346.10	4.988
346.46	5.605
346.82	6.335
347.19	5.177
347.55	6.019
347.91	5.591
348.27	5.807
348.63	6.704
349.00	6.603
349.36	4.606
349.72	7.086
350.08	6.335
350.45	4.807
350.81	6.290
351.17	4.582
351.53	6.046
351.89	5.416
352.26	5.891
352.62	6.375
352.98	6.250
353.34	6.795
353.70	6.023
354.07	6.294
354.43	6.008
354.79	6.101
355.15	5.591
355.51	5.859
355.87	5.929
356.24	5.481
356.60	7.172
356.96	6.543
357.32	6.176
357.68	6.437
358.04	6.620
358.40	6.265
358.77	5.410
359.13	6.580
359.49	6.954
359.85	6.250
360.21	6.012
360.57	6.627
360.93	6.519
361.29	5.830
361.66	5.793
362.02	5.178
362.38	6.823
362.74	6.740
363.10	7.102
363.46	6.054
363.82	6.997
364.18	6.946
364.54	7.791
364.90	6.639
365.26	6.205
365.62	6.914
365.98	7.041
366.35	6.549
366.71	6.272
367.07	6.563
367.43	7.412
367.79	7.010
368.15	5.405
368.51	7.483
368.87	8.104
369.23	7.158
369.59	7.292
369.95	6.624
370.31	7.876
370.67	7.014
371.03	7.653
371.39	6.860
371.75	7.296
372.11	7.891
372.47	7.737
372.83	7.371
373.19	7.143
373.55	8.234
373.91	6.686
374.27	7.255
374.63	7.177
374.99	7.928
375.35	6.662
375.71	8.103
376.07	6.982
376.42	7.086
376.78	7.647
377.14	7.593
377.50	7.737
377.86	7.282
378.22	7.663
378.58	7.783
378.94	7.645
379.30	7.983
379.66	8.257
380.02	7.546
380.38	7.915
380.74	7.796
381.09	8.846
381.45	8.473
381.81	8.046
382.17	8.647
382.53	8.207
382.89	7.835
383.25	8.188
383.61	8.137
383.97	8.696
384.32	8.448
384.68	8.464
385.04	8.333
385.40	8.704
385.76	8.537
386.12	8.869
386.48	9.530
386.83	8.160
387.19	8.548
387.55	8.722
387.91	8.002
388.27	7.720
388.62	8.534
388.98	8.298
389.34	8.629
389.70	8.952
390.06	8.080
390.42	8.526
390.77	8.644
391.13	10.373
391.49	8.609
391.85	9.601
392.20	8.738
392.56	8.919
392.92	8.614
393.28	9.185
393.64	8.900
393.99	9.477
394.35	9.246
394.71	8.647
395.07	9.542
395.42	8.164
395.78	7.857
396.14	9.408
396.50	8.746
396.85	9.500
397.21	9.781
397.57	9.240
397.92	9.836
398.28	9.500
398.64	9.102
399.00	8.876
399.35	8.737
399.71	9.524
400.07	9.313
400.42	8.881
400.78	9.064
401.14	9.162
401.49	8.903
401.85	8.115
402.21	9.178
402.57	8.981
402.92	9.251
403.28	9.069
403.63	8.508
403.99	9.074
404.35	8.756
404.70	9.362
405.06	9.343
405.42	8.364
405.77	8.314
406.13	9.086
406.49	9.227
406.84	8.698
407.20	9.541
407.55	8.740
407.91	7.966
408.27	9.007
408.62	9.080
408.98	8.733
409.34	8.531
409.69	8.822
410.05	8.187
410.40	7.971
410.76	9.484
411.11	8.167
411.47	8.824
411.83	9.230
412.18	8.663
412.54	9.030
412.89	9.781
413.25	8.264
413.60	8.262
413.96	7.579
414.31	8.563
414.67	8.444
415.03	7.956
415.38	9.759
415.74	9.729
416.09	8.504
416.45	8.333
416.80	9.363
417.16	9.568
417.51	9.455
417.87	8.867
418.22	8.028
418.58	8.344
418.93	9.135
419.29	9.285
419.64	8.417
420.00	9.295
420.35	9.225
420.71	8.463
421.06	9.822
421.42	8.372
421.77	9.827
422.12	9.289
422.48	8.926
422.83	9.339
423.19	9.354
423.54	9.395
423.90	9.427
424.25	8.880
424.61	9.288
424.96	10.240
425.31	9.782
425.67	9.799
426.02	9.352
426.38	9.619
426.73	10.053
427.09	10.539
427.44	10.511
427.79	9.012
428.15	9.455
428.50	10.733
428.85	9.772
429.21	9.740
429.56	9.635
429.92	10.671
430.27	9.920
430.62	10.293
430.98	9.723
431.33	9.925
431.68	10.241
432.04	10.520
432.39	10.712
432.74	10.492
433.10	10.467
433.45	9.557
433.80	10.638
434.16	9.565
434.51	10.795
434.86	10.779
435.22	10.189
435.57	10.894
435.92	10.961
436.28	10.742
436.63	10.458
436.98	10.080
437.34	11.105
437.69	11.260
438.04	10.437
438.39	11.252
438.75	11.467
439.10	10.605
439.45	10.803
439.81	10.964
440.16	11.244
440.51	11.471
440.86	11.220
441.22	9.840
441.57	10.789
441.92	10.946
442.27	11.310
442.63	11.373
442.98	10.271
443.33	10.873
443.68	11.933
444.03	11.493
444.39	11.111
444.74	11.564
445.09	10.636
445.44	10.974
445.79	11.372
446.15	12.048
446.50	10.778
446.85	11.596
447.20	11.032
447.55	11.492
447.91	11.230
448.26	10.838
448.61	11.149
448.96	11.204
449.31	11.161
449.66	11.391
450.02	10.914
450.37	10.957
450.72	11.695
451.07	11.565
451.42	10.843
451.77	11.670
452.12	10.846
452.47	11.902
452.83	11.182
453.18	11.069
453.53	11.940
453.88	12.141
454.23	11.487
454.58	11.933
454.93	11.587
455.28	11.281
455.63	11.794
455.98	11.386
456.34	10.928
456.69	13.008
457.04	12.170
457.39	12.739
457.74	11.872
458.09	12.471
458.44	12.413
458.79	12.052
459.14	11.751
459.49	11.960
459.84	11.861
460.19	12.112
460.54	11.676
460.89	12.164
461.24	12.143
461.59	12.778
461.94	11.840
462.29	12.507
462.64	12.121
462.99	11.647
463.34	12.357
463.69	11.768
464.04	11.072
464.39	10.932
464.74	11.939
465.09	10.764
465.44	11.675
465.79	12.803
466.14	12.255
466.49	11.514
466.84	12.185
467.19	11.783
467.54	10.759
467.89	12.022
468.24	12.114
468.59	12.305
468.94	11.704
469.29	11.566
469.64	12.197
469.99	12.694
470.34	12.291
470.68	13.081
471.03	12.732
471.38	12.361
471.73	11.399
472.08	11.446
472.43	11.519
472.78	13.267
473.13	11.266
473.48	12.699
473.83	11.600
474.17	12.357
474.52	12.596
474.87	12.587
475.22	12.035
475.57	12.278
475.92	12.257
476.27	12.229
476.61	11.775
476.96	12.800
477.31	12.863
477.66	12.341
478.01	12.210
478.36	12.258
478.70	12.707
479.05	12.818
479.40	12.280
479.75	11.927
480.10	12.351
480.45	12.379
480.79	12.192
481.14	12.393
481.49	13.214
481.84	11.882
482.19	12.837
482.53	12.595
482.88	12.103
483.23	12.911
483.58	12.350
483.92	12.136
484.27	12.096
484.62	12.354
484.97	12.822
485.31	11.808
485.66	12.013
486.01	12.169
486.36	12.480
486.70	12.695
487.05	12.308
487.40	12.340
487.75	12.325
488.09	12.230
488.44	12.449
488.79	12.451
489.13	12.781
489.48	12.153
489.83	12.489
490.17	13.104
490.52	13.043
490.87	12.286
491.22	12.004
491.56	12.824
491.91	12.309
492.26	12.500
492.60	12.226
492.95	13.279
493.30	12.577
493.64	12.694
493.99	12.237
494.34	12.381
494.68	12.594
495.03	13.193
495.37	12.242
495.72	12.033
496.07	12.576
496.41	13.617
496.76	12.740
497.11	12.859
497.45	13.314
497.80	12.306
498.14	12.672
498.49	12.104
498.84	12.767
499.18	13.353
499.53	12.323
499.87	12.548
500.22	12.451
500.56	12.756
500.91	12.906
501.26	12.809
501.60	12.277
501.95	13.237
502.29	12.848
502.64	12.683
502.98	12.410
503.33	13.581
503.67	12.452
504.02	12.651
504.36	12.353
504.71	12.867
505.06	12.731
505.40	13.523
505.75	12.754
506.09	12.588
506.44	12.682
506.78	13.347
507.13	13.028
507.47	12.885
507.82	12.907
508.16	13.316
508.51	12.777
508.85	12.836
509.19	13.082
509.54	13.478
509.88	13.245
510.23	13.417
510.57	14.180
510.92	13.480
511.26	12.600
511.61	12.743
511.95	13.578
512.30	12.699
512.64	12.465
512.98	13.311
513.33	13.509
513.67	13.009
514.02	12.864
514.36	14.072
514.70	13.243
515.05	13.436
515.39	13.149
515.74	14.078
516.08	14.121
516.42	13.994
516.77	13.518
517.11	14.130
517.46	13.636
517.80	14.140
518.14	13.043
518.49	13.449
518.83	13.412
519.17	13.440
519.52	13.476
519.86	14.456
520.20	13.447
520.55	13.108
520.89	14.152
521.23	14.591
521.58	12.853
521.92	14.566
522.26	14.222
522.61	14.575
522.95	13.465
523.29	13.793
523.64	13.741
523.98	13.558
524.32	12.948
524.66	13.540
525.01	13.744
525.35	13.918
525.69	13.728
526.04	13.446
526.38	14.322
526.72	13.793
527.06	14.388
527.41	13.333
527.75	13.729
528.09	13.832
528.43	13.902
528.78	13.379
529.12	14.725
529.46	13.724
529.80	13.622
530.15	14.037
530.49	13.713
530.83	14.866
531.17	13.266
531.51	12.994
531.86	14.022
532.20	13.428
532.54	14.439
532.88	13.900
533.22	13.503
533.57	13.969
533.91	12.859
534.25	13.576
534.59	13.429
534.93	13.068
535.27	14.475
535.62	13.619
535.96	13.510
536.30	13.678
536.64	14.475
536.98	13.983
537.32	13.476
537.66	13.781
538.01	13.471
538.35	14.527
538.69	13.636
539.03	13.676
539.37	13.307
539.71	13.943
540.05	13.708
540.39	14.058
540.73	13.407
541.07	13.730
541.42	13.842
541.76	12.824
542.10	15.530
542.44	13.591
542.78	13.636
543.12	13.781
543.46	12.603
543.80	12.977
544.14	13.902
544.48	13.845
544.82	13.938
545.16	13.816
545.50	11.844
545.84	14.812
546.18	14.286
546.52	14.651
546.86	13.390
547.20	14.135
547.54	13.705
547.88	14.068
548.22	12.713
548.56	13.293
548.90	14.488
549.24	14.226
549.58	13.479
549.92	13.993
550.26	14.740
550.60	13.869
550.94	14.307
551.28	13.845
551.62	13.663
551.96	13.386
552.30	13.659
552.64	13.371
552.98	14.856
553.32	13.420
553.66	14.564
554.00	13.788
554.34	13.935
554.68	13.012
555.02	14.399
555.36	13.803
555.69	13.897
556.03	13.895
556.37	15.078
556.71	15.390
557.05	14.043
557.39	13.586
557.73	14.953
558.07	14.243
558.41	14.510
558.75	13.308
559.08	13.463
559.42	14.165
559.76	13.650
560.10	14.616
560.44	14.162
560.78	13.640
561.12	14.907
561.45	14.589
561.79	14.425
562.13	14.236
562.47	14.006
562.81	14.851
563.15	13.016
563.48	14.789
563.82	14.199
564.16	13.861
564.50	14.113
564.84	14.153
565.17	14.854
565.51	14.928
565.85	14.604
566.19	14.625
566.52	13.633
566.86	13.906
567.20	15.254
567.54	14.885
567.88	14.070
568.21	13.926
568.55	14.475
568.89	14.165
569.23	13.975
569.56	13.493
569.90	13.847
570.24	13.717
570.57	13.708
570.91	13.193
571.25	13.878
571.59	13.893
571.92	13.571
572.26	13.361
572.60	13.745
572.93	13.936
573.27	13.049
573.61	13.134
573.95	13.571
574.28	13.646
574.62	13.650
574.96	13.584
575.29	13.618
575.63	13.300
575.97	13.403
576.30	13.511
576.64	13.525
576.98	13.735
577.31	13.111
577.65	13.532
577.98	13.432
578.32	13.492
578.66	13.641
578.99	13.852
579.33	13.615
579.67	13.518
580.00	13.170
580.34	12.916
580.67	13.239
581.01	12.957
581.35	13.339
581.68	13.187
582.02	13.549
582.35	13.447
582.69	13.665
583.02	13.484
583.36	13.990
583.70	13.876
584.03	13.470
584.37	14.019
584.70	13.799
585.04	13.494
585.37	13.341
585.71	14.006
586.04	13.551
586.38	13.365
586.72	13.726
587.05	13.594
587.39	13.712
587.72	13.963
588.06	14.003
588.39	13.814
588.73	13.971
589.06	13.939
589.40	14.188
589.73	14.164
590.07	13.911
590.40	14.096
590.73	13.834
591.07	13.648
591.40	14.211
591.74	14.422
592.07	13.874
592.41	14.395
592.74	14.489
593.08	14.590
593.41	13.684
593.75	13.716
594.08	14.019
594.41	14.418
594.75	14.836
595.08	14.398
595.42	14.559
595.75	14.112
596.09	14.086
596.42	14.484
596.75	14.144
597.09	14.381
597.42	14.273
597.75	14.172
598.09	13.737
598.42	14.494
598.76	13.704
599.09	14.562
599.42	13.956
599.76	14.383
600.09	15.038
600.42	14.888
600.76	15.141
601.09	14.318
601.42	14.088
601.76	14.486
602.09	14.274
602.42	14.527
602.76	14.125
603.09	13.871
603.42	14.907
603.76	14.719
604.09	14.177
604.42	14.113
604.76	14.435
605.09	14.602
605.42	15.115
605.75	14.273
606.09	14.612
606.42	14.244
606.75	14.599
607.09	14.689
607.42	14.393
607.75	14.216
608.08	15.499
608.42	15.232
608.75	14.299
609.08	14.613
609.41	14.300
609.75	15.261
610.08	14.804
610.41	14.602
610.74	14.894
611.07	15.162
611.41	14.019
611.74	15.630
612.07	15.306
612.40	14.872
612.73	14.701
613.07	14.364
613.40	15.764
613.73	14.605
614.06	14.607
614.39	15.502
614.72	14.860
615.06	15.109
615.39	14.976
615.72	14.449
616.05	14.688
616.38	14.568
616.71	14.535
617.05	15.320
617.38	15.604
617.71	14.926
618.04	14.658
618.37	13.899
618.70	14.537
619.03	15.640
619.36	15.997
619.69	15.434
620.03	14.669
620.36	14.768
620.69	15.793
621.02	15.906
621.35	14.758
621.68	14.918
622.01	15.129
622.34	15.761
622.67	14.219
623.00	14.614
623.33	15.896
623.66	15.066
623.99	16.015
624.32	14.658
624.65	15.232
624.99	15.683
625.32	15.269
625.65	15.074
625.98	14.867
626.31	15.579
626.64	16.067
626.97	15.925
627.30	16.000
627.63	14.853
627.96	15.666
628.29	14.614
628.62	14.900
628.95	16.043
629.28	15.038
629.61	14.720
629.94	15.501
630.26	15.109
630.59	16.482
630.92	15.115
631.25	16.331
631.58	14.921
631.91	13.830
632.24	15.889
632.57	16.889
632.90	14.598
633.23	15.771
633.56	14.620
633.89	16.038
634.22	16.647
634.55	15.625
634.88	16.324
635.20	16.230
635.53	17.430
635.86	14.861
636.19	14.408
636.52	17.204
636.85	15.403
637.18	15.125
637.51	14.746
637.83	15.446
638.16	16.579
638.49	15.034
638.82	14.801
639.15	15.953
639.48	15.175
