SpectraSuite Data File
++++++++++++++++++++++++++++++++++++
Date: Sat May 16 11:26:43 PDT 2015
User: schluterlab
Dark Spectrum Present: Yes
Reference Spectrum Present: Yes
Number of Sampled Component Spectra: 1
Spectrometers: USB2E3373
Integration Time (usec): 3000 (USB2E3373)
Spectra Averaged: 3 (USB2E3373)
Boxcar Smoothing: 0 (USB2E3373)
Correct for Electrical Dark: No (USB2E3373)
Strobe/Lamp Enabled: No (USB2E3373)
Correct for Detector Non-linearity: No (USB2E3373)
Correct for Stray Light: No (USB2E3373)
Number of Pixels in Processed Spectrum: 2048
>>>>>Begin Processed Spectral Data<<<<<
178.53	0.000
178.91	146.667
179.29	733.333
179.67	-700.000
180.04	-192.308
180.42	1500.000
180.80	100.000
181.18	700.000
181.56	-25.000
181.94	700.000
182.31	625.000
182.69	0.000
183.07	-200.000
183.45	1650.000
183.83	333.333
184.20	-257.143
184.58	-87.500
184.96	-325.000
185.34	131.250
185.72	-350.000
186.09	133.333
186.47	-187.500
186.85	-50.000
187.23	-100.000
187.61	-350.000
187.98	-200.000
188.36	-100.000
188.74	-100.000
189.12	1200.000
189.49	285.714
189.87	-41.667
190.25	500.000
190.63	-64.286
191.00	-122.222
191.38	280.000
191.76	-13.333
192.14	480.000
192.51	-300.000
192.89	-100.000
193.27	0.000
193.65	-111.111
194.02	-285.714
194.40	400.000
194.78	-110.000
195.15	-400.000
195.53	-163.636
195.91	-533.333
196.29	200.000
196.66	-400.000
197.04	400.000
197.42	-225.000
197.79	-33.333
198.17	-300.000
198.55	-700.000
198.92	-1400.000
199.30	262.500
199.68	-700.000
200.05	-233.333
200.43	-111.111
200.81	-1400.000
201.18	-108.333
201.56	257.143
201.94	-60.000
202.31	18.182
202.69	90.000
203.07	-40.000
203.44	433.333
203.82	-366.667
204.19	-425.000
204.57	-375.000
204.95	-1800.000
205.32	18.750
205.70	1300.000
206.08	-1400.000
206.45	5.556
206.83	-1050.000
207.20	200.000
207.58	-433.333
207.96	-333.333
208.33	-212.500
208.71	-133.333
209.08	210.000
209.46	-314.286
209.84	650.000
210.21	0.000
210.59	5.000
210.96	1300.000
211.34	-200.000
211.71	-166.667
212.09	425.000
212.46	650.000
212.84	-2300.000
213.22	700.000
213.59	150.000
213.97	-33.333
214.34	130.000
214.72	-120.000
215.09	-333.333
215.47	-266.667
215.84	-60.000
216.22	0.000
216.59	0.000
216.97	-500.000
217.34	600.000
217.72	-157.143
218.09	-133.333
218.47	-257.143
218.84	185.714
219.22	28.571
219.59	0.000
219.97	257.143
220.34	375.000
220.72	187.500
221.09	-76.923
221.47	0.000
221.84	500.000
222.22	50.000
222.59	1400.000
222.97	-200.000
223.34	-900.000
223.72	-400.000
224.09	-57.143
224.46	-375.000
224.84	-78.571
225.21	-71.429
225.59	-45.455
225.96	-212.500
226.34	-71.429
226.71	-100.000
227.08	-10.000
227.46	900.000
227.83	-200.000
228.21	-225.000
228.58	600.000
228.95	-37.500
229.33	-900.000
229.70	-420.000
230.08	-1050.000
230.45	33.333
230.82	-133.333
231.20	-800.000
231.57	-550.000
231.95	900.000
232.32	33.333
232.69	-155.556
233.07	-157.143
233.44	-1000.000
233.81	-86.667
234.19	-133.333
234.56	-75.000
234.93	9.375
235.31	-157.143
235.68	-92.857
236.05	23.529
236.43	-50.000
236.80	3.226
237.17	20.833
237.55	-23.810
237.92	-22.727
238.29	17.143
238.67	0.000
239.04	19.444
239.41	3.226
239.79	-7.692
240.16	19.048
240.53	7.273
240.91	56.410
241.28	25.455
241.65	47.692
242.02	14.754
242.40	37.705
242.77	36.364
243.14	27.119
243.51	41.429
243.89	21.519
244.26	33.708
244.63	37.895
245.00	30.526
245.38	31.356
245.75	34.513
246.12	29.600
246.49	40.157
246.87	22.764
247.24	29.661
247.61	31.356
247.98	30.282
248.36	22.378
248.73	37.975
249.10	33.121
249.47	40.351
249.84	36.364
250.22	39.286
250.59	37.853
250.96	37.173
251.33	36.967
251.70	36.538
252.08	38.863
252.45	37.441
252.82	36.667
253.19	31.489
253.56	37.500
253.94	35.443
254.31	36.052
254.68	39.431
255.05	42.339
255.42	38.889
255.79	36.559
256.16	46.275
256.54	37.500
256.91	37.879
257.28	40.659
257.65	39.007
258.02	45.283
258.39	39.465
258.76	38.176
259.14	39.815
259.51	44.918
259.88	36.280
260.25	44.410
260.62	39.228
260.99	43.620
261.36	39.634
261.73	39.306
262.10	43.889
262.47	41.026
262.85	42.000
263.22	39.542
263.59	41.231
263.96	42.029
264.33	42.005
264.70	39.779
265.07	42.033
265.44	36.951
265.81	39.793
266.18	41.266
266.55	39.216
266.92	40.554
267.29	39.952
267.66	40.247
268.03	44.203
268.40	41.549
268.77	39.036
269.14	40.371
269.51	40.920
269.88	38.073
270.25	37.529
270.62	38.673
270.99	40.315
271.36	40.559
271.73	40.135
272.10	40.046
272.47	39.111
272.84	40.444
273.21	40.826
273.58	37.802
273.95	40.570
274.32	43.439
274.69	41.138
275.06	39.468
275.43	41.071
275.80	41.344
276.17	37.657
276.54	39.104
276.91	39.300
277.28	38.742
277.65	39.256
278.02	42.380
278.39	39.096
278.76	42.629
279.13	39.526
279.50	38.569
279.87	39.746
280.23	38.462
280.60	41.153
280.97	38.835
281.34	40.619
281.71	41.731
282.08	41.129
282.45	38.086
282.82	40.116
283.19	39.818
283.56	41.026
283.92	39.399
284.29	39.033
284.66	36.511
285.03	40.463
285.40	41.328
285.77	39.649
286.14	38.628
286.51	38.544
286.87	37.387
287.24	39.761
287.61	37.355
287.98	35.875
288.35	35.702
288.72	38.200
289.08	35.254
289.45	35.690
289.82	33.910
290.19	37.274
290.56	35.041
290.93	33.545
291.29	35.981
291.66	36.071
292.03	35.793
292.40	32.681
292.77	35.404
293.13	33.659
293.50	33.284
293.87	31.595
294.24	33.484
294.60	30.455
294.97	36.267
295.34	30.963
295.71	31.994
296.08	30.722
296.44	30.901
296.81	33.048
297.18	31.408
297.55	31.356
297.91	32.218
298.28	30.959
298.65	28.731
299.02	33.021
299.38	31.818
299.75	28.804
300.12	29.487
300.48	29.540
300.85	32.241
301.22	29.625
301.59	29.779
301.95	31.108
302.32	27.771
302.69	28.641
303.05	28.938
303.42	28.875
303.79	28.349
304.15	27.251
304.52	28.938
304.89	28.099
305.25	26.862
305.62	28.202
305.99	28.504
306.35	26.859
306.72	25.968
307.09	28.831
307.45	28.377
307.82	26.704
308.19	27.964
308.55	27.996
308.92	26.638
309.29	27.135
309.65	27.253
310.02	27.214
310.38	25.189
310.75	27.254
311.12	28.202
311.48	26.827
311.85	26.262
312.22	26.777
312.58	27.569
312.95	26.402
313.31	27.073
313.68	27.437
314.05	27.695
314.41	25.654
314.78	24.476
315.14	26.357
315.51	26.039
315.87	26.718
316.24	26.045
316.61	26.392
316.97	27.065
317.34	25.048
317.70	25.881
318.07	26.866
318.43	26.217
318.80	27.887
319.16	25.047
319.53	24.060
319.89	25.024
320.26	25.392
320.62	25.577
320.99	25.274
321.35	25.320
321.72	24.667
322.08	26.113
322.45	25.941
322.81	25.937
323.18	25.072
323.54	27.172
323.91	25.209
324.27	24.049
324.64	25.594
325.00	24.607
325.37	25.973
325.73	25.459
326.10	24.181
326.46	24.518
326.83	25.277
327.19	25.021
327.56	26.405
327.92	24.979
328.29	25.108
328.65	24.000
329.01	25.088
329.38	24.532
329.74	26.832
330.11	24.751
330.47	24.523
330.84	25.023
331.20	23.917
331.56	25.342
331.93	24.600
332.29	25.936
332.66	25.110
333.02	25.158
333.38	24.821
333.75	24.755
334.11	23.822
334.48	23.566
334.84	23.622
335.20	24.823
335.57	24.188
335.93	25.157
336.29	24.004
336.66	24.053
337.02	24.234
337.38	23.351
337.75	24.232
338.11	24.150
338.47	23.399
338.84	25.227
339.20	23.286
339.56	26.114
339.93	23.192
340.29	23.118
340.65	24.038
341.02	23.946
341.38	24.094
341.74	23.370
342.11	24.147
342.47	23.863
342.83	23.258
343.20	23.655
343.56	23.265
343.92	23.873
344.28	24.558
344.65	22.360
345.01	22.185
345.37	24.336
345.73	23.486
346.10	22.159
346.46	22.908
346.82	22.855
347.19	23.583
347.55	23.034
347.91	24.252
348.27	22.116
348.63	24.152
349.00	22.753
349.36	22.170
349.72	23.646
350.08	23.256
350.45	22.774
350.81	22.293
351.17	22.910
351.53	22.275
351.89	22.635
352.26	22.713
352.62	23.963
352.98	24.525
353.34	23.261
353.70	22.625
354.07	22.738
354.43	21.818
354.79	23.296
355.15	23.003
355.51	22.656
355.87	22.372
356.24	21.128
356.60	23.691
356.96	22.094
357.32	22.882
357.68	21.456
358.04	22.633
358.40	21.191
358.77	22.257
359.13	21.729
359.49	21.920
359.85	22.561
360.21	22.298
360.57	22.967
360.93	22.519
361.29	22.571
361.66	20.274
362.02	21.598
362.38	22.230
362.74	21.465
363.10	22.095
363.46	23.006
363.82	21.866
364.18	22.793
364.54	22.230
364.90	22.152
365.26	22.183
365.62	21.882
365.98	22.831
366.35	22.042
366.71	20.860
367.07	21.736
367.43	22.237
367.79	22.680
368.15	21.408
368.51	21.608
368.87	22.596
369.23	21.825
369.59	22.153
369.95	22.622
370.31	22.714
370.67	20.390
371.03	22.157
371.39	21.641
371.75	22.532
372.11	21.736
372.47	22.126
372.83	22.601
373.19	21.357
373.55	21.745
373.91	21.906
374.27	21.081
374.63	22.429
374.99	21.558
375.35	21.131
375.71	23.565
376.07	21.697
376.42	21.060
376.78	22.614
377.14	22.576
377.50	22.244
377.86	22.302
378.22	21.168
378.58	22.730
378.94	22.256
379.30	22.547
379.66	22.040
380.02	22.044
380.38	20.785
380.74	22.216
381.09	22.496
381.45	21.718
381.81	21.597
382.17	22.243
382.53	21.884
382.89	22.667
383.25	21.734
383.61	21.816
383.97	22.780
384.32	22.340
384.68	22.068
385.04	21.437
385.40	21.485
385.76	22.561
386.12	22.423
386.48	21.844
386.83	21.534
387.19	22.295
387.55	21.623
387.91	21.695
388.27	21.834
388.62	22.296
388.98	22.047
389.34	22.889
389.70	22.229
390.06	21.628
390.42	22.500
390.77	21.830
391.13	22.919
391.49	22.271
391.85	22.382
392.20	22.269
392.56	21.564
392.92	21.563
393.28	22.216
393.64	22.550
393.99	22.031
394.35	22.445
394.71	22.854
395.07	23.478
395.42	20.799
395.78	21.747
396.14	22.741
396.50	21.957
396.85	22.085
397.21	22.661
397.57	23.040
397.92	22.658
398.28	22.944
398.64	22.487
399.00	22.528
399.35	21.646
399.71	22.532
400.07	23.821
400.42	22.871
400.78	22.361
401.14	21.497
401.49	22.877
401.85	22.636
402.21	22.706
402.57	21.784
402.92	22.656
403.28	22.304
403.63	21.390
403.99	21.255
404.35	21.860
404.70	22.703
405.06	22.376
405.42	21.218
405.77	21.437
406.13	22.260
406.49	22.109
406.84	22.855
407.20	22.792
407.55	22.356
407.91	20.661
408.27	22.978
408.62	21.287
408.98	21.710
409.34	21.938
409.69	22.243
410.05	22.620
410.40	22.072
410.76	21.340
411.11	21.820
411.47	21.995
411.83	22.127
412.18	21.535
412.54	21.660
412.89	21.203
413.25	20.838
413.60	20.656
413.96	21.257
414.31	21.835
414.67	21.651
415.03	21.410
415.38	22.511
415.74	22.745
416.09	21.483
416.45	21.230
416.80	22.107
417.16	21.196
417.51	22.062
417.87	21.359
418.22	21.934
418.58	21.438
418.93	22.379
419.29	22.146
419.64	21.482
420.00	22.296
420.35	21.644
420.71	21.609
421.06	22.130
421.42	21.311
421.77	21.720
422.12	22.048
422.48	21.753
422.83	21.355
423.19	21.938
423.54	21.441
423.90	21.515
424.25	21.097
424.61	21.954
424.96	21.709
425.31	21.297
425.67	21.490
426.02	20.310
426.38	21.779
426.73	21.683
427.09	21.814
427.44	22.045
427.79	20.930
428.15	22.322
428.50	21.642
428.85	20.683
429.21	22.136
429.56	21.979
429.92	21.794
430.27	21.984
430.62	21.264
430.98	21.537
431.33	21.878
431.68	21.930
432.04	22.216
432.39	21.709
432.74	20.683
433.10	21.553
433.45	21.359
433.80	20.773
434.16	21.333
434.51	21.808
434.86	21.910
435.22	21.659
435.57	22.215
435.92	21.923
436.28	21.840
436.63	21.368
436.98	20.504
437.34	21.028
437.69	21.179
438.04	21.157
438.39	20.217
438.75	20.664
439.10	20.933
439.45	21.123
439.81	22.229
440.16	20.443
440.51	21.588
440.86	21.515
441.22	19.735
441.57	21.632
441.92	21.790
442.27	21.699
442.63	21.567
442.98	21.163
443.33	21.582
443.68	21.209
444.03	21.857
444.39	21.880
444.74	21.366
445.09	21.272
445.44	20.709
445.79	20.755
446.15	22.399
446.50	20.523
446.85	21.036
447.20	21.553
447.55	21.713
447.91	21.280
448.26	20.503
448.61	20.883
448.96	21.737
449.31	20.970
449.66	21.866
450.02	20.554
450.37	20.928
450.72	20.395
451.07	21.370
451.42	20.322
451.77	20.407
452.12	21.156
452.47	21.348
452.83	20.151
453.18	21.126
453.53	20.771
453.88	21.471
454.23	19.952
454.58	20.883
454.93	21.159
455.28	20.650
455.63	21.622
455.98	21.084
456.34	19.377
456.69	21.701
457.04	21.389
457.39	20.455
457.74	20.969
458.09	21.404
458.44	21.998
458.79	19.843
459.14	21.278
459.49	20.900
459.84	21.304
460.19	20.883
460.54	20.387
460.89	20.628
461.24	20.279
461.59	20.926
461.94	21.388
462.29	20.191
462.64	21.080
462.99	21.486
463.34	20.729
463.69	20.611
464.04	20.211
464.39	21.027
464.74	21.513
465.09	20.746
465.44	20.756
465.79	21.320
466.14	20.886
466.49	20.553
466.84	21.789
467.19	20.387
467.54	20.063
467.89	21.023
468.24	20.487
468.59	20.112
468.94	20.965
469.29	20.468
469.64	20.216
469.99	21.472
470.34	19.572
470.68	21.003
471.03	20.647
471.38	18.958
471.73	20.420
472.08	19.880
472.43	19.691
472.78	20.800
473.13	19.682
473.48	20.613
473.83	19.417
474.17	20.318
474.52	20.396
474.87	19.872
475.22	20.354
475.57	19.889
475.92	21.004
476.27	19.429
476.61	19.775
476.96	20.179
477.31	20.129
477.66	20.255
478.01	20.151
478.36	20.325
478.70	20.609
479.05	20.281
479.40	20.984
479.75	20.540
480.10	21.230
480.45	19.778
480.79	20.039
481.14	20.672
481.49	20.136
481.84	20.435
482.19	21.791
482.53	21.070
482.88	20.456
483.23	20.892
483.58	21.184
483.92	21.070
484.27	20.071
484.62	20.475
484.97	20.499
485.31	20.224
485.66	20.908
486.01	20.515
486.36	22.184
486.70	22.617
487.05	21.479
487.40	20.753
487.75	21.364
488.09	20.445
488.44	21.245
488.79	20.516
489.13	20.046
489.48	20.351
489.83	20.524
490.17	20.026
490.52	21.014
490.87	20.323
491.22	20.084
491.56	19.815
491.91	20.372
492.26	20.236
492.60	19.933
492.95	19.800
493.30	20.200
493.64	20.310
493.99	20.315
494.34	19.857
494.68	20.880
495.03	19.885
495.37	20.452
495.72	20.334
496.07	20.460
496.41	20.102
496.76	20.411
497.11	20.254
497.45	19.684
497.80	19.960
498.14	20.530
498.49	20.191
498.84	20.049
499.18	20.517
499.53	20.263
499.87	20.222
500.22	20.490
500.56	20.210
500.91	19.704
501.26	21.252
501.60	19.692
501.95	20.676
502.29	20.170
502.64	20.934
502.98	19.693
503.33	20.207
503.67	19.301
504.02	20.039
504.36	20.098
504.71	19.301
505.06	19.071
505.40	20.559
505.75	19.665
506.09	19.565
506.44	20.301
506.78	20.522
507.13	19.825
507.47	19.927
507.82	19.566
508.16	19.896
508.51	20.196
508.85	19.513
509.19	19.205
509.54	20.402
509.88	20.319
510.23	20.073
510.57	20.582
510.92	20.623
511.26	19.564
511.61	19.492
511.95	19.235
512.30	19.571
512.64	19.421
512.98	20.462
513.33	18.946
513.67	19.598
514.02	19.407
514.36	19.391
514.70	18.563
515.05	19.954
515.39	18.973
515.74	19.779
516.08	20.058
516.42	19.547
516.77	19.642
517.11	19.336
517.46	19.378
517.80	19.374
518.14	18.418
518.49	19.605
518.83	19.585
519.17	19.716
519.52	19.086
519.86	20.072
520.20	19.499
520.55	18.400
520.89	18.848
521.23	19.902
521.58	20.690
521.92	19.823
522.26	19.619
522.61	19.328
522.95	18.379
523.29	19.122
523.64	18.114
523.98	19.223
524.32	19.422
524.66	19.193
525.01	18.626
525.35	19.459
525.69	19.323
526.04	19.256
526.38	20.051
526.72	19.540
527.06	19.271
527.41	19.406
527.75	18.812
528.09	19.325
528.43	18.623
528.78	19.410
529.12	19.654
529.46	19.008
529.80	19.303
530.15	19.253
530.49	18.823
530.83	19.646
531.17	19.663
531.51	19.692
531.86	19.684
532.20	20.175
532.54	19.719
532.88	19.104
533.22	19.719
533.57	20.692
533.91	19.101
534.25	19.359
534.59	18.988
534.93	19.664
535.27	20.013
535.62	20.205
535.96	20.168
536.30	18.325
536.64	19.655
536.98	19.703
537.32	19.350
537.66	19.145
538.01	19.519
538.35	20.270
538.69	18.516
539.03	19.160
539.37	18.829
539.71	19.613
540.05	19.397
540.39	20.291
540.73	19.765
541.07	19.740
541.42	19.244
541.76	19.269
542.10	20.189
542.44	19.987
542.78	20.285
543.12	19.552
543.46	19.726
543.80	19.331
544.14	19.946
544.48	18.766
544.82	20.162
545.16	20.121
545.50	18.439
545.84	19.332
546.18	20.180
546.52	19.346
546.86	18.875
547.20	20.605
547.54	19.766
547.88	19.111
548.22	19.266
548.56	19.572
548.90	19.272
549.24	18.220
549.58	19.972
549.92	19.505
550.26	19.581
550.60	19.701
550.94	19.416
551.28	19.263
551.62	18.907
551.96	19.682
552.30	20.348
552.64	19.775
552.98	20.392
553.32	20.130
553.66	19.971
554.00	20.398
554.34	19.422
554.68	19.591
555.02	20.188
555.36	19.554
555.69	19.771
556.03	18.947
556.37	18.421
556.71	19.757
557.05	19.438
557.39	18.857
557.73	19.840
558.07	21.025
558.41	19.746
558.75	19.240
559.08	17.899
559.42	19.755
559.76	19.939
560.10	19.538
560.44	19.870
560.78	20.111
561.12	19.255
561.45	20.274
561.79	19.582
562.13	19.144
562.47	19.468
562.81	19.590
563.15	18.614
563.48	19.558
563.82	19.878
564.16	19.405
564.50	20.296
564.84	19.775
565.17	19.098
565.51	20.469
565.85	20.419
566.19	20.092
566.52	19.504
566.86	19.595
567.20	20.521
567.54	21.559
567.88	20.101
568.21	20.414
568.55	21.156
568.89	20.179
569.23	20.592
569.56	21.690
569.90	21.361
570.24	22.135
570.57	20.844
570.91	21.489
571.25	21.466
571.59	21.886
571.92	21.607
572.26	21.450
572.60	21.719
572.93	21.152
573.27	21.768
573.61	21.709
573.95	21.660
574.28	20.766
574.62	21.632
574.96	21.436
575.29	21.951
575.63	22.033
575.97	21.521
576.30	21.211
576.64	22.037
576.98	21.722
577.31	21.907
577.65	22.322
577.98	21.964
578.32	22.332
578.66	22.375
578.99	21.782
579.33	21.678
579.67	21.735
580.00	21.999
580.34	21.526
580.67	22.162
581.01	22.006
581.35	22.554
581.68	22.118
582.02	22.269
582.35	22.210
582.69	22.640
583.02	22.325
583.36	22.164
583.70	21.761
584.03	21.794
584.37	21.867
584.70	21.835
585.04	22.127
585.37	21.480
585.71	21.819
586.04	22.290
586.38	21.732
586.72	21.928
587.05	21.948
587.39	21.688
587.72	22.193
588.06	21.871
588.39	22.130
588.73	21.696
589.06	21.675
589.40	22.329
589.73	21.388
590.07	22.287
590.40	20.849
590.73	21.471
591.07	21.926
591.40	21.967
591.74	20.895
592.07	20.766
592.41	20.764
592.74	20.830
593.08	22.073
593.41	21.579
593.75	21.365
594.08	21.747
594.41	21.774
594.75	21.102
595.08	21.504
595.42	21.279
595.75	21.279
596.09	22.158
596.42	21.318
596.75	20.828
597.09	21.817
597.42	21.301
597.75	21.125
598.09	21.329
598.42	20.636
598.76	20.640
599.09	21.271
599.42	21.646
599.76	22.122
600.09	22.061
600.42	22.104
600.76	21.959
601.09	21.496
601.42	20.973
601.76	22.002
602.09	21.350
602.42	21.605
602.76	21.064
603.09	21.331
603.42	20.991
603.76	22.058
604.09	21.706
604.42	21.191
604.76	21.413
605.09	22.288
605.42	21.365
605.75	20.742
606.09	21.503
606.42	20.360
606.75	21.683
607.09	20.291
607.42	21.611
607.75	21.104
608.08	21.374
608.42	21.050
608.75	20.234
609.08	21.432
609.41	20.578
609.75	20.478
610.08	21.029
610.41	20.723
610.74	22.292
611.07	20.943
611.41	20.272
611.74	20.771
612.07	21.429
612.40	21.429
612.73	20.732
613.07	20.748
613.40	21.894
613.73	21.253
614.06	19.714
614.39	21.026
614.72	19.944
615.06	20.543
615.39	20.998
615.72	20.804
616.05	20.210
616.38	21.010
616.71	19.880
617.05	20.748
617.38	21.362
617.71	20.577
618.04	20.870
618.37	20.000
618.70	21.904
619.03	19.905
619.36	19.873
619.69	20.459
620.03	20.799
620.36	20.042
620.69	20.029
621.02	20.472
621.35	19.194
621.68	19.344
622.01	19.984
622.34	19.953
622.67	20.391
623.00	19.893
623.33	19.851
623.66	19.719
623.99	19.624
624.32	19.420
624.65	20.603
624.99	19.343
625.32	19.012
625.65	20.280
625.98	19.327
626.31	20.065
626.64	20.167
626.97	19.863
627.30	18.723
627.63	18.307
627.96	19.234
628.29	19.301
628.62	19.198
628.95	19.390
629.28	17.857
629.61	18.744
629.94	19.849
630.26	20.179
630.59	19.698
630.92	19.319
631.25	18.246
631.58	18.519
631.91	17.553
