SpectraSuite Data File
++++++++++++++++++++++++++++++++++++
Date: Sat May 16 11:08:11 PDT 2015
User: schluterlab
Dark Spectrum Present: Yes
Reference Spectrum Present: Yes
Number of Sampled Component Spectra: 1
Spectrometers: USB2E3373
Integration Time (usec): 3000 (USB2E3373)
Spectra Averaged: 3 (USB2E3373)
Boxcar Smoothing: 0 (USB2E3373)
Correct for Electrical Dark: No (USB2E3373)
Strobe/Lamp Enabled: No (USB2E3373)
Correct for Detector Non-linearity: No (USB2E3373)
Correct for Stray Light: No (USB2E3373)
Number of Pixels in Processed Spectrum: 2048
>>>>>Begin Processed Spectral Data<<<<<
178.53	0.000
178.91	100.000
179.29	266.667
179.67	100.000
180.04	100.000
180.42	-1000.000
180.80	275.000
181.18	300.000
181.56	50.000
181.94	-300.000
182.31	375.000
182.69	23.077
183.07	-100.000
183.45	1000.000
183.83	-233.333
184.20	71.429
184.58	-12.500
184.96	50.000
185.34	87.500
185.72	-125.000
186.09	16.667
186.47	50.000
186.85	-12.500
187.23	0.000
187.61	225.000
187.98	-12.500
188.36	50.000
188.74	62.500
189.12	1200.000
189.49	85.714
189.87	75.000
190.25	100.000
190.63	-7.143
191.00	-88.889
191.38	180.000
191.76	166.667
192.14	440.000
192.51	40.000
192.89	33.333
193.27	0.000
193.65	-22.222
194.02	-128.571
194.40	-233.333
194.78	0.000
195.15	100.000
195.53	9.091
195.91	-150.000
196.29	100.000
196.66	-400.000
197.04	1800.000
197.42	75.000
197.79	40.000
198.17	100.000
198.55	-400.000
198.92	100.000
199.30	25.000
199.68	200.000
200.05	44.444
200.43	33.333
200.81	-100.000
201.18	-50.000
201.56	-0.000
201.94	20.000
202.31	45.455
202.69	40.000
203.07	70.000
203.44	266.667
203.82	-50.000
204.19	-100.000
204.57	125.000
204.95	-800.000
205.32	37.500
205.70	100.000
206.08	300.000
206.45	27.778
206.83	-550.000
207.20	300.000
207.58	-66.667
207.96	-100.000
208.33	100.000
208.71	0.000
209.08	110.000
209.46	85.714
209.84	250.000
210.21	0.000
210.59	50.000
210.96	100.000
211.34	-50.000
211.71	266.667
212.09	150.000
212.46	250.000
212.84	-800.000
213.22	533.333
213.59	125.000
213.97	66.667
214.34	-10.000
214.72	70.000
215.09	-266.667
215.47	50.000
215.84	130.000
216.22	30.000
216.59	46.667
216.97	-175.000
217.34	1300.000
217.72	-42.857
218.09	-133.333
218.47	-85.714
218.84	-114.286
219.22	-42.857
219.59	0.000
219.97	157.143
220.34	250.000
220.72	150.000
221.09	-15.385
221.47	0.000
221.84	-100.000
222.22	300.000
222.59	-0.000
222.97	-125.000
223.34	-400.000
223.72	366.667
224.09	50.000
224.46	-175.000
224.84	21.429
225.21	-114.286
225.59	0.000
225.96	75.000
226.34	42.857
226.71	22.222
227.08	25.000
227.46	-0.000
227.83	57.143
228.21	75.000
228.58	100.000
228.95	93.750
229.33	-300.000
229.70	100.000
230.08	-400.000
230.45	25.000
230.82	66.667
231.20	0.000
231.57	-50.000
231.95	-200.000
232.32	95.238
232.69	33.333
233.07	-28.571
233.44	-400.000
233.81	-40.000
234.19	-55.556
234.56	81.250
234.93	40.625
235.31	-114.286
235.68	-28.571
236.05	5.882
236.43	22.727
236.80	32.258
237.17	95.833
237.55	0.000
237.92	4.545
238.29	-17.143
238.67	26.471
239.04	25.000
239.41	-12.903
239.79	15.385
240.16	7.143
240.53	10.909
240.91	48.718
241.28	76.364
241.65	56.923
242.02	29.508
242.40	40.984
242.77	37.879
243.14	27.119
243.51	12.857
243.89	18.987
244.26	24.719
244.63	38.947
245.00	37.895
245.38	32.203
245.75	29.204
246.12	31.200
246.49	33.071
246.87	27.642
247.24	22.881
247.61	27.119
247.98	28.873
248.36	28.671
248.73	33.544
249.10	28.662
249.47	27.485
249.84	32.955
250.22	23.810
250.59	25.424
250.96	27.749
251.33	31.754
251.70	30.769
252.08	28.436
252.45	27.488
252.82	30.952
253.19	31.064
253.56	25.806
253.94	30.802
254.31	30.043
254.68	28.049
255.05	25.806
255.42	31.349
255.79	28.674
256.16	31.765
256.54	27.206
256.91	28.788
257.28	26.740
257.65	28.723
258.02	32.075
258.39	32.441
258.76	24.324
259.14	28.395
259.51	32.459
259.88	26.829
260.25	31.366
260.62	26.367
260.99	26.706
261.36	31.402
261.73	33.237
262.10	32.222
262.47	29.630
262.85	27.429
263.22	28.367
263.59	25.846
263.96	30.725
264.33	29.810
264.70	30.387
265.07	31.319
265.44	28.941
265.81	29.974
266.18	27.342
266.55	30.637
266.92	34.005
267.29	30.024
267.66	30.617
268.03	31.643
268.40	30.751
268.77	29.880
269.14	29.698
269.51	29.655
269.88	26.606
270.25	27.040
270.62	28.375
270.99	30.180
271.36	30.070
271.73	28.700
272.10	30.664
272.47	27.556
272.84	30.000
273.21	28.670
273.58	28.791
273.95	30.702
274.32	30.769
274.69	28.665
275.06	31.493
275.43	27.679
275.80	31.161
276.17	27.406
276.54	30.754
276.91	29.835
277.28	29.209
277.65	25.207
278.02	27.349
278.39	30.648
278.76	29.283
279.13	27.273
279.50	30.219
279.87	27.907
280.23	29.352
280.60	27.833
280.97	27.767
281.34	28.627
281.71	29.038
282.08	30.645
282.45	29.939
282.82	31.008
283.19	27.818
283.56	30.586
283.92	27.915
284.29	29.182
284.66	28.777
285.03	28.520
285.40	28.413
285.77	30.351
286.14	28.700
286.51	26.821
286.87	28.857
287.24	27.986
287.61	27.769
287.98	23.917
288.35	26.612
288.72	28.014
289.08	26.780
289.45	25.758
289.82	25.952
290.19	25.780
290.56	24.793
290.93	24.165
291.29	26.256
291.66	25.121
292.03	25.589
292.40	25.301
292.77	24.845
293.13	25.366
293.50	25.557
293.87	25.460
294.24	22.624
294.60	21.212
294.97	25.038
295.34	22.963
295.71	22.470
296.08	22.734
296.44	23.319
296.81	24.074
297.18	23.099
297.55	24.153
297.91	23.989
298.28	21.918
298.65	22.734
299.02	23.529
299.38	22.460
299.75	21.603
300.12	22.692
300.48	21.483
300.85	22.149
301.22	22.898
301.59	21.456
301.95	24.055
302.32	21.512
302.69	22.766
303.05	21.368
303.42	20.250
303.79	21.172
304.15	20.735
304.52	21.820
304.89	21.015
305.25	21.734
305.62	20.917
305.99	21.437
306.35	20.866
306.72	21.071
307.09	22.474
307.45	20.318
307.82	20.782
308.19	21.253
308.55	21.351
308.92	18.475
309.29	20.000
309.65	19.936
310.02	21.490
310.38	19.784
310.75	20.184
311.12	19.835
311.48	20.564
311.85	20.185
312.22	19.464
312.58	20.041
312.95	19.164
313.31	18.981
313.68	19.196
314.05	19.980
314.41	18.109
314.78	18.781
315.14	19.842
315.51	20.263
315.87	19.361
316.24	19.145
316.61	20.441
316.97	18.806
317.34	19.461
317.70	18.924
318.07	19.683
318.43	19.195
318.80	21.127
319.16	18.105
319.53	19.079
319.89	18.532
320.26	18.431
320.62	17.788
320.99	18.507
321.35	17.635
321.72	19.243
322.08	20.870
322.45	18.119
322.81	20.173
323.18	19.500
323.54	18.946
323.91	19.462
324.27	20.057
324.64	19.744
325.00	18.674
325.37	19.910
325.73	20.122
326.10	17.006
326.46	18.389
326.83	18.383
327.19	18.932
327.56	20.017
327.92	18.692
328.29	18.442
328.65	18.182
329.01	18.993
329.38	18.376
329.74	18.681
330.11	19.311
330.47	17.984
330.84	19.615
331.20	19.314
331.56	18.232
331.93	19.361
332.29	19.269
332.66	17.910
333.02	18.281
333.38	19.534
333.75	17.988
334.11	18.667
334.48	18.447
334.84	19.598
335.20	18.706
335.57	18.141
335.93	19.606
336.29	18.689
336.66	17.445
337.02	19.550
337.38	18.538
337.75	18.086
338.11	18.247
338.47	17.794
338.84	18.058
339.20	18.805
339.56	19.697
339.93	18.166
340.29	17.538
340.65	17.832
341.02	18.044
341.38	17.102
341.74	18.798
342.11	18.259
342.47	18.197
342.83	17.380
343.20	18.104
343.56	16.898
343.92	18.030
344.28	18.503
344.65	18.647
345.01	17.227
345.37	19.020
345.73	17.430
346.10	17.907
346.46	16.978
346.82	17.001
347.19	17.749
347.55	17.014
347.91	17.953
348.27	17.741
348.63	18.255
349.00	18.695
349.36	16.784
349.72	17.675
350.08	16.840
350.45	16.391
350.81	17.994
351.17	17.363
351.53	16.229
351.89	17.381
352.26	17.674
352.62	17.512
352.98	17.405
353.34	17.906
353.70	17.220
354.07	17.309
354.43	17.945
354.79	17.750
355.15	18.131
355.51	17.031
355.87	16.838
356.24	17.077
356.60	17.969
356.96	17.244
357.32	16.390
357.68	16.398
358.04	16.320
358.40	16.783
358.77	16.383
359.13	16.603
359.49	16.629
359.85	16.159
360.21	17.123
360.57	16.717
360.93	17.037
361.29	17.713
361.66	15.854
362.02	16.790
362.38	16.875
362.74	16.557
363.10	16.499
363.46	17.308
363.82	17.055
364.18	17.077
364.54	18.084
364.90	17.400
365.26	16.904
365.62	16.964
365.98	17.994
366.35	16.479
366.71	16.350
367.07	17.290
367.43	17.296
367.79	16.976
368.15	16.216
368.51	17.203
368.87	17.926
369.23	16.982
369.59	17.014
369.95	16.702
370.31	16.878
370.67	16.414
371.03	16.108
371.39	16.195
371.75	17.239
372.11	15.710
372.47	16.558
372.83	16.342
373.19	16.286
373.55	17.030
373.91	16.856
374.27	16.359
374.63	17.598
374.99	17.177
375.35	16.083
375.71	17.758
376.07	16.290
376.42	15.298
376.78	16.144
377.14	16.203
377.50	16.248
377.86	16.645
378.22	17.714
378.58	15.689
378.94	17.139
379.30	16.636
379.66	16.940
380.02	16.102
380.38	16.918
380.74	15.768
381.09	16.520
381.45	16.945
381.81	15.971
382.17	16.792
382.53	16.292
382.89	16.328
383.25	16.376
383.61	15.861
383.97	16.534
384.32	16.333
384.68	16.747
385.04	15.459
385.40	16.068
385.76	17.073
386.12	16.115
386.48	17.389
386.83	16.687
387.19	16.497
387.55	16.596
387.91	16.775
388.27	15.983
388.62	16.166
388.98	15.869
389.34	16.524
389.70	17.418
390.06	16.283
390.42	16.987
390.77	16.530
391.13	17.391
391.49	17.093
391.85	16.584
392.20	15.595
392.56	16.494
392.92	16.657
393.28	17.049
393.64	16.416
393.99	16.677
394.35	16.363
394.71	16.430
395.07	16.384
395.42	16.091
395.78	15.713
396.14	16.698
396.50	16.330
396.85	16.841
397.21	16.525
397.57	16.535
397.92	16.803
398.28	17.056
398.64	16.181
399.00	17.135
399.35	15.614
399.71	16.957
400.07	17.493
400.42	17.275
400.78	15.862
401.14	16.467
401.49	15.979
401.85	16.107
402.21	16.210
402.57	17.051
402.92	17.118
403.28	16.973
403.63	15.339
403.99	17.340
404.35	15.278
404.70	16.910
405.06	17.647
405.42	15.437
405.77	15.950
406.13	16.241
406.49	17.496
406.84	16.257
407.20	16.608
407.55	16.339
407.91	16.062
408.27	17.157
408.62	16.416
408.98	17.223
409.34	16.149
409.69	17.013
410.05	16.313
410.40	16.432
410.76	17.012
411.11	16.521
411.47	16.816
411.83	16.015
412.18	15.656
412.54	16.779
412.89	17.254
413.25	16.116
413.60	16.403
413.96	15.712
414.31	16.269
414.67	16.635
415.03	16.235
415.38	17.176
415.74	15.851
416.09	16.496
416.45	16.138
416.80	17.230
417.16	15.681
417.51	17.531
417.87	16.311
418.22	16.372
418.58	16.945
418.93	16.493
419.29	15.997
419.64	15.892
420.00	17.315
420.35	16.617
420.71	15.846
421.06	16.982
421.42	16.159
421.77	17.030
422.12	16.284
422.48	16.355
422.83	16.572
423.19	16.871
423.54	16.599
423.90	16.194
424.25	16.176
424.61	16.767
424.96	17.437
425.31	16.546
425.67	16.562
426.02	15.261
426.38	17.302
426.73	16.248
427.09	16.850
427.44	17.102
427.79	15.988
428.15	16.756
428.50	17.361
428.85	17.026
429.21	16.768
429.56	17.135
429.92	15.982
430.27	16.700
430.62	16.876
430.98	16.884
431.33	16.329
431.68	16.836
432.04	16.788
432.39	16.695
432.74	16.367
433.10	16.882
433.45	15.371
433.80	16.909
434.16	16.765
434.51	16.822
434.86	16.403
435.22	16.704
435.57	16.830
435.92	16.237
436.28	16.973
436.63	16.111
436.98	16.037
437.34	16.775
437.69	16.103
438.04	16.733
438.39	16.486
438.75	16.182
439.10	16.657
439.45	15.329
439.81	16.024
440.16	16.752
440.51	16.412
440.86	17.004
441.22	16.750
441.57	16.579
441.92	16.113
442.27	16.667
442.63	16.738
442.98	15.576
443.33	16.804
443.68	16.727
444.03	16.061
444.39	16.495
444.74	16.740
445.09	16.776
445.44	16.882
445.79	16.114
446.15	17.415
446.50	16.113
446.85	16.265
447.20	16.241
447.55	16.740
447.91	16.901
448.26	16.648
448.61	15.903
448.96	16.975
449.31	16.178
449.66	17.230
450.02	16.343
450.37	16.812
450.72	16.610
451.07	16.656
451.42	16.295
451.77	17.654
452.12	16.627
452.47	17.380
452.83	16.657
453.18	17.204
453.53	16.667
453.88	16.866
454.23	16.505
454.58	17.216
454.93	17.569
455.28	16.125
455.63	16.585
455.98	16.265
456.34	15.883
456.69	17.198
457.04	16.718
457.39	16.388
457.74	16.302
458.09	16.705
458.44	16.859
458.79	16.312
459.14	15.973
459.49	16.459
459.84	16.189
460.19	16.229
460.54	16.273
460.89	16.480
461.24	17.001
461.59	17.175
461.94	17.187
462.29	17.808
462.64	17.260
462.99	17.135
463.34	16.340
463.69	16.539
464.04	16.520
464.39	16.129
464.74	16.962
465.09	16.777
465.44	16.469
465.79	17.146
466.14	17.146
466.49	16.695
466.84	16.927
467.19	17.145
467.54	15.823
467.89	16.523
468.24	16.924
468.59	16.740
468.94	16.785
469.29	15.984
469.64	16.981
469.99	16.678
470.34	16.633
470.68	16.352
471.03	17.619
471.38	16.458
471.73	17.622
472.08	17.068
472.43	17.246
472.78	16.333
473.13	15.971
473.48	16.975
473.83	16.253
474.17	15.987
474.52	17.775
474.87	17.133
475.22	16.873
475.57	16.444
475.92	17.333
476.27	16.686
476.61	16.507
476.96	16.434
477.31	17.061
477.66	16.657
478.01	16.640
478.36	16.344
478.70	16.604
479.05	17.144
479.40	16.010
479.75	16.616
480.10	16.766
480.45	15.571
480.79	17.127
481.14	17.411
481.49	17.280
481.84	16.597
482.19	16.994
482.53	16.903
482.88	16.896
483.23	16.620
483.58	17.808
483.92	16.770
484.27	16.172
484.62	16.717
484.97	16.719
485.31	16.448
485.66	16.254
486.01	15.938
486.36	16.178
486.70	16.208
487.05	16.468
487.40	16.373
487.75	16.536
488.09	15.596
488.44	16.373
488.79	15.918
489.13	15.862
489.48	17.292
489.83	16.638
490.17	16.892
490.52	17.029
490.87	16.120
491.22	16.674
491.56	16.806
491.91	17.080
492.26	16.274
492.60	15.842
492.95	16.516
493.30	17.485
493.64	16.502
493.99	16.587
494.34	17.000
494.68	17.228
495.03	16.969
495.37	16.470
495.72	17.583
496.07	17.363
496.41	17.647
496.76	16.484
497.11	16.627
497.45	17.625
497.80	17.209
498.14	17.289
498.49	16.273
498.84	16.942
499.18	17.057
499.53	16.707
499.87	16.361
500.22	16.814
500.56	16.058
500.91	17.044
501.26	18.049
501.60	16.466
501.95	17.488
502.29	16.863
502.64	17.680
502.98	16.818
503.33	17.293
503.67	17.098
504.02	16.997
504.36	17.206
504.71	16.971
505.06	16.675
505.40	17.166
505.75	17.073
506.09	17.492
506.44	16.642
506.78	17.361
507.13	16.581
507.47	17.110
507.82	16.675
508.16	17.720
508.51	16.899
508.85	16.874
509.19	16.536
509.54	18.023
509.88	17.394
510.23	17.296
510.57	18.677
510.92	17.401
511.26	17.065
511.61	17.171
511.95	17.134
512.30	17.482
512.64	17.028
512.98	17.712
513.33	17.408
513.67	17.644
514.02	17.450
514.36	17.285
514.70	17.091
515.05	18.182
515.39	17.359
515.74	17.510
516.08	17.061
516.42	18.300
516.77	17.158
517.11	17.620
517.46	17.703
517.80	17.329
518.14	16.787
518.49	17.334
518.83	16.973
519.17	17.229
519.52	17.062
519.86	17.563
520.20	17.359
520.55	17.908
520.89	17.533
521.23	18.742
521.58	18.495
521.92	18.239
522.26	16.762
522.61	17.934
522.95	17.422
523.29	18.182
523.64	17.114
523.98	17.441
524.32	17.410
524.66	17.019
525.01	18.176
525.35	18.170
525.69	17.567
526.04	18.016
526.38	18.714
526.72	17.816
527.06	17.708
527.41	17.822
527.75	16.700
528.09	17.472
528.43	17.115
528.78	17.714
529.12	17.798
529.46	16.688
529.80	17.818
530.15	17.772
530.49	18.176
530.83	18.468
531.17	17.576
531.51	17.080
531.86	18.433
532.20	18.219
532.54	18.382
532.88	18.050
533.22	17.647
533.57	18.603
533.91	17.478
534.25	17.599
534.59	16.677
534.93	16.677
535.27	18.250
535.62	17.455
535.96	18.164
536.30	17.147
536.64	17.995
536.98	18.079
537.32	17.761
537.66	18.601
538.01	17.526
538.35	18.108
538.69	17.513
539.03	17.536
539.37	18.031
539.71	17.945
540.05	17.820
540.39	18.421
540.73	18.728
541.07	18.784
541.42	17.691
541.76	16.346
542.10	18.569
542.44	17.788
542.78	17.775
543.12	18.534
543.46	17.740
543.80	17.926
544.14	17.730
544.48	17.651
544.82	17.997
545.16	17.773
545.50	18.304
545.84	18.220
546.18	18.585
546.52	18.208
546.86	17.735
547.20	18.143
547.54	17.631
547.88	18.978
548.22	16.383
548.56	17.635
548.90	17.790
549.24	17.519
549.58	18.419
549.92	18.516
550.26	19.292
550.60	17.354
550.94	18.686
551.28	18.435
551.62	17.873
551.96	17.728
552.30	17.909
552.64	18.156
552.98	18.080
553.32	18.326
553.66	17.952
554.00	18.692
554.34	17.545
554.68	18.129
555.02	19.030
555.36	17.829
555.69	17.479
556.03	17.684
556.37	18.634
556.71	19.327
557.05	18.404
557.39	17.743
557.73	18.964
558.07	18.538
558.41	17.801
558.75	18.479
559.08	17.198
559.42	19.602
559.76	18.405
560.10	17.972
560.44	18.931
560.78	18.302
561.12	18.565
561.45	19.726
561.79	17.422
562.13	19.355
562.47	18.347
562.81	17.822
563.15	18.195
563.48	18.590
563.82	18.458
564.16	18.323
564.50	17.204
564.84	18.188
565.17	17.772
565.51	17.992
565.85	18.323
566.19	17.655
566.52	18.330
566.86	18.078
567.20	18.826
567.54	19.374
567.88	17.309
568.21	18.009
568.55	17.656
568.89	17.396
569.23	18.186
569.56	17.697
569.90	17.624
570.24	18.377
570.57	17.364
570.91	17.239
571.25	18.061
571.59	17.640
571.92	18.006
572.26	17.615
572.60	18.337
572.93	17.343
573.27	17.622
573.61	17.637
573.95	17.376
574.28	17.400
574.62	18.022
574.96	17.049
575.29	17.505
575.63	17.335
575.97	17.206
576.30	17.484
576.64	17.990
576.98	17.467
577.31	17.187
577.65	17.669
577.98	17.417
578.32	17.449
578.66	17.466
578.99	17.507
579.33	17.784
579.67	17.373
580.00	17.088
580.34	17.368
580.67	17.357
581.01	17.093
581.35	17.568
581.68	17.290
582.02	17.129
582.35	17.205
582.69	17.227
583.02	17.706
583.36	17.421
583.70	17.230
584.03	17.457
584.37	17.240
584.70	16.759
585.04	17.468
585.37	17.041
585.71	17.513
586.04	17.553
586.38	17.696
586.72	17.672
587.05	17.870
587.39	17.345
587.72	17.574
588.06	16.864
588.39	17.345
588.73	17.803
589.06	17.743
589.40	18.001
589.73	17.493
590.07	17.516
590.40	17.712
590.73	17.673
591.07	17.336
591.40	17.548
591.74	17.680
592.07	17.568
592.41	17.707
592.74	17.717
593.08	18.332
593.41	17.303
593.75	16.947
594.08	17.505
594.41	18.041
594.75	17.780
595.08	17.594
595.42	17.955
595.75	17.714
596.09	17.385
596.42	17.758
596.75	17.421
597.09	17.898
597.42	17.547
597.75	18.158
598.09	17.623
598.42	17.852
598.76	17.276
599.09	17.285
599.42	17.070
599.76	17.931
600.09	17.366
600.42	17.812
600.76	17.100
601.09	17.774
601.42	17.491
601.76	17.757
602.09	17.914
602.42	17.901
602.76	17.241
603.09	17.621
603.42	17.728
603.76	17.710
604.09	17.821
604.42	17.610
604.76	17.575
605.09	17.450
605.42	17.642
605.75	18.025
606.09	17.601
606.42	17.176
606.75	18.162
607.09	17.821
607.42	17.474
607.75	17.263
608.08	17.985
608.42	18.401
608.75	17.664
609.08	18.120
609.41	17.289
609.75	17.991
610.08	17.549
610.41	18.120
610.74	17.940
611.07	18.357
611.41	18.003
611.74	18.098
612.07	18.743
612.40	17.377
612.73	17.878
613.07	17.171
613.40	18.391
613.73	18.365
614.06	17.902
614.39	17.531
614.72	17.318
615.06	17.120
615.39	17.526
615.72	18.577
616.05	17.670
616.38	17.644
616.71	18.018
617.05	18.154
617.38	17.585
617.71	17.936
618.04	17.267
618.37	17.925
618.70	19.100
619.03	17.806
619.36	18.746
619.69	19.598
620.03	18.802
620.36	18.073
620.69	17.373
621.02	17.960
621.35	17.661
621.68	17.787
622.01	18.851
622.34	18.323
622.67	17.812
623.00	18.439
623.33	17.985
623.66	17.504
623.99	17.895
624.32	17.039
624.65	18.249
624.99	18.073
625.32	18.114
625.65	19.736
625.98	17.136
626.31	18.352
626.64	18.577
626.97	17.551
627.30	17.362
627.63	17.271
627.96	17.668
628.29	17.831
628.62	17.287
628.95	18.307
629.28	18.327
629.61	17.959
629.94	18.904
630.26	17.594
630.59	18.894
630.92	17.918
631.25	19.153
631.58	17.460
631.91	15.851
632.24	19.778
632.57	18.222
632.90	19.195
633.23	17.757
633.56	17.427
633.89	18.868
