SpectraSuite Data File
++++++++++++++++++++++++++++++++++++
Date: Sat May 16 11:09:31 PDT 2015
User: schluterlab
Dark Spectrum Present: Yes
Reference Spectrum Present: Yes
Number of Sampled Component Spectra: 1
Spectrometers: USB2E3373
Integration Time (usec): 3000 (USB2E3373)
Spectra Averaged: 3 (USB2E3373)
Boxcar Smoothing: 0 (USB2E3373)
Correct for Electrical Dark: No (USB2E3373)
Strobe/Lamp Enabled: No (USB2E3373)
Correct for Detector Non-linearity: No (USB2E3373)
Correct for Stray Light: No (USB2E3373)
Number of Pixels in Processed Spectrum: 2048
>>>>>Begin Processed Spectral Data<<<<<
178.53	0.000
178.91	66.667
179.29	266.667
179.67	-100.000
180.04	7.692
180.42	-1000.000
180.80	125.000
181.18	225.000
181.56	-75.000
181.94	500.000
182.31	100.000
182.69	15.385
183.07	-66.667
183.45	500.000
183.83	200.000
184.20	-42.857
184.58	-25.000
184.96	-150.000
185.34	100.000
185.72	-175.000
186.09	183.333
186.47	-200.000
186.85	-37.500
187.23	137.500
187.61	175.000
187.98	-125.000
188.36	-12.500
188.74	-37.500
189.12	1200.000
189.49	114.286
189.87	8.333
190.25	50.000
190.63	71.429
191.00	-22.222
191.38	20.000
191.76	33.333
192.14	360.000
192.51	240.000
192.89	133.333
193.27	0.000
193.65	33.333
194.02	-128.571
194.40	300.000
194.78	60.000
195.15	600.000
195.53	-72.727
195.91	-133.333
196.29	-20.000
196.66	-200.000
197.04	500.000
197.42	-25.000
197.79	53.333
198.17	-166.667
198.55	-450.000
198.92	200.000
199.30	37.500
199.68	-350.000
200.05	66.667
200.43	-11.111
200.81	-700.000
201.18	8.333
201.56	114.286
201.94	33.333
202.31	22.727
202.69	60.000
203.07	-70.000
203.44	433.333
203.82	-133.333
204.19	-25.000
204.57	75.000
204.95	-500.000
205.32	-6.250
205.70	500.000
206.08	-200.000
206.45	-38.889
206.83	-600.000
207.20	800.000
207.58	-400.000
207.96	-66.667
208.33	-12.500
208.71	-22.222
209.08	140.000
209.46	42.857
209.84	-100.000
210.21	0.000
210.59	110.000
210.96	700.000
211.34	-266.667
211.71	66.667
212.09	225.000
212.46	50.000
212.84	-1100.000
213.22	133.333
213.59	41.667
213.97	-11.111
214.34	160.000
214.72	30.000
215.09	33.333
215.47	33.333
215.84	50.000
216.22	20.000
216.59	120.000
216.97	-150.000
217.34	400.000
217.72	-28.571
218.09	-16.667
218.47	-42.857
218.84	200.000
219.22	171.429
219.59	0.000
219.97	85.714
220.34	100.000
220.72	-25.000
221.09	-23.077
221.47	0.000
221.84	-100.000
222.22	-150.000
222.59	-0.000
222.97	-87.500
223.34	-450.000
223.72	-33.333
224.09	-28.571
224.46	50.000
224.84	14.286
225.21	14.286
225.59	18.182
225.96	-50.000
226.34	42.857
226.71	33.333
227.08	10.000
227.46	500.000
227.83	42.857
228.21	-237.500
228.58	150.000
228.95	56.250
229.33	-200.000
229.70	-160.000
230.08	-450.000
230.45	33.333
230.82	50.000
231.20	100.000
231.57	-150.000
231.95	-300.000
232.32	47.619
232.69	111.111
233.07	-85.714
233.44	0.000
233.81	6.667
234.19	-22.222
234.56	37.500
234.93	87.500
235.31	-42.857
235.68	-57.143
236.05	41.176
236.43	13.636
236.80	12.903
237.17	95.833
237.55	0.000
237.92	45.455
238.29	28.571
238.67	55.882
239.04	77.778
239.41	48.387
239.79	10.256
240.16	16.667
240.53	23.636
240.91	82.051
241.28	47.273
241.65	55.385
242.02	55.738
242.40	31.148
242.77	36.364
243.14	59.322
243.51	41.429
243.89	49.367
244.26	40.449
244.63	35.789
245.00	49.474
245.38	46.610
245.75	46.903
246.12	45.600
246.49	40.157
246.87	30.081
247.24	38.136
247.61	39.831
247.98	40.141
248.36	40.559
248.73	43.038
249.10	28.025
249.47	39.181
249.84	48.295
250.22	38.095
250.59	45.763
250.96	42.932
251.33	40.758
251.70	39.423
252.08	42.180
252.45	42.180
252.82	41.905
253.19	45.957
253.56	36.290
253.94	37.553
254.31	42.918
254.68	41.057
255.05	40.323
255.42	44.444
255.79	40.860
256.16	49.412
256.54	43.382
256.91	44.318
257.28	43.223
257.65	43.972
258.02	40.566
258.39	37.458
258.76	38.514
259.14	45.370
259.51	45.574
259.88	39.329
260.25	48.137
260.62	40.514
260.99	41.840
261.36	42.683
261.73	42.775
262.10	45.556
262.47	38.177
262.85	45.429
263.22	36.390
263.59	44.615
263.96	42.899
264.33	38.753
264.70	44.475
265.07	46.429
265.44	42.119
265.81	39.793
266.18	39.747
266.55	40.931
266.92	44.584
267.29	45.036
267.66	40.247
268.03	43.237
268.40	39.202
268.77	44.096
269.14	42.227
269.51	41.839
269.88	38.761
270.25	39.161
270.62	43.707
270.99	41.892
271.36	43.357
271.73	39.686
272.10	44.394
272.47	40.889
272.84	42.889
273.21	40.826
273.58	41.758
273.95	42.325
274.32	42.534
274.69	43.326
275.06	43.354
275.43	40.179
275.80	42.566
276.17	41.213
276.54	40.326
276.91	41.770
277.28	39.148
277.65	40.702
278.02	40.710
278.39	42.043
278.76	43.625
279.13	41.304
279.50	41.948
279.87	41.438
280.23	37.854
280.60	42.744
280.97	41.553
281.34	43.907
281.71	41.538
282.08	40.121
282.45	43.788
282.82	43.217
283.19	38.909
283.56	41.941
283.92	42.049
284.29	41.636
284.66	38.489
285.03	40.107
285.40	40.590
285.77	41.228
286.14	41.336
286.51	39.432
286.87	42.287
287.24	39.590
287.61	37.851
287.98	39.688
288.35	38.512
288.72	38.540
289.08	38.136
289.45	38.552
289.82	36.851
290.19	38.424
290.56	37.025
290.93	35.771
291.29	37.115
291.66	37.198
292.03	38.148
292.40	35.392
292.77	34.472
293.13	35.447
293.50	33.878
293.87	35.276
294.24	34.087
294.60	34.091
294.97	35.964
295.34	32.000
295.71	33.333
296.08	31.183
296.44	31.760
296.81	32.336
297.18	32.254
297.55	33.616
297.91	33.612
298.28	31.507
298.65	31.520
299.02	33.021
299.38	30.080
299.75	31.658
300.12	30.000
300.48	32.097
300.85	31.455
301.22	32.083
301.59	31.469
301.95	31.990
302.32	28.814
302.69	29.988
303.05	28.938
303.42	29.000
303.79	30.742
304.15	30.332
304.52	29.755
304.89	30.460
305.25	29.548
305.62	28.320
305.99	30.624
306.35	28.857
306.72	29.271
307.09	28.377
307.45	28.490
307.82	28.492
308.19	28.523
308.55	29.085
308.92	26.101
309.29	28.000
309.65	28.314
310.02	26.998
310.38	28.108
310.75	27.357
311.12	27.066
311.48	28.706
311.85	27.188
312.22	28.012
312.58	27.772
312.95	28.236
313.31	27.972
313.68	27.839
314.05	27.893
314.41	26.459
314.78	27.273
315.14	28.430
315.51	27.761
315.87	27.396
316.24	26.531
316.61	27.255
316.97	27.662
317.34	27.360
317.70	26.994
318.07	27.332
318.43	26.592
318.80	27.136
319.16	26.173
319.53	26.316
319.89	26.529
320.26	26.765
320.62	24.327
320.99	26.368
321.35	25.123
321.72	26.203
322.08	26.014
322.45	27.129
322.81	27.378
323.18	27.378
323.54	27.634
323.91	25.950
324.27	26.996
324.64	25.960
325.00	26.178
325.37	25.249
325.73	25.459
326.10	24.535
326.46	25.569
326.83	25.617
327.19	25.354
327.56	26.576
327.92	26.508
328.29	28.398
328.65	24.091
329.01	25.707
329.38	24.888
329.74	24.908
330.11	25.295
330.47	26.158
330.84	25.665
331.20	24.639
331.56	25.160
331.93	25.222
332.29	24.658
332.66	24.407
333.02	24.434
333.38	24.731
333.75	25.022
334.11	24.356
334.48	24.272
334.84	25.634
335.20	24.557
335.57	26.354
335.93	26.321
336.29	24.535
336.66	23.789
337.02	24.505
337.38	24.153
337.75	24.495
338.11	25.492
338.47	24.377
338.84	23.956
339.20	23.902
339.56	25.579
339.93	24.162
340.29	22.941
340.65	23.864
341.02	23.524
341.38	23.589
341.74	24.047
342.11	24.488
342.47	24.034
342.83	23.762
343.20	23.997
343.56	23.510
343.92	24.875
344.28	24.474
344.65	23.845
345.01	24.202
345.37	24.336
345.73	22.422
346.10	22.976
346.46	23.233
346.82	22.935
347.19	23.418
347.55	22.713
347.91	22.126
348.27	22.355
348.63	23.102
349.00	24.662
349.36	20.687
349.72	23.248
350.08	23.256
350.45	22.380
350.81	23.408
351.17	23.553
351.53	22.275
351.89	22.555
352.26	22.016
352.62	23.118
352.98	22.943
353.34	23.022
353.70	23.012
354.07	22.502
354.43	22.767
354.79	22.583
355.15	22.684
355.51	21.719
355.87	22.372
356.24	22.319
356.60	22.724
356.96	22.556
357.32	22.090
357.68	21.916
358.04	22.325
358.40	22.738
358.77	21.329
359.13	22.035
359.49	22.676
359.85	22.104
360.21	22.603
360.57	22.440
360.93	21.481
361.29	22.496
361.66	21.875
362.02	20.858
362.38	22.450
362.74	22.271
363.10	22.453
363.46	23.362
363.82	21.866
364.18	23.082
364.54	22.873
364.90	21.873
365.26	21.969
365.62	23.735
365.98	22.404
366.35	21.408
366.71	21.564
367.07	22.018
367.43	22.306
367.79	21.581
368.15	21.622
368.51	23.007
368.87	22.802
369.23	22.316
369.59	21.597
369.95	21.776
370.31	21.730
370.67	21.041
371.03	22.230
371.39	21.358
371.75	21.102
372.11	22.382
372.47	21.330
372.83	21.488
373.19	21.786
373.55	21.675
373.91	21.693
374.27	21.561
374.63	20.911
374.99	22.253
375.35	22.140
375.71	21.945
376.07	20.945
376.42	20.596
376.78	21.765
377.14	21.966
377.50	21.019
377.86	21.521
378.22	21.985
378.58	20.074
378.94	21.455
379.30	21.633
379.66	21.979
380.02	21.747
380.38	21.329
380.74	21.454
381.09	22.144
381.45	21.181
381.81	20.569
382.17	21.241
382.53	20.061
382.89	20.993
383.25	22.276
383.61	20.696
383.97	21.739
384.32	21.715
384.68	21.161
385.04	20.894
385.40	20.755
385.76	20.793
386.12	21.174
386.48	21.782
386.83	20.123
387.19	21.518
387.55	20.109
387.91	21.103
388.27	20.627
388.62	20.553
388.98	20.472
389.34	20.073
389.70	19.976
390.06	21.131
390.42	21.987
390.77	20.063
391.13	21.366
391.49	20.586
391.85	21.322
392.20	21.117
392.56	20.770
392.92	20.878
393.28	21.125
393.64	20.204
393.99	21.538
394.35	21.411
394.71	19.951
395.07	20.590
395.42	20.501
395.78	20.176
396.14	20.748
396.50	20.856
396.85	20.851
397.21	22.114
397.57	20.669
397.92	20.550
398.28	20.944
398.64	20.226
399.00	20.955
399.35	20.124
399.71	21.835
400.07	20.955
400.42	21.290
400.78	20.334
401.14	21.198
401.49	20.106
401.85	21.049
402.21	20.322
402.57	20.449
402.92	21.082
403.28	21.017
403.63	20.431
403.99	21.069
404.35	20.471
404.70	20.363
405.06	21.107
405.42	20.172
405.77	20.079
406.13	19.761
406.49	20.431
406.84	20.636
407.20	20.730
407.55	20.266
407.91	20.207
408.27	20.956
408.62	20.445
408.98	21.286
409.34	20.049
409.69	20.038
410.05	21.407
410.40	20.110
410.76	20.332
411.11	20.698
411.47	20.141
411.83	20.844
412.18	20.978
412.54	20.439
412.89	19.866
413.25	19.540
413.60	19.563
413.96	20.271
414.31	21.101
414.67	20.063
415.03	20.246
415.38	20.625
415.74	20.747
416.09	20.013
416.45	19.841
416.80	20.871
417.16	19.468
417.51	20.617
417.87	20.000
418.22	20.354
418.58	20.732
418.93	20.478
419.29	20.201
419.64	20.854
420.00	20.292
420.35	20.284
420.71	20.228
421.06	20.888
421.42	19.379
421.77	20.045
422.12	20.145
422.48	20.257
422.83	20.843
423.19	20.434
423.54	19.827
423.90	19.954
424.25	19.853
424.61	20.205
424.96	20.772
425.31	20.011
425.67	20.573
426.02	19.507
426.38	19.480
426.73	19.462
427.09	20.037
427.44	20.284
427.79	19.244
428.15	20.826
428.50	19.707
428.85	19.664
429.21	19.535
429.56	20.469
429.92	19.840
430.27	20.140
430.62	19.279
430.98	19.812
431.33	19.797
431.68	19.893
432.04	20.201
432.39	20.399
432.74	20.144
433.10	20.653
433.45	19.747
433.80	19.765
434.16	19.989
434.51	19.945
434.86	20.621
435.22	20.212
435.57	19.951
435.92	20.750
436.28	19.763
436.63	19.672
436.98	19.187
437.34	20.083
437.69	20.362
438.04	19.342
438.39	20.457
438.75	19.674
439.10	20.489
439.45	19.071
439.81	20.120
440.16	20.557
440.51	20.059
440.86	19.780
441.22	18.629
441.57	19.895
441.92	20.614
442.27	19.805
442.63	20.118
442.98	19.131
443.33	20.264
443.68	19.802
444.03	20.187
444.39	19.775
444.74	20.485
445.09	18.860
445.44	20.146
445.79	20.143
446.15	19.825
446.50	20.468
446.85	19.856
447.20	19.459
447.55	20.276
447.91	20.438
448.26	19.162
448.61	19.581
448.96	20.448
449.31	19.617
449.66	20.378
450.02	18.947
450.37	19.536
450.72	18.870
451.07	19.987
451.42	19.269
451.77	20.287
452.12	20.203
452.47	19.521
452.83	19.278
453.18	19.545
453.53	19.341
453.88	20.933
454.23	18.380
454.58	20.137
454.93	18.892
455.28	19.057
455.63	19.656
455.98	20.000
456.34	18.107
456.69	20.013
457.04	19.914
457.39	20.156
457.74	19.374
458.09	19.722
458.44	19.515
458.79	18.890
459.14	20.023
459.49	20.189
459.84	19.505
460.19	20.346
460.54	20.085
460.89	19.395
461.24	19.794
461.59	20.399
461.94	20.433
462.29	20.310
462.64	19.895
462.99	19.411
463.34	19.446
463.69	19.593
464.04	19.449
464.39	19.713
464.74	20.449
465.09	19.784
465.44	19.741
465.79	19.571
466.14	20.541
466.49	19.344
466.84	19.808
467.19	20.137
467.54	19.241
467.89	19.852
468.24	19.774
468.59	19.613
468.94	19.743
469.29	19.363
469.64	20.013
469.99	19.244
470.34	19.906
470.68	20.494
471.03	19.821
471.38	18.819
471.73	19.720
472.08	19.946
472.43	19.691
472.78	19.533
473.13	19.284
473.48	20.485
473.83	19.107
474.17	19.045
474.52	19.821
474.87	19.522
475.22	19.351
475.57	19.778
475.92	19.492
476.27	19.714
476.61	18.986
476.96	18.781
477.31	19.268
477.66	18.594
478.01	20.097
478.36	18.544
478.70	20.021
479.05	19.578
479.40	19.275
479.75	19.317
480.10	19.544
480.45	18.617
480.79	18.855
481.14	19.769
481.49	19.748
481.84	19.741
482.19	19.278
482.53	20.313
482.88	19.744
483.23	19.296
483.58	20.028
483.92	19.446
484.27	18.432
484.62	19.525
484.97	19.680
485.31	18.688
485.66	18.294
486.01	18.915
486.36	19.597
486.70	20.337
487.05	19.606
487.40	19.311
487.75	19.708
488.09	20.476
488.44	20.298
488.79	20.587
489.13	20.122
489.48	20.269
489.83	19.782
490.17	19.721
490.52	19.973
490.87	19.030
491.22	19.383
491.56	19.120
491.91	18.989
492.26	19.340
492.60	19.458
492.95	18.991
493.30	19.247
493.64	19.229
493.99	18.547
494.34	19.095
494.68	19.850
495.03	18.786
495.37	18.584
495.72	19.401
496.07	19.381
496.41	20.056
496.76	20.000
497.11	18.983
497.45	19.540
497.80	20.110
498.14	19.892
498.49	18.433
498.84	19.515
499.18	20.419
499.53	19.289
499.87	19.402
500.22	19.167
500.56	19.160
500.91	19.064
501.26	19.893
501.60	18.922
501.95	19.662
502.29	18.611
502.64	19.236
502.98	18.879
503.33	19.126
503.67	19.444
504.02	19.073
504.36	19.510
504.71	19.098
505.06	18.722
505.40	20.160
505.75	19.207
506.09	19.666
506.44	19.048
506.78	18.665
507.13	18.641
507.47	19.092
507.82	18.844
508.16	19.275
508.51	19.165
508.85	18.582
509.19	17.896
509.54	18.710
509.88	19.521
510.23	19.078
510.57	19.153
510.92	19.979
511.26	18.873
511.61	19.060
511.95	18.912
512.30	18.637
512.64	18.141
512.98	19.307
513.33	19.055
513.67	19.542
514.02	19.239
514.36	19.335
514.70	20.091
515.05	19.154
515.39	18.512
515.74	19.314
516.08	18.790
516.42	18.754
516.77	18.833
517.11	19.394
517.46	18.600
517.80	19.555
518.14	18.116
518.49	18.828
518.83	18.338
519.17	19.005
519.52	18.855
519.86	19.116
520.20	20.355
520.55	18.708
520.89	18.347
521.23	19.231
521.58	18.621
521.92	18.999
522.26	18.730
522.61	18.568
522.95	18.060
523.29	18.809
523.64	18.176
523.98	18.714
524.32	18.982
524.66	18.137
525.01	19.204
525.35	18.879
525.69	17.957
526.04	19.256
526.38	19.414
526.72	17.561
527.06	18.555
527.41	18.086
527.75	17.822
528.09	18.862
528.43	17.770
528.78	18.090
529.12	18.758
529.46	17.977
529.80	18.528
530.15	19.511
530.49	18.629
530.83	19.319
531.17	18.249
531.51	17.482
531.86	19.092
532.20	18.556
532.54	19.987
532.88	18.379
533.22	18.382
533.57	20.039
533.91	18.664
534.25	18.730
534.59	19.051
534.93	18.171
535.27	19.572
535.62	18.670
535.96	18.811
536.30	17.866
536.64	18.393
536.98	19.138
537.32	18.106
537.66	18.194
538.01	18.969
538.35	18.649
538.69	18.048
539.03	19.093
539.37	19.228
539.71	19.413
540.05	18.437
540.39	19.044
540.73	18.314
541.07	19.604
541.42	17.623
541.76	17.874
542.10	19.244
542.44	19.587
542.78	19.267
543.12	18.194
543.46	17.945
543.80	17.726
544.14	17.931
544.48	20.079
544.82	18.606
545.16	19.316
545.50	18.506
545.84	18.567
546.18	19.001
546.52	18.350
546.86	18.519
547.20	19.620
547.54	17.769
547.88	19.310
548.22	17.890
548.56	18.637
548.90	19.205
549.24	19.061
549.58	18.772
549.92	19.152
550.26	19.581
550.60	18.848
550.94	19.197
551.28	18.736
551.62	17.873
551.96	18.669
552.30	18.188
552.64	19.282
552.98	19.972
553.32	18.543
553.66	19.755
554.00	19.616
554.34	18.051
554.68	18.787
555.02	20.260
555.36	19.554
555.69	18.553
556.03	18.596
556.37	19.346
556.71	19.256
557.05	18.773
557.39	18.189
557.73	19.621
558.07	18.387
558.41	18.325
558.75	19.011
559.08	17.510
559.42	18.606
559.76	18.175
560.10	19.389
560.44	18.353
560.78	19.207
561.12	18.288
561.45	19.384
561.79	19.443
562.13	19.004
562.47	19.328
562.81	18.529
563.15	19.034
563.48	19.143
563.82	19.067
564.16	18.323
564.50	18.884
564.84	18.651
565.17	18.767
565.51	19.622
565.85	19.202
566.19	19.368
566.52	19.113
566.86	19.090
567.20	20.157
567.54	18.901
567.88	19.095
568.21	18.904
568.55	18.982
568.89	19.185
569.23	19.158
569.56	19.042
569.90	19.552
570.24	19.992
570.57	18.770
570.91	19.483
571.25	19.909
571.59	19.575
571.92	20.357
572.26	19.533
572.60	19.206
572.93	19.882
573.27	19.939
573.61	19.616
573.95	19.984
574.28	19.757
574.62	20.081
574.96	19.741
575.29	19.461
575.63	19.671
575.97	19.633
576.30	20.115
576.64	20.157
576.98	19.806
577.31	20.072
577.65	20.018
577.98	20.158
578.32	19.912
578.66	19.766
578.99	20.277
579.33	19.869
579.67	20.441
580.00	19.668
580.34	19.716
580.67	20.127
581.01	19.653
581.35	20.282
581.68	19.847
582.02	20.140
582.35	19.811
582.69	20.266
583.02	20.358
583.36	19.757
583.70	20.456
584.03	20.420
584.37	20.081
584.70	20.671
585.04	20.152
585.37	19.475
585.71	20.271
586.04	20.111
586.38	19.353
586.72	19.729
587.05	19.739
587.39	19.339
587.72	20.361
588.06	20.055
588.39	19.823
588.73	20.066
589.06	20.652
589.40	20.646
589.73	19.972
590.07	19.483
590.40	19.520
590.73	19.752
591.07	20.205
591.40	19.887
591.74	19.983
592.07	19.910
592.41	19.958
592.74	19.792
593.08	19.979
593.41	19.901
593.75	20.079
594.08	19.878
594.41	19.667
594.75	19.630
595.08	19.511
595.42	19.400
595.75	19.405
596.09	19.402
596.42	19.926
596.75	19.448
597.09	20.436
597.42	19.206
597.75	20.239
598.09	20.154
598.42	19.532
598.76	19.435
599.09	19.061
599.42	19.262
599.76	19.479
600.09	19.847
600.42	19.977
600.76	19.209
601.09	19.445
601.42	19.272
601.76	20.132
602.09	19.673
602.42	19.300
602.76	19.443
603.09	19.798
603.42	19.823
603.76	19.785
604.09	19.383
604.42	19.692
604.76	19.712
605.09	19.530
605.42	20.966
605.75	19.319
606.09	19.095
606.42	18.894
606.75	19.751
607.09	20.291
607.42	19.982
607.75	20.000
608.08	20.063
608.42	19.489
608.75	19.299
609.08	19.191
609.41	19.581
609.75	19.356
610.08	19.216
610.41	18.940
610.74	19.971
611.07	19.219
611.41	18.659
611.74	20.051
612.07	19.280
612.40	19.136
612.73	19.332
613.07	18.767
613.40	20.033
613.73	18.638
614.06	19.001
614.39	19.617
614.72	18.212
615.06	18.967
615.39	19.859
615.72	19.392
616.05	19.105
616.38	19.501
616.71	19.640
617.05	19.662
617.38	19.690
617.71	18.612
618.04	19.503
618.37	19.057
618.70	19.883
619.03	19.431
619.36	19.309
619.69	19.383
620.03	18.388
620.36	19.058
620.69	19.095
621.02	18.798
621.35	19.032
621.68	18.115
622.01	18.528
622.34	18.866
622.67	18.906
623.00	18.057
623.33	19.478
623.66	18.538
623.99	18.872
624.32	18.229
624.65	18.322
624.99	18.372
625.32	19.162
625.65	19.503
625.98	17.840
626.31	19.657
626.64	19.163
626.97	17.979
627.30	18.383
627.63	17.185
627.96	18.364
628.29	18.474
628.62	18.625
628.95	17.618
629.28	18.327
629.61	17.861
629.94	19.282
630.26	18.986
630.59	17.990
630.92	18.619
631.25	18.448
631.58	17.354
631.91	17.447
632.24	16.778
632.57	19.111
632.90	18.506
633.23	19.159
633.56	16.140
633.89	18.160
