SpectraSuite Data File
++++++++++++++++++++++++++++++++++++
Date: Sat May 16 11:30:28 PDT 2015
User: schluterlab
Dark Spectrum Present: Yes
Reference Spectrum Present: Yes
Number of Sampled Component Spectra: 1
Spectrometers: USB2E3373
Integration Time (usec): 3000 (USB2E3373)
Spectra Averaged: 3 (USB2E3373)
Boxcar Smoothing: 0 (USB2E3373)
Correct for Electrical Dark: No (USB2E3373)
Strobe/Lamp Enabled: No (USB2E3373)
Correct for Detector Non-linearity: No (USB2E3373)
Correct for Stray Light: No (USB2E3373)
Number of Pixels in Processed Spectrum: 2048
>>>>>Begin Processed Spectral Data<<<<<
178.53	0.000
178.91	126.667
179.29	533.333
179.67	-600.000
180.04	-76.923
180.42	-100.000
180.80	225.000
181.18	300.000
181.56	-187.500
181.94	1300.000
182.31	400.000
182.69	-138.462
183.07	-166.667
183.45	1400.000
183.83	466.667
184.20	-228.571
184.58	-125.000
184.96	-525.000
185.34	118.750
185.72	-475.000
186.09	266.667
186.47	-150.000
186.85	-162.500
187.23	-75.000
187.61	-25.000
187.98	-187.500
188.36	-100.000
188.74	-112.500
189.12	900.000
189.49	257.143
189.87	-66.667
190.25	100.000
190.63	-14.286
191.00	-166.667
191.38	440.000
191.76	-60.000
192.14	640.000
192.51	-20.000
192.89	-366.667
193.27	0.000
193.65	-100.000
194.02	-228.571
194.40	433.333
194.78	-100.000
195.15	-1700.000
195.53	-81.818
195.91	-400.000
196.29	180.000
196.66	-800.000
197.04	1800.000
197.42	-325.000
197.79	33.333
198.17	-266.667
198.55	-600.000
198.92	-1800.000
199.30	225.000
199.68	-750.000
200.05	-200.000
200.43	-100.000
200.81	-1600.000
201.18	-108.333
201.56	257.143
201.94	-20.000
202.31	4.545
202.69	0.000
203.07	-150.000
203.44	566.667
203.82	-433.333
204.19	-475.000
204.57	-300.000
204.95	-800.000
205.32	-31.250
205.70	1500.000
206.08	-1200.000
206.45	-11.111
206.83	-1350.000
207.20	-450.000
207.58	-866.667
207.96	-366.667
208.33	-250.000
208.71	-244.444
209.08	130.000
209.46	-271.429
209.84	900.000
210.21	0.000
210.59	25.000
210.96	1800.000
211.34	-233.333
211.71	-433.333
212.09	200.000
212.46	1300.000
212.84	-1600.000
213.22	400.000
213.59	108.333
213.97	-88.889
214.34	170.000
214.72	-180.000
215.09	-300.000
215.47	-150.000
215.84	-140.000
216.22	0.000
216.59	-53.333
216.97	-50.000
217.34	900.000
217.72	-185.714
218.09	-316.667
218.47	-371.429
218.84	214.286
219.22	-57.143
219.59	0.000
219.97	171.429
220.34	375.000
220.72	125.000
221.09	-100.000
221.47	0.000
221.84	400.000
222.22	-850.000
222.59	800.000
222.97	-137.500
223.34	-850.000
223.72	-300.000
224.09	-78.571
224.46	-200.000
224.84	-42.857
225.21	-200.000
225.59	-127.273
225.96	-137.500
226.34	-42.857
226.71	-55.556
227.08	-5.000
227.46	1300.000
227.83	-100.000
228.21	-312.500
228.58	750.000
228.95	-87.500
229.33	-1600.000
229.70	-460.000
230.08	-950.000
230.45	-33.333
230.82	-166.667
231.20	-1300.000
231.57	-800.000
231.95	2000.000
232.32	-14.286
232.69	-166.667
233.07	-185.714
233.44	-1050.000
233.81	-113.333
234.19	-77.778
234.56	-25.000
234.93	31.250
235.31	-257.143
235.68	-100.000
236.05	-94.118
236.43	-27.273
236.80	-9.677
237.17	-29.167
237.55	-38.095
237.92	-50.000
238.29	-5.714
238.67	-20.588
239.04	16.667
239.41	-19.355
239.79	-41.026
240.16	-23.810
240.53	-21.818
240.91	15.385
241.28	14.545
241.65	18.462
242.02	11.475
242.40	1.639
242.77	15.152
243.14	6.780
243.51	-5.714
243.89	3.797
244.26	15.730
244.63	14.737
245.00	16.842
245.38	16.949
245.75	21.239
246.12	10.400
246.49	8.661
246.87	9.756
247.24	15.254
247.61	5.085
247.98	14.085
248.36	13.986
248.73	20.886
249.10	8.917
249.47	20.468
249.84	20.455
250.22	15.476
250.59	15.819
250.96	17.801
251.33	21.327
251.70	20.673
252.08	18.957
252.45	13.270
252.82	19.048
253.19	21.277
253.56	18.952
253.94	15.612
254.31	14.592
254.68	19.919
255.05	19.758
255.42	23.810
255.79	17.563
256.16	17.647
256.54	20.221
256.91	23.485
257.28	12.821
257.65	17.376
258.02	24.528
258.39	19.732
258.76	19.932
259.14	19.136
259.51	23.279
259.88	25.915
260.25	20.497
260.62	20.579
260.99	15.134
261.36	19.207
261.73	22.254
262.10	23.611
262.47	20.228
262.85	24.857
263.22	22.063
263.59	20.615
263.96	19.420
264.33	19.512
264.70	23.481
265.07	21.154
265.44	18.863
265.81	18.605
266.18	20.506
266.55	21.078
266.92	22.418
267.29	18.160
267.66	22.963
268.03	24.879
268.40	19.718
268.77	22.410
269.14	18.561
269.51	20.460
269.88	19.725
270.25	23.077
270.62	19.908
270.99	21.847
271.36	22.378
271.73	22.197
272.10	22.883
272.47	20.000
272.84	23.778
273.21	20.642
273.58	21.538
273.95	19.079
274.32	21.041
274.69	23.632
275.06	22.495
275.43	19.420
275.80	21.181
276.17	22.803
276.54	20.774
276.91	23.457
277.28	18.256
277.65	19.835
278.02	20.877
278.39	21.022
278.76	19.323
279.13	20.949
279.50	20.477
279.87	20.930
280.23	22.874
280.60	19.682
280.97	19.223
281.34	19.923
281.71	21.923
282.08	19.758
282.45	19.959
282.82	21.318
283.19	20.909
283.56	21.978
283.92	17.668
284.29	19.888
284.66	20.144
285.03	21.569
285.40	21.587
285.77	20.351
286.14	20.217
286.51	20.071
286.87	21.597
287.24	20.478
287.61	20.826
287.98	18.544
288.35	18.843
288.72	20.034
289.08	17.966
289.45	19.865
289.82	17.647
290.19	20.690
290.56	19.504
290.93	18.124
291.29	17.828
291.66	17.230
292.03	17.268
292.40	17.169
292.77	15.839
293.13	19.675
293.50	18.574
293.87	17.945
294.24	17.949
294.60	14.394
294.97	17.602
295.34	16.000
295.71	16.667
296.08	14.439
296.44	15.594
296.81	18.091
297.18	16.620
297.55	16.667
297.91	17.155
298.28	13.973
298.65	17.155
299.02	16.711
299.38	15.775
299.75	14.810
300.12	15.513
300.48	16.624
300.85	15.334
301.22	15.136
301.59	14.694
301.95	15.743
302.32	14.733
302.69	16.157
303.05	14.286
303.42	13.875
303.79	14.593
304.15	15.047
304.52	13.302
304.89	14.522
305.25	15.263
305.62	14.219
305.99	16.254
306.35	14.872
306.72	14.920
307.09	15.210
307.45	14.188
307.82	14.078
308.19	13.199
308.55	14.161
308.92	14.715
309.29	13.514
309.65	13.362
310.02	14.363
310.38	14.811
310.75	14.139
311.12	15.186
311.48	13.674
311.85	14.830
312.22	13.800
312.58	13.428
312.95	13.863
313.31	14.585
313.68	15.477
314.05	14.936
314.41	12.877
314.78	13.087
315.14	14.808
315.51	12.563
315.87	15.586
316.24	13.314
316.61	14.012
316.97	13.134
317.34	13.776
317.70	13.729
318.07	14.646
318.43	14.419
318.80	14.836
319.16	13.133
319.53	13.252
319.89	13.829
320.26	13.235
320.62	14.423
320.99	14.328
321.35	13.005
321.72	13.511
322.08	14.243
322.45	13.564
322.81	14.697
323.18	14.025
323.54	14.233
323.91	13.809
324.27	14.639
324.64	13.346
325.00	14.660
325.37	13.575
325.73	14.961
326.10	13.198
326.46	13.923
326.83	14.213
327.19	14.012
327.56	13.799
327.92	14.359
328.29	14.113
328.65	12.455
329.01	14.576
329.38	14.184
329.74	14.652
330.11	13.599
330.47	13.806
330.84	15.124
331.20	13.448
331.56	13.582
331.93	13.854
332.29	13.790
332.66	13.784
333.02	13.394
333.38	14.337
333.75	13.891
334.11	13.067
334.48	13.151
334.84	14.873
335.20	13.475
335.57	13.357
335.93	15.040
336.29	14.260
336.66	13.744
337.02	13.063
337.38	13.102
337.75	13.521
338.11	13.864
338.47	13.790
338.84	13.339
339.20	12.830
339.56	14.260
339.93	12.875
340.29	13.640
340.65	13.287
341.02	14.503
341.38	12.300
341.74	13.209
342.11	13.652
342.47	14.249
342.83	13.098
343.20	13.578
343.56	12.980
343.92	13.272
344.28	14.634
344.65	13.944
345.01	13.782
345.37	14.037
345.73	12.357
346.10	12.756
346.46	12.754
346.82	14.515
347.19	12.243
347.55	12.921
347.91	13.543
348.27	12.331
348.63	13.732
349.00	14.956
349.36	12.100
349.72	13.694
350.08	14.435
350.45	12.687
350.81	14.490
351.17	12.942
351.53	11.456
351.89	13.339
352.26	13.178
352.62	14.593
352.98	13.608
353.34	13.189
353.70	12.587
354.07	13.454
354.43	13.597
354.79	13.312
355.15	13.179
355.51	12.656
355.87	12.964
356.24	12.311
356.60	13.215
356.96	13.087
357.32	12.827
357.68	11.418
358.04	13.780
358.40	12.916
358.77	12.597
359.13	12.854
359.49	13.454
359.85	12.576
360.21	12.405
360.57	13.479
360.93	13.185
361.29	13.154
361.66	12.957
362.02	12.352
362.38	12.913
362.74	13.260
363.10	13.702
363.46	14.031
363.82	13.411
364.18	13.242
364.54	13.438
364.90	12.648
365.26	12.268
365.62	13.970
365.98	13.442
366.35	13.169
366.71	12.755
367.07	12.703
367.43	14.345
367.79	13.058
368.15	12.304
368.51	14.126
368.87	14.011
369.23	13.123
369.59	13.333
369.95	12.967
370.31	13.643
370.67	12.509
371.03	13.192
371.39	12.518
371.75	13.305
372.11	14.204
372.47	13.160
372.83	13.769
373.19	13.286
373.55	13.863
373.91	12.376
374.27	13.210
374.63	12.767
374.99	13.561
375.35	14.132
375.71	14.922
376.07	12.799
376.42	12.848
376.78	13.268
377.14	13.492
377.50	13.798
377.86	14.174
378.22	13.882
378.58	13.712
378.94	13.317
379.30	13.711
379.66	14.147
380.02	13.012
380.38	13.293
380.74	13.482
381.09	13.181
381.45	14.260
381.81	13.370
382.17	12.970
382.53	13.131
382.89	13.517
383.25	14.570
383.61	14.151
383.97	14.268
384.32	13.955
384.68	14.208
385.04	13.527
385.40	13.999
385.76	13.354
386.12	13.179
386.48	13.800
386.83	14.110
387.19	13.867
387.55	14.537
387.91	14.582
388.27	13.571
388.62	13.582
388.98	13.628
389.34	13.647
389.70	14.068
390.06	14.108
390.42	14.872
390.77	14.006
391.13	14.969
391.49	14.286
391.85	14.776
392.20	14.138
392.56	13.928
392.92	14.661
393.28	14.868
393.64	14.552
393.99	14.277
394.35	15.572
394.71	14.515
395.07	14.187
395.42	13.766
395.78	14.268
396.14	15.202
396.50	14.985
396.85	15.423
397.21	13.973
397.57	15.562
397.92	14.637
398.28	15.000
398.64	14.396
399.00	15.225
399.35	14.262
399.71	15.273
400.07	14.746
400.42	14.781
400.78	15.325
401.14	14.850
401.49	14.623
401.85	14.887
402.21	15.375
402.57	15.352
402.92	14.789
403.28	15.135
403.63	14.380
403.99	14.916
404.35	14.734
404.70	15.272
405.06	14.879
405.42	14.330
405.77	14.253
406.13	14.764
406.49	14.620
406.84	14.817
407.20	14.841
407.55	14.883
407.91	14.702
408.27	15.074
408.62	15.394
408.98	15.039
409.34	15.235
409.69	15.438
410.05	15.525
410.40	15.389
410.76	15.293
411.11	15.025
411.47	14.962
411.83	15.465
412.18	15.099
412.54	14.826
412.89	14.945
413.25	14.522
413.60	13.791
413.96	13.925
414.31	14.985
414.67	14.095
415.03	14.166
415.38	14.379
415.74	14.884
416.09	15.217
416.45	14.418
416.80	15.150
417.16	14.352
417.51	15.890
417.87	14.498
418.22	14.855
418.58	15.854
418.93	14.776
419.29	15.245
419.64	13.945
420.00	15.553
420.35	15.376
420.71	14.646
421.06	14.793
421.42	14.344
421.77	14.685
422.12	14.941
422.48	14.270
422.83	14.636
423.19	14.699
423.54	14.640
423.90	14.517
424.25	14.084
424.61	15.018
424.96	15.565
425.31	14.980
425.67	14.499
426.02	14.228
426.38	14.398
426.73	14.319
427.09	14.767
427.44	14.830
427.79	14.535
428.15	14.363
428.50	15.367
428.85	14.748
429.21	14.001
429.56	15.260
429.92	14.780
430.27	13.709
430.62	15.308
430.98	14.532
431.33	15.155
431.68	15.228
432.04	15.053
432.39	14.188
432.74	13.969
433.10	14.350
433.45	14.853
433.80	13.942
434.16	15.207
434.51	14.740
434.86	15.290
435.22	14.254
435.57	15.361
435.92	14.009
436.28	14.184
436.63	14.415
436.98	15.178
437.34	14.589
437.69	14.644
438.04	14.861
438.39	15.644
438.75	14.552
439.10	14.659
439.45	14.122
439.81	15.482
440.16	14.537
440.51	15.059
440.86	13.592
441.22	13.875
441.57	14.474
441.92	15.243
442.27	14.989
442.63	14.378
442.98	14.334
443.33	15.211
443.68	13.705
444.03	14.735
444.39	14.293
444.74	15.198
445.09	13.925
445.44	14.800
445.79	14.992
446.15	15.060
446.50	14.045
446.85	14.982
447.20	14.607
447.55	14.862
447.91	15.385
448.26	14.358
448.61	13.922
448.96	15.350
449.31	14.205
449.66	15.226
450.02	14.127
450.37	14.377
450.72	14.294
451.07	14.959
451.42	14.250
451.77	14.901
452.12	15.197
452.47	14.861
452.83	13.687
453.18	15.117
453.53	14.179
453.88	14.773
454.23	13.241
454.58	14.792
454.93	14.798
455.28	14.213
455.63	14.496
455.98	14.639
456.34	14.295
456.69	14.509
457.04	14.813
457.39	14.474
457.74	14.117
458.09	14.559
458.44	15.704
458.79	13.677
459.14	14.661
459.49	14.920
459.84	14.952
460.19	14.797
460.54	14.640
460.89	13.845
461.24	14.572
461.59	15.182
461.94	14.831
462.29	14.592
462.64	14.888
462.99	15.395
463.34	13.774
463.69	14.822
464.04	14.880
464.39	14.397
464.74	15.189
465.09	14.853
465.44	14.834
465.79	15.398
466.14	15.362
466.49	14.277
466.84	14.466
467.19	14.900
467.54	14.494
467.89	14.797
468.24	14.608
468.59	15.053
468.94	14.662
469.29	14.620
469.64	14.892
469.99	15.260
470.34	13.961
470.68	15.480
471.03	14.797
471.38	14.861
471.73	14.336
472.08	13.922
472.43	14.093
472.78	14.667
473.13	13.718
473.48	15.061
473.83	15.261
474.17	13.885
474.52	15.345
474.87	15.268
475.22	14.513
475.57	14.222
475.92	15.551
476.27	15.086
476.61	15.155
476.96	15.484
477.31	14.693
477.66	14.555
478.01	14.695
478.36	13.777
478.70	14.789
479.05	15.306
479.40	14.249
479.75	14.424
480.10	14.831
480.45	14.120
480.79	15.054
481.14	15.404
481.49	15.344
481.84	15.349
482.19	15.167
482.53	15.152
482.88	14.665
483.23	14.742
483.58	14.986
483.92	14.811
484.27	14.577
484.62	14.428
484.97	15.043
485.31	14.528
485.66	14.351
486.01	14.614
486.36	15.136
486.70	15.571
487.05	14.960
487.40	14.637
487.75	14.683
488.09	14.392
488.44	14.817
488.79	14.574
489.13	14.644
489.48	15.212
489.83	14.978
490.17	15.411
490.52	15.399
490.87	14.180
491.22	14.479
491.56	14.815
491.91	15.029
492.26	14.198
492.60	14.748
492.95	15.088
493.30	14.388
493.64	14.433
493.99	14.723
494.34	15.048
494.68	15.028
495.03	14.627
495.37	14.651
495.72	14.784
496.07	15.533
496.41	15.609
496.76	15.023
497.11	15.026
497.45	15.469
497.80	14.807
498.14	14.735
498.49	14.917
498.84	14.951
499.18	15.058
499.53	15.246
499.87	14.141
500.22	15.000
500.56	15.258
500.91	14.975
501.26	15.332
501.60	14.925
501.95	15.314
502.29	14.549
502.64	15.417
502.98	15.046
503.33	15.930
503.67	15.230
504.02	15.258
504.36	15.294
504.71	14.742
505.06	15.477
505.40	15.719
505.75	15.346
506.09	15.521
506.44	15.840
506.78	16.357
507.13	15.191
507.47	15.649
507.82	15.436
508.16	15.337
508.51	15.507
508.85	15.683
509.19	15.228
509.54	15.803
509.88	15.691
510.23	15.723
510.57	16.667
510.92	16.058
511.26	15.311
511.61	15.227
511.95	16.218
512.30	15.173
512.64	15.136
512.98	15.787
513.33	15.376
513.67	15.578
514.02	15.492
514.36	16.177
514.70	15.393
515.05	15.780
515.39	15.167
515.74	16.347
516.08	16.542
516.42	16.374
516.77	16.811
517.11	16.648
517.46	16.089
517.80	15.824
518.14	16.123
518.49	16.198
518.83	15.193
519.17	16.282
519.52	16.136
519.86	17.622
520.20	16.932
520.55	15.323
520.89	15.091
521.23	16.911
521.58	16.113
521.92	16.719
522.26	16.063
522.61	16.160
522.95	15.635
523.29	16.176
523.64	16.115
523.98	16.423
524.32	16.028
524.66	15.280
525.01	16.699
525.35	17.075
525.69	16.331
526.04	15.862
526.38	16.423
526.72	15.773
527.06	16.341
527.41	16.568
527.75	16.106
528.09	16.744
528.43	15.738
528.78	17.023
529.12	17.414
529.46	16.302
529.80	16.527
530.15	16.742
530.49	15.847
530.83	17.420
531.17	15.421
531.51	16.477
531.86	16.722
532.20	17.544
532.54	15.909
532.88	16.337
533.22	15.976
533.57	17.167
533.91	16.292
534.25	16.530
534.59	16.365
534.93	16.428
535.27	16.803
535.62	16.880
535.96	16.290
536.30	16.492
536.64	16.268
536.98	16.172
537.32	16.655
537.66	16.429
538.01	17.388
538.35	17.095
538.69	15.709
539.03	17.062
539.37	16.633
539.71	16.077
540.05	16.244
540.39	16.690
540.73	16.655
541.07	17.281
541.42	16.408
541.76	15.216
542.10	17.016
542.44	17.455
542.78	17.503
543.12	15.886
543.46	15.205
543.80	16.321
544.14	16.655
544.48	16.142
544.82	16.441
545.16	17.036
545.50	15.410
545.84	16.620
546.18	15.811
546.52	16.785
546.86	16.738
547.20	18.003
547.54	15.771
547.88	16.058
548.22	15.727
548.56	17.168
548.90	16.644
549.24	16.048
549.58	16.514
549.92	15.972
550.26	16.763
550.60	16.501
550.94	17.226
551.28	16.479
551.62	15.953
551.96	16.932
552.30	17.352
552.64	16.327
552.98	16.748
553.32	15.729
553.66	16.583
554.00	16.205
554.34	16.462
554.68	16.374
555.02	17.873
555.36	16.535
555.69	15.688
556.03	16.842
556.37	16.003
556.71	15.891
557.05	16.999
557.39	16.110
557.73	17.578
558.07	17.634
558.41	16.604
558.75	17.034
559.08	16.420
559.42	16.462
559.76	16.564
560.10	16.629
560.44	17.847
560.78	16.841
561.12	16.632
561.45	17.192
561.79	16.376
562.13	15.989
562.47	16.807
562.81	15.912
563.15	16.165
563.48	17.208
563.82	17.106
564.16	16.836
564.50	16.599
564.84	17.460
565.17	16.180
565.51	16.884
565.85	16.903
566.19	17.325
566.52	16.569
566.86	16.498
567.20	17.978
567.54	17.247
567.88	16.918
568.21	16.107
568.55	16.437
568.89	16.700
569.23	17.029
569.56	16.099
569.90	17.349
570.24	16.986
570.57	16.520
570.91	16.525
571.25	16.796
571.59	17.047
571.92	17.083
572.26	16.836
572.60	16.444
572.93	16.631
573.27	16.280
573.61	16.461
573.95	17.084
574.28	16.857
574.62	17.056
574.96	16.476
575.29	16.616
575.63	16.724
575.97	16.289
576.30	16.470
576.64	16.423
576.98	16.945
577.31	16.424
577.65	16.864
577.98	16.546
578.32	16.712
578.66	17.090
578.99	16.862
579.33	16.403
579.67	16.739
580.00	16.295
580.34	16.585
580.67	16.450
581.01	16.545
581.35	16.390
581.68	16.298
582.02	16.853
582.35	16.714
582.69	16.925
583.02	17.175
583.36	17.183
583.70	16.667
584.03	16.918
584.37	16.725
584.70	16.653
585.04	16.886
585.37	16.301
585.71	17.150
586.04	16.971
586.38	17.028
586.72	16.770
587.05	16.426
587.39	16.389
587.72	16.963
588.06	17.084
588.39	17.175
588.73	17.109
589.06	17.040
589.40	17.554
589.73	17.139
590.07	16.533
590.40	17.897
590.73	16.673
591.07	16.762
591.40	16.984
591.74	16.855
592.07	16.667
592.41	17.240
592.74	16.795
593.08	18.091
593.41	17.039
593.75	16.848
594.08	16.858
594.41	17.338
594.75	17.592
595.08	17.218
595.42	16.655
595.75	16.832
596.09	16.880
596.42	17.471
596.75	16.990
597.09	17.542
597.42	17.023
597.75	16.696
598.09	17.126
598.42	17.057
598.76	16.154
599.09	16.969
599.42	16.455
599.76	16.912
600.09	16.908
600.42	17.357
600.76	16.987
601.09	16.673
601.42	16.700
601.76	16.978
602.09	17.301
602.42	16.502
602.76	17.200
603.09	16.492
603.42	17.607
603.76	16.833
604.09	17.301
604.42	17.236
604.76	17.314
605.09	16.772
605.42	17.553
605.75	17.637
606.09	17.186
606.42	16.590
606.75	17.776
607.09	17.997
607.42	17.165
607.75	17.307
608.08	17.759
608.42	17.266
608.75	17.196
609.08	16.464
609.41	16.741
609.75	17.114
610.08	18.039
610.41	17.301
610.74	17.408
611.07	17.596
611.41	16.692
611.74	17.943
612.07	17.454
612.40	16.791
612.73	17.340
613.07	17.226
613.40	18.391
613.73	17.929
614.06	17.133
614.39	16.855
614.72	16.927
615.06	17.011
615.39	16.495
615.72	17.056
616.05	17.007
616.38	17.528
616.71	16.877
617.05	18.154
617.38	17.523
617.71	17.015
618.04	17.702
618.37	16.792
618.70	17.731
619.03	16.994
619.36	17.970
619.69	18.378
620.03	16.667
620.36	17.440
620.69	17.588
621.02	18.037
621.35	17.258
621.68	17.213
622.01	17.557
622.34	17.857
622.67	17.578
623.00	17.827
623.33	17.239
623.66	15.953
623.99	16.842
624.32	17.039
624.65	17.292
624.99	18.073
625.32	17.216
625.65	17.094
625.98	17.136
626.31	17.210
626.64	18.326
626.97	16.438
627.30	16.511
627.63	16.667
627.96	16.884
628.29	17.096
628.62	17.287
628.95	18.504
629.28	16.447
629.61	18.351
629.94	17.108
630.26	18.588
630.59	18.995
630.92	17.818
631.25	17.641
631.58	17.566
