SpectraSuite Data File
++++++++++++++++++++++++++++++++++++
Date: Sat May 16 11:34:12 PDT 2015
User: schluterlab
Dark Spectrum Present: Yes
Reference Spectrum Present: Yes
Number of Sampled Component Spectra: 1
Spectrometers: USB2E3373
Integration Time (usec): 3000 (USB2E3373)
Spectra Averaged: 3 (USB2E3373)
Boxcar Smoothing: 0 (USB2E3373)
Correct for Electrical Dark: No (USB2E3373)
Strobe/Lamp Enabled: No (USB2E3373)
Correct for Detector Non-linearity: No (USB2E3373)
Correct for Stray Light: No (USB2E3373)
Number of Pixels in Processed Spectrum: 2048
>>>>>Begin Processed Spectral Data<<<<<
178.53	0.000
178.91	140.000
179.29	533.333
179.67	-700.000
180.04	-115.385
180.42	1500.000
180.80	50.000
181.18	300.000
181.56	-37.500
181.94	1100.000
182.31	500.000
182.69	23.077
183.07	-566.667
183.45	1400.000
183.83	333.333
184.20	-57.143
184.58	-150.000
184.96	-400.000
185.34	106.250
185.72	-525.000
186.09	166.667
186.47	-212.500
186.85	-225.000
187.23	-50.000
187.61	-200.000
187.98	-225.000
188.36	-100.000
188.74	-150.000
189.12	1600.000
189.49	471.429
189.87	-100.000
190.25	575.000
190.63	-107.143
191.00	-77.778
191.38	520.000
191.76	-20.000
192.14	600.000
192.51	-200.000
192.89	-666.667
193.27	0.000
193.65	-100.000
194.02	-185.714
194.40	566.667
194.78	-100.000
195.15	-2300.000
195.53	-154.545
195.91	-316.667
196.29	-0.000
196.66	-566.667
197.04	1800.000
197.42	100.000
197.79	0.000
198.17	-400.000
198.55	-750.000
198.92	-1400.000
199.30	262.500
199.68	-750.000
200.05	-177.778
200.43	-133.333
200.81	-1100.000
201.18	-150.000
201.56	300.000
201.94	-46.667
202.31	-22.727
202.69	-30.000
203.07	-80.000
203.44	766.667
203.82	-383.333
204.19	-525.000
204.57	-350.000
204.95	-1200.000
205.32	12.500
205.70	1700.000
206.08	-2100.000
206.45	-50.000
206.83	-700.000
207.20	-800.000
207.58	-833.333
207.96	-533.333
208.33	-225.000
208.71	-133.333
209.08	210.000
209.46	-200.000
209.84	1050.000
210.21	0.000
210.59	15.000
210.96	1800.000
211.34	-333.333
211.71	-133.333
212.09	400.000
212.46	900.000
212.84	-2400.000
213.22	866.667
213.59	150.000
213.97	-22.222
214.34	140.000
214.72	-150.000
215.09	-466.667
215.47	-100.000
215.84	-20.000
216.22	-70.000
216.59	-53.333
216.97	-575.000
217.34	1000.000
217.72	-128.571
218.09	-266.667
218.47	-242.857
218.84	128.571
219.22	-100.000
219.59	0.000
219.97	357.143
220.34	575.000
220.72	250.000
221.09	-76.923
221.47	0.000
221.84	566.667
222.22	-1200.000
222.59	1600.000
222.97	-250.000
223.34	-500.000
223.72	-533.333
224.09	-64.286
224.46	-525.000
224.84	-78.571
225.21	-185.714
225.59	-54.545
225.96	-250.000
226.34	-100.000
226.71	-133.333
227.08	0.000
227.46	2200.000
227.83	-228.571
228.21	-275.000
228.58	600.000
228.95	6.250
229.33	-2200.000
229.70	-280.000
230.08	-800.000
230.45	8.333
230.82	-283.333
231.20	-1300.000
231.57	-850.000
231.95	1800.000
232.32	9.524
232.69	-55.556
233.07	-285.714
233.44	-950.000
233.81	-26.667
234.19	-155.556
234.56	-62.500
234.93	18.750
235.31	-214.286
235.68	-128.571
236.05	-52.941
236.43	-22.727
236.80	-3.226
237.17	4.167
237.55	-61.905
237.92	0.000
238.29	-20.000
238.67	2.941
239.04	-2.778
239.41	-45.161
239.79	-38.462
240.16	14.286
240.53	-7.273
240.91	-7.692
241.28	9.091
241.65	13.846
242.02	18.033
242.40	-4.918
242.77	12.121
243.14	15.254
243.51	-4.286
243.89	-1.266
244.26	10.112
244.63	13.684
245.00	12.632
245.38	20.339
245.75	12.389
246.12	16.000
246.49	13.386
246.87	11.382
247.24	10.169
247.61	5.932
247.98	16.901
248.36	5.594
248.73	20.886
249.10	11.465
249.47	13.450
249.84	19.886
250.22	7.738
250.59	19.209
250.96	16.754
251.33	18.957
251.70	15.865
252.08	17.536
252.45	19.905
252.82	18.571
253.19	20.000
253.56	18.952
253.94	18.987
254.31	17.597
254.68	18.699
255.05	17.742
255.42	20.238
255.79	17.921
256.16	19.216
256.54	19.853
256.91	20.076
257.28	17.216
257.65	20.213
258.02	22.642
258.39	18.395
258.76	15.878
259.14	20.370
259.51	16.066
259.88	20.427
260.25	22.050
260.62	17.363
260.99	18.101
261.36	20.732
261.73	18.497
262.10	21.944
262.47	22.222
262.85	20.571
263.22	19.198
263.59	19.077
263.96	23.768
264.33	21.951
264.70	22.376
265.07	22.253
265.44	19.380
265.81	22.481
266.18	18.987
266.55	18.873
266.92	22.922
267.29	19.855
267.66	20.247
268.03	23.671
268.40	21.596
268.77	19.518
269.14	20.650
269.51	21.379
269.88	17.202
270.25	17.249
270.62	19.222
270.99	20.721
271.36	20.513
271.73	19.955
272.10	19.908
272.47	21.556
272.84	20.667
273.21	21.560
273.58	21.758
273.95	18.860
274.32	22.624
274.69	22.538
275.06	20.450
275.43	20.759
275.80	21.385
276.17	19.874
276.54	20.978
276.91	18.107
277.28	19.270
277.65	17.975
278.02	19.833
278.39	21.611
278.76	20.717
279.13	21.146
279.50	20.278
279.87	19.239
280.23	21.255
280.60	19.682
280.97	20.388
281.34	19.729
281.71	21.154
282.08	22.581
282.45	20.163
282.82	18.992
283.19	20.000
283.56	21.978
283.92	22.085
284.29	18.587
284.66	20.683
285.03	21.390
285.40	21.587
285.77	21.579
286.14	20.758
286.51	19.716
286.87	22.686
287.24	21.160
287.61	20.661
287.98	19.931
288.35	19.669
288.72	19.015
289.08	18.305
289.45	18.182
289.82	17.128
290.19	20.197
290.56	15.702
290.93	18.283
291.29	18.152
291.66	16.908
292.03	18.210
292.40	18.223
292.77	18.168
293.13	19.512
293.50	17.088
293.87	15.951
294.24	17.496
294.60	17.121
294.97	20.486
295.34	15.556
295.71	18.899
296.08	15.668
296.44	15.451
296.81	15.670
297.18	16.197
297.55	16.667
297.91	17.573
298.28	15.616
298.65	16.318
299.02	16.979
299.38	15.107
299.75	14.810
300.12	16.026
300.48	15.601
300.85	15.334
301.22	15.265
301.59	16.515
301.95	17.254
302.32	13.299
302.69	15.789
303.05	13.919
303.42	15.250
303.79	16.268
304.15	15.047
304.52	14.469
304.89	15.821
305.25	14.652
305.62	15.746
305.99	16.843
306.35	14.761
306.72	12.528
307.09	14.869
307.45	13.394
307.82	13.408
308.19	14.318
308.55	14.052
308.92	14.178
309.29	13.946
309.65	14.634
310.02	15.227
310.38	13.405
310.75	14.447
311.12	14.463
311.48	15.031
311.85	13.903
312.22	13.594
312.58	15.158
312.95	14.067
313.31	14.985
313.68	15.779
314.05	13.749
314.41	12.676
314.78	13.387
315.14	14.314
315.51	13.070
315.87	13.553
316.24	13.994
316.61	13.820
316.97	14.726
317.34	13.873
317.70	14.193
318.07	13.713
318.43	14.139
318.80	15.305
319.16	11.820
319.53	14.004
319.89	12.982
320.26	13.627
320.62	13.077
320.99	13.234
321.35	12.808
321.72	12.385
322.08	14.639
322.45	11.980
322.81	13.256
323.18	13.737
323.54	14.233
323.91	13.902
324.27	12.833
324.64	13.437
325.00	14.136
325.37	13.756
325.73	14.261
326.10	12.489
326.46	12.785
326.83	13.021
327.19	12.260
327.56	13.373
327.92	12.829
328.29	13.506
328.65	13.091
329.01	12.986
329.38	13.113
329.74	13.919
330.11	13.418
330.47	13.624
330.84	14.207
331.20	12.996
331.56	13.856
331.93	12.167
332.29	12.511
332.66	14.047
333.02	13.032
333.38	13.530
333.75	13.535
334.11	12.089
334.48	12.621
334.84	13.648
335.20	12.323
335.57	12.996
335.93	14.503
336.29	11.869
336.66	11.630
337.02	12.973
337.38	12.567
337.75	13.169
338.11	13.417
338.47	12.722
338.84	14.065
339.20	12.214
339.56	12.567
339.93	12.522
340.29	11.957
340.65	13.199
341.02	13.322
341.38	13.479
341.74	13.209
342.11	12.713
342.47	11.588
342.83	12.343
343.20	12.212
343.56	11.592
343.92	13.773
344.28	12.700
344.65	12.046
345.01	11.933
345.37	12.625
345.73	11.784
346.10	12.183
346.46	11.779
346.82	13.392
347.19	12.572
347.55	12.199
347.91	13.228
348.27	11.615
348.63	13.570
349.00	13.683
349.36	12.178
349.72	14.013
350.08	12.911
350.45	12.687
350.81	12.022
351.17	11.897
351.53	10.581
351.89	12.045
352.26	12.016
352.62	13.518
352.98	12.737
353.34	12.630
353.70	12.046
354.07	13.061
354.43	12.490
354.79	12.361
355.15	12.061
355.51	11.641
355.87	12.727
356.24	12.550
356.60	11.684
356.96	12.933
357.32	11.481
357.68	12.031
358.04	12.317
358.40	11.910
358.77	11.978
359.13	12.242
359.49	11.338
359.85	11.052
360.21	12.785
360.57	12.349
360.93	12.815
361.29	13.154
361.66	11.357
362.02	11.391
362.38	12.106
362.74	11.575
363.10	11.693
363.46	13.105
363.82	13.047
364.18	12.084
364.54	12.509
364.90	11.740
365.26	12.197
365.62	12.545
365.98	13.798
366.35	12.676
366.71	11.346
367.07	12.421
367.43	12.423
367.79	12.234
368.15	11.735
368.51	12.657
368.87	13.668
369.23	12.070
369.59	11.806
369.95	11.980
370.31	13.291
370.67	11.497
371.03	12.682
371.39	11.528
371.75	11.731
372.11	12.482
372.47	10.991
372.83	12.100
373.19	13.143
373.55	12.808
373.91	12.518
374.27	11.431
374.63	12.974
374.99	12.517
375.35	11.978
375.71	12.694
376.07	11.567
376.42	11.258
376.78	12.876
377.14	11.864
377.50	12.121
377.86	11.378
378.22	12.437
378.58	10.747
378.94	11.961
379.30	12.127
379.66	11.840
380.02	11.943
380.38	11.420
380.74	12.075
381.09	12.009
381.45	11.575
381.81	11.131
382.17	11.278
382.53	10.881
382.89	12.560
383.25	11.680
383.61	11.851
383.97	12.431
384.32	12.078
384.68	13.120
385.04	12.017
385.40	12.355
385.76	12.012
386.12	11.930
386.48	12.748
386.83	12.761
387.19	12.971
387.55	12.053
387.91	12.982
388.27	11.218
388.62	12.079
388.98	12.053
389.34	12.118
389.70	11.998
390.06	12.306
390.42	11.987
390.77	11.356
391.13	13.292
391.49	12.289
391.85	11.471
392.20	11.590
392.56	11.668
392.92	12.721
393.28	12.457
393.64	12.387
393.99	12.369
394.35	12.652
394.71	12.292
395.07	12.429
395.42	11.383
395.78	12.068
396.14	13.146
396.50	11.621
396.85	12.770
397.21	13.001
397.57	11.550
397.92	12.529
398.28	12.944
398.64	12.612
399.00	12.809
399.35	11.556
399.71	13.124
400.07	13.015
400.42	13.260
400.78	11.628
401.14	12.754
401.49	12.441
401.85	11.959
402.21	13.051
402.57	12.500
402.92	12.524
403.28	12.929
403.63	12.163
403.99	13.300
404.35	12.077
404.70	12.756
405.06	13.206
405.42	11.931
405.77	12.274
406.13	12.209
406.49	12.582
406.84	12.478
407.20	12.191
407.55	12.793
407.91	11.658
408.27	12.684
408.62	12.748
408.98	12.674
409.34	12.127
409.69	12.161
410.05	12.250
410.40	12.446
410.76	12.982
411.11	11.845
411.47	12.980
411.83	12.714
412.18	12.067
412.54	12.935
412.89	12.819
413.25	12.456
413.60	12.454
413.96	11.645
414.31	13.089
414.67	12.063
415.03	12.807
415.38	13.338
415.74	13.531
416.09	12.468
416.45	12.434
416.80	12.484
417.16	11.960
417.51	13.460
417.87	13.010
418.22	12.895
418.58	12.516
418.93	12.753
419.29	12.547
419.64	11.997
420.00	13.548
420.35	12.360
420.71	13.145
421.06	13.550
421.42	12.763
421.77	12.674
422.12	13.486
422.48	12.881
422.83	13.326
423.19	12.695
423.54	12.911
423.90	11.857
424.25	12.048
424.61	13.269
424.96	13.049
425.31	12.465
425.67	12.607
426.02	12.794
426.38	13.370
426.73	13.033
427.09	13.419
427.44	13.466
427.79	13.256
428.15	13.405
428.50	13.372
428.85	13.369
429.21	12.839
429.56	13.021
429.92	13.026
430.27	12.662
430.62	12.905
430.98	12.859
431.33	12.540
431.68	13.619
432.04	13.039
432.39	12.934
432.74	13.309
433.10	13.225
433.45	12.953
433.80	13.382
434.16	13.326
434.51	13.973
434.86	14.587
435.22	13.586
435.57	13.403
435.92	12.954
436.28	13.234
436.63	12.549
436.98	12.257
437.34	13.526
437.69	13.711
438.04	13.159
438.39	13.718
438.75	12.747
439.10	13.159
439.45	13.036
439.81	12.711
440.16	13.288
440.51	13.647
440.86	13.418
441.22	12.935
441.57	13.789
441.92	13.657
442.27	13.258
442.63	13.627
442.98	13.205
443.33	13.619
443.68	13.549
444.03	13.409
444.39	13.069
444.74	14.097
445.09	12.610
445.44	14.069
445.79	13.412
446.15	14.020
446.50	13.174
446.85	13.494
447.20	13.585
447.55	13.923
447.91	13.756
448.26	13.352
448.61	13.413
448.96	13.838
449.31	13.867
449.66	13.337
450.02	13.241
450.37	12.754
450.72	13.446
451.07	13.765
451.42	13.073
451.77	14.123
452.12	13.886
452.47	14.043
452.83	13.745
453.18	14.042
453.53	14.117
453.88	14.294
454.23	13.664
454.58	14.916
454.93	14.358
455.28	13.767
455.63	13.882
455.98	14.096
456.34	13.405
456.69	15.197
457.04	14.567
457.39	14.294
457.74	13.172
458.09	14.443
458.44	13.857
458.79	13.845
459.14	14.033
459.49	14.387
459.84	14.446
460.19	13.723
460.54	13.188
460.89	13.341
461.24	13.297
461.59	14.361
461.94	14.131
462.29	14.056
462.64	14.229
462.99	13.922
463.34	13.639
463.69	14.440
464.04	14.001
464.39	13.023
464.74	14.125
465.09	14.191
465.44	14.382
465.79	14.439
466.14	13.809
466.49	14.277
466.84	14.526
467.19	14.526
467.54	12.468
467.89	14.057
468.24	14.430
468.59	14.054
468.94	13.891
469.29	13.970
469.64	15.027
469.99	15.192
470.34	15.164
470.68	14.680
471.03	14.935
471.38	13.611
471.73	14.266
472.08	14.926
472.43	14.865
472.78	14.733
473.13	14.182
473.48	14.869
473.83	14.206
474.17	14.013
474.52	15.153
474.87	15.152
475.22	13.687
475.57	13.611
475.92	15.065
476.27	13.714
476.61	14.535
476.96	13.359
477.31	13.832
477.66	13.669
478.01	14.911
478.36	14.563
478.70	15.109
479.05	15.630
479.40	14.715
479.75	14.730
480.10	14.583
480.45	13.443
480.79	15.005
481.14	14.802
481.49	14.714
481.84	14.656
482.19	15.030
482.53	15.199
482.88	14.903
483.23	14.131
483.58	15.449
483.92	14.333
484.27	14.178
484.62	14.125
484.97	13.601
485.31	13.984
485.66	14.053
486.01	13.971
486.36	14.633
486.70	14.585
487.05	14.254
487.40	14.316
487.75	14.402
488.09	14.083
488.44	14.378
488.79	14.255
489.13	14.036
489.48	15.090
489.83	14.760
490.17	15.063
490.52	15.444
490.87	15.150
491.22	14.900
491.56	15.000
491.91	14.981
492.26	15.472
492.60	14.843
492.95	15.421
493.30	15.388
493.64	14.857
493.99	15.105
494.34	15.762
494.68	15.543
495.03	15.249
495.37	14.897
495.72	15.619
496.07	16.283
496.41	15.702
496.76	15.571
497.11	16.015
497.45	15.517
497.80	15.858
498.14	15.963
498.49	15.269
498.84	15.049
499.18	15.595
499.53	15.100
499.87	15.541
500.22	16.029
500.56	15.958
500.91	15.714
501.26	16.109
501.60	14.685
501.95	15.459
502.29	14.643
502.64	16.266
502.98	15.621
503.33	15.320
503.67	15.134
504.02	15.113
504.36	16.569
504.71	14.843
505.06	15.227
505.40	16.018
505.75	15.854
506.09	16.633
506.44	16.241
506.78	15.956
507.13	15.088
507.47	15.493
507.82	16.417
508.16	16.166
508.51	15.765
508.85	15.580
509.19	16.013
509.54	16.543
509.88	16.489
510.23	16.352
510.57	16.349
510.92	17.454
511.26	15.789
511.61	15.983
511.95	15.787
512.30	15.888
512.64	15.637
512.98	16.997
513.33	16.474
513.67	16.415
514.02	16.051
514.36	16.842
514.70	16.865
515.05	16.409
515.39	16.378
515.74	17.627
516.08	17.406
516.42	16.204
516.77	17.158
517.11	17.735
517.46	17.045
517.80	17.268
518.14	16.063
518.49	17.095
518.83	16.499
519.17	17.348
519.52	16.194
519.86	16.846
520.20	17.421
520.55	17.415
520.89	16.656
521.23	17.582
521.58	17.116
521.92	18.239
522.26	17.651
522.61	16.984
522.95	16.592
523.29	17.806
523.64	17.239
523.98	17.377
524.32	18.228
524.66	16.957
525.01	17.020
525.35	17.655
525.69	17.176
526.04	18.342
526.38	17.568
526.72	16.411
527.06	17.383
527.41	16.436
527.75	15.842
528.09	17.406
528.43	17.770
528.78	18.405
529.12	17.734
529.46	17.655
529.80	16.591
530.15	17.579
530.49	17.270
530.83	18.926
531.17	16.835
531.51	17.281
531.86	17.117
532.20	17.746
532.54	17.781
532.88	18.050
533.22	16.511
533.57	18.016
533.91	17.541
534.25	17.536
534.59	16.177
534.93	17.673
535.27	17.684
535.62	17.583
535.96	17.130
536.30	16.819
536.64	17.131
536.98	18.432
537.32	17.830
537.66	16.565
538.01	17.526
538.35	18.716
538.69	17.246
539.03	17.468
539.37	18.031
539.71	17.879
540.05	18.163
540.39	17.590
540.73	18.452
541.07	17.145
541.42	16.340
541.76	16.146
542.10	18.704
542.44	18.121
542.78	17.639
543.12	17.515
543.46	16.575
543.80	16.856
544.14	16.253
544.48	17.979
544.82	17.591
545.16	17.907
545.50	17.160
545.84	17.803
546.18	16.990
546.52	17.852
546.86	16.952
547.20	17.089
547.54	17.149
547.88	17.386
548.22	16.514
548.56	17.568
548.90	17.385
549.24	17.730
549.58	17.713
549.92	17.597
550.26	18.642
550.60	18.065
550.94	17.226
551.28	18.059
551.62	17.282
551.96	18.017
552.30	17.422
552.64	17.030
552.98	18.220
553.32	16.595
553.66	19.034
554.00	18.195
554.34	17.112
554.68	17.471
555.02	18.379
555.36	16.894
555.69	17.192
556.03	18.386
556.37	18.634
556.71	18.110
557.05	17.295
557.39	17.075
557.73	18.527
558.07	18.011
558.41	16.904
558.75	17.947
559.08	16.732
559.42	18.300
559.76	17.945
560.10	18.941
560.44	18.786
560.78	17.954
561.12	18.288
561.45	17.192
561.79	18.049
562.13	18.233
562.47	17.367
562.81	17.680
563.15	17.845
563.48	17.830
563.82	17.715
564.16	16.430
564.50	17.540
564.84	17.989
565.17	17.241
565.51	17.601
565.85	17.579
566.19	17.457
566.52	17.091
566.86	17.257
567.20	18.341
567.54	18.074
567.88	16.862
568.21	16.443
568.55	16.437
568.89	16.501
569.23	16.335
569.56	16.015
569.90	16.837
570.24	16.159
570.57	15.747
570.91	16.015
571.25	16.115
571.59	15.954
571.92	15.595
572.26	15.968
572.60	16.010
572.93	15.701
573.27	15.244
573.61	14.941
573.95	15.593
574.28	15.096
574.62	15.277
574.96	14.980
575.29	14.990
575.63	15.609
575.97	15.183
576.30	15.429
576.64	15.222
576.98	15.053
577.31	15.375
577.65	15.097
577.98	15.217
578.32	15.197
578.66	15.012
578.99	15.476
579.33	15.599
579.67	15.344
580.00	15.154
580.34	14.824
580.67	14.759
581.01	14.877
581.35	14.980
581.68	14.924
582.02	14.889
582.35	14.939
582.69	15.295
583.02	15.363
583.36	15.348
583.70	15.259
584.03	15.221
584.37	14.804
584.70	14.909
585.04	15.089
585.37	14.606
585.71	15.312
586.04	15.274
586.38	15.343
586.72	15.192
587.05	15.661
587.39	15.078
587.72	14.972
588.06	14.718
588.39	15.409
588.73	15.600
589.06	16.049
589.40	16.043
589.73	16.395
590.07	15.586
590.40	15.498
590.73	15.994
591.07	15.861
591.40	16.161
591.74	16.290
592.07	15.856
592.41	16.730
592.74	15.872
593.08	16.547
593.41	15.559
593.75	15.265
594.08	15.960
594.41	16.081
594.75	15.629
595.08	15.789
595.42	15.968
595.75	15.877
596.09	15.561
596.42	16.448
596.75	15.912
597.09	16.874
597.42	16.194
597.75	16.032
598.09	15.816
598.42	16.041
598.76	15.905
599.09	15.785
599.42	15.917
599.76	15.893
600.09	15.725
600.42	16.331
600.76	15.932
601.09	15.610
601.42	15.156
601.76	16.628
602.09	15.378
602.42	15.514
602.76	15.206
603.09	15.887
603.42	15.552
603.76	15.796
604.09	15.258
604.42	15.695
604.76	15.962
605.09	15.461
605.42	15.869
605.75	15.869
606.09	15.650
606.42	16.045
606.75	15.715
607.09	16.365
607.42	15.581
607.75	15.894
608.08	16.268
608.42	15.610
608.75	15.607
609.08	15.733
609.41	15.745
609.75	15.992
610.08	16.373
610.41	16.241
610.74	16.199
611.07	16.886
611.41	15.633
611.74	16.607
612.07	16.971
612.40	16.098
612.73	16.478
613.07	15.520
613.40	16.639
613.73	15.967
614.06	15.486
614.39	17.024
614.72	15.642
615.06	15.272
615.39	16.929
615.72	16.621
616.05	15.682
616.38	17.063
616.71	16.216
617.05	16.948
617.38	17.214
617.71	16.093
618.04	15.404
618.37	16.792
618.70	16.428
619.03	16.520
619.36	17.054
619.69	16.798
620.03	16.598
620.36	16.807
620.69	17.014
621.02	16.971
621.35	16.694
621.68	16.885
622.01	17.233
622.34	17.391
622.67	17.031
623.00	16.373
623.33	17.537
623.66	16.396
623.99	18.120
624.32	15.774
624.65	16.483
624.99	17.326
625.32	17.141
625.65	17.560
625.98	15.806
626.31	16.639
626.64	16.569
626.97	17.979
627.30	17.702
627.63	16.494
627.96	17.406
628.29	16.268
628.62	17.574
628.95	18.012
629.28	17.575
629.61	16.389
629.94	18.526
630.26	18.986
630.59	17.889
630.92	17.818
631.25	19.657
631.58	18.836
