SpectraSuite Data File
++++++++++++++++++++++++++++++++++++
Date: Sat May 16 11:30:54 PDT 2015
User: schluterlab
Dark Spectrum Present: Yes
Reference Spectrum Present: Yes
Number of Sampled Component Spectra: 1
Spectrometers: USB2E3373
Integration Time (usec): 3000 (USB2E3373)
Spectra Averaged: 3 (USB2E3373)
Boxcar Smoothing: 0 (USB2E3373)
Correct for Electrical Dark: No (USB2E3373)
Strobe/Lamp Enabled: No (USB2E3373)
Correct for Detector Non-linearity: No (USB2E3373)
Correct for Stray Light: No (USB2E3373)
Number of Pixels in Processed Spectrum: 2048
>>>>>Begin Processed Spectral Data<<<<<
178.53	0.000
178.91	93.333
179.29	633.333
179.67	-600.000
180.04	-138.462
180.42	800.000
180.80	475.000
181.18	375.000
181.56	-162.500
181.94	700.000
182.31	400.000
182.69	-53.846
183.07	-566.667
183.45	1300.000
183.83	733.333
184.20	-171.429
184.58	-150.000
184.96	-325.000
185.34	112.500
185.72	-200.000
186.09	300.000
186.47	-175.000
186.85	-225.000
187.23	-25.000
187.61	-200.000
187.98	-212.500
188.36	-112.500
188.74	-87.500
189.12	1600.000
189.49	314.286
189.87	-50.000
190.25	475.000
190.63	-71.429
191.00	-155.556
191.38	300.000
191.76	6.667
192.14	500.000
192.51	-160.000
192.89	-400.000
193.27	0.000
193.65	-166.667
194.02	-271.429
194.40	300.000
194.78	-40.000
195.15	-1000.000
195.53	-118.182
195.91	-450.000
196.29	380.000
196.66	-500.000
197.04	2000.000
197.42	50.000
197.79	86.667
198.17	-266.667
198.55	-750.000
198.92	-1500.000
199.30	262.500
199.68	-600.000
200.05	-166.667
200.43	-155.556
200.81	-1000.000
201.18	-100.000
201.56	214.286
201.94	-46.667
202.31	-22.727
202.69	-50.000
203.07	-100.000
203.44	900.000
203.82	-150.000
204.19	-325.000
204.57	0.000
204.95	300.000
205.32	-37.500
205.70	1100.000
206.08	-1900.000
206.45	-22.222
206.83	-1150.000
207.20	-350.000
207.58	-400.000
207.96	-400.000
208.33	-112.500
208.71	-200.000
209.08	150.000
209.46	-242.857
209.84	700.000
210.21	0.000
210.59	55.000
210.96	1400.000
211.34	-400.000
211.71	0.000
212.09	175.000
212.46	1500.000
212.84	-1700.000
213.22	533.333
213.59	158.333
213.97	-111.111
214.34	180.000
214.72	-70.000
215.09	-400.000
215.47	-166.667
215.84	-160.000
216.22	-60.000
216.59	13.333
216.97	-575.000
217.34	900.000
217.72	-100.000
218.09	-433.333
218.47	-185.714
218.84	214.286
219.22	-85.714
219.59	0.000
219.97	128.571
220.34	550.000
220.72	287.500
221.09	-69.231
221.47	0.000
221.84	433.333
222.22	-450.000
222.59	200.000
222.97	-112.500
223.34	-850.000
223.72	-466.667
224.09	-92.857
224.46	-500.000
224.84	-21.429
225.21	-271.429
225.59	-36.364
225.96	-150.000
226.34	-142.857
226.71	-111.111
227.08	-5.000
227.46	1800.000
227.83	-114.286
228.21	-287.500
228.58	700.000
228.95	-75.000
229.33	-2000.000
229.70	-260.000
230.08	-800.000
230.45	-91.667
230.82	-116.667
231.20	-1700.000
231.57	-900.000
231.95	700.000
232.32	9.524
232.69	-111.111
233.07	-185.714
233.44	-1150.000
233.81	-106.667
234.19	-144.444
234.56	-37.500
234.93	28.125
235.31	-371.429
235.68	-214.286
236.05	11.765
236.43	-81.818
236.80	-25.806
237.17	-29.167
237.55	-66.667
237.92	-109.091
238.29	-25.714
238.67	-23.529
239.04	-22.222
239.41	-70.968
239.79	-71.795
240.16	-54.762
240.53	-30.909
240.91	0.000
241.28	-14.545
241.65	3.077
242.02	-19.672
242.40	-19.672
242.77	-4.545
243.14	-8.475
243.51	-24.286
243.89	-11.392
244.26	-12.360
244.63	-4.211
245.00	-16.842
245.38	1.695
245.75	-2.655
246.12	-7.200
246.49	3.150
246.87	-19.512
247.24	-15.254
247.61	-16.949
247.98	-11.972
248.36	-13.986
248.73	-0.633
249.10	-8.917
249.47	-10.526
249.84	-6.250
250.22	-8.333
250.59	-3.390
250.96	-8.901
251.33	0.948
251.70	-6.731
252.08	-4.739
252.45	-10.900
252.82	-11.429
253.19	-4.681
253.56	-6.452
253.94	-3.797
254.31	-5.150
254.68	-2.439
255.05	-7.661
255.42	-3.175
255.79	-5.735
256.16	-3.137
256.54	-4.412
256.91	-4.167
257.28	-5.861
257.65	-0.709
258.02	0.000
258.39	0.000
258.76	-7.770
259.14	-3.704
259.51	-2.295
259.88	-1.524
260.25	0.621
260.62	-6.431
260.99	-5.045
261.36	-0.915
261.73	-2.601
262.10	1.111
262.47	-2.849
262.85	-1.143
263.22	-5.158
263.59	-7.077
263.96	-2.899
264.33	-1.355
264.70	-1.657
265.07	-1.648
265.44	-2.842
265.81	-2.842
266.18	-4.557
266.55	-1.716
266.92	-2.519
267.29	-1.937
267.66	-3.951
268.03	-1.691
268.40	-3.991
268.77	-2.651
269.14	-3.480
269.51	0.000
269.88	-3.670
270.25	-1.399
270.62	-4.577
270.99	-1.577
271.36	-3.030
271.73	-1.570
272.10	-4.805
272.47	-3.111
272.84	1.333
273.21	-2.294
273.58	-3.297
273.95	-4.167
274.32	-1.810
274.69	-0.875
275.06	0.204
275.43	-2.009
275.80	-1.629
276.17	-1.674
276.54	1.018
276.91	-1.852
277.28	0.203
277.65	0.000
278.02	-1.253
278.39	-1.965
278.76	-0.598
279.13	-1.976
279.50	-1.392
279.87	-2.748
280.23	-0.810
280.60	-2.584
280.97	0.194
281.34	-1.354
281.71	0.577
282.08	0.000
282.45	-4.277
282.82	-1.938
283.19	-1.091
283.56	0.183
283.92	0.707
284.29	-4.275
284.66	-1.619
285.03	0.713
285.40	-0.185
285.77	-1.579
286.14	-2.708
286.51	-1.066
286.87	1.452
287.24	-0.683
287.61	-2.149
287.98	-2.253
288.35	-2.479
288.72	-1.188
289.08	-2.542
289.45	-0.505
289.82	-2.768
290.19	-0.493
290.56	-3.636
290.93	-1.113
291.29	-3.566
291.66	-3.382
292.03	-0.942
292.40	-1.506
292.77	-1.242
293.13	-1.463
293.50	-1.040
293.87	-0.613
294.24	0.603
294.60	-2.727
294.97	0.152
295.34	-2.370
295.71	-1.488
296.08	-3.994
296.44	-1.574
296.81	-1.282
297.18	0.000
297.55	-1.554
297.91	-0.418
298.28	-1.644
298.65	-0.837
299.02	0.134
299.38	0.267
299.75	-1.359
300.12	0.000
300.48	0.384
300.85	-1.311
301.22	0.647
301.59	-1.170
301.95	0.378
302.32	-1.956
302.69	0.490
303.05	-1.221
303.42	-2.000
303.79	0.359
304.15	0.474
304.52	-1.167
304.89	-0.118
305.25	-0.244
305.62	-0.353
305.99	0.236
306.35	0.777
306.72	-1.253
307.09	0.795
307.45	0.000
307.82	-0.447
308.19	0.336
308.55	0.109
308.92	-0.430
309.29	-0.216
309.65	1.591
310.02	2.484
310.38	-0.865
310.75	1.639
311.12	0.620
311.48	1.357
311.85	1.442
312.22	1.236
312.58	2.136
312.95	2.141
313.31	2.098
313.68	2.513
314.05	2.671
314.41	1.308
314.78	1.199
315.14	2.468
315.51	2.128
315.87	3.485
316.24	2.624
316.61	2.015
316.97	4.179
317.34	2.697
317.70	2.876
318.07	3.078
318.43	3.652
318.80	4.319
319.16	3.565
319.53	4.981
319.89	4.798
320.26	5.686
320.62	3.558
320.99	6.070
321.35	3.153
321.72	3.787
322.08	5.638
322.45	5.842
322.81	7.109
323.18	7.109
323.54	7.394
323.91	7.414
324.27	7.985
324.64	8.044
325.00	8.813
325.37	10.226
325.73	11.111
326.10	9.655
326.46	11.996
326.83	11.234
327.19	12.177
327.56	13.714
327.92	13.169
328.29	14.286
328.65	12.273
329.01	14.399
329.38	13.827
329.74	15.476
330.11	15.866
330.47	15.259
330.84	16.774
331.20	16.516
331.56	16.135
331.93	17.673
332.29	17.717
332.66	18.349
333.02	18.733
333.38	18.728
333.75	17.988
334.11	18.044
334.48	18.800
334.84	19.773
335.20	18.972
335.57	18.773
335.93	20.859
336.29	19.398
336.66	18.767
337.02	19.640
337.38	20.499
337.75	20.193
338.11	20.662
338.47	20.374
338.84	19.873
339.20	19.596
339.56	20.677
339.93	20.282
340.29	20.726
340.65	20.192
341.02	20.573
341.38	19.714
341.74	20.830
342.11	20.051
342.47	19.657
342.83	19.815
343.20	19.385
343.56	18.857
343.92	20.618
344.28	21.531
344.65	19.472
345.01	20.168
345.37	21.262
345.73	19.313
346.10	19.379
346.46	19.253
346.82	20.289
347.19	18.735
347.55	19.021
347.91	19.685
348.27	19.730
348.63	20.840
349.00	20.605
349.36	19.282
349.72	20.382
350.08	19.487
350.45	20.173
350.81	20.621
351.17	20.016
351.53	18.536
351.89	20.210
352.26	20.853
352.62	20.968
352.98	19.541
353.34	21.023
353.70	18.764
354.07	20.299
354.43	19.209
354.79	20.365
355.15	19.409
355.51	19.844
355.87	19.605
356.24	20.175
356.60	20.064
356.96	20.015
357.32	19.952
357.68	20.000
358.04	19.938
358.40	20.263
358.77	20.015
359.13	19.740
359.49	19.955
359.85	19.817
360.21	20.244
360.57	20.633
360.93	21.111
361.29	20.105
361.66	20.960
362.02	19.083
362.38	20.396
362.74	20.366
363.10	19.010
363.46	20.726
363.82	20.408
364.18	21.201
364.54	22.087
364.90	20.335
365.26	19.544
365.62	22.309
365.98	21.550
366.35	20.634
366.71	20.578
367.07	20.466
367.43	21.071
367.79	22.131
368.15	20.341
368.51	21.818
368.87	22.184
369.23	21.263
369.59	21.389
369.95	21.142
370.31	22.363
370.67	21.114
371.03	21.501
371.39	21.146
371.75	20.887
372.11	22.166
372.47	22.921
372.83	22.601
373.19	22.143
373.55	23.223
373.91	22.760
374.27	22.040
374.63	23.050
374.99	23.505
375.35	23.149
375.71	23.768
376.07	22.861
376.42	22.715
376.78	23.203
377.14	23.864
377.50	23.533
377.86	23.212
378.22	23.492
378.58	23.780
378.94	23.859
379.30	24.314
379.66	24.408
380.02	23.292
380.38	23.444
380.74	23.857
381.09	24.429
381.45	24.582
381.81	24.682
382.17	24.185
382.53	24.498
382.89	24.761
383.25	25.587
383.61	25.118
383.97	25.046
384.32	25.469
384.68	25.453
385.04	26.630
385.40	24.711
385.76	27.195
386.12	26.109
386.48	26.423
386.83	26.564
387.19	25.643
387.55	25.742
387.91	26.260
388.27	25.694
388.62	25.361
388.98	25.439
389.34	25.337
389.70	26.675
390.06	26.725
390.42	27.436
390.77	26.309
391.13	27.516
391.49	27.199
391.85	27.307
392.20	27.184
392.56	26.084
392.92	27.210
393.28	27.727
393.64	27.480
393.99	27.754
394.35	27.190
394.71	25.757
395.07	27.181
395.42	26.758
395.78	26.901
396.14	28.349
396.50	26.972
396.85	27.699
397.21	26.974
397.57	26.748
397.92	27.576
398.28	27.667
398.64	27.781
399.00	28.876
399.35	26.550
399.71	27.120
400.07	27.164
400.42	27.311
400.78	26.058
401.14	27.066
401.49	26.297
401.85	27.212
402.21	27.712
402.57	27.063
402.92	27.816
403.28	27.512
403.63	27.741
403.99	26.911
404.35	26.691
404.70	26.448
405.06	26.355
405.42	26.691
405.77	27.319
406.13	26.746
406.49	26.603
406.84	27.115
407.20	26.855
407.55	26.726
407.91	26.425
408.27	28.186
408.62	26.879
408.98	27.289
409.34	26.386
409.69	26.339
410.05	26.683
410.40	26.793
410.76	27.742
411.11	28.055
411.47	27.046
411.83	27.262
412.18	26.733
412.54	26.113
412.89	26.367
413.25	27.391
413.60	25.516
413.96	26.186
414.31	26.667
414.67	26.667
415.03	27.878
415.38	27.066
415.74	28.028
416.09	26.854
416.45	26.124
416.80	27.568
417.16	27.176
417.51	27.511
417.87	27.508
418.22	27.560
418.58	27.535
418.93	28.081
419.29	28.168
419.64	27.198
420.00	28.190
420.35	27.321
420.71	28.031
421.06	28.107
421.42	28.162
421.77	27.582
422.12	27.868
422.48	28.006
422.83	27.733
423.19	27.840
423.54	28.991
423.90	28.398
424.25	28.394
424.61	28.951
424.96	29.081
425.31	28.619
425.67	28.711
426.02	27.367
426.38	28.796
426.73	29.340
427.09	28.493
427.44	29.545
427.79	28.721
428.15	29.563
428.50	29.208
428.85	29.257
429.21	28.998
429.56	29.740
429.92	29.459
430.27	29.511
430.62	29.885
430.98	28.542
431.33	30.309
431.68	29.920
432.04	30.610
432.39	30.085
432.74	30.396
433.10	29.938
433.45	29.534
433.80	29.899
434.16	30.844
434.51	31.068
434.86	31.166
435.22	31.904
435.57	29.743
435.92	31.712
436.28	31.098
436.63	30.639
436.98	30.183
437.34	31.305
437.69	30.863
438.04	31.027
438.39	31.829
438.75	31.490
439.10	32.093
439.45	30.296
439.81	31.084
440.16	31.005
440.51	32.118
440.86	31.058
441.22	31.177
441.57	30.842
441.92	31.714
442.27	30.844
442.63	32.082
442.98	31.208
443.33	31.686
443.68	32.256
444.03	31.483
444.39	31.278
444.74	32.104
445.09	31.743
445.44	32.020
445.79	31.668
446.15	32.202
446.50	31.247
446.85	31.195
447.20	31.665
447.55	32.210
447.91	30.882
448.26	32.514
448.61	31.126
448.96	32.773
449.31	31.454
449.66	32.169
450.02	31.080
450.37	31.420
450.72	31.638
451.07	31.741
451.42	31.475
451.77	32.436
452.12	32.122
452.47	32.494
452.83	32.266
453.18	33.333
453.53	33.396
453.88	31.878
454.23	31.439
454.58	33.872
454.93	33.312
455.28	33.652
455.63	32.985
455.98	32.892
456.34	32.020
456.69	33.521
457.04	32.514
457.39	32.297
457.74	31.305
458.09	32.077
458.44	32.679
458.79	32.567
459.14	32.744
459.49	32.800
459.84	33.390
460.19	33.771
460.54	33.091
460.89	31.895
461.24	32.423
461.59	33.470
461.94	33.227
462.29	32.936
462.64	33.794
462.99	34.203
463.34	32.073
463.69	33.270
464.04	32.513
464.39	32.736
464.74	31.147
465.09	32.832
465.44	32.826
465.79	32.939
466.14	32.911
466.49	33.506
466.84	33.553
467.19	33.042
467.54	31.139
467.89	32.861
468.24	33.195
468.59	33.042
468.94	33.762
469.29	32.294
469.64	34.434
469.99	33.693
470.34	33.601
470.68	34.230
471.03	33.035
471.38	32.222
471.73	34.685
472.08	33.534
472.43	32.690
472.78	34.133
473.13	33.532
473.48	34.333
473.83	33.002
474.17	33.567
474.52	34.335
474.87	34.441
475.22	31.799
475.57	33.500
475.92	33.639
476.27	33.657
476.61	34.028
476.96	33.538
477.31	33.692
477.66	33.315
478.01	33.712
478.36	32.687
478.70	34.170
479.05	33.964
479.40	32.953
479.75	33.231
480.10	34.028
480.45	33.027
480.79	33.959
481.14	33.618
481.49	33.930
481.84	33.287
482.19	34.125
482.53	34.138
482.88	33.697
483.23	33.944
483.58	33.950
483.92	33.731
484.27	32.565
484.62	32.829
484.97	33.398
485.31	31.616
485.66	31.476
486.01	31.397
486.36	32.529
486.70	33.463
487.05	32.766
487.40	33.200
487.75	32.369
488.09	32.736
488.44	33.491
488.79	33.003
489.13	33.701
489.48	33.279
489.83	33.406
490.17	34.044
490.52	33.832
490.87	33.764
491.22	33.723
491.56	34.352
491.91	33.922
492.26	33.585
492.60	33.730
492.95	34.412
493.30	32.920
493.64	34.462
493.99	33.604
494.34	34.190
494.68	34.972
495.03	32.887
495.37	34.022
495.72	34.528
496.07	34.538
496.41	33.395
496.76	34.338
497.11	33.773
497.45	34.483
497.80	34.517
498.14	34.578
498.49	33.953
498.84	33.883
499.18	34.552
499.53	34.048
499.87	33.446
500.22	34.069
500.56	34.317
500.91	34.187
501.26	35.080
501.60	34.088
501.95	34.251
502.29	34.624
502.64	33.946
502.98	34.020
503.33	33.788
503.67	33.525
504.02	34.621
504.36	34.755
504.71	34.296
505.06	33.400
505.40	34.281
505.75	34.858
506.09	34.884
506.44	33.835
506.78	34.370
507.13	34.758
507.47	35.159
507.82	35.209
508.16	35.026
508.51	34.415
508.85	34.265
509.19	33.909
509.54	34.144
509.88	35.106
510.23	34.382
510.57	35.397
510.92	35.392
511.26	34.397
511.61	33.801
511.95	34.860
512.30	34.964
512.64	34.502
512.98	34.378
513.33	33.992
513.67	34.171
514.02	34.843
514.36	34.072
514.70	35.314
515.05	34.877
515.39	35.006
515.74	35.951
516.08	35.620
516.42	34.504
516.77	35.298
517.11	34.611
517.46	35.108
517.80	35.319
518.14	35.205
518.49	35.744
518.83	34.599
519.17	35.406
519.52	34.586
519.86	34.588
520.20	36.064
520.55	35.938
520.89	34.690
521.23	35.104
521.58	35.799
521.92	36.162
522.26	35.937
522.61	34.791
522.95	35.035
523.29	36.238
523.64	35.415
523.98	35.773
524.32	34.947
524.66	34.472
525.01	34.232
525.35	36.147
525.69	35.459
526.04	36.097
526.38	36.028
526.72	34.227
527.06	35.612
527.41	35.182
527.75	34.455
528.09	34.811
528.43	35.082
528.78	35.113
529.12	35.339
529.46	35.245
529.80	35.571
530.15	34.385
530.49	35.123
530.83	35.036
531.17	35.152
531.51	34.896
531.86	35.089
532.20	35.425
532.54	35.963
532.88	34.124
533.22	35.361
533.57	34.530
533.91	33.958
534.25	33.564
534.59	34.166
534.93	34.599
535.27	35.368
535.62	34.655
535.96	34.260
536.30	34.424
536.64	34.197
536.98	35.523
537.32	35.798
537.66	34.216
538.01	34.708
538.35	34.459
538.69	34.559
539.03	34.191
539.37	34.132
539.71	34.823
540.05	35.024
540.39	34.765
540.73	34.831
541.07	34.973
541.42	34.369
541.76	33.821
542.10	35.989
542.44	33.977
542.78	35.075
543.12	34.759
543.46	34.589
543.80	33.378
544.14	33.781
544.48	35.039
544.82	34.168
545.16	34.004
545.50	33.244
545.84	34.771
546.18	33.911
546.52	35.846
546.86	34.829
547.20	34.107
547.54	33.953
547.88	34.041
548.22	33.814
548.56	33.467
548.90	34.434
549.24	34.128
549.58	35.215
549.92	34.982
550.26	36.055
550.60	32.859
550.94	33.869
551.28	34.537
551.62	33.604
551.96	34.877
552.30	34.355
552.64	34.975
552.98	33.917
553.32	33.911
553.66	35.689
554.00	34.897
554.34	34.585
554.68	34.649
555.02	35.022
555.36	34.076
555.69	33.453
556.03	34.386
556.37	36.202
556.71	33.787
557.05	35.477
557.39	32.888
557.73	35.594
558.07	35.946
558.41	35.453
558.75	35.665
559.08	33.230
559.42	35.069
559.76	32.745
560.10	35.570
560.44	35.116
560.78	34.377
561.12	34.300
561.45	34.041
561.79	34.146
562.13	34.432
562.47	33.333
562.81	33.593
563.15	33.310
563.48	33.863
563.82	33.401
564.16	33.469
564.50	34.409
564.84	33.598
565.17	33.289
565.51	33.246
565.85	34.348
566.19	34.256
566.52	34.442
566.86	33.439
567.20	34.564
567.54	34.790
567.88	33.222
568.21	32.383
568.55	33.192
568.89	31.859
569.23	31.745
569.56	31.358
569.90	32.219
570.24	31.492
570.57	30.826
570.91	31.078
571.25	30.674
571.59	30.503
571.92	30.595
572.26	30.467
572.60	30.748
572.93	30.350
573.27	29.970
573.61	30.026
573.95	29.963
574.28	29.596
574.62	29.944
574.96	29.786
575.29	29.345
575.63	29.520
575.97	29.639
576.30	29.570
576.64	30.000
576.98	29.460
577.31	29.607
577.65	29.591
577.98	29.728
578.32	29.467
578.66	29.383
578.99	29.615
579.33	29.390
579.67	29.800
580.00	29.142
580.34	29.941
580.67	28.904
581.01	28.908
581.35	29.455
581.68	28.664
582.02	29.282
582.35	28.593
582.69	29.865
583.02	30.084
583.36	29.862
583.70	30.108
584.03	30.361
584.37	29.824
584.70	29.685
585.04	29.544
585.37	29.069
585.71	29.003
586.04	29.509
586.38	29.484
586.72	30.017
587.05	30.076
587.39	29.637
587.72	29.705
588.06	29.766
588.39	29.878
588.73	30.356
589.06	30.595
589.40	30.711
589.73	30.489
590.07	29.898
590.40	30.996
590.73	30.668
591.07	30.820
591.40	31.976
591.74	30.712
592.07	30.045
592.41	30.955
592.74	29.977
593.08	30.072
593.41	29.967
593.75	28.882
594.08	30.410
594.41	30.869
594.75	30.880
595.08	30.451
595.42	29.805
595.75	30.981
596.09	31.199
596.42	30.851
596.75	30.789
597.09	31.167
597.42	30.467
597.75	30.602
598.09	30.863
598.42	31.198
598.76	30.191
599.09	30.900
599.42	30.027
599.76	30.804
600.09	30.382
600.42	30.156
600.76	30.697
601.09	29.320
601.42	29.561
601.76	30.880
602.09	30.716
602.42	31.440
602.76	30.661
603.09	30.121
603.42	30.580
603.76	30.515
604.09	30.276
604.42	30.183
604.76	30.179
605.09	31.193
605.42	31.339
605.75	29.711
606.09	31.092
606.42	30.540
606.75	29.927
607.09	30.172
607.42	30.722
607.75	30.331
608.08	30.999
608.42	30.889
608.75	30.093
609.08	30.979
609.41	30.294
609.75	30.619
610.08	30.980
610.41	30.892
610.74	30.899
611.07	31.947
611.41	30.560
611.74	31.260
612.07	32.492
612.40	30.490
612.73	30.964
613.07	29.939
613.40	32.239
613.73	31.226
614.06	31.851
614.39	31.172
614.72	30.838
615.06	31.087
615.39	31.145
615.72	30.907
616.05	31.088
616.38	30.818
616.71	30.691
617.05	31.604
617.38	30.093
617.71	31.265
618.04	30.807
618.37	31.132
618.70	32.595
619.03	31.618
619.36	32.276
619.69	32.304
620.03	30.785
620.36	31.224
620.69	32.807
621.02	33.029
621.35	32.339
621.68	31.967
622.01	31.958
622.34	32.453
622.67	32.109
623.00	31.599
623.33	31.791
623.66	31.388
623.99	32.256
624.32	31.250
624.65	30.758
624.99	31.516
625.32	32.335
625.65	33.178
625.98	31.612
626.31	33.116
626.64	33.473
626.97	33.562
627.30	33.362
627.63	32.556
627.96	33.072
628.29	32.721
628.62	32.951
628.95	34.154
629.28	32.237
629.61	34.446
629.94	32.798
630.26	32.704
630.59	33.668
630.92	32.432
631.25	33.770
631.58	34.392
631.91	32.766
632.24	34.222
632.57	33.778
632.90	33.333
