SpectraSuite Data File
++++++++++++++++++++++++++++++++++++
Date: Sat May 16 11:11:58 PDT 2015
User: schluterlab
Dark Spectrum Present: Yes
Reference Spectrum Present: Yes
Number of Sampled Component Spectra: 1
Spectrometers: USB2E3373
Integration Time (usec): 3000 (USB2E3373)
Spectra Averaged: 3 (USB2E3373)
Boxcar Smoothing: 0 (USB2E3373)
Correct for Electrical Dark: No (USB2E3373)
Strobe/Lamp Enabled: No (USB2E3373)
Correct for Detector Non-linearity: No (USB2E3373)
Correct for Stray Light: No (USB2E3373)
Number of Pixels in Processed Spectrum: 2048
>>>>>Begin Processed Spectral Data<<<<<
178.53	0.000
178.91	60.000
179.29	233.333
179.67	100.000
180.04	-84.615
180.42	-500.000
180.80	100.000
181.18	350.000
181.56	-100.000
181.94	100.000
182.31	325.000
182.69	38.462
183.07	-33.333
183.45	1300.000
183.83	366.667
184.20	-14.286
184.58	37.500
184.96	-325.000
185.34	93.750
185.72	-300.000
186.09	150.000
186.47	-75.000
186.85	-62.500
187.23	112.500
187.61	-175.000
187.98	-200.000
188.36	0.000
188.74	-37.500
189.12	700.000
189.49	128.571
189.87	83.333
190.25	-0.000
190.63	14.286
191.00	11.111
191.38	160.000
191.76	46.667
192.14	300.000
192.51	-80.000
192.89	33.333
193.27	0.000
193.65	-122.222
194.02	-28.571
194.40	300.000
194.78	-10.000
195.15	400.000
195.53	27.273
195.91	-133.333
196.29	-40.000
196.66	-300.000
197.04	800.000
197.42	225.000
197.79	66.667
198.17	166.667
198.55	-200.000
198.92	-800.000
199.30	150.000
199.68	-200.000
200.05	-55.556
200.43	-111.111
200.81	-100.000
201.18	-33.333
201.56	85.714
201.94	-20.000
202.31	50.000
202.69	170.000
203.07	10.000
203.44	400.000
203.82	-83.333
204.19	-225.000
204.57	25.000
204.95	-1000.000
205.32	43.750
205.70	-200.000
206.08	-1400.000
206.45	38.889
206.83	-600.000
207.20	100.000
207.58	-100.000
207.96	-200.000
208.33	-125.000
208.71	11.111
209.08	150.000
209.46	0.000
209.84	50.000
210.21	0.000
210.59	80.000
210.96	-300.000
211.34	16.667
211.71	0.000
212.09	50.000
212.46	550.000
212.84	-1200.000
213.22	166.667
213.59	83.333
213.97	100.000
214.34	120.000
214.72	0.000
215.09	-100.000
215.47	-133.333
215.84	-40.000
216.22	-10.000
216.59	80.000
216.97	-325.000
217.34	750.000
217.72	71.429
218.09	16.667
218.47	-85.714
218.84	128.571
219.22	28.571
219.59	0.000
219.97	242.857
220.34	425.000
220.72	75.000
221.09	0.000
221.47	0.000
221.84	300.000
222.22	-350.000
222.59	600.000
222.97	12.500
223.34	350.000
223.72	-133.333
224.09	-28.571
224.46	25.000
224.84	0.000
225.21	-28.571
225.59	-72.727
225.96	0.000
226.34	-85.714
226.71	-122.222
227.08	20.000
227.46	800.000
227.83	-71.429
228.21	-75.000
228.58	200.000
228.95	-25.000
229.33	-500.000
229.70	-100.000
230.08	-350.000
230.45	66.667
230.82	-116.667
231.20	0.000
231.57	-250.000
231.95	400.000
232.32	57.143
232.69	-33.333
233.07	-85.714
233.44	-500.000
233.81	-53.333
234.19	-11.111
234.56	-43.750
234.93	21.875
235.31	-28.571
235.68	-85.714
236.05	-47.059
236.43	-36.364
236.80	0.000
237.17	20.833
237.55	-9.524
237.92	-27.273
238.29	-17.143
238.67	14.706
239.04	5.556
239.41	-9.677
239.79	-51.282
240.16	-9.524
240.53	-12.727
240.91	23.077
241.28	32.727
241.65	35.385
242.02	3.279
242.40	1.639
242.77	12.121
243.14	0.000
243.51	-10.000
243.89	0.000
244.26	-8.989
244.63	15.789
245.00	15.789
245.38	11.017
245.75	9.735
246.12	1.600
246.49	5.512
246.87	-3.252
247.24	-1.695
247.61	-5.932
247.98	4.225
248.36	-0.699
248.73	3.797
249.10	-1.274
249.47	9.942
249.84	9.659
250.22	-3.571
250.59	0.000
250.96	5.759
251.33	10.900
251.70	1.442
252.08	2.370
252.45	1.896
252.82	1.905
253.19	4.681
253.56	6.048
253.94	5.907
254.31	4.721
254.68	6.098
255.05	4.032
255.42	7.540
255.79	0.000
256.16	7.843
256.54	4.044
256.91	1.894
257.28	8.791
257.65	5.319
258.02	10.692
258.39	5.351
258.76	3.041
259.14	8.025
259.51	9.836
259.88	4.573
260.25	7.143
260.62	7.395
260.99	2.077
261.36	8.537
261.73	5.202
262.10	6.944
262.47	4.843
262.85	10.286
263.22	3.438
263.59	3.077
263.96	4.928
264.33	4.607
264.70	6.077
265.07	5.220
265.44	6.977
265.81	5.943
266.18	4.304
266.55	4.902
266.92	5.793
267.29	6.053
267.66	4.938
268.03	8.213
268.40	6.338
268.77	6.265
269.14	4.408
269.51	8.506
269.88	2.982
270.25	4.662
270.62	5.721
270.99	2.252
271.36	6.061
271.73	7.175
272.10	3.890
272.47	3.778
272.84	10.000
273.21	8.028
273.58	4.615
273.95	6.140
274.32	6.335
274.69	8.534
275.06	6.953
275.43	4.688
275.80	7.128
276.17	6.695
276.54	8.554
276.91	5.144
277.28	6.694
277.65	3.512
278.02	6.472
278.39	4.715
278.76	5.976
279.13	8.300
279.50	7.952
279.87	5.074
280.23	4.656
280.60	5.567
280.97	4.466
281.34	4.642
281.71	8.077
282.08	4.435
282.45	3.666
282.82	5.426
283.19	5.818
283.56	7.875
283.92	7.774
284.29	4.275
284.66	5.935
285.03	7.130
285.40	6.273
285.77	6.491
286.14	4.513
286.51	6.217
286.87	6.352
287.24	7.509
287.61	4.793
287.98	5.546
288.35	4.298
288.72	5.263
289.08	4.915
289.45	6.397
289.82	4.498
290.19	7.225
290.56	4.132
290.93	5.882
291.29	3.566
291.66	5.153
292.03	5.651
292.40	7.681
292.77	6.522
293.13	5.366
293.50	6.241
293.87	4.908
294.24	4.827
294.60	3.636
294.97	5.918
295.34	3.407
295.71	5.655
296.08	4.147
296.44	4.006
296.81	5.556
297.18	4.507
297.55	4.379
297.91	6.276
298.28	5.068
298.65	4.324
299.02	6.016
299.38	4.011
299.75	4.484
300.12	6.026
300.48	5.882
300.85	4.587
301.22	6.080
301.59	4.421
301.95	6.171
302.32	3.651
302.69	6.487
303.05	4.518
303.42	5.375
303.79	3.708
304.15	4.739
304.52	4.317
304.89	4.841
305.25	3.785
305.62	5.053
305.99	4.594
306.35	6.326
306.72	4.328
307.09	5.221
307.45	5.221
307.82	5.028
308.19	5.593
308.55	5.447
308.92	4.404
309.29	4.324
309.65	4.984
310.02	4.320
310.38	5.297
310.75	4.816
311.12	5.165
311.48	6.263
311.85	5.149
312.22	6.282
312.58	6.205
312.95	6.014
313.31	4.895
313.68	6.834
314.05	6.133
314.41	3.722
314.78	3.896
315.14	6.120
315.51	5.674
315.87	6.680
316.24	5.734
316.61	7.294
316.97	7.960
317.34	5.395
317.70	5.380
318.07	6.903
318.43	6.835
318.80	6.667
319.16	6.004
319.53	7.613
319.89	7.808
320.26	7.647
320.62	7.981
320.99	7.562
321.35	6.798
321.72	7.472
322.08	9.891
322.45	6.436
322.81	8.934
323.18	9.222
323.54	9.150
323.91	10.473
324.27	9.981
324.64	10.146
325.00	10.558
325.37	10.498
325.73	13.036
326.10	10.629
326.46	12.697
326.83	13.787
327.19	13.928
327.56	15.417
327.92	15.208
328.29	16.537
328.65	14.182
329.01	16.078
329.38	16.503
329.74	18.040
330.11	18.404
330.47	18.710
330.84	20.898
331.20	20.578
331.56	21.240
331.93	19.982
332.29	21.826
332.66	22.212
333.02	22.172
333.38	22.222
333.75	23.241
334.11	23.022
334.48	24.095
334.84	23.535
335.20	25.000
335.57	25.542
335.93	26.768
336.29	25.686
336.66	25.551
337.02	26.577
337.38	25.668
337.75	26.339
338.11	26.565
338.47	25.801
338.84	27.042
339.20	26.801
339.56	27.897
339.93	26.190
340.29	27.192
340.65	26.923
341.02	26.981
341.38	26.959
341.74	28.027
342.11	26.877
342.47	27.811
342.83	26.784
343.20	27.242
343.56	26.367
343.92	27.880
344.28	28.848
344.65	27.475
345.01	27.143
345.37	28.904
345.73	26.841
346.10	26.002
346.46	26.076
346.82	26.945
347.19	27.527
347.55	26.966
347.91	27.638
348.27	27.287
348.63	27.141
349.00	26.889
349.36	26.073
349.72	27.468
350.08	27.265
350.45	27.187
350.81	28.583
351.17	28.135
351.53	26.412
351.89	28.213
352.26	27.519
352.62	27.266
352.98	28.877
353.34	28.537
353.70	26.718
354.07	28.245
354.43	27.984
354.79	27.734
355.15	27.476
355.51	28.047
355.87	29.012
356.24	28.515
356.60	28.122
356.96	28.022
357.32	28.345
357.68	27.433
358.04	27.329
358.40	27.146
358.77	27.202
359.13	27.544
359.49	28.042
359.85	27.591
360.21	27.702
360.57	27.485
360.93	29.481
361.29	27.803
361.66	27.058
362.02	27.441
362.38	28.760
362.74	29.231
363.10	28.838
363.46	28.276
363.82	28.717
364.18	29.016
364.54	29.521
364.90	28.791
365.26	27.675
365.62	30.150
365.98	30.085
366.35	28.169
366.71	27.907
367.07	28.299
367.43	29.719
367.79	29.897
368.15	28.734
368.51	29.510
368.87	30.975
369.23	28.702
369.59	29.167
369.95	29.175
370.31	30.098
370.67	29.718
371.03	31.050
371.39	29.632
371.75	30.615
372.11	29.770
372.47	29.429
372.83	30.876
373.19	30.143
373.55	30.612
373.91	31.081
374.27	30.938
374.63	30.780
374.99	30.668
375.35	30.013
375.71	31.735
376.07	29.843
376.42	30.199
376.78	31.438
377.14	32.949
377.50	31.141
377.86	32.250
378.22	32.161
378.58	31.007
378.94	31.936
379.30	32.358
379.66	32.665
380.02	32.086
380.38	31.843
380.74	31.536
381.09	31.986
381.45	32.637
381.81	32.002
382.17	33.145
382.53	32.401
382.89	32.237
383.25	33.353
383.61	32.606
383.97	32.211
384.32	33.354
384.68	33.374
385.04	33.454
385.40	34.327
385.76	33.841
386.12	33.167
386.48	33.849
386.83	33.620
387.19	33.772
387.55	32.768
387.91	32.899
388.27	32.268
388.62	34.315
388.98	33.374
389.34	33.782
389.70	33.922
390.06	34.058
390.42	34.231
390.77	34.385
391.13	34.907
391.49	34.685
391.85	35.162
392.20	33.434
392.56	34.209
392.92	33.657
393.28	33.697
393.64	34.756
393.99	34.892
394.35	33.881
394.71	33.045
395.07	34.589
395.42	33.611
395.78	34.695
396.14	34.268
396.50	34.557
396.85	34.423
397.21	34.204
397.57	34.164
397.92	34.602
398.28	35.222
398.64	33.849
399.00	34.888
399.35	35.400
399.71	34.669
400.07	34.209
400.42	33.820
400.78	33.214
401.14	33.653
401.49	34.080
401.85	34.472
402.21	34.684
402.57	33.434
402.92	34.298
403.28	34.743
403.63	33.134
403.99	34.431
404.35	33.031
404.70	33.470
405.06	34.602
405.42	34.440
405.77	33.710
406.13	33.731
406.49	33.194
406.84	34.193
407.20	33.922
407.55	34.516
407.91	34.132
408.27	34.007
408.62	33.133
408.98	33.717
409.34	32.541
409.69	33.333
410.05	33.778
410.40	34.457
410.76	34.025
411.11	33.292
411.47	33.248
411.83	33.924
412.18	33.601
412.54	31.971
412.89	33.536
413.25	33.117
413.60	32.746
413.96	32.409
414.31	33.394
414.67	33.270
415.03	32.859
415.38	33.507
415.74	34.794
416.09	33.312
416.45	32.937
416.80	34.265
417.16	32.226
417.51	34.800
417.87	34.175
418.22	33.059
418.58	35.109
418.93	35.132
419.29	33.877
419.64	33.166
420.00	34.083
420.35	33.767
420.71	34.814
421.06	33.905
421.42	33.431
421.77	35.120
422.12	35.143
422.48	33.618
422.83	35.478
423.19	33.909
423.54	35.216
423.90	34.529
424.25	35.124
424.61	35.887
424.96	35.986
425.31	34.768
425.67	36.046
426.02	34.596
426.38	35.269
426.73	35.593
427.09	36.336
427.44	36.080
427.79	35.465
428.15	36.206
428.50	36.716
428.85	36.331
429.21	36.469
429.56	36.458
429.92	36.673
430.27	36.241
430.62	37.095
430.98	36.435
431.33	36.606
431.68	36.836
432.04	37.829
432.39	36.638
432.74	36.751
433.10	37.591
433.45	37.306
433.80	37.234
434.16	37.292
434.51	37.644
434.86	39.016
435.22	37.249
435.57	37.944
435.92	38.218
436.28	38.101
436.63	37.140
436.98	37.285
437.34	37.685
437.69	38.098
438.04	38.457
438.39	39.230
438.75	37.602
439.10	37.313
439.45	38.081
439.81	37.289
440.16	38.047
440.51	38.059
440.86	37.710
441.22	37.922
441.57	38.421
441.92	38.465
442.27	39.286
442.63	38.251
442.98	38.093
443.33	39.374
443.68	38.614
444.03	37.868
444.39	38.669
444.74	40.474
445.09	39.200
445.44	39.955
445.79	38.960
446.15	40.252
446.50	37.725
446.85	38.943
447.20	39.275
447.55	39.116
447.91	40.034
448.26	39.162
448.61	38.936
448.96	40.224
449.31	40.192
449.66	40.469
450.02	39.391
450.37	39.768
450.72	39.605
451.07	39.786
451.42	39.591
451.77	41.412
452.12	40.703
452.47	40.932
452.83	40.128
453.18	39.722
453.53	39.614
453.88	40.909
454.23	39.238
454.58	40.336
454.93	41.310
455.28	40.535
455.63	40.971
455.98	40.843
456.34	40.407
456.69	41.463
457.04	39.275
457.39	40.251
457.74	39.279
458.09	41.183
458.44	40.185
458.79	39.630
459.14	40.445
459.49	39.728
459.84	40.360
460.19	40.871
460.54	41.198
460.89	40.359
461.24	40.255
461.59	39.683
461.94	41.120
462.29	40.739
462.64	42.095
462.99	40.428
463.34	41.594
463.69	42.112
464.04	40.598
464.39	40.621
464.74	41.135
465.09	40.830
465.44	41.230
465.79	41.737
466.14	40.621
466.49	41.163
466.84	41.176
467.19	40.524
467.54	40.696
467.89	41.985
468.24	40.202
468.59	41.224
468.94	42.122
469.29	40.156
469.64	40.970
469.99	42.539
470.34	40.815
470.68	42.878
471.03	42.602
471.38	41.944
471.73	43.427
472.08	41.165
472.43	42.085
472.78	40.933
473.13	41.286
473.48	41.800
473.83	40.881
474.17	41.656
474.52	43.095
474.87	40.851
475.22	41.652
475.57	40.333
475.92	41.415
476.27	41.029
476.61	42.310
476.96	42.314
477.31	43.219
477.66	41.837
478.01	41.545
478.36	41.959
478.70	41.751
479.05	42.401
479.40	41.762
479.75	41.539
480.10	41.171
480.45	41.199
480.79	43.189
481.14	41.947
481.49	42.449
481.84	42.025
482.19	42.988
482.53	42.282
482.88	41.860
483.23	41.737
483.58	42.507
483.92	42.475
484.27	41.914
484.62	41.339
484.97	41.426
485.31	41.184
485.66	40.257
486.01	39.743
486.36	40.635
486.70	41.434
487.05	40.161
487.40	41.506
487.75	40.820
488.09	41.414
488.44	41.746
488.79	40.856
489.13	42.830
489.48	43.393
489.83	42.140
490.17	42.360
490.52	43.161
490.87	41.478
491.22	42.690
491.56	42.407
491.91	42.510
492.26	42.830
492.60	42.341
492.95	42.932
493.30	42.401
493.64	42.736
493.99	43.595
494.34	42.762
494.68	42.837
495.03	42.639
495.37	42.183
495.72	42.289
496.07	43.548
496.41	42.798
496.76	43.927
497.11	43.523
497.45	43.630
497.80	43.972
498.14	42.731
498.49	43.496
498.84	43.010
499.18	43.860
499.53	43.643
499.87	42.664
500.22	42.745
500.56	43.972
500.91	43.054
501.26	44.299
501.60	43.958
501.95	44.444
502.29	42.702
502.64	43.612
502.98	42.645
503.33	43.609
503.67	42.433
504.02	42.057
504.36	43.775
504.71	43.313
505.06	43.135
505.40	43.862
505.75	44.258
506.09	44.237
506.44	43.509
506.78	44.104
507.13	43.512
507.47	44.914
507.82	45.018
508.16	45.078
508.51	43.380
508.85	43.168
509.19	43.537
509.54	44.767
509.88	44.681
510.23	44.497
510.57	44.127
510.92	44.844
511.26	43.222
511.61	44.492
511.95	43.534
512.30	44.695
512.64	44.463
512.98	46.040
513.33	44.591
513.67	43.830
514.02	43.904
514.36	44.211
514.70	45.388
515.05	43.968
515.39	44.348
515.74	44.852
516.08	44.669
516.42	44.249
516.77	45.234
517.11	45.195
517.46	46.531
517.80	45.969
518.14	44.686
518.49	45.129
518.83	45.401
519.17	45.708
519.52	43.031
519.86	45.759
520.20	46.210
520.55	45.415
520.89	45.147
521.23	45.116
521.58	46.270
521.92	45.725
522.26	45.714
522.61	45.564
522.95	44.608
523.29	45.643
523.64	45.284
523.98	46.213
524.32	45.820
524.66	44.410
525.01	45.279
525.35	45.361
525.69	45.348
526.04	46.149
526.38	44.940
526.72	43.870
527.06	45.833
527.41	46.007
527.75	44.620
528.09	45.996
528.43	45.574
528.78	45.101
529.12	45.839
529.46	46.392
529.80	45.320
530.15	46.233
530.49	45.149
530.83	45.842
531.17	45.387
531.51	45.546
531.86	45.885
532.20	44.804
532.54	45.455
532.88	46.311
533.22	45.722
533.57	45.627
533.91	44.132
534.25	43.683
534.59	43.535
534.93	44.057
535.27	45.374
535.62	46.036
535.96	44.861
536.30	44.503
536.64	44.954
536.98	45.268
537.32	46.303
537.66	45.893
538.01	45.773
538.35	45.068
538.69	45.321
539.03	44.550
539.37	45.243
539.71	45.364
540.05	46.402
540.39	46.191
540.73	46.095
541.07	45.902
541.42	44.835
541.76	44.718
542.10	45.172
542.44	44.437
542.78	46.404
543.12	46.504
543.46	45.753
543.80	44.482
544.14	44.459
544.48	45.144
544.82	44.926
545.16	45.540
545.50	44.886
545.84	45.063
546.18	44.868
546.52	46.302
546.86	46.011
547.20	46.624
547.54	43.871
547.88	43.796
548.22	44.495
548.56	45.023
548.90	47.035
549.24	45.690
549.58	46.224
549.92	45.512
550.26	46.026
550.60	44.737
550.94	46.131
551.28	46.426
551.62	46.677
551.96	47.395
552.30	44.460
552.64	45.954
552.98	46.111
553.32	44.733
553.66	47.080
554.00	46.411
554.34	45.126
554.68	46.711
555.02	45.803
555.36	45.866
555.69	44.699
556.03	45.404
556.37	46.302
556.71	46.815
557.05	47.007
557.39	46.474
557.73	46.608
558.07	46.119
558.41	45.849
558.75	44.791
559.08	46.537
559.42	44.870
559.76	46.396
560.10	47.576
560.44	47.327
560.78	46.416
561.12	45.342
561.45	45.890
561.79	45.157
562.13	45.652
562.47	46.849
562.81	45.969
563.15	45.626
563.48	45.750
563.82	45.977
564.16	46.991
564.50	46.640
564.84	46.032
565.17	45.889
565.51	45.632
565.85	46.653
566.19	45.982
566.52	45.532
566.86	45.322
567.20	45.400
567.54	46.013
567.88	45.338
568.21	44.687
568.55	44.168
568.89	43.489
569.23	42.897
569.56	42.791
569.90	42.526
570.24	43.179
570.57	41.406
570.91	41.244
571.25	42.380
571.59	41.180
571.92	41.369
572.26	41.522
572.60	41.607
572.93	41.251
573.27	41.524
573.61	41.382
573.95	41.405
574.28	40.575
574.62	41.357
574.96	40.952
575.29	40.422
575.63	40.244
575.97	40.831
576.30	41.381
576.64	41.332
576.98	40.333
577.31	41.120
577.65	41.109
577.98	40.482
578.32	39.318
578.66	40.283
578.99	40.315
579.33	40.342
579.67	41.212
580.00	40.179
580.34	41.267
580.67	40.941
581.01	40.379
581.35	40.837
581.68	39.847
582.02	40.628
582.35	40.548
582.69	40.531
583.02	40.893
583.36	40.753
583.70	40.348
584.03	41.298
584.37	41.380
584.70	41.766
585.04	40.886
585.37	40.119
585.71	41.243
586.04	41.439
586.38	41.059
586.72	41.291
587.05	41.575
587.39	40.972
587.72	40.988
588.06	41.541
588.39	41.555
588.73	41.460
589.06	42.487
589.40	42.838
589.73	42.422
590.07	41.806
590.40	42.399
590.73	42.743
591.07	43.156
591.40	42.808
591.74	42.615
592.07	43.649
592.41	42.930
592.74	42.698
593.08	41.847
593.41	42.105
593.75	41.576
594.08	43.710
594.41	42.810
594.75	42.997
595.08	42.594
595.42	43.497
595.75	42.484
596.09	42.181
596.42	42.840
596.75	43.596
597.09	43.989
597.42	42.776
597.75	43.357
598.09	43.244
598.42	42.554
598.76	41.777
599.09	42.620
599.42	42.753
599.76	42.242
600.09	42.672
600.42	42.689
600.76	43.239
601.09	41.626
601.42	42.105
601.76	42.601
602.09	43.313
602.42	43.539
602.76	42.750
603.09	43.468
603.42	42.869
603.76	43.917
604.09	43.172
604.42	42.465
604.76	43.131
605.09	43.264
605.42	42.110
605.75	43.165
606.09	43.587
606.42	43.025
606.75	42.980
607.09	43.185
607.42	42.826
607.75	43.179
608.08	42.657
608.42	43.945
608.75	42.804
609.08	43.108
609.41	44.345
609.75	42.711
610.08	44.755
610.41	43.711
610.74	44.536
611.07	44.473
611.41	43.671
611.74	44.627
612.07	45.704
612.40	44.030
612.73	43.942
613.07	44.689
613.40	45.101
613.73	44.959
614.06	44.371
614.39	45.716
614.72	44.581
615.06	44.076
615.39	44.221
615.72	44.595
616.05	43.125
616.38	45.038
616.71	44.324
617.05	45.416
617.38	45.263
617.71	45.147
618.04	45.217
618.37	45.409
618.70	45.176
619.03	45.362
619.36	46.723
619.69	47.164
620.03	46.212
620.36	45.288
620.69	46.159
621.02	46.347
621.35	46.774
621.68	46.230
622.01	47.492
622.34	47.283
622.67	46.719
623.00	46.519
623.33	48.209
623.66	46.381
623.99	46.541
624.32	46.429
624.65	44.444
624.99	46.826
625.32	46.557
625.65	46.620
625.98	46.401
626.31	47.635
626.64	49.791
626.97	48.202
627.30	47.064
627.63	47.496
627.96	48.738
628.29	47.426
628.62	47.182
628.95	48.917
629.28	47.744
629.61	48.577
629.94	48.299
630.26	50.199
630.59	50.553
630.92	50.851
631.25	49.496
631.58	48.889
631.91	47.447
632.24	50.556
632.57	49.556
632.90	52.414
633.23	50.117
633.56	48.187
633.89	49.764
634.22	51.358
634.55	49.880
634.88	51.149
635.20	50.437
635.53	51.781
635.86	50.000
636.19	50.305
636.52	48.984
636.85	49.819
637.18	50.125
637.51	52.169
637.83	51.132
638.16	49.211
