SpectraSuite Data File
++++++++++++++++++++++++++++++++++++
Date: Sat May 16 11:36:29 PDT 2015
User: schluterlab
Dark Spectrum Present: Yes
Reference Spectrum Present: Yes
Number of Sampled Component Spectra: 1
Spectrometers: USB2E3373
Integration Time (usec): 3000 (USB2E3373)
Spectra Averaged: 3 (USB2E3373)
Boxcar Smoothing: 0 (USB2E3373)
Correct for Electrical Dark: No (USB2E3373)
Strobe/Lamp Enabled: No (USB2E3373)
Correct for Detector Non-linearity: No (USB2E3373)
Correct for Stray Light: No (USB2E3373)
Number of Pixels in Processed Spectrum: 2048
>>>>>Begin Processed Spectral Data<<<<<
178.53	0.000
178.91	86.667
179.29	600.000
179.67	-2200.000
180.04	-7.692
180.42	500.000
180.80	225.000
181.18	500.000
181.56	-62.500
181.94	400.000
182.31	500.000
182.69	-115.385
183.07	-633.333
183.45	1950.000
183.83	366.667
184.20	-157.143
184.58	-112.500
184.96	-300.000
185.34	75.000
185.72	-400.000
186.09	400.000
186.47	-200.000
186.85	-137.500
187.23	-125.000
187.61	200.000
187.98	-162.500
188.36	-200.000
188.74	-287.500
189.12	800.000
189.49	342.857
189.87	-108.333
190.25	350.000
190.63	-64.286
191.00	-266.667
191.38	280.000
191.76	26.667
192.14	660.000
192.51	-240.000
192.89	-633.333
193.27	0.000
193.65	-166.667
194.02	-185.714
194.40	533.333
194.78	-90.000
195.15	-1200.000
195.53	-118.182
195.91	-350.000
196.29	180.000
196.66	-466.667
197.04	2700.000
197.42	-225.000
197.79	13.333
198.17	-466.667
198.55	-800.000
198.92	-700.000
199.30	112.500
199.68	-1200.000
200.05	-177.778
200.43	-277.778
200.81	-1800.000
201.18	-158.333
201.56	185.714
201.94	-53.333
202.31	-13.636
202.69	-50.000
203.07	-70.000
203.44	366.667
203.82	-100.000
204.19	-325.000
204.57	-150.000
204.95	-800.000
205.32	-25.000
205.70	700.000
206.08	-1200.000
206.45	-50.000
206.83	-1450.000
207.20	-200.000
207.58	-866.667
207.96	-366.667
208.33	-250.000
208.71	-144.444
209.08	230.000
209.46	-285.714
209.84	950.000
210.21	0.000
210.59	-25.000
210.96	500.000
211.34	-266.667
211.71	-400.000
212.09	275.000
212.46	1150.000
212.84	-2200.000
213.22	700.000
213.59	133.333
213.97	-88.889
214.34	110.000
214.72	-120.000
215.09	-466.667
215.47	-16.667
215.84	-110.000
216.22	-90.000
216.59	-60.000
216.97	-500.000
217.34	800.000
217.72	-100.000
218.09	-150.000
218.47	-271.429
218.84	228.571
219.22	-214.286
219.59	0.000
219.97	300.000
220.34	550.000
220.72	225.000
221.09	-92.308
221.47	0.000
221.84	266.667
222.22	-250.000
222.59	800.000
222.97	-137.500
223.34	-600.000
223.72	-366.667
224.09	-107.143
224.46	-425.000
224.84	-85.714
225.21	-285.714
225.59	-45.455
225.96	-175.000
226.34	-171.429
226.71	-66.667
227.08	-70.000
227.46	1300.000
227.83	-200.000
228.21	-200.000
228.58	350.000
228.95	-50.000
229.33	-1600.000
229.70	-280.000
230.08	-1050.000
230.45	-75.000
230.82	-50.000
231.20	-1100.000
231.57	-650.000
231.95	600.000
232.32	9.524
232.69	-133.333
233.07	-228.571
233.44	-1350.000
233.81	-80.000
234.19	-88.889
234.56	-25.000
234.93	-6.250
235.31	-328.571
235.68	-92.857
236.05	-111.765
236.43	-36.364
236.80	-45.161
237.17	-54.167
237.55	-76.190
237.92	-100.000
238.29	-14.286
238.67	-20.588
239.04	-8.333
239.41	-64.516
239.79	-43.590
240.16	-38.095
240.53	-16.364
240.91	-12.821
241.28	-27.273
241.65	13.846
242.02	3.279
242.40	-22.951
242.77	-12.121
243.14	-18.644
243.51	-11.429
243.89	-12.658
244.26	-12.360
244.63	3.158
245.00	5.263
245.38	3.390
245.75	1.770
246.12	-2.400
246.49	-0.787
246.87	-1.626
247.24	-7.627
247.61	-0.847
247.98	1.408
248.36	0.699
248.73	5.696
249.10	-6.369
249.47	2.924
249.84	4.545
250.22	-3.571
250.59	6.215
250.96	7.330
251.33	6.161
251.70	7.212
252.08	7.109
252.45	0.948
252.82	-0.952
253.19	4.255
253.56	3.226
253.94	6.751
254.31	6.438
254.68	5.691
255.05	4.435
255.42	8.333
255.79	2.867
256.16	8.235
256.54	8.824
256.91	3.788
257.28	5.495
257.65	6.028
258.02	9.434
258.39	6.020
258.76	3.716
259.14	7.099
259.51	8.197
259.88	7.317
260.25	7.453
260.62	3.859
260.99	7.715
261.36	8.841
261.73	5.780
262.10	8.333
262.47	6.838
262.85	13.714
263.22	6.590
263.59	3.077
263.96	9.275
264.33	6.775
264.70	9.392
265.07	4.945
265.44	8.527
265.81	4.910
266.18	5.316
266.55	9.559
266.92	7.809
267.29	8.232
267.66	6.914
268.03	11.111
268.40	6.338
268.77	8.916
269.14	7.193
269.51	7.586
269.88	5.046
270.25	6.760
270.62	7.551
270.99	8.559
271.36	10.023
271.73	7.623
272.10	6.636
272.47	5.778
272.84	8.444
273.21	8.028
273.58	7.692
273.95	6.140
274.32	9.729
274.69	9.409
275.06	8.793
275.43	5.804
275.80	12.016
276.17	9.623
276.54	10.183
276.91	6.790
277.28	12.982
277.65	8.058
278.02	7.933
278.39	8.448
278.76	9.163
279.13	9.091
279.50	8.748
279.87	7.400
280.23	10.931
280.60	7.555
280.97	9.709
281.34	9.091
281.71	8.462
282.08	9.073
282.45	5.703
282.82	7.558
283.19	7.818
283.56	9.524
283.92	9.187
284.29	6.506
284.66	7.914
285.03	8.556
285.40	7.934
285.77	9.123
286.14	8.484
286.51	9.236
286.87	7.985
287.24	8.532
287.61	6.777
287.98	5.026
288.35	7.934
288.72	8.829
289.08	6.949
289.45	9.091
289.82	7.958
290.19	10.509
290.56	7.769
290.93	7.949
291.29	6.159
291.66	7.568
292.03	8.948
292.40	9.639
292.77	9.783
293.13	7.805
293.50	9.361
293.87	8.589
294.24	7.843
294.60	6.515
294.97	10.622
295.34	7.259
295.71	7.440
296.08	7.527
296.44	7.153
296.81	9.402
297.18	7.606
297.55	9.746
297.91	10.460
298.28	6.712
298.65	8.508
299.02	9.492
299.38	9.225
299.75	9.918
300.12	9.615
300.48	8.951
300.85	8.257
301.22	8.409
301.59	10.013
301.95	11.209
302.32	7.432
302.69	9.180
303.05	7.448
303.42	9.750
303.79	8.612
304.15	9.242
304.52	8.751
304.89	9.917
305.25	9.158
305.62	9.283
305.99	9.423
306.35	10.211
306.72	8.998
307.09	10.670
307.45	9.875
307.82	8.939
308.19	9.508
308.55	10.240
308.92	8.808
309.29	9.297
309.65	10.074
310.02	10.151
310.38	9.514
310.75	10.246
311.12	11.054
311.48	10.856
311.85	11.535
312.22	12.049
312.58	12.106
312.95	11.213
313.31	12.687
313.68	11.558
314.05	11.771
314.41	11.569
314.78	10.390
315.14	12.043
315.51	12.867
315.87	13.553
316.24	13.605
316.61	12.284
316.97	13.035
317.34	13.102
317.70	12.338
318.07	13.806
318.43	14.981
318.80	14.930
319.16	13.227
319.53	13.722
319.89	13.641
320.26	13.333
320.62	13.462
320.99	14.527
321.35	14.384
321.72	14.841
322.08	15.430
322.45	16.139
322.81	16.619
323.18	16.138
323.54	16.543
323.91	17.516
324.27	17.681
324.64	18.373
325.00	18.237
325.37	19.729
325.73	20.472
326.10	19.398
326.46	21.016
326.83	22.213
327.19	22.686
327.56	24.191
327.92	22.685
328.29	23.203
328.65	23.909
329.01	24.735
329.38	24.442
329.74	25.549
330.11	24.751
330.47	25.886
330.84	27.681
331.20	27.527
331.56	26.618
331.93	26.998
332.29	28.950
332.66	28.007
333.02	27.783
333.38	28.853
333.75	29.297
334.11	28.356
334.48	29.303
334.84	30.796
335.20	29.521
335.57	30.054
335.93	31.155
336.29	28.432
336.66	28.722
337.02	29.820
337.38	28.877
337.75	29.675
338.11	30.769
338.47	29.804
338.84	29.310
339.20	31.283
339.56	30.927
339.93	30.952
340.29	29.849
340.65	31.294
341.02	29.764
341.38	30.076
341.74	30.737
342.11	32.082
342.47	29.871
342.83	30.395
343.20	29.462
343.56	28.898
343.92	31.052
344.28	30.698
344.65	30.116
345.01	30.168
345.37	31.977
345.73	28.887
346.10	29.354
346.46	28.513
346.82	29.511
347.19	30.567
347.55	30.257
347.91	30.236
348.27	29.435
348.63	30.452
349.00	31.822
349.36	29.196
349.72	30.414
350.08	29.350
350.45	29.945
350.81	29.857
351.17	29.421
351.53	28.481
351.89	30.154
352.26	30.155
352.62	29.800
352.98	29.193
353.34	30.216
353.70	28.649
354.07	29.111
354.43	30.435
354.79	30.745
355.15	29.473
355.51	30.625
355.87	29.170
356.24	29.230
356.60	30.298
356.96	29.484
357.32	30.087
357.68	28.812
358.04	31.024
358.40	28.925
358.77	29.985
359.13	29.686
359.49	29.630
359.85	28.811
360.21	30.365
360.57	29.669
360.93	29.481
361.29	31.390
361.66	28.201
362.02	29.586
362.38	30.007
362.74	31.282
363.10	29.125
363.46	30.271
363.82	30.466
364.18	30.318
364.54	31.523
364.90	30.259
365.26	30.029
365.62	30.150
365.98	32.219
366.35	29.789
366.71	28.400
367.07	30.275
367.43	30.885
367.79	30.241
368.15	30.014
368.51	31.469
368.87	31.250
369.23	31.298
369.59	30.278
369.95	30.937
370.31	31.013
370.67	29.718
371.03	31.633
371.39	30.339
371.75	31.187
372.11	31.205
372.47	31.309
372.83	32.058
373.19	32.000
373.55	32.512
373.91	31.152
374.27	30.801
374.63	31.608
374.99	31.989
375.35	30.485
375.71	32.073
376.07	31.759
376.42	30.132
376.78	33.725
377.14	32.746
377.50	32.173
377.86	32.510
378.22	33.920
378.58	32.489
378.94	31.936
379.30	33.211
379.66	32.726
380.02	32.858
380.38	33.293
380.74	33.177
381.09	34.329
381.45	34.368
381.81	32.668
382.17	34.649
382.53	34.407
382.89	33.433
383.25	33.955
383.61	35.142
383.97	34.415
384.32	34.856
384.68	35.550
385.04	35.024
385.40	34.388
385.76	34.756
386.12	34.354
386.48	35.272
386.83	35.399
387.19	36.163
387.55	35.494
387.91	36.159
388.27	35.826
388.62	36.959
388.98	36.584
389.34	35.802
389.70	36.663
390.06	35.985
390.42	36.090
390.77	35.457
391.13	36.584
391.49	35.558
391.85	36.160
392.20	36.347
392.56	35.858
392.92	35.824
393.28	36.797
393.64	37.282
393.99	37.846
394.35	36.922
394.71	37.245
395.07	37.288
395.42	35.518
395.78	36.581
396.14	37.695
396.50	37.554
396.85	37.631
397.21	37.546
397.57	36.717
397.92	37.881
398.28	36.667
398.64	37.359
399.00	37.978
399.35	37.317
399.71	37.631
400.07	37.433
400.42	37.956
400.78	37.269
401.14	36.826
401.49	37.618
401.85	37.584
402.21	38.439
402.57	37.500
402.92	38.767
403.28	37.623
403.63	36.788
403.99	37.290
404.35	37.017
404.70	36.981
405.06	37.947
405.42	36.716
405.77	37.274
406.13	36.627
406.49	38.286
406.84	37.912
407.20	38.693
407.55	37.492
407.91	36.917
408.27	38.787
408.62	37.462
408.98	37.902
409.34	37.782
409.69	38.059
410.05	38.690
410.40	37.952
410.76	38.234
411.11	38.840
411.47	37.660
411.83	38.631
412.18	38.428
412.54	37.584
412.89	38.578
413.25	37.308
413.60	37.667
413.96	37.646
414.31	38.716
414.67	37.968
415.03	37.904
415.38	38.321
415.74	38.466
416.09	38.491
416.45	39.021
416.80	37.581
417.16	38.073
417.51	39.330
417.87	38.706
418.22	38.685
418.58	38.575
418.93	38.504
419.29	37.767
419.64	39.070
420.00	38.943
420.35	38.794
420.71	38.956
421.06	39.527
421.42	39.286
421.77	39.028
422.12	39.228
422.48	37.627
422.83	38.781
423.19	38.920
423.54	38.444
423.90	39.098
424.25	38.462
424.61	40.169
424.96	40.726
425.31	39.296
425.67	39.198
426.02	39.185
426.38	39.504
426.73	40.736
427.09	40.074
427.44	39.716
427.79	40.349
428.15	39.198
428.50	40.176
428.85	39.808
429.21	39.624
429.56	40.052
429.92	40.381
430.27	40.179
430.62	40.334
430.98	39.519
431.33	41.249
431.68	41.019
432.04	40.851
432.39	40.684
432.74	40.947
433.10	40.630
433.45	39.609
433.80	41.937
434.16	41.107
434.51	41.644
434.86	42.179
435.22	41.648
435.57	40.636
435.92	42.028
436.28	42.196
436.63	40.531
436.98	40.893
437.34	41.701
437.69	41.249
438.04	41.407
438.39	42.780
438.75	41.269
439.10	40.200
439.45	41.521
439.81	40.904
440.16	42.135
440.51	42.059
440.86	43.725
441.22	40.133
441.57	41.684
441.92	41.841
442.27	42.478
442.63	42.060
442.98	40.914
443.33	42.339
443.68	42.470
444.03	41.650
444.39	42.291
444.74	43.392
445.09	42.105
445.44	42.994
445.79	42.580
446.15	43.264
446.50	41.698
446.85	42.432
447.20	42.543
447.55	43.094
447.91	43.403
448.26	42.402
448.61	42.445
448.96	43.473
449.31	41.545
449.66	43.389
450.02	41.440
450.37	41.623
450.72	42.373
451.07	45.443
451.42	42.565
451.77	43.268
452.12	43.147
452.47	42.191
452.83	43.856
453.18	44.908
453.53	43.097
453.88	44.199
454.23	42.624
454.58	43.816
454.93	43.892
455.28	43.276
455.63	43.796
455.98	45.181
456.34	42.376
456.69	44.465
457.04	43.762
457.39	42.524
457.74	43.532
458.09	43.619
458.44	43.822
458.79	43.049
459.14	44.609
459.49	44.642
459.84	44.238
460.19	45.286
460.54	43.739
460.89	44.002
461.24	43.594
461.59	43.025
461.94	44.558
462.29	45.444
462.64	45.059
462.99	46.586
463.34	43.147
463.69	44.720
464.04	43.937
464.39	43.668
464.74	43.913
465.09	42.995
465.44	45.121
465.79	44.444
466.14	45.282
466.49	44.790
466.84	44.358
467.19	43.828
467.54	43.608
467.89	44.945
468.24	45.012
468.59	44.847
468.94	44.887
469.29	44.769
469.64	43.733
469.99	44.632
470.34	45.959
470.68	45.276
471.03	45.286
471.38	44.653
471.73	46.014
472.08	45.181
472.43	45.624
472.78	45.533
473.13	45.394
473.48	44.990
473.83	43.983
474.17	45.860
474.52	47.251
474.87	45.629
475.22	45.074
475.57	45.778
475.92	45.356
476.27	44.629
476.61	45.408
476.96	45.221
477.31	46.125
477.66	45.600
478.01	46.083
478.36	46.097
478.70	45.916
479.05	45.917
479.40	45.440
479.75	45.719
480.10	46.081
480.45	45.455
480.79	45.953
481.14	46.463
481.49	46.370
481.84	45.446
482.19	45.729
482.53	46.070
482.88	44.756
483.23	45.540
483.58	45.606
483.92	46.393
484.27	44.750
484.62	46.177
484.97	44.817
485.31	44.000
485.66	42.251
486.01	43.051
486.36	44.402
486.70	45.522
487.05	45.196
487.40	44.845
487.75	44.919
488.09	44.565
488.44	44.892
488.79	45.950
489.13	45.226
489.48	46.248
489.83	46.725
490.17	45.973
490.52	46.694
490.87	45.727
491.22	46.333
491.56	47.269
491.91	46.947
492.26	46.368
492.60	46.099
492.95	45.597
493.30	46.641
493.64	46.403
493.99	46.080
494.34	47.238
494.68	46.957
495.03	46.606
495.37	47.591
495.72	47.642
496.07	46.645
496.41	47.290
496.76	46.119
497.11	47.056
497.45	47.318
497.80	47.074
498.14	46.415
498.49	48.217
498.84	46.505
499.18	47.320
499.53	46.956
499.87	46.332
500.22	47.108
500.56	47.424
500.91	46.502
501.26	47.065
501.60	46.798
501.95	47.536
502.29	46.717
502.64	48.091
502.98	46.574
503.33	46.805
503.67	47.605
504.02	46.789
504.36	48.088
504.71	47.011
505.06	47.279
505.40	47.754
505.75	46.697
506.09	46.866
506.44	47.719
506.78	47.767
507.13	46.138
507.47	47.626
507.82	47.496
508.16	48.549
508.51	48.274
508.85	47.878
509.19	47.096
509.54	47.463
509.88	48.191
510.23	48.218
510.57	48.677
510.92	49.033
511.26	47.528
511.61	48.272
511.95	48.653
512.30	49.093
512.64	48.859
512.98	47.635
513.33	48.325
513.67	48.185
514.02	48.434
514.36	46.814
514.70	47.595
515.05	47.570
515.39	48.674
515.74	50.204
516.08	47.147
516.42	47.649
516.77	49.047
517.11	48.455
517.46	49.282
517.80	50.120
518.14	49.758
518.49	48.715
518.83	47.893
519.17	47.425
519.52	48.062
519.86	49.701
520.20	49.694
520.55	48.431
520.89	48.403
521.23	49.206
521.58	48.903
521.92	49.715
522.26	50.032
522.61	48.796
522.95	49.075
523.29	49.154
523.64	47.970
523.98	49.459
524.32	49.277
524.66	47.826
525.01	49.133
525.35	49.098
525.69	49.902
526.04	49.347
526.38	48.822
526.72	48.340
527.06	48.698
527.41	49.109
527.75	48.449
528.09	49.768
528.43	48.787
528.78	48.869
529.12	50.640
529.46	49.549
529.80	49.258
530.15	50.032
530.49	49.741
530.83	49.378
531.17	49.158
531.51	49.096
531.86	48.716
532.20	48.448
532.54	49.465
532.88	47.299
533.22	49.465
533.57	47.977
533.91	47.753
534.25	48.083
534.59	47.408
534.93	48.040
535.27	47.766
535.62	48.465
535.96	48.998
536.30	48.298
536.64	48.871
536.98	50.282
537.32	48.169
537.66	49.151
538.01	49.072
538.35	48.243
538.69	49.198
539.03	47.935
539.37	48.969
539.71	47.965
540.05	48.526
540.39	48.892
540.73	49.827
541.07	48.566
541.42	47.603
541.76	46.977
542.10	48.751
542.44	48.235
542.78	48.372
543.12	49.084
543.46	47.055
543.80	47.692
544.14	47.280
544.48	49.016
544.82	48.376
545.16	48.692
545.50	47.510
545.84	48.331
546.18	47.712
546.52	49.004
546.86	48.647
547.20	49.297
547.54	46.350
547.88	46.981
548.22	46.855
548.56	47.094
548.90	46.765
549.24	47.933
549.58	47.424
549.92	48.975
550.26	48.049
550.60	47.866
550.94	48.394
551.28	47.705
551.62	48.818
551.96	48.698
552.30	48.850
552.64	48.065
552.98	48.213
553.32	48.413
553.66	48.810
554.00	48.330
554.34	48.375
554.68	46.418
555.02	48.119
555.36	47.592
555.69	46.920
556.03	46.807
556.37	47.511
556.71	48.175
557.05	49.002
557.39	46.993
557.73	48.796
558.07	49.284
558.41	47.569
558.75	47.757
559.08	47.626
559.42	47.550
559.76	49.617
560.10	49.142
560.44	48.627
560.78	48.365
561.12	47.895
561.45	47.877
561.79	47.596
562.13	46.213
562.47	46.359
562.81	47.666
563.15	47.236
563.48	47.892
563.82	46.518
564.16	48.141
564.50	47.513
564.84	46.759
565.17	47.215
565.51	47.066
565.85	47.938
566.19	47.628
566.52	48.010
566.86	45.828
567.20	47.094
567.54	47.017
567.88	45.952
568.21	45.917
568.55	44.486
568.89	43.986
569.23	44.516
569.56	43.464
569.90	43.588
570.24	43.931
570.57	42.566
570.91	43.081
571.25	41.991
571.59	42.304
571.92	41.548
572.26	42.301
572.60	42.476
572.93	41.592
573.27	41.738
573.61	41.382
573.95	41.219
574.28	40.782
574.62	41.993
574.96	40.678
575.29	41.209
575.63	41.120
575.97	41.046
576.30	40.861
576.64	40.653
576.98	40.955
577.31	41.263
577.65	40.886
577.98	41.001
578.32	40.160
578.66	40.836
578.99	41.533
579.33	40.668
579.67	40.654
580.00	40.476
580.34	40.582
580.67	41.334
581.01	39.968
581.35	41.006
581.68	39.714
582.02	41.032
582.35	40.434
582.69	41.135
583.02	40.937
583.36	40.705
583.70	40.809
584.03	40.517
584.37	41.245
584.70	41.237
585.04	40.481
585.37	40.430
585.71	40.276
586.04	41.109
586.38	40.257
586.72	41.319
587.05	40.725
587.39	40.836
587.72	40.430
588.06	40.605
588.39	41.156
588.73	40.525
589.06	41.081
589.40	42.150
589.73	41.466
590.07	41.733
590.40	41.033
590.73	41.983
591.07	41.434
591.40	41.984
591.74	42.572
592.07	42.387
592.41	42.123
592.74	41.545
593.08	41.366
593.41	40.954
593.75	39.697
594.08	41.229
594.41	41.109
594.75	41.563
595.08	41.391
595.42	42.052
595.75	40.867
596.09	42.026
596.42	42.185
596.75	42.087
597.09	43.321
597.42	41.554
597.75	42.516
598.09	42.341
598.42	41.980
598.76	41.154
599.09	41.121
599.42	40.561
599.76	40.695
600.09	40.611
600.42	41.550
600.76	41.356
601.09	40.676
601.42	41.156
601.76	41.706
602.09	41.554
602.42	41.029
602.76	41.545
603.09	41.331
603.42	40.733
603.76	41.723
604.09	41.009
604.42	40.841
604.76	41.343
605.09	41.501
605.42	41.977
605.75	42.173
606.09	40.349
606.42	40.804
606.75	40.790
607.09	42.126
607.42	42.782
607.75	41.413
608.08	41.392
608.42	42.100
608.75	41.402
609.08	41.257
609.41	42.352
609.75	41.199
610.08	42.157
610.41	41.494
610.74	43.472
611.07	42.292
611.41	42.007
611.74	41.954
612.07	43.716
612.40	42.271
612.73	42.380
613.07	42.102
613.40	42.365
613.73	42.289
614.06	42.284
614.39	42.897
614.72	42.626
615.06	42.065
615.39	42.105
615.72	42.966
616.05	41.800
616.38	43.355
616.71	43.844
617.05	43.004
617.38	43.715
617.71	42.568
618.04	43.168
618.37	43.899
618.70	42.960
619.03	42.586
619.36	43.411
619.69	44.365
620.03	42.631
620.36	43.249
620.69	44.724
621.02	43.988
621.35	44.839
621.68	45.246
622.01	44.498
622.34	44.332
622.67	44.063
623.00	43.688
623.33	44.776
623.66	43.722
623.99	44.211
624.32	44.792
624.65	44.077
624.99	43.764
625.32	43.638
625.65	44.444
625.98	43.584
626.31	45.351
626.64	44.351
626.97	45.805
627.30	44.170
627.63	43.351
627.96	46.649
628.29	45.404
628.62	45.654
628.95	46.457
629.28	45.113
629.61	46.418
629.94	46.503
630.26	47.217
630.59	46.734
630.92	47.848
631.25	46.371
631.58	46.772
631.91	46.277
632.24	48.000
632.57	49.444
632.90	47.241
633.23	47.079
633.56	48.421
633.89	47.642
634.22	47.107
634.55	47.957
