SpectraSuite Data File
++++++++++++++++++++++++++++++++++++
Date: Sat May 16 11:30:42 PDT 2015
User: schluterlab
Dark Spectrum Present: Yes
Reference Spectrum Present: Yes
Number of Sampled Component Spectra: 1
Spectrometers: USB2E3373
Integration Time (usec): 3000 (USB2E3373)
Spectra Averaged: 3 (USB2E3373)
Boxcar Smoothing: 0 (USB2E3373)
Correct for Electrical Dark: No (USB2E3373)
Strobe/Lamp Enabled: No (USB2E3373)
Correct for Detector Non-linearity: No (USB2E3373)
Correct for Stray Light: No (USB2E3373)
Number of Pixels in Processed Spectrum: 2048
>>>>>Begin Processed Spectral Data<<<<<
178.53	0.000
178.91	146.667
179.29	400.000
179.67	-700.000
180.04	-30.769
180.42	1200.000
180.80	400.000
181.18	250.000
181.56	-125.000
181.94	1300.000
182.31	550.000
182.69	-76.923
183.07	-566.667
183.45	1300.000
183.83	700.000
184.20	-314.286
184.58	-112.500
184.96	-200.000
185.34	156.250
185.72	-525.000
186.09	266.667
186.47	-187.500
186.85	-87.500
187.23	-100.000
187.61	-275.000
187.98	-337.500
188.36	-125.000
188.74	-150.000
189.12	900.000
189.49	200.000
189.87	-91.667
190.25	200.000
190.63	-92.857
191.00	-166.667
191.38	320.000
191.76	-60.000
192.14	520.000
192.51	-280.000
192.89	-533.333
193.27	0.000
193.65	-77.778
194.02	-228.571
194.40	333.333
194.78	-110.000
195.15	-800.000
195.53	-200.000
195.91	-533.333
196.29	160.000
196.66	-300.000
197.04	2100.000
197.42	-275.000
197.79	-33.333
198.17	-433.333
198.55	-650.000
198.92	-2000.000
199.30	175.000
199.68	-600.000
200.05	-88.889
200.43	-177.778
200.81	-1000.000
201.18	-66.667
201.56	214.286
201.94	-73.333
202.31	9.091
202.69	-20.000
203.07	-170.000
203.44	833.333
203.82	-283.333
204.19	-300.000
204.57	-150.000
204.95	-800.000
205.32	-6.250
205.70	1300.000
206.08	-1600.000
206.45	-38.889
206.83	-800.000
207.20	-50.000
207.58	-900.000
207.96	-500.000
208.33	-112.500
208.71	-211.111
209.08	250.000
209.46	-171.429
209.84	1300.000
210.21	0.000
210.59	-5.000
210.96	1400.000
211.34	-233.333
211.71	-366.667
212.09	25.000
212.46	850.000
212.84	-2100.000
213.22	500.000
213.59	125.000
213.97	-100.000
214.34	110.000
214.72	-100.000
215.09	-366.667
215.47	-200.000
215.84	-150.000
216.22	-40.000
216.59	-60.000
216.97	-400.000
217.34	1000.000
217.72	-142.857
218.09	-350.000
218.47	-285.714
218.84	128.571
219.22	-142.857
219.59	0.000
219.97	271.429
220.34	725.000
220.72	362.500
221.09	-69.231
221.47	0.000
221.84	33.333
222.22	-250.000
222.59	2000.000
222.97	-50.000
223.34	-950.000
223.72	-200.000
224.09	-64.286
224.46	-200.000
224.84	-28.571
225.21	-271.429
225.59	-163.636
225.96	-187.500
226.34	-85.714
226.71	-222.222
227.08	-25.000
227.46	1700.000
227.83	-257.143
228.21	-75.000
228.58	200.000
228.95	-12.500
229.33	-1600.000
229.70	-480.000
230.08	-850.000
230.45	-50.000
230.82	-50.000
231.20	-2000.000
231.57	-1150.000
231.95	1500.000
232.32	-23.810
232.69	-33.333
233.07	-114.286
233.44	-1200.000
233.81	-86.667
234.19	-133.333
234.56	-62.500
234.93	-3.125
235.31	-242.857
235.68	-178.571
236.05	-35.294
236.43	-59.091
236.80	-48.387
237.17	-16.667
237.55	-28.571
237.92	-100.000
238.29	-28.571
238.67	-14.706
239.04	-44.444
239.41	-67.742
239.79	-48.718
240.16	-47.619
240.53	-23.636
240.91	-10.256
241.28	-12.727
241.65	-3.077
242.02	-18.033
242.40	-34.426
242.77	-15.152
243.14	-28.814
243.51	-21.429
243.89	-22.785
244.26	-12.360
244.63	-11.579
245.00	-16.842
245.38	4.237
245.75	0.885
246.12	-11.200
246.49	-6.299
246.87	-13.821
247.24	-12.712
247.61	-16.949
247.98	-9.859
248.36	-6.993
248.73	-2.532
249.10	-11.465
249.47	-5.848
249.84	-6.818
250.22	-14.286
250.59	2.825
250.96	-6.806
251.33	-1.422
251.70	-5.288
252.08	-3.791
252.45	-9.479
252.82	-6.667
253.19	-4.255
253.56	-4.435
253.94	-7.173
254.31	-7.725
254.68	-0.813
255.05	-8.065
255.42	-3.175
255.79	-7.885
256.16	-3.922
256.54	-1.471
256.91	-7.576
257.28	-7.326
257.65	-4.255
258.02	1.887
258.39	-3.344
258.76	-5.068
259.14	-4.321
259.51	-1.967
259.88	-1.220
260.25	-3.727
260.62	-4.180
260.99	-2.967
261.36	-1.829
261.73	-1.445
262.10	-1.389
262.47	-2.564
262.85	1.143
263.22	-3.152
263.59	-4.615
263.96	-2.609
264.33	-1.355
264.70	-2.486
265.07	-3.571
265.44	-2.067
265.81	-2.326
266.18	-5.823
266.55	0.245
266.92	-3.275
267.29	-2.179
267.66	-4.444
268.03	1.691
268.40	-0.939
268.77	-1.446
269.14	-1.392
269.51	-0.460
269.88	-2.064
270.25	-2.098
270.62	-0.686
270.99	-0.901
271.36	-3.263
271.73	-1.794
272.10	-3.432
272.47	-1.111
272.84	-2.000
273.21	-0.459
273.58	-3.956
273.95	-0.658
274.32	-0.905
274.69	-0.656
275.06	0.818
275.43	-1.339
275.80	0.407
276.17	-0.837
276.54	-0.815
276.91	-1.852
277.28	-1.014
277.65	-0.826
278.02	-3.549
278.39	-0.589
278.76	0.199
279.13	0.000
279.50	-2.386
279.87	-1.480
280.23	0.607
280.60	-2.584
280.97	-3.495
281.34	-1.741
281.71	0.577
282.08	-0.403
282.45	-2.648
282.82	-3.488
283.19	-1.091
283.56	0.183
283.92	-1.590
284.29	-1.673
284.66	-0.540
285.03	1.961
285.40	-0.185
285.77	1.754
286.14	-1.986
286.51	-2.664
286.87	-0.907
287.24	-1.195
287.61	-1.322
287.98	-1.733
288.35	-2.149
288.72	-1.528
289.08	-1.186
289.45	-1.178
289.82	-2.941
290.19	-0.821
290.56	-2.479
290.93	-0.159
291.29	-1.621
291.66	-1.127
292.03	0.157
292.40	-0.904
292.77	-0.932
293.13	-1.789
293.50	0.297
293.87	-2.147
294.24	1.207
294.60	-3.939
294.97	-0.607
295.34	-1.481
295.71	-0.893
296.08	-1.997
296.44	-1.574
296.81	0.997
297.18	0.000
297.55	0.424
297.91	0.418
298.28	-0.411
298.65	-2.371
299.02	2.941
299.38	-0.936
299.75	-0.408
300.12	-0.256
300.48	-0.767
300.85	-0.786
301.22	0.000
301.59	-0.520
301.95	0.378
302.32	-1.565
302.69	-0.245
303.05	0.000
303.42	-1.750
303.79	-0.718
304.15	-0.474
304.52	0.933
304.89	0.236
305.25	-0.488
305.62	-0.118
305.99	1.649
306.35	0.666
306.72	-1.367
307.09	0.341
307.45	-0.795
307.82	-0.670
308.19	-1.119
308.55	0.871
308.92	-0.752
309.29	-0.108
309.65	0.636
310.02	1.188
310.38	-0.216
310.75	0.410
311.12	1.343
311.48	1.253
311.85	0.206
312.22	0.927
312.58	1.729
312.95	1.121
313.31	0.300
313.68	2.312
314.05	1.583
314.41	-0.905
314.78	0.100
315.14	1.086
315.51	0.811
315.87	2.420
316.24	0.486
316.61	1.727
316.97	2.090
317.34	1.541
317.70	0.835
318.07	2.519
318.43	1.311
318.80	3.005
319.16	0.938
319.53	1.974
319.89	1.693
320.26	1.078
320.62	0.673
320.99	2.587
321.35	0.591
321.72	1.331
322.08	1.583
322.45	0.990
322.81	2.690
323.18	2.305
323.54	2.495
323.91	1.761
324.27	2.091
324.64	2.834
325.00	3.141
325.37	2.172
325.73	4.024
326.10	1.240
326.46	3.065
326.83	3.064
327.19	3.586
327.56	3.833
327.92	3.398
328.29	3.636
328.65	3.182
329.01	3.975
329.38	3.657
329.74	3.938
330.11	3.717
330.47	3.451
330.84	4.216
331.20	3.430
331.56	2.826
331.93	3.908
332.29	4.292
332.66	3.687
333.02	3.439
333.38	3.584
333.75	4.898
334.11	4.533
334.48	3.354
334.84	5.249
335.20	4.521
335.57	4.061
335.93	5.372
336.29	5.226
336.66	3.348
337.02	4.505
337.38	4.991
337.75	4.478
338.11	4.293
338.47	5.872
338.84	3.176
339.20	3.866
339.56	5.615
339.93	4.145
340.29	3.454
340.65	3.584
341.02	5.902
341.38	4.044
341.74	5.250
342.11	3.925
342.47	4.378
342.83	3.946
343.20	4.697
343.56	3.918
343.92	6.010
344.28	5.214
344.65	4.620
345.01	4.538
345.37	5.648
345.73	4.255
346.10	3.679
346.46	4.793
346.82	4.812
347.19	3.369
347.55	3.531
347.91	4.803
348.27	3.739
348.63	5.735
349.00	5.091
349.36	4.372
349.72	5.096
350.08	5.694
350.45	4.255
350.81	4.857
351.17	4.100
351.53	3.978
351.89	4.608
352.26	5.891
352.62	5.684
352.98	4.984
353.34	5.116
353.70	4.865
354.07	5.193
354.43	5.296
354.79	4.675
355.15	3.914
355.51	4.922
355.87	4.901
356.24	5.004
356.60	6.366
356.96	5.543
357.32	4.830
357.68	4.521
358.04	6.082
358.40	4.950
358.77	4.637
359.13	5.585
359.49	5.140
359.85	5.107
360.21	6.012
360.57	6.476
360.93	5.852
361.29	5.381
361.66	5.107
362.02	5.251
362.38	6.016
362.74	5.495
363.10	5.739
363.46	6.054
363.82	5.612
364.18	5.716
364.54	6.791
364.90	5.730
365.26	6.134
365.62	6.130
365.98	6.543
366.35	6.127
366.71	5.920
367.07	5.787
367.43	7.824
367.79	7.010
368.15	5.263
368.51	6.713
368.87	7.074
369.23	6.877
369.59	6.111
369.95	7.611
370.31	6.399
370.67	6.074
371.03	6.778
371.39	6.365
371.75	6.652
372.11	6.743
372.47	7.592
372.83	7.580
373.19	7.429
373.55	7.811
373.91	7.397
374.27	6.708
374.63	6.694
374.99	7.510
375.35	7.335
375.71	8.440
376.07	7.050
376.42	6.623
376.78	7.516
377.14	7.322
377.50	8.188
377.86	8.388
378.22	7.726
378.58	8.091
378.94	8.076
379.30	8.227
379.66	8.804
380.02	8.734
380.38	8.338
380.74	8.617
381.09	8.729
381.45	8.890
381.81	8.288
382.17	8.333
382.53	8.693
382.89	9.450
383.25	9.031
383.61	9.552
383.97	9.859
384.32	8.886
384.68	10.218
385.04	9.118
385.40	9.556
385.76	9.268
386.12	10.056
386.48	10.396
386.83	10.368
387.19	10.520
387.55	10.236
387.91	10.373
388.27	9.530
388.62	10.337
388.98	10.721
389.34	10.832
389.70	11.389
390.06	10.690
390.42	10.962
390.77	10.536
391.13	11.615
391.49	10.855
391.85	11.783
392.20	10.680
392.56	11.423
392.92	12.037
393.28	11.998
393.64	11.666
393.99	12.062
394.35	11.192
394.71	11.365
395.07	10.986
395.42	11.561
395.78	11.502
396.14	12.274
396.50	12.049
396.85	10.919
397.21	12.394
397.57	11.368
397.92	12.237
398.28	12.556
398.64	12.314
399.00	13.034
399.35	12.740
399.71	12.602
400.07	13.313
400.42	13.382
400.78	12.284
401.14	12.635
401.49	12.441
401.85	12.996
402.21	12.872
402.57	13.228
402.92	12.461
403.28	12.745
403.63	12.642
403.99	12.927
404.35	12.923
404.70	13.166
405.06	13.149
405.42	12.423
405.77	13.518
406.13	12.323
406.49	13.361
406.84	13.017
407.20	13.722
407.55	14.250
407.91	13.083
408.27	14.032
408.62	13.951
408.98	13.159
409.34	13.650
409.69	13.674
410.05	14.433
410.40	13.305
410.76	14.345
411.11	13.778
411.47	13.939
411.83	14.731
412.18	14.356
412.54	13.789
412.89	14.459
413.25	13.754
413.60	13.730
413.96	12.754
414.31	14.618
414.67	13.460
415.03	13.907
415.38	14.704
415.74	14.755
416.09	14.770
416.45	13.823
416.80	15.085
417.16	13.953
417.51	14.708
417.87	13.463
418.22	14.602
418.58	15.083
418.93	14.899
419.29	15.370
419.64	14.070
420.00	14.338
420.35	15.139
420.71	14.586
421.06	14.852
421.42	14.696
421.77	14.908
422.12	15.277
422.48	15.179
422.83	15.433
423.19	14.922
423.54	14.986
423.90	15.211
424.25	15.441
424.61	15.139
424.96	15.389
425.31	15.595
425.67	14.728
426.02	15.204
426.38	15.306
426.73	15.722
427.09	16.667
427.44	16.023
427.79	15.523
428.15	15.560
428.50	15.425
428.85	15.947
429.21	15.883
429.56	16.510
429.92	16.283
430.27	16.351
430.62	16.510
430.98	16.257
431.33	16.489
431.68	17.319
432.04	16.060
432.39	16.638
432.74	15.947
433.10	16.714
433.45	16.350
433.80	15.957
434.16	16.658
434.51	17.315
434.86	16.872
435.22	16.592
435.57	16.340
435.92	17.057
436.28	16.914
436.63	16.507
436.98	16.724
437.34	17.247
437.69	16.103
438.04	16.733
438.39	17.449
438.75	16.531
439.10	16.546
439.45	16.777
439.81	17.229
440.16	16.922
440.51	18.118
440.86	17.004
441.22	16.252
441.57	18.526
441.92	17.698
442.27	17.749
442.63	17.382
442.98	16.535
443.33	17.463
443.68	17.196
444.03	16.994
444.39	17.915
444.74	17.401
445.09	17.599
445.44	17.783
445.79	17.950
446.15	18.018
446.50	16.821
446.85	17.291
447.20	17.467
447.55	17.956
447.91	18.922
448.26	17.765
448.61	17.261
448.96	17.927
449.31	17.700
449.66	17.630
450.02	17.895
450.37	17.217
450.72	17.740
451.07	18.290
451.42	17.658
451.77	18.013
452.12	17.580
452.47	18.136
452.83	18.113
453.18	17.837
453.53	18.035
453.88	18.481
454.23	17.291
454.58	18.397
454.93	18.577
455.28	17.655
455.63	19.042
455.98	17.831
456.34	17.281
456.69	18.449
457.04	18.931
457.39	18.600
457.74	18.370
458.09	18.503
458.44	17.841
458.79	18.274
459.14	18.311
459.49	19.065
459.84	18.606
460.19	18.198
460.54	18.512
460.89	18.442
461.24	17.608
461.59	18.171
461.94	18.905
462.29	18.940
462.64	18.775
462.99	19.143
463.34	18.163
463.69	18.193
464.04	17.399
464.39	17.802
464.74	18.144
465.09	17.859
465.44	17.879
465.79	18.613
466.14	18.930
466.49	18.883
466.84	18.607
467.19	18.766
467.54	18.101
467.89	18.187
468.24	18.468
468.59	19.113
468.94	19.035
469.29	18.454
469.64	19.205
469.99	19.649
470.34	19.840
470.68	19.113
471.03	19.752
471.38	18.889
471.73	20.909
472.08	19.210
472.43	19.112
472.78	19.333
473.13	17.893
473.48	19.272
473.83	19.045
474.17	18.854
474.52	19.949
474.87	18.881
475.22	19.410
475.57	18.889
475.92	19.708
476.27	19.371
476.61	19.662
476.96	19.508
477.31	19.322
477.66	19.978
478.01	20.151
478.36	19.225
478.70	19.915
479.05	20.335
479.40	20.052
479.75	19.725
480.10	19.841
480.45	19.632
480.79	19.793
481.14	20.321
481.49	19.652
481.84	19.325
482.19	19.050
482.53	20.786
482.88	19.601
483.23	20.094
483.58	20.490
483.92	20.736
484.27	19.273
484.62	19.741
484.97	19.447
485.31	19.296
485.66	18.890
486.01	18.805
486.36	19.267
486.70	19.618
487.05	19.436
487.40	19.631
487.75	18.894
488.09	18.561
488.44	19.046
488.79	19.066
489.13	19.437
489.48	19.739
489.83	19.607
490.17	19.983
490.52	20.471
490.87	20.139
491.22	19.710
491.56	19.630
491.91	19.609
492.26	19.764
492.60	19.933
492.95	20.276
493.30	20.200
493.64	20.545
493.99	20.029
494.34	20.524
494.68	20.506
495.03	19.120
495.37	20.108
495.72	20.629
496.07	20.601
496.41	20.102
496.76	20.365
497.11	20.207
497.45	21.312
497.80	20.660
498.14	20.530
498.49	19.940
498.84	20.194
499.18	21.101
499.53	19.971
499.87	19.595
500.22	20.294
500.56	20.460
500.91	20.640
501.26	20.961
501.60	20.366
501.95	21.304
502.29	20.359
502.64	20.745
502.98	19.837
503.33	20.301
503.67	19.732
504.02	19.797
504.36	20.784
504.71	20.162
505.06	20.120
505.40	20.808
505.75	20.224
506.09	21.739
506.44	20.802
506.78	20.672
507.13	20.443
507.47	21.596
507.82	20.702
508.16	20.570
508.51	19.938
508.85	21.222
509.19	20.984
509.54	21.300
509.88	21.543
510.23	22.117
510.57	22.381
510.92	21.536
511.26	21.159
511.61	21.598
511.95	21.713
512.30	21.440
512.64	20.924
512.98	22.002
513.33	21.691
513.67	21.831
514.02	22.092
514.36	21.939
514.70	21.845
515.05	22.241
515.39	22.434
515.74	23.095
516.08	22.882
516.42	23.116
516.77	22.761
517.11	22.597
517.46	23.923
517.80	22.924
518.14	22.886
518.49	22.534
518.83	22.552
519.17	23.031
519.52	23.135
519.86	22.581
520.20	23.105
520.55	23.015
520.89	22.229
521.23	24.115
521.58	22.445
521.92	23.116
522.26	23.810
522.61	23.004
522.95	22.910
523.29	23.260
523.64	22.174
523.98	23.743
524.32	23.759
524.66	22.360
525.01	23.507
525.35	23.711
525.69	23.162
526.04	23.499
526.38	24.125
526.72	22.414
527.06	23.958
527.41	23.696
527.75	23.366
528.09	23.163
528.43	24.656
528.78	22.927
529.12	24.712
529.46	23.260
529.80	23.693
530.15	23.760
530.49	23.868
530.83	24.296
531.17	23.973
531.51	24.180
531.86	23.239
532.20	24.561
532.54	24.866
532.88	23.781
533.22	23.930
533.57	23.825
533.91	21.723
534.25	22.690
534.59	22.548
534.93	23.086
535.27	23.663
535.62	23.849
535.96	23.400
536.30	23.168
536.64	24.303
536.98	24.506
537.32	23.359
537.66	22.743
538.01	24.261
538.35	23.986
538.69	22.861
539.03	23.764
539.37	24.019
539.71	23.549
540.05	22.892
540.39	23.961
540.73	23.912
541.07	24.454
541.42	22.417
541.76	22.326
542.10	24.308
542.44	24.117
542.78	23.948
543.12	23.286
543.46	22.603
543.80	22.742
544.14	22.163
544.48	23.622
544.82	22.395
545.16	22.871
545.50	22.207
545.84	23.505
546.18	23.370
546.52	23.969
546.86	23.077
547.20	23.136
547.54	22.176
547.88	22.893
548.22	22.215
548.56	22.979
548.90	23.787
549.24	22.285
549.58	23.430
549.92	23.392
550.26	23.699
550.60	23.471
550.94	23.869
551.28	23.853
551.62	23.191
551.96	23.444
552.30	22.578
552.64	22.871
552.98	23.546
553.32	22.367
553.66	24.369
554.00	23.881
554.34	22.310
554.68	22.515
555.02	23.806
555.36	23.005
555.69	23.424
556.03	23.509
556.37	22.973
556.71	23.908
557.05	23.503
557.39	22.940
557.73	24.508
558.07	22.833
558.41	23.934
558.75	23.422
559.08	23.035
559.42	23.047
559.76	23.236
560.10	24.459
560.44	24.133
560.78	23.521
561.12	23.326
561.45	23.219
561.79	22.927
562.13	23.001
562.47	22.969
562.81	21.924
563.15	22.953
563.48	23.151
563.82	24.273
564.16	22.448
564.50	22.984
564.84	22.222
565.17	22.613
565.51	22.099
565.85	22.786
566.19	22.266
566.52	22.766
566.86	21.871
567.20	23.002
567.54	22.918
567.88	22.390
568.21	21.532
568.55	22.004
568.89	22.167
569.23	21.472
569.56	21.227
569.90	21.518
570.24	21.233
570.57	20.176
570.91	20.877
571.25	21.628
571.59	20.855
571.92	20.893
572.26	20.911
572.60	21.036
572.93	20.347
573.27	20.244
573.61	20.132
573.95	20.543
574.28	20.171
574.62	20.717
574.96	20.489
575.29	19.995
575.63	19.963
575.97	19.822
576.30	20.197
576.64	20.000
576.98	20.055
577.31	19.809
577.65	20.130
577.98	20.116
578.32	19.806
578.66	19.876
578.99	20.086
579.33	19.894
579.67	19.934
580.00	19.841
580.34	19.496
580.67	19.858
581.01	19.378
581.35	20.029
581.68	19.370
582.02	19.809
582.35	19.452
582.69	19.823
583.02	19.695
583.36	19.519
583.70	19.816
584.03	19.531
584.37	20.000
584.70	19.588
585.04	19.544
585.37	19.069
585.71	19.739
586.04	20.238
586.38	19.300
586.72	20.209
587.05	20.391
587.39	19.913
587.72	20.281
588.06	20.165
588.39	20.279
588.73	20.066
589.06	20.237
589.40	20.577
589.73	20.220
590.07	20.503
590.40	20.849
590.73	20.632
591.07	20.451
591.40	20.927
591.74	20.591
592.07	20.090
592.41	19.915
592.74	20.177
593.08	20.494
593.41	19.803
593.75	19.288
594.08	20.129
594.41	21.183
594.75	20.310
595.08	20.865
595.42	20.231
595.75	20.507
596.09	20.256
596.42	20.295
596.75	19.836
597.09	20.392
597.42	20.690
597.75	20.859
598.09	20.515
598.42	20.327
598.76	19.892
599.09	19.850
599.42	19.839
599.76	19.743
600.09	20.000
600.42	20.357
600.76	20.490
601.09	20.319
601.42	19.945
601.76	20.288
602.09	20.368
602.42	20.247
602.76	19.776
603.09	20.040
603.42	20.387
603.76	20.503
604.09	20.304
604.42	20.108
604.76	20.017
605.09	20.344
605.42	20.213
605.75	19.922
606.09	20.340
606.42	19.858
606.75	20.137
607.09	20.512
607.42	20.687
607.75	19.691
608.08	20.606
608.42	20.766
608.75	19.673
609.08	19.727
609.41	19.980
609.75	20.624
610.08	20.539
610.41	20.386
610.74	19.923
611.07	20.183
611.41	19.718
611.74	21.234
612.07	20.945
612.40	19.296
612.73	20.679
613.07	20.088
613.40	21.401
613.73	21.144
614.06	20.648
614.39	21.082
614.72	20.112
615.06	20.380
615.39	20.347
615.72	20.858
616.05	20.210
616.38	20.720
616.71	20.360
617.05	21.713
617.38	20.867
617.71	19.595
618.04	20.248
618.37	20.881
618.70	21.838
619.03	19.905
619.36	21.283
619.69	21.464
620.03	21.006
620.36	22.293
620.69	20.818
621.02	21.537
621.35	21.371
621.68	21.148
622.01	21.278
622.34	21.351
622.67	21.328
623.00	21.882
623.33	21.269
623.66	21.640
623.99	22.556
624.32	21.131
624.65	21.192
624.99	21.509
625.32	20.060
625.65	22.145
625.98	21.127
626.31	22.023
626.64	21.172
626.97	21.575
627.30	22.043
627.63	20.380
627.96	23.238
628.29	21.415
628.62	22.254
628.95	23.327
629.28	22.556
629.61	21.492
629.94	22.306
630.26	22.565
630.59	24.623
630.92	23.023
631.25	21.976
631.58	23.069
631.91	21.383
632.24	22.111
632.57	22.222
632.90	22.069
633.23	25.000
633.56	21.404
633.89	22.995
634.22	22.550
634.55	22.837
634.88	22.975
635.20	21.223
635.53	22.392
635.86	21.285
636.19	23.565
