SpectraSuite Data File
++++++++++++++++++++++++++++++++++++
Date: Sat May 16 11:39:48 PDT 2015
User: schluterlab
Dark Spectrum Present: Yes
Reference Spectrum Present: Yes
Number of Sampled Component Spectra: 1
Spectrometers: USB2E3373
Integration Time (usec): 3000 (USB2E3373)
Spectra Averaged: 3 (USB2E3373)
Boxcar Smoothing: 0 (USB2E3373)
Correct for Electrical Dark: No (USB2E3373)
Strobe/Lamp Enabled: No (USB2E3373)
Correct for Detector Non-linearity: No (USB2E3373)
Correct for Stray Light: No (USB2E3373)
Number of Pixels in Processed Spectrum: 2048
>>>>>Begin Processed Spectral Data<<<<<
178.53	0.000
178.91	153.333
179.29	533.333
179.67	-2100.000
180.04	-130.769
180.42	1200.000
180.80	275.000
181.18	625.000
181.56	-162.500
181.94	2300.000
182.31	300.000
182.69	-7.692
183.07	-533.333
183.45	1650.000
183.83	633.333
184.20	-357.143
184.58	-150.000
184.96	-200.000
185.34	156.250
185.72	-500.000
186.09	383.333
186.47	-150.000
186.85	-150.000
187.23	-100.000
187.61	-375.000
187.98	-362.500
188.36	-237.500
188.74	-187.500
189.12	1600.000
189.49	528.571
189.87	-66.667
190.25	300.000
190.63	-57.143
191.00	-200.000
191.38	520.000
191.76	-13.333
192.14	580.000
192.51	-100.000
192.89	-600.000
193.27	0.000
193.65	-155.556
194.02	-214.286
194.40	533.333
194.78	-110.000
195.15	-1300.000
195.53	-172.727
195.91	-383.333
196.29	220.000
196.66	-700.000
197.04	2100.000
197.42	-175.000
197.79	-13.333
198.17	-733.333
198.55	-500.000
198.92	-700.000
199.30	225.000
199.68	-600.000
200.05	-266.667
200.43	-222.222
200.81	-1100.000
201.18	-100.000
201.56	257.143
201.94	-153.333
202.31	-40.909
202.69	-30.000
203.07	-120.000
203.44	633.333
203.82	-383.333
204.19	-275.000
204.57	-550.000
204.95	-900.000
205.32	-50.000
205.70	2200.000
206.08	-1400.000
206.45	-22.222
206.83	-900.000
207.20	150.000
207.58	-666.667
207.96	-566.667
208.33	-62.500
208.71	-77.778
209.08	250.000
209.46	-214.286
209.84	1050.000
210.21	0.000
210.59	-15.000
210.96	1600.000
211.34	-400.000
211.71	-500.000
212.09	500.000
212.46	1000.000
212.84	-1200.000
213.22	500.000
213.59	250.000
213.97	-11.111
214.34	150.000
214.72	-110.000
215.09	-666.667
215.47	-133.333
215.84	-80.000
216.22	-170.000
216.59	-73.333
216.97	-625.000
217.34	350.000
217.72	-271.429
218.09	-300.000
218.47	-300.000
218.84	300.000
219.22	14.286
219.59	0.000
219.97	242.857
220.34	500.000
220.72	337.500
221.09	-92.308
221.47	0.000
221.84	533.333
222.22	-250.000
222.59	1200.000
222.97	-262.500
223.34	-1100.000
223.72	-566.667
224.09	-114.286
224.46	-400.000
224.84	-35.714
225.21	-100.000
225.59	-36.364
225.96	-187.500
226.34	-257.143
226.71	-33.333
227.08	-50.000
227.46	3100.000
227.83	-157.143
228.21	-300.000
228.58	400.000
228.95	-62.500
229.33	-2700.000
229.70	-340.000
230.08	-900.000
230.45	-41.667
230.82	-233.333
231.20	-1800.000
231.57	-650.000
231.95	1600.000
232.32	-19.048
232.69	-233.333
233.07	-242.857
233.44	-1100.000
233.81	-80.000
234.19	-200.000
234.56	-56.250
234.93	-21.875
235.31	-471.429
235.68	-164.286
236.05	-58.824
236.43	-81.818
236.80	-32.258
237.17	-62.500
237.55	-52.381
237.92	-86.364
238.29	-28.571
238.67	-2.941
239.04	-44.444
239.41	-64.516
239.79	-46.154
240.16	-50.000
240.53	-36.364
240.91	-5.128
241.28	-10.909
241.65	-16.923
242.02	-36.066
242.40	-14.754
242.77	-28.788
243.14	-30.508
243.51	-17.143
243.89	-16.456
244.26	-23.596
244.63	-5.263
245.00	-12.632
245.38	-9.322
245.75	-7.965
246.12	-1.600
246.49	-2.362
246.87	-12.195
247.24	-9.322
247.61	-12.712
247.98	-8.451
248.36	-13.287
248.73	-10.759
249.10	-9.554
249.47	-7.018
249.84	-4.545
250.22	-21.429
250.59	-0.565
250.96	-8.377
251.33	-4.739
251.70	-3.846
252.08	-2.370
252.45	-12.796
252.82	-8.571
253.19	-5.957
253.56	-5.645
253.94	-5.485
254.31	-6.438
254.68	-3.659
255.05	-4.032
255.42	-1.984
255.79	-5.376
256.16	-3.137
256.54	0.000
256.91	-6.818
257.28	-8.059
257.65	-4.610
258.02	-1.258
258.39	-0.334
258.76	-5.068
259.14	-3.395
259.51	-4.590
259.88	-3.049
260.25	-1.863
260.62	-5.466
260.99	-3.858
261.36	-4.573
261.73	-2.890
262.10	-0.833
262.47	-1.994
262.85	0.000
263.22	-2.579
263.59	-4.923
263.96	-4.348
264.33	-2.168
264.70	-0.552
265.07	-5.220
265.44	-2.584
265.81	-2.326
266.18	-2.785
266.55	-3.676
266.92	0.000
267.29	-3.148
267.66	-3.210
268.03	0.242
268.40	-3.521
268.77	-3.133
269.14	-3.016
269.51	-2.299
269.88	-4.587
270.25	-0.932
270.62	-3.432
270.99	-2.252
271.36	-2.098
271.73	-2.018
272.10	-2.517
272.47	-0.667
272.84	0.889
273.21	-2.523
273.58	-0.440
273.95	-2.193
274.32	-2.036
274.69	-0.438
275.06	-1.431
275.43	-4.018
275.80	0.407
276.17	-3.556
276.54	3.055
276.91	-2.675
277.28	-1.623
277.65	0.000
278.02	-2.505
278.39	-3.143
278.76	-0.797
279.13	-2.767
279.50	-0.398
279.87	-0.846
280.23	-1.417
280.60	-1.988
280.97	-2.913
281.34	-0.774
281.71	-1.154
282.08	-0.202
282.45	-3.666
282.82	-1.938
283.19	-1.455
283.56	-0.366
283.92	-1.060
284.29	-2.788
284.66	-0.360
285.03	-0.357
285.40	-1.107
285.77	-0.877
286.14	-1.264
286.51	-2.309
286.87	-0.181
287.24	-0.171
287.61	-0.826
287.98	-2.253
288.35	-2.314
288.72	-1.698
289.08	-1.017
289.45	-0.337
289.82	-0.519
290.19	0.000
290.56	-1.322
290.93	-1.272
291.29	-0.648
291.66	-0.483
292.03	-0.628
292.40	0.602
292.77	-1.398
293.13	-1.463
293.50	0.892
293.87	0.153
294.24	0.603
294.60	-1.061
294.97	1.214
295.34	-1.037
295.71	-0.149
296.08	-2.611
296.44	-0.858
296.81	-0.855
297.18	-0.563
297.55	0.141
297.91	0.558
298.28	-2.055
298.65	-0.697
299.02	1.337
299.38	-0.267
299.75	0.272
300.12	-0.769
300.48	1.151
300.85	-1.048
301.22	0.517
301.59	-1.040
301.95	1.259
302.32	-1.434
302.69	1.102
303.05	0.977
303.42	-1.750
303.79	0.120
304.15	0.592
304.52	0.817
304.89	0.354
305.25	-0.244
305.62	0.470
305.99	1.060
306.35	0.777
306.72	0.683
307.09	1.476
307.45	0.114
307.82	-0.559
308.19	1.230
308.55	0.109
308.92	-0.430
309.29	0.649
309.65	0.848
310.02	-0.648
310.38	-1.081
310.75	1.230
311.12	2.066
311.48	1.357
311.85	0.515
312.22	0.206
312.58	1.424
312.95	0.102
313.31	1.199
313.68	1.106
314.05	1.780
314.41	0.201
314.78	0.000
315.14	0.395
315.51	0.912
315.87	1.065
316.24	2.332
316.61	2.111
316.97	0.498
317.34	1.734
317.70	0.742
318.07	1.772
318.43	0.655
318.80	2.817
319.16	1.032
319.53	1.974
319.89	0.941
320.26	1.373
320.62	1.154
320.99	1.891
321.35	0.591
321.72	0.512
322.08	1.879
322.45	0.495
322.81	2.017
323.18	2.017
323.54	1.941
323.91	2.224
324.27	2.852
324.64	1.554
325.00	2.792
325.37	3.258
325.73	3.150
326.10	1.506
326.46	1.489
326.83	1.362
327.19	2.836
327.56	3.833
327.92	3.653
328.29	2.165
328.65	0.909
329.01	3.092
329.38	3.657
329.74	3.571
330.11	3.445
330.47	1.817
330.84	4.491
331.20	2.527
331.56	3.099
331.93	2.931
332.29	3.105
332.66	4.302
333.02	3.077
333.38	4.032
333.75	4.274
334.11	2.756
334.48	3.707
334.84	5.074
335.20	4.255
335.57	4.332
335.93	5.192
336.29	4.517
336.66	3.084
337.02	4.505
337.38	3.209
337.75	3.161
338.11	3.667
338.47	4.004
338.84	3.358
339.20	4.218
339.56	5.258
339.93	3.439
340.29	3.012
340.65	3.059
341.02	3.541
341.38	4.128
341.74	3.980
342.11	4.096
342.47	3.519
342.83	4.786
343.20	3.928
343.56	4.000
343.92	3.506
344.28	4.962
344.65	3.465
345.01	2.689
345.37	4.402
345.73	3.355
346.10	2.617
346.46	3.818
346.82	3.448
347.19	3.369
347.55	4.254
347.91	4.488
348.27	3.580
348.63	3.958
349.00	4.535
349.36	3.201
349.72	4.459
350.08	3.368
350.45	3.388
350.81	5.096
351.17	3.457
351.53	2.784
351.89	4.204
352.26	4.884
352.62	5.300
352.98	3.165
353.34	3.837
353.70	4.324
354.07	4.799
354.43	4.743
354.79	4.358
355.15	2.716
355.51	3.672
355.87	3.557
356.24	3.098
356.60	5.641
356.96	4.003
357.32	3.246
357.68	3.831
358.04	3.926
358.40	3.867
358.77	4.405
359.13	4.055
359.49	4.989
359.85	3.963
360.21	4.186
360.57	5.196
360.93	5.481
361.29	4.111
361.66	3.506
362.02	3.402
362.38	4.109
362.74	3.810
363.10	3.945
363.46	5.698
363.82	4.300
364.18	4.559
364.54	5.504
364.90	4.472
365.26	3.709
365.62	5.132
365.98	4.694
366.35	4.085
366.71	3.524
367.07	3.952
367.43	5.903
367.79	4.880
368.15	3.698
368.51	4.825
368.87	5.838
369.23	5.123
369.59	4.306
369.95	4.792
370.31	5.485
370.67	4.121
371.03	4.883
371.39	4.880
371.75	4.578
372.11	4.591
372.47	3.832
372.83	5.355
373.19	5.429
373.55	5.841
373.91	4.694
374.27	4.038
374.63	4.693
374.99	5.772
375.35	4.711
375.71	5.942
376.07	5.749
376.42	4.371
376.78	4.902
377.14	5.424
377.50	5.416
377.86	4.811
378.22	5.339
378.58	5.435
378.94	5.302
379.30	6.033
379.66	5.464
380.02	5.348
380.38	4.532
380.74	5.217
381.09	6.210
381.45	5.609
381.81	5.203
382.17	5.764
382.53	5.532
382.89	6.160
383.25	6.442
383.61	5.542
383.97	5.818
384.32	6.133
384.68	6.530
385.04	6.582
385.40	6.026
385.76	6.890
386.12	6.621
386.48	7.302
386.83	6.871
387.19	7.113
387.55	6.239
387.91	6.461
388.27	5.730
388.62	6.911
388.98	6.723
389.34	5.936
389.70	6.638
390.06	6.899
390.42	6.218
390.77	5.931
391.13	7.516
391.49	6.363
391.85	6.110
392.20	6.553
392.56	6.659
392.92	6.674
393.28	7.463
393.64	6.975
393.99	7.323
394.35	7.056
394.71	7.041
395.07	6.780
395.42	6.019
395.78	6.977
396.14	7.477
396.50	6.789
396.85	7.218
397.21	7.108
397.57	7.538
397.92	7.553
398.28	7.056
398.64	6.722
399.00	7.416
399.35	6.877
399.71	7.491
400.07	6.925
400.42	6.630
400.78	6.559
401.14	6.766
401.49	7.547
401.85	7.138
402.21	6.675
402.57	7.039
402.92	7.552
403.28	7.353
403.63	7.430
403.99	7.458
404.35	7.065
404.70	6.554
405.06	6.632
405.42	7.257
405.77	6.957
406.13	7.836
406.49	6.950
406.84	6.479
407.20	8.481
407.55	7.410
407.91	6.541
408.27	7.598
408.62	7.336
408.98	7.338
409.34	6.886
409.69	6.868
410.05	6.853
410.40	6.928
410.76	7.054
411.11	6.421
411.47	7.417
411.83	7.090
412.18	6.621
412.54	6.589
412.89	7.230
413.25	6.257
413.60	6.440
413.96	6.408
414.31	7.523
414.67	6.476
415.03	7.180
415.38	7.287
415.74	7.732
416.09	7.097
416.45	6.415
416.80	6.112
417.16	7.243
417.51	7.617
417.87	6.990
418.22	6.890
418.58	7.317
418.93	6.928
419.29	7.152
419.64	6.658
420.00	7.230
420.35	6.623
420.71	6.663
421.06	7.574
421.42	6.792
421.77	6.924
422.12	6.715
422.48	7.429
422.83	7.005
423.19	6.849
423.54	7.089
423.90	6.998
424.25	7.127
424.61	7.238
424.96	7.899
425.31	7.434
425.67	7.106
426.02	6.999
426.38	7.623
426.73	7.481
427.09	6.495
427.44	7.216
427.79	6.919
428.15	7.899
428.50	7.566
428.85	6.954
429.21	6.641
429.56	7.240
429.92	7.214
430.27	7.527
430.62	7.053
430.98	7.057
431.33	7.524
431.68	7.453
432.04	7.666
432.39	7.350
432.74	7.254
433.10	7.034
433.45	7.081
433.80	7.223
434.16	7.362
434.51	7.452
434.86	8.084
435.22	7.461
435.57	7.772
435.92	7.210
436.28	7.596
436.63	7.405
436.98	6.873
437.34	7.738
437.69	7.235
438.04	6.863
438.39	7.822
438.75	7.276
439.10	8.107
439.45	7.423
439.81	7.169
440.16	7.836
440.51	7.941
440.86	7.577
441.22	7.407
441.57	7.526
441.92	7.468
442.27	7.468
442.63	7.779
442.98	6.490
443.33	7.743
443.68	7.400
444.03	7.564
444.39	7.293
444.74	7.709
445.09	7.346
445.44	7.316
445.79	7.598
446.15	8.105
446.50	6.696
446.85	7.542
447.20	7.916
447.55	7.514
447.91	7.861
448.26	7.151
448.61	7.810
448.96	7.619
449.31	6.990
449.66	7.670
450.02	7.590
450.37	7.188
450.72	7.571
451.07	8.234
451.42	6.506
451.77	7.660
452.12	7.211
452.47	7.557
452.83	7.397
453.18	7.527
453.53	7.898
453.88	8.433
454.23	6.771
454.58	8.142
454.93	8.060
455.28	7.330
455.63	7.801
455.98	6.928
456.34	7.370
456.69	8.568
457.04	7.806
457.39	7.596
457.74	7.324
458.09	7.889
458.44	8.430
458.79	7.063
459.14	7.872
459.49	8.230
459.84	7.926
460.19	7.160
460.54	7.381
460.89	7.175
461.24	8.561
461.59	7.855
461.94	8.211
462.29	8.279
462.64	7.905
462.99	8.166
463.34	7.225
463.69	7.443
464.04	7.264
464.39	7.168
464.74	7.683
465.09	7.216
465.44	7.389
465.79	7.840
466.14	8.400
466.49	7.311
466.84	7.683
467.19	8.105
467.54	7.468
467.89	7.953
468.24	7.957
468.59	8.557
468.94	8.360
469.29	6.693
469.64	7.817
469.99	8.643
470.34	8.016
470.68	8.358
471.03	8.396
471.38	7.431
471.73	8.182
472.08	7.898
472.43	7.658
472.78	8.667
473.13	7.356
473.48	8.360
473.83	8.127
474.17	8.025
474.52	8.760
474.87	8.508
475.22	8.201
475.57	7.722
475.92	8.693
476.27	8.171
476.61	8.620
476.96	7.658
477.31	8.073
477.66	8.356
478.01	8.104
478.36	8.853
478.70	8.009
479.05	8.167
479.40	7.824
479.75	8.104
480.10	8.383
480.45	7.592
480.79	8.539
481.14	7.928
481.49	8.277
481.84	8.553
482.19	8.908
482.53	7.765
482.88	7.784
483.23	8.216
483.58	9.066
483.92	8.743
484.27	7.709
484.62	8.639
484.97	8.106
485.31	8.288
485.66	8.184
486.01	8.070
486.36	8.193
486.70	8.525
487.05	8.562
487.40	8.173
487.75	8.282
488.09	7.690
488.44	8.322
488.79	9.020
489.13	8.406
489.48	8.972
489.83	8.646
490.17	8.794
490.52	8.832
490.87	8.222
491.22	8.921
491.56	8.380
491.91	9.303
492.26	8.491
492.60	8.658
492.95	8.425
493.30	9.100
493.64	8.604
493.99	8.365
494.34	9.095
494.68	9.831
495.03	8.891
495.37	8.112
495.72	9.037
496.07	9.198
496.41	9.403
496.76	8.356
497.11	8.620
497.45	8.764
497.80	9.505
498.14	8.890
498.49	8.237
498.84	8.981
499.18	9.357
499.53	8.816
499.87	8.929
500.22	8.382
500.56	8.804
500.91	8.374
501.26	9.850
501.60	8.714
501.95	10.048
502.29	8.786
502.64	9.665
502.98	8.625
503.33	8.929
503.67	8.812
504.02	8.305
504.36	9.314
504.71	8.764
505.06	8.687
505.40	9.780
505.75	8.384
506.09	9.909
506.44	9.123
506.78	10.236
507.13	8.445
507.47	8.555
507.82	9.086
508.16	9.119
508.51	9.016
508.85	8.954
509.19	8.634
509.54	9.461
509.88	9.521
510.23	10.063
510.57	9.894
510.92	9.560
511.26	9.676
511.61	9.395
511.95	9.860
512.30	9.621
512.64	8.737
512.98	10.011
513.33	10.159
513.67	10.106
514.02	9.955
514.36	10.194
514.70	9.791
515.05	9.262
515.39	9.170
515.74	10.006
516.08	9.914
516.42	10.765
516.77	10.168
517.11	9.725
517.46	9.988
517.80	9.988
518.14	9.662
518.49	9.863
518.83	9.614
519.17	10.716
519.52	10.179
519.86	10.573
520.20	10.147
520.55	10.215
520.89	10.332
521.23	11.233
521.58	9.655
521.92	10.513
522.26	10.159
522.61	10.013
522.95	9.636
523.29	10.408
523.64	10.369
523.98	11.076
524.32	11.502
524.66	10.621
525.01	9.570
525.35	9.923
525.69	10.410
526.04	10.444
526.38	11.585
526.72	10.026
527.06	10.352
527.41	11.155
527.75	9.967
528.09	11.251
528.43	10.295
528.78	11.746
529.12	11.716
529.46	11.018
529.80	10.329
530.15	11.462
530.49	10.414
530.83	12.115
531.17	10.707
531.51	10.315
531.86	11.455
532.20	11.741
532.54	11.096
532.88	10.804
533.22	10.628
533.57	12.010
533.91	10.986
534.25	11.125
534.59	11.118
534.93	11.077
535.27	10.384
535.62	11.061
535.96	10.989
536.30	10.602
536.64	10.757
536.98	11.723
537.32	10.988
537.66	11.745
538.01	11.478
538.35	10.541
538.69	10.963
539.03	11.374
539.37	11.311
539.71	11.274
540.05	11.789
540.39	11.150
540.73	11.610
541.07	12.090
541.42	11.006
541.76	9.900
542.10	11.614
542.44	11.526
542.78	11.398
543.12	11.337
543.46	10.137
543.80	10.970
544.14	10.813
544.48	11.352
544.82	11.367
545.16	11.066
545.50	10.565
545.84	11.544
546.18	11.720
546.52	12.162
546.86	10.613
547.20	11.674
547.54	10.950
547.88	11.413
548.22	10.288
548.56	10.220
548.90	11.051
549.24	10.582
549.58	10.797
549.92	11.731
550.26	11.850
550.60	11.095
550.94	11.314
551.28	11.211
551.62	11.374
551.96	10.926
552.30	12.125
552.64	10.908
552.98	11.423
553.32	9.524
553.66	11.319
554.00	11.301
554.34	10.469
554.68	11.404
555.02	12.373
555.36	10.784
555.69	11.175
556.03	10.947
556.37	11.380
556.71	11.453
557.05	10.717
557.39	10.839
557.73	11.379
558.07	11.454
558.41	10.845
558.75	11.483
559.08	10.350
559.42	11.715
559.76	11.733
560.10	12.155
560.44	12.139
560.78	11.134
561.12	11.249
561.45	11.712
561.79	11.150
562.13	11.290
562.47	11.975
562.81	10.184
563.15	11.337
563.48	11.472
563.82	10.886
564.16	11.021
564.50	10.820
564.84	10.913
565.17	11.406
565.51	11.017
565.85	11.427
566.19	11.265
566.52	11.350
566.86	10.936
567.20	11.864
567.54	11.991
567.88	10.832
568.21	10.682
568.55	10.923
568.89	10.040
569.23	10.736
569.56	10.130
569.90	10.661
570.24	10.372
570.57	10.334
570.91	10.065
571.25	10.668
571.59	10.646
571.92	10.506
572.26	10.515
572.60	10.425
572.93	10.653
573.27	10.152
573.61	9.406
573.95	10.378
574.28	10.435
574.62	10.092
574.96	9.920
575.29	10.188
575.63	10.247
575.97	9.736
576.30	10.140
576.64	10.078
576.98	9.779
577.31	9.940
577.65	10.132
577.98	10.172
578.32	9.640
578.66	9.839
578.99	9.816
579.33	10.500
579.67	10.246
580.00	9.648
580.34	10.250
580.67	9.978
581.01	9.803
581.35	9.973
581.68	9.656
582.02	9.785
582.35	9.726
582.69	10.083
583.02	10.345
583.36	10.153
583.70	10.087
584.03	10.291
584.37	10.041
584.70	10.071
585.04	10.380
585.37	9.714
585.71	10.160
586.04	10.486
586.38	9.783
586.72	10.259
587.05	10.394
587.39	9.997
587.72	10.273
588.06	10.399
588.39	10.225
588.73	10.350
589.06	10.870
589.40	10.512
589.73	10.340
590.07	10.160
590.40	10.554
590.73	10.476
591.07	10.410
591.40	10.745
591.74	10.556
592.07	10.405
592.41	10.446
592.74	10.223
593.08	10.230
593.41	10.066
593.75	9.990
594.08	9.921
594.41	10.684
594.75	10.193
595.08	10.301
595.42	10.549
595.75	9.776
596.09	9.973
596.42	10.556
596.75	10.047
597.09	11.354
597.42	9.952
597.75	10.142
598.09	10.664
598.42	9.722
598.76	10.091
599.09	9.945
599.42	10.188
599.76	10.268
600.09	10.267
600.42	10.862
600.76	10.320
601.09	10.634
601.42	10.131
601.76	10.631
602.09	10.184
602.42	10.000
602.76	10.220
603.09	10.323
603.42	10.475
603.76	10.251
604.09	10.493
604.42	9.950
604.76	10.903
605.09	10.579
605.42	11.392
605.75	10.306
606.09	10.544
606.42	10.096
606.75	9.961
607.09	10.807
607.42	10.343
607.75	9.713
608.08	10.755
608.42	10.265
608.75	10.280
609.08	10.034
609.41	10.264
609.75	10.483
610.08	10.245
610.41	10.458
610.74	10.445
611.07	10.852
611.41	10.287
611.74	11.260
612.07	10.956
612.40	10.341
612.73	10.447
613.07	10.347
613.40	10.783
613.73	11.281
614.06	10.269
614.39	10.823
614.72	10.335
615.06	10.761
615.39	10.038
615.72	10.212
616.05	10.547
616.38	10.099
616.71	10.450
617.05	11.279
617.38	11.084
617.71	9.951
618.04	11.180
618.37	10.189
618.70	10.952
619.03	11.036
619.36	11.346
619.69	11.845
620.03	10.537
620.36	9.916
620.69	10.768
621.02	10.959
621.35	10.403
621.68	10.410
622.01	10.356
622.34	11.413
622.67	11.172
623.00	11.171
623.33	11.418
623.66	10.709
623.99	10.602
624.32	10.119
624.65	11.847
624.99	10.605
625.32	9.656
625.65	11.267
625.98	11.268
626.31	11.419
626.64	11.213
626.97	11.301
627.30	11.915
627.63	10.017
627.96	10.183
628.29	10.754
628.62	10.124
628.95	10.925
629.28	12.030
629.61	10.206
629.94	11.437
630.26	11.233
630.59	12.261
630.92	10.210
631.25	12.702
631.58	10.899
631.91	10.319
632.24	11.444
632.57	11.778
632.90	11.609
633.23	10.981
633.56	10.994
633.89	12.028
634.22	11.334
634.55	10.938
634.88	11.729
635.20	10.362
635.53	11.450
635.86	9.194
636.19	10.623
636.52	10.514
636.85	12.395
637.18	9.250
637.51	11.524
637.83	10.786
638.16	11.184
638.49	10.483
638.82	10.167
639.15	12.322
639.48	10.636
639.81	11.342
640.13	12.838
640.46	12.251
640.79	12.605
641.12	12.130
641.45	11.191
641.77	12.275
642.10	11.329
642.43	10.470
642.76	12.126
643.09	10.317
643.41	12.540
643.74	12.083
644.07	13.573
644.40	12.804
644.73	14.026
645.05	10.017
