SpectraSuite Data File
++++++++++++++++++++++++++++++++++++
Date: Sat May 16 11:25:26 PDT 2015
User: schluterlab
Dark Spectrum Present: Yes
Reference Spectrum Present: Yes
Number of Sampled Component Spectra: 1
Spectrometers: USB2E3373
Integration Time (usec): 3000 (USB2E3373)
Spectra Averaged: 3 (USB2E3373)
Boxcar Smoothing: 0 (USB2E3373)
Correct for Electrical Dark: No (USB2E3373)
Strobe/Lamp Enabled: No (USB2E3373)
Correct for Detector Non-linearity: No (USB2E3373)
Correct for Stray Light: No (USB2E3373)
Number of Pixels in Processed Spectrum: 2048
>>>>>Begin Processed Spectral Data<<<<<
178.53	0.000
178.91	106.667
179.29	500.000
179.67	-1300.000
180.04	-84.615
180.42	1800.000
180.80	350.000
181.18	500.000
181.56	-87.500
181.94	1200.000
182.31	425.000
182.69	-15.385
183.07	-566.667
183.45	950.000
183.83	500.000
184.20	-228.571
184.58	-312.500
184.96	-425.000
185.34	112.500
185.72	-350.000
186.09	183.333
186.47	-237.500
186.85	-62.500
187.23	-112.500
187.61	-100.000
187.98	-287.500
188.36	-87.500
188.74	-162.500
189.12	1700.000
189.49	228.571
189.87	41.667
190.25	300.000
190.63	28.571
191.00	-188.889
191.38	360.000
191.76	-40.000
192.14	480.000
192.51	-60.000
192.89	-400.000
193.27	0.000
193.65	-188.889
194.02	-285.714
194.40	466.667
194.78	-150.000
195.15	-1300.000
195.53	-145.455
195.91	-433.333
196.29	140.000
196.66	-300.000
197.04	1400.000
197.42	-25.000
197.79	-53.333
198.17	-433.333
198.55	-100.000
198.92	-900.000
199.30	150.000
199.68	-350.000
200.05	-166.667
200.43	-133.333
200.81	-1100.000
201.18	-41.667
201.56	171.429
201.94	-66.667
202.31	-18.182
202.69	30.000
203.07	-160.000
203.44	500.000
203.82	-316.667
204.19	-125.000
204.57	-100.000
204.95	200.000
205.32	37.500
205.70	900.000
206.08	-400.000
206.45	-27.778
206.83	-400.000
207.20	350.000
207.58	-700.000
207.96	-366.667
208.33	-100.000
208.71	-166.667
209.08	250.000
209.46	-142.857
209.84	850.000
210.21	0.000
210.59	45.000
210.96	100.000
211.34	-116.667
211.71	-200.000
212.09	350.000
212.46	850.000
212.84	-2900.000
213.22	533.333
213.59	150.000
213.97	-11.111
214.34	200.000
214.72	-140.000
215.09	-233.333
215.47	0.000
215.84	-80.000
216.22	-80.000
216.59	46.667
216.97	-725.000
217.34	950.000
217.72	-100.000
218.09	-300.000
218.47	-242.857
218.84	285.714
219.22	14.286
219.59	0.000
219.97	185.714
220.34	225.000
220.72	225.000
221.09	-15.385
221.47	0.000
221.84	166.667
222.22	-700.000
222.59	1000.000
222.97	-150.000
223.34	-700.000
223.72	-666.667
224.09	-92.857
224.46	-375.000
224.84	-78.571
225.21	-28.571
225.59	-36.364
225.96	-137.500
226.34	-100.000
226.71	-144.444
227.08	10.000
227.46	1400.000
227.83	-157.143
228.21	-212.500
228.58	450.000
228.95	-18.750
229.33	-1900.000
229.70	-220.000
230.08	-1000.000
230.45	-75.000
230.82	-150.000
231.20	-600.000
231.57	-250.000
231.95	900.000
232.32	-9.524
232.69	-211.111
233.07	-257.143
233.44	-1550.000
233.81	-13.333
234.19	-111.111
234.56	-43.750
234.93	15.625
235.31	-271.429
235.68	-121.429
236.05	-23.529
236.43	-45.455
236.80	-29.032
237.17	-12.500
237.55	0.000
237.92	-68.182
238.29	-8.571
238.67	5.882
239.04	36.111
239.41	-29.032
239.79	-12.821
240.16	4.762
240.53	3.636
240.91	41.026
241.28	16.364
241.65	24.615
242.02	27.869
242.40	4.918
242.77	15.152
243.14	20.339
243.51	-2.857
243.89	17.722
244.26	10.112
244.63	21.053
245.00	17.895
245.38	18.644
245.75	14.159
246.12	16.000
246.49	22.047
246.87	17.886
247.24	14.407
247.61	11.017
247.98	19.014
248.36	22.378
248.73	22.785
249.10	15.924
249.47	27.485
249.84	18.750
250.22	16.071
250.59	24.859
250.96	19.895
251.33	27.962
251.70	20.673
252.08	24.171
252.45	21.327
252.82	23.333
253.19	24.255
253.56	17.742
253.94	23.629
254.31	21.459
254.68	27.642
255.05	20.565
255.42	24.603
255.79	20.789
256.16	25.490
256.54	25.000
256.91	22.348
257.28	18.681
257.65	21.631
258.02	25.786
258.39	21.405
258.76	19.257
259.14	22.840
259.51	24.918
259.88	23.476
260.25	24.534
260.62	23.794
260.99	22.255
261.36	25.000
261.73	23.699
262.10	26.111
262.47	19.943
262.85	27.143
263.22	21.490
263.59	22.154
263.96	20.870
264.33	25.474
264.70	25.967
265.07	22.802
265.44	22.222
265.81	20.155
266.18	21.013
266.55	24.020
266.92	22.922
267.29	24.455
267.66	22.222
268.03	27.295
268.40	24.648
268.77	25.783
269.14	22.738
269.51	22.759
269.88	23.624
270.25	24.009
270.62	21.053
270.99	21.622
271.36	23.543
271.73	24.439
272.10	20.366
272.47	21.333
272.84	23.111
273.21	23.624
273.58	26.154
273.95	22.807
274.32	24.661
274.69	25.821
275.06	23.313
275.43	22.545
275.80	25.662
276.17	25.732
276.54	25.255
276.91	21.811
277.28	23.529
277.65	22.107
278.02	21.712
278.39	22.200
278.76	22.311
279.13	20.949
279.50	21.471
279.87	21.564
280.23	21.255
280.60	21.869
280.97	24.660
281.34	19.536
281.71	23.846
282.08	22.177
282.45	19.552
282.82	23.837
283.19	23.091
283.56	24.176
283.92	23.145
284.29	22.119
284.66	20.504
285.03	21.747
285.40	22.140
285.77	22.632
286.14	21.119
286.51	21.492
286.87	23.956
287.24	23.379
287.61	21.983
287.98	21.664
288.35	22.149
288.72	20.713
289.08	20.847
289.45	20.202
289.82	21.972
290.19	21.511
290.56	18.843
290.93	20.827
291.29	20.259
291.66	21.578
292.03	20.408
292.40	20.482
292.77	21.739
293.13	21.138
293.50	19.465
293.87	22.393
294.24	19.155
294.60	18.636
294.97	18.513
295.34	18.519
295.71	20.685
296.08	19.048
296.44	17.167
296.81	19.658
297.18	17.746
297.55	20.056
297.91	19.944
298.28	17.123
298.65	18.828
299.02	18.984
299.38	16.711
299.75	16.848
300.12	17.821
300.48	16.752
300.85	16.645
301.22	17.206
301.59	18.726
301.95	19.270
302.32	16.558
302.69	16.524
303.05	17.949
303.42	17.125
303.79	17.225
304.15	18.957
304.52	17.270
304.89	17.119
305.25	15.873
305.62	16.921
305.99	18.610
306.35	17.314
306.72	17.768
307.09	19.296
307.45	17.594
307.82	17.654
308.19	19.575
308.55	18.627
308.92	15.789
309.29	16.973
309.65	16.967
310.02	17.387
310.38	16.000
310.75	17.930
311.12	17.562
311.48	18.476
311.85	18.332
312.22	18.435
312.58	19.532
312.95	17.941
313.31	19.081
313.68	19.397
314.05	20.178
314.41	18.612
314.78	17.882
315.14	18.756
315.51	18.946
315.87	18.974
316.24	19.145
316.61	20.441
316.97	19.701
317.34	18.690
317.70	19.481
318.07	19.123
318.43	19.101
318.80	21.784
319.16	19.794
319.53	21.335
319.89	20.038
320.26	21.961
320.62	20.962
320.99	22.090
321.35	20.985
321.72	21.290
322.08	22.750
322.45	22.970
322.81	23.823
323.18	23.535
323.54	21.811
323.91	23.262
324.27	23.479
324.64	25.503
325.00	23.473
325.37	24.525
325.73	24.234
326.10	24.004
326.46	24.869
326.83	24.936
327.19	26.439
327.56	25.980
327.92	26.083
328.29	26.147
328.65	26.000
329.01	26.678
329.38	26.673
329.74	28.663
330.11	27.743
330.47	27.702
330.84	28.139
331.20	27.076
331.56	27.347
331.93	27.442
332.29	29.315
332.66	27.656
333.02	27.964
333.38	29.211
333.75	29.475
334.11	28.444
334.48	29.744
334.84	30.359
335.20	30.408
335.57	28.430
335.93	30.439
336.29	27.369
336.66	28.987
337.02	29.459
337.38	29.412
337.75	29.061
338.11	29.249
338.47	30.694
338.84	30.944
339.20	30.756
339.56	31.729
339.93	30.247
340.29	28.521
340.65	29.545
341.02	30.691
341.38	29.655
341.74	30.821
342.11	29.949
342.47	30.472
342.83	30.563
343.20	29.974
343.56	28.571
343.92	30.634
344.28	31.287
344.65	30.776
345.01	30.252
345.37	31.063
345.73	30.196
346.10	30.826
346.46	30.788
346.82	31.596
347.19	31.471
347.55	31.942
347.91	31.811
348.27	30.708
348.63	33.118
349.00	32.697
349.36	29.586
349.72	32.245
350.08	31.516
350.45	31.521
350.81	32.166
351.17	30.868
351.53	30.310
351.89	31.690
352.26	31.860
352.62	32.335
352.98	33.940
353.34	31.575
353.70	30.734
354.07	32.337
354.43	32.095
354.79	33.043
355.15	31.949
355.51	32.656
355.87	32.490
356.24	32.724
356.60	34.811
356.96	33.179
357.32	33.096
357.68	33.716
358.04	33.025
358.40	31.864
358.77	33.539
359.13	33.129
359.49	33.258
359.85	33.841
360.21	33.790
360.57	34.488
360.93	34.444
361.29	34.679
361.66	33.384
362.02	35.207
362.38	34.043
362.74	35.018
363.10	33.788
363.46	35.185
363.82	34.111
364.18	36.252
364.54	36.240
364.90	36.129
365.26	35.307
365.62	36.493
365.98	36.913
366.35	34.859
366.71	35.377
367.07	35.639
367.43	37.886
367.79	36.220
368.15	35.704
368.51	36.434
368.87	38.324
369.23	35.789
369.59	37.639
369.95	36.152
370.31	38.537
370.67	35.936
371.03	37.974
371.39	38.260
371.75	38.269
372.11	38.379
372.47	37.599
372.83	39.360
373.19	39.357
373.55	39.057
373.91	38.051
374.27	38.056
374.63	39.268
374.99	40.473
375.35	39.031
375.71	40.108
376.07	39.493
376.42	38.543
376.78	40.196
377.14	40.610
377.50	40.941
377.86	39.987
378.22	40.955
378.58	40.951
378.94	40.691
379.30	42.535
379.66	40.862
380.02	41.652
380.38	42.115
380.74	41.266
381.09	42.531
381.45	42.124
381.81	41.742
382.17	42.669
382.53	42.614
382.89	41.806
383.25	42.806
383.61	42.040
383.97	43.539
384.32	43.242
384.68	44.196
385.04	43.780
385.40	44.005
385.76	44.024
386.12	44.347
386.48	44.616
386.83	45.644
387.19	45.846
387.55	44.821
387.91	45.347
388.27	45.175
388.62	45.553
388.98	44.700
389.34	45.288
389.70	45.554
390.06	45.059
390.42	47.115
390.77	46.309
391.13	45.901
391.49	47.286
391.85	46.259
392.20	47.816
392.56	46.610
392.92	46.492
393.28	46.900
393.64	47.444
393.99	48.738
394.35	47.384
394.71	47.004
395.07	47.897
395.42	47.497
395.78	47.957
396.14	49.283
396.50	47.584
396.85	48.365
397.21	47.752
397.57	48.693
397.92	49.473
398.28	49.667
398.64	48.959
399.00	50.281
399.35	49.267
399.71	50.581
400.07	51.104
400.42	50.182
400.78	48.897
401.14	48.503
401.49	50.354
401.85	50.153
402.21	50.536
402.57	48.968
402.92	52.549
403.28	50.368
403.63	49.730
403.99	50.218
404.35	50.242
404.70	50.790
405.06	51.269
405.42	50.000
405.77	50.113
406.13	49.063
406.49	50.869
406.84	50.990
407.20	52.002
407.55	50.792
407.91	50.000
408.27	52.267
408.62	51.173
408.98	52.881
409.34	50.701
409.69	50.914
410.05	51.728
410.40	51.993
410.76	51.867
411.11	52.930
411.47	51.918
411.83	52.628
412.18	52.785
412.54	51.739
412.89	52.612
413.25	51.594
413.60	52.430
413.96	52.002
414.31	52.844
414.67	52.571
415.03	52.070
415.38	53.676
415.74	53.995
416.09	53.069
416.45	53.307
416.80	53.381
417.16	53.488
417.51	53.447
417.87	53.463
418.22	53.540
418.58	53.402
418.93	53.709
419.29	52.823
419.64	53.455
420.00	55.589
420.35	52.572
420.71	54.682
421.06	55.148
421.42	53.864
421.77	53.657
422.12	54.225
422.48	53.287
422.83	54.727
423.19	54.232
423.54	55.562
423.90	54.829
424.25	55.034
424.61	56.152
424.96	56.583
425.31	55.785
425.67	55.473
426.02	54.045
426.38	56.987
426.73	56.750
427.09	56.679
427.44	56.307
427.79	55.000
428.15	55.775
428.50	56.891
428.85	57.134
429.21	56.613
429.56	56.250
429.92	56.062
430.27	58.126
430.62	56.740
430.98	56.404
431.33	57.471
431.68	58.123
432.04	58.422
432.39	58.917
432.74	57.494
433.10	57.456
433.45	58.377
433.80	57.727
434.16	57.012
434.51	59.123
434.86	59.227
435.22	58.352
435.57	59.119
435.92	58.148
436.28	57.982
436.63	59.299
436.98	57.617
437.34	58.949
437.69	57.935
438.04	58.366
438.39	59.326
438.75	59.255
439.10	58.190
439.45	60.048
439.81	59.337
440.16	58.035
440.51	60.529
440.86	59.572
441.22	59.812
441.57	59.579
441.92	59.795
442.27	59.686
442.63	59.174
442.98	58.296
443.33	58.924
443.68	58.624
444.03	60.314
444.39	59.080
444.74	61.509
445.09	59.485
445.44	60.889
445.79	59.867
446.15	60.405
446.50	58.846
446.85	59.826
447.20	59.602
447.55	61.271
447.91	60.865
448.26	59.106
448.61	59.423
448.96	60.896
449.31	59.357
449.66	60.733
450.02	59.612
450.37	60.406
450.72	59.887
451.07	62.351
451.42	60.099
451.77	61.161
452.12	60.072
452.47	60.642
452.83	59.231
453.18	62.049
453.53	60.634
453.88	61.663
454.23	61.306
454.58	62.461
454.93	59.887
455.28	61.504
455.63	61.179
455.98	62.470
456.34	60.864
456.69	62.914
457.04	61.217
457.39	59.928
457.74	60.130
458.09	61.195
458.44	62.587
458.79	60.818
459.14	61.152
459.49	61.338
459.84	61.158
460.19	61.635
460.54	60.557
460.89	61.435
461.24	61.141
461.59	60.961
461.94	62.763
462.29	61.882
462.64	62.253
462.99	63.387
463.34	61.850
463.69	61.578
464.04	60.457
464.39	61.947
464.74	60.816
465.09	59.832
465.44	61.760
465.79	62.606
466.14	63.234
466.49	62.291
466.84	62.245
467.19	61.721
467.54	60.886
467.89	61.961
468.24	61.401
468.59	61.274
468.94	62.122
469.29	62.833
469.64	62.399
469.99	63.876
470.34	63.059
470.68	63.735
471.03	61.734
471.38	63.056
471.73	62.797
472.08	62.249
472.43	63.514
472.78	63.867
473.13	63.751
473.48	63.880
473.83	63.027
474.17	62.866
474.52	64.066
474.87	62.413
475.22	62.419
475.57	62.667
475.92	62.365
476.27	61.143
476.61	62.704
476.96	63.331
477.31	64.209
477.66	63.697
478.01	63.101
478.36	62.755
478.70	63.908
479.05	63.656
479.40	64.249
479.75	62.691
480.10	62.798
480.45	61.605
480.79	63.820
481.14	64.124
481.49	63.456
481.84	63.061
482.19	63.225
482.53	63.589
482.88	64.025
483.23	62.394
483.58	62.997
483.92	64.357
484.27	62.251
484.62	62.808
484.97	62.666
485.31	60.224
485.66	58.368
486.01	59.706
486.36	61.153
486.70	62.654
487.05	61.883
487.40	62.179
487.75	61.847
488.09	61.612
488.44	63.194
488.79	63.070
489.13	63.294
489.48	63.989
489.83	64.454
490.17	63.082
490.52	64.719
490.87	62.679
491.22	63.288
491.56	64.352
491.91	63.740
492.26	63.632
492.60	64.462
492.95	63.541
493.30	62.839
493.64	63.517
493.99	64.388
494.34	63.619
494.68	64.888
495.03	63.815
495.37	65.536
495.72	65.766
496.07	64.195
496.41	65.540
496.76	64.429
497.11	65.191
497.45	64.416
497.80	63.482
498.14	64.784
498.49	64.792
498.84	64.660
499.18	64.620
499.53	64.491
499.87	64.286
500.22	65.441
500.56	65.883
500.91	65.172
501.26	65.648
501.60	64.709
501.95	66.618
502.29	64.903
502.64	65.347
502.98	64.686
503.33	64.850
503.67	64.799
504.02	64.993
504.36	65.735
504.71	65.198
505.06	64.903
505.40	66.467
505.75	65.701
506.09	66.582
506.44	65.614
506.78	66.734
507.13	65.963
507.47	66.041
507.82	65.669
508.16	66.425
508.51	65.997
508.85	67.236
509.19	66.771
509.54	66.966
509.88	66.649
510.23	66.876
510.57	67.725
510.92	68.206
511.26	66.348
511.61	66.901
511.95	66.325
512.30	67.180
512.64	67.613
512.98	66.832
513.33	67.216
513.67	68.286
514.02	66.946
514.36	67.202
514.70	66.780
515.05	67.238
515.39	67.301
515.74	69.284
516.08	67.954
516.42	68.329
516.77	69.324
517.11	68.478
517.46	69.199
517.80	70.337
518.14	70.290
518.49	70.652
518.83	68.605
519.17	69.864
519.52	68.132
519.86	69.892
520.20	70.232
520.55	70.031
520.89	70.507
521.23	70.513
521.58	70.721
521.92	70.488
522.26	71.175
522.61	72.307
522.95	69.687
523.29	71.348
523.64	70.831
523.98	71.674
524.32	70.019
524.66	70.870
525.01	69.942
525.35	70.876
525.69	70.917
526.04	72.258
526.38	72.502
526.72	71.137
527.06	72.917
527.41	70.891
527.75	71.089
528.09	71.741
528.43	71.541
528.78	71.671
529.12	72.087
529.46	72.616
529.80	72.111
530.15	71.281
530.49	70.828
530.83	72.299
531.17	73.266
531.51	73.744
531.86	71.560
532.20	72.874
532.54	72.259
532.88	71.476
533.22	73.463
533.57	72.977
533.91	71.536
534.25	70.396
534.59	69.769
534.93	71.002
535.27	71.240
535.62	72.251
535.96	72.269
536.30	71.990
536.64	72.178
536.98	75.777
537.32	74.706
537.66	70.808
538.01	72.234
538.35	71.351
538.69	72.995
539.03	70.210
539.37	71.856
539.71	72.915
540.05	73.406
540.39	74.169
540.73	73.739
541.07	72.746
541.42	72.789
541.76	71.229
542.10	72.856
542.44	72.885
542.78	72.659
543.12	72.573
543.46	71.712
543.80	72.040
544.14	71.592
544.48	73.753
544.82	74.899
545.16	73.239
545.50	72.140
545.84	73.783
546.18	74.272
546.52	73.898
546.86	75.000
547.20	75.457
547.54	71.625
547.88	73.059
548.22	70.904
548.56	71.810
548.90	73.854
549.24	72.600
549.58	73.394
549.92	72.438
550.26	73.627
550.60	70.910
550.94	72.190
551.28	73.965
551.62	73.191
551.96	74.168
552.30	72.056
552.64	73.962
552.98	74.982
553.32	73.088
553.66	74.405
554.00	75.267
554.34	73.935
554.68	72.661
555.02	75.109
555.36	72.178
555.69	73.782
556.03	72.281
556.37	74.467
556.71	74.230
557.05	74.649
557.39	72.680
557.73	74.106
558.07	76.262
558.41	74.944
558.75	74.753
559.08	75.875
559.42	74.885
559.76	75.307
560.10	75.019
560.44	74.277
560.78	73.834
561.12	73.430
561.45	72.192
561.79	75.610
562.13	73.001
562.47	72.619
562.81	73.055
563.15	74.038
563.48	73.324
563.82	74.645
564.16	74.307
564.50	73.387
564.84	72.884
565.17	73.276
565.51	72.099
565.85	75.186
566.19	75.362
566.52	72.994
566.86	73.831
567.20	73.547
567.54	74.306
567.88	70.966
568.21	73.881
568.55	72.375
568.89	71.670
569.23	71.957
569.56	70.240
569.90	70.338
570.24	69.523
570.57	68.647
570.91	68.446
571.25	68.158
571.59	68.967
571.92	67.202
572.26	68.544
572.60	67.049
572.93	67.823
573.27	67.439
573.61	66.389
573.95	67.882
574.28	66.675
574.62	67.539
574.96	66.476
575.29	66.845
575.63	67.321
575.97	67.017
576.30	66.511
576.64	67.311
576.98	67.305
577.31	66.865
577.65	67.435
577.98	67.158
578.32	67.249
578.66	66.748
578.99	67.327
579.33	66.843
579.67	66.700
580.00	66.964
580.34	67.074
580.67	67.320
581.01	66.133
581.35	67.137
581.68	66.069
582.02	67.009
582.35	66.383
582.69	67.136
583.02	67.153
583.36	67.255
583.70	68.049
584.03	68.481
584.37	68.606
584.70	68.041
585.04	68.304
585.37	66.874
585.71	67.271
586.04	67.857
586.38	67.709
586.72	68.010
587.05	68.281
587.39	67.878
587.72	67.534
588.06	66.960
588.39	68.129
588.73	68.890
589.06	69.118
589.40	69.873
589.73	68.591
590.07	69.556
590.40	68.155
590.73	70.332
591.07	70.000
591.40	70.104
591.74	69.244
592.07	69.640
592.41	70.701
592.74	69.792
593.08	68.589
593.41	69.342
593.75	68.546
594.08	70.381
594.41	70.277
594.75	68.894
595.08	70.075
595.42	69.473
595.75	69.497
596.09	70.159
596.42	70.499
596.75	70.375
597.09	71.238
597.42	69.446
597.75	70.549
598.09	70.493
598.42	70.879
598.76	69.394
599.09	68.666
599.42	69.742
599.76	69.045
600.09	69.771
600.42	69.730
600.76	70.358
601.09	68.591
601.42	69.964
601.76	69.665
602.09	70.511
602.42	70.535
602.76	70.835
603.09	69.879
603.42	70.508
603.76	69.924
604.09	69.684
604.42	69.650
604.76	69.734
605.09	70.118
605.42	71.720
605.75	70.375
606.09	69.572
606.42	70.339
606.75	70.245
607.09	70.622
607.42	69.674
607.75	70.640
608.08	71.125
608.42	71.712
608.75	68.832
609.08	70.531
609.41	71.400
609.75	70.405
610.08	70.980
610.41	71.663
610.74	72.389
611.07	71.552
611.41	70.852
611.74	71.208
612.07	72.771
612.40	71.429
612.73	73.075
613.07	71.547
613.40	72.961
613.73	72.262
614.06	72.488
614.39	73.450
614.72	72.737
615.06	70.598
615.39	71.622
615.72	72.406
616.05	70.955
616.38	72.896
616.71	70.811
617.05	73.522
617.38	74.180
617.71	73.157
618.04	73.478
618.37	73.899
618.70	74.902
619.03	73.392
619.36	74.841
619.69	73.654
620.03	72.934
620.36	74.613
620.69	76.023
621.02	75.799
621.35	75.403
621.68	75.738
622.01	77.508
622.34	75.233
622.67	76.250
623.00	77.659
623.33	74.552
623.66	75.111
623.99	73.609
624.32	74.851
624.65	75.791
624.99	75.728
625.32	75.225
625.65	76.068
625.98	76.135
626.31	76.672
626.64	76.820
626.97	77.825
627.30	75.574
627.63	75.648
627.96	76.501
628.29	77.298
628.62	76.600
628.95	75.787
629.28	77.068
629.61	79.195
629.94	78.072
630.26	80.616
630.59	82.010
630.92	78.879
631.25	78.730
631.58	79.365
631.91	78.830
