SpectraSuite Data File
++++++++++++++++++++++++++++++++++++
Date: Sat May 16 11:14:55 PDT 2015
User: schluterlab
Dark Spectrum Present: Yes
Reference Spectrum Present: Yes
Number of Sampled Component Spectra: 1
Spectrometers: USB2E3373
Integration Time (usec): 3000 (USB2E3373)
Spectra Averaged: 3 (USB2E3373)
Boxcar Smoothing: 0 (USB2E3373)
Correct for Electrical Dark: No (USB2E3373)
Strobe/Lamp Enabled: No (USB2E3373)
Correct for Detector Non-linearity: No (USB2E3373)
Correct for Stray Light: No (USB2E3373)
Number of Pixels in Processed Spectrum: 2048
>>>>>Begin Processed Spectral Data<<<<<
178.53	0.000
178.91	100.000
179.29	233.333
179.67	-100.000
180.04	-7.692
180.42	800.000
180.80	25.000
181.18	250.000
181.56	-62.500
181.94	1000.000
182.31	325.000
182.69	7.692
183.07	-100.000
183.45	950.000
183.83	366.667
184.20	-42.857
184.58	-62.500
184.96	-350.000
185.34	93.750
185.72	-550.000
186.09	200.000
186.47	-175.000
186.85	-200.000
187.23	75.000
187.61	-50.000
187.98	-150.000
188.36	0.000
188.74	-12.500
189.12	1200.000
189.49	271.429
189.87	8.333
190.25	-25.000
190.63	-35.714
191.00	-177.778
191.38	300.000
191.76	0.000
192.14	440.000
192.51	-240.000
192.89	-333.333
193.27	0.000
193.65	88.889
194.02	-228.571
194.40	166.667
194.78	-80.000
195.15	-400.000
195.53	-81.818
195.91	-266.667
196.29	180.000
196.66	-500.000
197.04	700.000
197.42	25.000
197.79	60.000
198.17	-266.667
198.55	-650.000
198.92	-600.000
199.30	87.500
199.68	-300.000
200.05	-55.556
200.43	22.222
200.81	-1800.000
201.18	-8.333
201.56	114.286
201.94	20.000
202.31	22.727
202.69	-50.000
203.07	-120.000
203.44	566.667
203.82	-150.000
204.19	-300.000
204.57	25.000
204.95	-500.000
205.32	-68.750
205.70	-0.000
206.08	-1700.000
206.45	5.556
206.83	-700.000
207.20	300.000
207.58	-466.667
207.96	-333.333
208.33	-12.500
208.71	-22.222
209.08	120.000
209.46	-28.571
209.84	600.000
210.21	0.000
210.59	35.000
210.96	700.000
211.34	-50.000
211.71	-233.333
212.09	575.000
212.46	850.000
212.84	-2800.000
213.22	300.000
213.59	133.333
213.97	0.000
214.34	160.000
214.72	10.000
215.09	-100.000
215.47	-83.333
215.84	-40.000
216.22	-10.000
216.59	-13.333
216.97	-75.000
217.34	550.000
217.72	-71.429
218.09	-33.333
218.47	-114.286
218.84	128.571
219.22	-100.000
219.59	0.000
219.97	71.429
220.34	325.000
220.72	187.500
221.09	38.462
221.47	0.000
221.84	233.333
222.22	-150.000
222.59	900.000
222.97	-87.500
223.34	-650.000
223.72	-100.000
224.09	-71.429
224.46	-300.000
224.84	-14.286
225.21	100.000
225.59	-18.182
225.96	-250.000
226.34	-42.857
226.71	-11.111
227.08	35.000
227.46	1900.000
227.83	-42.857
228.21	-125.000
228.58	250.000
228.95	25.000
229.33	-1600.000
229.70	-300.000
230.08	-350.000
230.45	41.667
230.82	33.333
231.20	-1300.000
231.57	-400.000
231.95	900.000
232.32	42.857
232.69	22.222
233.07	-228.571
233.44	-700.000
233.81	-53.333
234.19	-11.111
234.56	-6.250
234.93	37.500
235.31	-185.714
235.68	-64.286
236.05	-41.176
236.43	-68.182
236.80	-12.903
237.17	-4.167
237.55	14.286
237.92	-31.818
238.29	-11.429
238.67	38.235
239.04	2.778
239.41	-38.710
239.79	-28.205
240.16	-4.762
240.53	-3.636
240.91	30.769
241.28	3.636
241.65	21.538
242.02	-1.639
242.40	6.557
242.77	15.152
243.14	1.695
243.51	-5.714
243.89	-1.266
244.26	-4.494
244.63	11.579
245.00	11.579
245.38	11.017
245.75	14.159
246.12	12.800
246.49	7.874
246.87	5.691
247.24	4.237
247.61	5.085
247.98	3.521
248.36	4.895
248.73	10.759
249.10	5.096
249.47	7.602
249.84	13.068
250.22	4.762
250.59	12.994
250.96	11.518
251.33	19.431
251.70	6.250
252.08	16.588
252.45	7.583
252.82	12.857
253.19	8.511
253.56	7.258
253.94	8.861
254.31	7.296
254.68	16.260
255.05	8.065
255.42	12.698
255.79	6.810
256.16	12.941
256.54	8.456
256.91	7.576
257.28	8.791
257.65	7.801
258.02	14.465
258.39	11.371
258.76	9.122
259.14	8.642
259.51	12.787
259.88	10.976
260.25	16.460
260.62	12.219
260.99	6.231
261.36	12.805
261.73	11.850
262.10	12.222
262.47	10.826
262.85	14.857
263.22	12.321
263.59	9.231
263.96	13.623
264.33	9.214
264.70	12.431
265.07	12.912
265.44	11.111
265.81	11.370
266.18	11.139
266.55	10.539
266.92	14.861
267.29	11.138
267.66	9.877
268.03	14.734
268.40	11.268
268.77	10.843
269.14	11.833
269.51	11.264
269.88	9.862
270.25	11.655
270.62	11.899
270.99	11.712
271.36	11.888
271.73	10.987
272.10	13.730
272.47	12.667
272.84	12.889
273.21	13.532
273.58	10.989
273.95	9.868
274.32	13.575
274.69	12.910
275.06	12.270
275.43	10.491
275.80	12.016
276.17	11.715
276.54	14.868
276.91	10.905
277.28	11.359
277.65	10.331
278.02	12.317
278.39	13.163
278.76	12.351
279.13	13.834
279.50	11.531
279.87	10.782
280.23	10.324
280.60	14.513
280.97	9.709
281.34	11.605
281.71	10.385
282.08	12.097
282.45	8.961
282.82	11.240
283.19	9.636
283.56	13.553
283.92	10.601
284.29	10.967
284.66	11.331
285.03	11.586
285.40	11.439
285.77	13.158
286.14	10.650
286.51	11.545
286.87	10.889
287.24	13.823
287.61	11.570
287.98	9.185
288.35	9.421
288.72	10.866
289.08	9.492
289.45	11.279
289.82	9.689
290.19	11.823
290.56	7.934
290.93	11.447
291.29	10.859
291.66	10.950
292.03	10.989
292.40	10.090
292.77	11.180
293.13	9.431
293.50	13.819
293.87	9.663
294.24	11.011
294.60	8.182
294.97	11.381
295.34	9.481
295.71	10.863
296.08	8.909
296.44	8.298
296.81	10.256
297.18	9.577
297.55	10.311
297.91	10.879
298.28	8.082
298.65	9.763
299.02	10.027
299.38	10.829
299.75	9.103
300.12	9.359
300.48	10.486
300.85	8.257
301.22	8.797
301.59	8.973
301.95	11.587
302.32	7.823
302.69	8.690
303.05	9.158
303.42	8.250
303.79	8.971
304.15	9.479
304.52	7.818
304.89	8.855
305.25	8.303
305.62	8.461
305.99	10.954
306.35	8.657
306.72	8.314
307.09	10.102
307.45	9.081
307.82	6.816
308.19	8.725
308.55	9.586
308.92	7.734
309.29	8.432
309.65	9.120
310.02	8.639
310.38	7.676
310.75	9.016
311.12	9.091
311.48	8.142
311.85	8.754
312.22	8.136
312.58	10.173
312.95	9.378
313.31	8.791
313.68	10.151
314.05	8.605
314.41	9.557
314.78	7.592
315.14	9.773
315.51	8.713
315.87	9.487
316.24	10.010
316.61	10.653
316.97	9.453
317.34	9.923
317.70	9.184
318.07	8.955
318.43	9.644
318.80	11.268
319.16	10.131
319.53	11.372
319.89	10.066
320.26	11.569
320.62	11.731
320.99	10.547
321.35	11.626
321.72	10.747
322.08	12.661
322.45	12.475
322.81	13.256
323.18	13.449
323.54	13.309
323.91	14.551
324.27	13.593
324.64	15.174
325.00	14.311
325.37	15.385
325.73	16.098
326.10	14.260
326.46	16.112
326.83	16.255
327.19	17.098
327.56	17.717
327.92	18.182
328.29	17.316
328.65	17.273
329.01	17.845
329.38	17.841
329.74	19.963
330.11	20.218
330.47	18.801
330.84	20.257
331.20	20.217
331.56	20.146
331.93	18.828
332.29	20.000
332.66	20.369
333.02	21.176
333.38	21.685
333.75	21.193
334.11	22.578
334.48	20.035
334.84	22.310
335.20	22.429
335.57	22.653
335.93	23.366
336.29	21.966
336.66	22.731
337.02	23.514
337.38	22.282
337.75	22.651
338.11	23.166
338.47	22.687
338.84	22.777
339.20	23.286
339.56	23.975
339.93	21.869
340.29	21.966
340.65	22.815
341.02	23.272
341.38	23.336
341.74	23.031
342.11	22.782
342.47	22.833
342.83	23.342
343.20	23.228
343.56	21.959
343.92	22.955
344.28	23.633
344.65	22.937
345.01	24.202
345.37	24.834
345.73	22.259
346.10	21.750
346.46	22.989
346.82	23.496
347.19	23.583
347.55	23.676
347.91	23.701
348.27	22.434
348.63	24.233
349.00	24.582
349.36	23.185
349.72	23.567
350.08	24.699
350.45	22.459
350.81	23.806
351.17	23.312
351.53	22.355
351.89	24.171
352.26	23.256
352.62	24.962
352.98	24.288
353.34	23.661
353.70	23.552
354.07	23.210
354.43	23.636
354.79	24.326
355.15	24.361
355.51	23.516
355.87	23.715
356.24	24.464
356.60	25.705
356.96	24.788
357.32	25.257
357.68	23.755
358.04	23.557
358.40	24.207
358.77	24.730
359.13	24.331
359.49	25.094
359.85	24.390
360.21	25.799
360.57	25.527
360.93	26.296
361.29	25.336
361.66	23.552
362.02	23.964
362.38	25.238
362.74	25.055
363.10	25.036
363.46	26.140
363.82	24.708
364.18	25.615
364.54	26.019
364.90	25.157
365.26	24.465
365.62	26.800
365.98	26.743
366.35	24.507
366.71	25.934
367.07	26.676
367.43	26.218
367.79	25.086
368.15	25.889
368.51	27.063
368.87	26.305
369.23	25.263
369.59	25.347
369.95	26.075
370.31	26.160
370.67	25.452
371.03	26.603
371.39	25.884
371.75	27.110
372.11	27.044
372.47	26.392
372.83	26.426
373.19	27.357
373.55	27.868
373.91	26.387
374.27	26.420
374.63	26.501
374.99	26.634
375.35	26.447
375.71	27.752
376.07	26.831
376.42	26.821
376.78	26.601
377.14	27.661
377.50	27.531
377.86	26.528
378.22	27.261
378.58	27.116
378.94	26.326
379.30	27.727
379.66	26.897
380.02	26.084
380.38	27.613
380.74	26.788
381.09	27.006
381.45	28.162
381.81	27.163
382.17	28.008
382.53	26.626
382.89	26.675
383.25	27.514
383.61	27.005
383.97	28.169
384.32	27.847
384.68	28.235
385.04	27.295
385.40	27.145
385.76	27.744
386.12	26.733
386.48	28.280
386.83	27.178
387.19	27.197
387.55	27.135
387.91	26.675
388.27	26.719
388.62	27.163
388.98	27.559
389.34	27.050
389.70	27.223
390.06	26.725
390.42	27.564
390.77	27.319
391.13	27.516
391.49	27.511
391.85	28.554
392.20	27.609
392.56	27.062
392.92	27.268
393.28	27.325
393.64	28.082
393.99	27.754
394.35	27.007
394.71	26.374
395.07	27.809
395.42	27.175
395.78	27.844
396.14	28.287
396.50	27.401
396.85	27.267
397.21	27.582
397.57	28.571
397.92	27.810
398.28	27.500
398.64	28.198
399.00	27.921
399.35	27.396
399.71	27.468
400.07	27.522
400.42	27.676
400.78	26.893
401.14	27.725
401.49	27.358
401.85	27.395
402.21	27.712
402.57	28.095
402.92	28.005
403.28	27.328
403.63	26.962
403.99	28.030
404.35	26.812
404.70	27.501
405.06	27.336
405.42	27.368
405.77	26.018
406.13	26.462
406.49	27.202
406.84	27.415
407.20	27.326
407.55	27.359
407.91	26.490
408.27	27.451
408.62	27.180
408.98	26.925
409.34	26.691
409.69	27.095
410.05	25.894
410.40	25.628
410.76	27.030
411.11	27.307
411.47	27.685
411.83	27.934
412.18	26.733
412.54	26.968
412.89	27.035
413.25	26.387
413.60	26.549
413.96	26.186
414.31	26.422
414.67	26.603
415.03	27.878
415.38	27.391
415.74	27.255
416.09	26.662
416.45	26.653
416.80	26.853
417.16	26.977
417.51	28.431
417.87	26.926
418.22	27.370
418.58	27.214
418.93	27.161
419.29	27.415
419.64	27.450
420.00	28.433
420.35	27.735
420.71	27.611
421.06	28.580
421.42	27.518
421.77	27.192
422.12	28.316
422.48	27.418
422.83	27.392
423.19	28.563
423.54	28.991
423.90	28.051
424.25	28.224
424.61	28.468
424.96	29.023
425.31	29.234
425.67	28.596
426.02	28.744
426.38	30.067
426.73	28.638
427.09	29.657
427.44	29.375
427.79	29.477
428.15	29.443
428.50	30.029
428.85	29.556
429.21	29.884
429.56	30.990
429.92	29.960
430.27	30.259
430.62	29.728
430.98	30.162
431.33	30.203
431.68	30.241
432.04	30.498
432.39	31.111
432.74	30.935
433.10	31.401
433.45	31.434
433.80	31.075
434.16	31.059
434.51	31.178
434.86	31.517
435.22	32.127
435.57	31.457
435.92	31.653
436.28	31.869
436.63	30.921
436.98	31.730
437.34	31.896
437.69	31.097
438.04	31.764
438.39	33.454
438.75	32.829
439.10	32.593
439.45	32.649
439.81	32.108
440.16	32.765
440.51	33.471
440.86	33.083
441.22	32.615
441.57	33.105
441.92	33.095
442.27	32.143
442.63	32.940
442.98	32.957
443.33	33.718
443.68	33.142
444.03	33.202
444.39	33.578
444.74	34.141
445.09	33.059
445.44	33.258
445.79	33.809
446.15	33.954
446.50	33.043
446.85	34.428
447.20	33.197
447.55	34.309
447.91	33.970
448.26	33.687
448.61	33.447
448.96	33.725
449.31	34.160
449.66	34.402
450.02	33.019
450.37	34.029
450.72	33.446
451.07	34.507
451.42	33.891
451.77	34.710
452.12	34.565
452.47	33.816
452.83	35.527
453.18	34.662
453.53	33.893
453.88	35.646
454.23	34.764
454.58	34.804
454.93	35.327
455.28	35.373
455.63	34.951
455.98	36.506
456.34	34.117
456.69	35.460
457.04	35.648
457.39	34.330
457.74	35.322
458.09	34.977
458.44	34.931
458.79	35.314
459.14	35.083
459.49	35.938
459.84	36.369
460.19	35.859
460.54	34.241
460.89	36.099
461.24	35.944
461.59	36.460
461.94	35.964
462.29	35.616
462.64	34.717
462.99	36.011
463.34	35.652
463.69	35.369
464.04	35.091
464.39	35.603
464.74	35.225
465.09	34.756
465.44	35.928
465.79	36.492
466.14	36.709
466.49	35.924
466.84	36.495
467.19	36.783
467.54	35.380
467.89	36.806
468.24	35.748
468.59	35.540
468.94	36.463
469.29	36.647
469.64	36.658
469.99	36.327
470.34	37.141
470.68	36.192
471.03	36.958
471.38	37.014
471.73	37.063
472.08	36.479
472.43	36.165
472.78	37.267
473.13	35.321
473.48	36.631
473.83	36.787
474.17	36.306
474.52	37.596
474.87	37.063
475.22	35.988
475.57	36.722
475.92	38.121
476.27	37.657
476.61	37.070
476.96	36.389
477.31	37.298
477.66	36.303
478.01	37.655
478.36	37.035
478.70	38.227
479.05	38.075
479.40	37.927
479.75	37.513
480.10	36.012
480.45	36.992
480.79	36.624
481.14	37.933
481.49	36.980
481.84	37.402
482.19	37.049
482.53	37.879
482.88	36.877
483.23	37.465
483.58	36.078
483.92	37.888
484.27	36.730
484.62	36.587
484.97	36.633
485.31	35.808
485.66	35.397
486.01	34.871
486.36	35.445
486.70	36.257
487.05	36.244
487.40	36.565
487.75	36.131
488.09	36.010
488.44	37.043
488.79	36.010
489.13	37.277
489.48	37.398
489.83	38.079
490.17	37.745
490.52	38.043
490.87	38.060
491.22	37.833
491.56	37.269
491.91	37.357
492.26	37.877
492.60	37.536
492.95	38.267
493.30	38.018
493.64	37.142
493.99	38.050
494.34	37.619
494.68	38.904
495.03	37.763
495.37	37.807
495.72	38.212
496.07	38.339
496.41	38.768
496.76	38.356
497.11	38.860
497.45	38.745
497.80	39.620
498.14	38.752
498.49	38.674
498.84	37.718
499.18	38.645
499.53	38.042
499.87	38.900
500.22	38.480
500.56	38.019
500.91	37.980
501.26	39.156
501.60	38.276
501.95	40.338
502.29	38.309
502.64	38.614
502.98	39.195
503.33	38.440
503.67	38.075
504.02	38.436
504.36	38.382
504.71	39.362
505.06	38.742
505.40	39.371
505.75	39.278
506.09	40.344
506.44	39.398
506.78	39.538
507.13	39.186
507.47	39.697
507.82	38.926
508.16	39.741
508.51	39.567
508.85	38.872
509.19	39.560
509.54	40.222
509.88	39.734
510.23	38.941
510.57	40.106
510.92	40.494
511.26	39.075
511.61	40.065
511.95	39.386
512.30	39.857
512.64	39.176
512.98	41.254
513.33	40.582
513.67	39.419
514.02	40.213
514.36	39.501
514.70	39.332
515.05	40.766
515.39	40.600
515.74	40.954
516.08	40.519
516.42	40.680
516.77	40.555
517.11	41.133
517.46	41.089
517.80	41.817
518.14	40.700
518.49	40.406
518.83	40.712
519.17	40.971
519.52	40.428
519.86	41.398
520.20	40.954
520.55	39.815
520.89	41.014
521.23	40.537
521.58	40.564
521.92	42.052
522.26	41.968
522.61	41.572
522.95	40.013
523.29	41.630
523.64	40.412
523.98	41.693
524.32	41.358
524.66	40.248
525.01	41.490
525.35	41.302
525.69	42.290
526.04	42.037
526.38	42.775
526.72	40.932
527.06	42.383
527.41	41.650
527.75	40.924
528.09	41.496
528.43	42.033
528.78	41.206
529.12	41.613
529.46	40.915
529.80	41.317
530.15	41.983
530.49	40.686
530.83	42.305
531.17	40.741
531.51	40.790
531.86	40.553
532.20	41.026
532.54	42.045
532.88	40.777
533.22	40.575
533.57	40.862
533.91	40.949
534.25	40.729
534.59	41.099
534.93	40.324
535.27	41.661
535.62	40.857
535.96	39.690
536.30	40.445
536.64	41.368
536.98	41.667
537.32	40.774
537.66	40.597
538.01	40.412
538.35	41.486
538.69	40.307
539.03	40.284
539.37	40.918
539.71	39.893
540.05	40.576
540.39	41.136
540.73	41.672
541.07	42.077
541.42	40.243
541.76	39.734
542.10	41.594
542.44	40.706
542.78	40.299
543.12	41.684
543.46	40.822
543.80	40.602
544.14	41.639
544.48	40.748
544.82	40.122
545.16	41.180
545.50	40.108
545.84	41.307
546.18	41.401
546.52	41.892
546.86	40.313
547.20	42.053
547.54	39.807
547.88	42.070
548.22	39.712
548.56	41.082
548.90	41.442
549.24	39.944
549.58	40.508
549.92	41.060
550.26	41.691
550.60	40.825
550.94	41.314
551.28	41.309
551.62	39.882
551.96	41.317
552.30	40.976
552.64	41.731
552.98	40.855
553.32	40.548
553.66	41.456
554.00	41.436
554.34	40.650
554.68	41.667
555.02	42.692
555.36	41.193
555.69	41.404
556.03	41.333
556.37	41.394
556.71	42.448
557.05	41.537
557.39	41.648
557.73	41.940
558.07	42.427
558.41	40.539
558.75	42.890
559.08	42.101
559.42	42.573
559.76	42.868
560.10	42.133
560.44	42.124
560.78	41.406
561.12	40.511
561.45	41.986
561.79	40.557
562.13	41.585
562.47	41.176
562.81	40.877
563.15	41.777
563.48	41.672
563.82	41.447
564.16	40.568
564.50	40.726
564.84	41.138
565.17	41.048
565.51	40.548
565.85	42.529
566.19	42.490
566.52	41.096
566.86	40.455
567.20	41.404
567.54	42.115
567.88	39.866
568.21	40.101
568.55	39.979
568.89	39.016
569.23	38.408
569.56	37.789
569.90	38.356
570.24	38.331
570.57	38.137
570.91	37.606
571.25	37.549
571.59	37.496
571.92	37.113
572.26	37.268
572.60	37.170
572.93	36.575
573.27	36.921
573.61	36.708
573.95	36.296
574.28	36.484
574.62	36.706
574.96	36.665
575.29	37.043
575.63	37.324
575.97	35.868
576.30	36.996
576.64	36.789
576.98	36.054
577.31	36.734
577.65	36.457
577.98	36.309
578.32	36.287
578.66	36.591
578.99	36.303
579.33	36.498
579.67	36.089
580.00	36.334
580.34	36.130
580.67	36.406
581.01	35.718
581.35	36.040
581.68	35.305
582.02	36.240
582.35	35.921
582.69	36.869
583.02	36.848
583.36	37.035
583.70	36.764
584.03	37.150
584.37	37.023
584.70	37.008
585.04	36.709
585.37	36.181
585.71	36.164
586.04	36.069
586.38	36.300
586.72	36.809
587.05	37.808
587.39	36.848
587.72	36.395
588.06	37.717
588.39	36.599
588.73	37.658
589.06	37.948
589.40	37.650
589.73	38.137
590.07	38.092
590.40	37.417
590.73	37.545
591.07	38.607
591.40	38.908
591.74	38.315
592.07	38.468
592.41	38.217
592.74	38.586
593.08	38.036
593.41	38.191
593.75	37.191
594.08	38.102
594.41	38.262
594.75	38.128
595.08	37.256
595.42	38.042
595.75	37.854
596.09	37.796
596.42	38.748
596.75	38.422
597.09	39.270
597.42	37.625
597.75	37.644
598.09	39.132
598.42	38.445
598.76	37.998
599.09	37.490
599.42	37.985
599.76	38.543
600.09	38.397
600.42	38.435
600.76	37.966
601.09	37.714
601.42	37.911
601.76	37.461
602.09	38.446
602.42	37.819
602.76	38.139
603.09	39.032
603.42	38.638
603.76	38.692
604.09	37.926
604.42	38.135
604.76	37.898
605.09	38.382
605.42	39.317
605.75	38.853
606.09	37.900
606.42	37.788
606.75	37.398
607.09	39.171
607.42	38.204
607.75	37.616
608.08	40.352
608.42	38.411
608.75	38.318
609.08	39.162
609.41	38.864
609.75	38.079
610.08	39.216
610.41	39.711
610.74	39.990
611.07	40.213
611.41	38.275
611.74	39.794
612.07	40.226
612.40	39.712
612.73	39.149
613.07	39.185
613.40	39.135
613.73	39.401
614.06	39.374
614.39	40.248
614.72	39.888
615.06	39.674
615.39	38.416
615.72	39.870
616.05	39.426
616.38	39.814
616.71	39.459
617.05	39.686
617.38	40.991
617.71	37.899
618.04	39.752
618.37	41.258
618.70	40.743
619.03	40.352
619.36	41.720
619.69	41.852
620.03	39.945
620.36	40.788
620.69	41.062
621.02	42.085
621.35	41.774
621.68	41.230
622.01	41.828
622.34	40.373
622.67	40.703
623.00	42.234
623.33	42.090
623.66	40.842
623.99	41.353
624.32	41.890
624.65	41.280
624.99	40.851
625.32	40.644
625.65	41.647
625.98	41.471
626.31	42.333
626.64	42.259
626.97	42.894
627.30	42.383
627.63	41.019
627.96	42.472
628.29	42.739
628.62	41.738
628.95	44.094
629.28	42.575
629.61	43.180
629.94	43.289
630.26	45.726
630.59	44.422
630.92	44.044
631.25	44.960
631.58	43.704
631.91	42.979
632.24	45.556
632.57	44.333
632.90	44.483
633.23	43.808
633.56	44.327
633.89	45.873
634.22	44.628
634.55	44.111
634.88	45.345
