SpectraSuite Data File
++++++++++++++++++++++++++++++++++++
Date: Sat May 16 11:42:09 PDT 2015
User: schluterlab
Dark Spectrum Present: Yes
Reference Spectrum Present: Yes
Number of Sampled Component Spectra: 1
Spectrometers: USB2E3373
Integration Time (usec): 3000 (USB2E3373)
Spectra Averaged: 3 (USB2E3373)
Boxcar Smoothing: 0 (USB2E3373)
Correct for Electrical Dark: No (USB2E3373)
Strobe/Lamp Enabled: No (USB2E3373)
Correct for Detector Non-linearity: No (USB2E3373)
Correct for Stray Light: No (USB2E3373)
Number of Pixels in Processed Spectrum: 2048
>>>>>Begin Processed Spectral Data<<<<<
178.53	0.000
178.91	113.333
179.29	100.000
179.67	-1700.000
180.04	-61.538
180.42	800.000
180.80	300.000
181.18	575.000
181.56	-75.000
181.94	600.000
182.31	750.000
182.69	61.538
183.07	-633.333
183.45	1700.000
183.83	433.333
184.20	-271.429
184.58	-300.000
184.96	-600.000
185.34	156.250
185.72	-250.000
186.09	300.000
186.47	-162.500
186.85	-125.000
187.23	0.000
187.61	-250.000
187.98	-375.000
188.36	-187.500
188.74	-25.000
189.12	1400.000
189.49	342.857
189.87	-41.667
190.25	525.000
190.63	-92.857
191.00	-155.556
191.38	500.000
191.76	13.333
192.14	740.000
192.51	-240.000
192.89	-500.000
193.27	0.000
193.65	-166.667
194.02	-285.714
194.40	533.333
194.78	-180.000
195.15	-700.000
195.53	-172.727
195.91	-283.333
196.29	180.000
196.66	-466.667
197.04	2500.000
197.42	-225.000
197.79	-26.667
198.17	-400.000
198.55	-850.000
198.92	-1400.000
199.30	350.000
199.68	-500.000
200.05	-255.556
200.43	-188.889
200.81	-1000.000
201.18	-91.667
201.56	285.714
201.94	-126.667
202.31	-18.182
202.69	50.000
203.07	-200.000
203.44	733.333
203.82	-350.000
204.19	-425.000
204.57	-225.000
204.95	-1200.000
205.32	-6.250
205.70	1000.000
206.08	-1500.000
206.45	16.667
206.83	-1050.000
207.20	0.000
207.58	-600.000
207.96	-433.333
208.33	-150.000
208.71	-100.000
209.08	230.000
209.46	-185.714
209.84	250.000
210.21	0.000
210.59	-15.000
210.96	1200.000
211.34	-216.667
211.71	-433.333
212.09	325.000
212.46	300.000
212.84	-2900.000
213.22	333.333
213.59	116.667
213.97	-77.778
214.34	100.000
214.72	-120.000
215.09	-366.667
215.47	-116.667
215.84	-110.000
216.22	-130.000
216.59	-6.667
216.97	-375.000
217.34	1500.000
217.72	-42.857
218.09	-266.667
218.47	-228.571
218.84	242.857
219.22	-157.143
219.59	0.000
219.97	300.000
220.34	350.000
220.72	262.500
221.09	-7.692
221.47	0.000
221.84	833.333
222.22	-800.000
222.59	2200.000
222.97	-325.000
223.34	-1350.000
223.72	-400.000
224.09	-92.857
224.46	-400.000
224.84	14.286
225.21	-214.286
225.59	-136.364
225.96	-225.000
226.34	-271.429
226.71	-77.778
227.08	-40.000
227.46	1400.000
227.83	-142.857
228.21	-287.500
228.58	600.000
228.95	-6.250
229.33	-1000.000
229.70	-360.000
230.08	-500.000
230.45	-100.000
230.82	-133.333
231.20	-2500.000
231.57	-700.000
231.95	1500.000
232.32	4.762
232.69	-211.111
233.07	-357.143
233.44	-700.000
233.81	-80.000
234.19	-66.667
234.56	-56.250
234.93	6.250
235.31	-314.286
235.68	-114.286
236.05	-58.824
236.43	-77.273
236.80	-16.129
237.17	-54.167
237.55	-47.619
237.92	-59.091
238.29	-37.143
238.67	-14.706
239.04	5.556
239.41	-45.161
239.79	-23.077
240.16	-28.571
240.53	-18.182
240.91	-20.513
241.28	-10.909
241.65	7.692
242.02	0.000
242.40	-8.197
242.77	-7.576
243.14	-15.254
243.51	-18.571
243.89	-1.266
244.26	3.371
244.63	3.158
245.00	-1.053
245.38	7.627
245.75	10.619
246.12	11.200
246.49	10.236
246.87	0.813
247.24	-4.237
247.61	6.780
247.98	9.155
248.36	2.098
248.73	14.557
249.10	-0.637
249.47	6.433
249.84	7.955
250.22	-1.786
250.59	9.605
250.96	4.188
251.33	16.588
251.70	13.462
252.08	9.953
252.45	8.531
252.82	7.619
253.19	10.638
253.56	8.871
253.94	10.970
254.31	15.021
254.68	14.228
255.05	10.484
255.42	7.143
255.79	7.885
256.16	13.725
256.54	16.176
256.91	9.091
257.28	7.326
257.65	7.092
258.02	14.780
258.39	10.702
258.76	10.135
259.14	11.420
259.51	15.738
259.88	9.756
260.25	14.907
260.62	12.862
260.99	10.979
261.36	12.805
261.73	14.451
262.10	15.000
262.47	12.821
262.85	12.286
263.22	12.034
263.59	8.923
263.96	8.986
264.33	13.279
264.70	17.956
265.07	10.714
265.44	14.987
265.81	11.370
266.18	10.886
266.55	11.765
266.92	11.587
267.29	13.559
267.66	11.111
268.03	14.010
268.40	14.085
268.77	13.494
269.14	13.921
269.51	13.103
269.88	13.303
270.25	10.723
270.62	12.128
270.99	11.937
271.36	12.821
271.73	11.211
272.10	13.959
272.47	12.889
272.84	15.111
273.21	13.991
273.58	12.088
273.95	12.500
274.32	13.801
274.69	13.348
275.06	12.474
275.43	12.723
275.80	14.868
276.17	13.808
276.54	15.682
276.91	12.757
277.28	15.619
277.65	16.322
278.02	13.987
278.39	13.163
278.76	12.749
279.13	14.032
279.50	12.922
279.87	13.108
280.23	13.360
280.60	13.320
280.97	12.621
281.34	13.540
281.71	13.846
282.08	14.919
282.45	13.646
282.82	12.791
283.19	12.727
283.56	14.835
283.92	13.074
284.29	13.755
284.66	13.309
285.03	13.369
285.40	14.391
285.77	15.088
286.14	14.079
286.51	12.789
286.87	13.249
287.24	12.799
287.61	14.876
287.98	12.478
288.35	11.405
288.72	11.205
289.08	9.153
289.45	11.111
289.82	11.246
290.19	13.629
290.56	12.066
290.93	12.083
291.29	11.021
291.66	13.688
292.03	12.716
292.40	11.747
292.77	9.317
293.13	12.520
293.50	11.590
293.87	13.650
294.24	10.407
294.60	11.364
294.97	12.595
295.34	9.037
295.71	11.756
296.08	10.445
296.44	10.587
296.81	11.681
297.18	10.282
297.55	9.746
297.91	10.600
298.28	10.137
298.65	10.321
299.02	10.829
299.38	8.957
299.75	10.462
300.12	11.026
300.48	11.893
300.85	9.174
301.22	10.479
301.59	9.363
301.95	10.453
302.32	8.605
302.69	11.016
303.05	10.134
303.42	9.125
303.79	10.407
304.15	9.716
304.52	10.152
304.89	10.626
305.25	9.524
305.62	9.401
305.99	10.836
306.35	8.435
306.72	9.681
307.09	11.010
307.45	9.421
307.82	9.385
308.19	9.172
308.55	9.259
308.92	8.163
309.29	8.973
309.65	9.968
310.02	9.503
310.38	7.892
310.75	9.221
311.12	9.401
311.48	10.125
311.85	8.342
312.22	8.754
312.58	11.394
312.95	8.461
313.31	9.990
313.68	10.050
314.05	10.089
314.41	8.149
314.78	7.992
315.14	9.477
315.51	9.422
315.87	9.390
316.24	9.427
316.61	9.981
316.97	9.154
317.34	8.767
317.70	9.833
318.07	10.075
318.43	9.363
318.80	9.859
319.16	8.537
319.53	9.774
319.89	8.467
320.26	10.098
320.62	8.462
320.99	9.055
321.35	7.685
321.72	7.677
322.08	9.693
322.45	8.812
322.81	8.934
323.18	8.357
323.54	9.335
323.91	10.009
324.27	9.696
324.64	8.958
325.00	10.122
325.37	9.955
325.73	10.061
326.10	8.326
326.46	9.282
326.83	9.277
327.19	9.842
327.56	10.562
327.92	10.450
328.29	10.909
328.65	8.364
329.01	9.629
329.38	9.545
329.74	10.256
330.11	9.973
330.47	9.809
330.84	10.266
331.20	7.581
331.56	9.845
331.93	9.236
332.29	8.950
332.66	9.833
333.02	9.321
333.38	10.036
333.75	9.706
334.11	9.511
334.48	9.267
334.84	10.061
335.20	9.574
335.57	9.747
335.93	10.922
336.29	8.946
336.66	8.194
337.02	9.640
337.38	9.626
337.75	8.780
338.11	9.034
338.47	9.520
338.84	8.893
339.20	8.172
339.56	10.606
339.93	7.937
340.29	8.769
340.65	8.479
341.02	10.118
341.38	9.688
341.74	10.076
342.11	8.618
342.47	9.185
342.83	10.076
343.20	8.711
343.56	8.000
343.92	10.935
344.28	9.336
344.65	8.416
345.01	8.403
345.37	10.382
345.73	9.165
346.10	8.831
346.46	9.017
346.82	8.019
347.19	8.381
347.55	8.828
347.91	8.740
348.27	8.990
348.63	9.532
349.00	9.944
349.36	8.587
349.72	8.917
350.08	9.543
350.45	8.274
350.81	9.713
351.17	8.521
351.53	8.433
351.89	7.680
352.26	9.535
352.62	10.906
352.98	8.544
353.34	9.512
353.70	8.726
354.07	9.756
354.43	8.933
354.79	8.320
355.15	7.827
355.51	8.828
355.87	8.379
356.24	8.658
356.60	9.911
356.96	9.238
357.32	7.759
357.68	8.429
358.04	8.930
358.40	8.043
358.77	8.192
359.13	7.881
359.49	8.617
359.85	8.689
360.21	8.219
360.57	9.036
360.93	8.963
361.29	8.969
361.66	8.232
362.02	7.914
362.38	9.831
362.74	9.158
363.10	8.752
363.46	9.687
363.82	9.038
364.18	9.190
364.54	10.365
364.90	9.085
365.26	8.488
365.62	9.052
365.98	10.028
366.35	9.155
366.71	7.259
367.07	8.751
367.43	9.128
367.79	8.866
368.15	7.966
368.51	9.161
368.87	9.959
369.23	9.614
369.59	9.514
369.95	9.302
370.31	9.142
370.67	7.881
371.03	9.548
371.39	8.557
371.75	10.086
372.11	10.115
372.47	9.038
372.83	9.179
373.19	8.857
373.55	9.711
373.91	8.890
374.27	9.651
374.63	9.524
374.99	9.875
375.35	8.614
375.71	9.048
376.07	8.898
376.42	8.146
376.78	9.346
377.14	8.678
377.50	9.091
377.86	9.168
378.22	9.673
378.58	9.512
378.94	8.076
379.30	9.141
379.66	9.472
380.02	8.497
380.38	8.338
380.74	8.792
381.09	9.842
381.45	10.084
381.81	8.469
382.17	9.023
382.53	8.875
382.89	8.971
383.25	9.392
383.61	9.021
383.97	9.920
384.32	9.136
384.68	9.855
385.04	9.300
385.40	9.130
385.76	8.780
386.12	9.369
386.48	9.530
386.83	9.387
387.19	9.325
387.55	9.509
387.91	9.366
388.27	8.142
388.62	9.014
388.98	8.661
389.34	9.302
389.70	8.952
390.06	9.385
390.42	8.782
390.77	9.338
391.13	9.379
391.49	9.357
391.85	9.414
392.20	9.223
392.56	9.041
392.92	9.812
393.28	9.587
393.64	9.260
393.99	9.169
394.35	9.428
394.71	9.636
395.07	9.856
395.42	8.343
395.78	8.799
396.14	9.657
396.50	9.297
396.85	9.377
397.21	9.235
397.57	9.605
397.92	9.660
398.28	9.778
398.64	8.745
399.00	9.551
399.35	9.076
399.71	9.582
400.07	8.896
400.42	8.942
400.78	9.123
401.14	9.641
401.49	9.493
401.85	9.640
402.21	9.654
402.57	9.648
402.92	8.811
403.28	9.681
403.63	8.508
403.99	10.068
404.35	8.877
404.70	9.538
405.06	9.746
405.42	8.610
405.77	9.333
406.13	9.143
406.49	8.808
406.84	9.778
407.20	9.776
407.55	9.563
407.91	8.290
408.27	10.417
408.62	9.862
408.98	9.278
409.34	9.263
409.69	9.515
410.05	9.096
410.40	9.810
410.76	10.255
411.11	9.352
411.47	9.207
411.83	9.719
412.18	8.849
412.54	9.396
412.89	8.991
413.25	8.442
413.60	9.781
413.96	8.688
414.31	9.297
414.67	8.698
415.03	9.185
415.38	10.215
415.74	10.374
416.09	9.591
416.45	8.201
416.80	9.233
417.16	8.970
417.51	9.521
417.87	9.256
418.22	9.355
418.58	10.013
418.93	8.584
419.29	9.536
419.64	9.799
420.00	10.267
420.35	9.521
420.71	9.424
421.06	10.355
421.42	8.899
421.77	9.659
422.12	9.289
422.48	9.781
422.83	9.795
423.19	9.855
423.54	9.222
423.90	9.254
424.25	9.615
424.61	8.926
424.96	10.123
425.31	9.670
425.67	9.398
426.02	9.352
426.38	9.982
426.73	9.877
427.09	9.252
427.44	9.034
427.79	9.070
428.15	9.994
428.50	10.440
428.85	9.293
429.21	8.910
429.56	9.583
429.92	10.271
430.27	10.120
430.62	9.718
430.98	9.880
431.33	8.751
431.68	10.027
432.04	10.297
432.39	10.256
432.74	10.612
433.10	9.848
433.45	8.808
433.80	9.295
434.16	10.210
434.51	10.192
434.86	10.018
435.22	10.356
435.57	10.037
435.92	10.375
436.28	9.318
436.63	9.610
436.98	9.049
437.34	10.219
437.69	9.918
438.04	10.153
438.39	10.048
438.75	9.430
439.10	10.716
439.45	9.354
439.81	10.241
440.16	10.449
440.51	10.235
440.86	9.659
441.22	9.176
441.57	9.421
441.92	9.821
442.27	9.957
442.63	9.442
442.98	8.804
443.33	9.830
443.68	10.162
444.03	10.462
444.39	9.202
444.74	10.352
445.09	10.088
445.44	10.411
445.79	9.740
446.15	10.570
446.50	9.091
446.85	9.595
447.20	10.061
447.55	9.834
447.91	10.051
448.26	9.832
448.61	10.074
448.96	10.364
449.31	9.132
449.66	10.475
450.02	9.972
450.37	10.029
450.72	9.944
451.07	9.554
451.42	9.851
451.77	9.575
452.12	9.297
452.47	10.894
452.83	9.843
453.18	10.436
453.53	9.266
453.88	10.407
454.23	9.250
454.58	10.193
454.93	10.768
455.28	9.815
455.63	10.197
455.98	10.422
456.34	9.784
456.69	11.194
457.04	10.326
457.39	9.809
457.74	10.632
458.09	10.731
458.44	10.566
458.79	9.753
459.14	10.211
459.49	10.598
459.84	10.230
460.19	10.084
460.54	9.982
460.89	9.641
461.24	9.897
461.59	9.906
461.94	9.675
462.29	10.363
462.64	11.199
462.99	10.442
463.34	9.386
463.69	10.369
464.04	10.018
464.39	9.438
464.74	9.811
465.09	9.802
465.44	9.419
465.79	10.829
466.14	10.414
466.49	10.075
466.84	10.144
467.19	9.975
467.54	8.861
467.89	10.111
468.24	10.214
468.59	9.931
468.94	9.904
469.29	10.396
469.64	9.973
469.99	10.736
470.34	9.686
470.68	11.337
471.03	10.323
471.38	9.722
471.73	10.070
472.08	10.375
472.43	10.425
472.78	11.533
473.13	9.675
473.48	10.402
473.83	10.298
474.17	10.191
474.52	11.061
474.87	10.082
475.22	10.324
475.57	10.167
475.92	11.123
476.27	10.286
476.61	10.423
476.96	10.341
477.31	10.818
477.66	10.349
478.01	10.265
478.36	10.581
478.70	9.824
479.05	10.871
479.40	10.777
479.75	10.347
480.10	10.466
480.45	10.203
480.79	10.661
481.14	11.089
481.49	11.036
481.84	10.772
482.19	10.507
482.53	10.322
482.88	9.967
483.23	10.141
483.58	10.731
483.92	10.893
484.27	9.659
484.62	10.151
484.97	10.016
485.31	9.696
485.66	10.041
486.01	10.074
486.36	10.484
486.70	10.353
487.05	10.362
487.40	10.176
487.75	10.640
488.09	9.759
488.44	10.149
488.79	10.364
489.13	10.612
489.48	10.808
489.83	11.048
490.17	11.058
490.52	11.051
490.87	10.577
491.22	10.603
491.56	11.250
491.91	10.973
492.26	10.755
492.60	10.466
492.95	11.185
493.30	10.624
493.64	11.095
493.99	10.899
494.34	10.476
494.68	11.423
495.03	11.185
495.37	10.324
495.72	10.609
496.07	10.887
496.41	11.255
496.76	10.320
497.11	10.740
497.45	11.782
497.80	10.355
498.14	11.100
498.49	11.150
498.84	10.534
499.18	11.940
499.53	10.813
499.87	10.907
500.22	10.931
500.56	10.755
500.91	10.739
501.26	11.111
501.60	10.640
501.95	11.739
502.29	10.392
502.64	11.787
502.98	10.398
503.33	11.137
503.67	9.818
504.02	10.671
504.36	11.127
504.71	10.334
505.06	10.434
505.40	11.327
505.75	10.671
506.09	11.173
506.44	10.476
506.78	10.788
507.13	11.020
507.47	11.581
507.82	11.048
508.16	10.984
508.51	10.922
508.85	10.663
509.19	10.361
509.54	11.258
509.88	12.021
510.23	11.321
510.57	11.693
510.92	11.010
511.26	11.377
511.61	10.799
511.95	11.638
512.30	10.885
512.64	10.963
512.98	11.606
513.33	11.642
513.67	11.223
514.02	11.298
514.36	11.025
514.70	11.036
515.05	11.778
515.39	11.476
515.74	12.042
516.08	11.816
516.42	11.615
516.77	11.785
517.11	11.842
517.46	11.962
517.80	11.733
518.14	10.447
518.49	11.715
518.83	11.335
519.17	12.197
519.52	11.047
519.86	11.350
520.20	12.408
520.55	11.262
520.89	11.709
521.23	12.149
521.58	11.787
521.92	11.273
522.26	11.238
522.61	11.597
522.95	11.487
523.29	11.975
523.64	11.493
523.98	12.031
524.32	11.879
524.66	11.304
525.01	12.267
525.35	12.758
525.69	12.167
526.04	11.945
526.38	12.349
526.72	11.494
527.06	12.956
527.41	11.815
527.75	11.485
528.09	11.449
528.43	11.410
528.78	12.123
529.12	12.420
529.46	11.662
529.80	11.620
530.15	12.234
530.49	11.643
530.83	12.901
531.17	11.515
531.51	12.056
531.86	12.047
532.20	11.808
532.54	11.832
532.88	11.726
533.22	11.230
533.57	13.120
533.91	11.361
534.25	11.439
534.59	11.868
534.93	11.450
535.27	11.517
535.62	12.724
535.96	12.540
536.30	12.042
536.64	12.882
536.98	12.006
537.32	11.196
537.66	11.609
538.01	11.478
538.35	12.973
538.69	12.299
539.03	12.525
539.37	12.774
539.71	13.075
540.05	11.926
540.39	11.427
540.73	12.716
541.07	13.525
541.42	12.154
541.76	12.558
542.10	13.369
542.44	12.458
542.78	11.940
543.12	12.084
543.46	11.575
543.80	11.104
544.14	11.887
544.48	13.386
544.82	12.585
545.16	12.140
545.50	11.844
545.84	11.822
546.18	12.413
546.52	12.233
546.86	12.108
547.20	12.799
547.54	11.915
547.88	12.674
548.22	11.533
548.56	10.822
548.90	13.005
549.24	11.843
549.58	12.985
549.92	12.509
550.26	12.572
550.60	12.376
550.94	12.701
551.28	13.017
551.62	12.629
551.96	12.373
552.30	12.474
552.64	11.893
552.98	12.824
553.32	11.760
553.66	12.833
554.00	12.651
554.34	12.347
554.68	12.354
555.02	13.748
555.36	12.437
555.69	11.605
556.03	13.053
556.37	13.442
556.71	13.099
557.05	12.860
557.39	11.656
557.73	13.858
558.07	12.886
558.41	12.416
558.75	13.764
559.08	11.673
559.42	12.175
559.76	11.810
560.10	14.392
560.44	13.439
560.78	12.735
561.12	12.836
561.45	13.082
561.79	11.707
562.13	11.921
562.47	12.605
562.81	12.447
563.15	12.246
563.48	13.476
563.82	12.441
564.16	13.117
564.50	12.298
564.84	13.161
565.17	12.268
565.51	13.233
565.85	13.590
566.19	12.451
566.52	12.590
566.86	12.326
567.20	13.075
567.54	14.117
567.88	12.507
568.21	12.919
568.55	12.354
568.89	11.928
569.23	12.031
569.56	11.559
569.90	12.510
570.24	12.213
570.57	11.951
570.91	12.105
571.25	12.127
571.59	11.926
571.92	12.470
572.26	12.163
572.60	12.349
572.93	12.016
573.27	11.402
573.61	11.356
573.95	12.214
574.28	12.196
574.62	12.176
574.96	11.441
575.29	11.636
575.63	11.760
575.97	11.866
576.30	11.647
576.64	11.593
576.98	11.894
577.31	11.585
577.65	11.832
577.98	11.667
578.32	11.429
578.66	11.873
578.99	11.703
579.33	11.881
579.67	11.793
580.00	11.558
580.34	11.595
580.67	11.743
581.01	11.152
581.35	11.466
581.68	11.756
582.02	12.117
582.35	11.558
582.69	11.592
583.02	11.936
583.36	11.725
583.70	11.751
584.03	11.961
584.37	11.502
584.70	12.160
585.04	11.873
585.37	11.790
585.71	11.756
586.04	11.246
586.38	11.013
586.72	12.063
587.05	12.008
587.39	11.991
587.72	11.654
588.06	12.077
588.39	12.190
588.73	11.829
589.06	12.340
589.40	12.985
589.73	12.075
590.07	12.309
590.40	12.768
590.73	12.555
591.07	12.377
591.40	12.478
591.74	12.033
592.07	12.162
592.41	12.569
592.74	12.683
593.08	12.496
593.41	12.270
593.75	12.133
594.08	12.150
594.41	12.643
594.75	12.269
595.08	11.955
595.42	12.175
595.75	12.238
596.09	11.719
596.42	12.193
596.75	12.592
597.09	12.244
597.42	12.484
597.75	12.888
598.09	12.517
598.42	12.019
598.76	12.043
599.09	11.642
599.42	11.342
599.76	12.042
600.09	12.366
600.42	12.419
600.76	12.429
601.09	12.457
601.42	11.872
601.76	12.695
602.09	11.902
602.42	12.881
602.76	11.840
603.09	12.500
603.42	12.329
603.76	12.126
604.09	11.934
604.42	11.740
604.76	12.211
605.09	12.297
605.42	12.589
605.75	12.117
606.09	12.329
606.42	11.856
606.75	12.409
607.09	12.836
607.42	12.060
607.75	11.921
608.08	12.472
608.42	12.015
608.75	12.196
609.08	11.982
609.41	12.307
609.75	12.043
610.08	12.745
610.41	12.675
610.74	12.573
611.07	12.373
611.41	12.153
611.74	12.956
612.07	12.889
612.40	12.473
612.73	12.386
613.07	12.273
613.40	13.465
613.73	12.316
614.06	12.795
614.39	12.740
614.72	11.229
615.06	12.391
615.39	11.666
615.72	11.950
616.05	11.761
616.38	12.304
616.71	13.153
617.05	12.907
617.38	12.136
617.71	12.654
618.04	11.988
618.37	12.390
618.70	12.712
619.03	12.187
619.36	12.615
619.69	13.352
620.03	12.603
620.36	13.432
620.69	13.065
621.02	12.481
621.35	12.258
621.68	13.443
622.01	13.026
622.34	13.820
622.67	12.734
623.00	13.619
623.33	13.955
623.66	13.885
623.99	12.632
624.32	12.426
624.65	13.171
624.99	12.845
625.32	13.772
625.65	13.675
625.98	12.676
626.31	13.214
626.64	13.556
626.97	13.527
627.30	12.851
627.63	11.744
627.96	13.142
628.29	13.327
628.62	11.843
628.95	15.354
629.28	13.346
629.61	12.561
629.94	15.123
630.26	14.115
630.59	14.673
630.92	13.313
631.25	14.819
631.58	14.180
631.91	11.170
632.24	13.778
632.57	14.556
632.90	11.954
633.23	12.967
633.56	13.099
633.89	14.505
634.22	13.341
634.55	13.582
634.88	14.148
635.20	12.734
635.53	12.595
635.86	12.720
636.19	12.943
636.52	12.664
636.85	12.274
637.18	11.500
637.51	15.613
637.83	12.383
638.16	12.763
638.49	11.862
638.82	14.672
639.15	13.489
639.48	12.840
639.81	13.140
640.13	14.459
