SpectraSuite Data File
++++++++++++++++++++++++++++++++++++
Date: Sat May 16 11:07:32 PDT 2015
User: schluterlab
Dark Spectrum Present: Yes
Reference Spectrum Present: Yes
Number of Sampled Component Spectra: 1
Spectrometers: USB2E3373
Integration Time (usec): 3000 (USB2E3373)
Spectra Averaged: 3 (USB2E3373)
Boxcar Smoothing: 0 (USB2E3373)
Correct for Electrical Dark: No (USB2E3373)
Strobe/Lamp Enabled: No (USB2E3373)
Correct for Detector Non-linearity: No (USB2E3373)
Correct for Stray Light: No (USB2E3373)
Number of Pixels in Processed Spectrum: 2048
>>>>>Begin Processed Spectral Data<<<<<
178.53	0.000
178.91	53.333
179.29	66.667
179.67	500.000
180.04	0.000
180.42	-1500.000
180.80	25.000
181.18	100.000
181.56	75.000
181.94	-600.000
182.31	-0.000
182.69	23.077
183.07	0.000
183.45	650.000
183.83	300.000
184.20	-42.857
184.58	37.500
184.96	25.000
185.34	56.250
185.72	25.000
186.09	-66.667
186.47	-25.000
186.85	50.000
187.23	100.000
187.61	250.000
187.98	-112.500
188.36	0.000
188.74	-50.000
189.12	-600.000
189.49	57.143
189.87	50.000
190.25	300.000
190.63	35.714
191.00	-44.444
191.38	-40.000
191.76	20.000
192.14	200.000
192.51	60.000
192.89	-100.000
193.27	0.000
193.65	88.889
194.02	-128.571
194.40	100.000
194.78	80.000
195.15	900.000
195.53	-81.818
195.91	-216.667
196.29	60.000
196.66	366.667
197.04	1300.000
197.42	100.000
197.79	113.333
198.17	0.000
198.55	-200.000
198.92	-500.000
199.30	75.000
199.68	200.000
200.05	77.778
200.43	-133.333
200.81	100.000
201.18	25.000
201.56	-100.000
201.94	60.000
202.31	63.636
202.69	160.000
203.07	80.000
203.44	333.333
203.82	-116.667
204.19	25.000
204.57	25.000
204.95	-600.000
205.32	37.500
205.70	-300.000
206.08	-1200.000
206.45	111.111
206.83	-750.000
207.20	600.000
207.58	-366.667
207.96	-266.667
208.33	-62.500
208.71	88.889
209.08	100.000
209.46	14.286
209.84	200.000
210.21	0.000
210.59	65.000
210.96	-700.000
211.34	-16.667
211.71	100.000
212.09	-100.000
212.46	650.000
212.84	-1200.000
213.22	66.667
213.59	-0.000
213.97	22.222
214.34	-20.000
214.72	0.000
215.09	-166.667
215.47	16.667
215.84	-60.000
216.22	90.000
216.59	93.333
216.97	-375.000
217.34	600.000
217.72	28.571
218.09	16.667
218.47	-128.571
218.84	-157.143
219.22	157.143
219.59	0.000
219.97	114.286
220.34	150.000
220.72	137.500
221.09	15.385
221.47	0.000
221.84	-133.333
222.22	-100.000
222.59	-300.000
222.97	25.000
223.34	-300.000
223.72	0.000
224.09	21.429
224.46	-125.000
224.84	128.571
225.21	128.571
225.59	100.000
225.96	100.000
226.34	-28.571
226.71	-44.444
227.08	60.000
227.46	100.000
227.83	42.857
228.21	-12.500
228.58	-50.000
228.95	56.250
229.33	-600.000
229.70	140.000
230.08	-250.000
230.45	16.667
230.82	-33.333
231.20	1100.000
231.57	200.000
231.95	800.000
232.32	76.190
232.69	0.000
233.07	-85.714
233.44	-350.000
233.81	-20.000
234.19	22.222
234.56	18.750
234.93	31.250
235.31	-100.000
235.68	-14.286
236.05	-29.412
236.43	-4.545
236.80	12.903
237.17	50.000
237.55	14.286
237.92	4.545
238.29	17.143
238.67	26.471
239.04	22.222
239.41	3.226
239.79	7.692
240.16	7.143
240.53	-7.273
240.91	-15.385
241.28	-3.636
241.65	30.769
242.02	9.836
242.40	-3.279
242.77	19.697
243.14	3.390
243.51	7.143
243.89	29.114
244.26	7.865
244.63	25.263
245.00	5.263
245.38	21.186
245.75	10.619
246.12	15.200
246.49	11.024
246.87	0.813
247.24	-3.390
247.61	1.695
247.98	2.817
248.36	4.895
248.73	13.924
249.10	8.917
249.47	13.450
249.84	12.500
250.22	1.190
250.59	11.864
250.96	14.136
251.33	13.744
251.70	9.135
252.08	10.427
252.45	8.531
252.82	3.810
253.19	10.638
253.56	7.661
253.94	10.127
254.31	7.725
254.68	15.447
255.05	4.032
255.42	7.143
255.79	8.244
256.16	8.627
256.54	12.132
256.91	6.818
257.28	9.158
257.65	11.702
258.02	11.635
258.39	7.692
258.76	6.419
259.14	8.642
259.51	12.459
259.88	6.402
260.25	10.870
260.62	5.466
260.99	9.199
261.36	8.841
261.73	12.428
262.10	13.333
262.47	7.407
262.85	11.429
263.22	9.456
263.59	5.231
263.96	8.116
264.33	8.401
264.70	7.182
265.07	8.516
265.44	10.078
265.81	6.718
266.18	6.835
266.55	10.049
266.92	9.572
267.29	9.685
267.66	8.148
268.03	9.179
268.40	8.920
268.77	10.120
269.14	9.513
269.51	8.506
269.88	8.257
270.25	7.459
270.62	7.094
270.99	8.108
271.36	9.324
271.73	7.623
272.10	8.467
272.47	8.000
272.84	9.778
273.21	10.780
273.58	9.231
273.95	8.772
274.32	10.633
274.69	11.379
275.06	12.065
275.43	8.705
275.80	9.980
276.17	8.996
276.54	10.387
276.91	8.436
277.28	10.142
277.65	9.298
278.02	8.559
278.39	8.644
278.76	9.562
279.13	9.684
279.50	8.549
279.87	8.245
280.23	7.287
280.60	9.145
280.97	7.961
281.34	8.704
281.71	10.577
282.08	8.669
282.45	6.721
282.82	10.078
283.19	9.636
283.56	10.989
283.92	10.424
284.29	8.364
284.66	8.813
285.03	11.052
285.40	10.517
285.77	10.175
286.14	9.206
286.51	6.394
286.87	7.441
287.24	8.874
287.61	7.273
287.98	6.759
288.35	9.421
288.72	8.659
289.08	7.288
289.45	9.091
289.82	5.882
290.19	8.210
290.56	7.273
290.93	8.585
291.29	7.618
291.66	7.085
292.03	9.105
292.40	7.380
292.77	7.764
293.13	5.528
293.50	9.064
293.87	7.669
294.24	7.692
294.60	5.758
294.97	8.498
295.34	6.074
295.71	8.185
296.08	6.144
296.44	7.439
296.81	8.974
297.18	6.056
297.55	8.051
297.91	8.926
298.28	5.616
298.65	5.300
299.02	7.888
299.38	5.749
299.75	7.065
300.12	7.564
300.48	8.312
300.85	6.946
301.22	8.150
301.59	7.542
301.95	7.809
302.32	6.389
302.69	7.344
303.05	5.617
303.42	8.000
303.79	6.938
304.15	7.701
304.52	7.001
304.89	6.730
305.25	7.814
305.62	6.698
305.99	7.892
306.35	7.991
306.72	6.834
307.09	6.243
307.45	6.243
307.82	5.363
308.19	6.823
308.55	7.734
308.92	6.122
309.29	7.243
309.65	6.999
310.02	7.667
310.38	7.459
310.75	6.762
311.12	8.161
311.48	7.933
311.85	7.003
312.22	7.415
312.58	8.342
312.95	7.238
313.31	8.791
313.68	9.548
314.05	8.605
314.41	7.344
314.78	7.992
315.14	9.576
315.51	7.700
315.87	9.003
316.24	10.107
316.61	9.789
316.97	10.448
317.34	8.382
317.70	8.627
318.07	10.914
318.43	10.581
318.80	11.831
319.16	10.413
319.53	10.996
319.89	10.818
320.26	12.745
320.62	11.635
320.99	11.542
321.35	10.345
321.72	11.975
322.08	11.276
322.45	12.871
322.81	13.160
323.18	12.968
323.54	13.124
323.91	13.531
324.27	13.973
324.64	14.077
325.00	14.311
325.37	14.027
325.73	15.486
326.10	15.678
326.46	14.098
326.83	15.915
327.19	15.930
327.56	16.780
327.92	16.737
328.29	16.623
328.65	15.364
329.01	17.226
329.38	17.574
329.74	17.766
330.11	16.863
330.47	18.801
330.84	18.515
331.20	18.953
331.56	18.596
331.93	17.496
332.29	20.000
332.66	18.613
333.02	18.009
333.38	18.996
333.75	19.858
334.11	19.111
334.48	18.976
334.84	21.435
335.20	19.681
335.57	20.487
335.93	20.680
336.29	20.018
336.66	19.912
337.02	19.640
337.38	19.608
337.75	19.930
338.11	20.662
338.47	20.907
338.84	20.236
339.20	20.211
339.56	21.569
339.93	20.106
340.29	20.106
340.65	19.755
341.02	19.815
341.38	19.798
341.74	19.729
342.11	20.392
342.47	20.086
342.83	18.976
343.20	20.068
343.56	19.673
343.92	21.035
344.28	21.867
344.65	20.545
345.01	19.580
345.37	20.847
345.73	20.458
346.10	20.033
346.46	19.334
346.82	19.326
347.19	20.624
347.55	19.904
347.91	20.157
348.27	18.695
348.63	20.032
349.00	21.400
349.36	18.813
349.72	20.701
350.08	19.246
350.45	19.543
350.81	20.780
351.17	19.775
351.53	19.650
351.89	20.776
352.26	19.457
352.62	21.275
352.98	20.411
353.34	18.865
353.70	19.537
354.07	20.850
354.43	20.316
354.79	20.523
355.15	19.968
355.51	20.781
355.87	21.502
356.24	21.048
356.60	22.160
356.96	21.324
357.32	20.032
357.68	20.920
358.04	20.785
358.40	20.495
358.77	20.015
359.13	20.811
359.49	19.803
359.85	21.113
360.21	21.081
360.57	21.536
360.93	21.778
361.29	22.422
361.66	21.494
362.02	20.784
362.38	20.836
362.74	21.538
363.10	21.162
363.46	22.151
363.82	21.574
364.18	21.274
364.54	22.516
364.90	21.593
365.26	20.899
365.62	22.024
365.98	21.053
366.35	22.746
366.71	21.635
367.07	22.230
367.43	22.375
367.79	21.993
368.15	21.479
368.51	22.587
368.87	23.420
369.23	22.175
369.59	22.708
369.95	22.128
370.31	23.136
370.67	22.704
371.03	22.813
371.39	21.782
371.75	22.604
372.11	23.027
372.47	23.355
372.83	22.740
373.19	23.500
373.55	23.786
373.91	23.684
374.27	23.340
374.63	22.912
374.99	23.922
375.35	23.351
375.71	24.105
376.07	23.819
376.42	22.914
376.78	24.118
377.14	24.475
377.50	24.436
377.86	24.512
378.22	24.560
378.58	24.768
378.94	24.414
379.30	24.985
379.66	25.137
380.02	24.064
380.38	24.653
380.74	24.678
381.09	25.425
381.45	25.537
381.81	25.106
382.17	25.815
382.53	24.073
382.89	25.718
383.25	25.647
383.61	25.295
383.97	25.720
384.32	26.033
384.68	25.635
385.04	25.966
385.40	26.659
385.76	26.585
386.12	26.671
386.48	27.042
386.83	26.135
387.19	26.958
387.55	27.498
387.91	27.445
388.27	26.478
388.62	26.803
388.98	26.045
389.34	27.785
389.70	26.979
390.06	26.787
390.42	28.397
390.77	27.192
391.13	28.696
391.49	27.885
391.85	28.055
392.20	27.791
392.56	26.634
392.92	28.180
393.28	27.899
393.64	29.044
393.99	28.800
394.35	28.710
394.71	27.610
395.07	28.751
395.42	26.460
395.78	28.410
396.14	29.159
396.50	28.257
396.85	29.180
397.21	29.648
397.57	29.362
397.92	29.567
398.28	29.278
398.64	28.792
399.00	29.831
399.35	28.974
399.71	30.372
400.07	30.030
400.42	29.988
400.78	28.921
401.14	28.982
401.49	30.012
401.85	29.957
402.21	29.321
402.57	29.915
402.92	29.767
403.28	29.534
403.63	28.580
403.99	29.832
404.35	29.408
404.70	29.315
405.06	30.565
405.42	29.151
405.77	29.808
406.13	29.642
406.49	30.437
406.84	30.594
407.20	31.154
407.55	31.286
407.91	30.181
408.27	30.760
408.62	30.788
408.98	29.715
409.34	29.677
409.69	30.498
410.05	31.292
410.40	30.717
410.76	31.417
411.11	30.860
411.47	31.586
411.83	31.540
412.18	31.312
412.54	30.811
412.89	31.166
413.25	30.638
413.60	31.531
413.96	30.746
414.31	31.315
414.67	30.476
415.03	31.436
415.38	31.230
415.74	31.572
416.09	31.586
416.45	31.019
416.80	31.144
417.16	30.498
417.51	32.108
417.87	32.039
418.22	31.416
418.58	31.643
418.93	31.576
419.29	31.619
419.64	31.470
420.00	31.835
420.35	31.875
420.71	32.053
421.06	32.249
421.42	32.026
421.77	32.998
422.12	32.904
422.48	31.908
422.83	31.378
423.19	32.071
423.54	32.277
423.90	33.314
424.25	31.561
424.61	33.052
424.96	34.348
425.31	32.700
425.67	33.582
426.02	32.071
426.38	32.728
426.73	33.314
427.09	32.230
427.44	33.011
427.79	33.837
428.15	33.633
428.50	33.900
428.85	33.633
429.21	33.370
429.56	33.854
429.92	32.816
430.27	33.300
430.62	34.169
430.98	33.821
431.33	34.312
431.68	33.351
432.04	34.191
432.39	33.276
432.74	33.153
433.10	34.384
433.45	33.218
433.80	34.155
434.16	32.939
434.51	33.918
434.86	34.856
435.22	33.797
435.57	33.905
435.92	33.880
436.28	33.947
436.63	34.539
436.98	33.906
437.34	33.550
437.69	34.422
438.04	34.543
438.39	34.657
438.75	34.517
439.10	34.203
439.45	34.581
439.81	35.181
440.16	34.128
440.51	34.353
440.86	34.876
441.22	34.163
441.57	34.895
441.92	34.783
442.27	34.253
442.63	34.281
442.98	34.650
443.33	35.365
443.68	34.601
444.03	34.676
444.39	34.655
444.74	34.416
445.09	34.265
445.44	34.496
445.79	35.594
446.15	34.556
446.50	34.731
446.85	34.890
447.20	35.036
447.55	35.525
447.91	36.721
448.26	34.749
448.61	34.805
448.96	35.182
449.31	33.991
449.66	35.947
450.02	34.127
450.37	34.667
450.72	34.746
451.07	36.392
451.42	35.440
451.77	35.607
452.12	34.684
452.47	35.516
452.83	34.595
453.18	35.484
453.53	35.323
453.88	35.347
454.23	34.885
454.58	34.866
454.93	35.076
455.28	34.927
455.63	36.241
455.98	35.361
456.34	34.562
456.69	34.959
457.04	36.263
457.39	35.167
457.74	35.558
458.09	35.615
458.44	34.584
458.79	34.809
459.14	35.539
459.49	35.642
459.84	35.694
460.19	35.203
460.54	33.757
460.89	35.538
461.24	35.155
461.59	34.584
461.94	36.219
462.29	34.902
462.64	36.034
462.99	35.475
463.34	35.111
463.69	35.305
464.04	34.622
464.39	34.946
464.74	35.047
465.09	33.554
465.44	33.728
465.79	35.307
466.14	35.270
466.49	34.312
466.84	34.754
467.19	34.601
467.54	34.430
467.89	35.388
468.24	34.679
468.59	35.478
468.94	35.370
469.29	34.828
469.64	34.838
469.99	35.246
470.34	34.669
470.68	35.392
471.03	34.893
471.38	33.750
471.73	35.664
472.08	34.003
472.43	34.749
472.78	34.867
473.13	34.990
473.48	33.886
473.83	34.739
474.17	33.885
474.52	34.783
474.87	34.499
475.22	34.218
475.57	33.667
475.92	34.881
476.27	33.543
476.61	33.746
476.96	34.936
477.31	34.284
477.66	33.702
478.01	34.198
478.36	32.530
478.70	34.330
479.05	34.018
479.40	35.078
479.75	34.200
480.10	33.433
480.45	32.640
480.79	33.909
481.14	34.722
481.49	34.269
481.84	33.564
482.19	33.851
482.53	33.002
482.88	33.887
483.23	33.615
483.58	34.089
483.92	33.588
484.27	33.008
484.62	33.348
484.97	32.697
485.31	32.608
485.66	32.462
486.01	31.857
486.36	32.147
486.70	32.436
487.05	31.550
487.40	33.093
487.75	32.398
488.09	33.138
488.44	32.916
488.79	33.357
489.13	34.081
489.48	33.238
489.83	34.192
490.17	33.174
490.52	33.243
490.87	32.933
491.22	32.648
491.56	33.472
491.91	32.777
492.26	33.302
492.60	32.683
492.95	32.651
493.30	32.539
493.64	33.615
493.99	33.126
494.34	33.524
494.68	32.772
495.03	33.317
495.37	32.793
495.72	32.760
496.07	32.942
496.41	33.025
496.76	33.105
497.11	32.030
497.45	34.195
497.80	32.666
498.14	32.760
498.49	31.944
498.84	33.204
499.18	32.749
499.53	33.074
499.87	32.336
500.22	32.941
500.56	33.517
500.91	33.695
501.26	33.770
501.60	32.980
501.95	32.512
502.29	32.357
502.64	33.239
502.98	31.672
503.33	33.130
503.67	31.849
504.02	32.014
504.36	32.745
504.71	32.573
505.06	32.102
505.40	33.383
505.75	32.114
506.09	33.569
506.44	33.183
506.78	33.066
507.13	32.750
507.47	32.655
507.82	33.351
508.16	33.316
508.51	32.457
508.85	32.246
509.19	33.752
509.54	32.928
509.88	32.766
510.23	32.704
510.57	32.804
510.92	33.351
511.26	32.642
511.61	32.073
511.95	31.735
512.30	32.435
512.64	31.886
512.98	33.608
513.33	32.400
513.67	32.998
514.02	32.830
514.36	32.742
514.70	32.258
515.05	32.476
515.39	32.122
515.74	33.042
516.08	32.622
516.42	32.068
516.77	33.160
517.11	32.151
517.46	32.775
517.80	32.972
518.14	32.669
518.49	31.859
518.83	32.819
519.17	33.333
519.52	32.157
519.86	33.453
520.20	33.435
520.55	32.738
520.89	33.250
521.23	33.578
521.58	32.539
521.92	32.679
522.26	32.762
522.61	32.319
522.95	32.036
523.29	33.041
523.64	32.979
523.98	33.227
524.32	32.935
524.66	32.609
525.01	32.177
525.35	32.281
525.69	32.726
526.04	33.225
526.38	32.463
526.72	32.822
527.06	32.943
527.41	31.947
527.75	32.079
528.09	32.826
528.43	33.311
528.78	32.475
529.12	31.946
529.46	32.861
529.80	32.860
530.15	32.775
530.49	32.406
530.83	33.792
531.17	32.189
531.51	32.485
531.86	33.246
532.20	32.659
532.54	33.155
532.88	31.818
533.22	31.751
533.57	31.789
533.91	32.022
534.25	33.061
534.59	31.480
534.93	31.363
535.27	32.473
535.62	32.289
535.96	31.868
536.30	31.610
536.64	33.400
536.98	33.828
537.32	30.891
537.66	32.383
538.01	32.784
538.35	32.770
538.69	32.286
539.03	32.905
539.37	32.202
539.71	32.889
540.05	31.803
540.39	32.271
540.73	31.583
541.07	32.923
541.42	32.275
541.76	31.362
542.10	32.343
542.44	31.912
542.78	32.904
543.12	32.247
543.46	31.370
543.80	31.639
544.14	31.632
544.48	32.808
544.82	31.800
545.16	32.461
545.50	31.629
545.84	32.197
546.18	31.623
546.52	32.361
546.86	33.191
547.20	32.841
547.54	31.612
547.88	31.918
548.22	30.931
548.56	31.597
548.90	32.412
549.24	30.974
549.58	32.040
549.92	32.862
550.26	32.731
550.60	31.010
550.94	31.460
551.28	32.731
551.62	33.087
551.96	31.910
552.30	32.334
552.64	31.738
552.98	31.535
553.32	31.962
553.66	32.733
554.00	33.049
554.34	32.130
554.68	32.602
555.02	32.634
555.36	32.710
555.69	32.378
556.03	32.211
556.37	31.437
556.71	33.142
557.05	32.520
557.39	31.700
557.73	33.042
558.07	33.911
558.41	31.862
558.75	32.319
559.08	31.751
559.42	33.002
559.76	33.666
560.10	33.110
560.44	33.237
560.78	31.246
561.12	31.539
561.45	31.575
561.79	32.683
562.13	33.029
562.47	31.863
562.81	31.542
563.15	32.120
563.48	32.481
563.82	31.508
564.16	32.049
564.50	31.519
564.84	32.738
565.17	32.759
565.51	31.617
565.85	33.266
566.19	32.279
566.52	32.355
566.86	31.606
567.20	33.051
567.54	33.136
567.88	30.765
568.21	31.320
568.55	31.707
568.89	30.666
569.23	31.189
569.56	30.811
569.90	30.685
570.24	30.778
570.57	30.334
570.91	30.636
571.25	30.545
571.59	30.503
571.92	30.268
572.26	30.228
572.60	31.151
572.93	30.071
573.27	30.396
573.61	29.424
573.95	30.282
574.28	30.036
574.62	30.071
574.96	29.985
575.29	30.386
575.63	30.502
575.97	30.097
576.30	30.282
576.64	30.444
576.98	29.933
577.31	30.393
577.65	30.306
577.98	29.707
578.32	30.267
578.66	30.135
578.99	30.451
579.33	30.344
579.67	30.459
580.00	30.035
580.34	30.895
580.67	30.473
581.01	29.913
581.35	29.918
581.68	29.905
582.02	30.090
582.35	30.123
582.69	30.710
583.02	30.195
583.36	30.434
583.70	30.645
584.03	31.250
584.37	30.555
584.70	30.188
585.04	30.051
585.37	30.095
585.71	30.092
586.04	30.496
586.38	30.446
586.72	30.665
587.05	30.530
587.39	30.538
587.72	30.581
588.06	30.179
588.39	30.760
588.73	31.020
589.06	30.723
589.40	31.226
589.73	30.843
590.07	30.954
590.40	30.775
590.73	31.108
591.07	31.270
591.40	31.412
591.74	31.103
592.07	30.901
592.41	31.338
592.74	31.399
593.08	31.480
593.41	30.658
593.75	29.838
594.08	31.272
594.41	31.719
594.75	31.484
595.08	30.865
595.42	31.105
595.75	30.173
596.09	31.510
596.42	32.160
596.75	31.220
597.09	32.191
597.42	30.816
597.75	31.488
598.09	31.225
598.42	30.844
598.76	31.105
599.09	31.018
599.42	30.719
599.76	31.257
600.09	31.679
600.42	31.029
600.76	31.186
601.09	31.029
601.42	30.629
601.76	30.958
602.09	30.879
602.42	30.700
602.76	31.201
603.09	31.613
603.42	30.741
603.76	31.073
604.09	31.398
604.42	31.848
604.76	31.138
605.09	32.143
605.42	31.826
605.75	30.487
606.09	31.507
606.42	30.959
606.75	30.743
607.09	31.804
607.42	31.250
607.75	30.773
608.08	31.812
608.42	31.410
608.75	31.262
609.08	31.564
609.41	32.088
609.75	31.156
610.08	31.863
610.41	31.952
610.74	32.108
611.07	32.150
611.41	31.316
611.74	32.288
612.07	32.868
612.40	30.544
612.73	32.202
613.07	31.040
613.40	32.950
613.73	31.608
614.06	32.070
614.39	32.131
614.72	30.726
615.06	31.902
615.39	31.687
615.72	31.396
616.05	32.137
616.38	31.805
616.71	31.411
617.05	32.931
617.38	33.003
617.71	31.757
618.04	32.422
618.37	31.761
618.70	32.725
619.03	32.160
619.36	32.629
619.69	32.735
620.03	32.231
620.36	31.786
620.69	33.884
621.02	34.094
621.35	32.419
621.68	33.279
622.01	32.282
622.34	32.997
622.67	32.344
623.00	33.512
623.33	33.284
623.66	31.462
623.99	32.632
624.32	32.366
624.65	31.788
624.99	32.039
625.32	32.260
625.65	34.033
625.98	31.612
626.31	32.790
626.64	33.556
626.97	32.277
627.30	32.766
627.63	33.592
627.96	32.724
628.29	33.640
628.62	31.423
628.95	33.661
629.28	32.989
629.61	33.170
629.94	33.932
630.26	33.698
630.59	34.472
630.92	33.133
631.25	32.964
631.58	33.333
631.91	32.447
632.24	33.000
632.57	33.222
632.90	34.138
633.23	33.528
633.56	33.216
633.89	33.019
634.22	33.176
634.55	32.572
634.88	33.495
635.20	33.708
635.53	33.842
635.86	34.509
636.19	32.479
636.52	33.931
636.85	31.889
637.18	33.000
637.51	35.316
