SpectraSuite Data File
++++++++++++++++++++++++++++++++++++
Date: Sat May 16 11:33:01 PDT 2015
User: schluterlab
Dark Spectrum Present: Yes
Reference Spectrum Present: Yes
Number of Sampled Component Spectra: 1
Spectrometers: USB2E3373
Integration Time (usec): 3000 (USB2E3373)
Spectra Averaged: 3 (USB2E3373)
Boxcar Smoothing: 0 (USB2E3373)
Correct for Electrical Dark: No (USB2E3373)
Strobe/Lamp Enabled: No (USB2E3373)
Correct for Detector Non-linearity: No (USB2E3373)
Correct for Stray Light: No (USB2E3373)
Number of Pixels in Processed Spectrum: 2048
>>>>>Begin Processed Spectral Data<<<<<
178.53	0.000
178.91	120.000
179.29	600.000
179.67	-1600.000
180.04	-76.923
180.42	300.000
180.80	375.000
181.18	475.000
181.56	-50.000
181.94	1500.000
182.31	325.000
182.69	-76.923
183.07	-366.667
183.45	1550.000
183.83	700.000
184.20	-171.429
184.58	-112.500
184.96	-450.000
185.34	193.750
185.72	-525.000
186.09	66.667
186.47	-212.500
186.85	-287.500
187.23	25.000
187.61	-25.000
187.98	-337.500
188.36	-100.000
188.74	-150.000
189.12	1500.000
189.49	257.143
189.87	-100.000
190.25	225.000
190.63	14.286
191.00	-66.667
191.38	400.000
191.76	-13.333
192.14	500.000
192.51	-180.000
192.89	-133.333
193.27	0.000
193.65	-188.889
194.02	-214.286
194.40	400.000
194.78	-130.000
195.15	-1500.000
195.53	-118.182
195.91	-516.667
196.29	320.000
196.66	-366.667
197.04	2100.000
197.42	-350.000
197.79	-6.667
198.17	-366.667
198.55	-250.000
198.92	-1300.000
199.30	200.000
199.68	-350.000
200.05	-77.778
200.43	-200.000
200.81	-1100.000
201.18	-116.667
201.56	271.429
201.94	-26.667
202.31	40.909
202.69	30.000
203.07	-40.000
203.44	800.000
203.82	-300.000
204.19	-500.000
204.57	-125.000
204.95	-1700.000
205.32	18.750
205.70	100.000
206.08	-800.000
206.45	-88.889
206.83	-700.000
207.20	-50.000
207.58	-1100.000
207.96	-433.333
208.33	-87.500
208.71	-133.333
209.08	220.000
209.46	-257.143
209.84	400.000
210.21	0.000
210.59	5.000
210.96	1900.000
211.34	-350.000
211.71	-466.667
212.09	300.000
212.46	1100.000
212.84	-2700.000
213.22	666.667
213.59	66.667
213.97	-77.778
214.34	200.000
214.72	-50.000
215.09	-566.667
215.47	-33.333
215.84	-130.000
216.22	-20.000
216.59	-20.000
216.97	-475.000
217.34	950.000
217.72	-128.571
218.09	-366.667
218.47	-200.000
218.84	171.429
219.22	57.143
219.59	0.000
219.97	271.429
220.34	300.000
220.72	187.500
221.09	-53.846
221.47	0.000
221.84	700.000
222.22	-750.000
222.59	1300.000
222.97	-187.500
223.34	-750.000
223.72	-366.667
224.09	42.857
224.46	-250.000
224.84	-64.286
225.21	-114.286
225.59	-127.273
225.96	-287.500
226.34	0.000
226.71	-133.333
227.08	30.000
227.46	900.000
227.83	-157.143
228.21	-187.500
228.58	600.000
228.95	-62.500
229.33	-800.000
229.70	-220.000
230.08	-600.000
230.45	25.000
230.82	-116.667
231.20	-1300.000
231.57	-500.000
231.95	900.000
232.32	-47.619
232.69	-166.667
233.07	-257.143
233.44	-850.000
233.81	-53.333
234.19	-166.667
234.56	-87.500
234.93	-3.125
235.31	-242.857
235.68	-92.857
236.05	0.000
236.43	-36.364
236.80	-25.806
237.17	0.000
237.55	-47.619
237.92	-90.909
238.29	-14.286
238.67	14.706
239.04	-8.333
239.41	-19.355
239.79	-10.256
240.16	-7.143
240.53	-16.364
240.91	15.385
241.28	-14.545
241.65	24.615
242.02	-3.279
242.40	-3.279
242.77	28.788
243.14	-18.644
243.51	-4.286
243.89	3.797
244.26	-4.494
244.63	11.579
245.00	12.632
245.38	8.475
245.75	15.044
246.12	9.600
246.49	9.449
246.87	1.626
247.24	10.169
247.61	3.390
247.98	11.972
248.36	9.790
248.73	9.494
249.10	6.369
249.47	9.357
249.84	16.477
250.22	-0.595
250.59	16.384
250.96	14.660
251.33	14.692
251.70	10.577
252.08	10.900
252.45	6.161
252.82	6.667
253.19	14.043
253.56	13.306
253.94	13.502
254.31	15.451
254.68	15.854
255.05	8.468
255.42	15.476
255.79	12.186
256.16	18.039
256.54	15.441
256.91	13.636
257.28	11.722
257.65	13.121
258.02	17.296
258.39	14.381
258.76	10.135
259.14	11.728
259.51	14.754
259.88	13.415
260.25	15.217
260.62	12.540
260.99	13.353
261.36	16.768
261.73	15.896
262.10	16.944
262.47	13.675
262.85	16.857
263.22	14.900
263.59	12.615
263.96	16.522
264.33	14.092
264.70	12.983
265.07	14.835
265.44	14.212
265.81	11.628
266.18	13.418
266.55	15.686
266.92	16.877
267.29	14.528
267.66	17.531
268.03	14.976
268.40	14.789
268.77	14.940
269.14	13.921
269.51	18.391
269.88	13.761
270.25	14.452
270.62	12.586
270.99	12.838
271.36	17.016
271.73	16.143
272.10	14.188
272.47	14.000
272.84	17.333
273.21	14.220
273.58	14.945
273.95	15.570
274.32	16.968
274.69	19.256
275.06	14.724
275.43	14.732
275.80	18.534
276.17	14.854
276.54	15.682
276.91	15.432
277.28	11.968
277.65	16.322
278.02	15.866
278.39	15.717
278.76	14.542
279.13	17.391
279.50	15.308
279.87	16.702
280.23	15.992
280.60	14.115
280.97	14.563
281.34	13.346
281.71	16.346
282.08	13.710
282.45	13.849
282.82	13.178
283.19	18.182
283.56	18.315
283.92	14.841
284.29	12.825
284.66	14.388
285.03	16.578
285.40	13.653
285.77	17.193
286.14	14.440
286.51	14.032
286.87	16.515
287.24	16.553
287.61	15.537
287.98	13.345
288.35	14.215
288.72	12.054
289.08	14.915
289.45	13.636
289.82	13.668
290.19	15.107
290.56	14.545
290.93	13.037
291.29	14.100
291.66	12.560
292.03	13.501
292.40	14.608
292.77	13.665
293.13	12.520
293.50	15.156
293.87	12.883
294.24	12.368
294.60	11.515
294.97	16.085
295.34	13.630
295.71	12.798
296.08	11.674
296.44	11.731
296.81	12.963
297.18	12.535
297.55	12.571
297.91	14.086
298.28	12.192
298.65	12.134
299.02	12.567
299.38	11.898
299.75	11.957
300.12	12.564
300.48	12.404
300.85	10.092
301.22	11.384
301.59	11.964
301.95	14.106
302.32	11.082
302.69	12.607
303.05	10.867
303.42	10.500
303.79	12.440
304.15	12.085
304.52	12.485
304.89	11.924
305.25	9.768
305.62	12.221
305.99	13.192
306.35	12.653
306.72	10.934
307.09	11.805
307.45	10.670
307.82	10.615
308.19	11.186
308.55	11.547
308.92	11.063
309.29	12.108
309.65	11.453
310.02	11.771
310.38	10.270
310.75	11.783
311.12	13.223
311.48	11.482
311.85	10.402
312.22	13.491
312.58	11.801
312.95	11.723
313.31	12.587
313.68	11.960
314.05	11.869
314.41	11.469
314.78	10.889
315.14	13.327
315.51	11.854
315.87	13.359
316.24	13.605
316.61	13.628
316.97	14.428
317.34	12.909
317.70	14.007
318.07	14.272
318.43	13.109
318.80	14.085
319.16	14.447
319.53	13.346
319.89	14.393
320.26	14.216
320.62	15.192
320.99	15.821
321.35	12.906
321.72	15.251
322.08	17.211
322.45	16.238
322.81	16.619
323.18	17.387
323.54	17.190
323.91	17.516
324.27	17.776
324.64	17.367
325.00	17.714
325.37	18.733
325.73	18.810
326.10	18.158
326.46	18.301
326.83	18.128
327.19	19.349
327.56	19.336
327.92	19.286
328.29	19.740
328.65	19.364
329.01	21.378
329.38	20.785
329.74	21.703
330.11	20.671
330.47	20.163
330.84	20.715
331.20	20.668
331.56	20.602
331.93	21.314
332.29	21.735
332.66	21.598
333.02	21.629
333.38	21.595
333.75	21.371
334.11	21.689
334.48	20.918
334.84	22.135
335.20	21.454
335.57	21.480
335.93	22.202
336.29	21.612
336.66	22.291
337.02	21.892
337.38	22.282
337.75	22.037
338.11	21.467
338.47	21.975
338.84	21.779
339.20	21.353
339.56	23.084
339.93	22.399
340.29	22.675
340.65	21.678
341.02	21.754
341.38	22.157
341.74	22.608
342.11	23.720
342.47	22.060
342.83	21.746
343.20	22.289
343.56	21.878
343.92	22.287
344.28	22.792
344.65	21.617
345.01	22.353
345.37	23.339
345.73	21.768
346.10	22.731
346.46	21.446
346.82	21.812
347.19	23.172
347.55	21.348
347.91	22.362
348.27	21.321
348.63	23.021
349.00	22.991
349.36	20.843
349.72	23.248
350.08	23.256
350.45	22.143
350.81	22.930
351.17	23.392
351.53	23.071
351.89	22.474
352.26	23.023
352.62	24.117
352.98	23.418
353.34	22.542
353.70	21.236
354.07	22.974
354.43	23.478
354.79	22.662
355.15	22.125
355.51	21.641
355.87	22.055
356.24	22.796
356.60	23.771
356.96	24.018
357.32	23.120
357.68	22.682
358.04	23.634
358.40	21.732
358.77	22.488
359.13	22.112
359.49	23.205
359.85	23.476
360.21	22.755
360.57	24.172
360.93	24.741
361.29	24.738
361.66	21.799
362.02	22.781
362.38	23.991
362.74	23.663
363.10	23.171
363.46	23.932
363.82	24.344
364.18	24.385
364.54	25.375
364.90	24.598
365.26	24.037
365.62	24.804
365.98	25.178
366.35	23.803
366.71	24.172
367.07	25.335
367.43	25.395
367.79	24.674
368.15	23.826
368.51	24.755
368.87	25.755
369.23	24.772
369.59	25.069
369.95	24.595
370.31	25.879
370.67	24.295
371.03	24.781
371.39	23.975
371.75	26.109
372.11	25.610
372.47	25.958
372.83	26.078
373.19	26.643
373.55	26.108
373.91	24.964
374.27	25.667
374.63	26.225
374.99	26.356
375.35	25.101
375.71	27.414
376.07	26.626
376.42	26.755
376.78	27.320
377.14	27.797
377.50	27.273
377.86	28.088
378.22	27.889
378.58	26.807
378.94	27.374
379.30	27.422
379.66	27.201
380.02	27.689
380.38	27.372
380.74	27.784
381.09	28.120
381.45	28.103
381.81	28.010
382.17	29.073
382.53	27.781
382.89	28.947
383.25	29.139
383.61	29.009
383.97	30.067
384.32	29.474
384.68	28.960
385.04	29.650
385.40	30.128
385.76	29.817
386.12	29.919
386.48	29.889
386.83	30.859
387.19	30.305
387.55	30.588
387.91	30.587
388.27	28.890
388.62	30.048
388.98	29.740
389.34	29.315
389.70	29.963
390.06	30.578
390.42	31.667
390.77	29.905
391.13	31.988
391.49	31.566
391.85	30.923
392.20	31.311
392.56	30.422
392.92	31.660
393.28	31.975
393.64	32.592
393.99	32.923
394.35	32.056
394.71	32.613
395.07	33.019
395.42	32.181
395.78	32.244
396.14	32.274
396.50	32.661
396.85	32.634
397.21	33.840
397.57	33.009
397.92	33.021
398.28	33.333
398.64	33.076
399.00	33.764
399.35	33.766
399.71	33.043
400.07	33.672
400.42	32.786
400.78	33.572
401.14	32.635
401.49	33.432
401.85	33.435
402.21	34.148
402.57	33.495
402.92	33.291
403.28	34.804
403.63	32.654
403.99	34.991
404.35	32.850
404.70	34.055
405.06	34.141
405.42	33.887
405.77	33.314
406.13	34.639
406.49	34.632
406.84	34.913
407.20	35.218
407.55	35.655
407.91	33.873
408.27	35.172
408.62	34.817
408.98	34.809
409.34	34.552
409.69	35.602
410.05	35.173
410.40	34.825
410.76	35.329
411.11	34.913
411.47	34.399
411.83	36.675
412.18	35.396
412.54	35.692
412.89	36.938
413.25	34.770
413.60	35.298
413.96	36.106
414.31	36.758
414.67	36.635
415.03	36.158
415.38	38.582
415.74	36.018
416.09	36.701
416.45	37.434
416.80	37.841
417.16	37.409
417.51	37.886
417.87	37.023
418.22	38.685
418.58	38.318
418.93	39.362
419.29	38.269
419.64	38.631
420.00	38.335
420.35	38.261
420.71	38.415
421.06	39.408
421.42	38.759
421.77	38.749
422.12	39.284
422.48	39.765
422.83	39.180
423.19	38.864
423.54	39.942
423.90	40.023
424.25	40.271
424.61	40.591
424.96	40.609
425.31	39.855
425.67	40.229
426.02	41.652
426.38	41.137
426.73	41.672
427.09	42.831
427.44	41.648
427.79	42.093
428.15	42.250
428.50	41.760
428.85	42.806
429.21	42.169
429.56	43.750
429.92	42.585
430.27	42.223
430.62	43.417
430.98	42.603
431.33	43.223
431.68	43.592
432.04	44.432
432.39	43.362
432.74	44.305
433.10	43.950
433.45	44.675
433.80	44.345
434.16	44.868
434.51	45.041
434.86	45.694
435.22	43.764
435.57	44.920
435.92	45.018
436.28	46.231
436.63	45.619
436.98	45.475
437.34	46.545
437.69	45.858
438.04	46.852
438.39	47.714
438.75	45.169
439.10	47.085
439.45	46.288
439.81	46.446
440.16	45.258
440.51	48.294
440.86	46.732
441.22	47.208
441.57	47.737
441.92	48.082
442.27	46.916
442.63	48.391
442.98	46.896
443.33	48.105
443.68	48.150
444.03	46.857
444.39	47.920
444.74	48.568
445.09	48.026
445.44	47.552
445.79	48.190
446.15	48.028
446.50	48.557
446.85	48.846
447.20	47.549
447.55	49.171
447.91	49.298
448.26	48.045
448.61	49.745
448.96	50.028
449.31	48.534
449.66	49.342
450.02	48.366
450.37	50.145
450.72	48.814
451.07	49.717
451.42	48.947
451.77	50.808
452.12	50.298
452.47	50.252
452.83	49.388
453.18	50.980
453.53	50.311
453.88	50.778
454.23	49.637
454.58	51.896
454.93	51.322
455.28	50.542
455.63	50.184
455.98	51.325
456.34	50.953
456.69	51.470
457.04	51.137
457.39	50.359
457.74	50.975
458.09	50.696
458.44	51.674
458.79	51.457
459.14	52.767
459.49	52.279
459.84	51.827
460.19	50.835
460.54	51.119
460.89	52.915
461.24	51.913
461.59	52.403
461.94	53.342
462.29	52.591
462.64	52.503
462.99	52.677
463.34	52.735
463.69	52.608
464.04	51.670
464.39	51.971
464.74	51.891
465.09	51.774
465.44	51.889
465.79	52.002
466.14	53.222
466.49	52.907
466.84	52.401
467.19	52.369
467.54	51.709
467.89	54.069
468.24	52.138
468.59	52.717
468.94	53.441
469.29	52.437
469.64	52.224
469.99	53.815
470.34	53.841
470.68	54.288
471.03	54.233
471.38	52.847
471.73	54.895
472.08	55.154
472.43	52.896
472.78	53.867
473.13	54.473
473.48	53.925
473.83	53.722
474.17	54.204
474.52	54.731
474.87	53.030
475.22	52.979
475.57	53.389
475.92	53.618
476.27	52.800
476.61	54.197
476.96	54.779
477.31	54.413
477.66	53.625
478.01	53.431
478.36	53.693
478.70	53.764
479.05	53.867
479.40	52.953
479.75	55.250
480.10	52.827
480.45	52.515
480.79	54.541
481.14	55.645
481.49	55.566
481.84	54.554
482.19	54.043
482.53	54.877
482.88	54.058
483.23	53.005
483.58	53.700
483.92	55.280
484.27	52.858
484.62	52.613
484.97	53.118
485.31	51.072
485.66	49.610
486.01	50.368
486.36	52.265
486.70	53.122
487.05	52.323
487.40	52.270
487.75	51.713
488.09	52.409
488.44	51.928
488.79	52.423
489.13	52.415
489.48	53.303
489.83	54.410
490.17	53.679
490.52	55.616
490.87	55.058
491.22	54.180
491.56	53.750
491.91	54.008
492.26	54.057
492.60	54.757
492.95	54.069
493.30	54.312
493.64	54.631
493.99	54.493
494.34	55.571
494.68	55.618
495.03	54.780
495.37	56.293
495.72	54.912
496.07	55.373
496.41	54.933
496.76	55.205
497.11	54.828
497.45	55.843
497.80	55.078
498.14	55.255
498.49	55.450
498.84	54.466
499.18	56.287
499.53	54.603
499.87	55.502
500.22	55.245
500.56	56.078
500.91	55.813
501.26	55.022
501.60	54.646
501.95	55.942
502.29	54.275
502.64	54.597
502.98	54.768
503.33	55.169
503.67	53.879
504.02	54.756
504.36	55.980
504.71	55.268
505.06	54.269
505.40	56.088
505.75	55.996
506.09	54.954
506.44	55.238
506.78	55.645
507.13	55.716
507.47	56.547
507.82	55.085
508.16	56.943
508.51	55.229
508.85	55.331
509.19	55.939
509.54	56.342
509.88	55.372
510.23	57.023
510.57	56.984
510.92	56.713
511.26	55.981
511.61	56.048
511.95	56.519
512.30	56.734
512.64	56.205
512.98	56.051
513.33	56.782
513.67	57.175
514.02	56.152
514.36	56.842
514.70	55.461
515.05	58.033
515.39	56.574
515.74	57.766
516.08	57.003
516.42	56.261
516.77	57.943
517.11	57.208
517.46	59.569
517.80	58.724
518.14	56.703
518.49	57.382
518.83	56.914
519.17	57.904
519.52	56.160
519.86	58.961
520.20	59.046
520.55	59.077
520.89	56.857
521.23	57.814
521.58	58.433
521.92	57.758
522.26	57.841
522.61	58.365
522.95	57.371
523.29	59.498
523.64	56.902
523.98	59.580
524.32	57.511
524.66	57.205
525.01	58.060
525.35	58.634
525.69	58.621
526.04	59.008
526.38	58.752
526.72	58.110
527.06	58.984
527.41	58.746
527.75	58.152
528.09	59.166
528.43	57.705
528.78	57.977
529.12	58.963
529.46	58.247
529.80	57.586
530.15	57.759
530.49	58.021
530.83	59.136
531.17	58.384
531.51	57.736
531.86	57.011
532.20	57.355
532.54	58.289
532.88	58.169
533.22	58.356
533.57	59.269
533.91	55.056
534.25	56.820
534.59	56.590
534.93	56.005
535.27	57.395
535.62	57.225
535.96	57.078
536.30	56.021
536.64	57.105
536.98	58.404
537.32	57.429
537.66	57.230
538.01	58.351
538.35	58.851
538.69	57.219
539.03	57.278
539.37	58.084
539.71	57.772
540.05	57.505
540.39	58.310
540.73	58.673
541.07	58.675
541.42	58.069
541.76	56.013
542.10	58.406
542.44	57.229
542.78	57.463
543.12	57.773
543.46	56.096
543.80	56.455
544.14	56.951
544.48	55.774
544.82	56.495
545.16	58.015
545.50	56.326
545.84	57.510
546.18	56.311
546.52	57.041
546.86	56.410
547.20	57.876
547.54	56.198
547.88	57.001
548.22	55.832
548.56	56.313
548.90	56.199
549.24	57.253
549.58	56.881
549.92	58.163
550.26	57.298
550.60	56.615
550.94	57.518
551.28	58.089
551.62	57.681
551.96	56.946
552.30	56.794
552.64	57.002
552.98	57.884
553.32	57.576
553.66	58.832
554.00	56.787
554.34	57.112
554.68	56.506
555.02	57.019
555.36	56.722
555.69	56.734
556.03	55.719
556.37	57.468
556.71	55.977
557.05	58.241
557.39	58.055
557.73	58.133
558.07	58.930
558.41	58.340
558.75	58.023
559.08	58.755
559.42	57.044
559.76	58.819
560.10	58.464
560.44	57.731
560.78	56.994
561.12	56.936
561.45	57.808
561.79	58.188
562.13	56.662
562.47	56.162
562.81	57.214
563.15	57.243
563.48	57.360
563.82	56.051
564.16	56.187
564.50	56.452
564.84	56.614
565.17	56.565
565.51	55.541
565.85	57.404
566.19	59.091
566.52	57.469
566.86	57.206
567.20	56.780
567.54	56.822
567.88	55.723
568.21	55.593
568.55	56.045
568.89	54.722
569.23	54.604
569.56	52.291
569.90	52.793
570.24	52.837
570.57	51.705
570.91	51.513
571.25	52.756
571.59	51.577
571.92	51.667
572.26	50.569
572.60	50.977
572.93	50.604
573.27	49.939
573.61	50.502
573.95	50.426
574.28	49.379
574.62	50.203
574.96	49.601
575.29	50.178
575.63	50.757
575.97	49.838
576.30	50.014
576.64	49.948
576.98	49.042
577.31	50.155
577.65	49.922
577.98	49.512
578.32	49.779
578.66	49.237
578.99	49.439
579.33	49.711
579.67	50.393
580.00	49.058
580.34	49.437
580.67	49.473
581.01	48.263
581.35	49.674
581.68	49.046
582.02	49.165
582.35	49.405
582.69	50.292
583.02	50.486
583.36	50.167
583.70	49.693
584.03	50.269
584.37	50.582
584.70	50.436
585.04	49.418
585.37	49.212
585.71	49.444
586.04	49.899
586.38	50.094
586.72	50.986
587.05	50.637
587.39	49.932
587.72	50.279
588.06	50.399
588.39	50.641
588.73	50.966
589.06	50.991
589.40	52.284
589.73	51.700
590.07	51.238
590.40	50.923
590.73	52.059
591.07	52.459
591.40	52.600
591.74	53.388
592.07	52.973
592.41	52.059
592.74	52.191
593.08	51.322
593.41	51.217
593.75	50.577
594.08	52.660
594.41	51.460
594.75	52.359
595.08	53.195
595.42	52.204
595.75	50.533
596.09	52.309
596.42	53.232
596.75	52.005
597.09	53.473
597.42	52.073
597.75	52.967
598.09	52.915
598.42	52.364
598.76	51.703
599.09	52.328
599.42	52.018
599.76	51.529
600.09	51.985
600.42	50.893
600.76	52.580
601.09	51.462
601.42	51.840
601.76	51.441
602.09	52.515
602.42	52.263
602.76	52.389
603.09	52.419
603.42	52.337
603.76	52.014
604.09	52.463
604.42	52.456
604.76	52.508
605.09	52.215
605.42	53.324
605.75	52.393
606.09	52.428
606.42	53.624
606.75	51.739
607.09	52.713
607.42	52.685
607.75	52.715
608.08	52.869
608.42	54.257
608.75	52.243
609.08	52.898
609.41	54.260
609.75	52.560
610.08	53.480
610.41	53.590
610.74	53.917
611.07	54.006
611.41	51.639
611.74	53.985
612.07	55.317
612.40	53.518
612.73	54.443
613.07	54.430
613.40	55.172
613.73	54.005
614.06	54.091
614.39	55.750
614.72	54.246
615.06	54.239
615.39	52.957
615.72	54.753
616.05	53.672
616.38	56.123
616.71	56.096
617.05	53.619
617.38	55.108
617.71	54.791
618.04	56.335
618.37	56.101
618.70	57.497
619.03	56.060
619.36	56.307
619.69	57.574
620.03	55.510
620.36	56.540
620.69	57.574
621.02	59.361
621.35	57.419
621.68	58.525
622.01	57.767
622.34	57.453
622.67	57.109
623.00	57.230
623.33	57.388
623.66	55.687
623.99	57.444
624.32	58.705
624.65	56.880
624.99	58.626
625.32	56.961
625.65	58.974
625.98	57.668
626.31	56.525
626.64	57.992
626.97	59.161
627.30	59.319
627.63	58.117
627.96	60.836
628.29	59.835
628.62	60.649
628.95	60.827
629.28	58.553
629.61	60.648
629.94	58.412
630.26	62.525
630.59	60.503
630.92	62.462
631.25	61.895
631.58	60.635
631.91	59.468
