SpectraSuite Data File
++++++++++++++++++++++++++++++++++++
Date: Sat May 16 11:28:09 PDT 2015
User: schluterlab
Dark Spectrum Present: Yes
Reference Spectrum Present: Yes
Number of Sampled Component Spectra: 1
Spectrometers: USB2E3373
Integration Time (usec): 3000 (USB2E3373)
Spectra Averaged: 3 (USB2E3373)
Boxcar Smoothing: 0 (USB2E3373)
Correct for Electrical Dark: No (USB2E3373)
Strobe/Lamp Enabled: No (USB2E3373)
Correct for Detector Non-linearity: No (USB2E3373)
Correct for Stray Light: No (USB2E3373)
Number of Pixels in Processed Spectrum: 2048
>>>>>Begin Processed Spectral Data<<<<<
178.53	0.000
178.91	126.667
179.29	566.667
179.67	-1000.000
180.04	-130.769
180.42	800.000
180.80	400.000
181.18	400.000
181.56	-112.500
181.94	1300.000
182.31	350.000
182.69	-7.692
183.07	-633.333
183.45	1050.000
183.83	166.667
184.20	-100.000
184.58	-212.500
184.96	-475.000
185.34	93.750
185.72	-275.000
186.09	216.667
186.47	-175.000
186.85	-200.000
187.23	75.000
187.61	-300.000
187.98	-287.500
188.36	-187.500
188.74	-187.500
189.12	1900.000
189.49	200.000
189.87	0.000
190.25	350.000
190.63	-35.714
191.00	-88.889
191.38	360.000
191.76	26.667
192.14	760.000
192.51	-100.000
192.89	-133.333
193.27	0.000
193.65	-55.556
194.02	-271.429
194.40	700.000
194.78	-10.000
195.15	-200.000
195.53	-100.000
195.91	-350.000
196.29	200.000
196.66	-533.333
197.04	3500.000
197.42	-250.000
197.79	46.667
198.17	-466.667
198.55	-550.000
198.92	-1400.000
199.30	137.500
199.68	-150.000
200.05	-177.778
200.43	-222.222
200.81	-1000.000
201.18	-108.333
201.56	214.286
201.94	-80.000
202.31	0.000
202.69	-10.000
203.07	-140.000
203.44	800.000
203.82	-316.667
204.19	-450.000
204.57	-250.000
204.95	-1900.000
205.32	0.000
205.70	600.000
206.08	-1300.000
206.45	-83.333
206.83	-400.000
207.20	-150.000
207.58	-766.667
207.96	-266.667
208.33	-275.000
208.71	-200.000
209.08	270.000
209.46	-185.714
209.84	1050.000
210.21	0.000
210.59	5.000
210.96	1100.000
211.34	-300.000
211.71	-133.333
212.09	450.000
212.46	1500.000
212.84	-2300.000
213.22	533.333
213.59	150.000
213.97	-22.222
214.34	200.000
214.72	20.000
215.09	-400.000
215.47	-150.000
215.84	-190.000
216.22	-90.000
216.59	53.333
216.97	-600.000
217.34	600.000
217.72	-371.429
218.09	-250.000
218.47	-214.286
218.84	285.714
219.22	-114.286
219.59	0.000
219.97	242.857
220.34	550.000
220.72	275.000
221.09	-107.692
221.47	0.000
221.84	400.000
222.22	-600.000
222.59	900.000
222.97	-200.000
223.34	-850.000
223.72	-500.000
224.09	-14.286
224.46	-525.000
224.84	-35.714
225.21	-100.000
225.59	-100.000
225.96	-200.000
226.34	-100.000
226.71	-77.778
227.08	-40.000
227.46	2000.000
227.83	-157.143
228.21	-200.000
228.58	350.000
228.95	-87.500
229.33	-2700.000
229.70	-260.000
230.08	-1000.000
230.45	33.333
230.82	-200.000
231.20	-900.000
231.57	-400.000
231.95	1800.000
232.32	-9.524
232.69	-33.333
233.07	-100.000
233.44	-550.000
233.81	-100.000
234.19	-100.000
234.56	-31.250
234.93	-15.625
235.31	-85.714
235.68	-135.714
236.05	-123.529
236.43	-68.182
236.80	-48.387
237.17	-37.500
237.55	-52.381
237.92	-86.364
238.29	-28.571
238.67	-17.647
239.04	-5.556
239.41	-48.387
239.79	-43.590
240.16	-33.333
240.53	-21.818
240.91	-25.641
241.28	-21.818
241.65	15.385
242.02	-16.393
242.40	-27.869
242.77	-13.636
243.14	-27.119
243.51	-32.857
243.89	-8.861
244.26	-14.607
244.63	1.053
245.00	1.053
245.38	-7.627
245.75	-5.310
246.12	-8.000
246.49	-3.150
246.87	-9.756
247.24	-5.932
247.61	-15.254
247.98	-2.817
248.36	-11.888
248.73	-9.494
249.10	-11.465
249.47	4.094
249.84	-2.841
250.22	-13.690
250.59	-1.130
250.96	-3.665
251.33	0.948
251.70	-2.885
252.08	-5.687
252.45	-4.265
252.82	-7.619
253.19	-4.681
253.56	-2.419
253.94	-7.595
254.31	-3.004
254.68	0.813
255.05	-5.645
255.42	-3.175
255.79	-5.018
256.16	0.000
256.54	-2.206
256.91	-4.167
257.28	-4.762
257.65	-2.482
258.02	3.145
258.39	-2.007
258.76	-2.365
259.14	-3.395
259.51	0.328
259.88	0.305
260.25	1.863
260.62	-4.823
260.99	-1.187
261.36	-1.829
261.73	1.445
262.10	-0.556
262.47	-3.704
262.85	2.571
263.22	-0.860
263.59	-7.692
263.96	-2.319
264.33	-1.897
264.70	-3.867
265.07	-1.923
265.44	-1.809
265.81	-0.258
266.18	-2.025
266.55	-0.735
266.92	-0.252
267.29	-0.726
267.66	-0.494
268.03	-0.483
268.40	0.939
268.77	-0.241
269.14	-1.856
269.51	1.149
269.88	-4.358
270.25	-4.662
270.62	-0.915
270.99	-0.676
271.36	-0.233
271.73	0.000
272.10	-0.686
272.47	-0.444
272.84	-0.667
273.21	-0.459
273.58	-1.099
273.95	-0.439
274.32	-0.679
274.69	-0.219
275.06	0.818
275.43	-1.786
275.80	0.204
276.17	-2.929
276.54	3.870
276.91	-1.029
277.28	-0.406
277.65	-0.207
278.02	-0.626
278.39	-0.393
278.76	-1.594
279.13	-0.198
279.50	-0.398
279.87	-2.114
280.23	1.215
280.60	-4.175
280.97	-0.583
281.34	1.741
281.71	0.769
282.08	0.000
282.45	-2.648
282.82	0.581
283.19	-0.364
283.56	0.916
283.92	0.883
284.29	-1.859
284.66	0.360
285.03	0.891
285.40	0.000
285.77	1.053
286.14	-2.166
286.51	-0.355
286.87	-0.726
287.24	1.365
287.61	0.331
287.98	-0.693
288.35	0.165
288.72	-0.679
289.08	-0.508
289.45	0.337
289.82	-1.557
290.19	1.970
290.56	-3.471
290.93	-0.477
291.29	-1.621
291.66	0.000
292.03	-0.628
292.40	1.355
292.77	-1.087
293.13	0.650
293.50	-0.743
293.87	1.534
294.24	0.452
294.60	-1.364
294.97	1.062
295.34	-0.593
295.71	-0.893
296.08	-0.922
296.44	-1.144
296.81	0.855
297.18	0.141
297.55	0.424
297.91	2.092
298.28	0.548
298.65	0.558
299.02	2.005
299.38	-0.134
299.75	0.136
300.12	-0.513
300.48	1.662
300.85	0.655
301.22	-0.388
301.59	-0.910
301.95	2.015
302.32	-2.477
302.69	2.081
303.05	0.733
303.42	0.000
303.79	0.239
304.15	1.303
304.52	0.817
304.89	1.299
305.25	-0.977
305.62	0.353
305.99	1.060
306.35	1.554
306.72	0.797
307.09	1.249
307.45	0.454
307.82	0.559
308.19	1.342
308.55	0.109
308.92	0.322
309.29	0.757
309.65	0.318
310.02	2.052
310.38	0.108
310.75	1.434
311.12	1.240
311.48	1.983
311.85	1.751
312.22	-0.206
312.58	1.831
312.95	0.510
313.31	2.098
313.68	2.211
314.05	2.671
314.41	0.905
314.78	0.699
315.14	2.764
315.51	2.128
315.87	2.517
316.24	3.110
316.61	2.399
316.97	3.682
317.34	1.541
317.70	2.597
318.07	2.705
318.43	2.247
318.80	4.225
319.16	2.627
319.53	2.538
319.89	3.198
320.26	3.235
320.62	3.558
320.99	4.776
321.35	3.350
321.72	3.071
322.08	4.550
322.45	3.762
322.81	5.187
323.18	6.052
323.54	5.638
323.91	6.302
324.27	5.513
324.64	5.302
325.00	5.934
325.37	6.425
325.73	8.399
326.10	6.466
326.46	6.655
326.83	7.660
327.19	8.757
327.56	9.710
327.92	9.176
328.29	8.745
328.65	9.273
329.01	10.247
329.38	9.545
329.74	11.538
330.11	10.154
330.47	10.808
330.84	12.374
331.20	10.379
331.56	10.848
331.93	11.279
332.29	12.603
332.66	13.082
333.02	11.403
333.38	13.620
333.75	13.624
334.11	12.889
334.48	12.533
334.84	13.648
335.20	13.564
335.57	12.996
335.93	14.414
336.29	14.083
336.66	12.423
337.02	15.315
337.38	12.923
337.75	14.925
338.11	14.132
338.47	14.591
338.84	14.156
339.20	14.851
339.56	15.775
339.93	14.462
340.29	13.995
340.65	13.986
341.02	14.418
341.38	15.417
341.74	14.733
342.11	14.164
342.47	14.335
342.83	15.365
343.20	16.482
343.56	14.694
343.92	15.192
344.28	15.980
344.65	14.191
345.01	15.126
345.37	16.196
345.73	14.403
346.10	14.064
346.46	15.110
346.82	15.317
347.19	15.366
347.55	15.650
347.91	15.433
348.27	14.956
348.63	15.832
349.00	15.752
349.36	14.676
349.72	16.322
350.08	15.156
350.45	14.894
350.81	16.640
351.17	14.871
351.53	14.638
351.89	15.845
352.26	15.426
352.62	17.127
352.98	16.693
353.34	15.508
353.70	15.367
354.07	15.657
354.43	16.443
354.79	16.244
355.15	16.134
355.51	15.625
355.87	16.522
356.24	16.124
356.60	17.889
356.96	16.705
357.32	16.548
357.68	15.402
358.04	15.935
358.40	16.396
358.77	16.306
359.13	16.832
359.49	16.100
359.85	17.149
360.21	17.199
360.57	17.545
360.93	18.519
361.29	17.638
361.66	15.549
362.02	17.086
362.38	17.608
362.74	16.410
363.10	17.217
363.46	16.880
363.82	18.659
364.18	17.728
364.54	18.871
364.90	17.261
365.26	16.619
365.62	18.746
365.98	18.421
366.35	17.042
366.71	17.266
367.07	18.066
367.43	18.325
367.79	17.801
368.15	17.283
368.51	18.671
368.87	19.643
369.23	18.596
369.59	18.056
369.95	19.803
370.31	18.847
370.67	18.077
371.03	19.825
371.39	18.034
371.75	19.599
372.11	20.086
372.47	18.655
372.83	19.889
373.19	20.143
373.55	19.916
373.91	20.555
374.27	19.644
374.63	19.807
374.99	19.680
375.35	19.179
375.71	21.742
376.07	20.602
376.42	19.338
376.78	20.654
377.14	20.407
377.50	21.406
377.86	19.701
378.22	21.106
378.58	20.506
378.94	20.592
379.30	21.877
379.66	21.311
380.02	21.866
380.38	20.423
380.74	20.750
381.09	21.734
381.45	22.315
381.81	20.932
382.17	22.494
382.53	21.824
382.89	22.368
383.25	22.938
383.61	22.406
383.97	23.270
384.32	23.279
384.68	22.310
385.04	22.645
385.40	22.763
385.76	23.537
386.12	22.361
386.48	24.072
386.83	23.497
387.19	23.551
387.55	23.561
387.91	23.711
388.27	23.160
388.62	23.257
388.98	23.319
389.34	23.011
389.70	22.838
390.06	23.431
390.42	23.782
390.77	23.533
391.13	23.540
391.49	24.392
391.85	24.190
392.20	23.544
392.56	24.007
392.92	23.331
393.28	24.684
393.64	24.293
393.99	24.677
394.35	23.844
394.71	23.718
395.07	24.922
395.42	24.136
395.78	23.319
396.14	24.673
396.50	23.853
396.85	24.121
397.21	24.909
397.57	24.316
397.92	24.707
398.28	24.389
398.64	24.093
399.00	25.112
399.35	24.183
399.71	24.274
400.07	25.075
400.42	24.270
400.78	24.329
401.14	25.090
401.49	24.941
401.85	24.527
402.21	24.434
402.57	25.182
402.92	25.551
403.28	24.142
403.63	23.607
403.99	24.612
404.35	24.457
404.70	23.464
405.06	24.625
405.42	23.247
405.77	24.548
406.13	23.907
406.49	25.524
406.84	24.715
407.20	25.088
407.55	24.889
407.91	23.251
408.27	25.368
408.62	24.113
408.98	24.378
409.34	23.461
409.69	23.945
410.05	24.257
410.40	23.789
410.76	24.541
411.11	24.002
411.47	24.488
411.83	25.000
412.18	24.319
412.54	24.161
412.89	24.727
413.25	23.731
413.60	24.666
413.96	23.352
414.31	24.404
414.67	24.254
415.03	25.356
415.38	24.919
415.74	25.129
416.09	24.616
416.45	24.074
416.80	25.163
417.16	24.319
417.51	26.658
417.87	25.502
418.22	26.106
418.58	24.968
418.93	25.935
419.29	26.474
419.64	24.937
420.00	26.792
420.35	25.902
420.71	25.990
421.06	26.095
421.42	26.464
421.77	26.745
422.12	26.357
422.48	26.403
422.83	26.367
423.19	26.225
423.54	27.493
423.90	27.068
424.25	26.357
424.61	28.227
424.96	27.384
425.31	28.004
425.67	28.023
426.02	27.252
426.38	28.554
426.73	28.638
427.09	28.554
427.44	28.125
427.79	27.907
428.15	29.324
428.50	28.974
428.85	27.998
429.21	28.998
429.56	28.906
429.92	29.158
430.27	29.362
430.62	30.617
430.98	28.698
431.33	29.296
431.68	30.456
432.04	30.330
432.39	30.883
432.74	30.156
433.10	29.938
433.45	30.340
433.80	30.683
434.16	30.951
434.51	30.356
434.86	30.931
435.22	30.846
435.57	30.967
435.92	31.125
436.28	32.344
436.63	30.921
436.98	31.386
437.34	30.065
437.69	31.680
438.04	32.785
438.39	32.671
438.75	31.723
439.10	31.760
439.45	31.986
439.81	33.735
440.16	32.765
440.51	33.647
440.86	32.678
441.22	31.896
441.57	33.000
441.92	32.430
442.27	33.117
442.63	33.155
442.98	31.998
443.33	32.455
443.68	32.517
444.03	33.153
444.39	33.578
444.74	33.921
445.09	33.004
445.44	33.877
445.79	32.993
446.15	33.954
446.50	33.370
446.85	34.017
447.20	34.270
447.55	34.972
447.91	33.801
448.26	33.520
448.61	33.616
448.96	35.014
449.31	33.878
449.66	34.974
450.02	33.518
450.37	33.333
450.72	33.107
451.07	35.387
451.42	33.891
451.77	34.590
452.12	34.505
452.47	34.257
452.83	35.411
453.18	35.104
453.53	34.701
453.88	35.586
454.23	34.643
454.58	35.861
454.93	34.761
455.28	35.755
455.63	35.319
455.98	35.602
456.34	35.451
456.69	35.522
457.04	35.771
457.39	35.347
457.74	35.381
458.09	35.847
458.44	36.663
458.79	35.538
459.14	36.167
459.49	35.110
459.84	35.919
460.19	36.038
460.54	35.330
460.89	36.323
461.24	35.944
461.59	36.166
461.94	35.773
462.29	36.391
462.64	36.627
462.99	37.416
463.34	36.394
463.69	36.641
464.04	35.970
464.39	35.603
464.74	35.579
465.09	35.598
465.44	36.887
465.79	36.153
466.14	37.227
466.49	36.960
466.84	37.275
467.19	37.406
467.54	36.456
467.89	36.868
468.24	37.352
468.59	37.039
468.94	37.170
469.29	37.167
469.64	37.197
469.99	36.935
470.34	37.208
470.68	38.299
471.03	37.096
471.38	36.944
471.73	37.972
472.08	38.621
472.43	37.452
472.78	38.800
473.13	36.382
473.48	36.694
473.83	37.407
474.17	37.197
474.52	39.066
474.87	38.228
475.22	37.345
475.57	37.833
475.92	37.743
476.27	37.657
476.61	37.014
476.96	37.731
477.31	37.783
477.66	37.742
478.01	38.142
478.36	38.345
478.70	38.174
479.05	38.345
479.40	37.565
479.75	37.768
480.10	38.492
480.45	37.186
480.79	38.450
481.14	38.585
481.49	38.383
481.84	37.818
482.19	37.825
482.53	37.642
482.88	37.447
483.23	37.793
483.58	38.622
483.92	39.130
484.27	37.616
484.62	37.063
484.97	37.607
485.31	35.648
485.66	34.778
486.01	34.835
486.36	35.723
486.70	36.853
487.05	36.074
487.40	36.806
487.75	36.721
488.09	37.029
488.44	37.111
488.79	37.779
489.13	37.809
489.48	38.418
489.83	38.908
490.17	38.703
490.52	38.361
490.87	38.476
491.22	39.187
491.56	37.963
491.91	38.550
492.26	38.632
492.60	38.725
492.95	39.315
493.30	39.543
493.64	39.022
493.99	39.579
494.34	38.524
494.68	39.560
495.03	38.958
495.37	38.446
495.72	38.703
496.07	39.559
496.41	39.463
496.76	39.224
497.11	39.001
497.45	39.320
497.80	39.620
498.14	39.587
498.49	39.829
498.84	38.010
499.18	39.474
499.53	40.088
499.87	39.189
500.22	39.167
500.56	39.620
500.91	39.064
501.26	39.689
501.60	38.902
501.95	40.483
502.29	38.451
502.64	38.897
502.98	38.764
503.33	39.098
503.67	38.649
504.02	39.063
504.36	39.314
504.71	40.122
505.06	39.441
505.40	40.519
505.75	40.650
506.09	39.939
506.44	38.897
506.78	40.341
507.13	39.804
507.47	39.802
507.82	40.475
508.16	40.518
508.51	39.979
508.85	40.166
509.19	40.659
509.54	40.803
509.88	39.947
510.23	39.780
510.57	41.217
510.92	40.226
511.26	39.500
511.61	40.173
511.95	40.463
512.30	41.396
512.64	39.789
512.98	41.199
513.33	40.802
513.67	41.653
514.02	41.107
514.36	40.499
514.70	40.634
515.05	42.539
515.39	41.234
515.74	42.816
516.08	40.692
516.42	41.303
516.77	41.594
517.11	41.476
517.46	41.926
517.80	42.118
518.14	41.606
518.49	41.482
518.83	41.780
519.17	41.445
519.52	41.411
519.86	42.413
520.20	43.276
520.55	41.723
520.89	41.390
521.23	41.636
521.58	42.069
521.92	43.002
522.26	41.651
522.61	41.762
522.95	41.544
523.29	41.567
523.64	42.473
523.98	43.221
524.32	42.300
524.66	40.994
525.01	42.004
525.35	42.461
525.69	41.444
526.04	41.841
526.38	42.712
526.72	42.146
527.06	43.034
527.41	42.706
527.75	41.848
528.09	42.886
528.43	41.902
528.78	41.646
529.12	42.318
529.46	43.299
529.80	40.930
530.15	42.048
530.49	42.432
530.83	43.418
531.17	41.953
531.51	42.800
531.86	42.199
532.20	42.308
532.54	41.778
532.88	41.304
533.22	42.714
533.57	41.710
533.91	40.075
534.25	40.478
534.59	40.912
534.93	41.693
535.27	40.403
535.62	42.775
535.96	40.789
536.30	40.969
536.64	40.505
536.98	42.444
537.32	42.916
537.66	41.819
538.01	41.787
538.35	41.959
538.69	41.912
539.03	42.722
539.37	41.450
539.71	42.028
540.05	40.713
540.39	41.343
540.73	41.534
541.07	41.052
541.42	40.311
541.76	41.262
542.10	42.336
542.44	40.973
542.78	42.062
543.12	43.313
543.46	40.890
543.80	41.271
544.14	40.766
544.48	40.354
544.82	41.069
545.16	42.589
545.50	40.713
545.84	41.794
546.18	42.788
546.52	41.536
546.86	42.450
547.20	43.319
547.54	40.220
547.88	40.876
548.22	39.712
548.56	40.815
548.90	42.251
549.24	41.345
549.58	41.426
549.92	42.191
550.26	42.341
550.60	40.256
550.94	41.606
551.28	43.491
551.62	42.541
551.96	42.258
552.30	41.115
552.64	41.168
552.98	41.626
553.32	42.857
553.66	43.475
554.00	42.360
554.34	41.011
554.68	42.178
555.02	42.909
555.36	41.912
555.69	42.192
556.03	41.404
556.37	41.750
556.71	42.162
557.05	42.646
557.39	43.281
557.73	43.180
558.07	43.783
558.41	42.558
558.75	42.433
559.08	42.101
559.42	42.113
559.76	43.405
560.10	43.922
560.44	42.486
560.78	42.589
561.12	42.305
561.45	42.192
561.79	41.394
562.13	42.076
562.47	41.877
562.81	41.513
563.15	43.177
563.48	43.400
563.82	41.447
564.16	41.650
564.50	42.003
564.84	41.071
565.17	43.170
565.51	41.982
565.85	43.475
566.19	42.029
566.52	41.357
566.86	41.340
567.20	42.010
567.54	41.406
567.88	39.754
568.21	40.157
568.55	39.926
568.89	39.960
569.23	39.658
569.56	37.663
569.90	38.906
570.24	38.557
570.57	37.469
570.91	37.402
571.25	37.516
571.59	37.777
571.92	36.310
572.26	37.208
572.60	36.767
572.93	36.977
573.27	36.128
573.61	36.249
573.95	35.950
574.28	35.474
574.62	36.401
574.96	35.643
575.29	36.153
575.63	36.342
575.97	35.437
576.30	35.599
576.64	36.188
576.98	35.009
577.31	35.757
577.65	35.361
577.98	35.811
578.32	35.277
578.66	35.751
578.99	35.586
579.33	35.745
579.67	35.202
580.00	36.334
580.34	35.641
580.67	36.161
581.01	35.032
581.35	35.178
581.68	34.828
582.02	35.726
582.35	35.467
582.69	35.581
583.02	36.848
583.36	36.153
583.70	35.535
584.03	37.096
584.37	36.401
584.70	36.770
585.04	35.975
585.37	35.752
585.71	36.284
586.04	36.854
586.38	36.701
586.72	36.189
587.05	36.930
587.39	36.793
587.72	36.634
588.06	36.039
588.39	37.226
588.73	37.568
589.06	38.139
589.40	37.066
589.73	38.067
590.07	37.800
590.40	38.413
590.73	38.265
591.07	38.525
591.40	39.991
591.74	38.445
592.07	39.144
592.41	39.236
592.74	38.355
593.08	37.075
593.41	37.632
593.75	37.620
594.08	38.282
594.41	37.893
594.75	38.732
595.08	38.835
595.42	38.331
595.75	38.111
596.09	38.494
596.42	38.584
596.75	39.414
597.09	39.492
597.42	38.760
597.75	38.707
598.09	39.042
598.42	38.710
598.76	38.912
599.09	38.082
599.42	37.486
599.76	38.618
600.09	38.664
600.42	38.435
600.76	38.456
601.09	38.625
601.42	38.108
601.76	38.824
602.09	38.691
602.42	37.695
602.76	38.513
603.09	38.508
603.42	39.525
603.76	39.370
604.09	38.927
604.42	38.468
604.76	39.163
605.09	39.060
605.42	39.317
605.75	38.939
606.09	38.979
606.42	37.997
606.75	38.987
607.09	39.656
607.42	39.085
607.75	38.411
608.08	39.268
608.42	39.924
608.75	39.907
609.08	39.162
609.41	39.113
609.75	39.347
610.08	40.539
610.41	39.807
610.74	39.652
611.07	41.227
611.41	39.536
611.74	39.692
612.07	40.548
612.40	39.499
612.73	39.634
613.07	40.341
613.40	41.762
613.73	40.708
614.06	39.813
614.39	41.826
614.72	40.503
615.06	39.837
615.39	40.206
615.72	40.576
616.05	39.205
616.38	41.381
616.71	40.661
617.05	41.737
617.38	42.229
617.71	41.032
618.04	41.056
618.37	43.082
618.70	43.481
619.03	41.774
619.36	42.777
619.69	43.647
620.03	42.011
620.36	42.264
620.69	44.006
621.02	42.390
621.35	42.339
621.68	43.279
622.01	45.065
622.34	43.634
622.67	43.672
623.00	43.994
623.33	43.881
623.66	42.984
623.99	44.135
624.32	43.155
624.65	43.782
624.99	42.494
625.32	43.039
625.65	43.978
625.98	43.036
626.31	44.127
626.64	44.017
626.97	45.034
627.30	44.511
627.63	43.264
627.96	44.648
628.29	44.761
628.62	46.609
628.95	46.555
629.28	45.771
629.61	46.320
629.94	46.219
630.26	47.614
630.59	47.538
630.92	46.046
631.25	46.573
631.58	48.148
631.91	47.128
632.24	50.222
632.57	48.333
632.90	48.851
633.23	49.650
633.56	48.772
633.89	48.585
