SpectraSuite Data File
++++++++++++++++++++++++++++++++++++
Date: Sat May 16 11:34:43 PDT 2015
User: schluterlab
Dark Spectrum Present: Yes
Reference Spectrum Present: Yes
Number of Sampled Component Spectra: 1
Spectrometers: USB2E3373
Integration Time (usec): 3000 (USB2E3373)
Spectra Averaged: 3 (USB2E3373)
Boxcar Smoothing: 0 (USB2E3373)
Correct for Electrical Dark: No (USB2E3373)
Strobe/Lamp Enabled: No (USB2E3373)
Correct for Detector Non-linearity: No (USB2E3373)
Correct for Stray Light: No (USB2E3373)
Number of Pixels in Processed Spectrum: 2048
>>>>>Begin Processed Spectral Data<<<<<
178.53	0.000
178.91	100.000
179.29	800.000
179.67	-1100.000
180.04	-46.154
180.42	1900.000
180.80	425.000
181.18	325.000
181.56	-162.500
181.94	2500.000
182.31	400.000
182.69	-69.231
183.07	-733.333
183.45	1250.000
183.83	533.333
184.20	-100.000
184.58	-200.000
184.96	-350.000
185.34	131.250
185.72	-700.000
186.09	266.667
186.47	-225.000
186.85	-137.500
187.23	-100.000
187.61	-175.000
187.98	-200.000
188.36	-62.500
188.74	-237.500
189.12	2100.000
189.49	271.429
189.87	-50.000
190.25	400.000
190.63	-92.857
191.00	-166.667
191.38	400.000
191.76	-53.333
192.14	560.000
192.51	-240.000
192.89	-733.333
193.27	0.000
193.65	-66.667
194.02	-157.143
194.40	433.333
194.78	-80.000
195.15	-1300.000
195.53	-172.727
195.91	-350.000
196.29	160.000
196.66	-700.000
197.04	1500.000
197.42	-375.000
197.79	6.667
198.17	-233.333
198.55	-400.000
198.92	-1000.000
199.30	250.000
199.68	-700.000
200.05	-288.889
200.43	-200.000
200.81	-2300.000
201.18	-116.667
201.56	157.143
201.94	-20.000
202.31	-59.091
202.69	0.000
203.07	-30.000
203.44	200.000
203.82	-350.000
204.19	-400.000
204.57	-100.000
204.95	-1400.000
205.32	-43.750
205.70	600.000
206.08	-2200.000
206.45	-88.889
206.83	-1250.000
207.20	-600.000
207.58	-900.000
207.96	-533.333
208.33	-287.500
208.71	-111.111
209.08	210.000
209.46	-242.857
209.84	850.000
210.21	0.000
210.59	70.000
210.96	800.000
211.34	-300.000
211.71	-466.667
212.09	525.000
212.46	1100.000
212.84	-2200.000
213.22	333.333
213.59	91.667
213.97	-144.444
214.34	200.000
214.72	-10.000
215.09	-466.667
215.47	-266.667
215.84	-120.000
216.22	-110.000
216.59	-46.667
216.97	-650.000
217.34	550.000
217.72	-28.571
218.09	-150.000
218.47	-242.857
218.84	242.857
219.22	-157.143
219.59	0.000
219.97	242.857
220.34	600.000
220.72	300.000
221.09	-69.231
221.47	0.000
221.84	466.667
222.22	-550.000
222.59	500.000
222.97	-162.500
223.34	-900.000
223.72	-433.333
224.09	-100.000
224.46	-300.000
224.84	-35.714
225.21	-242.857
225.59	-154.545
225.96	-187.500
226.34	-214.286
226.71	-144.444
227.08	35.000
227.46	2000.000
227.83	-114.286
228.21	-125.000
228.58	700.000
228.95	-31.250
229.33	-1300.000
229.70	-440.000
230.08	-800.000
230.45	8.333
230.82	-183.333
231.20	-500.000
231.57	-250.000
231.95	2100.000
232.32	-42.857
232.69	-33.333
233.07	-342.857
233.44	-650.000
233.81	-113.333
234.19	-244.444
234.56	-100.000
234.93	15.625
235.31	-200.000
235.68	-150.000
236.05	-58.824
236.43	-77.273
236.80	-29.032
237.17	-25.000
237.55	-61.905
237.92	-72.727
238.29	-22.857
238.67	-23.529
239.04	-16.667
239.41	-64.516
239.79	-38.462
240.16	-35.714
240.53	-30.909
240.91	7.692
241.28	-21.818
241.65	4.615
242.02	-3.279
242.40	-24.590
242.77	-3.030
243.14	-13.559
243.51	-35.714
243.89	-11.392
244.26	-1.124
244.63	5.263
245.00	0.000
245.38	0.000
245.75	-0.885
246.12	0.000
246.49	0.787
246.87	-1.626
247.24	-13.559
247.61	-8.475
247.98	-6.338
248.36	-6.294
248.73	2.532
249.10	-3.822
249.47	0.000
249.84	-1.136
250.22	-13.690
250.59	0.565
250.96	-1.571
251.33	4.739
251.70	-2.404
252.08	-2.370
252.45	-3.791
252.82	-2.857
253.19	-1.277
253.56	0.403
253.94	-3.376
254.31	-2.146
254.68	-1.220
255.05	-6.048
255.42	0.794
255.79	-5.735
256.16	0.000
256.54	-1.103
256.91	-1.515
257.28	-5.128
257.65	-0.355
258.02	0.943
258.39	-0.334
258.76	-1.689
259.14	0.617
259.51	1.967
259.88	0.915
260.25	2.174
260.62	-0.322
260.99	-0.593
261.36	-0.305
261.73	-0.289
262.10	3.611
262.47	-2.279
262.85	1.429
263.22	0.573
263.59	-2.462
263.96	0.290
264.33	-2.710
264.70	0.552
265.07	-1.648
265.44	1.034
265.81	-0.517
266.18	-2.532
266.55	-0.490
266.92	3.778
267.29	-0.484
267.66	1.235
268.03	2.174
268.40	2.817
268.77	0.482
269.14	0.464
269.51	1.379
269.88	-0.229
270.25	-2.098
270.62	-0.229
270.99	1.351
271.36	2.098
271.73	1.121
272.10	-1.602
272.47	0.889
272.84	2.444
273.21	0.688
273.58	1.099
273.95	-0.658
274.32	1.810
274.69	2.626
275.06	3.067
275.43	-2.232
275.80	3.870
276.17	0.000
276.54	3.870
276.91	-0.617
277.28	4.057
277.65	-0.207
278.02	0.835
278.39	3.733
278.76	-0.598
279.13	0.988
279.50	1.392
279.87	0.846
280.23	1.012
280.60	0.994
280.97	-1.165
281.34	0.387
281.71	0.385
282.08	0.806
282.45	-5.092
282.82	0.969
283.19	1.273
283.56	2.198
283.92	1.237
284.29	-1.115
284.66	2.158
285.03	3.209
285.40	2.214
285.77	0.175
286.14	0.722
286.51	0.355
286.87	1.996
287.24	4.096
287.61	2.645
287.98	2.253
288.35	0.992
288.72	-0.170
289.08	1.017
289.45	3.535
289.82	-1.038
290.19	4.598
290.56	1.488
290.93	2.226
291.29	0.000
291.66	2.093
292.03	2.983
292.40	1.355
292.77	2.640
293.13	2.439
293.50	5.052
293.87	1.380
294.24	2.413
294.60	1.667
294.97	2.731
295.34	2.963
295.71	2.679
296.08	0.922
296.44	2.146
296.81	3.276
297.18	4.085
297.55	3.531
297.91	5.021
298.28	1.233
298.65	3.208
299.02	5.348
299.38	2.139
299.75	3.125
300.12	3.974
300.48	4.092
300.85	2.883
301.22	5.175
301.59	1.951
301.95	5.793
302.32	2.216
302.69	3.672
303.05	3.663
303.42	2.250
303.79	4.904
304.15	4.858
304.52	4.667
304.89	3.188
305.25	4.396
305.62	3.878
305.99	5.418
306.35	5.327
306.72	4.670
307.09	4.767
307.45	4.767
307.82	3.128
308.19	6.152
308.55	5.338
308.92	4.619
309.29	5.081
309.65	6.151
310.02	5.724
310.38	4.108
310.75	6.352
311.12	6.095
311.48	7.098
311.85	6.591
312.22	7.312
312.58	6.816
312.95	7.441
313.31	8.791
313.68	8.442
314.05	6.627
314.41	7.143
314.78	7.093
315.14	8.095
315.51	7.295
315.87	8.906
316.24	9.427
316.61	9.021
316.97	8.955
317.34	8.574
317.70	8.349
318.07	9.422
318.43	9.176
318.80	11.925
319.16	7.974
319.53	8.929
319.89	10.630
320.26	9.510
320.62	9.904
320.99	10.448
321.35	9.360
321.72	11.259
322.08	11.375
322.45	10.396
322.81	12.296
323.18	12.008
323.54	12.847
323.91	13.160
324.27	12.262
324.64	13.620
325.00	13.700
325.37	14.299
325.73	15.136
326.10	13.375
326.46	15.149
326.83	16.255
327.19	15.430
327.56	17.462
327.92	16.992
328.29	17.229
328.65	16.273
329.01	18.463
329.38	17.217
329.74	20.879
330.11	18.948
330.47	19.074
330.84	20.807
331.20	19.765
331.56	18.232
331.93	20.071
332.29	21.461
332.66	21.422
333.02	20.543
333.38	20.609
333.75	20.837
334.11	19.556
334.48	20.212
334.84	21.785
335.20	21.543
335.57	20.217
335.93	21.486
336.29	21.081
336.66	20.000
337.02	21.622
337.38	21.123
337.75	20.105
338.11	21.377
338.47	21.174
338.84	20.690
339.20	21.353
339.56	21.301
339.93	21.252
340.29	20.461
340.65	22.115
341.02	21.079
341.38	20.640
341.74	20.830
342.11	20.904
342.47	20.000
342.83	20.907
343.20	20.581
343.56	19.347
343.92	21.703
344.28	22.624
344.65	20.875
345.01	20.504
345.37	21.262
345.73	20.131
346.10	19.869
346.46	20.390
346.82	20.850
347.19	21.282
347.55	20.385
347.91	21.339
348.27	20.525
348.63	22.052
349.00	21.161
349.36	18.267
349.72	21.895
350.08	20.850
350.45	21.119
350.81	21.099
351.17	20.257
351.53	20.764
351.89	21.180
352.26	20.233
352.62	21.582
352.98	20.332
353.34	21.823
353.70	21.699
354.07	20.614
354.43	21.581
354.79	21.315
355.15	19.649
355.51	20.000
355.87	20.158
356.24	20.651
356.60	22.401
356.96	21.709
357.32	21.615
357.68	20.920
358.04	20.477
358.40	20.572
358.77	21.252
359.13	20.964
359.49	21.164
359.85	21.570
360.21	21.157
360.57	22.289
360.93	22.519
361.29	22.048
361.66	21.418
362.02	22.041
362.38	21.570
362.74	22.418
363.10	21.593
363.46	22.222
363.82	21.574
364.18	22.287
364.54	23.231
364.90	21.733
365.26	22.254
365.62	22.167
365.98	23.329
366.35	22.394
366.71	21.776
367.07	23.077
367.43	22.169
367.79	23.093
368.15	22.048
368.51	22.867
368.87	23.832
369.23	22.807
369.59	23.681
369.95	23.890
370.31	23.699
370.67	23.717
371.03	23.761
371.39	23.267
371.75	24.249
372.11	23.673
372.47	24.440
372.83	23.992
373.19	25.000
373.55	24.912
373.91	24.609
374.27	24.093
374.63	24.086
374.99	24.270
375.35	24.495
375.71	26.604
376.07	25.257
376.42	23.775
376.78	25.817
377.14	25.763
377.50	26.241
377.86	25.423
378.22	26.319
378.58	26.683
378.94	26.449
379.30	27.118
379.66	26.655
380.02	26.144
380.38	27.190
380.74	26.612
381.09	27.006
381.45	27.745
381.81	27.163
382.17	26.754
382.53	26.444
382.89	27.572
383.25	27.152
383.61	27.653
383.97	28.965
384.32	28.285
384.68	28.537
385.04	28.623
385.40	28.424
385.76	29.329
386.12	29.419
386.48	29.455
386.83	29.448
387.19	29.528
387.55	29.740
387.91	29.935
388.27	29.433
388.62	29.507
388.98	29.497
389.34	30.539
389.70	30.207
390.06	29.211
390.42	31.154
390.77	30.158
391.13	32.050
391.49	30.817
391.85	30.860
392.20	30.279
392.56	30.238
392.92	30.747
393.28	30.827
393.64	30.788
393.99	31.569
394.35	30.900
394.71	30.760
395.07	32.643
395.42	31.287
395.78	31.427
396.14	31.776
396.50	32.416
396.85	32.449
397.21	31.774
397.57	31.672
397.92	32.143
398.28	32.500
398.64	32.659
399.00	33.202
399.35	32.074
399.71	32.114
400.07	33.075
400.42	32.543
400.78	31.544
401.14	33.114
401.49	32.134
401.85	33.130
402.21	33.850
402.57	32.767
402.92	34.298
403.28	33.088
403.63	32.594
403.99	32.691
404.35	32.428
404.70	33.060
405.06	33.795
405.42	33.149
405.77	32.579
406.13	34.242
406.49	34.152
406.84	31.974
407.20	33.804
407.55	32.362
407.91	33.355
408.27	33.395
408.62	32.892
408.98	34.384
409.34	33.760
409.69	33.585
410.05	34.930
410.40	34.519
410.76	35.329
411.11	35.349
411.47	33.696
411.83	34.474
412.18	34.901
412.54	34.533
412.89	34.933
413.25	34.357
413.60	34.629
413.96	33.210
414.31	34.312
414.67	34.794
415.03	34.670
415.38	34.678
415.74	35.309
416.09	35.678
416.45	34.259
416.80	36.086
417.16	36.279
417.51	36.113
417.87	35.663
418.22	35.019
418.58	35.879
418.93	36.481
419.29	36.324
419.64	34.799
420.00	36.695
420.35	35.896
420.71	37.515
421.06	36.746
421.42	36.710
421.77	36.683
422.12	37.157
422.48	36.237
422.83	37.472
423.19	36.804
423.54	37.061
423.90	36.090
424.25	37.048
424.61	37.033
424.96	37.858
425.31	38.010
425.67	37.765
426.02	36.546
426.38	38.415
426.73	39.334
427.09	38.725
427.44	37.500
427.79	38.081
428.15	39.258
428.50	39.648
428.85	39.149
429.21	37.908
429.56	38.177
429.92	38.778
430.27	38.983
430.62	39.237
430.98	39.153
431.33	39.648
431.68	39.786
432.04	40.459
432.39	39.145
432.74	40.108
433.10	38.942
433.45	39.493
433.80	40.314
434.16	40.301
434.51	40.438
434.86	40.773
435.22	40.312
435.57	40.636
435.92	40.211
436.28	41.128
436.63	39.853
436.98	39.863
437.34	41.819
437.69	40.198
438.04	41.066
438.39	41.998
438.75	40.454
439.10	41.033
439.45	41.038
439.81	42.229
440.16	41.397
440.51	41.941
440.86	42.741
441.22	41.404
441.57	41.684
441.92	42.251
442.27	41.937
442.63	42.918
442.98	41.986
443.33	42.394
443.68	41.688
444.03	41.454
444.39	42.438
444.74	43.172
445.09	42.708
445.44	42.262
445.79	42.529
446.15	42.442
446.50	41.590
446.85	42.483
447.20	43.463
447.55	43.481
447.91	44.469
448.26	42.905
448.61	41.992
448.96	44.482
449.31	43.348
449.66	44.018
450.02	42.770
450.37	43.072
450.72	43.051
451.07	44.877
451.42	42.999
451.77	42.789
452.12	43.623
452.47	43.262
452.83	43.331
453.18	44.023
453.53	42.600
453.88	45.275
454.23	43.712
454.58	44.686
454.93	44.018
455.28	43.977
455.63	43.612
455.98	44.880
456.34	43.583
456.69	44.528
457.04	43.884
457.39	44.019
457.74	44.595
458.09	43.910
458.44	44.400
458.79	44.731
459.14	44.780
459.49	44.050
459.84	42.721
460.19	44.153
460.54	44.404
460.89	44.283
461.24	44.202
461.59	44.138
461.94	44.303
462.29	44.431
462.64	44.269
462.99	45.181
463.34	44.835
463.69	45.229
464.04	43.292
464.39	44.624
464.74	43.499
465.09	43.476
465.44	44.332
465.79	43.260
466.14	44.649
466.49	44.790
466.84	45.318
467.19	44.140
467.54	44.177
467.89	45.931
468.24	44.656
468.59	45.034
468.94	45.595
469.29	43.665
469.64	44.474
469.99	45.037
470.34	45.825
470.68	45.422
471.03	45.148
471.38	44.792
471.73	46.084
472.08	45.248
472.43	44.723
472.78	44.800
473.13	44.201
473.48	45.373
473.83	45.347
474.17	45.223
474.52	45.652
474.87	45.396
475.22	45.546
475.57	45.500
475.92	45.086
476.27	45.029
476.61	45.352
476.96	44.606
477.31	45.318
477.66	45.047
478.01	44.841
478.36	44.526
478.70	45.595
479.05	46.295
479.40	45.907
479.75	44.292
480.10	44.891
480.45	44.342
480.79	45.854
481.14	45.459
481.49	45.208
481.84	45.215
482.19	44.450
482.53	45.644
482.88	44.850
483.23	44.413
483.58	45.652
483.92	46.058
484.27	44.395
484.62	43.758
484.97	43.648
485.31	43.264
485.66	41.586
486.01	42.408
486.36	43.465
486.70	44.885
487.05	43.882
487.40	43.803
487.75	43.178
488.09	43.267
488.44	43.572
488.79	43.615
489.13	43.210
489.48	44.535
489.83	45.415
490.17	43.666
490.52	45.607
490.87	44.203
491.22	44.559
491.56	44.259
491.91	45.563
492.26	44.717
492.60	44.006
492.95	44.836
493.30	43.783
493.64	44.288
493.99	44.646
494.34	45.476
494.68	43.680
495.03	43.786
495.37	44.199
495.72	44.401
496.07	44.908
496.41	44.465
496.76	43.973
497.11	44.418
497.45	44.492
497.80	45.073
498.14	45.138
498.49	44.651
498.84	44.223
499.18	44.250
499.53	44.520
499.87	44.595
500.22	44.020
500.56	44.472
500.91	45.714
501.26	44.153
501.60	44.680
501.95	45.700
502.29	44.733
502.64	44.837
502.98	44.562
503.33	44.126
503.67	44.492
504.02	44.278
504.36	44.510
504.71	44.174
505.06	43.934
505.40	44.162
505.75	45.274
506.09	45.602
506.44	44.411
506.78	44.355
507.13	44.593
507.47	45.749
507.82	44.347
508.16	45.026
508.51	45.234
508.85	45.652
509.19	44.113
509.54	44.450
509.88	45.106
510.23	45.021
510.57	45.661
510.92	44.361
511.26	44.763
511.61	45.032
511.95	45.312
512.30	45.959
512.64	45.576
512.98	46.205
513.33	45.250
513.67	45.003
514.02	45.526
514.36	44.820
514.70	45.218
515.05	45.969
515.39	45.675
515.74	48.051
516.08	45.764
516.42	45.439
516.77	45.754
517.11	46.625
517.46	46.950
517.80	46.510
518.14	46.558
518.49	47.221
518.83	46.647
519.17	46.240
519.52	46.096
519.86	46.476
520.20	47.555
520.55	46.831
520.89	46.212
521.23	47.070
521.58	46.834
521.92	47.625
522.26	47.556
522.61	45.564
522.95	46.394
523.29	47.085
523.64	46.721
523.98	47.868
524.32	47.077
524.66	45.776
525.01	46.628
525.35	47.423
525.69	47.820
526.04	47.324
526.38	47.104
526.72	45.722
527.06	47.070
527.41	47.591
527.75	46.733
528.09	47.253
528.43	46.426
528.78	46.420
529.12	46.863
529.46	47.294
529.80	46.546
530.15	47.070
530.49	46.378
530.83	47.282
531.17	47.273
531.51	47.153
531.86	46.478
532.20	46.964
532.54	46.591
532.88	47.694
533.22	47.527
533.57	47.781
533.91	45.256
534.25	46.637
534.59	45.659
534.93	45.737
535.27	46.885
535.62	46.036
535.96	46.671
536.30	46.531
536.64	47.145
536.98	49.011
537.32	47.823
537.66	45.621
538.01	45.842
538.35	47.703
538.69	45.588
539.03	46.649
539.37	46.773
539.71	45.964
540.05	46.950
540.39	46.537
540.73	46.786
541.07	47.678
541.42	45.847
541.76	44.385
542.10	48.346
542.44	45.969
542.78	46.744
543.12	46.843
543.46	46.027
543.80	44.615
544.14	47.079
544.48	45.276
544.82	47.226
545.16	45.540
545.50	45.626
545.84	46.314
546.18	47.087
546.52	46.728
546.86	47.365
547.20	45.992
547.54	44.559
547.88	45.853
548.22	44.954
548.56	45.892
548.90	48.046
549.24	46.041
549.58	46.083
549.92	44.806
550.26	47.038
550.60	44.595
550.94	45.912
551.28	45.222
551.62	46.898
551.96	45.731
552.30	46.760
552.64	45.039
552.98	46.321
553.32	45.022
553.66	46.936
554.00	46.766
554.34	45.560
554.68	44.664
555.02	45.731
555.36	45.435
555.69	45.702
556.03	45.825
556.37	46.728
556.71	47.173
557.05	46.785
557.39	46.251
557.73	46.317
558.07	46.647
558.41	46.746
558.75	46.388
559.08	45.370
559.42	46.708
559.76	46.933
560.10	46.234
560.44	46.749
560.78	46.347
561.12	45.825
561.45	45.616
561.79	45.784
562.13	46.143
562.47	45.658
562.81	45.545
563.15	45.766
563.48	45.197
563.82	46.991
564.16	45.233
564.50	45.833
564.84	45.966
565.17	45.623
565.51	45.437
565.85	46.856
566.19	46.047
566.52	44.357
566.86	44.753
567.20	45.763
567.54	46.072
567.88	44.556
568.21	44.519
568.55	44.751
568.89	42.744
569.23	43.036
569.56	42.371
569.90	43.155
570.24	43.217
570.57	41.511
570.91	41.755
571.25	41.407
571.59	41.898
571.92	41.429
572.26	41.732
572.60	41.266
572.93	40.694
573.27	40.732
573.61	40.321
573.95	41.511
574.28	41.015
574.62	41.052
574.96	40.080
575.29	40.295
575.63	40.802
575.97	40.183
576.30	39.984
576.64	40.496
576.98	39.637
577.31	40.215
577.65	40.796
577.98	39.880
578.32	39.697
578.66	40.438
578.99	40.267
579.33	40.693
579.67	40.375
580.00	40.352
580.34	40.411
580.67	40.304
581.01	39.122
581.35	39.785
581.68	39.618
582.02	39.618
582.35	39.622
582.69	40.350
583.02	40.628
583.36	39.990
583.70	40.604
584.03	40.463
584.37	40.352
584.70	39.915
585.04	39.620
585.37	39.547
585.71	39.985
586.04	40.122
586.38	39.802
586.72	39.938
587.05	40.442
587.39	40.453
587.72	40.536
588.06	40.660
588.39	40.273
588.73	40.978
589.06	41.113
589.40	41.463
589.73	40.687
590.07	40.932
590.40	41.439
590.73	41.224
591.07	41.025
591.40	41.594
591.74	41.268
592.07	41.622
592.41	41.274
592.74	41.391
593.08	40.886
593.41	41.086
593.75	40.191
594.08	41.625
594.41	41.257
594.75	40.846
595.08	41.353
595.42	41.149
595.75	41.676
596.09	41.405
596.42	42.349
596.75	41.915
597.09	41.674
597.42	41.292
597.75	42.117
598.09	41.573
598.42	40.919
598.76	41.154
599.09	40.805
599.42	41.599
599.76	41.110
600.09	41.489
600.42	41.208
600.76	41.394
601.09	40.638
601.42	40.483
601.76	41.083
602.09	41.145
602.42	40.782
602.76	40.756
603.09	41.653
603.42	42.103
603.76	42.361
604.09	41.610
604.42	40.633
604.76	41.779
605.09	41.004
605.42	42.110
605.75	41.397
606.09	40.639
606.42	40.511
606.75	41.391
607.09	41.861
607.42	41.813
607.75	41.104
608.08	41.663
608.42	41.580
608.75	41.308
609.08	41.159
609.41	41.555
609.75	42.223
610.08	42.402
610.41	41.880
610.74	42.795
611.07	42.748
611.41	40.797
611.74	42.211
612.07	43.126
612.40	43.070
612.73	42.003
613.07	42.212
613.40	44.171
613.73	42.234
614.06	42.834
614.39	43.010
614.72	42.402
615.06	42.609
615.39	41.888
615.72	42.694
616.05	42.242
616.38	42.310
616.71	42.342
617.05	43.366
617.38	43.406
617.71	43.366
618.04	43.789
618.37	42.956
618.70	44.589
619.03	45.091
619.36	42.847
619.69	43.288
620.03	42.080
620.36	43.038
620.69	44.365
621.02	44.368
621.35	45.887
621.68	45.082
622.01	45.307
622.34	43.944
622.67	42.344
623.00	43.994
623.33	42.313
623.66	42.910
623.99	44.511
624.32	42.634
624.65	45.254
624.99	44.436
625.32	43.787
625.65	44.522
625.98	45.149
626.31	44.617
626.64	44.854
626.97	44.949
627.30	45.106
627.63	43.955
627.96	44.560
628.29	43.842
628.62	43.744
628.95	48.228
629.28	45.395
629.61	44.357
629.94	46.408
630.26	47.217
630.59	45.729
630.92	46.647
631.25	45.665
631.58	46.138
631.91	44.681
632.24	46.444
632.57	45.889
632.90	47.011
633.23	46.495
633.56	45.146
633.89	49.292
634.22	45.927
634.55	47.236
