SpectraSuite Data File
++++++++++++++++++++++++++++++++++++
Date: Sat May 16 11:32:07 PDT 2015
User: schluterlab
Dark Spectrum Present: Yes
Reference Spectrum Present: Yes
Number of Sampled Component Spectra: 1
Spectrometers: USB2E3373
Integration Time (usec): 3000 (USB2E3373)
Spectra Averaged: 3 (USB2E3373)
Boxcar Smoothing: 0 (USB2E3373)
Correct for Electrical Dark: No (USB2E3373)
Strobe/Lamp Enabled: No (USB2E3373)
Correct for Detector Non-linearity: No (USB2E3373)
Correct for Stray Light: No (USB2E3373)
Number of Pixels in Processed Spectrum: 2048
>>>>>Begin Processed Spectral Data<<<<<
178.53	0.000
178.91	100.000
179.29	400.000
179.67	-2000.000
180.04	-76.923
180.42	600.000
180.80	400.000
181.18	475.000
181.56	-112.500
181.94	500.000
182.31	450.000
182.69	-107.692
183.07	-400.000
183.45	1550.000
183.83	700.000
184.20	-257.143
184.58	-212.500
184.96	-250.000
185.34	137.500
185.72	-375.000
186.09	300.000
186.47	-212.500
186.85	-37.500
187.23	-50.000
187.61	-325.000
187.98	-137.500
188.36	-187.500
188.74	-325.000
189.12	1100.000
189.49	300.000
189.87	-50.000
190.25	475.000
190.63	-100.000
191.00	-122.222
191.38	140.000
191.76	-100.000
192.14	440.000
192.51	-340.000
192.89	-466.667
193.27	0.000
193.65	-122.222
194.02	-128.571
194.40	633.333
194.78	-60.000
195.15	-800.000
195.53	-136.364
195.91	-550.000
196.29	240.000
196.66	-700.000
197.04	2100.000
197.42	-450.000
197.79	13.333
198.17	-433.333
198.55	-950.000
198.92	-2200.000
199.30	250.000
199.68	-850.000
200.05	-33.333
200.43	-188.889
200.81	-1000.000
201.18	0.000
201.56	214.286
201.94	-66.667
202.31	0.000
202.69	-30.000
203.07	-110.000
203.44	633.333
203.82	-200.000
204.19	-400.000
204.57	-200.000
204.95	-1500.000
205.32	-25.000
205.70	1100.000
206.08	-2500.000
206.45	11.111
206.83	-600.000
207.20	-300.000
207.58	-633.333
207.96	-500.000
208.33	-187.500
208.71	-233.333
209.08	240.000
209.46	-128.571
209.84	1000.000
210.21	0.000
210.59	25.000
210.96	2000.000
211.34	-216.667
211.71	-200.000
212.09	275.000
212.46	1550.000
212.84	-2000.000
213.22	533.333
213.59	141.667
213.97	33.333
214.34	40.000
214.72	-40.000
215.09	-400.000
215.47	-266.667
215.84	-90.000
216.22	-100.000
216.59	-13.333
216.97	-400.000
217.34	800.000
217.72	42.857
218.09	-416.667
218.47	-214.286
218.84	185.714
219.22	42.857
219.59	0.000
219.97	242.857
220.34	400.000
220.72	225.000
221.09	-92.308
221.47	0.000
221.84	466.667
222.22	-500.000
222.59	600.000
222.97	-200.000
223.34	-1050.000
223.72	-500.000
224.09	-128.571
224.46	-150.000
224.84	-64.286
225.21	-171.429
225.59	-127.273
225.96	-125.000
226.34	-71.429
226.71	-88.889
227.08	-20.000
227.46	800.000
227.83	-228.571
228.21	-250.000
228.58	750.000
228.95	6.250
229.33	-1600.000
229.70	-380.000
230.08	-250.000
230.45	-33.333
230.82	-100.000
231.20	-1600.000
231.57	-450.000
231.95	1100.000
232.32	19.048
232.69	-55.556
233.07	-271.429
233.44	-600.000
233.81	-80.000
234.19	-77.778
234.56	-50.000
234.93	0.000
235.31	-342.857
235.68	-71.429
236.05	-29.412
236.43	-72.727
236.80	-16.129
237.17	25.000
237.55	-33.333
237.92	-40.909
238.29	-2.857
238.67	2.941
239.04	38.889
239.41	-25.806
239.79	-33.333
240.16	-19.048
240.53	-9.091
240.91	28.205
241.28	23.636
241.65	23.077
242.02	3.279
242.40	13.115
242.77	9.091
243.14	11.864
243.51	-2.857
243.89	6.329
244.26	10.112
244.63	12.632
245.00	13.684
245.38	30.508
245.75	18.584
246.12	19.200
246.49	18.898
246.87	23.577
247.24	17.797
247.61	19.492
247.98	21.127
248.36	18.182
248.73	17.722
249.10	15.287
249.47	26.901
249.84	26.705
250.22	17.262
250.59	26.554
250.96	23.037
251.33	25.118
251.70	24.519
252.08	26.540
252.45	17.536
252.82	18.095
253.19	20.426
253.56	17.742
253.94	22.363
254.31	19.742
254.68	26.423
255.05	21.371
255.42	26.190
255.79	20.430
256.16	27.451
256.54	22.059
256.91	23.106
257.28	24.908
257.65	26.241
258.02	27.673
258.39	28.763
258.76	20.608
259.14	27.778
259.51	24.918
259.88	25.000
260.25	25.776
260.62	23.151
260.99	24.629
261.36	26.220
261.73	25.434
262.10	23.333
262.47	26.211
262.85	26.000
263.22	24.642
263.59	26.154
263.96	22.609
264.33	25.203
264.70	25.691
265.07	24.176
265.44	25.840
265.81	23.773
266.18	25.570
266.55	22.304
266.92	27.456
267.29	20.823
267.66	20.988
268.03	28.019
268.40	25.587
268.77	21.205
269.14	25.986
269.51	24.598
269.88	20.183
270.25	23.077
270.62	23.341
270.99	25.225
271.36	24.942
271.73	22.197
272.10	24.256
272.47	25.111
272.84	26.667
273.21	22.936
273.58	25.495
273.95	24.561
274.32	22.851
274.69	26.477
275.06	27.607
275.43	23.661
275.80	25.866
276.17	24.268
276.54	25.255
276.91	25.926
277.28	24.746
277.65	24.587
278.02	24.217
278.39	26.719
278.76	23.705
279.13	25.494
279.50	23.459
279.87	23.256
280.23	23.482
280.60	23.658
280.97	23.883
281.34	24.371
281.71	26.538
282.08	27.016
282.45	25.866
282.82	25.000
283.19	24.182
283.56	25.641
283.92	25.442
284.29	22.491
284.66	22.122
285.03	24.777
285.40	24.539
285.77	25.263
286.14	23.285
286.51	23.623
286.87	24.864
287.24	24.744
287.61	21.488
287.98	23.224
288.35	21.157
288.72	22.750
289.08	23.898
289.45	21.380
289.82	21.799
290.19	23.481
290.56	21.653
290.93	21.145
291.29	20.908
291.66	22.866
292.03	21.664
292.40	20.331
292.77	19.410
293.13	20.813
293.50	22.437
293.87	22.546
294.24	22.474
294.60	20.000
294.97	22.003
295.34	20.000
295.71	19.643
296.08	18.126
296.44	18.884
296.81	20.655
297.18	20.000
297.55	22.599
297.91	21.339
298.28	20.274
298.65	20.084
299.02	21.791
299.38	18.182
299.75	17.935
300.12	19.487
300.48	19.309
300.85	19.135
301.22	18.887
301.59	19.766
301.95	19.521
302.32	16.558
302.69	18.972
303.05	18.193
303.42	19.500
303.79	17.943
304.15	19.431
304.52	20.070
304.89	18.654
305.25	19.536
305.62	17.861
305.99	19.081
306.35	17.536
306.72	18.451
307.09	20.204
307.45	18.842
307.82	18.436
308.19	19.799
308.55	19.281
308.92	16.649
309.29	19.135
309.65	17.285
310.02	18.575
310.38	18.595
310.75	19.672
311.12	18.595
311.48	19.102
311.85	18.641
312.22	19.258
312.58	19.736
312.95	20.082
313.31	18.482
313.68	20.101
314.05	19.486
314.41	19.215
314.78	19.880
315.14	20.829
315.51	18.946
315.87	21.878
316.24	21.477
316.61	21.593
316.97	21.592
317.34	21.773
317.70	20.594
318.07	21.362
318.43	23.034
318.80	23.662
319.16	21.857
319.53	22.368
319.89	22.954
320.26	24.216
320.62	22.019
320.99	24.677
321.35	24.729
321.72	24.053
322.08	25.420
322.45	23.861
322.81	25.648
323.18	26.417
323.54	27.172
323.91	28.823
324.27	28.992
324.64	29.342
325.00	30.366
325.37	29.955
325.73	31.409
326.10	31.267
326.46	32.925
326.83	33.957
327.19	33.611
327.56	37.138
327.92	36.449
328.29	36.970
328.65	38.091
329.01	38.693
329.38	37.913
329.74	40.751
330.11	42.702
330.47	41.508
330.84	42.713
331.20	40.704
331.56	43.209
331.93	45.204
332.29	44.658
332.66	43.898
333.02	45.701
333.38	45.878
333.75	45.592
334.11	46.222
334.48	45.455
334.84	46.544
335.20	46.454
335.57	48.014
335.93	49.329
336.29	47.919
336.66	48.018
337.02	48.739
337.38	47.594
337.75	47.673
338.11	49.463
338.47	48.488
338.84	49.274
339.20	49.385
339.56	50.535
339.93	50.176
340.29	47.387
340.65	49.388
341.02	49.073
341.38	49.452
341.74	50.212
342.11	51.109
342.47	50.730
342.83	49.706
343.20	49.445
343.56	49.061
343.92	48.915
344.28	51.388
344.65	50.413
345.01	49.664
345.37	51.080
345.73	48.854
346.10	48.896
346.46	50.772
346.82	49.880
347.19	50.370
347.55	49.679
347.91	49.843
348.27	50.358
348.63	49.838
349.00	51.392
349.36	48.087
349.72	51.831
350.08	50.361
350.45	50.749
350.81	50.557
351.17	51.608
351.53	49.801
351.89	50.768
352.26	49.380
352.62	50.845
352.98	50.791
353.34	50.679
353.70	48.494
354.07	52.242
354.43	53.281
354.79	49.762
355.15	50.639
355.51	50.625
355.87	50.988
356.24	50.199
356.60	52.538
356.96	51.501
357.32	49.723
357.68	50.038
358.04	50.423
358.40	50.580
358.77	51.855
359.13	52.028
359.49	50.718
359.85	52.439
360.21	52.055
360.57	52.711
360.93	51.481
361.29	51.570
361.66	51.296
362.02	51.997
362.38	52.238
362.74	53.333
363.10	50.789
363.46	51.852
363.82	53.499
364.18	52.750
364.54	53.181
364.90	52.411
365.26	51.498
365.62	53.314
365.98	53.770
366.35	52.887
366.71	52.290
367.07	52.294
367.43	52.368
367.79	52.371
368.15	51.707
368.51	53.566
368.87	52.335
369.23	53.895
369.59	53.472
369.95	52.008
370.31	54.430
370.67	52.784
371.03	53.207
371.39	52.758
371.75	54.864
372.11	54.878
372.47	55.387
372.83	54.590
373.19	55.143
373.55	54.961
373.91	55.477
374.27	53.867
374.63	53.485
374.99	55.007
375.35	55.182
375.71	55.368
376.07	54.825
376.42	55.364
376.78	55.817
377.14	56.610
377.50	55.384
377.86	55.007
378.22	57.035
378.58	56.516
378.94	55.734
379.30	56.246
379.66	56.223
380.02	55.912
380.38	56.012
380.74	55.627
381.09	56.063
381.45	56.444
381.81	55.414
382.17	56.704
382.53	56.717
382.89	56.818
383.25	56.592
383.61	55.778
383.97	57.624
384.32	58.385
384.68	57.739
385.04	57.428
385.40	57.395
385.76	58.171
386.12	57.402
386.48	59.468
386.83	57.914
387.19	58.099
387.55	58.328
387.91	57.617
388.27	57.419
388.62	57.692
388.98	58.086
389.34	58.017
389.70	58.404
390.06	57.924
390.42	59.231
390.77	58.107
391.13	59.317
391.49	58.765
391.85	58.915
392.20	58.434
392.56	57.544
392.92	59.327
393.28	57.865
393.64	58.990
393.99	58.523
394.35	59.124
394.71	57.875
395.07	58.883
395.42	58.224
395.78	58.705
396.14	59.252
396.50	57.920
396.85	58.976
397.21	58.080
397.57	57.994
397.92	58.782
398.28	58.833
398.64	58.299
399.00	59.663
399.35	59.132
399.71	59.640
400.07	60.239
400.42	59.489
400.78	58.080
401.14	59.042
401.49	59.198
401.85	59.610
402.21	59.356
402.57	57.888
402.92	60.415
403.28	59.743
403.63	57.280
403.99	59.664
404.35	57.307
404.70	59.333
405.06	58.189
405.42	58.979
405.77	57.919
406.13	58.319
406.49	59.017
406.84	57.768
407.20	57.892
407.55	59.405
407.91	58.420
408.27	58.272
408.62	57.847
408.98	58.642
409.34	56.917
409.69	57.152
410.05	57.307
410.40	59.105
410.76	58.447
411.11	58.853
411.47	59.271
411.83	59.046
412.18	57.735
412.54	58.450
412.89	58.748
413.25	57.910
413.60	59.235
413.96	56.685
414.31	57.615
414.67	57.968
415.03	57.891
415.38	59.987
415.74	57.668
416.09	58.504
416.45	57.275
416.80	59.428
417.16	59.668
417.51	60.144
417.87	58.835
418.22	59.924
418.58	58.087
418.93	59.289
419.29	59.285
419.64	59.485
420.00	59.113
420.35	59.137
420.71	59.844
421.06	59.763
421.42	58.607
421.77	59.073
422.12	59.933
422.48	60.235
422.83	59.169
423.19	60.523
423.54	60.576
423.90	59.572
424.25	59.559
424.61	60.676
424.96	61.791
425.31	60.593
425.67	61.089
426.02	60.184
426.38	61.464
426.73	61.426
427.09	61.949
427.44	61.534
427.79	61.395
428.15	62.238
428.50	63.167
428.85	62.050
429.21	61.151
429.56	62.187
429.92	61.824
430.27	61.914
430.62	62.487
430.98	62.154
431.33	62.700
431.68	63.378
432.04	64.633
432.39	63.362
432.74	63.609
433.10	63.590
433.45	63.097
433.80	63.830
434.16	63.514
434.51	64.329
434.86	64.616
435.22	64.922
435.57	64.443
435.92	65.123
436.28	64.154
436.63	64.274
436.98	63.918
437.34	65.269
437.69	64.702
438.04	66.024
438.39	65.523
438.75	65.076
439.10	65.130
439.45	66.023
439.81	65.542
440.16	66.496
440.51	65.824
440.86	65.298
441.22	65.727
441.57	66.000
441.92	65.269
442.27	65.584
442.63	66.577
442.98	67.325
443.33	65.678
443.68	66.649
444.03	66.749
444.39	66.520
444.74	68.557
445.09	67.654
445.44	67.586
445.79	68.893
446.15	66.648
446.50	67.011
446.85	68.343
447.20	67.263
447.55	66.243
447.91	68.894
448.26	67.263
448.61	67.459
448.96	68.235
449.31	68.377
449.66	68.346
450.02	68.255
450.37	66.725
450.72	67.232
451.07	69.453
451.42	67.906
451.77	69.120
452.12	69.487
452.47	68.325
452.83	69.482
453.18	70.082
453.53	69.092
453.88	69.677
454.23	69.105
454.58	71.224
454.93	70.088
455.28	70.236
455.63	70.270
455.98	71.687
456.34	70.013
456.69	69.669
457.04	70.252
457.39	69.258
457.74	71.116
458.09	69.954
458.44	70.612
458.79	69.619
459.14	71.249
459.49	70.041
459.84	71.276
460.19	70.406
460.54	68.966
460.89	70.516
461.24	71.099
461.59	70.399
461.94	70.146
462.29	71.233
462.64	72.003
462.99	72.088
463.34	69.548
463.69	72.710
464.04	70.826
464.39	70.072
464.74	70.272
465.09	69.753
465.44	70.389
465.79	71.404
466.14	71.116
466.49	70.984
466.84	70.648
467.19	71.945
467.54	69.684
467.89	70.654
468.24	71.200
468.59	71.768
468.94	72.283
469.29	71.215
469.64	71.833
469.99	72.519
470.34	73.413
470.68	74.346
471.03	72.195
471.38	72.569
471.73	76.154
472.08	71.352
472.43	71.493
472.78	72.533
473.13	72.565
473.48	72.112
473.83	73.449
474.17	72.994
474.52	73.593
474.87	71.911
475.22	71.740
475.57	72.556
475.92	72.894
476.27	72.457
476.61	73.239
476.96	73.113
477.31	72.443
477.66	73.160
478.01	73.366
478.36	70.822
478.70	73.038
479.05	74.202
479.40	73.472
479.75	71.814
480.10	73.958
480.45	73.017
480.79	73.741
481.14	75.113
481.49	73.282
481.84	73.694
482.19	72.499
482.53	74.574
482.88	73.327
483.23	73.192
483.58	73.312
483.92	73.722
484.27	73.150
484.62	72.916
484.97	71.746
485.31	70.688
485.66	68.478
486.01	69.393
486.36	71.897
486.70	73.459
487.05	71.978
487.40	72.115
487.75	72.122
488.09	71.711
488.44	72.124
488.79	72.692
489.13	72.461
489.48	74.347
489.83	73.886
490.17	74.488
490.52	74.728
490.87	73.811
491.22	73.844
491.56	74.769
491.91	75.620
492.26	75.236
492.60	74.976
492.95	74.488
493.30	75.560
493.64	73.860
493.99	75.239
494.34	74.810
494.68	76.170
495.03	74.379
495.37	76.598
495.72	74.853
496.07	74.707
496.41	76.656
496.76	75.845
497.11	76.307
497.45	76.054
497.80	76.688
498.14	75.295
498.49	76.796
498.84	74.951
499.18	76.316
499.53	77.204
499.87	75.627
500.22	75.588
500.56	77.289
500.91	76.404
501.26	75.934
501.60	76.071
501.95	77.440
502.29	76.334
502.64	76.473
502.98	75.851
503.33	76.316
503.67	75.910
504.02	75.664
504.36	77.059
504.71	76.545
505.06	75.037
505.40	77.445
505.75	77.642
506.09	78.564
506.44	76.341
506.78	75.966
507.13	76.262
507.47	78.195
507.82	77.697
508.16	79.067
508.51	77.177
508.85	77.588
509.19	76.871
509.54	77.960
509.88	77.872
510.23	77.254
510.57	77.619
510.92	78.947
511.26	77.352
511.61	77.646
511.95	77.532
512.30	79.604
512.64	77.908
512.98	78.713
513.33	78.583
513.67	77.945
514.02	78.020
514.36	78.781
514.70	77.759
515.05	79.760
515.39	78.316
515.74	79.058
516.08	79.135
516.42	78.187
516.77	81.398
517.11	78.547
517.46	81.998
517.80	81.528
518.14	80.435
518.49	80.096
518.83	80.475
519.17	80.580
519.52	78.716
519.86	81.661
520.20	82.213
520.55	80.431
520.89	81.528
521.23	77.961
521.58	80.627
521.92	82.141
522.26	80.571
522.61	80.355
522.95	81.366
523.29	79.875
523.64	80.700
523.98	80.649
524.32	80.515
524.66	79.317
525.01	79.512
525.35	81.443
525.69	81.392
526.04	82.180
526.38	81.668
526.72	80.013
527.06	80.990
527.41	82.112
527.75	80.726
528.09	81.999
528.43	81.311
528.78	80.842
529.12	83.419
529.46	80.348
529.80	80.891
530.15	81.069
530.49	80.336
530.83	81.009
531.17	82.559
531.51	80.710
531.86	81.106
532.20	79.555
532.54	81.484
532.88	80.567
533.22	81.283
533.57	81.462
533.91	79.900
534.25	81.144
534.59	78.888
534.93	79.527
535.27	80.743
535.62	79.859
535.96	81.319
536.30	79.385
536.64	80.943
536.98	82.698
537.32	80.442
537.66	79.973
538.01	82.818
538.35	81.622
538.69	80.949
539.03	80.366
539.37	80.106
539.71	80.587
540.05	82.248
540.39	80.886
540.73	81.202
541.07	81.626
541.42	81.229
541.76	79.003
542.10	82.512
542.44	81.146
542.78	80.054
543.12	82.281
543.46	80.205
543.80	79.264
544.14	79.852
544.48	79.856
544.82	81.597
545.16	80.751
545.50	79.273
545.84	81.572
546.18	80.097
546.52	81.863
546.86	82.194
547.20	81.224
547.54	79.890
547.88	80.624
548.22	79.882
548.56	80.428
548.90	79.919
549.24	82.270
549.58	81.087
549.92	80.919
550.26	82.009
550.60	79.659
550.94	82.847
551.28	82.468
551.62	83.087
551.96	81.838
552.30	80.697
552.64	82.548
552.98	81.780
553.32	82.107
553.66	82.552
554.00	82.303
554.34	80.505
554.68	81.798
555.02	81.042
555.36	82.243
555.69	82.450
556.03	82.456
556.37	82.575
556.71	82.391
557.05	84.479
557.39	81.811
557.73	83.662
558.07	83.949
558.41	82.124
558.75	83.726
559.08	84.125
559.42	83.002
559.76	83.206
560.10	82.625
560.44	82.731
560.78	83.020
561.12	82.885
561.45	82.055
561.79	81.672
562.13	83.029
562.47	83.543
562.81	81.542
563.15	81.526
563.48	81.963
563.82	81.812
564.16	82.556
564.50	82.056
564.84	81.944
565.17	81.897
565.51	81.226
565.85	83.976
566.19	83.070
566.52	81.018
566.86	82.427
567.20	81.477
567.54	81.689
567.88	79.564
568.21	80.593
568.55	79.692
568.89	79.076
569.23	77.788
569.56	77.301
569.90	78.049
570.24	77.189
570.57	76.098
570.91	75.655
571.25	76.362
571.59	75.960
571.92	75.238
572.26	76.093
572.60	74.558
572.93	73.800
573.27	74.024
573.61	73.731
573.95	75.279
574.28	73.744
574.62	74.886
574.96	73.455
575.29	73.933
575.63	73.533
575.97	73.058
576.30	73.637
576.64	73.812
576.98	72.904
577.31	73.707
577.65	73.764
577.98	73.282
578.32	73.100
578.66	74.044
578.99	74.373
579.33	73.374
579.67	73.497
580.00	73.710
580.34	73.728
580.67	74.356
581.01	72.875
581.35	73.406
581.68	72.863
582.02	74.022
582.35	73.447
582.69	74.582
583.02	75.066
583.36	73.975
583.70	74.014
584.03	75.108
584.37	75.101
584.70	74.306
585.04	73.797
585.37	72.649
585.71	73.270
586.04	74.215
586.38	74.766
586.72	75.000
587.05	75.871
587.39	75.772
587.72	75.232
588.06	75.433
588.39	76.047
588.73	76.765
589.06	77.270
589.40	77.705
589.73	76.983
590.07	76.511
590.40	76.089
590.73	78.569
591.07	76.639
591.40	77.730
591.74	77.454
592.07	77.342
592.41	77.580
592.74	77.517
593.08	76.656
593.41	75.526
593.75	75.503
594.08	77.965
594.41	78.041
594.75	77.350
595.08	78.383
595.42	77.384
595.75	76.920
596.09	77.260
596.42	77.537
596.75	76.973
597.09	77.649
597.42	78.175
597.75	78.565
598.09	78.581
598.42	76.536
598.76	76.287
599.09	77.190
599.42	77.470
599.76	75.953
600.09	77.595
600.42	76.035
600.76	77.514
601.09	76.339
601.42	76.929
601.76	75.818
602.09	77.423
602.42	76.420
602.76	77.565
603.09	78.427
603.42	78.002
603.76	78.460
604.09	77.974
604.42	76.228
604.76	78.064
605.09	77.803
605.42	77.748
605.75	78.137
606.09	77.044
606.42	77.880
606.75	77.759
607.09	77.459
607.42	78.169
607.75	78.631
608.08	79.078
608.42	79.044
608.75	76.963
609.08	78.519
609.41	79.273
609.75	77.377
610.08	79.706
610.41	78.988
610.74	79.255
611.07	77.890
611.41	78.467
611.74	78.149
612.07	80.934
612.40	78.731
612.73	77.814
613.07	79.362
613.40	80.624
613.73	79.782
614.06	79.681
614.39	82.356
614.72	81.229
615.06	78.315
615.39	77.971
615.72	81.315
616.05	79.293
616.38	80.731
616.71	80.901
617.05	81.785
617.38	81.115
617.71	81.572
618.04	81.118
618.37	81.698
618.70	82.073
619.03	81.855
619.36	82.241
619.69	82.771
620.03	80.096
620.36	82.489
620.69	83.274
621.02	83.714
621.35	85.161
621.68	85.164
622.01	83.576
622.34	83.307
622.67	84.375
623.00	83.627
623.33	82.463
623.66	83.530
623.99	83.910
624.32	81.548
624.65	84.106
624.99	83.719
625.32	84.207
625.65	83.838
625.98	84.272
626.31	85.155
626.64	85.272
626.97	85.531
627.30	84.596
627.63	84.801
627.96	85.640
628.29	86.305
628.62	86.533
628.95	89.370
629.28	85.338
629.61	86.555
629.94	86.484
630.26	88.668
630.59	89.146
630.92	86.787
631.25	88.105
631.58	89.101
