SpectraSuite Data File
++++++++++++++++++++++++++++++++++++
Date: Sat May 16 11:34:17 PDT 2015
User: schluterlab
Dark Spectrum Present: Yes
Reference Spectrum Present: Yes
Number of Sampled Component Spectra: 1
Spectrometers: USB2E3373
Integration Time (usec): 3000 (USB2E3373)
Spectra Averaged: 3 (USB2E3373)
Boxcar Smoothing: 0 (USB2E3373)
Correct for Electrical Dark: No (USB2E3373)
Strobe/Lamp Enabled: No (USB2E3373)
Correct for Detector Non-linearity: No (USB2E3373)
Correct for Stray Light: No (USB2E3373)
Number of Pixels in Processed Spectrum: 2048
>>>>>Begin Processed Spectral Data<<<<<
178.53	0.000
178.91	106.667
179.29	766.667
179.67	-1100.000
180.04	-23.077
180.42	1200.000
180.80	175.000
181.18	650.000
181.56	-187.500
181.94	1600.000
182.31	400.000
182.69	-100.000
183.07	-633.333
183.45	1000.000
183.83	533.333
184.20	-200.000
184.58	-112.500
184.96	-325.000
185.34	112.500
185.72	-300.000
186.09	216.667
186.47	-112.500
186.85	-212.500
187.23	-37.500
187.61	-350.000
187.98	-212.500
188.36	-137.500
188.74	-112.500
189.12	1300.000
189.49	271.429
189.87	-41.667
190.25	725.000
190.63	-7.143
191.00	-244.444
191.38	220.000
191.76	-13.333
192.14	380.000
192.51	-320.000
192.89	-166.667
193.27	0.000
193.65	-288.889
194.02	-271.429
194.40	533.333
194.78	-120.000
195.15	-1900.000
195.53	-109.091
195.91	-550.000
196.29	140.000
196.66	-800.000
197.04	2600.000
197.42	-375.000
197.79	53.333
198.17	-266.667
198.55	-700.000
198.92	-800.000
199.30	200.000
199.68	150.000
200.05	-144.444
200.43	-188.889
200.81	-2200.000
201.18	-83.333
201.56	271.429
201.94	-46.667
202.31	-31.818
202.69	-130.000
203.07	-130.000
203.44	400.000
203.82	-233.333
204.19	-550.000
204.57	-200.000
204.95	-700.000
205.32	-12.500
205.70	2100.000
206.08	-1300.000
206.45	-50.000
206.83	-900.000
207.20	-100.000
207.58	-566.667
207.96	-566.667
208.33	-112.500
208.71	-200.000
209.08	200.000
209.46	-185.714
209.84	650.000
210.21	0.000
210.59	10.000
210.96	700.000
211.34	-166.667
211.71	100.000
212.09	250.000
212.46	1000.000
212.84	-2500.000
213.22	333.333
213.59	108.333
213.97	-55.556
214.34	280.000
214.72	-80.000
215.09	-466.667
215.47	-250.000
215.84	-20.000
216.22	-40.000
216.59	33.333
216.97	-625.000
217.34	850.000
217.72	-200.000
218.09	-383.333
218.47	-242.857
218.84	200.000
219.22	-128.571
219.59	0.000
219.97	200.000
220.34	575.000
220.72	225.000
221.09	0.000
221.47	0.000
221.84	233.333
222.22	-450.000
222.59	1300.000
222.97	-237.500
223.34	-1400.000
223.72	-966.667
224.09	-128.571
224.46	-200.000
224.84	-100.000
225.21	-200.000
225.59	-127.273
225.96	-125.000
226.34	-128.571
226.71	0.000
227.08	-25.000
227.46	3800.000
227.83	-314.286
228.21	-200.000
228.58	500.000
228.95	-106.250
229.33	-1500.000
229.70	-580.000
230.08	-750.000
230.45	-83.333
230.82	-316.667
231.20	-900.000
231.57	-650.000
231.95	1700.000
232.32	-23.810
232.69	-77.778
233.07	-342.857
233.44	-1000.000
233.81	-46.667
234.19	-55.556
234.56	-62.500
234.93	18.750
235.31	-300.000
235.68	-100.000
236.05	-17.647
236.43	-40.909
236.80	3.226
237.17	-41.667
237.55	-66.667
237.92	-59.091
238.29	-28.571
238.67	-20.588
239.04	-30.556
239.41	-38.710
239.79	-41.026
240.16	-45.238
240.53	-20.000
240.91	-5.128
241.28	-12.727
241.65	13.846
242.02	-3.279
242.40	1.639
242.77	-12.121
243.14	-16.949
243.51	-17.143
243.89	1.266
244.26	-4.494
244.63	7.368
245.00	13.684
245.38	7.627
245.75	5.310
246.12	4.800
246.49	1.575
246.87	-1.626
247.24	-6.780
247.61	-4.237
247.98	3.521
248.36	2.098
248.73	5.063
249.10	-3.822
249.47	4.678
249.84	3.977
250.22	1.190
250.59	7.345
250.96	9.424
251.33	10.900
251.70	4.808
252.08	6.635
252.45	2.370
252.82	1.905
253.19	2.979
253.56	12.097
253.94	9.705
254.31	8.155
254.68	6.504
255.05	5.645
255.42	11.111
255.79	5.376
256.16	8.627
256.54	10.662
256.91	5.682
257.28	6.960
257.65	8.865
258.02	11.321
258.39	9.030
258.76	4.054
259.14	5.556
259.51	9.180
259.88	10.671
260.25	12.112
260.62	9.646
260.99	6.528
261.36	11.585
261.73	13.006
262.10	11.111
262.47	10.826
262.85	13.429
263.22	10.029
263.59	8.000
263.96	10.145
264.33	7.859
264.70	9.116
265.07	7.692
265.44	12.403
265.81	9.044
266.18	8.608
266.55	12.010
266.92	12.091
267.29	8.232
267.66	10.617
268.03	12.802
268.40	8.685
268.77	11.084
269.14	8.121
269.51	9.655
269.88	7.798
270.25	6.760
270.62	10.069
270.99	9.459
271.36	9.790
271.73	9.417
272.10	7.323
272.47	12.000
272.84	11.333
273.21	8.945
273.58	12.088
273.95	8.772
274.32	8.824
274.69	9.628
275.06	11.043
275.43	10.268
275.80	10.794
276.17	8.577
276.54	9.980
276.91	11.317
277.28	9.736
277.65	9.917
278.02	11.273
278.39	8.841
278.76	9.163
279.13	10.672
279.50	8.946
279.87	9.302
280.23	9.109
280.60	8.946
280.97	9.126
281.34	8.897
281.71	10.577
282.08	8.871
282.45	6.314
282.82	11.628
283.19	11.636
283.56	11.722
283.92	13.251
284.29	7.807
284.66	10.612
285.03	10.695
285.40	10.148
285.77	8.772
286.14	8.845
286.51	9.236
286.87	8.348
287.24	9.556
287.61	9.421
287.98	11.092
288.35	6.612
288.72	9.677
289.08	9.153
289.45	10.438
289.82	8.304
290.19	8.867
290.56	6.116
290.93	7.154
291.29	8.266
291.66	9.501
292.03	9.733
292.40	9.187
292.77	8.540
293.13	8.780
293.50	8.767
293.87	7.362
294.24	8.446
294.60	7.424
294.97	9.256
295.34	6.370
295.71	8.036
296.08	6.759
296.44	8.584
296.81	7.977
297.18	8.169
297.55	9.040
297.91	8.089
298.28	9.041
298.65	7.392
299.02	9.091
299.38	8.289
299.75	8.016
300.12	8.077
300.48	7.289
300.85	6.291
301.22	9.056
301.59	7.152
301.95	9.194
302.32	7.301
302.69	6.732
303.05	6.471
303.42	7.750
303.79	8.134
304.15	7.820
304.52	7.818
304.89	8.737
305.25	6.593
305.62	5.758
305.99	8.009
306.35	7.991
306.72	5.809
307.09	8.286
307.45	7.832
307.82	5.698
308.19	6.600
308.55	7.952
308.92	6.337
309.29	8.000
309.65	7.211
310.02	7.127
310.38	7.243
310.75	6.967
311.12	7.438
311.48	6.785
311.85	7.415
312.22	8.033
312.58	8.138
312.95	5.912
313.31	7.592
313.68	8.342
314.05	7.418
314.41	6.036
314.78	7.592
315.14	7.799
315.51	6.282
315.87	8.325
316.24	6.997
316.61	8.253
316.97	6.866
317.34	7.129
317.70	6.494
318.07	6.623
318.43	7.584
318.80	7.230
319.16	7.129
319.53	6.955
319.89	6.679
320.26	8.333
320.62	5.865
320.99	7.363
321.35	5.714
321.72	6.858
322.08	6.924
322.45	6.832
322.81	7.109
323.18	7.685
323.54	7.301
323.91	7.322
324.27	7.795
324.64	7.313
325.00	8.290
325.37	7.059
325.73	8.486
326.10	6.466
326.46	6.918
326.83	7.064
327.19	7.673
327.56	8.177
327.92	7.307
328.29	7.619
328.65	6.455
329.01	8.127
329.38	7.761
329.74	6.960
330.11	7.434
330.47	6.358
330.84	7.608
331.20	6.859
331.56	6.837
331.93	8.171
332.29	6.484
332.66	7.902
333.02	6.878
333.38	7.706
333.75	7.391
334.11	7.200
334.48	6.708
334.84	8.049
335.20	6.649
335.57	7.310
335.93	8.057
336.29	7.706
336.66	6.432
337.02	7.748
337.38	7.219
337.75	7.375
338.11	6.440
338.47	7.117
338.84	7.169
339.20	7.733
339.56	8.111
339.93	8.201
340.29	5.580
340.65	6.906
341.02	6.577
341.38	8.003
341.74	7.536
342.11	6.911
342.47	6.352
342.83	6.885
343.20	7.600
343.56	7.184
343.92	8.598
344.28	7.822
344.65	7.178
345.01	5.966
345.37	7.807
345.73	6.301
346.10	5.805
346.46	6.986
346.82	6.897
347.19	6.163
347.55	6.421
347.91	7.402
348.27	6.683
348.63	7.593
349.00	7.399
349.36	5.699
349.72	6.927
350.08	6.415
350.45	7.092
350.81	6.369
351.17	6.672
351.53	6.285
351.89	7.437
352.26	6.589
352.62	8.525
352.98	6.725
353.34	6.235
353.70	6.564
354.07	7.553
354.43	6.640
354.79	6.260
355.15	6.629
355.51	5.391
355.87	6.403
356.24	6.195
356.60	7.333
356.96	6.928
357.32	5.780
357.68	5.977
358.04	6.774
358.40	5.955
358.77	6.105
359.13	6.350
359.49	6.727
359.85	7.165
360.21	7.154
360.57	6.852
360.93	7.556
361.29	6.726
361.66	5.488
362.02	6.731
362.38	6.310
362.74	6.813
363.10	6.098
363.46	7.977
363.82	7.216
364.18	6.657
364.54	7.720
364.90	7.128
365.26	6.562
365.62	7.769
365.98	7.895
366.35	7.183
366.71	7.118
367.07	7.481
367.43	7.687
367.79	6.529
368.15	6.615
368.51	7.063
368.87	8.242
369.23	6.596
369.59	7.292
369.95	6.624
370.31	7.384
370.67	6.146
371.03	7.070
371.39	5.446
371.75	7.225
372.11	6.528
372.47	7.231
372.83	7.371
373.19	5.929
373.55	8.234
373.91	6.615
374.27	7.050
374.63	5.866
374.99	7.441
375.35	7.133
375.71	6.955
376.07	6.571
376.42	6.358
376.78	6.471
377.14	6.305
377.50	6.770
377.86	7.282
378.22	7.412
378.58	6.980
378.94	7.090
379.30	5.972
379.66	7.407
380.02	6.358
380.38	7.251
380.74	6.917
381.09	7.147
381.45	7.339
381.81	6.534
382.17	6.391
382.53	6.018
382.89	7.177
383.25	7.285
383.61	6.781
383.97	7.287
384.32	6.320
384.68	8.283
385.04	6.824
385.40	6.695
385.76	7.012
386.12	6.621
386.48	7.178
386.83	7.423
387.19	7.770
387.55	6.602
387.91	6.817
388.27	6.393
388.62	6.310
388.98	6.178
389.34	7.589
389.70	6.638
390.06	6.650
390.42	6.987
390.77	7.066
391.13	7.329
391.49	6.675
391.85	7.107
392.20	7.464
392.56	6.781
392.92	6.788
393.28	7.290
393.64	7.035
393.99	7.569
394.35	6.630
394.71	7.474
395.07	7.282
395.42	6.257
395.78	6.034
396.14	6.667
396.50	7.156
396.85	7.711
397.21	7.412
397.57	7.295
397.92	7.845
398.28	7.778
398.64	7.674
399.00	7.697
399.35	6.426
399.71	8.362
400.07	7.821
400.42	7.664
400.78	7.275
401.14	7.605
401.49	7.429
401.85	7.138
402.21	8.224
402.57	8.192
402.92	7.804
403.28	6.863
403.63	7.190
403.99	7.707
404.35	7.367
404.70	7.958
405.06	7.612
405.42	6.888
405.77	6.787
406.13	7.836
406.49	7.549
406.84	7.618
407.20	8.009
407.55	7.980
407.91	6.930
408.27	7.966
408.62	7.998
408.98	7.398
409.34	6.947
409.69	7.372
410.05	7.641
410.40	7.787
410.76	8.062
411.11	7.668
411.47	7.033
411.83	7.457
412.18	6.993
412.54	7.077
412.89	7.655
413.25	7.143
413.60	7.716
413.96	7.024
414.31	7.768
414.67	7.365
415.03	7.697
415.38	7.872
415.74	7.410
416.09	7.609
416.45	6.812
416.80	8.127
417.16	6.645
417.51	8.536
417.87	8.091
418.22	8.028
418.58	7.510
418.93	8.461
419.29	7.905
419.64	7.286
420.00	8.323
420.35	8.161
420.71	7.743
421.06	8.107
421.42	7.611
421.77	8.152
422.12	8.226
422.48	8.124
422.83	8.030
423.19	7.962
423.54	8.184
423.90	7.345
424.25	8.145
424.61	8.082
424.96	8.250
425.31	7.602
425.67	7.450
426.02	8.032
426.38	7.925
426.73	7.832
427.09	8.211
427.44	8.068
427.79	7.558
428.15	8.558
428.50	7.918
428.85	7.854
429.21	8.080
429.56	7.760
429.92	8.267
430.27	8.225
430.62	7.471
430.98	7.841
431.33	8.378
431.68	7.668
432.04	8.618
432.39	9.003
432.74	8.094
433.10	8.610
433.45	7.311
433.80	8.175
434.16	8.866
434.51	7.945
434.86	8.905
435.22	8.352
435.57	7.405
435.92	8.148
436.28	8.665
436.63	8.423
436.98	8.018
437.34	8.328
437.69	8.751
438.04	7.941
438.39	8.544
438.75	9.080
439.10	9.106
439.45	7.966
439.81	8.434
440.16	8.461
440.51	9.176
440.86	8.444
441.22	8.237
441.57	8.263
441.92	8.133
442.27	9.037
442.63	8.369
442.98	8.352
443.33	8.951
443.68	8.494
444.03	8.841
444.39	8.957
444.74	8.150
445.09	8.279
445.44	8.723
445.79	8.159
446.15	9.255
446.50	7.676
446.85	8.671
447.20	8.938
447.55	8.674
447.91	9.152
448.26	8.827
448.61	8.319
448.96	8.627
449.31	8.681
449.66	9.616
450.02	8.089
450.37	8.870
450.72	8.983
451.07	9.428
451.42	7.745
451.77	8.558
452.12	8.880
452.47	8.312
452.83	8.853
453.18	9.677
453.53	8.396
453.88	9.270
454.23	8.706
454.58	9.758
454.93	8.123
455.28	7.967
455.63	8.661
455.98	9.096
456.34	8.005
456.69	9.568
457.04	9.527
457.39	8.553
457.74	9.273
458.09	8.179
458.44	10.104
458.79	8.744
459.14	9.527
459.49	9.059
459.84	9.500
460.19	8.711
460.54	8.530
460.89	8.576
461.24	9.897
461.59	9.027
461.94	9.930
462.29	8.636
462.64	10.079
462.99	9.505
463.34	8.643
463.69	9.160
464.04	9.022
464.39	9.020
464.74	8.924
465.09	8.659
465.44	8.855
465.79	9.081
466.14	8.918
466.49	9.154
466.84	9.244
467.19	9.476
467.54	7.722
467.89	9.063
468.24	9.145
468.59	8.994
468.94	8.875
469.29	8.837
469.64	9.704
469.99	9.993
470.34	9.552
470.68	9.956
471.03	9.566
471.38	9.167
471.73	9.580
472.08	8.568
472.43	9.524
472.78	10.000
473.13	9.808
473.48	9.955
473.83	9.243
474.17	9.427
474.52	9.974
474.87	10.490
475.22	8.673
475.57	9.611
475.92	9.719
476.27	9.486
476.61	9.296
476.96	10.061
477.31	9.957
477.66	9.629
478.01	9.616
478.36	9.953
478.70	10.037
479.05	10.654
479.40	9.896
479.75	9.888
480.10	10.169
480.45	9.865
480.79	10.316
481.14	9.433
481.49	10.213
481.84	10.171
482.19	10.781
482.53	9.564
482.88	10.204
483.23	9.906
483.58	9.991
483.92	9.651
484.27	9.482
484.62	10.626
484.97	9.704
485.31	9.216
485.66	9.170
486.01	9.081
486.36	9.269
486.70	9.655
487.05	9.487
487.40	9.829
487.75	9.573
488.09	9.605
488.44	9.675
488.79	10.789
489.13	9.661
489.48	10.481
489.83	9.825
490.17	10.492
490.52	10.598
490.87	9.792
491.22	10.229
491.56	10.231
491.91	10.210
492.26	10.236
492.60	9.657
492.95	10.709
493.30	10.386
493.64	10.249
493.99	10.182
494.34	10.905
494.68	10.861
495.03	10.134
495.37	10.079
495.72	10.363
496.07	10.746
496.41	10.653
496.76	10.091
497.11	10.598
497.45	11.159
497.80	10.405
498.14	10.511
498.49	10.196
498.84	10.097
499.18	11.014
499.53	10.326
499.87	10.618
500.22	10.539
500.56	10.905
500.91	10.493
501.26	10.966
501.60	10.159
501.95	11.208
502.29	10.250
502.64	10.985
502.98	10.733
503.33	11.184
503.67	9.962
504.02	10.237
504.36	10.637
504.71	10.081
505.06	9.885
505.40	11.228
505.75	10.671
506.09	10.718
506.44	10.426
506.78	11.089
507.13	10.608
507.47	11.789
507.82	10.945
508.16	11.295
508.51	11.025
508.85	10.921
509.19	10.466
509.54	11.099
509.88	11.543
510.23	10.797
510.57	11.958
510.92	11.332
511.26	11.164
511.61	11.231
511.95	11.315
512.30	10.775
512.64	11.352
512.98	12.156
513.33	11.367
513.67	11.558
514.02	10.850
514.36	12.022
514.70	11.262
515.05	12.293
515.39	11.765
515.74	11.751
516.08	12.450
516.42	12.011
516.77	11.901
517.11	11.899
517.46	11.722
517.80	12.274
518.14	10.870
518.49	11.775
518.83	11.513
519.17	12.433
519.52	11.163
519.86	12.605
520.20	12.775
520.55	12.185
520.89	11.209
521.23	12.515
521.58	12.100
521.92	12.413
522.26	11.556
522.61	11.660
522.95	11.934
523.29	12.476
523.64	12.492
523.98	12.858
524.32	12.445
524.66	12.112
525.01	11.561
525.35	12.436
525.69	12.297
526.04	12.402
526.38	13.113
526.72	12.324
527.06	11.914
527.41	12.145
527.75	11.089
528.09	12.641
528.43	12.066
528.78	13.379
529.12	12.740
529.46	12.307
529.80	11.943
530.15	12.556
530.49	12.937
530.83	13.163
531.17	11.515
531.51	11.922
531.86	13.298
532.20	12.618
532.54	12.433
532.88	12.516
533.22	11.564
533.57	12.859
533.91	12.609
534.25	12.445
534.59	10.806
534.93	11.886
535.27	12.838
535.62	12.148
535.96	11.959
536.30	12.435
536.64	13.081
536.98	13.136
537.32	11.403
537.66	12.084
538.01	11.615
538.35	12.635
538.69	11.965
539.03	12.661
539.37	11.643
539.71	12.875
540.05	11.720
540.39	12.396
540.73	12.301
541.07	13.115
541.42	11.681
541.76	11.296
542.10	12.762
542.44	12.925
542.78	11.872
543.12	13.103
543.46	12.260
543.80	11.237
544.14	12.089
544.48	12.598
544.82	12.111
545.16	12.475
545.50	10.229
545.84	12.378
546.18	12.205
546.52	13.016
546.86	12.251
547.20	11.744
547.54	12.259
547.88	12.342
548.22	11.402
548.56	11.222
548.90	12.803
549.24	12.684
549.58	12.491
549.92	12.933
550.26	12.789
550.60	12.162
550.94	13.212
551.28	12.792
551.62	13.146
551.96	12.084
552.30	13.031
552.64	11.893
552.98	13.315
553.32	12.121
553.66	13.410
554.00	12.935
554.34	11.625
554.68	13.231
555.02	13.603
555.36	12.437
555.69	11.963
556.03	12.000
556.37	12.660
556.71	12.956
557.05	11.899
557.39	11.952
557.73	12.619
558.07	13.489
558.41	12.715
558.75	11.863
559.08	11.907
559.42	12.711
559.76	12.577
560.10	13.423
560.44	13.367
560.78	12.665
561.12	12.767
561.45	12.397
561.79	12.056
562.13	12.202
562.47	12.185
562.81	12.376
563.15	13.576
563.48	12.992
563.82	12.779
564.16	12.847
564.50	12.298
564.84	12.169
565.17	12.931
565.51	12.777
565.85	12.711
566.19	12.516
566.52	12.133
566.86	12.010
567.20	13.257
567.54	12.345
567.88	12.674
568.21	11.521
568.55	12.142
568.89	11.431
569.23	11.846
569.56	11.686
569.90	11.172
570.24	11.349
570.57	10.791
570.91	11.493
571.25	11.511
571.59	11.271
571.92	11.310
572.26	11.084
572.60	11.294
572.93	11.056
573.27	10.732
573.61	10.754
573.95	10.963
574.28	10.461
574.62	11.083
574.96	10.793
575.29	10.772
575.63	11.043
575.97	10.518
576.30	10.989
576.64	11.044
576.98	10.774
577.31	10.679
577.65	11.116
577.98	10.525
578.32	10.692
578.66	10.369
578.99	10.986
579.33	10.550
579.67	11.007
580.00	10.317
580.34	10.543
580.67	10.762
581.01	10.466
581.35	10.919
581.68	10.286
582.02	10.721
582.35	10.614
582.69	10.948
583.02	10.477
583.36	10.677
583.70	10.599
584.03	11.072
584.37	11.042
584.70	10.944
585.04	10.380
585.37	10.692
585.71	10.885
586.04	10.765
586.38	10.719
586.72	10.936
587.05	11.130
587.39	10.762
587.72	10.725
588.06	10.757
588.39	11.222
588.73	11.316
589.06	11.189
589.40	11.199
589.73	11.225
590.07	11.180
590.40	11.587
590.73	11.116
591.07	10.738
591.40	11.482
591.74	10.817
592.07	11.126
592.41	11.168
592.74	11.376
593.08	11.054
593.41	11.349
593.75	10.617
594.08	11.107
594.41	11.830
594.75	11.287
595.08	11.165
595.42	11.597
595.75	11.319
596.09	11.253
596.42	11.211
596.75	11.686
597.09	11.532
597.42	11.480
597.75	11.249
598.09	11.161
598.42	11.710
598.76	11.088
599.09	11.839
599.42	10.919
599.76	11.061
600.09	11.298
600.42	11.850
600.76	11.977
601.09	10.824
601.42	10.803
601.76	11.488
602.09	11.166
602.42	11.070
602.76	10.594
603.09	11.008
603.42	11.241
603.76	11.488
604.09	11.414
604.42	11.449
604.76	11.470
605.09	11.844
605.42	12.323
605.75	11.082
606.09	11.457
606.42	10.934
606.75	11.335
607.09	11.645
607.42	11.048
607.75	10.949
608.08	11.930
608.42	11.542
608.75	10.841
609.08	11.495
609.41	11.709
609.75	11.799
610.08	11.029
610.41	11.518
610.74	11.750
611.07	11.562
611.41	11.296
611.74	12.185
612.07	11.654
612.40	11.887
612.73	11.524
613.07	11.502
613.40	11.932
613.73	11.608
614.06	11.312
614.39	11.838
614.72	11.285
615.06	11.467
615.39	11.340
615.72	11.733
616.05	11.596
616.38	11.840
616.71	12.072
617.05	13.088
617.38	12.322
617.71	10.811
618.04	12.174
618.37	11.887
618.70	12.581
619.03	11.104
619.36	12.192
619.69	11.845
620.03	11.846
620.36	11.603
620.69	12.060
621.02	11.187
621.35	11.855
621.68	12.131
622.01	12.540
622.34	12.345
622.67	12.109
623.00	12.012
623.33	12.388
623.66	11.300
623.99	12.180
624.32	11.384
624.65	12.436
624.99	11.053
625.32	11.826
625.65	11.888
625.98	11.815
626.31	12.969
626.64	11.967
626.97	11.387
627.30	12.511
627.63	11.572
627.96	12.707
628.29	11.121
628.62	13.372
628.95	11.909
629.28	12.218
629.61	11.973
629.94	13.138
630.26	12.525
630.59	12.563
630.92	13.113
631.25	12.802
631.58	14.074
631.91	10.851
632.24	13.000
632.57	12.889
632.90	13.678
633.23	13.084
633.56	12.281
633.89	12.382
634.22	11.924
634.55	14.183
634.88	14.027
635.20	11.735
635.53	12.341
635.86	12.091
636.19	12.210
636.52	13.023
636.85	12.034
637.18	11.750
637.51	12.020
637.83	12.117
638.16	11.842
638.49	11.724
638.82	12.741
639.15	12.840
639.48	11.543
639.81	13.970
640.13	13.649
640.46	14.103
640.79	13.725
641.12	14.669
641.45	12.626
641.77	12.725
642.10	11.480
642.43	14.112
642.76	13.701
643.09	12.540
643.41	15.238
643.74	15.421
644.07	15.913
644.40	11.831
644.73	13.861
