SpectraSuite Data File
++++++++++++++++++++++++++++++++++++
Date: Sat May 16 11:47:28 PDT 2015
User: schluterlab
Dark Spectrum Present: Yes
Reference Spectrum Present: Yes
Number of Sampled Component Spectra: 1
Spectrometers: USB2E3373
Integration Time (usec): 3000 (USB2E3373)
Spectra Averaged: 3 (USB2E3373)
Boxcar Smoothing: 0 (USB2E3373)
Correct for Electrical Dark: No (USB2E3373)
Strobe/Lamp Enabled: No (USB2E3373)
Correct for Detector Non-linearity: No (USB2E3373)
Correct for Stray Light: No (USB2E3373)
Number of Pixels in Processed Spectrum: 2048
>>>>>Begin Processed Spectral Data<<<<<
178.53	0.000
178.91	133.333
179.29	466.667
179.67	-1400.000
180.04	-100.000
180.42	1000.000
180.80	375.000
181.18	425.000
181.56	-62.500
181.94	100.000
182.31	425.000
182.69	-76.923
183.07	-300.000
183.45	1800.000
183.83	766.667
184.20	-242.857
184.58	-100.000
184.96	-350.000
185.34	100.000
185.72	-425.000
186.09	233.333
186.47	-187.500
186.85	-100.000
187.23	-12.500
187.61	-300.000
187.98	-237.500
188.36	-87.500
188.74	-100.000
189.12	1000.000
189.49	242.857
189.87	-41.667
190.25	275.000
190.63	-57.143
191.00	-144.444
191.38	440.000
191.76	20.000
192.14	660.000
192.51	-300.000
192.89	-266.667
193.27	0.000
193.65	-144.444
194.02	-200.000
194.40	500.000
194.78	-80.000
195.15	-1400.000
195.53	-81.818
195.91	-383.333
196.29	60.000
196.66	-400.000
197.04	3000.000
197.42	-350.000
197.79	33.333
198.17	-266.667
198.55	-250.000
198.92	-400.000
199.30	187.500
199.68	-400.000
200.05	-133.333
200.43	-166.667
200.81	-1300.000
201.18	-133.333
201.56	185.714
201.94	-153.333
202.31	-13.636
202.69	40.000
203.07	-20.000
203.44	433.333
203.82	-200.000
204.19	-500.000
204.57	-275.000
204.95	-2300.000
205.32	0.000
205.70	800.000
206.08	-2400.000
206.45	11.111
206.83	-1300.000
207.20	-250.000
207.58	-633.333
207.96	-233.333
208.33	-100.000
208.71	-88.889
209.08	280.000
209.46	-242.857
209.84	350.000
210.21	0.000
210.59	5.000
210.96	1700.000
211.34	-216.667
211.71	-666.667
212.09	50.000
212.46	1100.000
212.84	-2700.000
213.22	533.333
213.59	216.667
213.97	-33.333
214.34	270.000
214.72	-40.000
215.09	-466.667
215.47	-83.333
215.84	-120.000
216.22	-120.000
216.59	-13.333
216.97	-575.000
217.34	950.000
217.72	-171.429
218.09	-300.000
218.47	-142.857
218.84	257.143
219.22	28.571
219.59	0.000
219.97	342.857
220.34	550.000
220.72	200.000
221.09	-30.769
221.47	0.000
221.84	200.000
222.22	-400.000
222.59	800.000
222.97	-50.000
223.34	-950.000
223.72	-566.667
224.09	-71.429
224.46	-225.000
224.84	-78.571
225.21	-171.429
225.59	-81.818
225.96	-100.000
226.34	-100.000
226.71	-88.889
227.08	-25.000
227.46	1700.000
227.83	-142.857
228.21	-175.000
228.58	700.000
228.95	-56.250
229.33	-1300.000
229.70	-60.000
230.08	-900.000
230.45	16.667
230.82	-200.000
231.20	-1200.000
231.57	-850.000
231.95	1000.000
232.32	28.571
232.69	-200.000
233.07	-214.286
233.44	-1250.000
233.81	-40.000
234.19	-66.667
234.56	-25.000
234.93	28.125
235.31	-85.714
235.68	-114.286
236.05	-58.824
236.43	-45.455
236.80	-19.355
237.17	-45.833
237.55	-52.381
237.92	-36.364
238.29	-11.429
238.67	32.353
239.04	-8.333
239.41	-16.129
239.79	5.128
240.16	9.524
240.53	23.636
240.91	12.821
241.28	14.545
241.65	18.462
242.02	9.836
242.40	8.197
242.77	24.242
243.14	15.254
243.51	2.857
243.89	20.253
244.26	19.101
244.63	24.211
245.00	18.947
245.38	22.034
245.75	30.088
246.12	32.000
246.49	15.748
246.87	7.317
247.24	21.186
247.61	27.966
247.98	23.239
248.36	32.168
248.73	26.582
249.10	21.656
249.47	24.561
249.84	28.977
250.22	25.595
250.59	28.814
250.96	26.702
251.33	30.806
251.70	25.481
252.08	28.910
252.45	20.853
252.82	25.714
253.19	28.085
253.56	23.790
253.94	26.582
254.31	24.034
254.68	28.455
255.05	20.565
255.42	28.571
255.79	27.957
256.16	27.843
256.54	33.456
256.91	29.167
257.28	23.443
257.65	29.787
258.02	29.560
258.39	25.753
258.76	23.311
259.14	27.160
259.51	30.164
259.88	29.268
260.25	28.261
260.62	29.260
260.99	27.300
261.36	29.573
261.73	28.613
262.10	28.611
262.47	26.781
262.85	30.286
263.22	25.788
263.59	26.769
263.96	28.986
264.33	29.268
264.70	31.768
265.07	30.220
265.44	29.457
265.81	26.098
266.18	25.316
266.55	27.941
266.92	32.242
267.29	29.298
267.66	27.407
268.03	29.469
268.40	30.516
268.77	29.157
269.14	29.466
269.51	30.805
269.88	23.165
270.25	24.709
270.62	28.375
270.99	28.153
271.36	30.769
271.73	28.475
272.10	28.604
272.47	29.111
272.84	32.000
273.21	31.881
273.58	27.692
273.95	30.044
274.32	32.579
274.69	29.759
275.06	30.879
275.43	27.679
275.80	29.328
276.17	30.335
276.54	29.532
276.91	27.778
277.28	29.209
277.65	27.479
278.02	28.810
278.39	27.505
278.76	27.291
279.13	27.668
279.50	27.237
279.87	30.021
280.23	29.150
280.60	28.429
280.97	29.320
281.34	31.335
281.71	29.615
282.08	30.040
282.45	31.365
282.82	28.101
283.19	28.364
283.56	30.403
283.92	28.799
284.29	27.881
284.66	26.439
285.03	30.303
285.40	29.336
285.77	30.175
286.14	26.895
286.51	28.064
286.87	30.309
287.24	29.181
287.61	27.107
287.98	25.477
288.35	24.959
288.72	28.693
289.08	28.983
289.45	26.094
289.82	26.298
290.19	29.064
290.56	26.446
290.93	24.642
291.29	24.959
291.66	26.087
292.03	26.845
292.40	24.548
292.77	25.000
293.13	26.504
293.50	26.449
293.87	24.693
294.24	27.149
294.60	24.394
294.97	26.100
295.34	22.370
295.71	25.298
296.08	21.813
296.44	24.320
296.81	23.789
297.18	22.535
297.55	25.000
297.91	25.105
298.28	21.233
298.65	22.036
299.02	23.529
299.38	21.257
299.75	22.826
300.12	22.179
300.48	22.379
300.85	22.674
301.22	23.803
301.59	22.757
301.95	22.418
302.32	20.469
302.69	21.297
303.05	20.879
303.42	20.750
303.79	21.172
304.15	21.327
304.52	21.704
304.89	22.078
305.25	22.589
305.62	20.329
305.99	23.793
306.35	21.421
306.72	19.704
307.09	20.772
307.45	21.226
307.82	19.777
308.19	20.470
308.55	21.678
308.92	20.623
309.29	19.135
309.65	19.724
310.02	19.546
310.38	18.162
310.75	20.799
311.12	19.835
311.48	20.772
311.85	18.744
312.22	19.464
312.58	21.261
312.95	18.858
313.31	18.382
313.68	20.804
314.05	20.079
314.41	17.505
314.78	19.780
315.14	19.842
315.51	18.845
315.87	21.104
316.24	19.922
316.61	19.770
316.97	20.796
317.34	19.750
317.70	19.852
318.07	19.403
318.43	19.944
318.80	20.000
319.16	19.887
319.53	18.233
319.89	17.968
320.26	19.608
320.62	17.308
320.99	19.602
321.35	18.030
321.72	17.912
322.08	19.090
322.45	18.416
322.81	19.597
323.18	19.308
323.54	19.039
323.91	18.814
324.27	19.487
324.64	18.282
325.00	18.412
325.37	19.638
325.73	18.723
326.10	17.006
326.46	18.301
326.83	18.213
327.19	18.849
327.56	19.761
327.92	19.371
328.29	18.874
328.65	17.909
329.01	18.816
329.38	17.752
329.74	19.048
330.11	18.042
330.47	18.710
330.84	19.707
331.20	18.141
331.56	16.317
331.93	17.940
332.29	18.813
332.66	17.296
333.02	17.647
333.38	16.846
333.75	17.275
334.11	17.156
334.48	17.741
334.84	19.073
335.20	17.908
335.57	18.051
335.93	18.442
336.29	18.069
336.66	16.916
337.02	18.649
337.38	17.201
337.75	16.418
338.11	18.515
338.47	17.527
338.84	17.695
339.20	17.838
339.56	18.895
339.93	17.284
340.29	16.918
340.65	17.308
341.02	19.140
341.38	17.439
341.74	17.443
342.11	17.065
342.47	17.511
342.83	16.877
343.20	15.798
343.56	15.837
343.92	18.698
344.28	18.167
344.65	16.007
345.01	15.714
345.37	18.106
345.73	15.466
346.10	16.435
346.46	16.247
346.82	16.119
347.19	15.612
347.55	16.693
347.91	16.535
348.27	16.070
348.63	16.801
349.00	17.025
349.36	15.457
349.72	17.277
350.08	17.322
350.45	16.864
350.81	17.277
351.17	16.158
351.53	15.990
351.89	16.249
352.26	17.287
352.62	17.281
352.98	16.851
353.34	16.547
353.70	16.525
354.07	16.444
354.43	17.708
354.79	16.561
355.15	15.735
355.51	16.484
355.87	16.285
356.24	16.044
356.60	17.728
356.96	16.705
357.32	15.519
357.68	16.169
358.04	15.704
358.40	15.700
358.77	15.301
359.13	16.450
359.49	15.117
359.85	15.701
360.21	15.221
360.57	16.792
360.93	16.148
361.29	16.517
361.66	15.777
362.02	15.015
362.38	16.728
362.74	15.458
363.10	15.782
363.46	16.952
363.82	15.233
364.18	16.136
364.54	17.012
364.90	15.793
365.26	15.835
365.62	16.393
365.98	16.145
366.35	14.859
366.71	14.870
367.07	16.937
367.43	16.472
367.79	16.151
368.15	15.576
368.51	16.294
368.87	16.758
369.23	16.070
369.59	15.903
369.95	15.574
370.31	16.667
370.67	14.389
371.03	15.743
371.39	14.639
371.75	14.878
372.11	15.782
372.47	15.835
372.83	15.716
373.19	15.714
373.55	16.256
373.91	15.434
374.27	15.743
374.63	15.459
374.99	16.273
375.35	15.478
375.71	16.813
376.07	15.674
376.42	14.371
376.78	15.425
377.14	15.458
377.50	15.667
377.86	15.280
378.22	15.829
378.58	14.824
378.94	14.735
379.30	16.027
379.66	16.272
380.02	15.270
380.38	15.650
380.74	15.123
381.09	15.466
381.45	15.931
381.81	15.366
382.17	15.664
382.53	16.170
382.89	15.969
383.25	15.593
383.61	15.212
383.97	15.738
384.32	14.643
384.68	15.659
385.04	15.459
385.40	14.912
385.76	14.695
386.12	14.991
386.48	16.027
386.83	15.706
387.19	14.525
387.55	14.961
387.91	14.997
388.27	14.294
388.62	15.144
388.98	14.961
389.34	14.810
389.70	14.677
390.06	15.413
390.42	15.256
390.77	14.448
391.13	15.590
391.49	15.658
391.85	14.838
392.20	14.745
392.56	14.050
392.92	14.432
393.28	15.270
393.64	15.334
393.99	15.200
394.35	15.024
394.71	14.824
395.07	14.878
395.42	14.064
395.78	13.828
396.14	14.891
396.50	15.107
396.85	14.991
397.21	14.459
397.57	14.468
397.92	15.808
398.28	15.556
398.64	14.991
399.00	15.449
399.35	13.980
399.71	15.389
400.07	14.806
400.42	15.511
400.78	14.848
401.14	15.090
401.49	14.917
401.85	14.887
402.21	15.495
402.57	14.502
402.92	14.600
403.28	14.216
403.63	14.140
403.99	15.227
404.35	14.372
404.70	14.804
405.06	14.302
405.42	13.592
405.77	14.367
406.13	14.310
406.49	14.320
406.84	14.397
407.20	14.959
407.55	14.820
407.91	14.249
408.27	14.951
408.62	14.251
408.98	14.554
409.34	14.016
409.69	14.745
410.05	14.312
410.40	15.021
410.76	14.286
411.11	14.090
411.47	15.665
411.83	14.487
412.18	14.109
412.54	13.911
412.89	14.277
413.25	14.286
413.60	14.095
413.96	13.555
414.31	13.823
414.67	14.159
415.03	14.683
415.38	14.379
415.74	14.433
416.09	14.194
416.45	13.624
416.80	14.824
417.16	12.558
417.51	15.167
417.87	14.434
418.22	14.223
418.58	14.442
418.93	14.531
419.29	14.429
419.64	14.259
420.00	13.913
420.35	13.365
420.71	13.986
421.06	14.320
421.42	14.052
421.77	14.126
422.12	14.550
422.48	14.751
422.83	14.863
423.19	14.198
423.54	14.352
423.90	14.864
424.25	14.140
424.61	14.053
424.96	14.921
425.31	13.918
425.67	14.728
426.02	13.712
426.38	14.761
426.73	13.676
427.09	14.645
427.44	14.773
427.79	14.477
428.15	14.063
428.50	15.073
428.85	13.909
429.21	14.444
429.56	14.792
429.92	14.329
430.27	13.958
430.62	14.159
430.98	14.219
431.33	14.248
431.68	14.370
432.04	14.661
432.39	14.074
432.74	13.729
433.10	13.900
433.45	13.932
433.80	13.998
434.16	13.702
434.51	14.521
434.86	15.524
435.22	14.978
435.57	14.076
435.92	14.361
436.28	15.371
436.63	14.924
436.98	14.605
437.34	15.180
437.69	14.586
438.04	14.237
438.39	15.042
438.75	14.494
439.10	14.992
439.45	14.182
439.81	15.964
440.16	14.140
440.51	15.294
440.86	14.286
441.22	14.207
441.57	14.895
441.92	14.220
442.27	14.177
442.63	14.753
442.98	14.165
443.33	14.388
443.68	15.425
444.03	14.735
444.39	14.831
444.74	15.584
445.09	14.912
445.44	14.406
445.79	14.941
446.15	14.677
446.50	14.262
446.85	14.982
447.20	15.117
447.55	14.088
447.91	14.374
448.26	14.860
448.61	14.035
448.96	14.566
449.31	14.431
449.66	14.596
450.02	14.127
450.37	13.565
450.72	14.294
451.07	14.896
451.42	14.684
451.77	14.542
452.12	14.899
452.47	15.050
452.83	14.211
453.18	14.991
453.53	14.801
453.88	15.311
454.23	13.724
454.58	15.848
454.93	14.547
455.28	14.213
455.63	15.295
455.98	14.940
456.34	14.485
456.69	15.322
457.04	15.120
457.39	13.935
457.74	14.649
458.09	15.603
458.44	15.473
458.79	14.630
459.14	15.060
459.49	15.157
459.84	14.671
460.19	14.797
460.54	15.306
460.89	14.126
461.24	15.240
461.59	14.654
461.94	15.086
462.29	14.830
462.64	15.415
462.99	14.793
463.34	14.315
463.69	15.013
464.04	14.821
464.39	14.695
464.74	14.303
465.09	14.251
465.44	14.439
465.79	14.664
466.14	15.362
466.49	14.911
466.84	14.586
467.19	14.963
467.54	14.747
467.89	14.303
468.24	15.083
468.59	14.054
468.94	14.727
469.29	14.035
469.64	14.218
469.99	14.652
470.34	15.164
470.68	14.753
471.03	15.692
471.38	14.306
471.73	14.755
472.08	15.127
472.43	13.900
472.78	15.067
473.13	14.182
473.48	14.040
473.83	14.640
474.17	14.968
474.52	14.834
474.87	14.627
475.22	14.454
475.57	14.389
475.92	14.309
476.27	14.857
476.61	14.423
476.96	14.366
477.31	14.909
477.66	14.665
478.01	14.479
478.36	14.458
478.70	14.415
479.05	15.792
479.40	14.041
479.75	14.577
480.10	15.228
480.45	14.168
480.79	14.610
481.14	15.253
481.49	14.424
481.84	14.563
482.19	14.664
482.53	15.152
482.88	14.855
483.23	14.601
483.58	15.402
483.92	14.333
484.27	14.843
484.62	14.687
484.97	15.121
485.31	14.592
485.66	14.603
486.01	14.945
486.36	15.622
486.70	15.797
487.05	15.690
487.40	15.224
487.75	15.244
488.09	14.546
488.44	15.054
488.79	15.600
489.13	15.405
489.48	15.090
489.83	15.197
490.17	14.976
490.52	14.810
490.87	14.134
491.22	14.853
491.56	14.907
491.91	14.170
492.26	14.575
492.60	14.415
492.95	15.040
493.30	13.816
493.64	14.528
493.99	14.532
494.34	14.429
494.68	14.888
495.03	13.671
495.37	14.110
495.72	15.422
496.07	15.016
496.41	15.239
496.76	13.836
497.11	14.649
497.45	14.799
497.80	13.957
498.14	14.538
498.49	13.913
498.84	14.563
499.18	15.302
499.53	14.759
499.87	14.044
500.22	14.657
500.56	14.807
500.91	14.680
501.26	14.750
501.60	14.059
501.95	15.556
502.29	14.171
502.64	14.663
502.98	14.423
503.33	14.615
503.67	14.511
504.02	13.955
504.36	14.265
504.71	14.083
505.06	14.229
505.40	14.671
505.75	14.228
506.09	14.510
506.44	14.536
506.78	14.701
507.13	14.779
507.47	15.076
507.82	14.146
508.16	15.389
508.51	13.910
508.85	14.286
509.19	14.704
509.54	14.323
509.88	14.362
510.23	14.623
510.57	15.132
510.92	14.608
511.26	14.407
511.61	14.417
511.95	14.278
512.30	14.019
512.64	12.577
512.98	14.686
513.33	14.113
513.67	13.456
514.02	13.479
514.36	14.903
514.70	14.658
515.05	13.551
515.39	14.014
515.74	14.485
516.08	14.179
516.42	14.278
516.77	14.500
517.11	14.188
517.46	13.995
517.80	14.200
518.14	12.923
518.49	13.150
518.83	14.184
519.17	15.394
519.52	13.939
519.86	14.277
520.20	14.548
520.55	14.338
520.89	12.774
521.23	14.042
521.58	13.856
521.92	14.566
522.26	13.651
522.61	13.245
522.95	13.019
523.29	13.605
523.64	13.554
523.98	13.940
524.32	14.079
524.66	12.236
525.01	13.552
525.35	13.724
525.69	13.403
526.04	13.642
526.38	13.686
526.72	14.112
527.06	13.802
527.41	13.399
527.75	12.937
528.09	13.832
528.43	14.164
528.78	14.133
529.12	14.917
529.46	13.918
529.80	14.203
530.15	14.424
530.49	13.777
530.83	14.014
531.17	13.535
531.51	13.262
531.86	13.957
532.20	12.416
532.54	14.104
532.88	13.900
533.22	13.971
533.57	13.838
533.91	12.984
534.25	13.262
534.59	13.429
534.93	13.503
535.27	14.412
535.62	14.066
535.96	14.286
536.30	13.547
536.64	15.007
536.98	13.771
537.32	12.992
537.66	13.170
538.01	12.577
538.35	13.041
538.69	12.968
539.03	13.541
539.37	13.373
539.71	13.542
540.05	14.256
540.39	14.474
540.73	15.411
541.07	14.208
541.42	13.302
541.76	12.027
542.10	14.315
542.44	13.791
542.78	14.179
543.12	14.121
543.46	11.575
543.80	13.244
544.14	12.424
544.48	14.633
544.82	13.194
545.16	13.280
545.50	13.122
545.84	13.074
546.18	14.008
546.52	13.016
546.86	13.889
547.20	13.854
547.54	12.534
547.88	13.935
548.22	12.516
548.56	13.427
548.90	14.218
549.24	14.576
549.58	13.620
549.92	13.286
550.26	14.234
550.60	13.158
550.94	13.723
551.28	13.318
551.62	12.851
551.96	14.110
552.30	13.589
552.64	13.793
552.98	13.735
553.32	12.698
553.66	13.554
554.00	13.717
554.34	13.141
554.68	13.670
555.02	14.182
555.36	13.515
555.69	12.966
556.03	13.544
556.37	14.296
556.71	14.531
557.05	13.008
557.39	13.066
557.73	13.931
558.07	13.188
558.41	13.687
558.75	13.308
559.08	12.607
559.42	13.629
559.76	13.420
560.10	12.901
560.44	13.945
560.78	13.918
561.12	13.527
561.45	13.836
561.79	13.310
562.13	12.623
562.47	13.165
562.81	13.154
563.15	13.436
563.48	13.545
563.82	14.266
564.16	13.320
564.50	13.374
564.84	14.087
565.17	13.329
565.51	13.429
565.85	14.740
566.19	14.625
566.52	14.286
566.86	12.895
567.20	14.286
567.54	14.412
567.88	14.629
568.21	14.709
568.55	14.051
568.89	14.215
569.23	14.299
569.56	13.955
569.90	14.673
570.24	14.205
570.57	13.743
570.91	14.315
571.25	14.786
571.59	14.549
571.92	14.792
572.26	14.739
572.60	14.707
572.93	14.927
573.27	14.726
573.61	14.540
573.95	14.795
574.28	14.500
574.62	15.099
574.96	14.357
575.29	15.066
575.63	15.397
575.97	14.266
576.30	14.525
576.64	14.883
576.98	14.680
577.31	14.660
577.65	15.209
577.98	14.760
578.32	14.734
578.66	14.703
578.99	14.736
579.33	14.418
579.67	15.014
580.00	14.435
580.34	14.677
580.67	14.734
581.01	14.442
581.35	14.707
581.68	14.714
582.02	14.760
582.35	15.014
582.69	15.013
583.02	15.141
583.36	15.181
583.70	15.182
584.03	15.356
584.37	15.020
584.70	15.067
585.04	15.013
585.37	14.773
585.71	15.288
586.04	15.147
586.38	15.023
586.72	15.220
587.05	15.038
587.39	15.023
587.72	14.946
588.06	15.571
588.39	15.181
588.73	14.937
589.06	15.377
589.40	15.390
589.73	14.908
590.07	14.457
590.40	14.354
590.73	14.594
591.07	14.590
591.40	14.991
591.74	14.639
592.07	14.459
592.41	14.607
592.74	14.796
593.08	14.727
593.41	14.901
593.75	14.639
594.08	14.558
594.41	14.861
594.75	14.685
595.08	14.737
595.42	15.715
595.75	14.664
596.09	14.940
596.42	15.671
596.75	14.705
597.09	15.361
597.42	15.190
597.75	14.748
598.09	14.641
598.42	14.494
598.76	14.701
599.09	14.601
599.42	14.418
599.76	14.874
600.09	15.115
600.42	15.268
600.76	15.066
601.09	14.926
601.42	15.156
601.76	14.914
602.09	15.215
602.42	15.021
602.76	14.873
603.09	15.242
603.42	15.431
603.76	14.719
604.09	14.497
604.42	15.029
604.76	14.086
605.09	14.873
605.42	14.716
605.75	14.317
606.09	15.193
606.42	14.411
606.75	15.028
607.09	14.910
607.42	14.569
607.75	14.879
608.08	15.770
608.42	14.570
608.75	14.252
609.08	14.759
609.41	14.699
609.75	14.676
610.08	15.000
610.41	14.988
610.74	15.280
611.07	14.604
611.41	14.070
611.74	15.013
612.07	14.876
612.40	14.126
612.73	14.755
613.07	15.080
613.40	14.669
613.73	14.332
614.06	14.113
614.39	15.051
614.72	14.358
615.06	14.457
615.39	14.162
615.72	14.557
616.05	14.412
616.38	14.335
616.71	14.054
617.05	14.415
617.38	14.427
617.71	13.943
618.04	14.472
618.37	13.836
618.70	13.885
619.03	14.353
619.36	14.799
619.69	14.860
620.03	13.223
620.36	13.924
620.69	14.142
621.02	14.155
621.35	13.145
621.68	13.689
622.01	14.887
622.34	13.432
622.67	13.672
623.00	14.308
623.33	14.403
623.66	14.106
623.99	13.910
624.32	14.211
624.65	14.570
624.99	13.368
625.32	13.772
625.65	14.530
625.98	13.615
626.31	14.111
626.64	12.636
626.97	13.185
627.30	13.702
627.63	11.831
627.96	14.273
628.29	13.879
628.62	12.894
628.95	12.402
629.28	12.500
629.61	11.874
629.94	14.083
630.26	13.519
630.59	14.874
630.92	12.412
631.25	13.508
631.58	13.333
