SpectraSuite Data File
++++++++++++++++++++++++++++++++++++
Date: Sat May 16 11:31:54 PDT 2015
User: schluterlab
Dark Spectrum Present: Yes
Reference Spectrum Present: Yes
Number of Sampled Component Spectra: 1
Spectrometers: USB2E3373
Integration Time (usec): 3000 (USB2E3373)
Spectra Averaged: 3 (USB2E3373)
Boxcar Smoothing: 0 (USB2E3373)
Correct for Electrical Dark: No (USB2E3373)
Strobe/Lamp Enabled: No (USB2E3373)
Correct for Detector Non-linearity: No (USB2E3373)
Correct for Stray Light: No (USB2E3373)
Number of Pixels in Processed Spectrum: 2048
>>>>>Begin Processed Spectral Data<<<<<
178.53	0.000
178.91	120.000
179.29	666.667
179.67	-800.000
180.04	-61.538
180.42	600.000
180.80	100.000
181.18	475.000
181.56	-162.500
181.94	1800.000
182.31	425.000
182.69	-100.000
183.07	-700.000
183.45	1350.000
183.83	633.333
184.20	-142.857
184.58	-150.000
184.96	-550.000
185.34	112.500
185.72	-650.000
186.09	366.667
186.47	-187.500
186.85	-262.500
187.23	25.000
187.61	-275.000
187.98	-300.000
188.36	-187.500
188.74	-275.000
189.12	1400.000
189.49	314.286
189.87	-16.667
190.25	200.000
190.63	-92.857
191.00	-155.556
191.38	380.000
191.76	-33.333
192.14	680.000
192.51	-360.000
192.89	-233.333
193.27	0.000
193.65	-22.222
194.02	-314.286
194.40	700.000
194.78	-40.000
195.15	-700.000
195.53	-163.636
195.91	-450.000
196.29	260.000
196.66	-433.333
197.04	2500.000
197.42	-75.000
197.79	20.000
198.17	-533.333
198.55	-700.000
198.92	-1600.000
199.30	150.000
199.68	-450.000
200.05	-88.889
200.43	-177.778
200.81	-1100.000
201.18	-91.667
201.56	228.571
201.94	-60.000
202.31	13.636
202.69	-50.000
203.07	-150.000
203.44	633.333
203.82	-366.667
204.19	-325.000
204.57	-275.000
204.95	-700.000
205.32	6.250
205.70	1500.000
206.08	-1600.000
206.45	-33.333
206.83	-850.000
207.20	-150.000
207.58	-466.667
207.96	-433.333
208.33	-87.500
208.71	-144.444
209.08	270.000
209.46	-257.143
209.84	1200.000
210.21	0.000
210.59	0.000
210.96	1500.000
211.34	-283.333
211.71	-433.333
212.09	200.000
212.46	1050.000
212.84	-2100.000
213.22	733.333
213.59	100.000
213.97	-22.222
214.34	130.000
214.72	-170.000
215.09	-433.333
215.47	-166.667
215.84	-170.000
216.22	-90.000
216.59	13.333
216.97	-600.000
217.34	450.000
217.72	-214.286
218.09	-383.333
218.47	-214.286
218.84	242.857
219.22	28.571
219.59	0.000
219.97	328.571
220.34	300.000
220.72	162.500
221.09	-30.769
221.47	0.000
221.84	466.667
222.22	-650.000
222.59	900.000
222.97	-275.000
223.34	-700.000
223.72	-666.667
224.09	-142.857
224.46	-400.000
224.84	-28.571
225.21	-142.857
225.59	-90.909
225.96	-125.000
226.34	0.000
226.71	-122.222
227.08	-55.000
227.46	1200.000
227.83	-200.000
228.21	-250.000
228.58	650.000
228.95	-100.000
229.33	-900.000
229.70	-40.000
230.08	-1000.000
230.45	-16.667
230.82	-200.000
231.20	-800.000
231.57	-600.000
231.95	1900.000
232.32	14.286
232.69	-144.444
233.07	-57.143
233.44	-1300.000
233.81	-53.333
234.19	-111.111
234.56	-31.250
234.93	21.875
235.31	-385.714
235.68	-157.143
236.05	-47.059
236.43	-100.000
236.80	3.226
237.17	-8.333
237.55	-33.333
237.92	-86.364
238.29	-40.000
238.67	2.941
239.04	16.667
239.41	-38.710
239.79	-48.718
240.16	-30.952
240.53	-18.182
240.91	2.564
241.28	-16.364
241.65	-4.615
242.02	-1.639
242.40	-14.754
242.77	1.515
243.14	5.085
243.51	7.143
243.89	8.861
244.26	2.247
244.63	14.737
245.00	-3.158
245.38	5.932
245.75	3.540
246.12	-2.400
246.49	7.874
246.87	-0.813
247.24	6.780
247.61	3.390
247.98	5.634
248.36	6.294
248.73	18.354
249.10	9.554
249.47	14.035
249.84	13.636
250.22	4.167
250.59	13.559
250.96	13.613
251.33	15.166
251.70	7.692
252.08	9.953
252.45	11.848
252.82	15.238
253.19	12.340
253.56	10.484
253.94	13.080
254.31	6.867
254.68	13.821
255.05	13.710
255.42	14.286
255.79	11.828
256.16	17.255
256.54	14.706
256.91	9.848
257.28	12.088
257.65	11.348
258.02	15.409
258.39	12.375
258.76	11.149
259.14	12.346
259.51	17.049
259.88	17.683
260.25	14.596
260.62	10.611
260.99	14.540
261.36	15.549
261.73	15.318
262.10	17.500
262.47	12.536
262.85	18.286
263.22	13.467
263.59	15.385
263.96	11.884
264.33	14.092
264.70	14.088
265.07	18.132
265.44	12.403
265.81	11.628
266.18	13.924
266.55	16.176
266.92	15.617
267.29	17.191
267.66	11.852
268.03	15.217
268.40	15.023
268.77	16.386
269.14	13.457
269.51	15.862
269.88	11.697
270.25	11.189
270.62	15.561
270.99	12.162
271.36	16.317
271.73	15.247
272.10	15.332
272.47	14.222
272.84	16.000
273.21	16.055
273.58	12.308
273.95	14.474
274.32	16.742
274.69	14.880
275.06	15.133
275.43	13.170
275.80	17.719
276.17	14.435
276.54	18.126
276.91	14.609
277.28	15.416
277.65	15.909
278.02	15.449
278.39	14.931
278.76	13.745
279.13	12.648
279.50	12.326
279.87	14.165
280.23	14.980
280.60	15.109
280.97	14.175
281.34	14.313
281.71	13.654
282.08	15.121
282.45	12.831
282.82	15.504
283.19	14.545
283.56	16.484
283.92	13.251
284.29	14.684
284.66	14.209
285.03	13.369
285.40	14.022
285.77	15.614
286.14	14.260
286.51	12.256
286.87	14.519
287.24	13.652
287.61	13.554
287.98	14.038
288.35	14.876
288.72	13.752
289.08	10.678
289.45	14.815
289.82	13.149
290.19	14.778
290.56	13.719
290.93	12.719
291.29	14.263
291.66	13.688
292.03	13.344
292.40	12.952
292.77	14.130
293.13	13.171
293.50	13.670
293.87	11.810
294.24	14.480
294.60	11.212
294.97	13.657
295.34	14.074
295.71	13.244
296.08	10.906
296.44	11.159
296.81	13.818
297.18	10.845
297.55	13.559
297.91	13.389
298.28	10.685
298.65	11.855
299.02	13.369
299.38	12.834
299.75	11.277
300.12	12.949
300.48	10.870
300.85	9.961
301.22	12.031
301.59	10.273
301.95	11.461
302.32	10.039
302.69	11.016
303.05	11.233
303.42	9.625
303.79	10.766
304.15	13.033
304.52	11.202
304.89	12.279
305.25	11.477
305.62	10.341
305.99	12.839
306.35	11.654
306.72	12.415
307.09	11.691
307.45	10.897
307.82	11.061
308.19	11.745
308.55	10.893
308.92	10.741
309.29	12.000
309.65	10.392
310.02	11.231
310.38	10.595
310.75	11.680
311.12	11.260
311.48	12.004
311.85	12.255
312.22	11.123
312.58	12.208
312.95	11.009
313.31	12.488
313.68	11.055
314.05	12.067
314.41	10.362
314.78	9.890
315.14	12.636
315.51	11.753
315.87	11.520
316.24	11.273
316.61	12.380
316.97	11.343
317.34	10.983
317.70	10.668
318.07	10.821
318.43	11.049
318.80	11.455
319.16	10.507
319.53	10.338
319.89	10.442
320.26	11.176
320.62	9.327
320.99	11.741
321.35	9.951
321.72	10.133
322.08	11.276
322.45	10.396
322.81	10.759
323.18	11.143
323.54	11.738
323.91	10.936
324.27	11.597
324.64	11.883
325.00	11.606
325.37	10.679
325.73	13.736
326.10	10.097
326.46	11.909
326.83	12.426
327.19	11.510
327.56	13.118
327.92	11.300
328.29	12.727
328.65	11.091
329.01	12.721
329.38	12.043
329.74	12.912
330.11	12.693
330.47	13.079
330.84	12.466
331.20	12.365
331.56	11.212
331.93	12.522
332.29	12.785
332.66	12.643
333.02	11.855
333.38	11.649
333.75	12.912
334.11	11.200
334.48	12.004
334.84	14.086
335.20	13.298
335.57	12.545
335.93	14.324
336.29	12.312
336.66	10.749
337.02	12.523
337.38	12.121
337.75	11.940
338.11	10.644
338.47	12.456
338.84	12.704
339.20	12.478
339.56	14.171
339.93	12.787
340.29	11.603
340.65	12.238
341.02	11.973
341.38	13.142
341.74	12.024
342.11	12.372
342.47	12.275
342.83	12.175
343.20	12.126
343.56	11.673
343.92	13.272
344.28	12.784
344.65	11.221
345.01	11.345
345.37	12.874
345.73	10.802
346.10	12.020
346.46	11.942
346.82	12.109
347.19	11.257
347.55	12.440
347.91	11.890
348.27	11.774
348.63	11.632
349.00	11.933
349.36	10.851
349.72	14.092
350.08	12.831
350.45	11.899
350.81	11.226
351.17	11.736
351.53	11.535
351.89	12.854
352.26	12.636
352.62	13.057
352.98	12.896
353.34	12.470
353.70	11.892
354.07	12.825
354.43	13.281
354.79	13.154
355.15	11.981
355.51	11.719
355.87	12.490
356.24	12.153
356.60	12.732
356.96	12.548
357.32	11.876
357.68	12.644
358.04	12.163
358.40	12.684
358.77	11.669
359.13	11.553
359.49	12.320
359.85	12.500
360.21	11.948
360.57	12.801
360.93	13.481
361.29	11.958
361.66	11.738
362.02	12.056
362.38	12.252
362.74	12.527
363.10	12.626
363.46	13.390
363.82	12.974
364.18	12.808
364.54	13.295
364.90	12.020
365.26	12.054
365.62	13.828
365.98	13.371
366.35	12.535
366.71	11.769
367.07	13.691
367.43	13.521
367.79	13.540
368.15	12.020
368.51	13.147
368.87	13.255
369.23	13.684
369.59	13.889
369.95	12.896
370.31	13.643
370.67	13.087
371.03	12.828
371.39	12.518
371.75	12.732
372.11	13.845
372.47	12.726
372.83	13.700
373.19	12.714
373.55	13.441
373.91	12.945
374.27	14.168
374.63	13.458
374.99	13.769
375.35	13.728
375.71	14.382
376.07	13.552
376.42	12.781
376.78	13.725
377.14	13.492
377.50	14.120
377.86	13.654
378.22	14.196
378.58	13.403
378.94	13.995
379.30	13.406
379.66	14.208
380.02	13.785
380.38	13.293
380.74	14.361
381.09	14.880
381.45	15.394
381.81	14.035
382.17	14.223
382.53	14.347
382.89	13.636
383.25	14.991
383.61	14.858
383.97	14.452
384.32	14.706
384.68	14.933
385.04	15.217
385.40	14.607
385.76	14.756
386.12	15.428
386.48	15.656
386.83	15.337
387.19	14.525
387.55	15.385
387.91	15.945
388.27	14.174
388.62	14.904
388.98	15.263
389.34	14.933
389.70	15.347
390.06	14.730
390.42	15.641
390.77	15.710
391.13	15.901
391.49	15.596
391.85	15.087
392.20	15.049
392.56	16.005
392.92	15.973
393.28	16.418
393.64	16.176
393.99	16.431
394.35	15.085
394.71	14.947
395.07	15.631
395.42	16.031
395.78	15.085
396.14	16.199
396.50	16.024
396.85	15.052
397.21	15.917
397.57	15.745
397.92	16.218
398.28	15.611
398.64	16.359
399.00	17.135
399.35	15.558
399.71	16.202
400.07	16.179
400.42	15.815
400.78	15.981
401.14	15.868
401.49	15.684
401.85	16.290
402.21	15.137
402.57	16.323
402.92	16.237
403.28	16.422
403.63	16.058
403.99	15.911
404.35	15.882
404.70	15.857
405.06	15.859
405.42	15.806
405.77	16.007
406.13	15.616
406.49	16.357
406.84	16.077
407.20	16.608
407.55	16.403
407.91	15.415
408.27	16.912
408.62	16.837
408.98	16.070
409.34	16.636
409.69	16.635
410.05	15.828
410.40	16.186
410.76	16.538
411.11	15.524
411.47	15.793
411.83	16.259
412.18	16.089
412.54	15.619
412.89	16.768
413.25	15.525
413.60	16.403
413.96	15.219
414.31	16.147
414.67	15.810
415.03	16.559
415.38	16.265
415.74	16.946
416.09	15.409
416.45	15.608
416.80	16.255
417.16	16.080
417.51	16.546
417.87	15.599
418.22	16.877
418.58	16.881
418.93	16.309
419.29	16.311
419.64	16.332
420.00	17.011
420.35	16.085
420.71	16.987
421.06	17.633
421.42	16.159
421.77	17.253
422.12	16.900
422.48	16.836
422.83	16.686
423.19	16.759
423.54	17.579
423.90	16.426
424.25	16.233
424.61	16.466
424.96	16.969
425.31	16.937
425.67	16.734
426.02	16.122
426.38	17.362
426.73	17.066
427.09	16.605
427.44	16.818
427.79	16.337
428.15	17.175
428.50	17.595
428.85	17.146
429.21	16.657
429.56	16.875
429.92	17.385
430.27	17.448
430.62	17.555
430.98	17.094
431.33	17.609
431.68	17.265
432.04	18.019
432.39	17.721
432.74	17.266
433.10	17.107
433.45	17.041
433.80	17.413
434.16	17.571
434.51	17.479
434.86	18.395
435.22	17.428
435.57	17.197
435.92	18.406
436.28	17.389
436.63	17.241
436.98	16.667
437.34	18.547
437.69	17.736
438.04	17.187
438.39	18.051
438.75	17.171
439.10	18.268
439.45	18.105
439.81	17.771
440.16	17.093
440.51	18.412
440.86	17.698
441.22	17.137
441.57	18.158
441.92	18.312
442.27	17.803
442.63	18.079
442.98	16.930
443.33	18.396
443.68	18.030
444.03	17.829
444.39	17.719
444.74	18.007
445.09	17.325
445.44	17.614
445.79	18.460
446.15	18.620
446.50	17.148
446.85	17.394
447.20	17.263
447.55	19.006
447.91	18.304
448.26	17.486
448.61	17.714
448.96	19.216
449.31	17.926
449.66	18.890
450.02	17.895
450.37	17.739
450.72	18.136
451.07	18.228
451.42	17.844
451.77	18.013
452.12	17.938
452.47	19.458
452.83	17.997
453.18	18.406
453.53	18.221
453.88	18.840
454.23	17.715
454.58	18.583
454.93	18.766
455.28	18.164
455.63	18.489
455.98	18.133
456.34	17.726
456.69	18.074
457.04	19.299
457.39	17.883
457.74	17.425
458.09	19.606
458.44	19.342
458.79	17.545
459.14	19.224
459.49	18.532
459.84	18.494
460.19	18.914
460.54	18.875
460.89	18.442
461.24	18.033
461.59	18.171
461.94	18.460
462.29	18.344
462.64	19.104
462.99	19.545
463.34	18.906
463.69	18.257
464.04	17.458
464.39	17.682
464.74	18.499
465.09	18.400
465.44	18.500
465.79	18.387
466.14	19.160
466.49	18.250
466.84	19.268
467.19	18.516
467.54	17.848
467.89	19.174
468.24	18.349
468.59	18.801
468.94	19.100
469.29	18.324
469.64	19.272
469.99	19.851
470.34	19.038
470.68	19.404
471.03	20.647
471.38	17.917
471.73	19.091
472.08	18.942
472.43	19.112
472.78	18.933
473.13	18.887
473.48	18.571
473.83	19.045
474.17	19.554
474.52	19.437
474.87	18.881
475.22	18.112
475.57	18.722
475.92	20.248
476.27	19.143
476.61	18.986
476.96	19.788
477.31	19.752
477.66	18.539
478.01	19.233
478.36	18.596
478.70	19.968
479.05	19.416
479.40	19.585
479.75	19.470
480.10	19.048
480.45	18.520
480.79	19.398
481.14	19.669
481.49	19.361
481.84	19.001
482.19	19.415
482.53	19.318
482.88	19.364
483.23	19.484
483.58	19.334
483.92	20.067
484.27	19.451
484.62	18.920
484.97	18.745
485.31	18.304
485.66	18.157
486.01	17.960
486.36	18.643
486.70	19.104
487.05	18.146
487.40	18.670
487.75	18.585
488.09	18.901
488.44	18.911
488.79	19.349
489.13	18.752
489.48	19.657
489.83	19.825
490.17	19.983
490.52	19.475
490.87	19.400
491.22	19.664
491.56	19.954
491.91	20.134
492.26	19.387
492.60	19.696
492.95	19.705
493.30	20.295
493.64	19.229
493.99	19.359
494.34	19.810
494.68	19.897
495.03	19.790
495.37	19.961
495.72	20.039
496.07	19.991
496.41	19.592
496.76	20.091
497.11	19.407
497.45	19.828
497.80	19.960
498.14	20.236
498.49	19.086
498.84	19.515
499.18	20.760
499.53	20.117
499.87	20.125
500.22	21.127
500.56	20.360
500.91	19.606
501.26	20.184
501.60	19.451
501.95	20.821
502.29	20.217
502.64	20.556
502.98	21.179
503.33	19.878
503.67	19.971
504.02	20.473
504.36	20.441
504.71	20.770
505.06	19.820
505.40	21.158
505.75	20.173
506.09	20.981
506.44	21.203
506.78	20.723
507.13	20.906
507.47	21.492
507.82	21.064
508.16	20.725
508.51	20.299
508.85	21.429
509.19	21.036
509.54	21.195
509.88	20.798
510.23	21.960
510.57	21.164
510.92	21.106
511.26	21.106
511.61	21.436
511.95	21.013
512.30	21.165
512.64	20.757
512.98	22.277
513.33	21.527
513.67	22.334
514.02	21.085
514.36	22.161
514.70	22.354
515.05	22.470
515.39	20.934
515.74	22.920
516.08	22.651
516.42	21.926
516.77	21.895
517.11	22.368
517.46	22.608
517.80	22.142
518.14	21.860
518.49	22.534
518.83	22.315
519.17	23.031
519.52	22.209
519.86	23.238
520.20	23.350
520.55	22.831
520.89	22.480
521.23	22.589
521.58	22.194
521.92	22.863
522.26	22.667
522.61	22.433
522.95	22.208
523.29	23.135
523.64	21.861
523.98	21.770
524.32	22.942
524.66	21.739
525.01	22.800
525.35	23.196
525.69	23.748
526.04	22.389
526.38	23.361
526.72	22.478
527.06	23.047
527.41	23.036
527.75	23.168
528.09	23.428
528.43	23.410
528.78	23.618
529.12	23.496
529.46	23.003
529.80	22.531
530.15	23.439
530.49	22.574
530.83	23.772
531.17	22.357
531.51	23.510
531.86	23.831
532.20	23.549
532.54	23.864
532.88	23.123
533.22	23.529
533.57	22.520
533.91	23.783
534.25	22.376
534.59	21.986
534.93	22.029
535.27	23.726
535.62	24.297
535.96	23.271
536.30	22.579
536.64	22.908
536.98	25.141
537.32	23.359
537.66	23.965
538.01	22.955
538.35	22.905
538.69	22.660
539.03	22.072
539.37	22.555
539.71	23.082
540.05	23.235
540.39	23.476
540.73	23.290
541.07	23.087
541.42	22.620
541.76	21.262
542.10	24.038
542.44	23.584
542.78	22.524
543.12	22.607
543.46	22.466
543.80	21.806
544.14	22.767
544.48	23.228
544.82	22.192
545.16	22.938
545.50	22.948
545.84	22.253
546.18	23.786
546.52	23.044
546.86	23.006
547.20	23.136
547.54	21.350
547.88	22.827
548.22	22.280
548.56	22.846
548.90	22.978
549.24	23.266
549.58	22.865
549.92	22.756
550.26	23.194
550.60	21.835
550.94	23.139
551.28	23.476
551.62	23.191
551.96	24.457
552.30	23.275
552.64	22.942
552.98	23.616
553.32	23.232
553.66	24.297
554.00	23.810
554.34	22.816
554.68	24.196
555.02	22.576
555.36	23.149
555.69	22.851
556.03	23.930
556.37	24.111
556.71	23.765
557.05	22.912
557.39	22.791
557.73	23.341
558.07	23.286
558.41	23.710
558.75	23.118
559.08	22.179
559.42	24.196
559.76	23.926
560.10	23.341
560.44	24.422
560.78	22.895
561.12	22.912
561.45	23.562
561.79	23.206
562.13	22.651
562.47	23.459
562.81	22.348
563.15	24.143
563.48	23.151
563.82	23.124
564.16	23.597
564.50	22.648
564.84	23.611
565.17	22.812
565.51	23.272
565.85	23.259
566.19	23.123
566.52	22.701
566.86	23.009
567.20	22.760
567.54	22.682
567.88	21.999
568.21	22.148
568.55	22.587
568.89	20.924
569.23	21.657
569.56	21.017
569.90	21.951
570.24	21.684
570.57	20.879
570.91	20.469
571.25	21.109
571.59	20.793
571.92	20.238
572.26	20.401
572.60	20.757
572.93	20.471
573.27	20.427
573.61	20.275
573.95	20.303
574.28	20.249
574.62	20.005
574.96	19.915
575.29	20.071
575.63	20.096
575.97	19.444
576.30	20.334
576.64	20.131
576.98	19.632
577.31	20.095
577.65	20.376
577.98	19.784
578.32	19.680
578.66	19.323
578.99	19.919
579.33	19.920
579.67	19.833
580.00	19.618
580.34	19.741
580.67	19.711
581.01	19.059
581.35	19.651
581.68	19.294
582.02	19.625
582.35	19.566
582.69	20.004
583.02	19.739
583.36	19.638
583.70	20.123
584.03	19.881
584.37	19.973
584.70	19.958
585.04	20.430
585.37	19.547
585.71	19.424
586.04	19.934
586.38	19.620
586.72	20.265
587.05	20.306
587.39	19.995
587.72	20.520
588.06	19.807
588.39	19.681
588.73	20.519
589.06	20.364
589.40	21.299
589.73	21.105
590.07	20.503
590.40	20.738
590.73	20.632
591.07	21.311
591.40	21.317
591.74	20.982
592.07	21.396
592.41	20.977
592.74	21.099
593.08	20.941
593.41	20.329
593.75	20.310
594.08	21.028
594.41	20.702
594.75	20.763
595.08	20.602
595.42	20.882
595.75	20.434
596.09	20.993
596.42	21.358
596.75	20.742
597.09	21.817
597.42	21.039
597.75	21.568
598.09	21.283
598.42	21.122
598.76	19.934
599.09	20.639
599.42	20.223
599.76	21.253
600.09	20.725
600.42	20.775
600.76	20.942
601.09	20.775
601.42	20.380
601.76	21.262
602.09	20.777
602.42	20.905
602.76	19.734
603.09	20.363
603.42	20.588
603.76	20.782
604.09	20.144
604.42	20.400
604.76	21.413
605.09	21.022
605.42	21.498
605.75	20.914
606.09	20.631
606.42	19.983
606.75	20.824
607.09	20.997
607.42	20.951
607.75	20.883
608.08	21.012
608.42	21.570
608.75	20.748
609.08	21.189
609.41	21.475
609.75	20.673
610.08	20.882
610.41	21.157
610.74	21.470
611.07	21.400
611.41	20.575
611.74	22.211
612.07	22.771
612.40	20.522
612.73	22.079
613.07	20.914
613.40	22.003
613.73	21.471
614.06	22.186
614.39	22.266
614.72	20.894
615.06	21.196
615.39	20.836
615.72	21.782
616.05	20.099
616.38	21.706
616.71	20.721
617.05	21.713
617.38	23.344
617.71	21.929
618.04	21.491
618.37	21.447
618.70	23.012
619.03	21.666
619.36	22.199
619.69	22.900
620.03	22.314
620.36	22.082
620.69	22.398
621.02	22.146
621.35	22.177
621.68	21.967
622.01	23.220
622.34	22.593
622.67	23.047
623.00	22.571
623.33	22.761
623.66	21.270
623.99	22.857
624.32	22.470
624.65	23.326
624.99	21.957
625.32	22.305
625.65	22.922
625.98	21.909
626.31	23.409
626.64	22.762
626.97	22.432
627.30	22.723
627.63	21.244
627.96	22.628
628.29	23.346
628.62	23.400
628.95	24.016
629.28	23.026
629.61	23.553
629.94	23.819
630.26	25.149
630.59	23.719
630.92	23.924
631.25	24.294
631.58	23.598
631.91	23.723
