SpectraSuite Data File
++++++++++++++++++++++++++++++++++++
Date: Sat May 16 11:47:40 PDT 2015
User: schluterlab
Dark Spectrum Present: Yes
Reference Spectrum Present: Yes
Number of Sampled Component Spectra: 1
Spectrometers: USB2E3373
Integration Time (usec): 3000 (USB2E3373)
Spectra Averaged: 3 (USB2E3373)
Boxcar Smoothing: 0 (USB2E3373)
Correct for Electrical Dark: No (USB2E3373)
Strobe/Lamp Enabled: No (USB2E3373)
Correct for Detector Non-linearity: No (USB2E3373)
Correct for Stray Light: No (USB2E3373)
Number of Pixels in Processed Spectrum: 2048
>>>>>Begin Processed Spectral Data<<<<<
178.53	0.000
178.91	126.667
179.29	700.000
179.67	-900.000
180.04	-30.769
180.42	600.000
180.80	50.000
181.18	350.000
181.56	-175.000
181.94	900.000
182.31	600.000
182.69	-92.308
183.07	-533.333
183.45	1550.000
183.83	733.333
184.20	-185.714
184.58	-162.500
184.96	-375.000
185.34	93.750
185.72	-250.000
186.09	216.667
186.47	-200.000
186.85	-200.000
187.23	50.000
187.61	0.000
187.98	-312.500
188.36	-62.500
188.74	-150.000
189.12	600.000
189.49	300.000
189.87	-75.000
190.25	250.000
190.63	-85.714
191.00	-244.444
191.38	500.000
191.76	-33.333
192.14	600.000
192.51	-300.000
192.89	-466.667
193.27	0.000
193.65	-77.778
194.02	-142.857
194.40	533.333
194.78	-100.000
195.15	-1000.000
195.53	-145.455
195.91	-500.000
196.29	280.000
196.66	-633.333
197.04	1600.000
197.42	-25.000
197.79	66.667
198.17	-233.333
198.55	-300.000
198.92	-1600.000
199.30	175.000
199.68	-750.000
200.05	-66.667
200.43	-244.444
200.81	-1700.000
201.18	-75.000
201.56	285.714
201.94	-120.000
202.31	9.091
202.69	-40.000
203.07	-170.000
203.44	466.667
203.82	-533.333
204.19	-325.000
204.57	100.000
204.95	-1900.000
205.32	-6.250
205.70	900.000
206.08	-1900.000
206.45	-22.222
206.83	-1050.000
207.20	100.000
207.58	-733.333
207.96	-700.000
208.33	-162.500
208.71	-222.222
209.08	350.000
209.46	-85.714
209.84	550.000
210.21	0.000
210.59	35.000
210.96	400.000
211.34	-383.333
211.71	-133.333
212.09	250.000
212.46	1150.000
212.84	-2100.000
213.22	500.000
213.59	150.000
213.97	-11.111
214.34	210.000
214.72	-20.000
215.09	-500.000
215.47	-183.333
215.84	-160.000
216.22	-130.000
216.59	0.000
216.97	-475.000
217.34	900.000
217.72	-114.286
218.09	-150.000
218.47	-128.571
218.84	28.571
219.22	-157.143
219.59	0.000
219.97	228.571
220.34	900.000
220.72	287.500
221.09	-92.308
221.47	0.000
221.84	366.667
222.22	-300.000
222.59	400.000
222.97	-137.500
223.34	-850.000
223.72	-666.667
224.09	-57.143
224.46	-250.000
224.84	-28.571
225.21	-242.857
225.59	-100.000
225.96	-175.000
226.34	-114.286
226.71	-155.556
227.08	25.000
227.46	2000.000
227.83	-42.857
228.21	-200.000
228.58	250.000
228.95	-56.250
229.33	-1700.000
229.70	-560.000
230.08	-1250.000
230.45	-41.667
230.82	-50.000
231.20	-1100.000
231.57	-500.000
231.95	1600.000
232.32	-28.571
232.69	-133.333
233.07	-257.143
233.44	-1250.000
233.81	-86.667
234.19	-133.333
234.56	-37.500
234.93	-15.625
235.31	-257.143
235.68	-150.000
236.05	-100.000
236.43	-68.182
236.80	-41.935
237.17	0.000
237.55	-23.810
237.92	-100.000
238.29	-14.286
238.67	2.941
239.04	-27.778
239.41	-45.161
239.79	-51.282
240.16	-19.048
240.53	-30.909
240.91	-20.513
241.28	1.818
241.65	-6.154
242.02	-3.279
242.40	-3.279
242.77	-6.061
243.14	-16.949
243.51	-12.857
243.89	-13.924
244.26	-1.124
244.63	-7.368
245.00	13.684
245.38	-3.390
245.75	7.965
246.12	-0.800
246.49	1.575
246.87	1.626
247.24	-1.695
247.61	-11.864
247.98	3.521
248.36	1.399
248.73	5.063
249.10	-3.185
249.47	2.339
249.84	0.568
250.22	-8.333
250.59	-0.565
250.96	4.188
251.33	4.739
251.70	3.365
252.08	7.583
252.45	2.844
252.82	0.000
253.19	3.404
253.56	4.435
253.94	3.376
254.31	2.575
254.68	6.911
255.05	2.419
255.42	3.571
255.79	4.301
256.16	5.882
256.54	8.456
256.91	3.409
257.28	1.832
257.65	4.965
258.02	5.031
258.39	6.020
258.76	4.392
259.14	4.630
259.51	5.574
259.88	2.744
260.25	6.522
260.62	6.431
260.99	4.451
261.36	5.793
261.73	8.092
262.10	6.944
262.47	2.849
262.85	8.571
263.22	5.444
263.59	5.231
263.96	4.058
264.33	5.420
264.70	6.630
265.07	3.022
265.44	7.752
265.81	6.718
266.18	2.785
266.55	5.147
266.92	7.809
267.29	3.390
267.66	5.926
268.03	8.213
268.40	8.451
268.77	3.855
269.14	4.408
269.51	5.747
269.88	4.358
270.25	3.030
270.62	8.238
270.99	5.405
271.36	6.061
271.73	7.623
272.10	6.407
272.47	6.000
272.84	8.667
273.21	8.028
273.58	6.593
273.95	6.798
274.32	6.335
274.69	6.565
275.06	7.362
275.43	4.464
275.80	8.147
276.17	6.067
276.54	8.554
276.91	5.556
277.28	6.897
277.65	5.579
278.02	6.263
278.39	8.251
278.76	3.785
279.13	5.929
279.50	7.356
279.87	4.651
280.23	7.287
280.60	6.958
280.97	6.019
281.34	5.609
281.71	6.923
282.08	6.653
282.45	3.055
282.82	6.008
283.19	6.000
283.56	9.158
283.92	7.420
284.29	5.019
284.66	7.554
285.03	7.665
285.40	7.934
285.77	8.947
286.14	5.957
286.51	4.796
286.87	4.719
287.24	6.826
287.61	7.769
287.98	5.546
288.35	5.289
288.72	5.603
289.08	4.746
289.45	6.229
289.82	4.498
290.19	7.061
290.56	6.446
290.93	5.405
291.29	4.700
291.66	3.221
292.03	6.436
292.40	9.036
292.77	6.522
293.13	6.179
293.50	6.835
293.87	6.442
294.24	6.033
294.60	4.091
294.97	8.042
295.34	4.148
295.71	6.250
296.08	2.611
296.44	4.292
296.81	5.698
297.18	5.211
297.55	5.932
297.91	6.695
298.28	6.164
298.65	6.137
299.02	6.684
299.38	5.615
299.75	5.842
300.12	6.282
300.48	6.777
300.85	5.242
301.22	5.563
301.59	5.332
301.95	6.549
302.32	3.651
302.69	6.242
303.05	5.739
303.42	6.125
303.79	5.502
304.15	6.635
304.52	6.068
304.89	5.549
305.25	5.739
305.62	5.053
305.99	7.774
306.35	6.548
306.72	4.328
307.09	7.037
307.45	5.562
307.82	4.134
308.19	5.817
308.55	5.664
308.92	4.726
309.29	4.973
309.65	5.938
310.02	6.479
310.38	5.297
310.75	6.660
311.12	6.818
311.48	6.054
311.85	5.561
312.22	5.149
312.58	6.714
312.95	5.301
313.31	7.093
313.68	6.734
314.05	6.429
314.41	5.433
314.78	5.395
315.14	5.429
315.51	5.876
315.87	5.808
316.24	5.831
316.61	6.814
316.97	6.766
317.34	5.395
317.70	6.215
318.07	7.183
318.43	6.742
318.80	7.981
319.16	5.441
319.53	6.673
319.89	6.209
320.26	6.569
320.62	5.481
320.99	7.264
321.35	5.714
321.72	5.834
322.08	6.429
322.45	6.040
322.81	6.820
323.18	6.148
323.54	6.377
323.91	7.785
324.27	6.179
324.64	7.038
325.00	7.068
325.37	7.330
325.73	7.874
326.10	6.466
326.46	7.180
326.83	6.723
327.19	8.007
327.56	8.518
327.92	7.647
328.29	8.485
328.65	7.364
329.01	8.834
329.38	7.761
329.74	8.608
330.11	7.434
330.47	8.265
330.84	9.441
331.20	7.040
331.56	8.660
331.93	8.526
332.29	8.493
332.66	8.955
333.02	8.959
333.38	9.050
333.75	9.973
334.11	7.644
334.48	8.032
334.84	9.361
335.20	8.777
335.57	8.755
335.93	11.012
336.29	8.946
336.66	7.753
337.02	8.829
337.38	8.824
337.75	9.482
338.11	8.855
338.47	9.075
338.84	8.167
339.20	8.436
339.56	9.269
339.93	8.377
340.29	8.503
340.65	8.741
341.02	9.275
341.38	9.014
341.74	9.568
342.11	8.532
342.47	10.472
342.83	8.648
343.20	9.821
343.56	9.143
343.92	9.349
344.28	9.504
344.65	8.911
345.01	9.496
345.37	9.635
345.73	9.002
346.10	8.177
346.46	10.236
346.82	8.901
347.19	8.792
347.55	9.230
347.91	9.370
348.27	8.831
348.63	9.128
349.00	9.865
349.36	8.587
349.72	10.032
350.08	9.703
350.45	8.195
350.81	9.634
351.17	8.360
351.53	7.558
351.89	8.488
352.26	9.612
352.62	10.829
352.98	9.415
353.34	8.873
353.70	9.653
354.07	9.677
354.43	9.407
354.79	9.192
355.15	8.786
355.51	8.750
355.87	9.328
356.24	9.531
356.60	10.153
356.96	9.777
357.32	9.976
357.68	9.808
358.04	9.546
358.40	9.745
358.77	9.505
359.13	9.870
359.49	10.053
359.85	9.070
360.21	8.828
360.57	11.295
360.93	11.111
361.29	9.567
361.66	9.680
362.02	9.541
362.38	10.198
362.74	10.330
363.10	9.684
363.46	10.114
363.82	10.058
364.18	10.492
364.54	10.936
364.90	9.504
365.26	9.986
365.62	10.478
365.98	9.957
366.35	10.211
366.71	9.725
367.07	10.092
367.43	11.736
367.79	10.515
368.15	10.313
368.51	10.769
368.87	12.294
369.23	10.526
369.59	11.319
369.95	11.628
370.31	11.463
370.67	10.846
371.03	10.641
371.39	9.477
371.75	11.588
372.11	10.617
372.47	11.352
372.83	12.031
373.19	10.929
373.55	12.175
373.91	11.380
374.27	10.815
374.63	12.077
374.99	11.822
375.35	10.565
375.71	12.019
376.07	11.910
376.42	10.596
376.78	12.026
377.14	11.797
377.50	12.444
377.86	11.964
378.22	12.123
378.58	12.539
378.94	12.330
379.30	12.371
379.66	12.811
380.02	12.597
380.38	12.870
380.74	12.251
381.09	12.478
381.45	13.067
381.81	12.765
382.17	11.842
382.53	12.584
382.89	12.679
383.25	13.365
383.61	12.913
383.97	12.921
384.32	13.705
384.68	13.724
385.04	12.681
385.40	12.599
385.76	12.988
386.12	13.554
386.48	14.542
386.83	13.252
387.19	14.286
387.55	13.204
387.91	13.100
388.27	13.209
388.62	13.942
388.98	13.446
389.34	13.892
389.70	14.190
390.06	13.860
390.42	14.231
390.77	13.880
391.13	14.099
391.49	13.724
391.85	15.711
392.20	14.502
392.56	14.050
392.92	14.946
393.28	15.155
393.64	14.311
393.99	14.277
394.35	15.146
394.71	13.836
395.07	15.066
395.42	14.064
395.78	15.022
396.14	15.389
396.50	15.596
396.85	15.669
397.21	15.249
397.57	15.076
397.92	15.222
398.28	15.056
398.64	15.645
399.00	15.169
399.35	15.333
399.71	15.738
400.07	15.403
400.42	15.268
400.78	15.325
401.14	15.090
401.49	16.038
401.85	15.619
402.21	16.150
402.57	15.291
402.92	15.670
403.28	14.951
403.63	14.440
403.99	15.040
404.35	15.399
404.70	15.799
405.06	15.744
405.42	15.683
405.77	14.762
406.13	14.367
406.49	15.159
406.84	15.537
407.20	16.019
407.55	16.213
407.91	15.220
408.27	16.054
408.62	16.717
408.98	15.706
409.34	15.417
409.69	15.438
410.05	16.495
410.40	14.899
410.76	15.886
411.11	16.022
411.47	15.857
411.83	15.892
412.18	15.656
412.54	15.375
412.89	15.371
413.25	14.935
413.60	14.399
413.96	15.157
414.31	16.208
414.67	15.746
415.03	16.171
415.38	16.331
415.74	16.624
416.09	15.857
416.45	16.204
416.80	16.060
417.16	15.083
417.51	16.612
417.87	16.052
418.22	16.877
418.58	15.918
418.93	15.941
419.29	16.374
419.64	15.892
420.00	17.011
420.35	16.085
420.71	16.507
421.06	16.391
421.42	15.808
421.77	17.030
422.12	16.116
422.48	15.767
422.83	17.084
423.19	16.481
423.54	16.138
423.90	16.136
424.25	17.477
424.61	17.913
424.96	17.613
425.31	17.272
425.67	16.905
426.02	17.212
426.38	17.786
426.73	17.008
427.09	17.586
427.44	17.670
427.79	17.326
428.15	18.073
428.50	17.947
428.85	17.626
429.21	17.156
429.56	17.552
429.92	17.535
430.27	17.248
430.62	18.600
430.98	17.825
431.33	17.396
431.68	18.552
432.04	18.523
432.39	17.949
432.74	18.225
433.10	17.952
433.45	17.386
433.80	18.085
434.16	18.431
434.51	18.301
434.86	19.625
435.22	18.820
435.57	19.217
435.92	18.464
436.28	18.813
436.63	18.146
436.98	17.411
437.34	18.724
437.69	18.203
438.04	19.455
438.39	19.073
438.75	18.277
439.10	19.156
439.45	18.407
439.81	19.337
440.16	19.591
440.51	20.294
440.86	19.260
441.22	18.187
441.57	19.263
441.92	19.028
442.27	18.344
442.63	19.421
442.98	18.679
443.33	19.550
443.68	19.750
444.03	19.695
444.39	19.236
444.74	19.604
445.09	19.353
445.44	19.358
445.79	18.919
446.15	19.934
446.50	18.563
446.85	20.113
447.20	19.254
447.55	19.558
447.91	20.157
448.26	18.994
448.61	18.789
448.96	19.776
449.31	20.688
449.66	20.607
450.02	18.947
450.37	19.130
450.72	20.339
451.07	19.673
451.42	18.401
451.77	20.467
452.12	19.309
452.47	20.151
452.83	19.918
453.18	20.304
453.53	19.963
453.88	20.694
454.23	19.891
454.58	20.447
454.93	20.592
455.28	19.375
455.63	19.717
455.98	20.361
456.34	19.695
456.69	21.576
457.04	21.082
457.39	20.096
457.74	20.142
458.09	21.288
458.44	20.958
458.79	20.291
459.14	19.852
459.49	20.604
459.84	20.236
460.19	20.406
460.54	20.085
460.89	20.348
461.24	20.401
461.59	21.512
461.94	19.796
462.29	20.786
462.64	19.960
462.99	21.151
463.34	20.257
463.69	20.547
464.04	20.445
464.39	19.952
464.74	20.863
465.09	20.265
465.44	19.910
465.79	20.699
466.14	20.713
466.49	21.071
466.84	20.228
467.19	20.200
467.54	20.886
467.89	21.270
468.24	20.843
468.59	21.237
468.94	20.514
469.29	19.948
469.64	21.294
469.99	21.067
470.34	22.378
470.68	22.166
471.03	21.748
471.38	20.764
471.73	21.399
472.08	21.754
472.43	21.236
472.78	22.000
473.13	20.411
473.48	19.911
473.83	20.968
474.17	21.401
474.52	21.547
474.87	21.620
475.22	21.475
475.57	20.944
475.92	21.328
476.27	20.000
476.61	21.127
476.96	21.465
477.31	21.475
477.66	21.527
478.01	21.178
478.36	21.268
478.70	21.783
479.05	22.174
479.40	22.124
479.75	21.254
480.10	20.238
480.45	20.745
480.79	22.261
481.14	21.826
481.49	21.733
481.84	20.666
482.19	21.243
482.53	21.212
482.88	21.405
483.23	22.019
483.58	22.618
483.92	21.930
484.27	20.957
484.62	21.598
484.97	20.655
485.31	20.224
485.66	19.899
486.01	19.724
486.36	20.864
486.70	21.200
487.05	20.530
487.40	20.833
487.75	20.747
488.09	20.877
488.44	20.907
488.79	21.330
489.13	21.415
489.48	21.615
489.83	21.834
490.17	21.593
490.52	21.875
490.87	21.755
491.22	22.092
491.56	22.546
491.91	21.851
492.26	22.358
492.60	21.456
492.95	21.847
493.30	22.249
493.64	21.204
493.99	22.036
494.34	21.238
494.68	22.753
495.03	21.224
495.37	22.517
495.72	21.660
496.07	21.164
496.41	22.279
496.76	22.603
497.11	21.809
497.45	23.276
497.80	21.661
498.14	22.299
498.49	21.396
498.84	22.621
499.18	22.027
499.53	22.552
499.87	21.670
500.22	22.745
500.56	22.411
500.91	22.266
501.26	23.338
501.60	22.051
501.95	22.609
502.29	21.871
502.64	22.301
502.98	22.281
503.33	21.805
503.67	22.174
504.02	21.680
504.36	22.500
504.71	21.277
505.06	22.167
505.40	23.154
505.75	22.815
506.09	23.407
506.44	22.506
506.78	22.278
507.13	22.606
507.47	23.213
507.82	22.767
508.16	23.161
508.51	23.184
508.85	23.033
509.19	23.548
509.54	23.626
509.88	23.085
510.23	22.956
510.57	23.862
510.92	22.932
511.26	22.913
511.61	22.894
511.95	23.168
512.30	23.310
512.64	23.150
512.98	23.597
513.33	23.943
513.67	24.009
514.02	24.217
514.36	24.266
514.70	24.222
515.05	24.757
515.39	23.645
515.74	24.491
516.08	24.150
516.42	25.099
516.77	25.419
517.11	24.771
517.46	24.701
517.80	24.850
518.14	24.819
518.49	25.284
518.83	25.104
519.17	25.459
519.52	24.812
519.86	24.970
520.20	25.795
520.55	23.815
520.89	24.546
521.23	25.092
521.58	25.204
521.92	25.016
522.26	25.397
522.61	25.158
522.95	25.207
523.29	26.708
523.64	25.297
523.98	26.162
524.32	24.701
524.66	25.590
525.01	25.947
525.35	25.258
525.69	26.090
526.04	25.849
526.38	26.353
526.72	25.096
527.06	25.260
527.41	26.403
527.75	24.752
528.09	25.877
528.43	24.984
528.78	25.188
529.12	26.248
529.46	25.258
529.80	25.371
530.15	25.757
530.49	25.162
530.83	26.523
531.17	26.128
531.51	24.983
531.86	25.675
532.20	26.856
532.54	26.003
532.88	25.231
533.22	25.735
533.57	25.914
533.91	25.406
534.25	24.261
534.59	24.735
534.93	24.953
535.27	25.677
535.62	25.831
535.96	25.469
536.30	24.673
536.64	25.830
536.98	26.342
537.32	24.741
537.66	26.341
538.01	25.498
538.35	26.554
538.69	25.334
539.03	26.066
539.37	25.882
539.71	24.950
540.05	25.154
540.39	25.831
540.73	25.639
541.07	26.025
541.42	24.916
541.76	23.654
542.10	25.726
542.44	25.050
542.78	24.898
543.12	25.730
543.46	25.479
543.80	25.284
544.14	24.983
544.48	25.328
544.82	25.913
545.16	25.486
545.50	24.226
545.84	25.661
546.18	25.381
546.52	24.893
546.86	25.783
547.20	26.582
547.54	25.275
547.88	25.282
548.22	24.246
548.56	25.317
548.90	25.000
549.24	25.088
549.58	25.970
549.92	26.431
550.26	25.795
550.60	25.249
550.94	26.058
551.28	25.658
551.62	25.258
551.96	25.687
552.30	25.296
552.64	25.686
552.98	26.489
553.32	25.108
553.66	24.946
554.00	26.724
554.34	25.415
554.68	25.439
555.02	26.194
555.36	24.802
555.69	25.072
556.03	24.772
556.37	25.036
556.71	25.483
557.05	25.573
557.39	25.241
557.73	25.821
558.07	26.601
558.41	25.654
558.75	25.856
559.08	24.825
559.42	25.345
559.76	26.074
560.10	25.802
560.44	26.012
560.78	25.331
561.12	25.604
561.45	24.726
561.79	24.878
562.13	25.456
562.47	26.611
562.81	25.389
563.15	25.122
563.48	24.948
563.82	25.152
564.16	25.693
564.50	25.874
564.84	24.868
565.17	24.536
565.51	25.489
565.85	26.910
566.19	26.087
566.52	25.375
566.86	24.463
567.20	25.545
567.54	25.694
567.88	25.014
568.21	24.832
568.55	23.860
568.89	23.459
569.23	23.832
569.56	23.329
569.90	23.289
570.24	23.901
570.57	22.531
570.91	23.359
571.25	23.054
571.59	22.635
571.92	22.857
572.26	22.708
572.60	22.681
572.93	22.731
573.27	21.707
573.61	22.053
573.95	22.565
574.28	22.372
574.62	22.598
574.96	21.834
575.29	22.129
575.63	22.087
575.97	22.465
576.30	21.951
576.64	22.167
576.98	21.896
577.31	21.549
577.65	21.941
577.98	21.300
578.32	21.511
578.66	21.800
578.99	21.806
579.33	21.804
579.67	21.760
580.00	21.528
580.34	21.991
580.67	22.432
581.01	21.549
581.35	21.986
581.68	21.469
582.02	21.957
582.35	21.284
582.69	21.976
583.02	22.281
583.36	21.592
583.70	22.197
584.03	22.441
584.37	22.409
584.70	22.390
585.04	21.899
585.37	20.979
585.71	22.230
586.04	22.290
586.38	21.999
586.72	22.632
587.05	22.458
587.39	21.907
587.72	22.591
588.06	22.338
588.39	22.045
588.73	22.782
589.06	22.954
589.40	23.772
589.73	22.450
590.07	22.433
590.40	23.063
590.73	23.031
591.07	23.770
591.40	23.310
591.74	23.328
592.07	23.514
592.41	23.567
592.74	22.829
593.08	23.275
593.41	22.697
593.75	22.354
594.08	22.933
594.41	23.623
594.75	23.971
595.08	23.008
595.42	22.832
595.75	22.712
596.09	22.972
596.42	23.895
596.75	23.027
597.09	23.553
597.42	23.570
597.75	22.985
598.09	23.678
598.42	23.509
598.76	22.757
599.09	23.639
599.42	22.760
599.76	22.726
600.09	23.359
600.42	23.281
600.76	23.616
601.09	23.357
601.42	22.359
601.76	23.248
602.09	23.436
602.42	23.416
602.76	22.767
603.09	23.065
603.42	24.335
603.76	23.016
604.09	22.867
604.42	23.605
604.76	23.114
605.09	23.373
605.42	23.803
605.75	23.458
606.09	23.163
606.42	22.623
606.75	23.744
607.09	23.379
607.42	23.019
607.75	23.576
608.08	23.678
608.42	23.084
608.75	23.271
609.08	23.673
609.41	23.119
609.75	23.354
610.08	23.627
610.41	24.289
610.74	24.323
611.07	23.631
611.41	23.500
611.74	24.730
612.07	24.168
612.40	23.827
612.73	24.340
613.07	23.500
613.40	24.959
613.73	24.632
614.06	23.119
614.39	23.844
614.72	23.631
615.06	23.641
615.39	23.657
615.72	24.063
616.05	23.136
616.38	24.318
616.71	24.024
617.05	24.306
617.38	25.449
617.71	23.833
618.04	24.534
618.37	24.340
618.70	24.707
619.03	24.509
619.36	26.498
619.69	25.485
620.03	24.380
620.36	24.824
620.69	24.623
621.02	25.114
621.35	25.161
621.68	25.820
622.01	26.052
622.34	25.854
622.67	25.156
623.00	25.555
623.33	26.119
623.66	23.855
623.99	25.338
624.32	25.372
624.65	24.871
624.99	24.197
625.32	23.728
625.65	26.107
625.98	25.117
626.31	26.101
626.64	26.276
626.97	26.969
627.30	25.447
627.63	24.180
627.96	25.762
628.29	27.390
628.62	26.266
628.95	26.673
629.28	26.504
629.61	25.123
629.94	24.197
630.26	26.938
630.59	27.337
630.92	25.926
631.25	26.714
631.58	25.714
631.91	25.957
632.24	27.444
632.57	27.000
632.90	25.172
633.23	28.037
633.56	25.380
633.89	27.241
634.22	26.564
634.55	28.606
634.88	27.086
635.20	25.968
635.53	27.099
635.86	27.204
636.19	27.961
636.52	25.926
636.85	25.271
637.18	26.750
637.51	28.129
637.83	26.232
638.16	27.105
