SpectraSuite Data File
++++++++++++++++++++++++++++++++++++
Date: Sat May 16 11:34:37 PDT 2015
User: schluterlab
Dark Spectrum Present: Yes
Reference Spectrum Present: Yes
Number of Sampled Component Spectra: 1
Spectrometers: USB2E3373
Integration Time (usec): 3000 (USB2E3373)
Spectra Averaged: 3 (USB2E3373)
Boxcar Smoothing: 0 (USB2E3373)
Correct for Electrical Dark: No (USB2E3373)
Strobe/Lamp Enabled: No (USB2E3373)
Correct for Detector Non-linearity: No (USB2E3373)
Correct for Stray Light: No (USB2E3373)
Number of Pixels in Processed Spectrum: 2048
>>>>>Begin Processed Spectral Data<<<<<
178.53	0.000
178.91	46.667
179.29	633.333
179.67	-1800.000
180.04	-30.769
180.42	1500.000
180.80	425.000
181.18	300.000
181.56	-262.500
181.94	800.000
182.31	575.000
182.69	-176.923
183.07	-433.333
183.45	1400.000
183.83	633.333
184.20	-285.714
184.58	-262.500
184.96	-350.000
185.34	137.500
185.72	-475.000
186.09	233.333
186.47	-50.000
186.85	-262.500
187.23	-125.000
187.61	-425.000
187.98	-312.500
188.36	-100.000
188.74	-200.000
189.12	1500.000
189.49	200.000
189.87	-50.000
190.25	550.000
190.63	-42.857
191.00	-122.222
191.38	620.000
191.76	-40.000
192.14	440.000
192.51	-240.000
192.89	-533.333
193.27	0.000
193.65	-144.444
194.02	-314.286
194.40	600.000
194.78	-110.000
195.15	-1200.000
195.53	-81.818
195.91	-483.333
196.29	200.000
196.66	-466.667
197.04	2400.000
197.42	-375.000
197.79	6.667
198.17	-166.667
198.55	-600.000
198.92	-1200.000
199.30	175.000
199.68	-600.000
200.05	-122.222
200.43	-277.778
200.81	-1500.000
201.18	-66.667
201.56	214.286
201.94	-46.667
202.31	-22.727
202.69	-30.000
203.07	-90.000
203.44	700.000
203.82	-333.333
204.19	-400.000
204.57	-200.000
204.95	-1500.000
205.32	-25.000
205.70	1000.000
206.08	-1200.000
206.45	-61.111
206.83	-950.000
207.20	-400.000
207.58	-533.333
207.96	-400.000
208.33	-137.500
208.71	-166.667
209.08	280.000
209.46	-128.571
209.84	300.000
210.21	0.000
210.59	55.000
210.96	900.000
211.34	-216.667
211.71	-333.333
212.09	275.000
212.46	350.000
212.84	-2500.000
213.22	500.000
213.59	83.333
213.97	-77.778
214.34	170.000
214.72	-150.000
215.09	-666.667
215.47	-133.333
215.84	-100.000
216.22	-120.000
216.59	-100.000
216.97	-300.000
217.34	1000.000
217.72	-28.571
218.09	-233.333
218.47	-57.143
218.84	185.714
219.22	-28.571
219.59	0.000
219.97	71.429
220.34	700.000
220.72	312.500
221.09	-84.615
221.47	0.000
221.84	566.667
222.22	-1000.000
222.59	600.000
222.97	-362.500
223.34	-750.000
223.72	-500.000
224.09	-28.571
224.46	-425.000
224.84	-100.000
225.21	-71.429
225.59	-45.455
225.96	-100.000
226.34	-85.714
226.71	-88.889
227.08	30.000
227.46	1800.000
227.83	-271.429
228.21	-212.500
228.58	350.000
228.95	-43.750
229.33	-1600.000
229.70	-260.000
230.08	-850.000
230.45	-66.667
230.82	-200.000
231.20	-700.000
231.57	-500.000
231.95	1000.000
232.32	-14.286
232.69	-144.444
233.07	-114.286
233.44	-1050.000
233.81	-60.000
234.19	-133.333
234.56	-31.250
234.93	-15.625
235.31	-185.714
235.68	-164.286
236.05	-47.059
236.43	-90.909
236.80	-12.903
237.17	-16.667
237.55	-61.905
237.92	-109.091
238.29	-37.143
238.67	-20.588
239.04	-27.778
239.41	-61.290
239.79	-20.513
240.16	-45.238
240.53	-25.455
240.91	-41.026
241.28	-27.273
241.65	-6.154
242.02	-21.311
242.40	-26.230
242.77	-19.697
243.14	-33.898
243.51	-21.429
243.89	-18.987
244.26	-15.730
244.63	-9.474
245.00	-31.579
245.38	-5.932
245.75	0.885
246.12	-0.800
246.49	-3.150
246.87	-17.886
247.24	-11.017
247.61	-8.475
247.98	-5.634
248.36	-9.091
248.73	-4.430
249.10	-8.280
249.47	-1.754
249.84	-6.250
250.22	-20.238
250.59	-5.650
250.96	-2.618
251.33	-3.318
251.70	-2.404
252.08	-4.265
252.45	-10.427
252.82	-4.286
253.19	-4.255
253.56	-6.855
253.94	-5.907
254.31	-7.296
254.68	0.000
255.05	-8.065
255.42	-1.587
255.79	-6.093
256.16	-2.745
256.54	-1.103
256.91	-1.515
257.28	-4.762
257.65	-5.674
258.02	-1.258
258.39	-1.338
258.76	-7.770
259.14	-1.543
259.51	-1.967
259.88	-4.268
260.25	0.311
260.62	-0.322
260.99	-5.638
261.36	-3.659
261.73	0.578
262.10	1.667
262.47	-3.989
262.85	1.429
263.22	-2.579
263.59	-9.231
263.96	-2.899
264.33	-2.168
264.70	-0.829
265.07	-2.198
265.44	-3.101
265.81	-0.258
266.18	-1.013
266.55	-1.471
266.92	-1.511
267.29	-0.969
267.66	-1.728
268.03	-0.483
268.40	-0.704
268.77	-0.964
269.14	-2.320
269.51	0.460
269.88	-2.982
270.25	-4.429
270.62	-2.517
270.99	-1.577
271.36	-1.166
271.73	-1.345
272.10	-0.915
272.47	-4.667
272.84	0.889
273.21	-1.835
273.58	-2.418
273.95	-1.535
274.32	-3.167
274.69	-1.313
275.06	0.818
275.43	-3.795
275.80	-0.407
276.17	0.000
276.54	1.426
276.91	-2.058
277.28	-0.406
277.65	1.033
278.02	1.253
278.39	1.375
278.76	0.000
279.13	-0.791
279.50	-1.789
279.87	-0.634
280.23	-1.215
280.60	-3.380
280.97	-3.301
281.34	-1.547
281.71	0.962
282.08	-1.613
282.45	-4.684
282.82	-2.713
283.19	-0.727
283.56	0.000
283.92	0.530
284.29	-0.372
284.66	-0.719
285.03	1.248
285.40	-2.030
285.77	-2.456
286.14	-2.888
286.51	-1.066
286.87	-0.544
287.24	0.512
287.61	-0.496
287.98	-1.560
288.35	-2.149
288.72	-0.679
289.08	-1.356
289.45	-1.515
289.82	-2.768
290.19	-0.328
290.56	-3.802
290.93	-0.954
291.29	-3.241
291.66	-0.966
292.03	0.471
292.40	0.301
292.77	-0.776
293.13	-0.813
293.50	0.297
293.87	0.613
294.24	0.151
294.60	-0.758
294.97	0.607
295.34	-0.148
295.71	-0.149
296.08	-2.304
296.44	-1.144
296.81	0.427
297.18	-0.141
297.55	-0.706
297.91	1.116
298.28	-0.959
298.65	-0.697
299.02	2.941
299.38	0.000
299.75	-0.408
300.12	0.256
300.48	0.000
300.85	-0.262
301.22	-1.035
301.59	-0.910
301.95	0.504
302.32	-1.304
302.69	-0.245
303.05	0.244
303.42	-1.125
303.79	-0.239
304.15	0.355
304.52	1.167
304.89	1.299
305.25	0.122
305.62	-0.705
305.99	2.356
306.35	1.554
306.72	-0.569
307.09	0.454
307.45	0.114
307.82	-0.559
308.19	1.454
308.55	0.871
308.92	-0.644
309.29	-0.541
309.65	0.106
310.02	1.512
310.38	-0.216
310.75	1.434
311.12	2.479
311.48	1.044
311.85	2.575
312.22	1.339
312.58	2.238
312.95	1.121
313.31	2.398
313.68	2.714
314.05	2.671
314.41	2.616
314.78	2.597
315.14	2.962
315.51	2.533
315.87	3.969
316.24	3.693
316.61	3.935
316.97	4.776
317.34	4.721
317.70	4.267
318.07	5.037
318.43	4.307
318.80	6.761
319.16	4.784
319.53	5.733
319.89	5.174
320.26	6.176
320.62	5.385
320.99	7.463
321.35	5.616
321.72	6.960
322.08	9.298
322.45	8.812
322.81	9.222
323.18	9.606
323.54	9.427
323.91	11.585
324.27	11.502
324.64	11.792
325.00	12.478
325.37	12.036
325.73	16.273
326.10	14.703
326.46	15.149
326.83	16.085
327.19	16.347
327.56	18.143
327.92	17.587
328.29	18.009
328.65	19.364
329.01	20.495
329.38	18.644
329.74	21.886
330.11	20.399
330.47	21.163
330.84	22.548
331.20	23.195
331.56	21.969
331.93	23.002
332.29	25.205
332.66	24.759
333.02	25.068
333.38	24.462
333.75	25.022
334.11	25.511
334.48	25.243
334.84	26.334
335.20	26.418
335.57	27.437
335.93	27.037
336.29	25.952
336.66	26.520
337.02	27.027
337.38	26.381
337.75	28.358
338.11	27.102
338.47	27.580
338.84	28.857
339.20	28.120
339.56	29.412
339.93	27.601
340.29	27.104
340.65	28.934
341.02	29.764
341.38	28.222
341.74	29.213
342.11	29.608
342.47	29.013
342.83	29.723
343.20	31.255
343.56	28.408
343.92	29.549
344.28	29.773
344.65	28.465
345.01	28.824
345.37	30.150
345.73	27.741
346.10	28.782
346.46	29.732
346.82	30.313
347.19	29.992
347.55	29.374
347.91	30.079
348.27	30.390
348.63	32.149
349.00	30.867
349.36	29.899
349.72	31.688
350.08	31.917
350.45	30.496
350.81	31.210
351.17	32.235
351.53	30.390
351.89	31.366
352.26	31.628
352.62	31.951
352.98	30.854
353.34	32.694
353.70	31.583
354.07	31.786
354.43	32.253
354.79	31.933
355.15	31.869
355.51	31.875
355.87	31.858
356.24	31.851
356.60	33.280
356.96	33.410
357.32	32.067
357.68	32.874
358.04	33.641
358.40	32.947
358.77	33.230
359.13	33.053
359.49	32.275
359.85	33.232
360.21	32.496
360.57	33.810
360.93	34.148
361.29	35.501
361.66	34.375
362.02	35.207
362.38	34.629
362.74	34.139
363.10	34.505
363.46	35.969
363.82	34.913
364.18	34.298
364.54	35.525
364.90	34.521
365.26	34.665
365.62	36.422
365.98	35.846
366.35	34.859
366.71	35.166
367.07	35.356
367.43	36.582
367.79	37.388
368.15	35.917
368.51	36.294
368.87	36.195
369.23	37.404
369.59	36.528
369.95	36.716
370.31	38.397
370.67	36.804
371.03	37.026
371.39	37.058
371.75	38.126
372.11	37.661
372.47	37.889
372.83	37.622
373.19	37.643
373.55	38.353
373.91	38.122
374.27	37.440
374.63	38.923
374.99	38.943
375.35	38.089
375.71	40.041
376.07	39.151
376.42	37.815
376.78	38.889
377.14	39.864
377.50	40.619
377.86	38.687
378.22	39.824
378.58	39.284
378.94	39.211
379.30	39.488
379.66	39.587
380.02	38.740
380.38	39.215
380.74	40.621
381.09	40.480
381.45	41.587
381.81	40.835
382.17	40.100
382.53	40.669
382.89	41.746
383.25	39.193
383.61	40.566
383.97	41.457
384.32	41.990
384.68	42.684
385.04	41.244
385.40	42.422
385.76	41.829
386.12	42.224
386.48	42.760
386.83	42.331
387.19	43.096
387.55	42.277
387.91	42.324
388.27	41.616
388.62	42.248
388.98	41.793
389.34	41.738
389.70	43.544
390.06	41.392
390.42	43.590
390.77	42.713
391.13	43.416
391.49	43.107
391.85	43.204
392.20	43.325
392.56	42.883
392.92	41.700
393.28	43.456
393.64	42.995
393.99	44.308
394.35	44.526
394.71	42.742
395.07	44.758
395.42	42.133
395.78	42.426
396.14	44.984
396.50	42.446
396.85	43.615
397.21	43.074
397.57	43.343
397.92	43.560
398.28	42.944
398.64	43.010
399.00	43.876
399.35	43.517
399.71	43.380
400.07	44.239
400.42	43.978
400.78	43.649
401.14	43.293
401.49	43.927
401.85	44.905
402.21	44.517
402.57	44.357
402.92	44.745
403.28	44.240
403.63	42.301
403.99	43.940
404.35	43.357
404.70	42.598
405.06	43.483
405.42	42.497
405.77	42.760
406.13	43.441
406.49	43.859
406.84	44.331
407.20	44.287
407.55	43.762
407.91	43.718
408.27	43.199
408.62	43.536
408.98	44.148
409.34	42.779
409.69	43.541
410.05	43.663
410.40	43.899
410.76	43.450
411.11	44.389
411.47	42.519
411.83	43.888
412.18	43.750
412.54	42.831
412.89	43.196
413.25	42.326
413.60	42.406
413.96	42.884
414.31	43.853
414.67	42.667
415.03	43.014
415.38	44.893
415.74	43.299
416.09	44.757
416.45	42.460
416.80	43.433
417.16	43.123
417.51	43.861
417.87	43.495
418.22	44.311
418.58	44.159
418.93	42.735
419.29	44.103
419.64	42.965
420.00	43.439
420.35	44.175
420.71	43.697
421.06	43.669
421.42	43.677
421.77	44.668
422.12	43.928
422.48	43.079
422.83	43.679
423.19	44.432
423.54	45.764
423.90	43.725
424.25	44.457
424.61	44.089
424.96	46.109
425.31	45.221
425.67	45.387
426.02	44.521
426.38	45.493
426.73	45.120
427.09	44.914
427.44	44.716
427.79	44.477
428.15	45.362
428.50	45.748
428.85	45.923
429.21	44.715
429.56	44.740
429.92	44.138
430.27	45.713
430.62	45.611
430.98	45.165
431.33	45.678
431.68	45.469
432.04	47.062
432.39	46.325
432.74	45.084
433.10	46.314
433.45	45.596
433.80	45.073
434.16	45.943
434.51	45.753
434.86	47.276
435.22	45.991
435.57	46.940
435.92	46.073
436.28	47.062
436.63	45.789
436.98	46.564
437.34	45.718
437.69	46.849
438.04	47.192
438.39	47.052
438.75	46.740
439.10	46.696
439.45	46.047
439.81	46.928
440.16	46.224
440.51	48.059
440.86	46.385
441.22	46.269
441.57	46.632
441.92	46.803
442.27	47.186
442.63	46.942
442.98	46.219
443.33	46.842
443.68	46.847
444.03	46.464
444.39	46.794
444.74	47.577
445.09	46.546
445.44	47.327
445.79	46.915
446.15	46.988
446.50	46.598
446.85	46.434
447.20	45.403
447.55	47.403
447.91	47.838
448.26	46.536
448.61	46.520
448.96	47.283
449.31	47.069
449.66	47.396
450.02	45.983
450.37	46.609
450.72	46.949
451.07	48.649
451.42	45.539
451.77	47.636
452.12	47.616
452.47	47.418
452.83	46.942
453.18	48.640
453.53	48.943
453.88	48.086
454.23	47.461
454.58	48.291
454.93	47.481
455.28	48.375
455.63	48.464
455.98	48.735
456.34	47.078
456.69	47.780
457.04	47.818
457.39	47.129
457.74	46.958
458.09	46.984
458.44	49.134
458.79	47.982
459.14	47.519
459.49	48.135
459.84	48.510
460.19	48.031
460.54	48.155
460.89	48.038
461.24	48.087
461.59	46.835
461.94	47.295
462.29	47.588
462.64	48.682
462.99	47.791
463.34	46.995
463.69	48.728
464.04	47.100
464.39	45.938
464.74	47.518
465.09	46.001
465.44	47.208
465.79	46.531
466.14	48.446
466.49	47.553
466.84	48.259
467.19	48.130
467.54	46.519
467.89	46.979
468.24	48.040
468.59	48.220
468.94	48.103
469.29	47.823
469.64	48.181
469.99	48.481
470.34	48.764
470.68	48.910
471.03	49.553
471.38	48.542
471.73	47.902
472.08	47.925
472.43	47.812
472.78	47.800
473.13	47.780
473.48	47.862
473.83	48.139
474.17	47.580
474.52	49.233
474.87	47.203
475.22	47.139
475.57	47.111
475.92	48.110
476.27	46.457
476.61	48.169
476.96	47.624
477.31	47.255
477.66	47.537
478.01	48.514
478.36	47.564
478.70	48.105
479.05	47.431
479.40	46.891
479.75	46.738
480.10	46.577
480.45	46.760
480.79	47.779
481.14	47.366
481.49	47.773
481.84	46.694
482.19	47.236
482.53	47.396
482.88	46.654
483.23	46.479
483.58	47.086
483.92	46.727
484.27	45.414
484.62	46.609
484.97	45.401
485.31	44.608
485.66	43.008
486.01	43.419
486.36	43.899
486.70	44.947
487.05	45.634
487.40	44.685
487.75	44.975
488.09	45.275
488.44	46.211
488.79	45.985
489.13	46.063
489.48	46.819
489.83	47.467
490.17	46.713
490.52	47.237
490.87	47.344
491.22	46.987
491.56	47.315
491.91	47.901
492.26	47.406
492.60	46.670
492.95	47.644
493.30	46.212
493.64	46.685
493.99	46.893
494.34	47.429
494.68	47.987
495.03	47.180
495.37	47.443
495.72	48.330
496.07	47.208
496.41	47.615
496.76	46.393
497.11	47.244
497.45	47.557
497.80	47.374
498.14	47.299
498.49	47.363
498.84	47.330
499.18	48.051
499.53	47.540
499.87	46.573
500.22	47.206
500.56	48.124
500.91	46.995
501.26	46.919
501.60	46.702
501.95	46.908
502.29	45.914
502.64	46.346
502.98	45.855
503.33	46.194
503.67	46.169
504.02	47.513
504.36	46.078
504.71	46.454
505.06	45.582
505.40	46.956
505.75	47.307
506.09	47.169
506.44	47.318
506.78	47.015
507.13	46.756
507.47	47.001
507.82	45.741
508.16	46.580
508.51	46.316
508.85	47.516
509.19	46.625
509.54	48.467
509.88	47.979
510.23	47.956
510.57	46.825
510.92	48.980
511.26	47.422
511.61	47.516
511.95	46.713
512.30	47.334
512.64	47.691
512.98	46.865
513.33	46.623
513.67	47.180
514.02	47.595
514.36	47.258
514.70	47.595
515.05	48.828
515.39	47.347
515.74	48.284
516.08	48.357
516.42	47.082
516.77	48.065
517.11	46.854
517.46	48.505
517.80	49.579
518.14	47.886
518.49	47.938
518.83	47.359
519.17	48.668
519.52	46.327
519.86	47.013
520.20	48.350
520.55	48.492
520.89	48.403
521.23	47.802
521.58	48.464
521.92	48.385
522.26	48.190
522.61	48.226
522.95	48.564
523.29	48.213
523.64	47.595
523.98	47.740
524.32	47.643
524.66	46.273
525.01	47.784
525.35	47.874
525.69	47.560
526.04	49.021
526.38	48.377
526.72	47.573
527.06	47.656
527.41	47.525
527.75	48.119
528.09	48.246
528.43	47.934
528.78	47.236
529.12	48.015
529.46	46.585
529.80	47.385
530.15	46.813
530.49	47.671
530.83	48.788
531.17	48.418
531.51	48.024
531.86	47.202
532.20	48.043
532.54	47.393
532.88	46.640
533.22	47.326
533.57	47.389
533.91	45.318
534.25	46.323
534.59	45.472
534.93	44.555
535.27	46.759
535.62	47.123
535.96	46.606
536.30	44.634
536.64	45.418
536.98	46.116
537.32	47.063
537.66	46.979
538.01	45.704
538.35	46.757
538.69	46.056
539.03	44.956
539.37	46.174
539.71	46.097
540.05	46.676
540.39	46.884
540.73	46.925
541.07	46.448
541.42	44.970
541.76	43.987
542.10	46.388
542.44	46.302
542.78	45.251
543.12	44.467
543.46	45.137
543.80	44.482
544.14	45.467
544.48	45.079
544.82	45.670
545.16	45.137
545.50	43.809
545.84	46.036
546.18	45.839
546.52	45.448
546.86	46.795
547.20	46.062
547.54	45.110
547.88	44.725
548.22	44.364
548.56	44.823
548.90	44.407
549.24	45.830
549.58	44.672
549.92	45.936
550.26	45.882
550.60	44.381
550.94	45.620
551.28	45.974
551.62	45.643
551.96	44.790
552.30	45.087
552.64	45.461
552.98	46.601
553.32	45.166
553.66	46.503
554.00	45.345
554.34	44.910
554.68	44.079
555.02	46.020
555.36	44.644
555.69	44.556
556.03	45.333
556.37	44.808
556.71	45.240
557.05	46.194
557.39	44.840
557.73	46.608
558.07	46.496
558.41	46.372
558.75	44.867
559.08	44.047
559.42	46.708
559.76	45.399
560.10	45.861
560.44	45.954
560.78	44.885
561.12	44.790
561.45	45.548
561.79	44.878
562.13	44.530
562.47	44.538
562.81	43.140
563.15	43.947
563.48	44.713
563.82	43.611
564.16	44.151
564.50	44.220
564.84	44.378
565.17	43.037
565.51	43.546
565.85	44.287
566.19	44.269
566.52	42.531
566.86	43.805
567.20	44.249
567.54	43.887
567.88	41.485
568.21	42.506
568.55	41.676
568.89	41.451
569.23	41.370
569.56	39.260
569.90	39.339
570.24	39.797
570.57	39.086
570.91	38.150
571.25	39.235
571.59	37.933
571.92	37.917
572.26	38.556
572.60	38.194
572.93	37.659
573.27	37.317
573.61	36.794
573.95	37.759
574.28	37.002
574.62	37.570
574.96	36.790
575.29	36.916
575.63	38.200
575.97	36.812
576.30	36.640
576.64	36.867
576.98	36.153
577.31	37.020
577.65	36.211
577.98	36.579
578.32	36.224
578.66	36.171
578.99	35.968
579.33	36.699
579.67	36.419
580.00	35.590
580.34	36.546
580.67	36.332
581.01	35.878
581.35	35.893
581.68	35.477
582.02	35.598
582.35	36.147
582.69	36.225
583.02	36.981
583.36	36.821
583.70	36.303
584.03	37.527
584.37	37.240
584.70	36.505
585.04	36.481
585.37	35.990
585.71	35.631
586.04	36.550
586.38	36.167
586.72	36.640
587.05	36.647
587.39	37.012
587.72	36.687
588.06	36.836
588.39	36.742
588.73	36.572
589.06	38.267
589.40	37.582
589.73	37.854
590.07	36.854
590.40	37.712
590.73	38.505
591.07	38.279
591.40	38.908
591.74	38.445
592.07	38.829
592.41	39.193
592.74	37.125
593.08	37.110
593.41	37.500
593.75	36.433
594.08	37.168
594.41	38.078
594.75	37.637
595.08	37.669
595.42	37.500
595.75	37.633
596.09	38.456
596.42	38.257
596.75	37.818
597.09	38.869
597.42	37.582
597.75	39.017
598.09	38.364
598.42	38.003
598.76	37.832
599.09	37.885
599.42	37.370
599.76	36.920
600.09	37.023
600.42	37.030
600.76	37.326
601.09	38.017
601.42	37.159
601.76	37.967
602.09	37.914
602.42	37.737
602.76	37.516
603.09	37.500
603.42	37.309
603.76	38.133
604.09	37.325
604.42	37.760
604.76	37.069
605.09	38.653
605.42	37.677
605.75	37.947
606.09	37.111
606.42	36.741
606.75	37.742
607.09	37.936
607.42	38.292
607.75	37.483
608.08	38.545
608.42	38.127
608.75	38.271
609.08	38.091
609.41	37.519
609.75	37.250
610.08	37.451
610.41	37.398
610.74	38.491
611.07	37.982
611.41	37.670
611.74	37.789
612.07	40.011
612.40	38.326
612.73	38.665
613.07	38.470
613.40	39.737
613.73	38.910
614.06	38.935
614.39	39.853
614.72	37.207
615.06	37.283
615.39	38.416
615.72	38.240
616.05	37.604
616.38	38.886
616.71	38.619
617.05	39.023
617.38	38.885
617.71	39.005
618.04	39.876
618.37	39.182
618.70	40.352
619.03	39.133
619.36	40.874
619.69	40.416
620.03	38.981
620.36	39.662
620.69	41.206
621.02	40.868
621.35	40.887
621.68	41.639
622.01	41.586
622.34	40.606
622.67	40.156
623.00	41.393
623.33	40.224
623.66	38.922
623.99	40.752
624.32	39.509
624.65	39.294
624.99	39.806
625.32	39.895
625.65	40.171
625.98	40.532
626.31	41.925
626.64	40.251
626.97	41.524
627.30	40.851
627.63	42.314
627.96	42.907
628.29	42.555
628.62	41.165
628.95	42.421
629.28	41.635
629.61	42.395
629.94	42.628
630.26	41.153
630.59	43.317
630.92	42.843
631.25	43.448
631.58	43.280
631.91	40.638
632.24	43.000
632.57	44.111
