SpectraSuite Data File
++++++++++++++++++++++++++++++++++++
Date: Sat May 16 11:24:27 PDT 2015
User: schluterlab
Dark Spectrum Present: Yes
Reference Spectrum Present: Yes
Number of Sampled Component Spectra: 1
Spectrometers: USB2E3373
Integration Time (usec): 3000 (USB2E3373)
Spectra Averaged: 3 (USB2E3373)
Boxcar Smoothing: 0 (USB2E3373)
Correct for Electrical Dark: No (USB2E3373)
Strobe/Lamp Enabled: No (USB2E3373)
Correct for Detector Non-linearity: No (USB2E3373)
Correct for Stray Light: No (USB2E3373)
Number of Pixels in Processed Spectrum: 2048
>>>>>Begin Processed Spectral Data<<<<<
178.53	0.000
178.91	173.333
179.29	733.333
179.67	-600.000
180.04	-84.615
180.42	1300.000
180.80	525.000
181.18	350.000
181.56	0.000
181.94	1200.000
182.31	500.000
182.69	-7.692
183.07	-666.667
183.45	1200.000
183.83	233.333
184.20	-200.000
184.58	-187.500
184.96	-400.000
185.34	106.250
185.72	-275.000
186.09	116.667
186.47	-137.500
186.85	-112.500
187.23	-50.000
187.61	0.000
187.98	-262.500
188.36	-100.000
188.74	-112.500
189.12	1000.000
189.49	200.000
189.87	-100.000
190.25	200.000
190.63	-64.286
191.00	-144.444
191.38	280.000
191.76	0.000
192.14	480.000
192.51	-400.000
192.89	-533.333
193.27	0.000
193.65	-133.333
194.02	-328.571
194.40	500.000
194.78	-90.000
195.15	-1800.000
195.53	-145.455
195.91	-400.000
196.29	160.000
196.66	-333.333
197.04	1100.000
197.42	100.000
197.79	13.333
198.17	-366.667
198.55	-200.000
198.92	-1100.000
199.30	150.000
199.68	-900.000
200.05	-100.000
200.43	-177.778
200.81	-1200.000
201.18	-158.333
201.56	285.714
201.94	-106.667
202.31	-13.636
202.69	-120.000
203.07	-100.000
203.44	666.667
203.82	-383.333
204.19	-550.000
204.57	-150.000
204.95	-1400.000
205.32	-31.250
205.70	1200.000
206.08	-2200.000
206.45	-38.889
206.83	-550.000
207.20	0.000
207.58	-800.000
207.96	-500.000
208.33	-187.500
208.71	-155.556
209.08	280.000
209.46	-228.571
209.84	300.000
210.21	0.000
210.59	10.000
210.96	1100.000
211.34	-116.667
211.71	-466.667
212.09	275.000
212.46	950.000
212.84	-2000.000
213.22	600.000
213.59	158.333
213.97	-55.556
214.34	100.000
214.72	-100.000
215.09	-200.000
215.47	-266.667
215.84	0.000
216.22	-80.000
216.59	-20.000
216.97	-600.000
217.34	400.000
217.72	-128.571
218.09	-416.667
218.47	-271.429
218.84	-0.000
219.22	-85.714
219.59	0.000
219.97	228.571
220.34	675.000
220.72	137.500
221.09	-61.538
221.47	0.000
221.84	233.333
222.22	-300.000
222.59	2100.000
222.97	-237.500
223.34	-600.000
223.72	-166.667
224.09	-114.286
224.46	-450.000
224.84	42.857
225.21	-142.857
225.59	-81.818
225.96	-237.500
226.34	-128.571
226.71	-211.111
227.08	40.000
227.46	2000.000
227.83	-114.286
228.21	-225.000
228.58	1000.000
228.95	-31.250
229.33	-1800.000
229.70	-180.000
230.08	-900.000
230.45	-100.000
230.82	-266.667
231.20	-1300.000
231.57	-900.000
231.95	1800.000
232.32	-33.333
232.69	-177.778
233.07	-142.857
233.44	-800.000
233.81	-120.000
234.19	-66.667
234.56	0.000
234.93	-21.875
235.31	-300.000
235.68	-135.714
236.05	-94.118
236.43	-40.909
236.80	-35.484
237.17	-58.333
237.55	-42.857
237.92	-63.636
238.29	-62.857
238.67	-29.412
239.04	-22.222
239.41	-67.742
239.79	-43.590
240.16	-33.333
240.53	-18.182
240.91	-25.641
241.28	-9.091
241.65	-7.692
242.02	-6.557
242.40	-29.508
242.77	-9.091
243.14	-33.898
243.51	-31.429
243.89	-16.456
244.26	-12.360
244.63	-9.474
245.00	-11.579
245.38	-1.695
245.75	-6.195
246.12	-16.000
246.49	-10.236
246.87	-6.504
247.24	-16.949
247.61	-18.644
247.98	-10.563
248.36	-11.888
248.73	-5.696
249.10	-10.191
249.47	1.170
249.84	-6.250
250.22	-13.690
250.59	-3.955
250.96	-6.806
251.33	-0.948
251.70	-3.365
252.08	-0.948
252.45	-5.687
252.82	-7.143
253.19	-2.553
253.56	-1.210
253.94	-4.641
254.31	-4.292
254.68	-3.659
255.05	-9.274
255.42	-1.984
255.79	-4.659
256.16	2.745
256.54	-0.735
256.91	-5.682
257.28	-5.861
257.65	-2.128
258.02	0.314
258.39	-2.341
258.76	-3.041
259.14	-3.704
259.51	0.656
259.88	-4.573
260.25	0.311
260.62	-4.823
260.99	-3.561
261.36	1.829
261.73	-2.023
262.10	0.278
262.47	0.000
262.85	2.857
263.22	-4.011
263.59	-4.923
263.96	-4.058
264.33	0.271
264.70	-4.696
265.07	-1.099
265.44	0.258
265.81	-1.034
266.18	-1.772
266.55	-2.696
266.92	0.756
267.29	-0.484
267.66	-3.951
268.03	-0.966
268.40	-0.939
268.77	-0.964
269.14	-3.248
269.51	3.448
269.88	-2.064
270.25	-5.361
270.62	-1.144
270.99	-1.351
271.36	-2.564
271.73	0.673
272.10	-2.975
272.47	-2.222
272.84	0.000
273.21	-1.606
273.58	-2.198
273.95	-0.877
274.32	-2.262
274.69	-0.656
275.06	0.818
275.43	-0.446
275.80	1.629
276.17	0.000
276.54	2.037
276.91	-2.263
277.28	-0.406
277.65	-1.240
278.02	0.209
278.39	-1.572
278.76	-1.992
279.13	0.000
279.50	-2.187
279.87	-1.057
280.23	1.619
280.60	-0.199
280.97	-1.748
281.34	-1.934
281.71	1.346
282.08	-0.806
282.45	-3.259
282.82	0.194
283.19	0.909
283.56	1.832
283.92	-0.530
284.29	-1.301
284.66	-0.180
285.03	2.496
285.40	-0.554
285.77	0.000
286.14	-0.903
286.51	-1.243
286.87	0.726
287.24	1.195
287.61	0.331
287.98	-0.347
288.35	-0.496
288.72	-1.528
289.08	-2.881
289.45	0.000
289.82	-2.422
290.19	1.149
290.56	-0.992
290.93	2.385
291.29	-0.972
291.66	-0.805
292.03	2.512
292.40	1.054
292.77	0.932
293.13	0.650
293.50	0.149
293.87	0.920
294.24	0.603
294.60	-1.515
294.97	1.062
295.34	0.593
295.71	1.042
296.08	-1.075
296.44	-0.143
296.81	0.427
297.18	0.986
297.55	0.424
297.91	-0.139
298.28	-0.548
298.65	-0.697
299.02	2.005
299.38	0.000
299.75	-0.272
300.12	2.051
300.48	0.256
300.85	0.655
301.22	1.164
301.59	0.130
301.95	3.149
302.32	-0.913
302.69	2.203
303.05	0.855
303.42	1.000
303.79	1.077
304.15	0.948
304.52	2.334
304.89	2.007
305.25	0.000
305.62	1.058
305.99	3.416
306.35	2.553
306.72	1.139
307.09	2.838
307.45	2.270
307.82	0.782
308.19	1.790
308.55	2.179
308.92	0.537
309.29	2.811
309.65	1.803
310.02	1.944
310.38	0.216
310.75	2.254
311.12	2.479
311.48	1.983
311.85	2.987
312.22	1.751
312.58	3.764
312.95	4.587
313.31	2.098
313.68	3.618
314.05	4.352
314.41	1.207
314.78	2.498
315.14	3.455
315.51	3.141
315.87	3.388
316.24	4.082
316.61	5.182
316.97	5.373
317.34	4.335
317.70	4.267
318.07	5.970
318.43	4.775
318.80	6.385
319.16	4.878
319.53	5.733
319.89	5.268
320.26	5.784
320.62	5.096
320.99	5.672
321.35	4.729
321.72	4.913
322.08	6.429
322.45	5.446
322.81	7.012
323.18	7.012
323.54	6.377
323.91	7.044
324.27	7.034
324.64	7.130
325.00	7.243
325.37	8.326
325.73	9.361
326.10	6.466
326.46	7.793
326.83	8.340
327.19	9.091
327.56	9.796
327.92	8.921
328.29	9.437
328.65	7.818
329.01	9.187
329.38	9.634
329.74	10.440
330.11	9.338
330.47	9.628
330.84	10.174
331.20	9.747
331.56	9.207
331.93	10.568
332.29	11.233
332.66	9.833
333.02	10.317
333.38	9.767
333.75	10.686
334.11	10.311
334.48	9.885
334.84	11.286
335.20	11.436
335.57	11.011
335.93	11.728
336.29	11.160
336.66	10.308
337.02	10.541
337.38	11.408
337.75	10.975
338.11	11.360
338.47	10.854
338.84	11.162
339.20	11.511
339.56	12.389
339.93	9.965
340.29	10.629
340.65	10.839
341.02	11.973
341.38	10.531
341.74	10.415
342.11	11.433
342.47	10.215
342.83	9.992
343.20	10.931
343.56	9.959
343.92	12.437
344.28	11.606
344.65	9.901
345.01	11.092
345.37	12.292
345.73	10.311
346.10	9.648
346.46	9.829
346.82	10.265
347.19	10.518
347.55	10.594
347.91	10.945
348.27	9.626
348.63	11.551
349.00	10.979
349.36	10.695
349.72	11.146
350.08	11.307
350.45	11.190
350.81	11.545
351.17	9.405
351.53	9.387
351.89	9.701
352.26	10.620
352.62	12.212
352.98	11.392
353.34	11.431
353.70	9.884
354.07	11.094
354.43	11.858
354.79	11.727
355.15	10.863
355.51	10.859
355.87	9.565
356.24	10.405
356.60	10.717
356.96	12.317
357.32	10.689
357.68	10.805
358.04	10.778
358.40	10.209
358.77	10.819
359.13	10.788
359.49	11.187
359.85	10.671
360.21	11.492
360.57	11.596
360.93	11.111
361.29	11.360
361.66	10.290
362.02	11.169
362.38	12.399
362.74	11.575
363.10	10.904
363.46	11.966
363.82	12.026
364.18	11.650
364.54	13.081
364.90	11.321
365.26	11.769
365.62	12.188
365.98	12.233
366.35	12.042
366.71	11.487
367.07	12.562
367.43	13.384
367.79	12.784
368.15	11.024
368.51	12.587
368.87	12.637
369.23	12.982
369.59	13.194
369.95	12.121
370.31	13.221
370.67	11.714
371.03	13.557
371.39	13.013
371.75	13.090
372.11	13.558
372.47	13.015
372.83	13.282
373.19	13.786
373.55	13.512
373.91	13.869
374.27	12.731
374.63	12.974
374.99	13.839
375.35	13.122
375.71	13.842
376.07	14.511
376.42	12.252
376.78	13.987
377.14	13.966
377.50	13.346
377.86	13.329
378.22	13.379
378.58	13.527
378.94	13.748
379.30	13.711
379.66	14.268
380.02	14.439
380.38	14.079
380.74	13.951
381.09	14.470
381.45	15.215
381.81	13.612
382.17	14.160
382.53	14.529
382.89	15.132
383.25	15.111
383.61	14.917
383.97	15.126
384.32	15.957
384.68	15.175
385.04	15.821
385.40	15.033
385.76	16.341
386.12	15.490
386.48	15.223
386.83	15.583
387.19	16.139
387.55	15.748
387.91	15.649
388.27	15.501
388.62	14.724
388.98	15.385
389.34	15.789
389.70	16.626
390.06	15.538
390.42	16.218
390.77	15.205
391.13	16.646
391.49	15.908
391.85	16.209
392.20	16.262
392.56	15.211
392.92	16.372
393.28	16.131
393.64	16.236
393.99	16.554
394.35	16.545
394.71	16.306
395.07	16.573
395.42	16.508
395.78	15.588
396.14	16.137
396.50	16.636
396.85	16.163
397.21	16.889
397.57	16.535
397.92	16.511
398.28	16.444
398.64	16.776
399.00	17.360
399.35	16.234
399.71	16.609
400.07	16.060
400.42	16.910
400.78	15.504
401.14	16.467
401.49	16.097
401.85	16.656
402.21	16.150
402.57	16.990
402.92	16.614
403.28	17.034
403.63	15.698
403.99	17.029
404.35	16.002
404.70	16.501
405.06	16.897
405.42	15.867
405.77	15.498
406.13	15.786
406.49	17.076
406.84	15.657
407.20	16.667
407.55	16.339
407.91	14.896
408.27	16.115
408.62	16.416
408.98	16.495
409.34	16.453
409.69	16.761
410.05	16.434
410.40	16.125
410.76	16.894
411.11	16.147
411.47	16.560
411.83	17.054
412.18	16.399
412.54	15.802
412.89	17.132
413.25	16.234
413.60	15.371
413.96	16.143
414.31	16.208
414.67	15.683
415.03	16.947
415.38	16.005
415.74	16.237
416.09	17.391
416.45	16.667
416.80	16.840
417.16	16.944
417.51	17.203
417.87	16.311
418.22	17.826
418.58	16.816
418.93	17.167
419.29	17.315
419.64	16.332
420.00	17.132
420.35	17.445
420.71	17.407
421.06	17.337
421.42	17.740
421.77	18.314
422.12	17.292
422.48	17.477
422.83	17.483
423.19	17.539
423.54	17.579
423.90	17.756
424.25	18.269
424.61	18.335
424.96	18.432
425.31	17.943
425.67	18.739
426.02	18.072
426.38	18.512
426.73	18.644
427.09	18.444
427.44	19.148
427.79	18.779
428.15	19.689
428.50	18.710
428.85	18.765
429.21	18.539
429.56	19.583
429.92	18.637
430.27	18.694
430.62	19.906
430.98	19.132
431.33	19.530
431.68	20.322
432.04	20.593
432.39	20.114
432.74	19.904
433.10	20.484
433.45	19.171
433.80	19.709
434.16	20.258
434.51	20.932
434.86	20.504
435.22	19.989
435.57	19.767
435.92	20.281
436.28	20.356
436.63	19.446
436.98	19.473
437.34	21.087
437.69	20.653
438.04	20.363
438.39	20.878
438.75	21.013
439.10	21.877
439.45	20.278
439.81	20.361
440.16	21.806
440.51	21.588
440.86	20.648
441.22	20.287
441.57	22.000
441.92	21.944
442.27	21.050
442.63	21.996
442.98	20.767
443.33	21.691
443.68	20.948
444.03	21.611
444.39	21.292
444.74	22.137
445.09	21.656
445.44	21.441
445.79	21.163
446.15	22.070
446.50	20.958
446.85	22.422
447.20	21.757
447.55	21.989
447.91	22.347
448.26	22.458
448.61	22.128
448.96	22.857
449.31	21.646
449.66	21.981
450.02	21.717
450.37	22.087
450.72	22.034
451.07	23.382
451.42	22.305
451.77	22.561
452.12	22.646
452.47	22.985
452.83	22.365
453.18	22.391
453.53	22.264
453.88	22.907
454.23	22.068
454.58	22.312
454.93	22.670
455.28	22.180
455.63	22.727
455.98	23.072
456.34	22.109
456.69	23.765
457.04	23.417
457.39	21.830
457.74	23.095
458.09	22.506
458.44	23.614
458.79	22.814
459.14	23.103
459.49	22.795
459.84	22.709
460.19	23.389
460.54	21.779
460.89	23.038
461.24	23.012
461.59	23.505
461.94	23.425
462.29	22.752
462.64	22.859
462.99	23.293
463.34	23.295
463.69	22.837
464.04	22.203
464.39	22.700
464.74	22.754
465.09	22.730
465.44	23.519
465.79	23.407
466.14	23.188
466.49	22.913
466.84	22.989
467.19	23.566
467.54	21.646
467.89	24.414
468.24	23.100
468.59	23.173
468.94	22.315
469.29	22.287
469.64	24.124
469.99	24.240
470.34	23.113
470.68	23.547
471.03	23.813
471.38	23.056
471.73	23.357
472.08	23.896
472.43	22.909
472.78	23.400
473.13	22.531
473.48	23.038
473.83	24.069
474.17	23.631
474.52	24.297
474.87	23.252
475.22	23.068
475.57	22.667
475.92	24.082
476.27	23.543
476.61	23.437
476.96	23.309
477.31	22.659
477.66	23.243
478.01	23.123
478.36	23.049
478.70	24.026
479.05	22.985
479.40	23.005
479.75	23.242
480.10	23.661
480.45	22.679
480.79	23.692
481.14	23.683
481.49	23.136
481.84	23.486
482.19	23.390
482.53	22.869
482.88	22.639
483.23	23.427
483.58	24.006
483.92	23.841
484.27	22.818
484.62	22.808
484.97	23.383
485.31	22.688
485.66	22.329
486.01	22.316
486.36	23.225
486.70	24.055
487.05	23.401
487.40	23.317
487.75	22.965
488.09	22.514
488.44	23.342
488.79	23.488
489.13	23.051
489.48	23.002
489.83	23.100
490.17	23.465
490.52	23.958
490.87	22.864
491.22	23.027
491.56	22.917
491.91	23.950
492.26	23.349
492.60	23.739
492.95	22.941
493.30	23.154
493.64	22.238
493.99	22.610
494.34	23.667
494.68	23.736
495.03	23.040
495.37	23.009
495.72	22.593
496.07	23.229
496.41	23.205
496.76	23.242
497.11	23.363
497.45	23.228
497.80	23.612
498.14	23.477
498.49	22.903
498.84	22.767
499.18	23.294
499.53	23.088
499.87	22.442
500.22	23.186
500.56	23.162
500.91	23.153
501.26	23.241
501.60	22.773
501.95	23.285
502.29	22.390
502.64	23.810
502.98	22.472
503.33	22.979
503.67	22.701
504.02	23.081
504.36	23.529
504.71	22.391
505.06	22.716
505.40	23.852
505.75	23.120
506.09	23.812
506.44	22.957
506.78	24.084
507.13	22.863
507.47	23.526
507.82	23.438
508.16	23.731
508.51	23.442
508.85	23.447
509.19	22.606
509.54	23.097
509.88	22.713
510.23	23.532
510.57	24.021
510.92	23.147
511.26	22.807
511.61	23.434
511.95	22.953
512.30	22.760
512.64	21.925
512.98	23.817
513.33	23.613
513.67	23.841
514.02	22.819
514.36	23.934
514.70	23.316
515.05	23.556
515.39	23.472
515.74	24.258
516.08	22.939
516.42	23.003
516.77	23.686
517.11	23.627
517.46	24.821
517.80	23.345
518.14	23.913
518.49	23.013
518.83	22.730
519.17	23.623
519.52	22.267
519.86	23.059
520.20	23.533
520.55	23.262
520.89	23.920
521.23	23.932
521.58	23.135
521.92	24.129
522.26	23.302
522.61	24.018
522.95	22.974
523.29	23.699
523.64	23.548
523.98	23.361
524.32	23.130
524.66	22.857
525.01	23.057
525.35	23.518
525.69	24.073
526.04	23.825
526.38	23.297
526.72	21.903
527.06	24.284
527.41	23.234
527.75	22.244
528.09	22.766
528.43	23.148
528.78	24.121
529.12	24.200
529.46	22.809
529.80	23.112
530.15	24.340
530.49	24.191
530.83	24.231
531.17	23.569
531.51	22.639
531.86	22.976
532.20	23.077
532.54	23.529
532.88	23.123
533.22	23.529
533.57	23.760
533.91	23.783
534.25	21.873
534.59	22.049
534.93	22.402
535.27	22.907
535.62	23.210
535.96	22.431
536.30	22.055
536.64	23.307
536.98	23.517
537.32	23.220
537.66	21.860
538.01	23.299
538.35	23.108
538.69	23.061
539.03	23.629
539.37	23.021
539.71	22.949
540.05	22.755
540.39	23.338
540.73	23.359
541.07	23.019
541.42	22.890
541.76	22.591
542.10	22.890
542.44	23.251
542.78	23.202
543.12	23.693
543.46	22.466
543.80	23.077
544.14	21.760
544.48	23.031
544.82	22.530
545.16	22.938
545.50	22.140
545.84	23.088
546.18	23.162
546.52	22.902
546.86	23.291
547.20	23.277
547.54	21.763
547.88	22.827
548.22	21.822
548.56	21.977
548.90	22.978
549.24	22.845
549.58	22.653
549.92	23.251
550.26	23.194
550.60	22.475
550.94	22.628
551.28	23.552
551.62	22.526
551.96	23.878
552.30	22.927
552.64	23.645
552.98	23.686
553.32	22.799
553.66	23.216
554.00	22.317
554.34	22.094
554.68	22.807
555.02	24.240
555.36	21.783
555.69	22.421
556.03	22.807
556.37	22.973
556.71	23.336
557.05	22.690
557.39	23.088
557.73	24.070
558.07	23.964
558.41	22.812
558.75	23.498
559.08	21.556
559.42	23.277
559.76	22.546
560.10	23.639
560.44	22.832
560.78	22.269
561.12	22.843
561.45	22.877
561.79	23.066
562.13	23.142
562.47	23.109
562.81	22.207
563.15	23.583
563.48	22.460
563.82	22.921
564.16	22.312
564.50	22.648
564.84	22.354
565.17	22.082
565.51	23.272
565.85	24.003
566.19	23.518
566.52	22.635
566.86	22.882
567.20	23.366
567.54	22.918
567.88	22.166
568.21	23.154
568.55	21.898
568.89	21.918
569.23	21.657
569.56	21.732
569.90	22.227
570.24	21.984
570.57	21.265
570.91	22.237
571.25	21.920
571.59	22.416
571.92	21.726
572.26	22.229
572.60	21.440
572.93	21.771
573.27	21.280
573.61	21.279
573.95	21.767
574.28	21.129
574.62	21.454
574.96	21.186
575.29	21.672
575.63	21.927
575.97	21.278
576.30	21.513
576.64	21.514
576.98	21.174
577.31	21.597
577.65	21.315
577.98	20.947
578.32	21.385
578.66	21.291
578.99	20.802
579.33	21.326
579.67	21.227
580.00	21.081
580.34	21.600
580.67	21.574
581.01	20.887
581.35	20.913
581.68	21.412
582.02	21.682
582.35	21.624
582.69	22.157
583.02	21.640
583.36	21.687
583.70	21.582
584.03	21.579
584.37	21.651
584.70	21.597
585.04	22.152
585.37	21.790
585.71	21.916
586.04	22.036
586.38	21.759
586.72	22.097
587.05	22.062
587.39	22.070
587.72	22.060
588.06	22.613
588.39	22.130
588.73	22.480
589.06	22.730
589.40	22.879
589.73	21.919
590.07	22.068
590.40	21.956
590.73	22.591
591.07	22.049
591.40	22.747
591.74	23.110
592.07	22.387
592.41	22.548
592.74	22.867
593.08	23.000
593.41	22.303
593.75	22.057
594.08	22.502
594.41	22.847
594.75	22.877
595.08	22.820
595.42	23.085
595.75	22.712
596.09	22.429
596.42	22.545
596.75	22.941
597.09	22.974
597.42	22.959
597.75	23.384
598.09	23.362
598.42	22.448
598.76	21.844
599.09	22.494
599.42	22.491
599.76	22.914
600.09	22.710
600.42	23.319
600.76	22.486
601.09	22.256
601.42	22.319
601.76	22.936
602.09	22.372
602.42	22.881
602.76	22.767
603.09	22.661
603.42	22.965
603.76	22.417
604.09	22.827
604.42	22.065
604.76	22.678
605.09	23.237
605.42	23.537
605.75	22.337
606.09	23.205
606.42	22.371
606.75	22.885
607.09	22.982
607.42	22.491
607.75	22.693
608.08	23.814
608.42	23.368
608.75	22.430
609.08	22.942
609.41	21.923
609.75	23.013
610.08	23.235
610.41	22.217
610.74	23.646
611.07	23.124
611.41	22.138
611.74	23.496
612.07	24.060
612.40	23.454
612.73	23.748
613.07	22.124
613.40	22.879
613.73	23.869
614.06	22.735
614.39	24.070
614.72	23.128
615.06	22.880
615.39	23.006
615.72	23.683
616.05	22.363
616.38	23.447
616.71	23.483
617.05	22.919
617.38	24.272
617.71	22.604
618.04	24.348
618.37	23.711
618.70	23.533
619.03	22.817
619.36	23.749
619.69	23.762
620.03	23.691
620.36	23.699
620.69	22.900
621.02	22.907
621.35	23.468
621.68	22.869
622.01	24.515
622.34	24.457
622.67	23.594
623.00	23.259
623.33	23.881
623.66	22.600
623.99	23.534
624.32	23.140
624.65	23.547
624.99	23.301
625.32	24.326
625.65	24.165
625.98	23.787
626.31	23.491
626.64	23.013
626.97	24.144
627.30	24.000
627.63	21.934
627.96	24.108
628.29	25.092
628.62	24.164
628.95	24.803
629.28	24.060
629.61	24.828
629.94	24.197
630.26	24.553
630.59	24.121
630.92	23.524
631.25	25.101
631.58	23.704
631.91	23.085
632.24	24.667
632.57	23.556
632.90	24.483
633.23	23.832
633.56	23.275
633.89	24.410
634.22	24.321
