SpectraSuite Data File
++++++++++++++++++++++++++++++++++++
Date: Sat May 16 11:23:07 PDT 2015
User: schluterlab
Dark Spectrum Present: Yes
Reference Spectrum Present: Yes
Number of Sampled Component Spectra: 1
Spectrometers: USB2E3373
Integration Time (usec): 3000 (USB2E3373)
Spectra Averaged: 3 (USB2E3373)
Boxcar Smoothing: 0 (USB2E3373)
Correct for Electrical Dark: No (USB2E3373)
Strobe/Lamp Enabled: No (USB2E3373)
Correct for Detector Non-linearity: No (USB2E3373)
Correct for Stray Light: No (USB2E3373)
Number of Pixels in Processed Spectrum: 2048
>>>>>Begin Processed Spectral Data<<<<<
178.53	0.000
178.91	93.333
179.29	533.333
179.67	-700.000
180.04	-76.923
180.42	600.000
180.80	400.000
181.18	425.000
181.56	-150.000
181.94	1000.000
182.31	550.000
182.69	-53.846
183.07	-566.667
183.45	1000.000
183.83	433.333
184.20	-185.714
184.58	-137.500
184.96	-225.000
185.34	93.750
185.72	-275.000
186.09	183.333
186.47	-275.000
186.85	-162.500
187.23	-87.500
187.61	-175.000
187.98	-312.500
188.36	-162.500
188.74	-150.000
189.12	1800.000
189.49	428.571
189.87	0.000
190.25	225.000
190.63	0.000
191.00	-200.000
191.38	260.000
191.76	46.667
192.14	440.000
192.51	-340.000
192.89	-366.667
193.27	0.000
193.65	-133.333
194.02	-71.429
194.40	566.667
194.78	-180.000
195.15	-1600.000
195.53	-136.364
195.91	-333.333
196.29	240.000
196.66	-800.000
197.04	2400.000
197.42	25.000
197.79	6.667
198.17	33.333
198.55	-500.000
198.92	-2400.000
199.30	162.500
199.68	-350.000
200.05	-66.667
200.43	-177.778
200.81	-2300.000
201.18	-133.333
201.56	100.000
201.94	13.333
202.31	4.545
202.69	-60.000
203.07	-30.000
203.44	866.667
203.82	-466.667
204.19	-450.000
204.57	-325.000
204.95	-2500.000
205.32	-56.250
205.70	1300.000
206.08	-1400.000
206.45	-27.778
206.83	-600.000
207.20	150.000
207.58	-633.333
207.96	-366.667
208.33	-212.500
208.71	-44.444
209.08	240.000
209.46	-257.143
209.84	1200.000
210.21	0.000
210.59	0.000
210.96	300.000
211.34	-366.667
211.71	-133.333
212.09	375.000
212.46	900.000
212.84	-1800.000
213.22	433.333
213.59	125.000
213.97	-11.111
214.34	230.000
214.72	-160.000
215.09	-433.333
215.47	-133.333
215.84	-90.000
216.22	-80.000
216.59	-20.000
216.97	-550.000
217.34	750.000
217.72	-100.000
218.09	-266.667
218.47	-285.714
218.84	442.857
219.22	-42.857
219.59	0.000
219.97	157.143
220.34	350.000
220.72	212.500
221.09	-38.462
221.47	0.000
221.84	333.333
222.22	-350.000
222.59	400.000
222.97	-150.000
223.34	-650.000
223.72	-566.667
224.09	-114.286
224.46	-425.000
224.84	-14.286
225.21	-114.286
225.59	-100.000
225.96	-137.500
226.34	-200.000
226.71	-244.444
227.08	-10.000
227.46	3100.000
227.83	-228.571
228.21	-162.500
228.58	600.000
228.95	-56.250
229.33	-1800.000
229.70	-260.000
230.08	-800.000
230.45	-33.333
230.82	-83.333
231.20	-500.000
231.57	-350.000
231.95	1000.000
232.32	-9.524
232.69	-111.111
233.07	-157.143
233.44	-1000.000
233.81	-53.333
234.19	-133.333
234.56	-31.250
234.93	-9.375
235.31	-157.143
235.68	-121.429
236.05	0.000
236.43	-113.636
236.80	3.226
237.17	-12.500
237.55	-85.714
237.92	-63.636
238.29	-20.000
238.67	0.000
239.04	-27.778
239.41	-22.581
239.79	-51.282
240.16	-33.333
240.53	-21.818
240.91	-30.769
241.28	0.000
241.65	-9.231
242.02	-1.639
242.40	-8.197
242.77	-6.061
243.14	-13.559
243.51	-15.714
243.89	-10.127
244.26	-6.742
244.63	5.263
245.00	-1.053
245.38	2.542
245.75	-1.770
246.12	10.400
246.49	3.937
246.87	-2.439
247.24	-4.237
247.61	-15.254
247.98	6.338
248.36	-5.594
248.73	-2.532
249.10	1.274
249.47	-1.754
249.84	2.273
250.22	-8.333
250.59	7.910
250.96	1.571
251.33	9.953
251.70	4.808
252.08	0.474
252.45	-3.318
252.82	0.000
253.19	3.404
253.56	2.016
253.94	5.485
254.31	0.000
254.68	6.911
255.05	5.645
255.42	5.556
255.79	0.000
256.16	5.490
256.54	7.353
256.91	2.273
257.28	2.930
257.65	2.482
258.02	4.403
258.39	4.013
258.76	2.703
259.14	4.938
259.51	3.607
259.88	6.402
260.25	3.416
260.62	2.572
260.99	2.374
261.36	3.354
261.73	7.514
262.10	7.222
262.47	5.983
262.85	6.857
263.22	4.871
263.59	2.154
263.96	5.507
264.33	7.859
264.70	6.077
265.07	6.319
265.44	3.101
265.81	8.527
266.18	2.278
266.55	4.167
266.92	6.549
267.29	4.600
267.66	5.926
268.03	7.246
268.40	5.164
268.77	5.301
269.14	7.657
269.51	6.207
269.88	1.606
270.25	3.497
270.62	5.950
270.99	3.829
271.36	6.527
271.73	5.605
272.10	7.094
272.47	3.778
272.84	7.778
273.21	6.422
273.58	6.154
273.95	4.386
274.32	7.240
274.69	6.783
275.06	6.748
275.43	2.455
275.80	6.721
276.17	4.603
276.54	5.703
276.91	4.527
277.28	4.462
277.65	5.165
278.02	7.098
278.39	6.876
278.76	5.378
279.13	7.905
279.50	6.561
279.87	6.977
280.23	5.668
280.60	4.970
280.97	6.214
281.34	5.996
281.71	5.192
282.08	4.637
282.45	2.648
282.82	4.457
283.19	5.636
283.56	9.707
283.92	6.714
284.29	5.948
284.66	7.014
285.03	7.665
285.40	7.011
285.77	7.368
286.14	4.152
286.51	6.039
286.87	7.078
287.24	6.826
287.61	6.942
287.98	5.373
288.35	4.463
288.72	6.452
289.08	3.729
289.45	5.556
289.82	5.017
290.19	5.911
290.56	5.455
290.93	4.610
291.29	3.728
291.66	5.153
292.03	7.849
292.40	5.271
292.77	5.280
293.13	6.667
293.50	6.835
293.87	6.595
294.24	5.279
294.60	3.788
294.97	5.008
295.34	5.333
295.71	6.250
296.08	4.608
296.44	4.864
296.81	4.131
297.18	5.211
297.55	7.062
297.91	6.974
298.28	5.205
298.65	5.439
299.02	7.086
299.38	6.551
299.75	6.250
300.12	6.282
300.48	6.266
300.85	5.767
301.22	5.433
301.59	5.462
301.95	6.675
302.32	4.172
302.69	5.998
303.05	4.274
303.42	5.875
303.79	6.459
304.15	6.161
304.52	5.484
304.89	6.021
305.25	5.128
305.62	6.463
305.99	7.303
306.35	6.437
306.72	5.239
307.09	6.356
307.45	5.902
307.82	4.804
308.19	6.711
308.55	6.209
308.92	6.015
309.29	5.514
309.65	6.045
310.02	6.263
310.38	6.270
310.75	5.533
311.12	7.025
311.48	6.785
311.85	6.076
312.22	6.797
312.58	7.935
312.95	7.849
313.31	6.593
313.68	6.332
314.05	6.627
314.41	5.936
314.78	4.995
315.14	7.009
315.51	7.497
315.87	9.100
316.24	7.677
316.61	8.829
316.97	8.060
317.34	7.225
317.70	6.957
318.07	7.836
318.43	8.333
318.80	8.263
319.16	7.692
319.53	8.647
319.89	6.491
320.26	7.451
320.62	7.019
320.99	8.756
321.35	6.404
321.72	6.960
322.08	9.001
322.45	7.822
322.81	7.589
323.18	7.973
323.54	8.041
323.91	8.156
324.27	8.365
324.64	7.404
325.00	8.901
325.37	9.050
325.73	9.624
326.10	7.972
326.46	10.070
326.83	9.021
327.19	9.174
327.56	10.221
327.92	9.941
328.29	8.139
328.65	8.727
329.01	9.541
329.38	9.991
329.74	10.623
330.11	10.154
330.47	9.628
330.84	9.808
331.20	9.477
331.56	10.210
331.93	10.124
332.29	10.868
332.66	10.360
333.02	10.045
333.38	10.573
333.75	11.131
334.11	9.422
334.48	9.797
334.84	10.761
335.20	9.486
335.57	10.830
335.93	12.175
336.29	10.363
336.66	10.308
337.02	11.081
337.38	9.804
337.75	11.501
338.11	10.018
338.47	10.320
338.84	11.071
339.20	10.896
339.56	11.408
339.93	11.111
340.29	10.806
340.65	11.538
341.02	10.961
341.38	11.120
341.74	11.516
342.11	11.860
342.47	10.815
342.83	10.579
343.20	10.589
343.56	9.714
343.92	11.770
344.28	10.934
344.65	10.314
345.01	11.008
345.37	12.292
345.73	10.065
346.10	9.894
346.46	11.292
346.82	11.067
347.19	11.011
347.55	10.915
347.91	11.811
348.27	10.660
348.63	12.359
349.00	11.933
349.36	9.133
349.72	11.624
350.08	10.345
350.45	10.402
350.81	11.943
351.17	9.968
351.53	10.263
351.89	11.964
352.26	11.628
352.62	12.596
352.98	10.997
353.34	11.511
353.70	10.656
354.07	12.116
354.43	11.462
354.79	11.094
355.15	11.342
355.51	11.406
355.87	10.909
356.24	11.676
356.60	11.281
356.96	11.701
357.32	11.560
357.68	11.111
358.04	11.701
358.40	12.142
358.77	11.360
359.13	11.171
359.49	11.036
359.85	12.348
360.21	12.100
360.57	11.747
360.93	12.370
361.29	12.407
361.66	10.137
362.02	11.834
362.38	12.913
362.74	12.234
363.10	10.904
363.46	12.749
363.82	12.682
364.18	13.169
364.54	12.723
364.90	12.509
365.26	11.698
365.62	13.115
365.98	13.016
366.35	12.394
366.71	12.403
367.07	12.703
367.43	13.040
367.79	12.715
368.15	12.802
368.51	13.497
368.87	13.599
369.23	12.561
369.59	13.194
369.95	13.601
370.31	13.643
370.67	12.509
371.03	13.338
371.39	12.376
371.75	13.662
372.11	13.056
372.47	13.377
372.83	13.561
373.19	13.643
373.55	14.567
373.91	14.438
374.27	13.689
374.63	14.424
374.99	14.395
375.35	13.122
375.71	14.990
376.07	14.237
376.42	13.510
376.78	14.183
377.14	14.780
377.50	14.894
377.86	14.499
378.22	14.636
378.58	14.577
378.94	14.858
379.30	14.808
379.66	14.572
380.02	14.379
380.38	14.622
380.74	14.947
381.09	14.997
381.45	14.558
381.81	14.338
382.17	15.288
382.53	15.319
382.89	14.773
383.25	16.315
383.61	15.625
383.97	16.228
384.32	15.707
384.68	16.022
385.04	15.821
385.40	16.068
385.76	16.037
386.12	17.052
386.48	16.832
386.83	16.258
387.19	16.856
387.55	16.233
387.91	16.005
388.27	15.501
388.62	16.466
388.98	17.020
389.34	16.401
389.70	16.870
390.06	16.718
390.42	16.923
390.77	16.845
391.13	17.950
391.49	16.968
391.85	17.643
392.20	17.051
392.56	16.860
392.92	17.342
393.28	18.197
393.64	17.559
393.99	18.031
394.35	16.971
394.71	17.727
395.07	17.326
395.42	17.282
395.78	17.222
396.14	17.570
396.50	17.982
396.85	18.075
397.21	17.740
397.57	18.419
397.92	17.740
398.28	17.444
398.64	17.549
399.00	18.989
399.35	17.136
399.71	18.409
400.07	18.925
400.42	18.431
400.78	17.293
401.14	17.964
401.49	17.040
401.85	17.938
402.21	17.640
402.57	18.083
402.92	18.125
403.28	18.076
403.63	17.615
403.99	18.397
404.35	17.995
404.70	19.075
405.06	19.839
405.42	18.512
405.77	17.421
406.13	18.455
406.49	18.814
406.84	18.476
407.20	19.081
407.55	17.606
407.91	17.746
408.27	18.505
408.62	17.919
408.98	18.375
409.34	18.464
409.69	17.454
410.05	18.557
410.40	18.394
410.76	19.265
411.11	19.140
411.47	17.519
411.83	18.704
412.18	18.626
412.54	18.243
412.89	18.591
413.25	17.828
413.60	18.165
413.96	18.608
414.31	19.083
414.67	18.349
415.03	18.823
415.38	18.543
415.74	18.750
416.09	18.798
416.45	18.519
416.80	19.571
417.16	19.003
417.51	18.976
417.87	19.612
418.22	18.584
418.58	19.320
418.93	18.823
419.29	19.072
419.64	19.221
420.00	19.806
420.35	19.219
420.71	18.848
421.06	18.757
421.42	18.384
421.77	19.542
422.12	20.145
422.48	19.081
422.83	19.590
423.19	18.820
423.54	19.769
423.90	18.855
424.25	19.231
424.61	19.903
424.96	19.661
425.31	20.067
425.67	19.427
426.02	19.793
426.38	20.690
426.73	20.281
427.09	20.650
427.44	20.568
427.79	19.651
428.15	20.527
428.50	20.293
428.85	20.444
429.21	20.033
429.56	20.104
429.92	19.990
430.27	20.788
430.62	20.481
430.98	20.230
431.33	20.277
431.68	21.072
432.04	20.537
432.39	20.342
432.74	21.043
433.10	20.878
433.45	20.207
433.80	20.885
434.16	20.688
434.51	20.603
434.86	21.558
435.22	20.601
435.57	20.624
435.92	21.805
436.28	21.484
436.63	21.029
436.98	21.077
437.34	21.500
437.69	21.004
438.04	20.987
438.39	21.600
438.75	21.013
439.10	21.377
439.45	21.304
439.81	21.265
440.16	21.465
440.51	22.412
440.86	21.515
441.22	21.338
441.57	21.105
441.92	21.944
442.27	21.699
442.63	21.888
442.98	21.445
443.33	21.966
443.68	21.522
444.03	22.250
444.39	22.026
444.74	22.577
445.09	21.217
445.44	22.228
445.79	21.673
446.15	22.289
446.50	21.502
446.85	22.319
447.20	21.399
447.55	22.320
447.91	22.572
448.26	22.737
448.61	22.128
448.96	22.241
449.31	22.210
449.66	21.866
450.02	21.440
450.37	22.319
450.72	21.638
451.07	22.690
451.42	21.995
451.77	22.142
452.12	22.288
452.47	22.796
452.83	22.831
453.18	23.150
453.53	22.326
453.88	23.086
454.23	22.551
454.58	23.182
454.93	22.481
455.28	21.734
455.63	22.850
455.98	22.771
456.34	22.363
456.69	22.389
457.04	22.926
457.39	22.309
457.74	22.623
458.09	23.376
458.44	23.152
458.79	22.814
459.14	22.989
459.49	22.972
459.84	23.047
460.19	23.210
460.54	22.989
460.89	22.702
461.24	23.376
461.59	23.623
461.94	23.425
462.29	23.526
462.64	22.859
462.99	24.096
463.34	23.835
463.69	22.901
464.04	23.023
464.39	22.700
464.74	23.168
465.09	22.309
465.44	23.689
465.79	23.632
466.14	23.993
466.49	22.740
466.84	23.649
467.19	24.377
467.54	22.911
467.89	24.353
468.24	24.109
468.59	24.047
468.94	24.309
469.29	23.067
469.64	24.528
469.99	25.051
470.34	24.048
470.68	24.491
471.03	25.327
471.38	23.125
471.73	24.406
472.08	24.297
472.43	25.290
472.78	24.200
473.13	24.453
473.48	24.633
473.83	24.132
474.17	25.223
474.52	25.448
474.87	25.117
475.22	24.484
475.57	23.389
475.92	25.000
476.27	25.086
476.61	24.563
476.96	24.762
477.31	25.081
477.66	25.069
478.01	25.770
478.36	24.935
478.70	24.987
479.05	25.041
479.40	25.699
479.75	25.280
480.10	25.397
480.45	25.145
480.79	25.321
481.14	25.088
481.49	25.557
481.84	24.873
482.19	25.628
482.53	25.473
482.88	25.771
483.23	24.883
483.58	26.549
483.92	24.940
484.27	24.457
484.62	25.529
484.97	25.370
485.31	23.808
485.66	23.636
486.01	23.529
486.36	24.110
486.70	24.466
487.05	24.301
487.40	25.214
487.75	24.088
488.09	24.089
488.44	24.763
488.79	24.903
489.13	24.914
489.48	25.163
489.83	24.934
490.17	26.121
490.52	26.359
490.87	25.681
491.22	25.876
491.56	25.880
491.91	26.479
492.26	26.651
492.60	26.118
492.95	25.464
493.30	26.298
493.64	26.610
493.99	25.765
494.34	26.429
494.68	26.264
495.03	25.430
495.37	26.155
495.72	25.982
496.07	26.795
496.41	27.050
496.76	26.073
497.11	27.273
497.45	26.964
497.80	27.314
498.14	26.326
498.49	25.565
498.84	25.922
499.18	26.803
499.53	26.449
499.87	26.882
500.22	26.814
500.56	26.463
500.91	26.502
501.26	27.123
501.60	26.240
501.95	28.309
502.29	26.972
502.64	26.403
502.98	26.785
503.33	27.632
503.67	26.868
504.02	26.654
504.36	27.990
504.71	27.001
505.06	26.161
505.40	27.645
505.75	27.541
506.09	26.997
506.44	27.569
506.78	27.998
507.13	27.909
507.47	27.334
507.82	28.240
508.16	27.927
508.51	28.387
508.85	28.675
509.19	28.885
509.54	28.700
509.88	29.043
510.23	27.621
510.57	29.735
510.92	29.431
511.26	28.070
511.61	27.916
511.95	29.472
512.30	29.357
512.64	28.937
512.98	29.593
513.33	30.038
513.67	29.257
514.02	29.362
514.36	29.861
514.70	30.504
515.05	30.017
515.39	29.123
515.74	30.832
516.08	30.663
516.42	30.028
516.77	30.329
517.11	30.263
517.46	31.160
517.80	30.385
518.14	31.280
518.49	30.903
518.83	30.861
519.17	30.965
519.52	30.075
519.86	32.019
520.20	31.112
520.55	31.692
520.89	30.996
521.23	30.525
521.58	30.721
521.92	31.412
522.26	32.063
522.61	31.939
522.95	32.291
523.29	31.160
523.64	31.668
523.98	32.527
524.32	32.307
524.66	30.311
525.01	33.076
525.35	32.668
525.69	30.514
526.04	32.963
526.38	33.864
526.72	32.120
527.06	31.771
527.41	32.211
527.75	30.957
528.09	32.892
528.43	32.000
528.78	31.533
529.12	32.522
529.46	32.088
529.80	32.150
530.15	32.067
530.49	32.083
530.83	33.333
531.17	33.939
531.51	32.351
531.86	32.126
532.20	33.873
532.54	34.291
532.88	31.423
533.22	32.019
533.57	32.572
533.91	31.710
534.25	31.867
534.59	32.230
534.93	31.487
535.27	32.347
535.62	33.120
535.96	32.515
536.30	30.890
536.64	32.205
536.98	33.333
537.32	32.550
537.66	32.722
538.01	32.027
538.35	32.500
538.69	32.353
539.03	33.649
539.37	31.737
539.71	32.955
540.05	32.419
540.39	33.033
540.73	32.343
541.07	33.470
541.42	32.208
541.76	31.628
542.10	32.546
542.44	33.578
542.78	32.157
543.12	33.333
543.46	31.712
543.80	30.970
544.14	31.565
544.48	32.612
544.82	32.882
545.16	32.327
545.50	31.763
545.84	33.032
546.18	32.663
546.52	33.642
546.86	32.764
547.20	33.333
547.54	31.474
547.88	32.183
548.22	31.389
548.56	30.661
548.90	32.075
549.24	33.567
549.58	33.380
549.92	33.428
550.26	33.743
550.60	33.642
550.94	32.774
551.28	33.333
551.62	33.456
551.96	32.562
552.30	32.544
552.64	34.624
552.98	33.146
553.32	33.550
553.66	34.030
554.00	34.399
554.34	31.625
554.68	33.480
555.02	32.851
555.36	31.488
555.69	31.877
556.03	32.561
556.37	32.788
556.71	32.498
557.05	32.964
557.39	34.001
557.73	33.552
558.07	33.459
558.41	34.031
558.75	33.232
559.08	32.451
559.42	33.308
559.76	33.512
560.10	33.706
560.44	34.249
560.78	32.568
561.12	32.988
561.45	33.493
561.79	31.638
562.13	32.328
562.47	32.143
562.81	32.320
563.15	32.750
563.48	33.379
563.82	32.928
564.16	32.928
564.50	32.796
564.84	32.738
565.17	31.897
565.51	32.203
565.85	33.401
566.19	32.872
566.52	32.290
566.86	32.238
567.20	32.385
567.54	32.605
567.88	31.602
568.21	31.152
568.55	31.442
568.89	30.368
569.23	30.819
569.56	30.853
569.90	30.842
570.24	31.229
570.57	29.244
570.91	29.004
571.25	30.026
571.59	30.315
571.92	28.839
572.26	29.329
572.60	29.476
572.93	28.461
573.27	28.415
573.61	28.133
573.95	28.925
574.28	28.457
574.62	29.029
574.96	28.415
575.29	28.557
575.63	28.564
575.97	28.263
576.30	28.419
576.64	28.486
576.98	28.266
577.31	28.462
577.65	28.472
577.98	27.963
578.32	28.099
578.66	28.256
578.99	28.159
579.33	28.561
579.67	28.405
580.00	28.224
580.34	28.082
580.67	27.825
581.01	27.742
581.35	28.319
581.68	27.710
582.02	28.328
582.35	28.178
582.69	28.356
583.02	28.227
583.36	28.646
583.70	28.111
584.03	28.664
584.37	28.985
584.70	28.152
585.04	28.253
585.37	28.162
585.71	27.987
586.04	28.774
586.38	28.094
586.72	28.523
587.05	28.774
587.39	28.899
587.72	28.856
588.06	28.308
588.39	28.681
588.73	28.877
589.06	29.412
589.40	29.921
589.73	29.037
590.07	28.878
590.40	29.742
590.73	29.068
591.07	29.918
591.40	31.109
591.74	29.670
592.07	30.225
592.41	30.106
592.74	30.246
593.08	29.488
593.41	28.750
593.75	29.212
594.08	29.691
594.41	30.055
594.75	29.709
595.08	30.150
595.42	29.371
595.75	28.997
596.09	29.569
596.42	30.155
596.75	28.935
597.09	29.920
597.42	29.943
597.75	29.805
598.09	29.417
598.42	30.358
598.76	29.485
599.09	29.084
599.42	29.450
599.76	29.407
600.09	29.656
600.42	30.801
600.76	30.282
601.09	28.978
601.42	28.967
601.76	30.218
602.09	29.325
602.42	29.342
602.76	29.165
603.09	29.476
603.42	29.936
603.76	29.517
604.09	30.036
604.42	29.392
604.76	29.743
605.09	30.154
605.42	30.142
605.75	30.056
606.09	29.846
606.42	30.876
606.75	29.970
607.09	29.951
607.42	29.930
607.75	30.949
608.08	31.089
608.42	30.132
608.75	30.093
609.08	30.102
609.41	30.344
609.75	30.132
610.08	30.392
610.41	30.265
610.74	30.609
611.07	30.832
611.41	30.308
611.74	31.003
612.07	31.847
612.40	30.757
612.73	30.318
613.07	30.765
613.40	31.801
613.73	31.553
614.06	30.038
614.39	31.962
614.72	31.285
615.06	30.870
615.39	30.385
615.72	30.853
616.05	29.542
616.38	31.457
616.71	31.171
617.05	31.906
617.38	31.455
617.71	31.081
618.04	32.236
618.37	31.635
618.70	33.312
619.03	30.873
619.36	32.840
619.69	32.950
620.03	31.818
620.36	31.927
620.69	32.304
621.02	33.562
621.35	32.984
621.68	32.869
622.01	32.524
622.34	34.161
622.67	33.281
623.00	32.441
623.33	31.343
623.66	31.388
623.99	32.556
624.32	32.812
624.65	32.450
624.99	32.039
625.32	32.260
625.65	32.789
625.98	33.099
626.31	32.871
626.64	32.887
626.97	33.048
627.30	33.191
627.63	31.779
627.96	32.724
628.29	33.364
628.62	35.530
628.95	34.941
629.28	32.331
629.61	32.777
629.94	33.270
630.26	36.083
630.59	33.769
630.92	34.134
631.25	34.375
631.58	35.979
631.91	33.830
632.24	33.778
632.57	36.778
632.90	36.322
633.23	35.397
633.56	33.918
633.89	35.259
634.22	35.065
634.55	35.457
634.88	37.001
635.20	34.831
635.53	35.496
635.86	35.264
636.19	34.432
636.52	34.648
