SpectraSuite Data File
++++++++++++++++++++++++++++++++++++
Date: Sat May 16 11:29:10 PDT 2015
User: schluterlab
Dark Spectrum Present: Yes
Reference Spectrum Present: Yes
Number of Sampled Component Spectra: 1
Spectrometers: USB2E3373
Integration Time (usec): 3000 (USB2E3373)
Spectra Averaged: 3 (USB2E3373)
Boxcar Smoothing: 0 (USB2E3373)
Correct for Electrical Dark: No (USB2E3373)
Strobe/Lamp Enabled: No (USB2E3373)
Correct for Detector Non-linearity: No (USB2E3373)
Correct for Stray Light: No (USB2E3373)
Number of Pixels in Processed Spectrum: 2048
>>>>>Begin Processed Spectral Data<<<<<
178.53	0.000
178.91	126.667
179.29	733.333
179.67	-1300.000
180.04	-30.769
180.42	1600.000
180.80	325.000
181.18	450.000
181.56	-37.500
181.94	1800.000
182.31	300.000
182.69	-46.154
183.07	-466.667
183.45	1300.000
183.83	433.333
184.20	-100.000
184.58	-62.500
184.96	-450.000
185.34	81.250
185.72	-500.000
186.09	166.667
186.47	-200.000
186.85	-175.000
187.23	37.500
187.61	-300.000
187.98	-312.500
188.36	-162.500
188.74	-187.500
189.12	1200.000
189.49	342.857
189.87	-16.667
190.25	475.000
190.63	7.143
191.00	-188.889
191.38	360.000
191.76	-13.333
192.14	380.000
192.51	-120.000
192.89	-433.333
193.27	0.000
193.65	-177.778
194.02	-300.000
194.40	633.333
194.78	-180.000
195.15	-1300.000
195.53	-145.455
195.91	-400.000
196.29	200.000
196.66	-233.333
197.04	2700.000
197.42	-250.000
197.79	0.000
198.17	-633.333
198.55	-550.000
198.92	-1000.000
199.30	287.500
199.68	-750.000
200.05	-133.333
200.43	-166.667
200.81	-2500.000
201.18	-50.000
201.56	314.286
201.94	-26.667
202.31	-40.909
202.69	-30.000
203.07	-140.000
203.44	533.333
203.82	-250.000
204.19	-150.000
204.57	-275.000
204.95	-1800.000
205.32	-12.500
205.70	700.000
206.08	-2200.000
206.45	-61.111
206.83	-1250.000
207.20	350.000
207.58	-833.333
207.96	-533.333
208.33	-212.500
208.71	-100.000
209.08	230.000
209.46	-257.143
209.84	1150.000
210.21	0.000
210.59	10.000
210.96	300.000
211.34	-233.333
211.71	-300.000
212.09	100.000
212.46	900.000
212.84	-2300.000
213.22	700.000
213.59	150.000
213.97	-144.444
214.34	170.000
214.72	-50.000
215.09	-133.333
215.47	-233.333
215.84	-60.000
216.22	-170.000
216.59	-26.667
216.97	-400.000
217.34	700.000
217.72	-28.571
218.09	-283.333
218.47	-314.286
218.84	228.571
219.22	-228.571
219.59	0.000
219.97	200.000
220.34	325.000
220.72	187.500
221.09	-76.923
221.47	0.000
221.84	233.333
222.22	-300.000
222.59	800.000
222.97	-212.500
223.34	-500.000
223.72	-566.667
224.09	-100.000
224.46	-325.000
224.84	-71.429
225.21	-214.286
225.59	-9.091
225.96	-137.500
226.34	-142.857
226.71	-133.333
227.08	10.000
227.46	1800.000
227.83	-157.143
228.21	-212.500
228.58	600.000
228.95	-6.250
229.33	-1300.000
229.70	-80.000
230.08	-950.000
230.45	41.667
230.82	-266.667
231.20	-1200.000
231.57	-600.000
231.95	2000.000
232.32	14.286
232.69	-111.111
233.07	-285.714
233.44	-1300.000
233.81	-53.333
234.19	-166.667
234.56	-62.500
234.93	31.250
235.31	-28.571
235.68	-107.143
236.05	-100.000
236.43	-54.545
236.80	3.226
237.17	8.333
237.55	-14.286
237.92	-95.455
238.29	-22.857
238.67	-20.588
239.04	27.778
239.41	-19.355
239.79	12.821
240.16	14.286
240.53	9.091
240.91	25.641
241.28	21.818
241.65	24.615
242.02	31.148
242.40	34.426
242.77	39.394
243.14	20.339
243.51	35.714
243.89	22.785
244.26	29.213
244.63	28.421
245.00	32.632
245.38	31.356
245.75	32.743
246.12	28.800
246.49	37.008
246.87	34.959
247.24	32.203
247.61	27.119
247.98	31.690
248.36	27.273
248.73	36.076
249.10	36.943
249.47	24.561
249.84	40.341
250.22	30.357
250.59	38.418
250.96	39.791
251.33	42.180
251.70	32.212
252.08	32.227
252.45	29.384
252.82	36.667
253.19	31.489
253.56	33.065
253.94	32.489
254.31	37.339
254.68	42.276
255.05	38.710
255.42	41.667
255.79	31.183
256.16	40.000
256.54	44.485
256.91	38.258
257.28	32.967
257.65	38.298
258.02	38.365
258.39	37.793
258.76	36.149
259.14	37.037
259.51	37.377
259.88	37.500
260.25	40.062
260.62	42.444
260.99	36.499
261.36	39.024
261.73	40.751
262.10	38.889
262.47	40.741
262.85	40.286
263.22	35.530
263.59	39.385
263.96	39.420
264.33	37.127
264.70	40.884
265.07	39.286
265.44	37.984
265.81	37.984
266.18	38.228
266.55	37.255
266.92	39.798
267.29	37.288
267.66	37.037
268.03	39.855
268.40	41.549
268.77	39.759
269.14	38.747
269.51	40.690
269.88	32.798
270.25	37.762
270.62	38.444
270.99	35.811
271.36	41.492
271.73	38.341
272.10	39.130
272.47	37.556
272.84	39.778
273.21	37.615
273.58	40.440
273.95	38.816
274.32	40.045
274.69	41.138
275.06	39.059
275.43	38.393
275.80	38.697
276.17	38.912
276.54	41.752
276.91	41.152
277.28	38.945
277.65	40.496
278.02	40.710
278.39	41.257
278.76	41.235
279.13	38.735
279.50	41.352
279.87	39.746
280.23	39.069
280.60	39.165
280.97	39.612
281.34	40.426
281.71	39.808
282.08	43.750
282.45	38.697
282.82	38.566
283.19	36.182
283.56	40.110
283.92	40.636
284.29	37.361
284.66	35.971
285.03	39.394
285.40	40.959
285.77	40.175
286.14	39.350
286.51	36.234
286.87	38.838
287.24	39.590
287.61	36.198
287.98	37.088
288.35	36.198
288.72	34.975
289.08	32.881
289.45	35.185
289.82	36.678
290.19	35.961
290.56	34.711
290.93	34.817
291.29	35.170
291.66	35.588
292.03	34.380
292.40	33.133
292.77	32.764
293.13	33.821
293.50	33.581
293.87	33.129
294.24	33.183
294.60	31.970
294.97	34.446
295.34	31.704
295.71	32.738
296.08	32.258
296.44	29.900
296.81	33.761
297.18	29.437
297.55	32.345
297.91	31.381
298.28	31.918
298.65	30.683
299.02	32.888
299.38	31.283
299.75	30.978
300.12	30.128
300.48	29.412
300.85	29.096
301.22	28.849
301.59	29.129
301.95	29.597
302.32	29.074
302.69	29.865
303.05	29.182
303.42	29.125
303.79	30.024
304.15	28.318
304.52	26.954
304.89	28.217
305.25	28.571
305.62	28.555
305.99	29.918
306.35	27.969
306.72	26.538
307.09	29.058
307.45	27.242
307.82	26.480
308.19	28.300
308.55	27.342
308.92	26.423
309.29	26.919
309.65	25.769
310.02	26.998
310.38	26.595
310.75	26.742
311.12	26.963
311.48	26.827
311.85	26.365
312.22	26.880
312.58	26.144
312.95	26.504
313.31	27.572
313.68	27.136
314.05	26.706
314.41	25.252
314.78	25.475
315.14	25.370
315.51	26.342
315.87	26.621
316.24	25.753
316.61	25.912
316.97	26.468
317.34	25.337
317.70	25.510
318.07	25.560
318.43	25.187
318.80	25.352
319.16	25.516
319.53	25.470
319.89	24.271
320.26	26.667
320.62	25.577
320.99	24.876
321.35	23.448
321.72	24.258
322.08	26.409
322.45	24.059
322.81	25.841
323.18	25.072
323.54	25.878
323.91	25.209
324.27	25.000
324.64	25.137
325.00	23.997
325.37	24.344
325.73	26.422
326.10	24.446
326.46	24.518
326.83	24.340
327.19	25.271
327.56	25.298
327.92	25.743
328.29	24.329
328.65	24.727
329.01	24.647
329.38	23.729
329.74	24.542
330.11	24.207
330.47	24.523
330.84	25.115
331.20	23.466
331.56	24.521
331.93	23.890
332.29	24.658
332.66	24.934
333.02	24.525
333.38	25.538
333.75	25.467
334.11	24.711
334.48	23.654
334.84	24.234
335.20	24.113
335.57	23.466
335.93	24.172
336.29	23.826
336.66	23.348
337.02	23.874
337.38	23.351
337.75	23.881
338.11	23.792
338.47	23.932
338.84	24.319
339.20	23.023
339.56	24.242
339.93	24.427
340.29	22.675
340.65	23.164
341.02	22.850
341.38	23.673
341.74	23.370
342.11	23.464
342.47	22.747
342.83	23.342
343.20	22.545
343.56	22.531
343.92	23.205
344.28	25.147
344.65	22.690
345.01	22.521
345.37	23.671
345.73	22.504
346.10	22.895
346.46	21.365
346.82	23.015
347.19	22.514
347.55	22.873
347.91	22.283
348.27	22.912
348.63	23.506
349.00	22.673
349.36	22.248
349.72	23.646
350.08	21.893
350.45	21.986
350.81	23.010
351.17	22.347
351.53	21.718
351.89	23.605
352.26	22.636
352.62	23.041
352.98	22.152
353.34	22.942
353.70	21.081
354.07	22.266
354.43	23.478
354.79	22.742
355.15	21.885
355.51	22.109
355.87	22.609
356.24	21.604
356.60	23.691
356.96	21.555
357.32	22.090
357.68	21.379
358.04	21.401
358.40	22.506
358.77	21.329
359.13	22.035
359.49	23.129
359.85	21.113
360.21	21.233
360.57	22.666
360.93	22.296
361.29	22.870
361.66	21.723
362.02	22.411
362.38	21.203
362.74	21.538
363.10	20.445
363.46	22.080
363.82	21.793
364.18	22.069
364.54	23.016
364.90	21.733
365.26	21.469
365.62	21.810
365.98	22.262
366.35	22.113
366.71	21.494
367.07	21.665
367.43	21.688
367.79	22.131
368.15	20.768
368.51	22.727
368.87	22.253
369.23	22.175
369.59	21.944
369.95	21.705
370.31	22.785
370.67	20.969
371.03	20.991
371.39	21.004
371.75	22.246
372.11	22.238
372.47	21.547
372.83	21.558
373.19	22.357
373.55	21.534
373.91	22.119
374.27	22.245
374.63	20.911
374.99	22.392
375.35	22.073
375.71	22.890
376.07	22.040
376.42	19.735
376.78	21.373
377.14	22.169
377.50	21.728
377.86	22.497
378.22	21.482
378.58	21.865
378.94	21.455
379.30	22.060
379.66	21.554
380.02	21.212
380.38	21.208
380.74	21.512
381.09	22.203
381.45	20.943
381.81	21.658
382.17	21.241
382.53	21.398
382.89	22.309
383.25	22.396
383.61	20.932
383.97	21.678
384.32	21.589
384.68	21.524
385.04	21.135
385.40	21.789
385.76	22.073
386.12	21.924
386.48	22.153
386.83	21.350
387.19	22.534
387.55	21.805
387.91	21.162
388.27	20.808
388.62	21.575
388.98	21.987
389.34	21.665
389.70	21.255
390.06	21.193
390.42	22.051
390.77	21.893
391.13	22.236
391.49	21.023
391.85	22.444
392.20	20.874
392.56	21.014
392.92	21.791
393.28	21.699
393.64	21.046
393.99	22.154
394.35	23.054
394.71	21.186
395.07	22.285
395.42	20.441
395.78	20.302
396.14	22.181
396.50	21.284
396.85	20.173
397.21	20.960
397.57	21.945
397.92	22.717
398.28	21.444
398.64	21.356
399.00	22.640
399.35	22.266
399.71	21.777
400.07	22.448
400.42	22.567
400.78	21.348
401.14	20.958
401.49	21.108
401.85	22.148
402.21	21.395
402.57	22.633
402.92	21.838
403.28	21.262
403.63	20.731
403.99	21.877
404.35	20.713
404.70	21.943
405.06	22.203
405.42	21.710
405.77	22.002
406.13	21.522
406.49	22.109
406.84	21.416
407.20	22.144
407.55	21.533
407.91	20.855
408.27	22.059
408.62	21.768
408.98	21.710
409.34	22.669
409.69	21.865
410.05	21.771
410.40	20.907
410.76	21.932
411.11	22.382
411.47	21.995
411.83	21.516
412.18	20.792
412.54	21.049
412.89	21.324
413.25	20.248
413.60	21.750
413.96	21.010
414.31	21.529
414.67	20.698
415.03	22.510
415.38	22.381
415.74	21.585
416.09	21.036
416.45	20.569
416.80	21.196
417.16	21.860
417.51	22.390
417.87	22.006
418.22	22.250
418.58	22.208
418.93	21.950
419.29	20.765
419.64	21.545
420.00	22.357
420.35	21.230
420.71	21.669
421.06	21.420
421.42	21.604
421.77	21.943
422.12	21.600
422.48	21.593
422.83	22.779
423.19	21.437
423.54	21.729
423.90	20.937
424.25	21.210
424.61	22.135
424.96	21.358
425.31	21.129
425.67	22.178
426.02	21.457
426.38	22.565
426.73	20.690
427.09	21.630
427.44	22.045
427.79	21.337
428.15	22.861
428.50	22.229
428.85	21.523
429.21	21.638
429.56	21.458
429.92	21.944
430.27	21.834
430.62	21.891
430.98	21.798
431.33	22.412
431.68	21.555
432.04	21.377
432.39	21.937
432.74	21.343
433.10	21.666
433.45	21.013
433.80	21.725
434.16	21.870
434.51	21.479
434.86	22.554
435.22	21.325
435.57	21.787
435.92	21.923
436.28	22.433
436.63	21.764
436.98	21.077
437.34	21.618
437.69	22.112
438.04	21.044
438.39	21.119
438.75	21.246
439.10	22.210
439.45	21.967
439.81	21.446
440.16	21.522
440.51	21.588
440.86	21.631
441.22	21.227
441.57	22.105
441.92	21.330
442.27	22.673
442.63	21.513
442.98	20.767
443.33	21.691
443.68	22.199
444.03	21.857
444.39	22.516
444.74	21.751
445.09	21.272
445.44	21.666
445.79	21.826
446.15	21.796
446.50	20.686
446.85	21.344
447.20	20.991
447.55	22.597
447.91	21.280
448.26	21.564
448.61	21.166
448.96	22.913
449.31	21.759
449.66	22.324
450.02	21.440
450.37	21.449
450.72	22.316
451.07	21.747
451.42	21.314
451.77	22.801
452.12	21.871
452.47	21.851
452.83	20.909
453.18	21.632
453.53	21.642
453.88	21.950
454.23	21.221
454.58	21.939
454.93	22.922
455.28	21.734
455.63	22.113
455.98	21.807
456.34	21.601
456.69	23.139
457.04	22.004
457.39	21.411
457.74	22.800
458.09	21.636
458.44	22.748
458.79	22.085
459.14	23.160
459.49	22.143
459.84	21.529
460.19	22.315
460.54	22.444
460.89	21.861
461.24	22.283
461.59	21.747
461.94	21.833
462.29	22.633
462.64	21.871
462.99	22.624
463.34	22.417
463.69	23.092
464.04	22.086
464.39	21.983
464.74	22.340
465.09	21.888
465.44	22.673
465.79	21.715
466.14	23.015
466.49	22.395
466.84	22.689
467.19	22.257
467.54	22.278
467.89	22.133
468.24	21.793
468.59	22.299
468.94	23.473
469.29	22.287
469.64	22.776
469.99	23.295
470.34	22.445
470.68	21.948
471.03	23.262
471.38	22.153
471.73	23.636
472.08	22.624
472.43	22.458
472.78	22.733
473.13	22.730
473.48	22.719
473.83	21.650
474.17	22.739
474.52	23.977
474.87	22.611
475.22	22.832
475.57	22.389
475.92	22.732
476.27	21.886
476.61	23.549
476.96	22.135
477.31	22.551
477.66	22.966
478.01	23.771
478.36	23.049
478.70	22.371
479.05	22.769
479.40	23.005
479.75	22.375
480.10	22.470
480.45	22.244
480.79	22.310
481.14	22.730
481.49	22.652
481.84	22.561
482.19	23.253
482.53	23.106
482.88	22.164
483.23	23.192
483.58	22.988
483.92	22.647
484.27	22.242
484.62	22.505
484.97	22.681
485.31	21.248
485.66	21.481
486.01	20.993
486.36	21.975
486.70	22.124
487.05	22.087
487.40	22.409
487.75	21.786
488.09	21.927
488.44	22.361
488.79	22.497
489.13	23.165
489.48	23.165
489.83	22.969
490.17	23.335
490.52	23.324
490.87	23.141
491.22	23.354
491.56	23.796
491.91	23.473
492.26	23.585
492.60	23.549
492.95	23.132
493.30	23.392
493.64	22.849
493.99	23.566
494.34	23.381
494.68	23.596
495.03	23.566
495.37	23.255
495.72	23.281
496.07	23.510
496.41	23.715
496.76	23.973
497.11	24.023
497.45	24.569
497.80	22.861
498.14	23.919
498.49	23.807
498.84	22.718
499.18	24.366
499.53	24.403
499.87	23.793
500.22	24.706
500.56	23.962
500.91	23.350
501.26	24.406
501.60	22.773
501.95	23.961
502.29	23.477
502.64	23.857
502.98	22.760
503.33	23.778
503.67	23.515
504.02	23.129
504.36	24.118
504.71	23.151
505.06	24.663
505.40	24.351
505.75	23.526
506.09	24.065
506.44	23.709
506.78	23.934
507.13	24.305
507.47	24.100
507.82	23.490
508.16	24.508
508.51	24.420
508.85	23.602
509.19	25.170
509.54	24.683
509.88	24.149
510.23	24.895
510.57	24.762
510.92	24.597
511.26	24.774
511.61	24.298
511.95	24.353
512.30	24.519
512.64	24.318
512.98	24.862
513.33	23.723
513.67	25.014
514.02	23.546
514.36	24.044
514.70	24.052
515.05	25.100
515.39	25.317
515.74	25.596
516.08	24.611
516.42	25.212
516.77	25.072
517.11	25.400
517.46	25.538
517.80	26.113
518.14	24.396
518.49	25.403
518.83	24.688
519.17	25.636
519.52	24.754
519.86	25.687
520.20	24.939
520.55	25.292
520.89	24.984
521.23	25.153
521.58	24.828
521.92	25.522
522.26	25.841
522.61	25.285
522.95	25.463
523.29	24.828
523.64	24.547
523.98	25.461
524.32	24.827
524.66	24.286
525.01	25.819
525.35	26.418
525.69	26.090
526.04	26.240
526.38	25.971
526.72	25.223
527.06	26.432
527.41	25.215
527.75	25.347
528.09	25.347
528.43	25.639
528.78	25.628
529.12	25.864
529.46	25.709
529.80	24.790
530.15	25.177
530.49	25.032
530.83	25.999
531.17	25.455
531.51	26.323
531.86	25.872
532.20	26.181
532.54	26.404
532.88	25.494
533.22	25.401
533.57	26.110
533.91	24.719
534.25	24.953
534.59	24.859
534.93	25.140
535.27	26.054
535.62	25.192
535.96	24.887
536.30	24.935
536.64	25.697
536.98	25.353
537.32	26.054
537.66	25.187
538.01	25.361
538.35	25.000
538.69	25.401
539.03	26.202
539.37	25.349
539.71	26.017
540.05	25.771
540.39	25.900
540.73	25.570
541.07	26.025
541.42	24.038
541.76	24.850
542.10	25.726
542.44	25.983
542.78	25.373
543.12	24.983
543.46	24.795
543.80	24.615
544.14	25.118
544.48	25.328
544.82	24.493
545.16	25.084
545.50	25.437
545.84	26.217
546.18	25.589
546.52	24.822
546.86	25.000
547.20	26.442
547.54	24.380
547.88	25.282
548.22	24.771
548.56	24.382
548.90	25.270
549.24	25.718
549.58	25.970
549.92	25.442
550.26	25.578
550.60	25.889
550.94	26.569
551.28	26.336
551.62	25.258
551.96	26.194
552.30	26.132
552.64	25.616
552.98	25.088
553.32	24.315
553.66	25.523
554.00	26.368
554.34	24.477
554.68	25.219
555.02	26.339
555.36	26.096
555.69	24.355
556.03	25.333
556.37	25.818
556.71	25.913
557.05	25.795
557.39	24.276
557.73	26.331
558.07	25.471
558.41	25.654
558.75	25.247
559.08	24.358
559.42	25.191
559.76	26.227
560.10	25.429
560.44	25.795
560.78	24.983
561.12	25.190
561.45	25.479
561.79	24.599
562.13	25.105
562.47	24.160
562.81	25.743
563.15	25.472
563.48	25.916
563.82	25.220
564.16	24.882
564.50	26.411
564.84	25.331
565.17	24.867
565.51	25.228
565.85	25.828
566.19	26.087
566.52	25.571
566.86	24.210
567.20	25.666
567.54	26.108
567.88	24.288
568.21	24.217
568.55	24.072
568.89	23.459
569.23	23.184
569.56	23.203
569.90	23.603
570.24	23.337
570.57	23.023
570.91	23.427
571.25	22.763
571.59	22.729
571.92	22.798
572.26	23.038
572.60	22.557
572.93	22.298
573.27	22.835
573.61	22.168
573.95	22.539
574.28	22.268
574.62	21.810
574.96	21.934
575.29	22.231
575.63	22.299
575.97	22.627
576.30	22.006
576.64	22.141
576.98	21.971
577.31	21.669
577.65	21.807
577.98	21.756
578.32	21.238
578.66	22.065
578.99	21.758
579.33	22.256
579.67	21.836
580.00	21.801
580.34	21.526
580.67	22.138
581.01	21.527
581.35	21.692
581.68	21.489
582.02	21.682
582.35	21.700
582.69	22.077
583.02	22.149
583.36	21.806
583.70	21.889
584.03	22.171
584.37	22.598
584.70	22.125
585.04	21.696
585.37	21.742
585.71	21.964
586.04	22.138
586.38	21.278
586.72	22.069
587.05	22.005
587.39	22.426
587.72	21.954
588.06	22.201
588.39	21.760
588.73	21.998
589.06	22.315
589.40	22.467
589.73	22.592
590.07	22.032
590.40	22.288
590.73	23.231
591.07	23.320
591.40	23.180
591.74	23.067
592.07	22.973
592.41	22.972
592.74	22.483
593.08	22.485
593.41	22.533
593.75	21.991
594.08	21.999
594.41	22.625
594.75	22.424
595.08	22.744
595.42	22.543
595.75	21.683
596.09	22.235
596.42	23.200
596.75	22.423
597.09	23.330
597.42	23.134
597.75	23.118
598.09	23.272
598.42	22.581
598.76	22.633
599.09	22.218
599.42	22.991
599.76	22.461
600.09	22.786
600.42	22.560
600.76	22.712
601.09	21.952
601.42	22.042
601.76	23.209
602.09	22.331
602.42	22.840
602.76	22.102
603.09	21.935
603.42	22.603
603.76	22.776
604.09	22.787
604.42	21.982
604.76	22.460
605.09	22.288
605.42	22.961
605.75	22.553
606.09	22.250
606.42	21.952
606.75	22.370
607.09	23.555
607.42	22.359
607.75	22.605
608.08	22.594
608.42	22.280
608.75	22.710
609.08	21.481
609.41	22.272
609.75	22.964
610.08	23.235
610.41	22.410
610.74	23.501
611.07	23.377
611.41	22.844
611.74	22.828
612.07	24.168
612.40	23.667
612.73	23.156
613.07	22.069
613.40	23.974
613.73	23.215
614.06	22.735
614.39	23.675
614.72	22.514
615.06	23.261
615.39	22.897
615.72	23.194
616.05	22.860
616.38	23.447
616.71	22.643
617.05	24.306
617.38	23.406
617.71	23.342
618.04	23.230
618.37	23.585
618.70	23.338
619.03	23.561
619.36	24.031
619.69	24.480
620.03	23.072
620.36	23.136
620.69	24.767
621.02	25.038
621.35	24.113
621.68	25.000
622.01	24.757
622.34	25.311
622.67	24.297
623.00	24.713
623.33	24.627
623.66	23.043
623.99	25.188
624.32	23.810
624.65	24.135
624.99	25.168
625.32	24.551
625.65	24.942
625.98	24.178
626.31	24.715
626.64	25.188
626.97	25.171
627.30	24.936
627.63	23.230
627.96	25.674
628.29	25.460
628.62	25.215
628.95	24.409
629.28	25.846
629.61	25.123
629.94	25.520
630.26	25.547
630.59	25.930
630.92	24.925
631.25	26.613
631.58	25.820
