SpectraSuite Data File
++++++++++++++++++++++++++++++++++++
Date: Sat May 16 11:23:15 PDT 2015
User: schluterlab
Dark Spectrum Present: Yes
Reference Spectrum Present: Yes
Number of Sampled Component Spectra: 1
Spectrometers: USB2E3373
Integration Time (usec): 3000 (USB2E3373)
Spectra Averaged: 3 (USB2E3373)
Boxcar Smoothing: 0 (USB2E3373)
Correct for Electrical Dark: No (USB2E3373)
Strobe/Lamp Enabled: No (USB2E3373)
Correct for Detector Non-linearity: No (USB2E3373)
Correct for Stray Light: No (USB2E3373)
Number of Pixels in Processed Spectrum: 2048
>>>>>Begin Processed Spectral Data<<<<<
178.53	0.000
178.91	86.667
179.29	800.000
179.67	-700.000
180.04	7.692
180.42	1100.000
180.80	225.000
181.18	250.000
181.56	-62.500
181.94	2600.000
182.31	550.000
182.69	-46.154
183.07	-266.667
183.45	1150.000
183.83	433.333
184.20	-57.143
184.58	-150.000
184.96	-150.000
185.34	150.000
185.72	-300.000
186.09	216.667
186.47	-250.000
186.85	-87.500
187.23	-112.500
187.61	-200.000
187.98	-325.000
188.36	-62.500
188.74	12.500
189.12	1600.000
189.49	300.000
189.87	-108.333
190.25	450.000
190.63	-7.143
191.00	-200.000
191.38	440.000
191.76	-13.333
192.14	500.000
192.51	-120.000
192.89	-100.000
193.27	0.000
193.65	-111.111
194.02	-271.429
194.40	533.333
194.78	-200.000
195.15	-2200.000
195.53	-72.727
195.91	-433.333
196.29	200.000
196.66	-733.333
197.04	1700.000
197.42	-200.000
197.79	0.000
198.17	-333.333
198.55	-1100.000
198.92	-1800.000
199.30	137.500
199.68	-1200.000
200.05	-122.222
200.43	-200.000
200.81	-2200.000
201.18	-41.667
201.56	185.714
201.94	-106.667
202.31	27.273
202.69	0.000
203.07	-130.000
203.44	566.667
203.82	-333.333
204.19	-275.000
204.57	-50.000
204.95	-1000.000
205.32	-43.750
205.70	1100.000
206.08	-1700.000
206.45	-16.667
206.83	-850.000
207.20	-100.000
207.58	-800.000
207.96	-366.667
208.33	-137.500
208.71	-233.333
209.08	230.000
209.46	-100.000
209.84	800.000
210.21	0.000
210.59	-5.000
210.96	1500.000
211.34	-350.000
211.71	-400.000
212.09	50.000
212.46	1200.000
212.84	-3100.000
213.22	266.667
213.59	133.333
213.97	-122.222
214.34	140.000
214.72	-40.000
215.09	-266.667
215.47	-183.333
215.84	0.000
216.22	-140.000
216.59	-53.333
216.97	-225.000
217.34	1100.000
217.72	-71.429
218.09	-183.333
218.47	-214.286
218.84	242.857
219.22	14.286
219.59	0.000
219.97	142.857
220.34	325.000
220.72	225.000
221.09	-76.923
221.47	0.000
221.84	333.333
222.22	-350.000
222.59	1900.000
222.97	-162.500
223.34	-450.000
223.72	-200.000
224.09	-50.000
224.46	-250.000
224.84	0.000
225.21	-128.571
225.59	-81.818
225.96	-125.000
226.34	71.429
226.71	-144.444
227.08	0.000
227.46	1900.000
227.83	-142.857
228.21	-237.500
228.58	750.000
228.95	-6.250
229.33	-1600.000
229.70	-280.000
230.08	-1200.000
230.45	-83.333
230.82	-200.000
231.20	-1800.000
231.57	-550.000
231.95	1300.000
232.32	-28.571
232.69	-100.000
233.07	-242.857
233.44	-650.000
233.81	-93.333
234.19	-166.667
234.56	-25.000
234.93	31.250
235.31	-257.143
235.68	-78.571
236.05	-100.000
236.43	-140.909
236.80	-22.581
237.17	-50.000
237.55	-42.857
237.92	-136.364
238.29	-5.714
238.67	-17.647
239.04	-33.333
239.41	-12.903
239.79	-48.718
240.16	-54.762
240.53	-1.818
240.91	-20.513
241.28	-9.091
241.65	3.077
242.02	-26.230
242.40	-26.230
242.77	-19.697
243.14	-32.203
243.51	-27.143
243.89	-11.392
244.26	-11.236
244.63	-7.368
245.00	-24.211
245.38	-11.017
245.75	-9.735
246.12	-5.600
246.49	-7.874
246.87	-17.073
247.24	-22.034
247.61	-8.475
247.98	-11.972
248.36	-13.986
248.73	-5.696
249.10	-9.554
249.47	-8.772
249.84	4.545
250.22	-20.833
250.59	-3.955
250.96	-6.283
251.33	0.474
251.70	-3.846
252.08	-3.318
252.45	-7.109
252.82	-4.286
253.19	0.851
253.56	-1.210
253.94	-5.907
254.31	-4.721
254.68	-2.033
255.05	-6.452
255.42	-5.556
255.79	-6.452
256.16	-6.667
256.54	0.368
256.91	-2.273
257.28	-6.227
257.65	-3.901
258.02	0.629
258.39	0.669
258.76	-6.419
259.14	-1.852
259.51	-3.279
259.88	-4.268
260.25	0.621
260.62	-1.929
260.99	-4.154
261.36	-0.915
261.73	0.000
262.10	-0.833
262.47	-4.843
262.85	-0.571
263.22	-2.292
263.59	-5.231
263.96	-4.058
264.33	1.084
264.70	-1.657
265.07	-2.198
265.44	-3.359
265.81	-3.876
266.18	-4.557
266.55	-1.961
266.92	-2.015
267.29	-1.695
267.66	-2.469
268.03	0.966
268.40	-0.704
268.77	-3.373
269.14	-4.176
269.51	-0.460
269.88	-3.670
270.25	-4.662
270.62	-0.915
270.99	-2.252
271.36	-0.932
271.73	-1.794
272.10	-2.975
272.47	-2.667
272.84	1.111
273.21	-1.835
273.58	-1.758
273.95	-4.167
274.32	-1.810
274.69	1.313
275.06	-0.613
275.43	-3.348
275.80	-0.815
276.17	-3.347
276.54	-0.204
276.91	-0.617
277.28	-0.203
277.65	-1.860
278.02	-0.835
278.39	-0.393
278.76	-2.988
279.13	-0.988
279.50	-1.193
279.87	-5.074
280.23	-1.619
280.60	-2.386
280.97	-4.272
281.34	-2.128
281.71	-1.346
282.08	-2.218
282.45	-5.906
282.82	-2.519
283.19	0.909
283.56	-0.733
283.92	-0.353
284.29	-2.788
284.66	-0.540
285.03	1.070
285.40	-2.399
285.77	-0.175
286.14	-2.708
286.51	-0.888
286.87	-2.359
287.24	-1.536
287.61	-1.488
287.98	-1.560
288.35	-3.140
288.72	-0.679
289.08	-1.356
289.45	-1.684
289.82	-2.595
290.19	0.493
290.56	-1.322
290.93	-1.590
291.29	-2.593
291.66	-0.644
292.03	-0.471
292.40	-0.452
292.77	-1.863
293.13	-0.488
293.50	-0.297
293.87	-0.920
294.24	0.000
294.60	-2.273
294.97	0.303
295.34	-1.481
295.71	-1.637
296.08	-2.611
296.44	-1.001
296.81	-0.427
297.18	-1.268
297.55	-0.989
297.91	1.116
298.28	-0.685
298.65	-0.837
299.02	0.134
299.38	-1.070
299.75	-0.272
300.12	0.641
300.48	0.895
300.85	-2.228
301.22	-0.776
301.59	0.390
301.95	0.882
302.32	-2.347
302.69	1.591
303.05	0.000
303.42	-1.125
303.79	0.120
304.15	0.592
304.52	1.284
304.89	0.945
305.25	-0.122
305.62	-0.940
305.99	1.060
306.35	0.111
306.72	-0.569
307.09	0.000
307.45	0.114
307.82	0.447
308.19	1.678
308.55	-0.436
308.92	-0.430
309.29	-0.216
309.65	-0.424
310.02	-0.432
310.38	0.973
310.75	2.049
311.12	-0.413
311.48	1.775
311.85	1.236
312.22	0.824
312.58	1.729
312.95	0.815
313.31	1.099
313.68	2.211
314.05	1.978
314.41	0.302
314.78	1.199
315.14	1.777
315.51	1.317
315.87	1.839
316.24	2.915
316.61	2.975
316.97	2.687
317.34	1.060
317.70	2.226
318.07	2.612
318.43	2.528
318.80	4.038
319.16	3.377
319.53	2.726
319.89	3.104
320.26	3.431
320.62	2.981
320.99	4.179
321.35	2.069
321.72	3.275
322.08	3.462
322.45	3.762
322.81	4.611
323.18	3.842
323.54	4.621
323.91	4.912
324.27	4.658
324.64	4.753
325.00	6.021
325.37	6.154
325.73	7.262
326.10	5.492
326.46	5.429
326.83	6.298
327.19	6.756
327.56	6.814
327.92	7.732
328.29	7.792
328.65	6.000
329.01	7.244
329.38	7.493
329.74	9.158
330.11	8.794
330.47	8.356
330.84	9.074
331.20	8.394
331.56	7.748
331.93	9.680
332.29	9.406
332.66	10.272
333.02	9.683
333.38	11.201
333.75	10.419
334.11	10.222
334.48	10.238
334.84	10.499
335.20	10.727
335.57	11.552
335.93	12.265
336.29	11.692
336.66	10.573
337.02	11.351
337.38	11.408
337.75	10.799
338.11	10.733
338.47	11.299
338.84	10.889
339.20	11.248
339.56	11.497
339.93	11.287
340.29	10.540
340.65	11.976
341.02	11.636
341.38	11.626
341.74	13.209
342.11	11.177
342.47	10.644
342.83	11.503
343.20	10.931
343.56	10.939
343.92	12.688
344.28	11.186
344.65	11.386
345.01	11.597
345.37	12.043
345.73	10.638
346.10	10.057
346.46	10.073
346.82	10.746
347.19	11.422
347.55	10.915
347.91	11.496
348.27	11.217
348.63	12.278
349.00	11.933
349.36	9.680
349.72	12.022
350.08	11.067
350.45	10.087
350.81	11.146
351.17	11.093
351.53	11.297
351.89	11.479
352.26	10.930
352.62	12.366
352.98	11.076
353.34	11.431
353.70	10.270
354.07	11.330
354.43	12.174
354.79	11.490
355.15	10.304
355.51	9.141
355.87	10.277
356.24	11.041
356.60	12.329
356.96	11.393
357.32	10.372
357.68	11.264
358.04	12.086
358.40	11.524
358.77	11.206
359.13	11.094
359.49	11.413
359.85	11.662
360.21	11.568
360.57	11.747
360.93	12.222
361.29	11.510
361.66	10.899
362.02	12.130
362.38	11.739
362.74	11.648
363.10	11.263
363.46	11.895
363.82	12.172
364.18	11.939
364.54	13.009
364.90	11.461
365.26	11.555
365.62	12.473
365.98	12.376
366.35	11.549
366.71	11.628
367.07	12.562
367.43	12.697
367.79	12.509
368.15	11.735
368.51	13.287
368.87	12.706
369.23	12.702
369.59	12.361
369.95	11.980
370.31	12.940
370.67	11.931
371.03	12.391
371.39	11.740
371.75	13.162
372.11	12.769
372.47	13.304
372.83	12.309
373.19	13.286
373.55	13.723
373.91	12.873
374.27	12.936
374.63	13.043
374.99	14.604
375.35	13.459
375.71	14.315
376.07	13.415
376.42	12.517
376.78	13.856
377.14	13.831
377.50	13.540
377.86	14.109
378.22	13.505
378.58	13.774
378.94	13.440
379.30	14.564
379.66	14.876
380.02	13.904
380.38	14.320
380.74	13.599
381.09	15.056
381.45	15.632
381.81	15.245
382.17	14.474
382.53	14.103
382.89	14.533
383.25	14.630
383.61	14.976
383.97	15.187
384.32	14.706
384.68	16.082
385.04	15.097
385.40	15.155
385.76	14.756
386.12	15.553
386.48	16.955
386.83	15.951
387.19	15.601
387.55	15.566
387.91	15.886
388.27	15.802
388.62	15.565
388.98	15.324
389.34	16.830
389.70	15.408
390.06	15.662
390.42	16.154
390.77	15.584
391.13	17.267
391.49	16.220
391.85	16.147
392.20	16.383
392.56	16.188
392.92	15.859
393.28	16.361
393.64	16.296
393.99	16.677
394.35	16.241
394.71	16.059
395.07	15.882
395.42	16.389
395.78	16.405
396.14	16.012
396.50	15.902
396.85	16.965
397.21	17.315
397.57	17.021
397.92	17.213
398.28	17.000
398.64	17.073
399.00	16.292
399.35	16.291
399.71	17.538
400.07	16.000
400.42	17.275
400.78	16.219
401.14	17.126
401.49	16.274
401.85	15.985
402.21	15.733
402.57	16.444
402.92	17.055
403.28	16.238
403.63	15.818
403.99	16.967
404.35	16.546
404.70	17.320
405.06	17.070
405.42	15.806
405.77	15.158
406.13	16.298
406.49	17.076
406.84	16.857
407.20	16.372
407.55	16.339
407.91	15.997
408.27	16.605
408.62	15.935
408.98	16.798
409.34	16.088
409.69	16.824
410.05	15.949
410.40	16.186
410.76	16.183
411.11	16.459
411.47	16.304
411.83	15.892
412.18	15.965
412.54	16.046
412.89	16.100
413.25	15.407
413.60	15.796
413.96	15.650
414.31	16.086
414.67	15.873
415.03	15.912
415.38	15.940
415.74	16.237
416.09	15.857
416.45	15.212
416.80	16.255
417.16	16.412
417.51	16.284
417.87	15.858
418.22	16.372
418.58	17.266
418.93	16.309
419.29	17.252
419.64	16.520
420.00	16.282
420.35	16.263
420.71	16.807
421.06	16.627
421.42	15.984
421.77	16.862
422.12	17.292
422.48	16.462
422.83	17.255
423.19	16.425
423.54	16.772
423.90	16.136
424.25	16.176
424.61	17.310
424.96	17.613
425.31	17.272
425.67	17.077
426.02	16.466
426.38	17.120
426.73	17.241
427.09	17.892
427.44	17.102
427.79	16.860
428.15	17.175
428.50	17.537
428.85	17.686
429.21	16.215
429.56	17.500
429.92	17.585
430.27	17.946
430.62	17.659
430.98	17.564
431.33	17.823
431.68	18.070
432.04	18.355
432.39	17.892
432.74	18.885
433.10	18.627
433.45	17.271
433.80	17.973
434.16	18.485
434.51	18.137
434.86	18.512
435.22	18.096
435.57	17.625
435.92	17.995
436.28	17.389
436.63	18.033
436.98	17.526
437.34	18.488
437.69	18.961
438.04	17.924
438.39	17.569
438.75	17.986
439.10	17.990
439.45	17.381
439.81	18.434
440.16	18.115
440.51	18.059
440.86	19.086
441.22	16.971
441.57	17.947
441.92	17.852
442.27	18.128
442.63	19.152
442.98	18.115
443.33	17.957
443.68	18.030
444.03	18.468
444.39	18.943
444.74	19.769
445.09	18.750
445.44	19.471
445.79	17.950
446.15	18.510
446.50	17.746
446.85	18.574
447.20	18.744
447.55	18.453
447.91	18.473
448.26	18.883
448.61	18.563
448.96	19.272
449.31	18.489
449.66	19.634
450.02	18.338
450.37	18.493
450.72	18.362
451.07	18.793
451.42	18.030
451.77	19.270
452.12	18.355
452.47	18.262
452.83	18.462
453.18	19.039
453.53	19.341
453.88	19.019
454.23	18.682
454.58	19.453
454.93	19.710
455.28	18.483
455.63	18.612
455.98	19.578
456.34	18.488
456.69	19.700
457.04	17.886
457.39	18.900
457.74	18.193
458.09	19.142
458.44	19.400
458.79	19.170
459.14	19.224
459.49	18.946
459.84	18.831
460.19	18.974
460.54	18.935
460.89	19.339
461.24	18.944
461.59	18.581
461.94	20.242
462.29	19.655
462.64	19.499
462.99	19.076
463.34	19.649
463.69	19.275
464.04	17.985
464.39	18.817
464.74	19.799
465.09	18.942
465.44	19.741
465.79	19.966
466.14	19.678
466.49	18.998
466.84	19.868
467.19	19.389
467.54	18.101
467.89	19.667
468.24	19.240
468.59	18.613
468.94	18.714
469.29	18.778
469.64	19.474
469.99	19.176
470.34	19.305
470.68	20.567
471.03	20.028
471.38	19.444
471.73	18.951
472.08	18.942
472.43	18.790
472.78	19.733
473.13	19.417
473.48	19.592
473.83	18.734
474.17	18.981
474.52	20.332
474.87	19.056
475.22	19.823
475.57	19.389
475.92	19.438
476.27	18.686
476.61	19.324
476.96	20.458
477.31	19.752
477.66	19.978
478.01	19.449
478.36	19.225
478.70	20.235
479.05	20.173
479.40	19.534
479.75	19.164
480.10	19.792
480.45	18.907
480.79	19.546
481.14	19.870
481.49	19.748
481.84	19.649
482.19	20.192
482.53	19.366
482.88	20.361
483.23	19.718
483.58	19.750
483.92	19.446
484.27	19.229
484.62	19.870
484.97	19.486
485.31	18.912
485.66	19.051
486.01	18.529
486.36	19.649
486.70	19.947
487.05	19.046
487.40	19.605
487.75	19.820
488.09	19.240
488.44	19.249
488.79	19.844
489.13	20.008
489.48	20.718
489.83	19.607
490.17	19.330
490.52	20.245
490.87	19.769
491.22	19.383
491.56	20.463
491.91	20.324
492.26	20.047
492.60	20.124
492.95	20.086
493.30	19.581
493.64	19.793
493.99	19.359
494.34	20.381
494.68	20.272
495.03	19.598
495.37	19.469
495.72	19.646
496.07	20.225
496.41	20.658
496.76	20.548
497.11	20.584
497.45	20.067
497.80	20.510
498.14	19.990
498.49	19.789
498.84	19.757
499.18	20.419
499.53	20.604
499.87	19.498
500.22	20.392
500.56	20.210
500.91	19.951
501.26	19.845
501.60	19.547
501.95	20.483
502.29	20.690
502.64	20.462
502.98	19.598
503.33	20.207
503.67	19.875
504.02	20.039
504.36	19.902
504.71	19.858
505.06	20.369
505.40	21.307
505.75	20.681
506.09	21.082
506.44	21.003
506.78	20.171
507.13	19.979
507.47	21.648
507.82	21.012
508.16	20.622
508.51	19.938
508.85	20.031
509.19	20.304
509.54	20.349
509.88	20.691
510.23	19.602
510.57	20.053
510.92	20.677
511.26	20.096
511.61	20.788
511.95	20.636
512.30	20.451
512.64	19.811
512.98	20.627
513.33	20.648
513.67	20.380
514.02	21.365
514.36	20.776
514.70	21.279
515.05	21.498
515.39	21.165
515.74	21.873
516.08	20.519
516.42	21.360
516.77	21.375
517.11	21.110
517.46	21.232
517.80	20.939
518.14	20.773
518.49	20.562
518.83	19.763
519.17	21.018
519.52	20.185
519.86	21.207
520.20	20.844
520.55	20.615
520.89	20.038
521.23	20.635
521.58	21.066
521.92	22.039
522.26	21.079
522.61	22.053
522.95	20.676
523.29	21.191
523.64	20.550
523.98	21.897
524.32	20.113
524.66	20.994
525.01	20.424
525.35	20.619
525.69	21.340
526.04	20.757
526.38	20.878
526.72	20.754
527.06	20.833
527.41	20.726
527.75	20.000
528.09	21.046
528.43	20.787
528.78	21.734
529.12	21.319
529.46	21.198
529.80	20.336
530.15	21.314
530.49	20.828
530.83	22.331
531.17	21.414
531.51	21.366
531.86	21.396
532.20	21.795
532.54	21.658
532.88	21.146
533.22	21.524
533.57	21.997
533.91	20.911
534.25	21.182
534.59	19.988
534.93	19.664
535.27	21.649
535.62	21.675
535.96	21.202
536.30	20.157
536.64	20.850
536.98	21.116
537.32	21.147
537.66	20.978
538.01	20.481
538.35	20.811
538.69	20.254
539.03	21.666
539.37	20.758
539.71	21.348
540.05	20.836
540.39	21.814
540.73	21.009
541.07	20.560
541.42	20.662
541.76	20.266
542.10	21.540
542.44	21.586
542.78	21.438
543.12	21.181
543.46	20.068
543.80	20.134
544.14	20.148
544.48	21.785
544.82	21.313
545.16	21.797
545.50	20.996
545.84	21.071
546.18	21.567
546.52	21.195
546.86	21.866
547.20	21.378
547.54	20.661
547.88	20.770
548.22	20.380
548.56	20.374
548.90	20.687
549.24	21.233
549.58	20.748
549.92	20.636
550.26	21.460
550.60	20.910
550.94	21.095
551.28	21.520
551.62	21.566
551.96	21.418
552.30	21.115
552.64	19.986
552.98	21.654
553.32	21.573
553.66	21.269
554.00	20.967
554.34	20.939
554.68	21.564
555.02	20.839
555.36	20.417
555.69	19.914
556.03	21.825
556.37	20.839
556.71	21.188
557.05	21.729
557.39	21.232
557.73	22.465
558.07	21.854
558.41	20.942
558.75	20.608
559.08	20.389
559.42	21.440
559.76	21.933
560.10	21.924
560.44	21.604
560.78	20.390
561.12	21.256
561.45	21.507
561.79	20.906
562.13	21.669
562.47	21.078
562.81	20.014
563.15	21.134
563.48	21.216
563.82	20.960
564.16	20.081
564.50	20.430
564.84	20.767
565.17	19.960
565.51	21.447
565.85	21.771
566.19	21.080
566.52	21.200
566.86	20.480
567.20	21.247
567.54	21.323
567.88	20.659
568.21	21.365
568.55	20.626
568.89	19.334
569.23	20.037
569.56	19.882
569.90	20.181
570.24	20.556
570.57	18.946
570.91	19.619
571.25	19.617
571.59	20.044
571.92	19.940
572.26	19.533
572.60	19.392
572.93	19.727
573.27	19.329
573.61	18.841
573.95	19.931
574.28	18.954
574.62	19.370
574.96	19.118
575.29	19.258
575.63	19.432
575.97	19.148
576.30	19.183
576.64	19.452
576.98	19.134
577.31	18.784
577.65	19.235
577.98	19.016
578.32	19.028
578.66	19.191
578.99	18.796
579.33	18.613
579.67	19.097
580.00	18.998
580.34	19.056
580.67	19.490
581.01	18.761
581.35	19.209
581.68	19.256
582.02	19.130
582.35	19.207
582.69	19.159
583.02	19.319
583.36	19.137
583.70	19.073
584.03	19.558
584.37	18.890
584.70	19.138
585.04	19.139
585.37	18.568
585.71	19.061
586.04	18.946
586.38	19.166
586.72	19.222
587.05	19.456
587.39	19.366
587.72	19.458
588.06	18.900
588.39	19.766
588.73	19.312
589.06	19.661
589.40	20.577
589.73	19.547
590.07	19.337
590.40	19.446
590.73	19.632
591.07	19.344
591.40	20.061
591.74	20.156
592.07	19.865
592.41	19.915
592.74	19.869
593.08	20.082
593.41	19.211
593.75	18.925
594.08	19.231
594.41	20.037
594.75	19.781
595.08	19.023
595.42	19.906
595.75	19.405
596.09	19.635
596.42	20.172
596.75	19.448
597.09	20.748
597.42	19.337
597.75	19.752
598.09	20.108
598.42	19.443
598.76	19.394
599.09	18.824
599.42	18.916
599.76	18.951
600.09	19.847
600.42	19.483
600.76	19.812
601.09	19.483
601.42	18.678
601.76	19.159
602.09	19.959
602.42	20.576
602.76	19.236
603.09	19.798
603.42	19.380
603.76	20.223
604.09	19.584
604.42	19.442
604.76	19.451
605.09	19.937
605.42	20.301
605.75	19.448
606.09	19.261
606.42	19.481
606.75	19.322
607.09	19.850
607.42	19.762
607.75	19.073
608.08	20.515
608.42	19.442
608.75	19.486
609.08	20.555
609.41	19.581
609.75	19.941
610.08	20.784
610.41	19.566
610.74	20.841
611.07	19.371
611.41	19.919
611.74	20.257
612.07	20.730
612.40	20.096
612.73	20.086
613.07	19.868
613.40	20.744
613.73	20.109
614.06	20.044
614.39	19.448
614.72	19.777
615.06	18.859
615.39	19.533
615.72	19.337
616.05	19.602
616.38	20.488
616.71	19.219
617.05	20.265
617.38	20.619
617.71	19.595
618.04	19.441
618.37	19.937
618.70	20.078
619.03	20.650
619.36	20.578
619.69	20.172
620.03	20.179
620.36	20.745
620.69	20.459
621.02	20.624
621.35	20.726
621.68	20.820
622.01	20.550
622.34	21.040
622.67	20.547
623.00	20.122
623.33	19.328
623.66	20.089
623.99	20.150
624.32	20.089
624.65	20.309
624.99	20.239
625.32	20.210
625.65	20.435
625.98	19.718
626.31	20.392
626.64	21.590
626.97	20.719
627.30	21.106
627.63	19.430
627.96	20.540
628.29	20.037
628.62	21.203
628.95	22.441
629.28	21.523
629.61	20.608
629.94	20.321
630.26	21.571
630.59	21.910
630.92	20.521
631.25	21.472
631.58	22.540
631.91	18.936
632.24	21.333
632.57	21.889
632.90	21.379
633.23	21.963
