SpectraSuite Data File
++++++++++++++++++++++++++++++++++++
Date: Sat May 16 11:11:54 PDT 2015
User: schluterlab
Dark Spectrum Present: Yes
Reference Spectrum Present: Yes
Number of Sampled Component Spectra: 1
Spectrometers: USB2E3373
Integration Time (usec): 3000 (USB2E3373)
Spectra Averaged: 3 (USB2E3373)
Boxcar Smoothing: 0 (USB2E3373)
Correct for Electrical Dark: No (USB2E3373)
Strobe/Lamp Enabled: No (USB2E3373)
Correct for Detector Non-linearity: No (USB2E3373)
Correct for Stray Light: No (USB2E3373)
Number of Pixels in Processed Spectrum: 2048
>>>>>Begin Processed Spectral Data<<<<<
178.53	0.000
178.91	-6.667
179.29	233.333
179.67	-700.000
180.04	-30.769
180.42	-100.000
180.80	175.000
181.18	100.000
181.56	50.000
181.94	900.000
182.31	500.000
182.69	23.077
183.07	-233.333
183.45	900.000
183.83	233.333
184.20	-100.000
184.58	-100.000
184.96	-75.000
185.34	81.250
185.72	-425.000
186.09	-16.667
186.47	-112.500
186.85	-50.000
187.23	25.000
187.61	-175.000
187.98	-87.500
188.36	50.000
188.74	-137.500
189.12	600.000
189.49	157.143
189.87	-25.000
190.25	50.000
190.63	14.286
191.00	-66.667
191.38	320.000
191.76	66.667
192.14	200.000
192.51	-40.000
192.89	-200.000
193.27	0.000
193.65	-33.333
194.02	-200.000
194.40	300.000
194.78	-70.000
195.15	-500.000
195.53	-118.182
195.91	-200.000
196.29	-80.000
196.66	-266.667
197.04	900.000
197.42	25.000
197.79	46.667
198.17	-166.667
198.55	-550.000
198.92	-800.000
199.30	62.500
199.68	200.000
200.05	-133.333
200.43	-144.444
200.81	-500.000
201.18	8.333
201.56	42.857
201.94	-20.000
202.31	54.545
202.69	150.000
203.07	-130.000
203.44	-133.333
203.82	-116.667
204.19	-125.000
204.57	-25.000
204.95	-1300.000
205.32	0.000
205.70	300.000
206.08	-1000.000
206.45	27.778
206.83	-550.000
207.20	100.000
207.58	0.000
207.96	-233.333
208.33	-125.000
208.71	33.333
209.08	110.000
209.46	-100.000
209.84	850.000
210.21	0.000
210.59	105.000
210.96	-300.000
211.34	-133.333
211.71	33.333
212.09	350.000
212.46	600.000
212.84	-1600.000
213.22	100.000
213.59	158.333
213.97	77.778
214.34	160.000
214.72	-40.000
215.09	533.333
215.47	-183.333
215.84	-120.000
216.22	-20.000
216.59	106.667
216.97	-400.000
217.34	350.000
217.72	14.286
218.09	-266.667
218.47	-57.143
218.84	114.286
219.22	-85.714
219.59	0.000
219.97	157.143
220.34	350.000
220.72	150.000
221.09	-46.154
221.47	0.000
221.84	233.333
222.22	-350.000
222.59	400.000
222.97	-75.000
223.34	-350.000
223.72	-266.667
224.09	-50.000
224.46	25.000
224.84	-35.714
225.21	-114.286
225.59	9.091
225.96	-62.500
226.34	71.429
226.71	-55.556
227.08	15.000
227.46	1400.000
227.83	-85.714
228.21	0.000
228.58	650.000
228.95	18.750
229.33	-600.000
229.70	-20.000
230.08	-350.000
230.45	-41.667
230.82	-83.333
231.20	600.000
231.57	350.000
231.95	700.000
232.32	-4.762
232.69	0.000
233.07	-71.429
233.44	-650.000
233.81	-46.667
234.19	-44.444
234.56	18.750
234.93	18.750
235.31	-200.000
235.68	-42.857
236.05	-11.765
236.43	-40.909
236.80	-3.226
237.17	20.833
237.55	-28.571
237.92	-9.091
238.29	14.286
238.67	0.000
239.04	-13.889
239.41	-41.935
239.79	-20.513
240.16	0.000
240.53	-3.636
240.91	-15.385
241.28	10.909
241.65	24.615
242.02	-9.836
242.40	-1.639
242.77	6.061
243.14	-11.864
243.51	-20.000
243.89	3.797
244.26	10.112
244.63	-1.053
245.00	7.368
245.38	1.695
245.75	9.735
246.12	12.000
246.49	8.661
246.87	5.691
247.24	0.000
247.61	-1.695
247.98	6.338
248.36	0.000
248.73	6.962
249.10	5.096
249.47	7.602
249.84	5.682
250.22	-3.571
250.59	6.215
250.96	7.330
251.33	12.322
251.70	6.250
252.08	4.265
252.45	0.948
252.82	3.333
253.19	5.532
253.56	3.629
253.94	7.173
254.31	4.292
254.68	4.065
255.05	4.435
255.42	6.349
255.79	3.226
256.16	5.490
256.54	8.824
256.91	6.061
257.28	3.663
257.65	4.255
258.02	7.547
258.39	6.355
258.76	2.703
259.14	3.704
259.51	7.541
259.88	6.098
260.25	7.143
260.62	7.395
260.99	1.780
261.36	4.878
261.73	5.780
262.10	7.778
262.47	3.134
262.85	8.571
263.22	5.444
263.59	2.154
263.96	6.087
264.33	4.607
264.70	10.497
265.07	4.945
265.44	6.718
265.81	5.426
266.18	2.278
266.55	5.882
266.92	9.068
267.29	4.843
267.66	4.691
268.03	4.348
268.40	4.460
268.77	6.024
269.14	5.336
269.51	6.207
269.88	4.817
270.25	4.196
270.62	7.551
270.99	6.982
271.36	6.527
271.73	4.036
272.10	4.577
272.47	2.667
272.84	9.556
273.21	5.734
273.58	5.055
273.95	5.702
274.32	6.335
274.69	7.659
275.06	7.157
275.43	2.679
275.80	7.739
276.17	4.812
276.54	8.147
276.91	5.350
277.28	7.302
277.65	3.926
278.02	8.142
278.39	8.055
278.76	5.976
279.13	6.324
279.50	6.362
279.87	5.497
280.23	5.263
280.60	4.970
280.97	4.272
281.34	4.255
281.71	6.538
282.08	4.435
282.45	3.055
282.82	3.682
283.19	6.364
283.56	8.425
283.92	6.714
284.29	5.019
284.66	4.137
285.03	7.487
285.40	8.487
285.77	7.018
286.14	4.513
286.51	4.440
286.87	6.534
287.24	6.655
287.61	5.289
287.98	3.120
288.35	4.132
288.72	5.263
289.08	2.712
289.45	4.545
289.82	4.152
290.19	7.553
290.56	4.959
290.93	3.816
291.29	4.700
291.66	4.831
292.03	6.122
292.40	6.777
292.77	5.745
293.13	5.203
293.50	6.984
293.87	5.215
294.24	4.977
294.60	4.091
294.97	4.249
295.34	4.444
295.71	5.804
296.08	3.072
296.44	5.150
296.81	6.268
297.18	6.056
297.55	5.932
297.91	6.834
298.28	5.479
298.65	5.300
299.02	5.481
299.38	5.882
299.75	4.348
300.12	4.872
300.48	4.987
300.85	4.718
301.22	4.398
301.59	4.551
301.95	6.171
302.32	4.172
302.69	6.120
303.05	5.739
303.42	5.125
303.79	5.024
304.15	6.517
304.52	5.251
304.89	5.903
305.25	5.739
305.62	5.758
305.99	6.714
306.35	6.326
306.72	5.125
307.09	5.789
307.45	4.540
307.82	5.698
308.19	6.488
308.55	5.120
308.92	4.941
309.29	5.405
309.65	5.620
310.02	4.212
310.38	5.081
310.75	6.045
311.12	5.165
311.48	6.681
311.85	6.797
312.22	5.767
312.58	7.325
312.95	6.014
313.31	5.395
313.68	7.337
314.05	7.418
314.41	5.634
314.78	6.294
315.14	7.108
315.51	7.295
315.87	7.648
316.24	7.775
316.61	7.390
316.97	8.955
317.34	7.707
317.70	7.792
318.07	7.649
318.43	7.959
318.80	9.108
319.16	7.505
319.53	7.895
319.89	8.655
320.26	7.647
320.62	7.692
320.99	9.353
321.35	8.473
321.72	8.086
322.08	9.496
322.45	8.812
322.81	9.894
323.18	9.798
323.54	9.889
323.91	9.731
324.27	11.692
324.64	10.420
325.00	11.431
325.37	11.855
325.73	14.086
326.10	11.337
326.46	12.697
326.83	13.447
327.19	14.095
327.56	14.480
327.92	13.764
328.29	15.065
328.65	14.091
329.01	15.901
329.38	15.611
329.74	15.934
330.11	17.135
330.47	16.349
330.84	17.690
331.20	15.433
331.56	17.685
331.93	17.229
332.29	18.356
332.66	17.384
333.02	18.462
333.38	19.982
333.75	19.679
334.11	19.733
334.48	18.358
334.84	20.560
335.20	20.301
335.57	19.675
335.93	20.680
336.29	20.283
336.66	19.648
337.02	21.171
337.38	21.034
337.75	20.808
338.11	21.199
338.47	21.085
338.84	20.327
339.20	21.002
339.56	22.638
339.93	20.547
340.29	20.992
340.65	20.979
341.02	21.248
341.38	21.483
341.74	22.185
342.11	21.758
342.47	23.262
342.83	20.823
343.20	21.178
343.56	21.224
343.92	22.371
344.28	23.129
344.65	21.700
345.01	21.765
345.37	24.003
345.73	21.277
346.10	20.769
346.46	22.340
346.82	21.251
347.19	21.528
347.55	21.669
347.91	21.417
348.27	21.400
348.63	22.859
349.00	22.434
349.36	20.297
349.72	22.771
350.08	23.176
350.45	20.883
350.81	22.213
351.17	22.106
351.53	20.764
351.89	22.393
352.26	21.705
352.62	23.349
352.98	22.310
353.34	21.423
353.70	21.236
354.07	22.974
354.43	22.846
354.79	21.474
355.15	21.805
355.51	22.344
355.87	22.609
356.24	22.002
356.60	23.449
356.96	22.248
357.32	22.961
357.68	21.992
358.04	23.249
358.40	22.274
358.77	23.029
359.13	22.800
359.49	23.432
359.85	22.104
360.21	23.668
360.57	22.816
360.93	22.444
361.29	23.991
361.66	22.409
362.02	23.299
362.38	23.184
362.74	23.223
363.10	23.888
363.46	24.288
363.82	24.344
364.18	23.155
364.54	24.589
364.90	23.760
365.26	22.967
365.62	23.592
365.98	24.964
366.35	24.366
366.71	23.820
367.07	24.206
367.43	24.777
367.79	24.605
368.15	23.186
368.51	25.245
368.87	25.687
369.23	24.421
369.59	23.958
369.95	25.088
370.31	24.895
370.67	24.512
371.03	24.490
371.39	24.187
371.75	24.678
372.11	24.749
372.47	24.440
372.83	25.869
373.19	26.071
373.55	26.038
373.91	26.174
374.27	24.983
374.63	26.018
374.99	26.495
375.35	24.899
375.71	26.334
376.07	25.667
376.42	25.099
376.78	26.601
377.14	27.051
377.50	25.725
377.86	27.048
378.22	26.193
378.58	25.448
378.94	26.695
379.30	26.569
379.66	26.776
380.02	25.847
380.38	26.465
380.74	26.436
381.09	26.714
381.45	27.387
381.81	26.800
382.17	27.193
382.53	27.295
382.89	27.572
383.25	28.176
383.61	27.594
383.97	27.557
384.32	28.098
384.68	28.900
385.04	27.959
385.40	28.545
385.76	28.598
386.12	28.732
386.48	28.403
386.83	28.589
387.19	28.452
387.55	28.225
387.91	29.461
388.27	28.227
388.62	28.546
388.98	28.528
389.34	28.703
389.70	29.050
390.06	28.589
390.42	29.744
390.77	29.464
391.13	28.820
391.49	28.571
391.85	29.489
392.20	28.944
392.56	29.811
392.92	29.949
393.28	29.851
393.64	30.848
393.99	30.031
394.35	29.805
394.71	29.771
395.07	30.508
395.42	29.142
395.78	29.164
396.14	31.028
396.50	30.275
396.85	30.290
397.21	29.951
397.57	31.064
397.92	30.386
398.28	30.389
398.64	29.804
399.00	31.966
399.35	30.834
399.71	30.662
400.07	30.627
400.42	30.049
400.78	30.531
401.14	30.299
401.49	29.776
401.85	30.628
402.21	30.215
402.57	30.704
402.92	30.837
403.28	30.392
403.63	29.778
403.99	30.889
404.35	29.287
404.70	30.486
405.06	31.084
405.42	31.980
405.77	29.808
406.13	29.813
406.49	31.276
406.84	30.354
407.20	31.684
407.55	31.792
407.91	30.246
408.27	32.292
408.62	31.149
408.98	31.595
409.34	30.896
409.69	30.687
410.05	30.382
410.40	31.760
410.76	30.765
411.11	31.733
411.47	31.394
411.83	31.051
412.18	31.126
412.54	29.957
412.89	32.139
413.25	31.759
413.60	31.531
413.96	30.930
414.31	31.865
414.67	30.095
415.03	32.147
415.38	31.945
415.74	32.410
416.09	31.841
416.45	31.283
416.80	31.925
417.16	32.093
417.51	32.896
417.87	31.845
418.22	32.807
418.58	32.606
418.93	31.882
419.29	32.748
419.64	32.789
420.00	33.475
420.35	32.762
420.71	33.553
421.06	32.485
421.42	33.021
421.77	33.222
422.12	32.904
422.48	33.405
422.83	33.200
423.19	32.739
423.54	33.429
423.90	33.025
424.25	33.767
424.61	34.499
424.96	34.640
425.31	34.712
425.67	33.352
426.02	33.448
426.38	34.725
426.73	33.957
427.09	33.395
427.44	34.205
427.79	33.721
428.15	35.966
428.50	34.428
428.85	35.432
429.21	34.754
429.56	34.115
429.92	34.369
430.27	34.546
430.62	35.266
430.98	34.344
431.33	35.165
431.68	34.531
432.04	36.318
432.39	35.954
432.74	36.091
433.10	35.340
433.45	35.809
433.80	36.002
434.16	35.304
434.51	36.000
434.86	36.438
435.22	35.746
435.57	35.006
435.92	36.577
436.28	36.024
436.63	36.518
436.98	36.426
437.34	36.090
437.69	35.589
438.04	36.926
438.39	36.221
438.75	35.972
439.10	36.369
439.45	35.607
439.81	37.892
440.16	34.867
440.51	37.824
440.86	36.958
441.22	35.987
441.57	37.053
441.92	37.084
442.27	37.121
442.63	37.607
442.98	35.722
443.33	36.958
443.68	36.477
444.03	36.788
444.39	36.221
444.74	37.830
445.09	37.719
445.44	38.098
445.79	37.634
446.15	38.445
446.50	37.779
446.85	37.866
447.20	37.743
447.55	37.514
447.91	37.675
448.26	37.542
448.61	37.068
448.96	38.711
449.31	37.430
449.66	37.378
450.02	36.787
450.37	38.551
450.72	37.006
451.07	39.158
451.42	37.485
451.77	37.941
452.12	38.617
452.47	37.972
452.83	38.090
453.18	39.279
453.53	39.179
453.88	39.593
454.23	38.452
454.58	40.273
454.93	40.806
455.28	38.687
455.63	39.373
455.98	39.036
456.34	39.390
456.69	40.025
457.04	39.213
457.39	39.773
457.74	39.811
458.09	39.037
458.44	39.261
458.79	38.621
459.14	39.646
459.49	40.024
459.84	39.404
460.19	38.902
460.54	39.141
460.89	39.294
461.24	39.041
461.59	39.508
461.94	40.356
462.29	40.560
462.64	40.448
462.99	40.562
463.34	39.500
463.69	39.885
464.04	38.840
464.39	39.785
464.74	39.835
465.09	39.206
465.44	40.327
465.79	39.481
466.14	41.254
466.49	39.436
466.84	40.276
467.19	40.711
467.54	39.873
467.89	40.382
468.24	39.667
468.59	40.662
468.94	40.514
469.29	39.961
469.64	41.442
469.99	40.918
470.34	41.082
470.68	40.988
471.03	42.120
471.38	40.000
471.73	42.098
472.08	39.893
472.43	41.313
472.78	40.400
473.13	40.292
473.48	41.481
473.83	41.315
474.17	40.828
474.52	42.072
474.87	39.569
475.22	39.292
475.57	40.056
475.92	40.335
476.27	39.943
476.61	41.577
476.96	40.917
477.31	41.066
477.66	41.063
478.01	42.734
478.36	40.597
478.70	41.324
479.05	40.617
479.40	40.984
479.75	40.367
480.10	40.575
480.45	40.426
480.79	40.918
481.14	40.542
481.49	41.045
481.84	40.638
482.19	40.841
482.53	40.862
482.88	40.579
483.23	40.469
483.58	41.119
483.92	41.567
484.27	41.028
484.62	40.130
484.97	40.296
485.31	39.008
485.66	39.110
486.01	38.401
486.36	39.056
486.70	39.195
487.05	39.577
487.40	40.224
487.75	39.865
488.09	39.654
488.44	40.528
488.79	40.325
489.13	41.232
489.48	41.843
489.83	41.616
490.17	41.489
490.52	41.440
490.87	40.185
491.22	41.242
491.56	40.926
491.91	41.508
492.26	41.368
492.60	41.579
492.95	41.218
493.30	40.829
493.64	41.279
493.99	41.778
494.34	42.048
494.68	41.948
495.03	41.635
495.37	41.642
495.72	41.306
496.07	41.530
496.41	42.520
496.76	42.055
497.11	42.393
497.45	42.768
497.80	42.671
498.14	41.847
498.49	41.738
498.84	40.922
499.18	42.982
499.53	41.646
499.87	41.747
500.22	42.353
500.56	41.771
500.91	42.315
501.26	42.261
501.60	41.310
501.95	43.140
502.29	41.096
502.64	41.914
502.98	42.070
503.33	41.964
503.67	42.002
504.02	42.636
504.36	41.912
504.71	42.249
505.06	41.638
505.40	41.567
505.75	42.124
506.09	42.770
506.44	42.105
506.78	42.649
507.13	41.864
507.47	42.619
507.82	42.953
508.16	42.435
508.51	42.813
508.85	42.702
509.19	41.863
509.54	42.759
509.88	42.606
510.23	42.872
510.57	43.069
510.92	42.750
511.26	42.850
511.61	42.819
511.95	41.595
512.30	43.375
512.64	42.627
512.98	43.674
513.33	43.273
513.67	42.937
514.02	42.394
514.36	43.380
514.70	42.445
515.05	43.453
515.39	43.368
515.74	44.037
516.08	43.516
516.42	42.720
516.77	42.981
517.11	42.963
517.46	44.079
517.80	43.020
518.14	43.237
518.49	43.455
518.83	42.077
519.17	42.629
519.52	42.337
519.86	42.652
520.20	43.032
520.55	43.938
520.89	43.206
521.23	43.407
521.58	43.699
521.92	44.079
522.26	43.556
522.61	44.550
522.95	43.459
523.29	43.887
523.64	43.223
523.98	44.048
524.32	43.935
524.66	42.795
525.01	43.866
525.35	44.201
525.69	43.656
526.04	44.974
526.38	44.494
526.72	43.040
527.06	44.987
527.41	43.300
527.75	42.904
528.09	45.268
528.43	43.410
528.78	43.530
529.12	44.494
529.46	43.621
529.80	43.641
530.15	44.495
530.49	43.338
530.83	43.484
531.17	43.838
531.51	43.603
531.86	43.581
532.20	44.669
532.54	42.981
532.88	43.083
533.22	44.786
533.57	43.864
533.91	42.759
534.25	44.060
534.59	42.411
534.93	42.626
535.27	43.738
535.62	44.437
535.96	43.310
536.30	42.474
536.64	44.157
536.98	44.774
537.32	43.469
537.66	43.449
538.01	43.643
538.35	42.973
538.69	43.048
539.03	44.211
539.37	43.513
539.71	43.029
540.05	43.523
540.39	43.698
540.73	43.884
541.07	42.350
541.42	44.024
541.76	42.126
542.10	44.294
542.44	42.771
542.78	43.758
543.12	44.128
543.46	43.014
543.80	43.010
544.14	41.907
544.48	43.110
544.82	42.490
545.16	43.930
545.50	43.001
545.84	43.741
546.18	43.620
546.52	43.457
546.86	44.231
547.20	44.866
547.54	43.664
547.88	43.530
548.22	41.678
548.56	43.754
548.90	42.992
549.24	42.747
549.58	43.402
549.92	43.463
550.26	44.292
550.60	42.959
550.94	44.015
551.28	43.868
551.62	43.722
551.96	43.343
552.30	43.972
552.64	43.631
552.98	44.639
553.32	45.166
553.66	44.196
554.00	44.776
554.34	42.455
554.68	42.836
555.02	42.692
555.36	44.285
555.69	43.983
556.03	42.877
556.37	43.172
556.71	43.808
557.05	44.715
557.39	44.172
557.73	45.222
558.07	43.482
558.41	42.558
558.75	43.498
559.08	43.346
559.42	43.492
559.76	43.558
560.10	43.997
560.44	45.520
560.78	43.633
561.12	42.650
561.45	43.425
561.79	43.275
562.13	44.530
562.47	42.577
562.81	42.716
563.15	43.947
563.48	43.884
563.82	43.340
564.16	43.746
564.50	42.204
564.84	41.997
565.17	43.236
565.51	42.960
565.85	44.084
566.19	44.071
566.52	42.531
566.86	42.478
567.20	44.068
567.54	43.060
567.88	42.769
568.21	42.114
568.55	42.206
568.89	41.402
569.23	40.213
569.56	39.681
569.90	40.323
570.24	40.549
570.57	39.051
570.91	39.952
571.25	39.429
571.59	40.181
571.92	39.167
572.26	39.065
572.60	39.032
572.93	38.959
573.27	39.146
573.61	38.973
573.95	38.771
574.28	38.840
574.62	39.120
574.96	38.360
575.29	38.796
575.63	38.386
575.97	38.916
576.30	38.805
576.64	38.877
576.98	38.293
577.31	38.856
577.65	39.208
577.98	37.887
578.32	38.329
578.66	38.205
578.99	38.214
579.33	38.332
579.67	38.270
580.00	38.442
580.34	38.601
580.67	38.588
581.01	38.391
581.35	38.165
581.68	38.073
582.02	38.406
582.35	38.244
582.69	38.619
583.02	38.683
583.36	38.513
583.70	38.966
584.03	39.251
584.37	39.296
584.70	39.149
585.04	38.937
585.37	38.282
585.71	38.679
586.04	38.475
586.38	38.519
586.72	38.388
587.05	38.346
587.39	38.978
587.72	38.811
588.06	39.037
588.39	39.077
588.73	39.378
589.06	39.674
589.40	40.536
589.73	39.306
590.07	39.439
590.40	39.336
590.73	40.184
591.07	40.246
591.40	40.901
591.74	40.356
592.07	40.495
592.41	40.382
592.74	40.161
593.08	39.169
593.41	39.309
593.75	38.246
594.08	39.971
594.41	40.148
594.75	40.204
595.08	40.188
595.42	39.270
595.75	39.067
596.09	39.736
596.42	40.630
596.75	39.802
597.09	41.407
597.42	40.157
597.75	39.947
598.09	41.075
598.42	39.947
598.76	39.867
599.09	39.897
599.42	39.216
599.76	39.826
600.09	40.191
600.42	40.068
600.76	40.377
601.09	38.853
601.42	39.652
601.76	39.681
602.09	40.573
602.42	40.782
602.76	40.382
603.09	40.000
603.42	40.612
603.76	40.407
604.09	40.088
604.42	39.759
604.76	39.948
605.09	40.461
605.42	40.204
605.75	40.664
606.09	39.643
606.42	40.008
606.75	39.802
607.09	40.009
607.42	39.789
607.75	39.603
608.08	40.262
608.42	41.107
608.75	39.766
609.08	40.916
609.41	39.910
609.75	40.809
610.08	41.814
610.41	40.578
610.74	40.764
611.07	40.568
611.41	40.343
611.74	40.874
612.07	41.944
612.40	40.885
612.73	40.603
613.07	41.057
613.40	42.255
613.73	40.872
614.06	41.571
614.39	42.446
614.72	41.006
615.06	41.359
615.39	40.749
615.72	40.847
616.05	40.199
616.38	42.136
616.71	41.381
617.05	43.305
617.38	42.229
617.71	41.953
618.04	41.242
618.37	42.767
618.70	43.220
619.03	42.316
619.36	42.777
619.69	41.278
620.03	41.804
620.36	43.108
620.69	43.144
621.02	43.607
621.35	44.032
621.68	43.607
622.01	44.741
622.34	45.186
622.67	43.672
623.00	42.540
623.33	44.403
623.66	41.581
623.99	44.211
624.32	43.676
624.65	44.077
624.99	43.391
625.32	43.713
625.65	43.901
625.98	44.366
626.31	44.698
626.64	42.594
626.97	44.264
627.30	45.532
627.63	43.955
627.96	44.125
628.29	45.864
628.62	44.986
628.95	46.063
629.28	45.395
629.61	44.652
629.94	44.991
630.26	46.720
630.59	48.040
630.92	45.946
631.25	44.859
631.58	46.561
631.91	45.957
632.24	47.111
632.57	47.889
632.90	47.356
633.23	46.379
633.56	48.538
633.89	48.703
634.22	46.635
634.55	48.197
634.88	48.368
635.20	47.815
635.53	47.074
635.86	47.859
636.19	46.276
636.52	45.520
636.85	46.089
637.18	48.125
637.51	47.460
