SpectraSuite Data File
++++++++++++++++++++++++++++++++++++
Date: Sat May 16 11:08:25 PDT 2015
User: schluterlab
Dark Spectrum Present: Yes
Reference Spectrum Present: Yes
Number of Sampled Component Spectra: 1
Spectrometers: USB2E3373
Integration Time (usec): 3000 (USB2E3373)
Spectra Averaged: 3 (USB2E3373)
Boxcar Smoothing: 0 (USB2E3373)
Correct for Electrical Dark: No (USB2E3373)
Strobe/Lamp Enabled: No (USB2E3373)
Correct for Detector Non-linearity: No (USB2E3373)
Correct for Stray Light: No (USB2E3373)
Number of Pixels in Processed Spectrum: 2048
>>>>>Begin Processed Spectral Data<<<<<
178.53	0.000
178.91	53.333
179.29	366.667
179.67	700.000
180.04	30.769
180.42	200.000
180.80	-125.000
181.18	200.000
181.56	75.000
181.94	100.000
182.31	75.000
182.69	23.077
183.07	-333.333
183.45	650.000
183.83	-33.333
184.20	14.286
184.58	-12.500
184.96	100.000
185.34	62.500
185.72	-475.000
186.09	-33.333
186.47	-75.000
186.85	-62.500
187.23	62.500
187.61	250.000
187.98	-175.000
188.36	12.500
188.74	50.000
189.12	400.000
189.49	214.286
189.87	8.333
190.25	175.000
190.63	21.429
191.00	33.333
191.38	60.000
191.76	113.333
192.14	220.000
192.51	160.000
192.89	-233.333
193.27	0.000
193.65	66.667
194.02	-42.857
194.40	233.333
194.78	70.000
195.15	-100.000
195.53	-27.273
195.91	-150.000
196.29	-160.000
196.66	-33.333
197.04	-600.000
197.42	250.000
197.79	120.000
198.17	166.667
198.55	200.000
198.92	-800.000
199.30	125.000
199.68	350.000
200.05	22.222
200.43	-22.222
200.81	-100.000
201.18	-41.667
201.56	100.000
201.94	13.333
202.31	63.636
202.69	-50.000
203.07	10.000
203.44	333.333
203.82	-50.000
204.19	-50.000
204.57	100.000
204.95	-300.000
205.32	81.250
205.70	-600.000
206.08	-500.000
206.45	66.667
206.83	100.000
207.20	900.000
207.58	-366.667
207.96	333.333
208.33	-162.500
208.71	22.222
209.08	150.000
209.46	-42.857
209.84	200.000
210.21	0.000
210.59	110.000
210.96	-0.000
211.34	66.667
211.71	-33.333
212.09	100.000
212.46	500.000
212.84	-600.000
213.22	266.667
213.59	58.333
213.97	33.333
214.34	-80.000
214.72	-100.000
215.09	300.000
215.47	0.000
215.84	140.000
216.22	-30.000
216.59	33.333
216.97	-100.000
217.34	-50.000
217.72	85.714
218.09	-183.333
218.47	128.571
218.84	14.286
219.22	214.286
219.59	0.000
219.97	100.000
220.34	275.000
220.72	112.500
221.09	7.692
221.47	0.000
221.84	-133.333
222.22	800.000
222.59	-100.000
222.97	-150.000
223.34	-500.000
223.72	-133.333
224.09	42.857
224.46	175.000
224.84	-14.286
225.21	-114.286
225.59	-18.182
225.96	-150.000
226.34	42.857
226.71	22.222
227.08	40.000
227.46	100.000
227.83	-42.857
228.21	-62.500
228.58	200.000
228.95	43.750
229.33	-900.000
229.70	100.000
230.08	-350.000
230.45	108.333
230.82	33.333
231.20	100.000
231.57	-50.000
231.95	-0.000
232.32	57.143
232.69	44.444
233.07	128.571
233.44	-500.000
233.81	6.667
234.19	44.444
234.56	37.500
234.93	46.875
235.31	0.000
235.68	42.857
236.05	35.294
236.43	22.727
236.80	70.968
237.17	8.333
237.55	57.143
237.92	4.545
238.29	31.429
238.67	61.765
239.04	61.111
239.41	48.387
239.79	5.128
240.16	40.476
240.53	27.273
240.91	71.795
241.28	45.455
241.65	50.769
242.02	37.705
242.40	44.262
242.77	34.848
243.14	55.932
243.51	40.000
243.89	43.038
244.26	37.079
244.63	48.421
245.00	37.895
245.38	46.610
245.75	41.593
246.12	38.400
246.49	50.394
246.87	34.146
247.24	36.441
247.61	35.593
247.98	42.254
248.36	46.853
248.73	45.570
249.10	35.032
249.47	45.029
249.84	52.273
250.22	42.857
250.59	46.893
250.96	45.026
251.33	43.602
251.70	43.269
252.08	42.654
252.45	40.758
252.82	42.381
253.19	43.830
253.56	40.726
253.94	39.662
254.31	40.343
254.68	36.585
255.05	40.726
255.42	44.841
255.79	39.427
256.16	45.490
256.54	46.324
256.91	39.773
257.28	42.857
257.65	41.135
258.02	45.283
258.39	41.472
258.76	42.230
259.14	41.049
259.51	46.885
259.88	41.463
260.25	43.478
260.62	42.765
260.99	39.466
261.36	42.683
261.73	42.486
262.10	40.278
262.47	43.305
262.85	44.286
263.22	37.822
263.59	43.077
263.96	40.870
264.33	43.631
264.70	43.094
265.07	42.308
265.44	39.276
265.81	41.602
266.18	41.013
266.55	38.235
266.92	42.065
267.29	40.920
267.66	39.506
268.03	43.478
268.40	40.141
268.77	38.072
269.14	38.283
269.51	40.000
269.88	38.761
270.25	38.462
270.62	40.732
270.99	40.991
271.36	41.725
271.73	42.377
272.10	41.190
272.47	39.333
272.84	41.778
273.21	41.514
273.58	41.538
273.95	40.789
274.32	42.986
274.69	41.357
275.06	39.877
275.43	41.295
275.80	43.177
276.17	39.331
276.54	42.566
276.91	39.506
277.28	38.540
277.65	40.289
278.02	42.171
278.39	38.900
278.76	41.434
279.13	40.909
279.50	39.960
279.87	40.803
280.23	41.903
280.60	41.750
280.97	38.835
281.34	39.265
281.71	40.385
282.08	43.347
282.45	40.937
282.82	42.636
283.19	36.545
283.56	41.575
283.92	40.106
284.29	39.591
284.66	40.288
285.03	40.463
285.40	41.328
285.77	39.123
286.14	40.433
286.51	37.123
286.87	39.746
287.24	38.396
287.61	39.835
287.98	38.128
288.35	37.190
288.72	40.917
289.08	37.288
289.45	40.236
289.82	40.138
290.19	39.080
290.56	36.694
290.93	36.566
291.29	38.412
291.66	39.130
292.03	39.717
292.40	37.500
292.77	35.870
293.13	37.561
293.50	35.810
293.87	35.429
294.24	35.294
294.60	33.939
294.97	36.115
295.34	34.222
295.71	34.077
296.08	34.409
296.44	33.047
296.81	34.330
297.18	32.113
297.55	33.475
297.91	33.891
298.28	33.288
298.65	34.589
299.02	34.358
299.38	32.086
299.75	34.103
300.12	33.590
300.48	34.143
300.85	32.896
301.22	31.824
301.59	33.680
301.95	32.494
302.32	31.943
302.69	30.355
303.05	32.479
303.42	30.750
303.79	30.981
304.15	32.227
304.52	32.439
304.89	31.759
305.25	30.159
305.62	30.905
305.99	33.687
306.35	30.078
306.72	28.246
307.09	32.009
307.45	31.215
307.82	28.492
308.19	31.655
308.55	29.303
308.92	30.075
309.29	29.838
309.65	30.859
310.02	30.346
310.38	30.162
310.75	29.918
311.12	29.959
311.48	30.480
311.85	28.012
312.22	29.866
312.58	29.908
312.95	30.173
313.31	29.870
313.68	30.352
314.05	29.674
314.41	28.571
314.78	29.071
315.14	30.109
315.51	29.179
315.87	31.268
316.24	29.738
316.61	29.846
316.97	29.950
317.34	29.094
317.70	26.809
318.07	29.664
318.43	28.652
318.80	29.577
319.16	29.268
319.53	29.511
319.89	28.410
320.26	29.216
320.62	28.173
320.99	29.254
321.35	27.685
321.72	28.557
322.08	30.762
322.45	29.307
322.81	29.491
323.18	29.395
323.54	30.499
323.91	28.638
324.27	30.133
324.64	28.428
325.00	28.447
325.37	29.231
325.73	29.396
326.10	29.584
326.46	30.210
326.83	28.000
327.19	28.857
327.56	31.261
327.92	29.737
328.29	30.303
328.65	29.182
329.01	31.007
329.38	29.884
329.74	30.037
330.11	30.100
330.47	30.245
330.84	31.622
331.20	28.791
331.56	29.170
331.93	29.663
332.29	30.776
332.66	30.817
333.02	29.231
333.38	29.749
333.75	30.543
334.11	30.756
334.48	29.921
334.84	31.059
335.20	30.496
335.57	30.596
335.93	32.319
336.29	29.849
336.66	29.692
337.02	31.351
337.38	31.105
337.75	30.202
338.11	29.606
338.47	31.406
338.84	30.672
339.20	30.053
339.56	30.927
339.93	29.453
340.29	30.204
340.65	29.633
341.02	31.029
341.38	29.907
341.74	30.398
342.11	30.546
342.47	30.730
342.83	29.639
343.20	30.487
343.56	29.551
343.92	30.885
344.28	31.707
344.65	29.703
345.01	30.084
345.37	29.319
345.73	29.133
346.10	28.209
346.46	29.488
346.82	30.072
347.19	29.088
347.55	29.695
347.91	29.764
348.27	28.162
348.63	29.402
349.00	29.912
349.36	29.040
349.72	30.096
350.08	29.190
350.45	30.181
350.81	29.857
351.17	28.215
351.53	28.878
351.89	28.860
352.26	30.155
352.62	29.570
352.98	29.351
353.34	30.136
353.70	27.722
354.07	29.190
354.43	30.909
354.79	28.764
355.15	28.754
355.51	30.000
355.87	30.435
356.24	29.230
356.60	30.459
356.96	29.715
357.32	29.533
357.68	30.115
358.04	29.484
358.40	29.234
358.77	30.371
359.13	28.615
359.49	29.101
359.85	29.726
360.21	28.691
360.57	29.895
360.93	29.704
361.29	29.372
361.66	29.192
362.02	28.846
362.38	30.594
362.74	30.256
363.10	28.838
363.46	29.416
363.82	29.883
364.18	29.161
364.54	30.808
364.90	29.280
365.26	30.029
365.62	30.435
365.98	30.512
366.35	29.648
366.71	29.316
367.07	30.275
367.43	30.885
367.79	28.866
368.15	29.801
368.51	30.280
368.87	29.739
369.23	29.754
369.59	30.139
369.95	30.937
370.31	29.395
370.67	29.356
371.03	29.883
371.39	29.491
371.75	29.614
372.11	30.631
372.47	29.863
372.83	29.972
373.19	29.571
373.55	30.612
373.91	30.441
374.27	28.816
374.63	29.814
374.99	30.389
375.35	29.542
375.71	31.263
376.07	29.637
376.42	29.404
376.78	29.804
377.14	30.305
377.50	30.754
377.86	29.909
378.22	30.590
378.58	29.463
378.94	29.655
379.30	31.505
379.66	30.298
380.02	30.065
380.38	29.970
380.74	29.719
381.09	30.287
381.45	30.370
381.81	29.038
382.17	30.138
382.53	29.544
382.89	30.323
383.25	30.524
383.61	30.955
383.97	30.925
384.32	31.227
384.68	30.834
385.04	30.616
385.40	30.189
385.76	30.061
386.12	30.044
386.48	30.569
386.83	31.656
387.19	30.783
387.55	30.769
387.91	30.587
388.27	28.890
388.62	30.048
388.98	30.466
389.34	30.233
389.70	31.303
390.06	29.894
390.42	30.256
390.77	30.284
391.13	30.683
391.49	31.067
391.85	30.923
392.20	29.672
392.56	30.788
392.92	31.603
393.28	30.827
393.64	31.269
393.99	31.508
394.35	31.752
394.71	31.316
395.07	30.822
395.42	29.976
395.78	30.547
396.14	30.903
396.50	30.581
396.85	30.660
397.21	30.620
397.57	30.821
397.92	31.206
398.28	31.833
398.64	29.923
399.00	31.742
399.35	31.398
399.71	31.069
400.07	31.343
400.42	30.900
400.78	30.948
401.14	31.018
401.49	30.778
401.85	31.666
402.21	30.215
402.57	30.583
402.92	31.781
403.28	30.821
403.63	30.198
403.99	31.137
404.35	30.676
404.70	30.369
405.06	30.911
405.42	30.566
405.77	30.769
406.13	30.040
406.49	31.096
406.84	30.774
407.20	31.331
407.55	31.222
407.91	29.404
408.27	31.618
408.62	30.247
408.98	30.988
409.34	29.677
409.69	30.057
410.05	31.110
410.40	30.779
410.76	30.587
411.11	30.736
411.47	31.138
411.83	31.174
412.18	31.188
412.54	30.262
412.89	31.106
413.25	30.933
413.60	30.437
413.96	29.883
414.31	30.765
414.67	29.841
415.03	30.983
415.38	31.490
415.74	31.186
416.09	30.627
416.45	29.630
416.80	31.339
417.16	30.764
417.51	30.598
417.87	31.133
418.22	30.025
418.58	30.873
418.93	30.779
419.29	31.619
419.64	30.151
420.00	31.896
420.35	30.869
420.71	31.693
421.06	31.243
421.42	30.621
421.77	31.379
422.12	30.554
422.48	30.465
422.83	30.695
423.19	31.570
423.54	31.124
423.90	31.405
424.25	30.826
424.61	31.785
424.96	31.714
425.31	31.526
425.67	31.633
426.02	30.407
426.38	31.760
426.73	31.560
427.09	32.292
427.44	30.625
427.79	30.000
428.15	31.299
428.50	31.144
428.85	31.295
429.21	30.769
429.56	31.823
429.92	31.313
430.27	31.904
430.62	32.079
430.98	30.789
431.33	31.217
431.68	31.957
432.04	32.680
432.39	31.453
432.74	31.655
433.10	31.795
433.45	30.800
433.80	32.139
434.16	31.435
434.51	32.274
434.86	32.923
435.22	32.127
435.57	32.130
435.92	31.477
436.28	33.294
436.63	31.713
436.98	31.901
437.34	32.250
437.69	31.447
438.04	32.955
438.39	32.551
438.75	32.072
439.10	32.704
439.45	32.167
439.81	31.988
440.16	31.630
440.51	33.412
440.86	31.926
441.22	32.283
441.57	30.947
441.92	32.072
442.27	31.548
442.63	32.189
442.98	31.546
443.33	31.796
443.68	31.683
444.03	32.957
444.39	32.208
444.74	32.764
445.09	31.634
445.44	32.864
445.79	32.993
446.15	32.202
446.50	31.900
446.85	32.427
447.20	31.716
447.55	32.265
447.91	32.959
448.26	32.849
448.61	32.371
448.96	32.717
449.31	31.398
449.66	33.143
450.02	32.355
450.37	32.754
450.72	31.864
451.07	33.501
451.42	32.218
451.77	33.453
452.12	32.062
452.47	32.746
452.83	32.149
453.18	32.954
453.53	31.405
453.88	34.988
454.23	31.983
454.58	33.810
454.93	33.879
455.28	33.333
455.63	33.047
455.98	33.434
456.34	32.274
456.69	32.583
457.04	33.128
457.39	32.596
457.74	32.487
458.09	32.425
458.44	32.968
458.79	33.464
459.14	33.257
459.49	33.156
459.84	33.052
460.19	31.921
460.54	31.881
460.89	33.632
461.24	33.880
461.59	33.411
461.94	33.227
462.29	33.175
462.64	33.926
462.99	33.601
463.34	33.018
463.69	32.761
464.04	32.630
464.39	31.601
464.74	34.102
465.09	32.952
465.44	33.954
465.79	33.390
466.14	34.177
466.49	34.082
466.84	33.553
467.19	33.042
467.54	32.595
467.89	33.785
468.24	33.729
468.59	34.166
468.94	34.084
469.29	33.463
469.64	33.625
469.99	34.571
470.34	34.335
470.68	34.157
471.03	33.379
471.38	33.681
471.73	34.336
472.08	32.999
472.43	34.106
472.78	34.533
473.13	33.400
473.48	33.695
473.83	33.065
474.17	33.312
474.52	34.527
474.87	33.974
475.22	33.274
475.57	33.667
475.92	34.935
476.27	33.657
476.61	33.915
476.96	34.209
477.31	34.822
477.66	34.311
478.01	34.738
478.36	33.578
478.70	33.689
479.05	34.397
479.40	33.627
479.75	33.435
480.10	33.234
480.45	33.414
480.79	34.205
481.14	35.123
481.49	33.591
481.84	33.842
482.19	34.308
482.53	34.706
482.88	33.128
483.23	34.836
483.58	34.228
483.92	33.827
484.27	33.186
484.62	34.125
484.97	34.256
485.31	33.376
485.66	31.889
486.01	31.765
486.36	32.165
486.70	32.950
487.05	32.547
487.40	32.879
487.75	33.380
488.09	33.570
488.44	34.438
488.79	34.807
489.13	34.690
489.48	35.563
489.83	35.022
490.17	34.697
490.52	34.918
490.87	34.319
491.22	35.170
491.56	34.120
491.91	34.113
492.26	35.660
492.60	35.633
492.95	34.888
493.30	34.969
493.64	34.791
493.99	34.751
494.34	35.762
494.68	35.019
495.03	35.229
495.37	35.497
495.72	35.363
496.07	35.148
496.41	35.665
496.76	35.434
497.11	35.798
497.45	36.015
497.80	35.718
498.14	35.216
498.49	34.807
498.84	34.709
499.18	35.819
499.53	35.460
499.87	34.990
500.22	35.294
500.56	35.168
500.91	35.665
501.26	35.614
501.60	35.243
501.95	36.087
502.29	34.955
502.64	36.398
502.98	35.362
503.33	35.385
503.67	34.195
504.02	35.249
504.36	35.588
504.71	35.765
505.06	35.547
505.40	35.828
505.75	35.772
506.09	35.844
506.44	35.539
506.78	35.976
507.13	35.633
507.47	36.463
507.82	34.951
508.16	36.010
508.51	36.373
508.85	36.698
509.19	35.845
509.54	36.681
509.88	36.649
510.23	37.107
510.57	36.667
510.92	37.379
511.26	37.321
511.61	36.339
511.95	35.884
512.30	37.328
512.64	37.284
512.98	37.294
513.33	37.122
513.67	36.404
514.02	36.130
514.36	37.008
514.70	36.163
515.05	36.935
515.39	37.082
515.74	38.045
516.08	37.752
516.42	37.847
516.77	37.435
517.11	37.471
517.46	37.560
517.80	38.628
518.14	37.742
518.49	37.717
518.83	37.685
519.17	38.188
519.52	37.594
519.86	37.694
520.20	38.998
520.55	38.092
520.89	37.445
521.23	38.278
521.58	38.370
521.92	38.315
522.26	38.603
522.61	38.466
522.95	37.907
523.29	37.994
523.64	37.539
523.98	38.129
524.32	38.215
524.66	36.957
525.01	38.022
525.35	38.660
525.69	39.102
526.04	39.360
526.38	39.020
526.72	37.548
527.06	40.104
527.41	38.680
527.75	37.822
528.09	40.371
528.43	39.410
528.78	38.128
529.12	40.461
529.46	39.304
529.80	39.251
530.15	40.438
530.49	39.521
530.83	39.948
531.17	39.596
531.51	38.647
531.86	38.446
532.20	39.406
532.54	40.775
532.88	39.065
533.22	40.107
533.57	38.577
533.91	37.516
534.25	37.524
534.59	37.352
534.93	37.959
535.27	38.767
535.62	38.107
535.96	38.720
536.30	38.220
536.64	39.708
536.98	39.972
537.32	37.871
537.66	38.221
538.01	39.175
538.35	39.392
538.69	39.238
539.03	40.352
539.37	39.388
539.71	38.092
540.05	40.644
540.39	40.720
540.73	40.014
541.07	40.437
541.42	38.217
541.76	37.874
542.10	39.298
542.44	39.640
542.78	39.281
543.12	39.172
543.46	37.808
543.80	37.592
544.14	38.885
544.48	39.239
544.82	38.430
545.16	39.302
545.50	39.233
545.84	38.456
546.18	40.014
546.52	38.407
546.86	39.174
547.20	39.733
547.54	38.567
547.88	39.283
548.22	39.122
548.56	38.477
548.90	39.892
549.24	39.173
549.58	39.520
549.92	39.717
550.26	39.884
550.60	38.265
550.94	40.511
551.28	39.202
551.62	39.660
551.96	40.304
552.30	39.652
552.64	38.987
552.98	38.893
553.32	39.610
553.66	39.798
554.00	40.370
554.34	39.928
554.68	39.108
555.02	39.001
555.36	39.324
555.69	39.613
556.03	40.632
556.37	40.043
556.71	39.728
557.05	39.542
557.39	39.495
557.73	38.804
558.07	40.015
558.41	40.838
558.75	40.532
559.08	38.444
559.42	40.199
559.76	39.954
560.10	39.448
560.44	39.017
560.78	39.666
561.12	38.785
561.45	39.726
561.79	39.443
562.13	37.938
562.47	39.706
562.81	39.321
563.15	39.678
563.48	40.152
563.82	40.568
564.16	39.554
564.50	40.188
564.84	38.889
565.17	39.854
565.51	39.635
565.85	39.959
566.19	39.526
566.52	38.813
566.86	38.685
567.20	39.044
567.54	39.279
567.88	38.526
568.21	38.982
568.55	37.540
568.89	37.127
569.23	37.298
569.56	36.066
569.90	37.530
570.24	36.452
570.57	35.677
570.91	35.906
571.25	36.057
571.59	35.810
571.92	35.149
572.26	35.770
572.60	36.581
572.93	34.964
573.27	36.037
573.61	35.618
573.95	36.056
574.28	35.318
574.62	35.638
574.96	34.821
575.29	35.315
575.63	35.625
575.97	35.518
576.30	35.681
576.64	36.031
576.98	35.357
577.31	35.232
577.65	35.093
577.98	34.876
578.32	34.772
578.66	34.910
578.99	35.324
579.33	35.619
579.67	35.582
580.00	35.119
580.34	35.176
580.67	35.793
581.01	34.963
581.35	35.556
581.68	34.885
582.02	35.010
582.35	34.995
582.69	34.755
583.02	35.676
583.36	35.129
583.70	35.714
584.03	36.692
584.37	35.562
584.70	35.739
585.04	35.696
585.37	35.107
585.71	34.978
586.04	35.284
586.38	35.124
586.72	35.259
587.05	35.854
587.39	35.373
587.72	35.360
588.06	36.176
588.39	35.859
588.73	35.667
589.06	36.413
589.40	36.620
589.73	36.367
590.07	36.635
590.40	35.351
590.73	36.665
591.07	36.230
591.40	37.912
591.74	37.272
592.07	37.297
592.41	36.773
592.74	36.741
593.08	35.633
593.41	35.724
593.75	35.575
594.08	36.161
594.41	36.155
594.75	36.089
595.08	36.391
595.42	37.428
595.75	36.531
596.09	36.593
596.42	37.439
596.75	36.740
597.09	37.266
597.42	36.796
597.75	36.670
598.09	37.777
598.42	36.235
598.76	36.420
599.09	36.069
599.42	36.601
599.76	37.033
600.09	36.260
600.42	36.270
600.76	36.497
601.09	35.663
601.42	36.169
601.76	36.176
602.09	37.014
602.42	36.173
602.76	36.186
603.09	36.492
603.42	37.067
603.76	37.056
604.09	36.324
604.42	36.178
604.76	36.023
605.09	37.749
605.42	37.234
605.75	36.912
606.09	36.364
606.42	35.651
606.75	37.012
607.09	36.524
607.42	37.148
607.75	36.468
608.08	37.732
608.42	37.323
608.75	37.150
609.08	37.360
609.41	37.319
609.75	36.080
610.08	37.941
610.41	37.060
610.74	37.427
611.07	37.424
611.41	37.115
611.74	36.093
612.07	39.098
612.40	37.687
612.73	37.749
613.07	37.149
613.40	38.095
613.73	37.657
614.06	37.013
614.39	39.064
614.72	37.709
615.06	37.174
615.39	36.788
615.72	37.643
616.05	37.217
616.38	38.595
616.71	38.378
617.05	38.902
617.38	38.700
617.71	38.268
618.04	38.075
618.37	39.057
618.70	39.961
619.03	38.998
619.36	39.817
619.69	39.052
620.03	38.361
620.36	38.256
620.69	39.411
621.02	39.422
621.35	38.871
621.68	40.410
622.01	39.320
622.34	38.898
622.67	38.984
623.00	38.409
623.33	39.925
623.66	39.513
623.99	38.571
624.32	38.988
624.65	38.852
624.99	39.283
625.32	39.895
625.65	39.860
625.98	38.732
626.31	40.783
626.64	41.088
626.97	39.897
627.30	40.340
627.63	39.637
627.96	39.426
628.29	40.717
628.62	41.070
628.95	41.732
629.28	39.850
629.61	39.745
629.94	41.115
630.26	41.948
630.59	42.412
630.92	41.041
631.25	42.742
631.58	40.529
631.91	39.787
632.24	43.111
632.57	42.333
632.90	43.678
633.23	43.107
633.56	40.468
633.89	41.038
