SpectraSuite Data File
++++++++++++++++++++++++++++++++++++
Date: Sat May 16 11:24:18 PDT 2015
User: schluterlab
Dark Spectrum Present: Yes
Reference Spectrum Present: Yes
Number of Sampled Component Spectra: 1
Spectrometers: USB2E3373
Integration Time (usec): 3000 (USB2E3373)
Spectra Averaged: 3 (USB2E3373)
Boxcar Smoothing: 0 (USB2E3373)
Correct for Electrical Dark: No (USB2E3373)
Strobe/Lamp Enabled: No (USB2E3373)
Correct for Detector Non-linearity: No (USB2E3373)
Correct for Stray Light: No (USB2E3373)
Number of Pixels in Processed Spectrum: 2048
>>>>>Begin Processed Spectral Data<<<<<
178.53	0.000
178.91	166.667
179.29	533.333
179.67	-1600.000
180.04	-46.154
180.42	1100.000
180.80	450.000
181.18	525.000
181.56	-100.000
181.94	1600.000
182.31	550.000
182.69	61.538
183.07	-433.333
183.45	1600.000
183.83	366.667
184.20	-200.000
184.58	-50.000
184.96	-600.000
185.34	181.250
185.72	-350.000
186.09	183.333
186.47	-175.000
186.85	-112.500
187.23	-12.500
187.61	-75.000
187.98	-337.500
188.36	-112.500
188.74	-75.000
189.12	1100.000
189.49	314.286
189.87	-100.000
190.25	325.000
190.63	-35.714
191.00	-200.000
191.38	380.000
191.76	13.333
192.14	520.000
192.51	-280.000
192.89	-233.333
193.27	0.000
193.65	-55.556
194.02	-171.429
194.40	433.333
194.78	-180.000
195.15	-300.000
195.53	-127.273
195.91	-400.000
196.29	220.000
196.66	-733.333
197.04	1600.000
197.42	-425.000
197.79	20.000
198.17	-466.667
198.55	-700.000
198.92	-400.000
199.30	187.500
199.68	-450.000
200.05	-133.333
200.43	-166.667
200.81	-1100.000
201.18	-150.000
201.56	171.429
201.94	-60.000
202.31	72.727
202.69	-10.000
203.07	-70.000
203.44	600.000
203.82	-433.333
204.19	-200.000
204.57	-225.000
204.95	-1600.000
205.32	12.500
205.70	1200.000
206.08	-2300.000
206.45	-22.222
206.83	-950.000
207.20	-750.000
207.58	-366.667
207.96	-233.333
208.33	-150.000
208.71	-166.667
209.08	150.000
209.46	-200.000
209.84	700.000
210.21	0.000
210.59	55.000
210.96	1700.000
211.34	-200.000
211.71	-433.333
212.09	100.000
212.46	650.000
212.84	-3100.000
213.22	933.333
213.59	166.667
213.97	-33.333
214.34	120.000
214.72	-110.000
215.09	-266.667
215.47	-83.333
215.84	-60.000
216.22	-80.000
216.59	26.667
216.97	-450.000
217.34	950.000
217.72	-185.714
218.09	-266.667
218.47	-314.286
218.84	214.286
219.22	-128.571
219.59	0.000
219.97	228.571
220.34	300.000
220.72	212.500
221.09	-84.615
221.47	0.000
221.84	533.333
222.22	-400.000
222.59	600.000
222.97	-137.500
223.34	-650.000
223.72	-300.000
224.09	-28.571
224.46	-350.000
224.84	-35.714
225.21	-214.286
225.59	-127.273
225.96	-150.000
226.34	-200.000
226.71	-244.444
227.08	40.000
227.46	1400.000
227.83	-114.286
228.21	-112.500
228.58	-0.000
228.95	-18.750
229.33	-2000.000
229.70	-140.000
230.08	-300.000
230.45	-83.333
230.82	-266.667
231.20	-800.000
231.57	-550.000
231.95	1300.000
232.32	4.762
232.69	0.000
233.07	-185.714
233.44	-550.000
233.81	-60.000
234.19	-88.889
234.56	-68.750
234.93	28.125
235.31	-200.000
235.68	-121.429
236.05	-52.941
236.43	-54.545
236.80	-12.903
237.17	-62.500
237.55	0.000
237.92	-72.727
238.29	-42.857
238.67	-23.529
239.04	-41.667
239.41	-64.516
239.79	-58.974
240.16	-4.762
240.53	-21.818
240.91	-33.333
241.28	-27.273
241.65	-1.538
242.02	-9.836
242.40	0.000
242.77	-7.576
243.14	-20.339
243.51	-25.714
243.89	-10.127
244.26	-3.371
244.63	-4.211
245.00	3.158
245.38	-5.932
245.75	-5.310
246.12	2.400
246.49	-8.661
246.87	-2.439
247.24	-16.102
247.61	-7.627
247.98	-0.704
248.36	-6.294
248.73	-3.797
249.10	-4.459
249.47	-3.509
249.84	-2.273
250.22	-14.286
250.59	-0.565
250.96	-4.188
251.33	5.213
251.70	-1.923
252.08	-4.265
252.45	-3.791
252.82	-3.333
253.19	0.000
253.56	-4.435
253.94	2.532
254.31	0.858
254.68	-1.626
255.05	-3.629
255.42	-0.794
255.79	-5.735
256.16	-1.569
256.54	0.000
256.91	-3.788
257.28	-3.663
257.65	0.355
258.02	2.516
258.39	0.669
258.76	-0.676
259.14	-0.309
259.51	4.918
259.88	0.915
260.25	0.311
260.62	-3.537
260.99	-0.593
261.36	0.610
261.73	1.445
262.10	1.389
262.47	0.285
262.85	2.286
263.22	-1.433
263.59	-4.000
263.96	-2.029
264.33	-0.271
264.70	0.829
265.07	1.099
265.44	1.809
265.81	0.258
266.18	-1.772
266.55	0.735
266.92	1.511
267.29	1.937
267.66	1.481
268.03	0.725
268.40	1.643
268.77	-0.482
269.14	0.696
269.51	2.759
269.88	-0.688
270.25	-1.865
270.62	-0.915
270.99	0.676
271.36	-0.233
271.73	-1.794
272.10	0.229
272.47	-1.778
272.84	2.444
273.21	1.376
273.58	2.637
273.95	0.439
274.32	0.000
274.69	0.875
275.06	2.454
275.43	1.116
275.80	5.092
276.17	-0.418
276.54	2.648
276.91	1.029
277.28	1.826
277.65	-0.620
278.02	0.418
278.39	5.108
278.76	0.797
279.13	-0.198
279.50	2.386
279.87	-1.691
280.23	1.215
280.60	1.590
280.97	-0.194
281.34	0.387
281.71	3.077
282.08	2.016
282.45	-3.666
282.82	0.969
283.19	1.636
283.56	4.396
283.92	3.004
284.29	0.929
284.66	0.719
285.03	1.961
285.40	2.030
285.77	2.807
286.14	2.347
286.51	1.066
286.87	0.181
287.24	2.218
287.61	0.826
287.98	0.347
288.35	1.157
288.72	0.679
289.08	1.356
289.45	0.168
289.82	0.173
290.19	1.806
290.56	-1.488
290.93	0.159
291.29	-0.648
291.66	-0.161
292.03	1.099
292.40	2.410
292.77	0.932
293.13	0.813
293.50	2.675
293.87	-0.307
294.24	2.112
294.60	-0.152
294.97	1.821
295.34	-0.889
295.71	1.935
296.08	-0.768
296.44	-0.429
296.81	-0.285
297.18	1.408
297.55	0.989
297.91	1.255
298.28	-1.096
298.65	0.976
299.02	2.674
299.38	0.936
299.75	1.087
300.12	1.154
300.48	1.407
300.85	1.704
301.22	1.164
301.59	2.731
301.95	2.519
302.32	0.522
302.69	1.224
303.05	0.855
303.42	0.125
303.79	1.435
304.15	2.251
304.52	1.284
304.89	2.597
305.25	1.221
305.62	1.175
305.99	2.473
306.35	3.108
306.72	1.139
307.09	4.313
307.45	1.703
307.82	1.006
308.19	3.132
308.55	2.723
308.92	2.470
309.29	2.486
309.65	1.697
310.02	1.620
310.38	1.297
310.75	3.381
311.12	2.789
311.48	1.983
311.85	2.266
312.22	2.884
312.58	3.764
312.95	4.281
313.31	4.096
313.68	3.719
314.05	5.045
314.41	2.414
314.78	3.297
315.14	5.331
315.51	5.370
315.87	4.550
316.24	4.179
316.61	5.662
316.97	5.473
317.34	5.202
317.70	6.308
318.07	7.276
318.43	6.742
318.80	7.981
319.16	6.285
319.53	7.707
319.89	7.996
320.26	7.549
320.62	6.635
320.99	8.060
321.35	7.291
321.72	8.291
322.08	9.199
322.45	9.010
322.81	10.663
323.18	11.143
323.54	11.738
323.91	12.234
324.27	13.023
324.64	14.168
325.00	13.874
325.37	14.118
325.73	17.148
326.10	14.172
326.46	16.725
326.83	16.851
327.19	18.432
327.56	19.506
327.92	18.352
328.29	20.693
328.65	19.545
329.01	21.378
329.38	21.677
329.74	23.443
330.11	23.663
330.47	24.160
330.84	23.831
331.20	24.549
331.56	25.068
331.93	25.755
332.29	27.306
332.66	26.514
333.02	27.783
333.38	27.509
333.75	28.139
334.11	27.378
334.48	29.038
334.84	29.571
335.20	30.142
335.57	28.700
335.93	29.902
336.29	30.115
336.66	29.604
337.02	30.541
337.38	29.323
337.75	28.446
338.11	30.859
338.47	30.427
338.84	31.942
339.20	30.580
339.56	32.175
339.93	30.247
340.29	31.178
340.65	32.080
341.02	32.462
341.38	31.845
341.74	31.329
342.11	32.509
342.47	31.502
342.83	31.654
343.20	32.365
343.56	31.592
343.92	32.554
344.28	33.305
344.65	31.436
345.01	31.849
345.37	33.721
345.73	31.506
346.10	31.562
346.46	30.788
346.82	32.318
347.19	32.457
347.55	31.701
347.91	31.654
348.27	31.504
348.63	32.472
349.00	31.742
349.36	30.835
349.72	33.678
350.08	33.440
350.45	33.964
350.81	33.519
351.17	33.923
351.53	31.822
351.89	32.902
352.26	34.574
352.62	33.641
352.98	32.832
353.34	34.452
353.70	31.892
354.07	33.674
354.43	33.834
354.79	33.597
355.15	32.907
355.51	32.969
355.87	33.518
356.24	33.598
356.60	34.730
356.96	33.641
357.32	32.304
357.68	33.103
358.04	34.180
358.40	34.184
358.77	34.158
359.13	34.124
359.49	33.258
359.85	33.689
360.21	33.333
360.57	35.392
360.93	34.370
361.29	36.248
361.66	34.070
362.02	33.210
362.38	34.483
362.74	35.458
363.10	34.003
363.46	35.826
363.82	35.204
364.18	34.949
364.54	35.382
364.90	36.268
365.26	36.805
365.62	36.208
365.98	36.700
366.35	35.704
366.71	35.236
367.07	36.697
367.43	36.239
367.79	37.388
368.15	35.775
368.51	36.224
368.87	37.363
369.23	37.263
369.59	35.903
369.95	37.068
370.31	37.553
370.67	36.659
371.03	36.953
371.39	37.129
371.75	37.768
372.11	38.307
372.47	36.949
372.83	37.969
373.19	38.714
373.55	38.072
373.91	36.984
374.27	38.261
374.63	36.508
374.99	38.456
375.35	38.089
375.71	40.378
376.07	38.398
376.42	38.411
376.78	38.627
377.14	40.475
377.50	40.232
377.86	39.792
378.22	39.824
378.58	38.481
378.94	39.149
379.30	39.488
379.66	39.526
380.02	39.394
380.38	40.121
380.74	40.328
381.09	39.250
381.45	39.976
381.81	39.988
382.17	40.915
382.53	40.061
382.89	40.072
383.25	39.615
383.61	40.566
383.97	39.865
384.32	40.551
384.68	41.294
385.04	40.942
385.40	39.988
385.76	41.037
386.12	41.661
386.48	42.265
386.83	41.411
387.19	42.200
387.55	40.339
387.91	41.079
388.27	40.712
388.62	40.986
388.98	41.248
389.34	41.554
389.70	41.474
390.06	40.957
390.42	42.179
390.77	41.703
391.13	43.106
391.49	42.545
391.85	41.833
392.20	41.808
392.56	41.845
392.92	41.472
393.28	41.848
393.64	41.191
393.99	41.662
394.35	41.484
394.71	42.742
395.07	42.498
395.42	41.955
395.78	41.232
396.14	42.118
396.50	42.508
396.85	41.147
397.21	42.710
397.57	42.067
397.92	41.803
398.28	41.222
398.64	41.106
399.00	41.798
399.35	41.263
399.71	42.741
400.07	41.612
400.42	42.397
400.78	40.549
401.14	42.455
401.49	41.274
401.85	41.123
402.21	41.716
402.57	41.626
402.92	42.354
403.28	41.360
403.63	40.324
403.99	41.144
404.35	40.519
404.70	41.428
405.06	40.427
405.42	41.144
405.77	40.158
406.13	40.432
406.49	42.001
406.84	40.732
407.20	41.284
407.55	41.165
407.91	40.803
408.27	41.360
408.62	40.589
408.98	42.268
409.34	41.255
409.69	40.769
410.05	40.206
410.40	40.834
410.76	41.257
411.11	41.833
411.47	40.473
411.83	41.198
412.18	41.584
412.54	40.879
412.89	41.616
413.25	40.437
413.60	40.644
413.96	40.727
414.31	41.651
414.67	41.206
415.03	41.397
415.38	40.664
415.74	41.753
416.09	41.688
416.45	40.410
416.80	42.393
417.16	41.196
417.51	41.628
417.87	40.906
418.22	40.834
418.58	41.399
418.93	41.079
419.29	41.468
419.64	41.897
420.00	42.284
420.35	42.578
420.71	41.357
421.06	42.189
421.42	41.628
421.77	41.429
422.12	43.089
422.48	41.635
422.83	42.768
423.19	42.038
423.54	43.285
423.90	42.221
424.25	42.590
424.61	42.883
424.96	43.183
425.31	43.041
425.67	43.152
426.02	42.800
426.38	42.892
426.73	44.477
427.09	44.792
427.44	43.750
427.79	44.826
428.15	43.806
428.50	44.516
428.85	45.324
429.21	44.162
429.56	44.896
429.92	44.539
430.27	45.214
430.62	46.082
430.98	45.478
431.33	45.678
431.68	45.737
432.04	46.614
432.39	46.268
432.74	45.923
433.10	46.427
433.45	45.020
433.80	45.689
434.16	46.534
434.51	46.795
434.86	48.565
435.22	47.940
435.57	47.246
435.92	46.893
436.28	48.131
436.63	47.654
436.98	46.793
437.34	46.958
437.69	48.133
438.04	48.440
438.39	48.315
438.75	47.322
439.10	47.696
439.45	48.582
439.81	48.735
440.16	48.949
440.51	49.471
440.86	48.988
441.22	47.706
441.57	49.421
441.92	49.054
442.27	48.593
442.63	50.376
442.98	49.661
443.33	49.918
443.68	49.609
444.03	49.411
444.39	49.976
444.74	50.441
445.09	48.465
445.44	50.816
445.79	50.994
446.15	50.219
446.50	49.646
446.85	49.820
447.20	49.285
447.55	50.608
447.91	50.590
448.26	49.497
448.61	49.972
448.96	51.765
449.31	50.902
449.66	50.944
450.02	50.970
450.37	50.841
450.72	51.525
451.07	51.791
451.42	50.620
451.77	52.424
452.12	52.205
452.47	51.637
452.83	51.485
453.18	51.297
453.53	52.923
453.88	52.990
454.23	51.511
454.58	54.319
454.93	52.834
455.28	52.390
455.63	51.351
455.98	54.157
456.34	52.351
456.69	52.533
457.04	52.919
457.39	53.349
457.74	53.692
458.09	52.030
458.44	53.753
458.79	51.738
459.14	52.596
459.49	52.990
459.84	52.501
460.19	52.506
460.54	53.660
460.89	53.531
461.24	53.309
461.59	54.045
461.94	53.215
462.29	52.591
462.64	52.108
462.99	53.414
463.34	54.085
463.69	54.071
464.04	52.255
464.39	52.867
464.74	53.073
465.09	53.097
465.44	53.920
465.79	54.033
466.14	54.603
466.49	53.483
466.84	53.962
467.19	53.304
467.54	52.722
467.89	53.083
468.24	53.979
468.59	54.966
468.94	53.569
469.29	53.476
469.64	53.302
469.99	54.828
470.34	54.309
470.68	55.451
471.03	54.164
471.38	53.611
471.73	56.783
472.08	54.953
472.43	53.990
472.78	54.267
473.13	53.280
473.48	54.690
473.83	54.839
474.17	54.268
474.52	55.691
474.87	53.730
475.22	54.100
475.57	55.000
475.92	53.672
476.27	52.514
476.61	54.028
476.96	54.556
477.31	55.490
477.66	55.562
478.01	55.375
478.36	54.217
478.70	54.885
479.05	55.760
479.40	54.611
479.75	54.434
480.10	54.216
480.45	53.675
480.79	55.084
481.14	54.942
481.49	54.017
481.84	54.877
482.19	54.226
482.53	54.545
482.88	54.960
483.23	54.131
483.58	54.995
483.92	55.423
484.27	53.567
484.62	54.687
484.97	53.975
485.31	52.512
485.66	51.238
486.01	51.857
486.36	53.446
486.70	54.314
487.05	53.637
487.40	54.167
487.75	53.818
488.09	53.922
488.44	54.635
488.79	54.475
489.13	55.496
489.48	55.791
489.83	55.764
490.17	55.333
490.52	55.299
490.87	54.134
491.22	55.488
491.56	55.648
491.91	56.155
492.26	56.462
492.60	56.708
492.95	55.021
493.30	55.931
493.64	55.148
493.99	56.310
494.34	56.000
494.68	56.742
495.03	55.688
495.37	56.883
495.72	56.434
496.07	55.608
496.41	56.183
496.76	55.479
497.11	56.995
497.45	55.699
497.80	56.078
498.14	55.550
498.49	57.258
498.84	55.777
499.18	55.848
499.53	55.821
499.87	57.095
500.22	56.127
500.56	56.428
500.91	56.158
501.26	56.380
501.60	56.668
501.95	58.454
502.29	56.590
502.64	56.954
502.98	57.163
503.33	56.344
503.67	55.412
504.02	56.688
504.36	56.814
504.71	55.826
505.06	55.916
505.40	56.737
505.75	57.063
506.09	57.685
506.44	57.143
506.78	56.498
507.13	57.467
507.47	57.277
507.82	56.892
508.16	58.135
508.51	57.290
508.85	57.919
509.19	56.463
509.54	57.558
509.88	57.447
510.23	56.971
510.57	57.619
510.92	58.002
511.26	57.576
511.61	56.695
511.95	57.274
512.30	57.119
512.64	56.149
512.98	58.801
513.33	57.221
513.67	57.789
514.02	57.830
514.36	58.726
514.70	57.159
515.05	58.548
515.39	57.670
515.74	59.860
516.08	58.386
516.42	58.414
516.77	59.388
517.11	58.924
517.46	59.091
517.80	60.168
518.14	58.031
518.49	58.219
518.83	58.101
519.17	58.911
519.52	57.953
519.86	60.573
520.20	59.046
520.55	59.508
520.89	58.610
521.23	57.204
521.58	58.683
521.92	59.215
522.26	59.429
522.61	59.062
522.95	59.030
523.29	58.809
523.64	57.776
523.98	59.835
524.32	59.145
524.66	57.516
525.01	59.345
525.35	58.441
525.69	59.206
526.04	59.661
526.38	60.853
526.72	59.068
527.06	58.138
527.41	58.944
527.75	57.624
528.09	61.549
528.43	58.885
528.78	58.417
529.12	58.003
529.46	58.183
529.80	58.037
530.15	59.047
530.49	58.603
530.83	58.808
531.17	59.259
531.51	58.808
531.86	57.735
532.20	59.514
532.54	59.024
532.88	57.708
533.22	59.091
533.57	58.812
533.91	56.554
534.25	57.385
534.59	56.277
534.93	57.312
535.27	58.024
535.62	58.696
535.96	57.725
536.30	58.181
536.64	56.972
536.98	58.686
537.32	57.706
537.66	58.113
538.01	57.388
538.35	58.108
538.69	56.952
539.03	57.684
539.37	57.618
539.71	57.105
540.05	57.368
540.39	58.795
540.73	57.567
541.07	58.060
541.42	56.786
541.76	56.611
542.10	58.001
542.44	57.295
542.78	58.073
543.12	57.366
543.46	56.370
543.80	57.659
544.14	56.548
544.48	57.021
544.82	57.307
545.16	58.417
545.50	56.729
545.84	57.928
546.18	58.946
546.52	57.966
546.86	58.048
547.20	58.298
547.54	59.091
547.88	57.532
548.22	56.094
548.56	57.649
548.90	57.951
549.24	58.234
549.58	56.810
549.92	59.011
550.26	57.803
550.60	57.041
550.94	58.613
551.28	58.916
551.62	58.641
551.96	58.538
552.30	58.188
552.64	57.354
552.98	57.673
553.32	59.307
553.66	58.472
554.00	58.706
554.34	59.350
554.68	57.018
555.02	60.130
555.36	58.591
555.69	57.951
556.03	59.088
556.37	59.175
556.71	58.984
557.05	59.202
557.39	58.426
557.73	57.841
558.07	58.704
558.41	59.985
558.75	59.163
559.08	58.054
559.42	57.887
559.76	60.353
560.10	60.403
560.44	59.971
560.78	58.107
561.12	59.282
561.45	57.603
561.79	59.373
562.13	58.205
562.47	58.473
562.81	57.143
563.15	57.943
563.48	58.811
563.82	59.905
564.16	57.877
564.50	58.333
564.84	58.135
565.17	57.692
565.51	57.562
565.85	59.973
566.19	57.971
566.52	57.991
566.86	57.901
567.20	57.869
567.54	58.771
567.88	55.779
568.21	58.054
568.55	56.310
568.89	55.567
569.23	54.558
569.56	53.720
569.90	54.996
570.24	54.378
570.57	52.689
570.91	53.417
571.25	53.016
571.59	53.637
571.92	52.619
572.26	52.696
572.60	52.746
572.93	51.781
573.27	51.829
573.61	51.534
573.95	51.464
574.28	51.916
574.62	52.084
574.96	51.620
575.29	51.728
575.63	51.872
575.97	51.510
576.30	51.137
576.64	51.723
576.98	50.883
577.31	51.681
577.65	51.532
577.98	51.484
578.32	52.010
578.66	51.426
578.99	51.039
579.33	50.992
579.67	51.357
580.00	51.215
580.34	51.296
580.67	51.385
581.01	50.937
581.35	51.336
581.68	50.821
582.02	50.652
582.35	51.483
582.69	51.841
583.02	52.675
583.36	51.787
583.70	52.125
584.03	52.425
584.37	52.612
584.70	53.000
585.04	52.456
585.37	51.766
585.71	51.863
586.04	52.837
586.38	52.072
586.72	52.452
587.05	53.384
587.39	52.909
587.72	52.323
588.06	53.343
588.39	52.976
588.73	52.897
589.06	53.804
589.40	55.273
589.73	54.780
590.07	53.860
590.40	54.871
590.73	55.578
591.07	54.795
591.40	56.153
591.74	54.952
592.07	55.405
592.41	54.437
592.74	54.727
593.08	53.210
593.41	54.737
593.75	53.511
594.08	54.960
594.41	55.268
594.75	54.171
595.08	55.000
595.42	54.552
595.75	54.171
596.09	55.413
596.42	56.097
596.75	55.584
597.09	56.723
597.42	54.736
597.75	55.359
598.09	54.993
598.42	54.574
598.76	54.900
599.09	54.578
599.42	55.056
599.76	54.473
600.09	55.038
600.42	54.159
600.76	54.652
601.09	55.184
601.42	54.333
601.76	55.257
602.09	54.683
602.42	55.597
602.76	55.588
603.09	55.282
603.42	55.479
603.76	55.086
604.09	54.986
604.42	54.538
604.76	55.342
605.09	56.013
605.42	55.851
605.75	55.024
606.09	54.836
606.42	54.797
606.75	54.787
607.09	54.874
607.42	55.414
607.75	54.216
608.08	55.581
608.42	56.433
608.75	55.794
609.08	55.626
609.41	55.655
609.75	55.339
610.08	56.618
610.41	56.096
610.74	56.431
611.07	56.237
611.41	55.270
611.74	56.298
612.07	57.465
612.40	57.143
612.73	56.704
613.07	55.806
613.40	58.183
613.73	57.057
614.06	57.166
614.39	58.174
614.72	56.313
615.06	55.652
615.39	56.430
615.72	55.894
616.05	56.212
616.38	57.400
616.71	56.577
617.05	57.780
617.38	57.833
617.71	56.450
618.04	57.329
618.37	56.918
618.70	58.735
619.03	57.481
619.36	58.562
619.69	58.507
620.03	57.025
620.36	59.494
620.69	58.076
621.02	59.056
621.35	58.871
621.68	60.492
622.01	59.304
622.34	58.773
622.67	58.672
623.00	59.449
623.33	59.776
623.66	57.607
623.99	58.346
624.32	59.226
624.65	59.823
624.99	59.223
625.32	58.159
625.65	60.062
625.98	60.563
626.31	61.011
626.64	60.335
626.97	61.130
627.30	60.936
627.63	59.326
627.96	60.400
628.29	62.224
628.62	63.324
628.95	63.091
629.28	60.714
629.61	62.316
629.94	61.815
630.26	62.823
630.59	64.221
630.92	63.764
631.25	60.988
631.58	60.317
631.91	62.447
632.24	63.000
632.57	62.778
632.90	64.483
633.23	63.084
633.56	63.977
633.89	65.212
634.22	63.872
634.55	64.183
