SpectraSuite Data File
++++++++++++++++++++++++++++++++++++
Date: Sat May 16 11:31:41 PDT 2015
User: schluterlab
Dark Spectrum Present: Yes
Reference Spectrum Present: Yes
Number of Sampled Component Spectra: 1
Spectrometers: USB2E3373
Integration Time (usec): 3000 (USB2E3373)
Spectra Averaged: 3 (USB2E3373)
Boxcar Smoothing: 0 (USB2E3373)
Correct for Electrical Dark: No (USB2E3373)
Strobe/Lamp Enabled: No (USB2E3373)
Correct for Detector Non-linearity: No (USB2E3373)
Correct for Stray Light: No (USB2E3373)
Number of Pixels in Processed Spectrum: 2048
>>>>>Begin Processed Spectral Data<<<<<
178.53	0.000
178.91	100.000
179.29	633.333
179.67	-1000.000
180.04	-61.538
180.42	-400.000
180.80	300.000
181.18	250.000
181.56	-50.000
181.94	1300.000
182.31	575.000
182.69	7.692
183.07	-633.333
183.45	1150.000
183.83	500.000
184.20	-100.000
184.58	-150.000
184.96	-350.000
185.34	150.000
185.72	-475.000
186.09	316.667
186.47	-312.500
186.85	-212.500
187.23	-150.000
187.61	-275.000
187.98	-262.500
188.36	-87.500
188.74	-250.000
189.12	1400.000
189.49	242.857
189.87	-166.667
190.25	225.000
190.63	-100.000
191.00	-266.667
191.38	260.000
191.76	26.667
192.14	520.000
192.51	-220.000
192.89	-200.000
193.27	0.000
193.65	-55.556
194.02	-200.000
194.40	200.000
194.78	-50.000
195.15	-600.000
195.53	-136.364
195.91	-566.667
196.29	300.000
196.66	-400.000
197.04	1700.000
197.42	-150.000
197.79	66.667
198.17	-633.333
198.55	-600.000
198.92	-2000.000
199.30	275.000
199.68	-800.000
200.05	-22.222
200.43	-166.667
200.81	-600.000
201.18	-125.000
201.56	128.571
201.94	-86.667
202.31	-18.182
202.69	0.000
203.07	-90.000
203.44	733.333
203.82	-200.000
204.19	-325.000
204.57	-250.000
204.95	-1300.000
205.32	-81.250
205.70	500.000
206.08	-1400.000
206.45	-61.111
206.83	-650.000
207.20	0.000
207.58	-500.000
207.96	-366.667
208.33	-275.000
208.71	-100.000
209.08	180.000
209.46	-200.000
209.84	800.000
210.21	0.000
210.59	-5.000
210.96	800.000
211.34	-300.000
211.71	-300.000
212.09	225.000
212.46	1500.000
212.84	-2200.000
213.22	600.000
213.59	133.333
213.97	-166.667
214.34	120.000
214.72	-160.000
215.09	-566.667
215.47	-50.000
215.84	-60.000
216.22	-10.000
216.59	-60.000
216.97	-575.000
217.34	1050.000
217.72	-257.143
218.09	-250.000
218.47	-214.286
218.84	271.429
219.22	-114.286
219.59	0.000
219.97	185.714
220.34	300.000
220.72	125.000
221.09	-130.769
221.47	0.000
221.84	333.333
222.22	-350.000
222.59	1500.000
222.97	-175.000
223.34	-900.000
223.72	-333.333
224.09	-78.571
224.46	-475.000
224.84	-71.429
225.21	-257.143
225.59	-63.636
225.96	-37.500
226.34	-42.857
226.71	-44.444
227.08	-25.000
227.46	1400.000
227.83	-257.143
228.21	-325.000
228.58	-50.000
228.95	12.500
229.33	-1200.000
229.70	-440.000
230.08	-500.000
230.45	-83.333
230.82	-116.667
231.20	-1200.000
231.57	-750.000
231.95	1500.000
232.32	9.524
232.69	-100.000
233.07	-142.857
233.44	-750.000
233.81	-33.333
234.19	-22.222
234.56	-62.500
234.93	15.625
235.31	-342.857
235.68	-142.857
236.05	17.647
236.43	-36.364
236.80	3.226
237.17	29.167
237.55	-19.048
237.92	0.000
238.29	22.857
238.67	2.941
239.04	13.889
239.41	32.258
239.79	0.000
240.16	30.952
240.53	14.545
240.91	-10.256
241.28	21.818
241.65	40.000
242.02	29.508
242.40	19.672
242.77	39.394
243.14	38.983
243.51	20.000
243.89	37.975
244.26	25.843
244.63	51.579
245.00	42.105
245.38	33.898
245.75	38.053
246.12	36.000
246.49	33.858
246.87	30.894
247.24	32.203
247.61	33.898
247.98	33.803
248.36	37.063
248.73	36.709
249.10	29.299
249.47	37.427
249.84	45.455
250.22	29.167
250.59	38.983
250.96	39.267
251.33	44.076
251.70	35.096
252.08	37.915
252.45	39.336
252.82	37.619
253.19	38.298
253.56	39.113
253.94	44.304
254.31	34.764
254.68	43.902
255.05	44.758
255.42	40.079
255.79	37.634
256.16	43.529
256.54	43.015
256.91	45.076
257.28	40.659
257.65	41.135
258.02	43.082
258.39	46.488
258.76	38.514
259.14	39.506
259.51	45.246
259.88	41.159
260.25	40.373
260.62	44.051
260.99	42.730
261.36	40.549
261.73	44.220
262.10	46.389
262.47	42.165
262.85	44.286
263.22	40.401
263.59	41.231
263.96	42.029
264.33	42.547
264.70	44.751
265.07	40.385
265.44	39.793
265.81	41.085
266.18	42.025
266.55	42.892
266.92	44.332
267.29	42.615
267.66	42.963
268.03	44.928
268.40	43.192
268.77	42.410
269.14	39.907
269.51	41.839
269.88	41.055
270.25	39.860
270.62	42.105
270.99	41.667
271.36	40.093
271.73	40.807
272.10	46.224
272.47	40.444
272.84	41.111
273.21	40.138
273.58	41.538
273.95	41.228
274.32	41.176
274.69	43.982
275.06	42.331
275.43	42.411
275.80	45.621
276.17	41.423
276.54	43.381
276.91	40.947
277.28	40.771
277.65	40.909
278.02	40.919
278.39	42.043
278.76	39.044
279.13	41.304
279.50	44.135
279.87	40.169
280.23	41.700
280.60	43.141
280.97	41.748
281.34	41.393
281.71	42.692
282.08	42.742
282.45	40.326
282.82	43.605
283.19	38.182
283.56	42.125
283.92	40.459
284.29	41.078
284.66	38.849
285.03	40.463
285.40	42.804
285.77	43.333
286.14	41.877
286.51	41.208
286.87	37.387
287.24	41.126
287.61	40.165
287.98	38.821
288.35	37.851
288.72	38.540
289.08	37.119
289.45	37.542
289.82	37.197
290.19	40.066
290.56	36.860
290.93	35.453
291.29	37.115
291.66	37.359
292.03	38.305
292.40	35.843
292.77	37.267
293.13	36.911
293.50	34.621
293.87	35.123
294.24	35.143
294.60	32.727
294.97	35.964
295.34	33.778
295.71	33.929
296.08	32.565
296.44	34.192
296.81	34.615
297.18	33.239
297.55	33.898
297.91	35.425
298.28	32.192
298.65	31.939
299.02	32.620
299.38	32.086
299.75	32.201
300.12	31.026
300.48	32.992
300.85	30.931
301.22	31.307
301.59	30.819
301.95	31.486
302.32	31.291
302.69	29.865
303.05	29.548
303.42	29.000
303.79	31.579
304.15	28.791
304.52	30.338
304.89	30.697
305.25	29.426
305.62	30.082
305.99	30.389
306.35	27.303
306.72	28.018
307.09	28.831
307.45	28.604
307.82	26.927
308.19	29.195
308.55	29.412
308.92	28.034
309.29	28.432
309.65	28.526
310.02	29.698
310.38	27.027
310.75	28.689
311.12	28.616
311.48	29.019
311.85	28.012
312.22	27.497
312.58	27.467
312.95	27.013
313.31	28.472
313.68	28.543
314.05	28.783
314.41	27.264
314.78	27.473
315.14	27.937
315.51	26.849
315.87	28.170
316.24	28.086
316.61	28.311
316.97	29.851
317.34	26.782
317.70	27.365
318.07	28.078
318.43	27.247
318.80	27.793
319.16	26.642
319.53	26.410
319.89	26.435
320.26	26.176
320.62	26.346
320.99	26.070
321.35	24.828
321.72	26.510
322.08	27.794
322.45	26.931
322.81	26.609
323.18	27.474
323.54	26.155
323.91	27.433
324.27	27.567
324.64	26.234
325.00	25.829
325.37	26.787
325.73	27.909
326.10	25.775
326.46	25.832
326.83	26.213
327.19	25.771
327.56	27.087
327.92	26.338
328.29	27.100
328.65	25.455
329.01	26.413
329.38	25.245
329.74	26.648
330.11	26.564
330.47	26.975
330.84	27.498
331.20	26.083
331.56	25.615
331.93	26.288
332.29	26.484
332.66	26.953
333.02	25.068
333.38	25.896
333.75	26.269
334.11	25.067
334.48	23.919
334.84	26.509
335.20	26.507
335.57	26.083
335.93	26.052
336.29	24.535
336.66	25.639
337.02	25.045
337.38	24.777
337.75	24.934
338.11	25.939
338.47	26.068
338.84	25.771
339.20	25.132
339.56	25.312
339.93	25.044
340.29	24.978
340.65	24.301
341.02	25.970
341.38	24.768
341.74	24.555
342.11	24.147
342.47	25.322
342.83	24.349
343.20	25.192
343.56	23.673
343.92	25.876
344.28	26.577
344.65	24.340
345.01	23.445
345.37	25.166
345.73	24.141
346.10	22.322
346.46	24.452
346.82	23.416
347.19	23.254
347.55	23.435
347.91	24.646
348.27	23.866
348.63	25.687
349.00	23.707
349.36	23.731
349.72	24.841
350.08	25.341
350.45	23.247
350.81	24.204
351.17	23.714
351.53	22.673
351.89	22.959
352.26	23.953
352.62	24.040
352.98	23.734
353.34	23.741
353.70	23.784
354.07	23.131
354.43	24.427
354.79	24.326
355.15	23.882
355.51	22.891
355.87	23.953
356.24	22.716
356.60	24.255
356.96	24.711
357.32	23.990
357.68	23.142
358.04	23.865
358.40	22.815
358.77	23.416
359.13	22.724
359.49	24.339
359.85	23.171
360.21	22.527
360.57	24.849
360.93	24.296
361.29	23.393
361.66	22.713
362.02	23.077
362.38	23.331
362.74	23.590
363.10	22.597
363.46	23.504
363.82	22.959
364.18	22.069
364.54	23.302
364.90	22.572
365.26	23.181
365.62	22.951
365.98	23.542
366.35	23.451
366.71	22.410
367.07	21.948
367.43	24.091
367.79	23.299
368.15	22.404
368.51	23.427
368.87	23.352
369.23	22.526
369.59	22.014
369.95	22.692
370.31	23.980
370.67	22.560
371.03	23.032
371.39	22.772
371.75	23.534
372.11	23.458
372.47	22.921
372.83	23.435
373.19	22.643
373.55	22.942
373.91	22.973
374.27	22.177
374.63	22.360
374.99	23.296
375.35	22.611
375.71	23.835
376.07	22.724
376.42	22.053
376.78	22.876
377.14	22.983
377.50	22.502
377.86	23.342
378.22	23.492
378.58	22.792
378.94	22.072
379.30	22.182
379.66	23.194
380.02	22.519
380.38	22.477
380.74	22.333
381.09	23.199
381.45	23.747
381.81	22.686
382.17	23.810
382.53	22.675
382.89	22.787
383.25	23.781
383.61	22.406
383.97	23.515
384.32	23.279
384.68	23.579
385.04	22.585
385.40	21.911
385.76	23.354
386.12	23.673
386.48	23.453
386.83	23.313
387.19	23.790
387.55	22.774
387.91	23.592
388.27	22.497
388.62	22.596
388.98	22.895
389.34	23.256
389.70	23.508
390.06	22.933
390.42	23.397
390.77	22.713
391.13	24.348
391.49	23.331
391.85	23.254
392.20	22.512
392.56	23.030
392.92	23.446
393.28	23.192
393.64	22.850
393.99	23.815
394.35	23.540
394.71	23.410
395.07	24.043
395.42	22.467
395.78	23.067
396.14	23.178
396.50	23.242
396.85	22.949
397.21	22.783
397.57	23.647
397.92	22.775
398.28	23.222
398.64	23.022
399.00	22.809
399.35	23.393
399.71	23.171
400.07	22.209
400.42	24.209
400.78	23.494
401.14	22.515
401.49	22.877
401.85	22.636
402.21	23.480
402.57	23.422
402.92	24.292
403.28	23.100
403.63	23.008
403.99	23.182
404.35	23.188
404.70	23.054
405.06	22.953
405.42	21.894
405.77	22.172
406.13	22.998
406.49	23.307
406.84	23.275
407.20	23.734
407.55	23.433
407.91	23.446
408.27	23.223
408.62	22.610
408.98	22.620
409.34	22.852
409.69	22.684
410.05	23.044
410.40	22.624
410.76	23.533
411.11	23.379
411.47	23.146
411.83	24.083
412.18	23.020
412.54	21.965
412.89	23.390
413.25	22.314
413.60	22.722
413.96	21.935
414.31	22.630
414.67	22.095
415.03	23.027
415.38	23.162
415.74	22.294
416.09	23.210
416.45	22.354
416.80	22.562
417.16	23.588
417.51	24.228
417.87	22.265
418.22	22.946
418.58	23.235
418.93	23.053
419.29	23.149
419.64	22.236
420.00	23.512
420.35	22.413
420.71	22.689
421.06	22.544
421.42	21.956
421.77	22.836
422.12	22.888
422.48	22.555
422.83	22.323
423.19	23.163
423.54	22.824
423.90	22.903
424.25	22.229
424.61	23.462
424.96	23.932
425.31	23.141
425.67	23.840
426.02	22.662
426.38	22.868
426.73	23.203
427.09	22.610
427.44	22.841
427.79	22.326
428.15	22.980
428.50	22.933
428.85	22.722
429.21	23.464
429.56	22.969
429.92	22.846
430.27	22.832
430.62	23.511
430.98	22.948
431.33	23.159
431.68	23.164
432.04	23.839
432.39	23.476
432.74	23.201
433.10	22.622
433.45	23.028
433.80	23.460
434.16	23.912
434.51	23.452
434.86	24.077
435.22	23.163
435.57	23.195
435.92	23.212
436.28	23.501
436.63	22.838
436.98	22.279
437.34	23.509
437.69	23.512
438.04	22.008
438.39	24.128
438.75	23.923
439.10	23.098
439.45	22.631
439.81	23.193
440.16	23.225
440.51	23.941
440.86	23.597
441.22	22.056
441.57	23.263
441.92	22.609
442.27	23.160
442.63	23.122
442.98	22.348
443.33	23.504
443.68	23.398
444.03	23.428
444.39	22.663
444.74	23.183
445.09	22.807
445.44	23.467
445.79	23.355
446.15	23.001
446.50	22.265
446.85	23.345
447.20	22.574
447.55	23.646
447.91	23.077
448.26	23.017
448.61	22.524
448.96	23.417
449.31	23.281
449.66	23.240
450.02	23.102
450.37	22.435
450.72	22.825
451.07	22.816
451.42	22.615
451.77	22.980
452.12	22.586
452.47	22.733
452.83	22.481
453.18	23.150
453.53	22.823
453.88	23.206
454.23	22.491
454.58	23.493
454.93	22.922
455.28	23.582
455.63	22.359
455.98	23.253
456.34	22.173
456.69	23.202
457.04	22.680
457.39	21.531
457.74	22.209
458.09	22.970
458.44	22.921
458.79	22.309
459.14	22.818
459.49	23.091
459.84	22.934
460.19	22.792
460.54	22.626
460.89	22.141
461.24	22.890
461.59	21.805
461.94	22.533
462.29	22.692
462.64	23.123
462.99	22.959
463.34	22.755
463.69	23.219
464.04	22.496
464.39	21.983
464.74	22.045
465.09	21.046
465.44	22.222
465.79	22.899
466.14	22.037
466.49	22.395
466.84	22.629
467.19	21.945
467.54	22.468
467.89	22.935
468.24	22.328
468.59	21.674
468.94	22.315
469.29	21.702
469.64	22.305
469.99	22.620
470.34	21.910
470.68	22.965
471.03	22.643
471.38	21.806
471.73	23.357
472.08	21.754
472.43	21.622
472.78	22.600
473.13	21.339
473.48	22.272
473.83	22.581
474.17	21.019
474.52	22.890
474.87	22.203
475.22	22.065
475.57	22.056
475.92	22.300
476.27	22.229
476.61	22.197
476.96	21.632
477.31	21.744
477.66	21.915
478.01	21.934
478.36	22.472
478.70	22.424
479.05	22.066
479.40	22.332
479.75	21.509
480.10	22.321
480.45	21.228
480.79	22.211
481.14	22.880
481.49	21.491
481.84	21.960
482.19	22.248
482.53	22.206
482.88	21.737
483.23	21.831
483.58	22.618
483.92	22.408
484.27	21.489
484.62	21.598
484.97	22.525
485.31	21.664
485.66	22.054
486.01	22.500
486.36	23.642
486.70	24.240
487.05	23.011
487.40	22.810
487.75	22.263
488.09	22.174
488.44	22.564
488.79	23.134
489.13	21.909
489.48	22.635
489.83	22.664
490.17	22.072
490.52	22.373
490.87	20.739
491.22	21.579
491.56	21.852
491.91	21.517
492.26	21.698
492.60	20.885
492.95	21.894
493.30	21.582
493.64	21.768
493.99	21.080
494.34	21.524
494.68	22.378
495.03	21.654
495.37	21.436
495.72	22.151
496.07	22.149
496.41	22.464
496.76	21.005
497.11	21.667
497.45	22.222
497.80	21.461
498.14	21.464
498.49	21.346
498.84	21.311
499.18	21.686
499.53	21.627
499.87	21.622
500.22	22.255
500.56	22.211
500.91	21.232
501.26	21.640
501.60	22.340
501.95	22.126
502.29	22.012
502.64	21.735
502.98	22.472
503.33	21.617
503.67	21.695
504.02	21.004
504.36	21.961
504.71	21.733
505.06	20.969
505.40	22.405
505.75	21.443
506.09	21.335
506.44	21.805
506.78	21.576
507.13	20.958
507.47	21.648
507.82	21.683
508.16	21.658
508.51	21.432
508.85	20.652
509.19	21.455
509.54	21.776
509.88	21.330
510.23	21.646
510.57	21.640
510.92	21.697
511.26	20.255
511.61	20.950
511.95	21.659
512.30	21.165
512.64	20.590
512.98	21.452
513.33	20.977
513.67	21.441
514.02	21.365
514.36	21.053
514.70	21.505
515.05	22.470
515.39	21.223
515.74	22.280
516.08	21.729
516.42	20.737
516.77	21.953
517.11	21.682
517.46	21.232
517.80	20.638
518.14	21.075
518.49	20.622
518.83	21.306
519.17	21.078
519.52	21.110
519.86	21.027
520.20	21.455
520.55	21.108
520.89	20.413
521.23	21.184
521.58	20.878
521.92	21.849
522.26	21.270
522.61	20.976
522.95	19.400
523.29	21.567
523.64	20.050
523.98	20.560
524.32	20.993
524.66	21.180
525.01	21.452
525.35	21.327
525.69	20.885
526.04	21.671
526.38	21.515
526.72	20.562
527.06	20.768
527.41	21.056
527.75	20.198
528.09	20.649
528.43	19.869
528.78	21.106
529.12	22.663
529.46	21.521
529.80	21.433
530.15	21.507
530.49	22.251
530.83	21.611
531.17	20.673
531.51	20.697
531.86	21.725
532.20	21.727
532.54	22.126
532.88	21.080
533.22	22.126
533.57	21.802
533.91	21.411
534.25	21.936
534.59	21.049
534.93	20.597
535.27	20.831
535.62	21.228
535.96	21.526
536.30	21.073
536.64	21.780
536.98	21.751
537.32	21.355
537.66	21.249
538.01	21.168
538.35	22.027
538.69	20.922
539.03	21.395
539.37	21.025
539.71	22.015
540.05	21.727
540.39	21.053
540.73	21.078
541.07	21.516
541.42	20.459
541.76	20.997
542.10	22.620
542.44	22.252
542.78	21.303
543.12	22.539
543.46	20.753
543.80	22.207
544.14	20.215
544.48	22.113
544.82	20.974
545.16	21.865
545.50	20.929
545.84	21.280
546.18	21.914
546.52	21.479
546.86	21.368
547.20	21.660
547.54	20.661
547.88	21.500
548.22	20.446
548.56	20.975
548.90	21.765
549.24	21.374
549.58	22.018
549.92	21.555
550.26	21.243
550.60	20.626
550.94	21.095
551.28	21.068
551.62	20.532
551.96	21.563
552.30	21.951
552.64	21.605
552.98	22.214
553.32	21.284
553.66	22.206
554.00	21.748
554.34	21.227
554.68	20.906
555.02	22.287
555.36	21.423
555.69	21.203
556.03	21.404
556.37	20.839
556.71	21.188
557.05	22.025
557.39	21.604
557.73	22.174
558.07	21.326
558.41	20.718
558.75	20.913
559.08	21.323
559.42	21.057
559.76	20.859
560.10	22.148
560.44	21.604
560.78	22.129
561.12	22.084
561.45	21.575
561.79	21.812
562.13	21.809
562.47	21.639
562.81	21.429
563.15	22.113
563.48	21.355
563.82	21.433
564.16	21.163
564.50	22.110
564.84	21.892
565.17	21.817
565.51	21.121
565.85	21.704
566.19	22.003
566.52	22.440
566.86	21.429
567.20	23.002
567.54	22.741
567.88	22.334
568.21	22.204
568.55	22.375
568.89	21.620
569.23	22.490
569.56	23.035
569.90	23.839
570.24	24.239
570.57	23.023
570.91	23.087
571.25	23.217
571.59	23.166
571.92	23.452
572.26	23.517
572.60	23.301
572.93	23.103
573.27	22.530
573.61	22.828
573.95	23.443
574.28	23.408
574.62	23.615
574.96	23.355
575.29	23.069
575.63	23.414
575.97	23.220
576.30	23.075
576.64	23.316
576.98	23.488
577.31	23.576
577.65	23.708
577.98	23.479
578.32	23.090
578.66	23.392
578.99	23.597
579.33	23.286
579.67	23.383
580.00	23.884
580.34	24.070
580.67	23.584
581.01	23.332
581.35	24.027
581.68	23.626
582.02	23.609
582.35	23.796
582.69	24.150
583.02	23.784
583.36	23.856
583.70	23.349
584.03	23.438
584.37	23.383
584.70	23.791
585.04	23.139
585.37	23.174
585.71	23.706
586.04	23.480
586.38	23.470
586.72	23.224
587.05	23.449
587.39	23.491
587.72	23.945
588.06	23.879
588.39	23.412
588.73	23.144
589.06	23.817
589.40	23.634
589.73	23.407
590.07	23.816
590.40	23.801
590.73	22.591
591.07	23.279
591.40	23.830
591.74	22.763
592.07	22.027
592.41	23.652
592.74	23.789
593.08	23.824
593.41	22.993
593.75	22.519
594.08	24.047
594.41	23.697
594.75	23.065
595.08	23.383
595.42	23.555
595.75	23.006
596.09	23.166
596.42	24.100
596.75	23.329
597.09	23.820
597.42	23.134
597.75	22.852
598.09	23.452
598.42	22.139
598.76	22.799
599.09	23.323
599.42	22.914
599.76	23.141
600.09	23.282
600.42	23.851
600.76	23.390
601.09	23.130
601.42	23.269
601.76	23.715
602.09	23.517
602.42	24.074
602.76	22.642
603.09	23.468
603.42	23.529
603.76	23.016
604.09	23.148
604.42	22.856
604.76	22.809
605.09	23.327
605.42	23.271
605.75	23.157
606.09	23.329
606.42	23.502
606.75	23.358
607.09	23.423
607.42	22.975
607.75	22.826
608.08	23.498
608.42	23.179
608.75	22.710
609.08	22.698
609.41	23.069
609.75	22.574
610.08	23.235
610.41	22.651
610.74	23.888
611.07	23.479
611.41	22.794
611.74	23.650
612.07	24.221
612.40	22.388
612.73	23.533
613.07	23.005
613.40	23.700
613.73	23.052
614.06	23.174
614.39	22.210
614.72	22.514
615.06	22.120
615.39	22.409
615.72	23.194
616.05	22.584
616.38	23.099
616.71	22.643
617.05	22.738
617.38	23.406
617.71	22.236
618.04	23.727
618.37	23.019
618.70	24.055
619.03	22.749
619.36	22.622
619.69	23.187
620.03	22.865
620.36	23.277
620.69	22.972
621.02	22.755
621.35	21.935
621.68	21.311
622.01	21.764
622.34	23.602
622.67	22.500
623.00	23.336
623.33	22.612
623.66	21.492
623.99	22.556
624.32	22.991
624.65	23.473
624.99	22.106
625.32	21.931
625.65	22.922
625.98	21.127
626.31	22.757
626.64	21.590
626.97	22.003
627.30	22.383
627.63	20.121
627.96	21.323
628.29	21.691
628.62	21.108
628.95	23.327
629.28	21.523
629.61	21.982
629.94	21.928
630.26	22.266
630.59	21.709
630.92	21.622
631.25	21.875
631.58	21.799
