SpectraSuite Data File
++++++++++++++++++++++++++++++++++++
Date: Sat May 16 11:19:07 PDT 2015
User: schluterlab
Dark Spectrum Present: Yes
Reference Spectrum Present: Yes
Number of Sampled Component Spectra: 1
Spectrometers: USB2E3373
Integration Time (usec): 3000 (USB2E3373)
Spectra Averaged: 3 (USB2E3373)
Boxcar Smoothing: 0 (USB2E3373)
Correct for Electrical Dark: No (USB2E3373)
Strobe/Lamp Enabled: No (USB2E3373)
Correct for Detector Non-linearity: No (USB2E3373)
Correct for Stray Light: No (USB2E3373)
Number of Pixels in Processed Spectrum: 2048
>>>>>Begin Processed Spectral Data<<<<<
178.53	0.000
178.91	93.333
179.29	533.333
179.67	-700.000
180.04	-123.077
180.42	1300.000
180.80	225.000
181.18	275.000
181.56	-162.500
181.94	500.000
182.31	350.000
182.69	-30.769
183.07	-366.667
183.45	1650.000
183.83	300.000
184.20	-128.571
184.58	-237.500
184.96	-75.000
185.34	37.500
185.72	-400.000
186.09	-0.000
186.47	-62.500
186.85	-100.000
187.23	125.000
187.61	-275.000
187.98	-250.000
188.36	-112.500
188.74	-37.500
189.12	1400.000
189.49	328.571
189.87	-25.000
190.25	200.000
190.63	-78.571
191.00	-22.222
191.38	300.000
191.76	60.000
192.14	500.000
192.51	-180.000
192.89	-333.333
193.27	0.000
193.65	-88.889
194.02	-157.143
194.40	466.667
194.78	-100.000
195.15	-1300.000
195.53	-27.273
195.91	-350.000
196.29	300.000
196.66	-600.000
197.04	1900.000
197.42	100.000
197.79	46.667
198.17	-300.000
198.55	-650.000
198.92	-1000.000
199.30	100.000
199.68	-650.000
200.05	-111.111
200.43	-211.111
200.81	-900.000
201.18	-108.333
201.56	71.429
201.94	0.000
202.31	22.727
202.69	10.000
203.07	-50.000
203.44	433.333
203.82	-100.000
204.19	-250.000
204.57	-75.000
204.95	-800.000
205.32	31.250
205.70	900.000
206.08	-1700.000
206.45	-22.222
206.83	-400.000
207.20	250.000
207.58	-500.000
207.96	-366.667
208.33	75.000
208.71	-100.000
209.08	150.000
209.46	14.286
209.84	700.000
210.21	0.000
210.59	10.000
210.96	400.000
211.34	-83.333
211.71	-266.667
212.09	300.000
212.46	500.000
212.84	-2300.000
213.22	300.000
213.59	91.667
213.97	-55.556
214.34	170.000
214.72	-60.000
215.09	-266.667
215.47	-66.667
215.84	-80.000
216.22	20.000
216.59	20.000
216.97	-475.000
217.34	400.000
217.72	-71.429
218.09	-33.333
218.47	-214.286
218.84	228.571
219.22	-71.429
219.59	0.000
219.97	285.714
220.34	425.000
220.72	50.000
221.09	-7.692
221.47	0.000
221.84	466.667
222.22	-350.000
222.59	900.000
222.97	-12.500
223.34	-100.000
223.72	-133.333
224.09	7.143
224.46	-200.000
224.84	0.000
225.21	-157.143
225.59	9.091
225.96	-37.500
226.34	0.000
226.71	-200.000
227.08	30.000
227.46	1600.000
227.83	-71.429
228.21	-237.500
228.58	-0.000
228.95	-18.750
229.33	-1100.000
229.70	-140.000
230.08	-1150.000
230.45	66.667
230.82	-233.333
231.20	-1700.000
231.57	-500.000
231.95	800.000
232.32	0.000
232.69	-33.333
233.07	-71.429
233.44	-700.000
233.81	-13.333
234.19	-155.556
234.56	0.000
234.93	21.875
235.31	-228.571
235.68	-57.143
236.05	-17.647
236.43	-50.000
236.80	45.161
237.17	-4.167
237.55	-47.619
237.92	-63.636
238.29	-2.857
238.67	14.706
239.04	16.667
239.41	12.903
239.79	-30.769
240.16	-21.429
240.53	1.818
240.91	12.821
241.28	12.727
241.65	21.538
242.02	14.754
242.40	1.639
242.77	9.091
243.14	15.254
243.51	8.571
243.89	-1.266
244.26	10.112
244.63	15.789
245.00	21.053
245.38	20.339
245.75	21.239
246.12	23.200
246.49	7.087
246.87	3.252
247.24	14.407
247.61	11.017
247.98	15.493
248.36	3.497
248.73	12.025
249.10	10.191
249.47	16.959
249.84	20.455
250.22	11.310
250.59	21.469
250.96	15.707
251.33	18.957
251.70	15.865
252.08	12.322
252.45	17.536
252.82	18.571
253.19	15.745
253.56	18.548
253.94	13.080
254.31	16.738
254.68	19.919
255.05	12.097
255.42	16.270
255.79	16.846
256.16	14.510
256.54	20.221
256.91	18.182
257.28	17.216
257.65	14.539
258.02	18.553
258.39	15.385
258.76	13.851
259.14	13.272
259.51	16.721
259.88	18.902
260.25	17.702
260.62	12.862
260.99	17.507
261.36	15.854
261.73	20.231
262.10	19.167
262.47	16.809
262.85	22.000
263.22	16.619
263.59	15.077
263.96	15.362
264.33	20.054
264.70	19.061
265.07	18.407
265.44	17.571
265.81	17.054
266.18	15.190
266.55	15.196
266.92	19.899
267.29	17.676
267.66	17.037
268.03	17.874
268.40	19.014
268.77	17.349
269.14	17.633
269.51	17.931
269.88	15.367
270.25	13.287
270.62	16.476
270.99	17.568
271.36	19.114
271.73	16.368
272.10	17.849
272.47	19.111
272.84	17.111
273.21	18.807
273.58	18.022
273.95	16.447
274.32	18.326
274.69	18.162
275.06	19.018
275.43	18.527
275.80	18.126
276.17	16.109
276.54	17.923
276.91	18.519
277.28	16.430
277.65	18.182
278.02	17.537
278.39	17.485
278.76	18.526
279.13	19.960
279.50	16.899
279.87	17.336
280.23	19.028
280.60	16.700
280.97	17.476
281.34	17.021
281.71	19.038
282.08	19.153
282.45	15.275
282.82	16.473
283.19	17.091
283.56	19.414
283.92	18.375
284.29	16.171
284.66	16.727
285.03	20.143
285.40	17.712
285.77	16.491
286.14	16.606
286.51	17.584
286.87	18.330
287.24	17.235
287.61	17.190
287.98	14.905
288.35	15.868
288.72	14.601
289.08	15.085
289.45	16.162
289.82	14.879
290.19	16.913
290.56	13.719
290.93	14.308
291.29	15.397
291.66	14.010
292.03	15.542
292.40	14.608
292.77	15.839
293.13	16.585
293.50	14.859
293.87	15.644
294.24	17.044
294.60	14.394
294.97	18.665
295.34	12.444
295.71	16.369
296.08	15.361
296.44	13.877
296.81	16.097
297.18	14.930
297.55	15.254
297.91	16.039
298.28	15.205
298.65	13.668
299.02	15.642
299.38	14.439
299.75	13.723
300.12	13.846
300.48	15.217
300.85	14.024
301.22	13.842
301.59	13.524
301.95	15.617
302.32	13.299
302.69	14.565
303.05	13.797
303.42	13.000
303.79	14.593
304.15	14.455
304.52	14.469
304.89	13.223
305.25	14.530
305.62	12.691
305.99	15.548
306.35	14.095
306.72	13.667
307.09	15.551
307.45	14.529
307.82	13.631
308.19	14.765
308.55	15.142
308.92	14.071
309.29	14.595
309.65	14.634
310.02	14.471
310.38	13.730
310.75	15.984
311.12	14.773
311.48	15.762
311.85	15.860
312.22	15.036
312.58	15.870
312.95	14.577
313.31	15.584
313.68	15.980
314.05	17.310
314.41	15.795
314.78	15.784
315.14	16.288
315.51	16.413
315.87	16.747
316.24	17.201
316.61	17.658
316.97	16.617
317.34	17.052
317.70	17.254
318.07	17.444
318.43	16.760
318.80	18.873
319.16	16.323
319.53	18.045
319.89	17.404
320.26	18.431
320.62	18.269
320.99	19.005
321.35	18.325
321.72	18.424
322.08	19.585
322.45	18.416
322.81	19.885
323.18	20.653
323.54	20.610
323.91	19.833
324.27	21.008
324.64	20.841
325.00	20.593
325.37	20.905
325.73	23.272
326.10	21.435
326.46	22.855
326.83	23.404
327.19	23.269
327.56	24.191
327.92	23.789
328.29	24.416
328.65	23.545
329.01	25.883
329.38	25.513
329.74	25.916
330.11	24.932
330.47	25.795
330.84	27.314
331.20	26.444
331.56	26.527
331.93	26.909
332.29	28.128
332.66	26.866
333.02	26.697
333.38	28.315
333.75	27.427
334.11	26.311
334.48	26.214
334.84	28.171
335.20	27.926
335.57	27.166
335.93	27.753
336.29	27.015
336.66	26.872
337.02	27.568
337.38	27.362
337.75	27.305
338.11	26.655
338.47	27.402
338.84	27.042
339.20	27.592
339.56	28.342
339.93	27.160
340.29	27.104
340.65	27.797
341.02	26.981
341.38	27.211
341.74	26.926
342.11	26.962
342.47	27.811
342.83	26.364
343.20	27.498
343.56	26.041
343.92	28.297
344.28	27.586
344.65	26.485
345.01	27.395
345.37	26.910
345.73	26.023
346.10	25.756
346.46	28.026
346.82	27.025
347.19	27.362
347.55	25.682
347.91	26.614
348.27	26.730
348.63	28.191
349.00	27.605
349.36	25.527
349.72	27.787
350.08	27.827
350.45	26.635
350.81	28.025
351.17	28.215
351.53	26.412
351.89	27.405
352.26	26.357
352.62	27.957
352.98	27.532
353.34	27.578
353.70	27.181
354.07	27.931
354.43	27.036
354.79	27.496
355.15	27.796
355.51	26.563
355.87	27.036
356.24	26.767
356.60	28.606
356.96	26.867
357.32	26.207
357.68	27.663
358.04	27.329
358.40	27.378
358.77	26.893
359.13	27.238
359.49	27.135
359.85	27.058
360.21	28.082
360.57	28.840
360.93	28.667
361.29	27.354
361.66	26.982
362.02	27.293
362.38	28.613
362.74	28.059
363.10	28.192
363.46	28.704
363.82	28.571
364.18	28.799
364.54	29.521
364.90	28.372
365.26	27.675
365.62	28.867
365.98	28.876
366.35	29.366
366.71	28.541
367.07	29.076
367.43	29.719
367.79	29.897
368.15	29.303
368.51	28.741
368.87	29.190
369.23	29.614
369.59	29.306
369.95	28.330
370.31	30.098
370.67	28.995
371.03	30.394
371.39	28.713
371.75	28.970
372.11	30.775
372.47	29.863
372.83	30.111
373.19	30.286
373.55	29.205
373.91	29.516
374.27	30.185
374.63	30.987
374.99	30.737
375.35	30.552
375.71	31.938
376.07	30.459
376.42	30.662
376.78	31.438
377.14	31.593
377.50	32.366
377.86	30.624
378.22	32.224
378.58	31.872
378.94	31.936
379.30	32.054
379.66	32.240
380.02	31.967
380.38	32.991
380.74	31.419
381.09	33.040
381.45	32.757
381.81	32.607
382.17	33.020
382.53	33.495
382.89	33.014
383.25	32.571
383.61	33.962
383.97	33.925
384.32	33.980
384.68	35.248
385.04	33.514
385.40	33.658
385.76	34.390
386.12	32.979
386.48	35.272
386.83	34.049
387.19	34.190
387.55	33.737
387.91	34.499
388.27	34.680
388.62	35.216
388.98	35.736
389.34	34.333
389.70	35.871
390.06	35.674
390.42	35.769
390.77	34.637
391.13	36.398
391.49	36.619
391.85	35.474
392.20	35.437
392.56	36.042
392.92	34.912
393.28	36.567
393.64	37.462
393.99	35.877
394.35	37.044
394.71	35.578
395.07	37.414
395.42	35.936
395.78	35.072
396.14	36.947
396.50	36.391
396.85	36.644
397.21	37.363
397.57	36.109
397.92	37.354
398.28	37.167
398.64	37.894
399.00	37.472
399.35	36.359
399.71	37.921
400.07	37.075
400.42	37.165
400.78	36.613
401.14	36.287
401.49	37.028
401.85	37.157
402.21	37.962
402.57	37.015
402.92	37.256
403.28	37.377
403.63	37.028
403.99	38.658
404.35	37.379
404.70	37.741
405.06	37.774
405.42	37.146
405.77	37.500
406.13	38.047
406.49	37.208
406.84	38.032
407.20	38.045
407.55	37.112
407.91	38.277
408.27	38.113
408.62	37.523
408.98	37.659
409.34	37.477
409.69	36.673
410.05	37.477
410.40	37.646
410.76	37.819
411.11	37.968
411.47	37.980
411.83	39.425
412.18	37.686
412.54	37.462
412.89	38.153
413.25	37.780
413.60	38.457
413.96	36.784
414.31	37.798
414.67	37.651
415.03	38.745
415.38	39.102
415.74	39.175
416.09	37.596
416.45	38.360
416.80	38.036
417.16	39.601
417.51	38.477
417.87	37.735
418.22	39.317
418.58	39.281
418.93	39.240
419.29	38.833
419.64	38.191
420.00	39.733
420.35	39.030
420.71	38.956
421.06	39.941
421.42	38.115
421.77	40.034
422.12	39.396
422.48	38.055
422.83	39.636
423.19	39.588
423.54	39.020
423.90	38.809
424.25	39.253
424.61	40.109
424.96	40.140
425.31	38.904
425.67	39.828
426.02	39.702
426.38	40.048
426.73	40.561
427.09	39.767
427.44	39.773
427.79	40.291
428.15	39.797
428.50	40.762
428.85	39.448
429.21	39.956
429.56	40.156
429.92	40.531
430.27	39.880
430.62	40.073
430.98	41.140
431.33	40.555
431.68	40.804
432.04	40.683
432.39	41.083
432.74	40.707
433.10	40.461
433.45	40.875
433.80	41.433
434.16	41.537
434.51	41.205
434.86	41.125
435.22	41.258
435.57	41.187
435.92	41.676
436.28	40.415
436.63	41.210
436.98	40.092
437.34	41.347
437.69	41.074
438.04	41.577
438.39	41.576
438.75	40.105
439.10	40.866
439.45	40.978
439.81	41.807
440.16	40.772
440.51	41.824
440.86	42.163
441.22	40.409
441.57	41.579
441.92	41.074
442.27	41.991
442.63	41.845
442.98	41.535
443.33	41.955
443.68	42.574
444.03	41.945
444.39	41.703
444.74	42.291
445.09	41.447
445.44	41.868
445.79	43.090
446.15	43.428
446.50	42.079
446.85	42.227
447.20	42.339
447.55	42.099
447.91	43.122
448.26	42.570
448.61	42.671
448.96	43.249
449.31	42.108
449.66	41.385
450.02	41.108
450.37	42.957
450.72	42.203
451.07	42.363
451.42	41.698
451.77	42.370
452.12	42.431
452.47	42.065
452.83	42.167
453.18	43.011
453.53	43.159
453.88	42.883
454.23	43.108
454.58	44.065
454.93	42.191
455.28	43.977
455.63	43.735
455.98	43.253
456.34	43.901
456.69	43.652
457.04	43.147
457.39	43.481
457.74	41.996
458.09	42.865
458.44	42.552
458.79	42.321
459.14	43.925
459.49	43.398
459.84	42.721
460.19	42.124
460.54	42.710
460.89	43.610
461.24	42.562
461.59	43.611
461.94	43.857
462.29	43.478
462.64	44.401
462.99	44.177
463.34	42.269
463.69	43.575
464.04	43.058
464.39	43.489
464.74	43.262
465.09	43.355
465.44	43.429
465.79	43.542
466.14	44.189
466.49	43.293
466.84	43.758
467.19	43.641
467.54	43.038
467.89	43.033
468.24	43.943
468.59	42.911
468.94	43.408
469.29	43.405
469.64	43.261
469.99	45.240
470.34	44.088
470.68	45.640
471.03	44.873
471.38	44.028
471.73	45.524
472.08	43.909
472.43	43.629
472.78	43.067
473.13	43.207
473.48	43.969
473.83	44.851
474.17	44.841
474.52	44.118
474.87	43.706
475.22	44.307
475.57	44.778
475.92	44.924
476.27	43.886
476.61	43.831
476.96	44.550
477.31	44.133
477.66	43.331
478.01	45.381
478.36	43.112
478.70	44.367
479.05	44.835
479.40	45.181
479.75	44.190
480.10	43.403
480.45	43.810
480.79	44.817
481.14	44.957
481.49	44.530
481.84	44.799
482.19	44.358
482.53	45.455
482.88	43.379
483.23	43.991
483.58	44.681
483.92	45.437
484.27	43.952
484.62	43.844
484.97	43.609
485.31	42.816
485.66	41.884
486.01	41.801
486.36	42.892
486.70	43.406
487.05	43.153
487.40	43.323
487.75	43.543
488.09	44.225
488.44	43.369
488.79	43.191
489.13	43.971
489.48	44.780
489.83	45.066
490.17	43.535
490.52	44.565
490.87	43.788
491.22	45.166
491.56	44.028
491.91	44.418
492.26	43.962
492.60	42.864
492.95	43.979
493.30	44.212
493.64	44.006
493.99	43.881
494.34	44.286
494.68	45.178
495.03	43.834
495.37	45.428
495.72	44.597
496.07	43.688
496.41	44.141
496.76	44.110
497.11	44.560
497.45	44.540
497.80	43.172
498.14	44.204
498.49	43.898
498.84	43.932
499.18	43.908
499.53	44.520
499.87	44.112
500.22	43.725
500.56	44.572
500.91	44.729
501.26	45.366
501.60	43.765
501.95	45.362
502.29	42.560
502.64	44.602
502.98	43.316
503.33	43.703
503.67	43.008
504.02	44.278
504.36	44.412
504.71	44.022
505.06	44.383
505.40	45.110
505.75	44.563
506.09	44.590
506.44	43.810
506.78	44.706
507.13	44.284
507.47	45.227
507.82	44.399
508.16	44.922
508.51	44.668
508.85	45.031
509.19	44.165
509.54	44.503
509.88	44.628
510.23	43.973
510.57	45.556
510.92	45.704
511.26	44.551
511.61	44.114
511.95	43.534
512.30	44.585
512.64	44.741
512.98	44.994
513.33	45.470
513.67	44.779
514.02	45.078
514.36	44.377
514.70	45.161
515.05	45.683
515.39	45.040
515.74	45.841
516.08	45.764
516.42	45.156
516.77	46.043
517.11	46.281
517.46	47.069
517.80	45.848
518.14	45.471
518.49	45.965
518.83	46.113
519.17	45.648
519.52	44.419
519.86	45.460
520.20	45.782
520.55	45.108
520.89	45.210
521.23	45.543
521.58	45.643
521.92	45.915
522.26	46.032
522.61	46.768
522.95	45.692
523.29	45.517
523.64	46.159
523.98	46.085
524.32	45.506
524.66	44.969
525.01	45.087
525.35	45.619
525.69	45.153
526.04	46.214
526.38	46.340
526.72	45.913
527.06	46.940
527.41	45.677
527.75	45.347
528.09	44.474
528.43	44.000
528.78	46.294
529.12	46.159
529.46	45.876
529.80	45.965
530.15	45.718
530.49	45.149
530.83	45.972
531.17	44.848
531.51	45.010
531.86	44.503
532.20	45.277
532.54	44.987
532.88	45.916
533.22	45.521
533.57	45.953
533.91	43.009
534.25	44.626
534.59	43.223
534.93	44.555
535.27	46.130
535.62	44.309
535.96	44.021
536.30	45.157
536.64	46.082
536.98	45.692
537.32	44.299
537.66	45.418
538.01	44.399
538.35	45.203
538.69	43.516
539.03	44.279
539.37	44.711
539.71	44.430
540.05	44.551
540.39	44.737
540.73	44.160
541.07	45.355
541.42	43.957
541.76	42.658
542.10	44.092
542.44	43.238
542.78	44.776
543.12	44.467
543.46	41.849
543.80	44.080
544.14	44.929
544.48	44.160
544.82	44.723
545.16	44.534
545.50	42.867
545.84	44.019
546.18	43.481
546.52	44.310
546.86	45.085
547.20	44.655
547.54	42.424
547.88	42.070
548.22	42.988
548.56	42.619
548.90	43.935
549.24	43.097
549.58	43.049
549.92	42.615
550.26	42.991
550.60	42.532
550.94	43.504
551.28	43.190
551.62	42.614
551.96	42.547
552.30	42.718
552.64	41.942
552.98	43.308
553.32	41.991
553.66	42.394
554.00	42.786
554.34	42.527
554.68	40.789
555.02	42.981
555.36	42.631
555.69	42.479
556.03	42.246
556.37	41.892
556.71	42.806
557.05	41.981
557.39	41.648
557.73	42.086
558.07	43.029
558.41	42.558
558.75	42.053
559.08	41.401
559.42	41.807
559.76	41.718
560.10	42.580
560.44	41.618
560.78	41.267
561.12	41.477
561.45	41.575
561.79	41.672
562.13	42.006
562.47	40.896
562.81	41.867
563.15	41.008
563.48	40.083
563.82	42.529
564.16	42.258
564.50	40.995
564.84	40.344
565.17	39.655
565.51	40.678
565.85	41.447
566.19	40.909
566.52	40.248
566.86	40.013
567.20	40.133
567.54	41.583
567.88	39.866
568.21	39.877
568.55	39.926
568.89	38.320
569.23	39.102
569.56	38.083
569.90	38.474
570.24	38.294
570.57	36.485
570.91	37.300
571.25	37.711
571.59	38.183
571.92	36.964
572.26	37.418
572.60	37.481
572.93	37.132
573.27	36.707
573.61	37.023
573.95	36.456
574.28	35.888
574.62	36.807
574.96	36.341
575.29	36.890
575.63	36.342
575.97	36.084
576.30	35.900
576.64	36.397
576.98	35.855
577.31	35.948
577.65	36.144
577.98	35.894
578.32	35.824
578.66	36.060
578.99	36.255
579.33	36.222
579.67	35.582
580.00	36.161
580.34	36.130
580.67	36.381
581.01	35.352
581.35	35.914
581.68	35.363
582.02	35.763
582.35	35.449
582.69	35.742
583.02	35.986
583.36	35.724
583.70	35.996
584.03	36.503
584.37	36.049
584.70	35.845
585.04	35.215
585.37	35.036
585.71	35.486
586.04	35.461
586.38	35.739
586.72	35.541
587.05	35.911
587.39	35.045
587.72	35.625
588.06	35.516
588.39	35.602
588.73	36.301
589.06	36.157
589.40	36.551
589.73	35.729
590.07	35.543
590.40	35.756
590.73	36.066
591.07	36.311
591.40	37.002
591.74	36.620
592.07	35.495
592.41	36.773
592.74	35.665
593.08	35.668
593.41	35.493
593.75	35.147
594.08	36.413
594.41	36.155
594.75	35.334
595.08	35.338
595.42	35.621
595.75	35.538
596.09	36.088
596.42	36.252
596.75	35.748
597.09	36.509
597.42	36.185
597.75	36.271
598.09	36.783
598.42	35.484
598.76	35.507
599.09	34.767
599.42	35.063
599.76	35.145
600.09	35.840
600.42	35.397
600.76	36.121
601.09	34.751
601.42	35.378
601.76	35.903
602.09	35.787
602.42	36.420
602.76	35.688
603.09	35.484
603.42	35.375
603.76	35.102
604.09	35.402
604.42	34.221
604.76	35.150
605.09	36.031
605.42	35.550
605.75	35.274
606.09	34.994
606.42	34.814
606.75	34.693
607.09	35.554
607.42	36.004
607.75	35.364
608.08	36.195
608.42	35.951
608.75	34.953
609.08	35.119
609.41	35.277
609.75	34.130
610.08	35.294
610.41	35.036
610.74	36.605
611.07	36.105
611.41	35.451
611.74	36.710
612.07	36.251
612.40	36.354
612.73	35.918
613.07	35.883
613.40	35.796
613.73	36.621
614.06	34.487
614.39	36.302
614.72	34.804
615.06	35.054
615.39	35.160
615.72	35.796
616.05	34.953
616.38	36.448
616.71	35.976
617.05	35.283
617.38	36.099
617.71	36.057
618.04	35.776
618.37	35.660
618.70	37.744
619.03	36.222
619.36	36.152
619.69	37.186
620.03	34.986
620.36	35.513
620.69	36.396
621.02	37.747
621.35	36.855
621.68	35.820
622.01	37.783
622.34	36.568
622.67	35.781
623.00	37.337
623.33	36.493
623.66	36.263
623.99	38.120
624.32	34.970
624.65	35.909
624.99	36.072
625.32	36.003
625.65	35.897
625.98	36.072
626.31	36.949
626.64	36.067
626.97	37.243
627.30	37.447
627.63	36.356
627.96	36.554
628.29	35.938
628.62	37.440
628.95	38.287
629.28	36.560
629.61	37.782
629.94	38.091
630.26	37.475
630.59	38.492
630.92	37.437
631.25	37.198
631.58	39.471
631.91	36.064
632.24	38.333
632.57	39.111
