SpectraSuite Data File
++++++++++++++++++++++++++++++++++++
Date: Sat May 16 11:23:58 PDT 2015
User: schluterlab
Dark Spectrum Present: Yes
Reference Spectrum Present: Yes
Number of Sampled Component Spectra: 1
Spectrometers: USB2E3373
Integration Time (usec): 3000 (USB2E3373)
Spectra Averaged: 3 (USB2E3373)
Boxcar Smoothing: 0 (USB2E3373)
Correct for Electrical Dark: No (USB2E3373)
Strobe/Lamp Enabled: No (USB2E3373)
Correct for Detector Non-linearity: No (USB2E3373)
Correct for Stray Light: No (USB2E3373)
Number of Pixels in Processed Spectrum: 2048
>>>>>Begin Processed Spectral Data<<<<<
178.53	0.000
178.91	133.333
179.29	466.667
179.67	-1500.000
180.04	-76.923
180.42	2200.000
180.80	325.000
181.18	200.000
181.56	-125.000
181.94	300.000
182.31	400.000
182.69	-53.846
183.07	-500.000
183.45	1200.000
183.83	266.667
184.20	-200.000
184.58	-250.000
184.96	-175.000
185.34	112.500
185.72	-375.000
186.09	316.667
186.47	-237.500
186.85	-75.000
187.23	-112.500
187.61	-400.000
187.98	-187.500
188.36	-50.000
188.74	-125.000
189.12	1100.000
189.49	257.143
189.87	-66.667
190.25	450.000
190.63	7.143
191.00	-88.889
191.38	300.000
191.76	-26.667
192.14	620.000
192.51	-400.000
192.89	-433.333
193.27	0.000
193.65	-122.222
194.02	-314.286
194.40	666.667
194.78	-170.000
195.15	-900.000
195.53	-90.909
195.91	-366.667
196.29	240.000
196.66	-833.333
197.04	2200.000
197.42	-25.000
197.79	-53.333
198.17	-66.667
198.55	-400.000
198.92	-1300.000
199.30	100.000
199.68	-650.000
200.05	11.111
200.43	-188.889
200.81	-700.000
201.18	-16.667
201.56	185.714
201.94	-33.333
202.31	18.182
202.69	30.000
203.07	10.000
203.44	766.667
203.82	-350.000
204.19	-625.000
204.57	-500.000
204.95	-100.000
205.32	-12.500
205.70	1100.000
206.08	-500.000
206.45	0.000
206.83	-1250.000
207.20	-200.000
207.58	-866.667
207.96	-66.667
208.33	-212.500
208.71	-77.778
209.08	290.000
209.46	-271.429
209.84	1050.000
210.21	0.000
210.59	40.000
210.96	-100.000
211.34	-316.667
211.71	-566.667
212.09	325.000
212.46	850.000
212.84	-2700.000
213.22	766.667
213.59	108.333
213.97	-111.111
214.34	100.000
214.72	-100.000
215.09	-366.667
215.47	-116.667
215.84	-130.000
216.22	-100.000
216.59	33.333
216.97	-350.000
217.34	750.000
217.72	-200.000
218.09	-83.333
218.47	-185.714
218.84	142.857
219.22	-42.857
219.59	0.000
219.97	242.857
220.34	375.000
220.72	225.000
221.09	-23.077
221.47	0.000
221.84	433.333
222.22	-250.000
222.59	2500.000
222.97	-250.000
223.34	-400.000
223.72	-933.333
224.09	-42.857
224.46	-225.000
224.84	-21.429
225.21	-228.571
225.59	-63.636
225.96	-150.000
226.34	-142.857
226.71	-111.111
227.08	10.000
227.46	2000.000
227.83	-128.571
228.21	-125.000
228.58	500.000
228.95	-43.750
229.33	-500.000
229.70	-340.000
230.08	-850.000
230.45	-91.667
230.82	-133.333
231.20	-1500.000
231.57	-450.000
231.95	500.000
232.32	-38.095
232.69	-122.222
233.07	-285.714
233.44	-1000.000
233.81	-40.000
234.19	-111.111
234.56	-112.500
234.93	28.125
235.31	-57.143
235.68	-100.000
236.05	-11.765
236.43	-9.091
236.80	-22.581
237.17	-41.667
237.55	-42.857
237.92	-22.727
238.29	25.714
238.67	26.471
239.04	2.778
239.41	29.032
239.79	-2.564
240.16	2.381
240.53	12.727
240.91	41.026
241.28	23.636
241.65	38.462
242.02	34.426
242.40	21.311
242.77	33.333
243.14	30.508
243.51	28.571
243.89	32.911
244.26	29.213
244.63	28.421
245.00	23.158
245.38	34.746
245.75	34.513
246.12	32.000
246.49	38.583
246.87	24.390
247.24	32.203
247.61	36.441
247.98	40.845
248.36	43.357
248.73	38.608
249.10	35.669
249.47	39.181
249.84	39.205
250.22	29.762
250.59	37.853
250.96	42.408
251.33	45.498
251.70	41.346
252.08	38.389
252.45	37.915
252.82	41.905
253.19	39.574
253.56	36.694
253.94	36.287
254.31	40.343
254.68	40.650
255.05	42.742
255.42	38.095
255.79	35.484
256.16	41.569
256.54	42.647
256.91	40.530
257.28	36.630
257.65	38.298
258.02	40.881
258.39	39.465
258.76	35.811
259.14	39.506
259.51	40.656
259.88	40.854
260.25	40.683
260.62	41.479
260.99	39.466
261.36	40.244
261.73	42.197
262.10	39.722
262.47	38.746
262.85	43.143
263.22	42.980
263.59	42.462
263.96	40.870
264.33	43.360
264.70	41.989
265.07	39.835
265.44	39.018
265.81	41.085
266.18	41.013
266.55	43.627
266.92	43.325
267.29	42.615
267.66	41.728
268.03	41.304
268.40	42.019
268.77	44.819
269.14	39.675
269.51	40.000
269.88	36.697
270.25	43.124
270.62	40.046
270.99	43.018
271.36	41.026
271.73	41.480
272.10	41.419
272.47	41.556
272.84	41.556
273.21	44.037
273.58	39.780
273.95	41.228
274.32	41.855
274.69	43.326
275.06	41.718
275.43	43.080
275.80	42.566
276.17	39.958
276.54	42.566
276.91	38.683
277.28	41.582
277.65	42.355
278.02	42.380
278.39	41.061
278.76	42.629
279.13	41.700
279.50	40.159
279.87	39.323
280.23	39.676
280.60	41.750
280.97	40.194
281.34	41.586
281.71	41.538
282.08	43.750
282.45	41.344
282.82	40.310
283.19	40.909
283.56	39.927
283.92	42.049
284.29	41.264
284.66	38.129
285.03	40.285
285.40	42.804
285.77	41.579
286.14	39.350
286.51	41.030
286.87	40.290
287.24	40.956
287.61	38.512
287.98	38.995
288.35	38.678
288.72	38.031
289.08	37.119
289.45	37.542
289.82	35.640
290.19	37.603
290.56	35.868
290.93	37.202
291.29	37.277
291.66	36.554
292.03	37.520
292.40	32.831
292.77	36.180
293.13	36.098
293.50	36.553
293.87	35.583
294.24	35.294
294.60	32.727
294.97	34.750
295.34	32.889
295.71	34.821
296.08	31.490
296.44	33.047
296.81	34.615
297.18	31.972
297.55	34.605
297.91	34.868
298.28	31.233
298.65	32.078
299.02	32.487
299.38	31.952
299.75	31.386
300.12	31.667
300.48	31.586
300.85	30.406
301.22	30.530
301.59	30.819
301.95	33.123
302.32	28.422
302.69	30.355
303.05	28.694
303.42	28.750
303.79	31.220
304.15	29.384
304.52	29.172
304.89	30.342
305.25	29.060
305.62	27.380
305.99	30.153
306.35	28.302
306.72	29.385
307.09	29.625
307.45	28.263
307.82	29.497
308.19	29.306
308.55	28.105
308.92	28.786
309.29	28.432
309.65	27.996
310.02	27.430
310.38	29.297
310.75	27.766
311.12	28.822
311.48	28.810
311.85	27.497
312.22	27.497
312.58	28.281
312.95	26.707
313.31	27.173
313.68	29.146
314.05	27.794
314.41	27.968
314.78	26.274
315.14	27.937
315.51	27.862
315.87	27.880
316.24	26.628
316.61	28.407
316.97	27.662
317.34	28.131
317.70	25.696
318.07	27.239
318.43	26.873
318.80	29.202
319.16	26.829
319.53	26.786
319.89	25.870
320.26	26.667
320.62	25.481
320.99	25.075
321.35	25.813
321.72	25.793
322.08	27.596
322.45	27.921
322.81	27.762
323.18	28.050
323.54	27.819
323.91	26.969
324.27	27.186
324.64	25.868
325.00	26.963
325.37	25.792
325.73	27.209
326.10	24.978
326.46	26.007
326.83	26.298
327.19	25.354
327.56	27.598
327.92	26.253
328.29	26.407
328.65	24.182
329.01	25.883
329.38	24.442
329.74	27.015
330.11	25.657
330.47	25.886
330.84	26.581
331.20	26.625
331.56	25.160
331.93	26.821
332.29	27.123
332.66	25.988
333.02	25.249
333.38	25.179
333.75	24.666
334.11	25.956
334.48	24.625
334.84	26.159
335.20	25.887
335.57	25.181
335.93	26.768
336.29	25.509
336.66	25.991
337.02	24.865
337.38	23.708
337.75	25.285
338.11	24.687
338.47	24.822
338.84	23.775
339.20	25.747
339.56	26.025
339.93	25.132
340.29	24.358
340.65	24.650
341.02	25.970
341.38	23.505
341.74	25.741
342.11	25.171
342.47	24.464
342.83	24.937
343.20	24.509
343.56	23.510
343.92	24.290
344.28	24.979
344.65	24.010
345.01	23.025
345.37	23.920
345.73	24.059
346.10	24.039
346.46	22.340
346.82	22.855
347.19	23.747
347.55	23.836
347.91	23.071
348.27	22.593
348.63	23.910
349.00	23.866
349.36	22.717
349.72	24.522
350.08	23.978
350.45	23.562
350.81	24.045
351.17	23.473
351.53	22.434
351.89	23.040
352.26	23.256
352.62	24.270
352.98	24.130
353.34	24.301
353.70	22.471
354.07	23.997
354.43	23.241
354.79	22.979
355.15	23.642
355.51	22.813
355.87	22.055
356.24	24.384
356.60	25.060
356.96	22.787
357.32	22.090
357.68	22.912
358.04	22.941
358.40	22.815
358.77	22.720
359.13	22.877
359.49	21.995
359.85	22.713
360.21	23.288
360.57	23.268
360.93	23.704
361.29	22.496
361.66	21.494
362.02	22.411
362.38	22.891
362.74	23.150
363.10	22.238
363.46	22.863
363.82	22.595
364.18	22.793
364.54	24.232
364.90	22.152
365.26	22.254
365.62	22.594
365.98	22.760
366.35	21.197
366.71	22.481
367.07	22.795
367.43	23.610
367.79	22.474
368.15	22.191
368.51	23.147
368.87	22.596
369.23	22.807
369.59	21.806
369.95	22.058
370.31	21.871
370.67	21.258
371.03	21.720
371.39	21.924
371.75	22.175
372.11	22.238
372.47	21.981
372.83	22.253
373.19	23.000
373.55	21.956
373.91	22.262
374.27	21.697
374.63	23.326
374.99	22.392
375.35	21.063
375.71	23.093
376.07	22.587
376.42	21.258
376.78	22.418
377.14	22.644
377.50	22.373
377.86	21.782
378.22	21.482
378.58	21.680
378.94	21.887
379.30	22.547
379.66	22.404
380.02	21.628
380.38	21.752
380.74	21.923
381.09	22.437
381.45	22.375
381.81	21.537
382.17	21.491
382.53	20.608
382.89	21.411
383.25	21.433
383.61	21.993
383.97	21.433
384.32	22.716
384.68	22.370
385.04	21.679
385.40	21.424
385.76	22.378
386.12	21.237
386.48	21.782
386.83	22.699
387.19	22.236
387.55	21.684
387.91	21.280
388.27	20.748
388.62	21.815
388.98	20.533
389.34	21.909
389.70	22.533
390.06	21.815
390.42	21.474
390.77	22.082
391.13	21.739
391.49	22.333
391.85	21.945
392.20	21.602
392.56	22.297
392.92	21.620
393.28	22.445
393.64	21.828
393.99	21.846
394.35	21.837
394.71	21.742
395.07	21.720
395.42	21.514
395.78	20.867
396.14	22.492
396.50	21.346
396.85	22.517
397.21	21.385
397.57	21.581
397.92	21.838
398.28	22.056
398.64	22.011
399.00	22.303
399.35	21.195
399.71	22.997
400.07	22.806
400.42	22.567
400.78	22.361
401.14	21.257
401.49	21.108
401.85	21.843
402.21	21.871
402.57	21.420
402.92	22.404
403.28	22.426
403.63	20.671
403.99	21.753
404.35	20.592
404.70	21.592
405.06	21.857
405.42	21.894
405.77	21.041
406.13	21.749
406.49	21.630
406.84	21.416
407.20	22.026
407.55	21.153
407.91	21.503
408.27	22.120
408.62	20.686
408.98	22.256
409.34	21.633
409.69	21.613
410.05	21.225
410.40	21.337
410.76	21.340
411.11	21.446
411.47	22.634
411.83	21.883
412.18	21.040
412.54	20.500
412.89	21.810
413.25	20.779
413.60	21.264
413.96	20.949
414.31	21.590
414.67	21.270
415.03	22.122
415.38	20.690
415.74	20.876
416.09	20.716
416.45	20.767
416.80	21.261
417.16	20.997
417.51	21.996
417.87	21.230
418.22	20.986
418.58	21.438
418.93	20.478
419.29	21.518
419.64	20.917
420.00	21.507
420.35	20.875
420.71	21.188
421.06	21.243
421.42	20.667
421.77	21.161
422.12	20.537
422.48	21.005
422.83	21.526
423.19	20.379
423.54	21.441
423.90	21.168
424.25	20.079
424.61	21.411
424.96	21.592
425.31	21.465
425.67	20.802
426.02	20.711
426.38	22.202
426.73	20.573
427.09	21.691
427.44	20.795
427.79	21.047
428.15	20.946
428.50	21.290
428.85	21.043
429.21	20.919
429.56	20.938
429.92	20.441
430.27	21.735
430.62	21.526
430.98	21.171
431.33	22.145
431.68	21.769
432.04	21.824
432.39	21.311
432.74	21.283
433.10	21.216
433.45	20.725
433.80	20.829
434.16	20.849
434.51	21.973
434.86	20.972
435.22	21.659
435.57	20.808
435.92	22.157
436.28	20.831
436.63	21.085
436.98	20.160
437.34	22.209
437.69	21.120
438.04	20.987
438.39	21.420
438.75	19.732
439.10	20.933
439.45	20.459
439.81	20.361
440.16	20.897
440.51	20.882
440.86	20.532
441.22	19.458
441.57	20.842
441.92	21.330
442.27	21.591
442.63	20.708
442.98	20.203
443.33	20.977
443.68	20.688
444.03	21.120
444.39	20.901
444.74	20.595
445.09	20.943
445.44	21.328
445.79	20.806
446.15	21.577
446.50	19.815
446.85	20.318
447.20	20.174
447.55	21.381
447.91	21.168
448.26	19.777
448.61	20.430
448.96	21.849
449.31	19.786
449.66	21.752
450.02	19.612
450.37	20.812
450.72	19.944
451.07	21.307
451.42	20.260
451.77	20.886
452.12	20.262
452.47	21.348
452.83	20.850
453.18	21.316
453.53	21.269
453.88	22.129
454.23	19.952
454.58	20.820
454.93	21.033
455.28	19.503
455.63	21.499
455.98	21.024
456.34	19.949
456.69	21.201
457.04	20.529
457.39	20.156
457.74	21.087
458.09	21.230
458.44	20.727
458.79	21.076
459.14	20.251
459.49	20.959
459.84	20.011
460.19	20.943
460.54	20.448
460.89	20.460
461.24	20.947
461.59	20.985
461.94	20.751
462.29	20.131
462.64	20.158
462.99	21.553
463.34	19.649
463.69	20.420
464.04	20.269
464.39	19.773
464.74	19.858
465.09	19.964
465.44	20.305
465.79	21.545
466.14	20.886
466.49	21.186
466.84	20.108
467.19	20.324
467.54	20.316
467.89	20.530
468.24	19.774
468.59	20.175
468.94	19.871
469.29	20.013
469.64	19.609
469.99	20.662
470.34	19.840
470.68	20.131
471.03	19.959
471.38	19.931
471.73	20.420
472.08	19.344
472.43	20.399
472.78	20.200
473.13	19.549
473.48	19.209
473.83	20.533
474.17	19.936
474.52	20.524
474.87	19.639
475.22	19.292
475.57	20.111
475.92	20.842
476.27	20.000
476.61	20.338
476.96	19.229
477.31	20.291
477.66	20.144
478.01	19.611
478.36	19.591
478.70	19.541
479.05	20.281
479.40	20.259
479.75	19.725
480.10	19.296
480.45	18.810
480.79	19.891
481.14	20.472
481.49	19.652
481.84	19.417
482.19	20.466
482.53	19.744
482.88	19.744
483.23	20.047
483.58	20.814
483.92	20.019
484.27	19.805
484.62	19.784
484.97	20.070
485.31	19.680
485.66	19.303
486.01	20.202
486.36	21.403
486.70	22.186
487.05	21.187
487.40	21.047
487.75	21.252
488.09	21.217
488.44	21.651
488.79	21.507
489.13	21.529
489.48	20.636
489.83	20.830
490.17	20.244
490.52	19.656
490.87	19.215
491.22	19.851
491.56	19.769
491.91	20.277
492.26	19.387
492.60	19.505
492.95	18.896
493.30	19.343
493.64	19.229
493.99	19.216
494.34	19.524
494.68	20.037
495.03	19.981
495.37	19.076
495.72	19.548
496.07	19.193
496.41	19.639
496.76	19.178
497.11	19.548
497.45	19.444
497.80	19.410
498.14	19.303
498.49	19.789
498.84	19.126
499.18	19.932
499.53	20.312
499.87	19.450
500.22	19.363
500.56	19.710
500.91	19.310
501.26	20.670
501.60	19.355
501.95	20.097
502.29	19.839
502.64	19.849
502.98	18.879
503.33	20.019
503.67	19.444
504.02	19.845
504.36	20.245
504.71	19.554
505.06	19.171
505.40	19.860
505.75	19.157
506.09	19.515
506.44	19.348
506.78	19.870
507.13	19.567
507.47	19.927
507.82	18.585
508.16	19.637
508.51	19.784
508.85	19.151
509.19	19.100
509.54	20.032
509.88	20.000
510.23	19.340
510.57	19.894
510.92	19.871
511.26	19.511
511.61	18.413
511.95	18.642
512.30	18.087
512.64	18.308
512.98	19.197
513.33	19.110
513.67	19.319
514.02	18.400
514.36	19.335
514.70	18.563
515.05	18.468
515.39	18.397
515.74	18.848
516.08	18.790
516.42	17.620
516.77	18.949
517.11	18.764
517.46	19.139
517.80	18.833
518.14	17.754
518.49	18.051
518.83	17.864
519.17	18.591
519.52	18.450
519.86	19.295
520.20	18.337
520.55	18.831
520.89	17.846
521.23	19.231
521.58	18.307
521.92	19.443
522.26	18.730
522.61	18.061
522.95	16.465
523.29	19.060
523.64	18.114
523.98	18.205
524.32	18.353
524.66	18.199
525.01	17.534
525.35	17.912
525.69	17.762
526.04	18.734
526.38	19.032
526.72	17.880
527.06	18.424
527.41	17.558
527.75	17.888
528.09	18.531
528.43	18.230
528.78	18.844
529.12	18.374
529.46	17.526
529.80	17.947
530.15	17.901
530.49	18.305
530.83	18.991
531.17	17.845
531.51	17.816
531.86	18.367
532.20	17.611
532.54	19.385
532.88	18.050
533.22	18.449
533.57	18.668
533.91	17.853
534.25	18.228
534.59	17.239
534.93	17.673
535.27	19.635
535.62	18.862
535.96	19.005
536.30	17.605
536.64	18.725
536.98	18.079
537.32	18.106
537.66	18.805
538.01	18.625
538.35	18.581
538.69	17.580
539.03	18.619
539.37	18.696
539.71	17.879
540.05	17.478
540.39	18.975
540.73	17.830
541.07	18.306
541.42	17.826
541.76	17.143
542.10	18.028
542.44	18.921
542.78	19.403
543.12	19.348
543.46	17.877
543.80	18.261
544.14	18.133
544.48	19.226
544.82	18.471
545.16	18.913
545.50	17.093
545.84	19.541
546.18	18.863
546.52	18.990
546.86	18.162
547.20	17.722
547.54	18.113
547.88	19.575
548.22	17.824
548.56	18.904
548.90	18.801
549.24	17.589
549.58	18.701
549.92	19.011
550.26	19.147
550.60	17.781
550.94	18.978
551.28	17.908
551.62	18.095
551.96	18.162
552.30	18.885
552.64	17.945
552.98	18.430
553.32	18.326
553.66	18.962
554.00	19.048
554.34	17.834
554.68	18.421
555.02	17.656
555.36	18.116
555.69	18.195
556.03	18.246
556.37	17.710
556.71	18.397
557.05	18.625
557.39	17.595
557.73	18.235
558.07	18.613
558.41	17.502
558.75	17.871
559.08	17.588
559.42	17.688
559.76	18.328
560.10	18.121
560.44	19.292
560.78	18.511
561.12	18.288
561.45	19.110
561.79	17.631
562.13	18.022
562.47	18.838
562.81	17.044
563.15	18.474
563.48	18.176
563.82	18.661
564.16	18.391
564.50	18.884
564.84	18.519
565.17	17.507
565.51	18.905
565.85	18.932
566.19	19.104
566.52	19.178
566.86	17.952
567.20	19.189
567.54	19.669
567.88	19.263
568.21	19.855
568.55	19.353
568.89	19.284
569.23	19.806
569.56	19.378
569.90	20.181
570.24	20.105
570.57	19.719
570.91	20.571
571.25	20.752
571.59	20.762
571.92	20.565
572.26	21.120
572.60	20.695
572.93	20.626
573.27	20.030
573.61	20.132
573.95	21.181
574.28	21.362
574.62	21.124
574.96	20.937
575.29	21.011
575.63	21.582
575.97	20.469
576.30	20.800
576.64	21.201
576.98	20.926
577.31	21.549
577.65	21.472
577.98	21.466
578.32	21.027
578.66	21.932
578.99	21.853
579.33	21.527
579.67	20.923
580.00	21.205
580.34	21.086
580.67	21.574
581.01	21.138
581.35	21.334
581.68	21.011
582.02	21.535
582.35	21.454
582.69	21.755
583.02	21.795
583.36	21.711
583.70	21.352
584.03	21.794
584.37	21.759
584.70	21.412
585.04	21.722
585.37	21.169
585.71	21.384
586.04	22.036
586.38	21.144
586.72	21.392
587.05	20.986
587.39	21.142
587.72	20.972
588.06	21.320
588.39	21.817
588.73	21.545
589.06	21.547
589.40	21.539
589.73	20.999
590.07	21.704
590.40	21.070
590.73	20.752
591.07	20.246
591.40	21.057
591.74	21.156
592.07	20.901
592.41	20.297
592.74	20.446
593.08	20.323
593.41	20.724
593.75	20.244
594.08	21.244
594.41	21.774
594.75	20.649
595.08	20.789
595.42	20.845
595.75	20.801
596.09	20.450
596.42	21.440
596.75	20.267
597.09	20.837
597.42	20.122
597.75	20.283
598.09	20.741
598.42	20.725
598.76	20.307
599.09	19.890
599.42	20.607
599.76	20.612
600.09	20.458
600.42	20.775
600.76	20.716
601.09	20.509
601.42	20.499
601.76	20.405
602.09	20.450
602.42	20.412
602.76	20.066
603.09	20.161
603.42	20.226
603.76	20.503
604.09	20.665
604.42	20.358
604.76	20.715
605.09	20.886
605.42	20.479
605.75	20.181
606.09	20.506
606.42	20.109
606.75	20.309
607.09	20.026
607.42	20.114
607.75	20.530
608.08	20.696
608.42	20.814
608.75	20.234
609.08	19.922
609.41	19.781
609.75	20.088
610.08	19.755
610.41	19.614
610.74	21.083
611.07	21.298
611.41	18.558
611.74	20.257
612.07	20.032
612.40	20.149
612.73	19.117
613.07	19.648
613.40	20.799
613.73	20.436
614.06	19.989
614.39	19.673
614.72	19.553
615.06	18.913
615.39	19.371
615.72	20.532
616.05	19.934
616.38	19.617
616.71	19.339
617.05	20.688
617.38	19.814
617.71	19.410
618.04	19.752
618.37	19.371
618.70	20.469
619.03	18.619
619.36	19.873
619.69	20.531
620.03	18.733
620.36	19.128
620.69	20.316
621.02	19.178
621.35	18.387
621.68	18.197
622.01	20.146
622.34	18.323
622.67	18.516
623.00	18.286
623.33	18.806
623.66	17.947
623.99	19.398
624.32	18.304
624.65	18.617
624.99	18.447
625.32	18.787
625.65	19.736
625.98	17.762
626.31	18.271
626.64	18.996
626.97	18.579
627.30	18.128
627.63	17.271
627.96	18.451
628.29	18.658
628.62	17.287
628.95	17.520
629.28	15.695
629.61	17.076
629.94	18.242
630.26	17.992
630.59	18.090
630.92	18.018
631.25	18.246
631.58	17.989
