SpectraSuite Data File
++++++++++++++++++++++++++++++++++++
Date: Sat May 16 11:27:14 PDT 2015
User: schluterlab
Dark Spectrum Present: Yes
Reference Spectrum Present: Yes
Number of Sampled Component Spectra: 1
Spectrometers: USB2E3373
Integration Time (usec): 3000 (USB2E3373)
Spectra Averaged: 3 (USB2E3373)
Boxcar Smoothing: 0 (USB2E3373)
Correct for Electrical Dark: No (USB2E3373)
Strobe/Lamp Enabled: No (USB2E3373)
Correct for Detector Non-linearity: No (USB2E3373)
Correct for Stray Light: No (USB2E3373)
Number of Pixels in Processed Spectrum: 2048
>>>>>Begin Processed Spectral Data<<<<<
178.53	0.000
178.91	80.000
179.29	833.333
179.67	-1600.000
180.04	-123.077
180.42	1300.000
180.80	475.000
181.18	275.000
181.56	-125.000
181.94	200.000
182.31	700.000
182.69	-15.385
183.07	-500.000
183.45	1800.000
183.83	100.000
184.20	-100.000
184.58	-50.000
184.96	-575.000
185.34	137.500
185.72	-575.000
186.09	400.000
186.47	-112.500
186.85	-187.500
187.23	-62.500
187.61	-250.000
187.98	-162.500
188.36	-100.000
188.74	-225.000
189.12	600.000
189.49	457.143
189.87	-66.667
190.25	425.000
190.63	-71.429
191.00	-200.000
191.38	380.000
191.76	-26.667
192.14	500.000
192.51	-380.000
192.89	-166.667
193.27	0.000
193.65	-66.667
194.02	-314.286
194.40	500.000
194.78	-190.000
195.15	-1300.000
195.53	-136.364
195.91	-383.333
196.29	360.000
196.66	-633.333
197.04	2200.000
197.42	-325.000
197.79	-20.000
198.17	-333.333
198.55	-600.000
198.92	-1800.000
199.30	237.500
199.68	-600.000
200.05	-55.556
200.43	-222.222
200.81	-700.000
201.18	-175.000
201.56	100.000
201.94	-80.000
202.31	-13.636
202.69	-20.000
203.07	-110.000
203.44	400.000
203.82	-383.333
204.19	-425.000
204.57	-500.000
204.95	-900.000
205.32	-6.250
205.70	1600.000
206.08	-1100.000
206.45	-38.889
206.83	-1000.000
207.20	400.000
207.58	-700.000
207.96	-466.667
208.33	-175.000
208.71	-133.333
209.08	210.000
209.46	-57.143
209.84	650.000
210.21	0.000
210.59	50.000
210.96	-0.000
211.34	-116.667
211.71	-333.333
212.09	425.000
212.46	900.000
212.84	-2300.000
213.22	700.000
213.59	141.667
213.97	-88.889
214.34	120.000
214.72	-140.000
215.09	-433.333
215.47	-166.667
215.84	-80.000
216.22	-130.000
216.59	-26.667
216.97	-325.000
217.34	350.000
217.72	-100.000
218.09	-250.000
218.47	-157.143
218.84	328.571
219.22	-114.286
219.59	0.000
219.97	171.429
220.34	400.000
220.72	325.000
221.09	-46.154
221.47	0.000
221.84	466.667
222.22	-550.000
222.59	1000.000
222.97	-225.000
223.34	-1100.000
223.72	-166.667
224.09	-57.143
224.46	-400.000
224.84	-78.571
225.21	-300.000
225.59	-81.818
225.96	-200.000
226.34	28.571
226.71	-166.667
227.08	-35.000
227.46	2500.000
227.83	-328.571
228.21	-237.500
228.58	900.000
228.95	-62.500
229.33	-1000.000
229.70	-220.000
230.08	-1050.000
230.45	-66.667
230.82	-250.000
231.20	-1600.000
231.57	-450.000
231.95	2400.000
232.32	-47.619
232.69	-255.556
233.07	-214.286
233.44	-650.000
233.81	-126.667
234.19	-55.556
234.56	-56.250
234.93	6.250
235.31	-200.000
235.68	-150.000
236.05	-117.647
236.43	-90.909
236.80	9.677
237.17	-29.167
237.55	-42.857
237.92	-95.455
238.29	-51.429
238.67	2.941
239.04	8.333
239.41	-35.484
239.79	-51.282
240.16	-47.619
240.53	-27.273
240.91	-38.462
241.28	-27.273
241.65	-7.692
242.02	-13.115
242.40	-27.869
242.77	-7.576
243.14	-27.119
243.51	-20.000
243.89	-15.190
244.26	-17.978
244.63	-2.105
245.00	-8.421
245.38	-3.390
245.75	-10.619
246.12	-5.600
246.49	-3.937
246.87	-8.943
247.24	-17.797
247.61	-16.102
247.98	-8.451
248.36	-5.594
248.73	1.899
249.10	-14.013
249.47	-4.678
249.84	1.136
250.22	-11.310
250.59	-2.260
250.96	-6.283
251.33	1.896
251.70	-5.769
252.08	-0.474
252.45	-10.900
252.82	-7.619
253.19	-2.128
253.56	-4.839
253.94	-5.485
254.31	-3.863
254.68	-0.407
255.05	-9.677
255.42	-6.349
255.79	-4.301
256.16	-1.569
256.54	-4.044
256.91	-4.924
257.28	-2.930
257.65	-3.191
258.02	-0.314
258.39	-4.013
258.76	-7.432
259.14	-2.778
259.51	0.328
259.88	0.305
260.25	0.000
260.62	-3.537
260.99	-4.154
261.36	-3.049
261.73	-2.312
262.10	0.833
262.47	-1.140
262.85	-1.143
263.22	-3.725
263.59	-4.308
263.96	-2.899
264.33	-1.084
264.70	-2.762
265.07	0.000
265.44	-2.326
265.81	-2.067
266.18	-2.785
266.55	-2.696
266.92	-0.504
267.29	-1.453
267.66	-3.210
268.03	2.174
268.40	-2.113
268.77	-2.410
269.14	-2.784
269.51	-0.690
269.88	-3.211
270.25	-3.030
270.62	-2.288
270.99	-3.153
271.36	-1.865
271.73	-2.915
272.10	-3.204
272.47	-1.778
272.84	0.000
273.21	-2.523
273.58	0.879
273.95	-1.754
274.32	-1.584
274.69	0.000
275.06	-1.022
275.43	-3.348
275.80	1.629
276.17	-1.464
276.54	1.018
276.91	-2.058
277.28	-0.811
277.65	-1.446
278.02	-2.296
278.39	-0.786
278.76	-0.398
279.13	-2.372
279.50	0.000
279.87	-1.268
280.23	0.000
280.60	-3.380
280.97	-0.971
281.34	-3.095
281.71	-1.154
282.08	-0.202
282.45	-4.277
282.82	-0.388
283.19	-1.636
283.56	0.366
283.92	-1.237
284.29	-1.301
284.66	-1.079
285.03	1.426
285.40	-1.661
285.77	-1.053
286.14	-0.903
286.51	-1.954
286.87	-0.181
287.24	-0.171
287.61	-0.992
287.98	-2.253
288.35	-2.149
288.72	-1.358
289.08	-3.898
289.45	-1.684
289.82	-1.038
290.19	-0.657
290.56	-3.967
290.93	-2.544
291.29	-2.269
291.66	-1.449
292.03	-0.471
292.40	0.000
292.77	0.621
293.13	-1.626
293.50	0.594
293.87	-2.301
294.24	0.452
294.60	-2.121
294.97	-1.062
295.34	-1.778
295.71	-1.637
296.08	-2.611
296.44	-1.574
296.81	-1.567
297.18	0.141
297.55	-0.565
297.91	0.837
298.28	-1.507
298.65	-0.837
299.02	-0.267
299.38	0.134
299.75	-0.408
300.12	-0.641
300.48	0.895
300.85	-1.311
301.22	0.776
301.59	-1.170
301.95	0.756
302.32	-0.782
302.69	-0.490
303.05	-0.366
303.42	-2.000
303.79	-0.718
304.15	0.711
304.52	-0.583
304.89	-1.771
305.25	0.611
305.62	-0.705
305.99	2.002
306.35	0.555
306.72	-2.392
307.09	0.227
307.45	0.568
307.82	-0.782
308.19	0.783
308.55	-0.109
308.92	-1.074
309.29	-0.324
309.65	-0.424
310.02	0.216
310.38	-0.973
310.75	1.230
311.12	1.343
311.48	0.209
311.85	0.618
312.22	-0.309
312.58	2.136
312.95	0.000
313.31	0.400
313.68	2.513
314.05	2.374
314.41	0.302
314.78	0.599
315.14	1.777
315.51	0.101
315.87	2.904
316.24	2.721
316.61	2.879
316.97	3.184
317.34	1.830
317.70	1.391
318.07	3.172
318.43	2.060
318.80	1.878
319.16	2.345
319.53	2.350
319.89	2.446
320.26	2.745
320.62	2.019
320.99	4.179
321.35	2.857
321.72	3.071
322.08	4.352
322.45	4.059
322.81	2.978
323.18	5.476
323.54	3.420
323.91	4.634
324.27	4.848
324.64	5.119
325.00	4.625
325.37	5.882
325.73	7.174
326.10	3.809
326.46	6.042
326.83	6.043
327.19	7.089
327.56	7.411
327.92	6.967
328.29	7.619
328.65	5.545
329.01	8.834
329.38	8.118
329.74	9.341
330.11	7.344
330.47	7.902
330.84	8.708
331.20	7.762
331.56	8.113
331.93	7.638
332.29	8.402
332.66	8.253
333.02	8.778
333.38	9.140
333.75	10.419
334.11	8.444
334.48	8.826
334.84	11.199
335.20	10.018
335.57	9.928
335.93	10.474
336.29	9.920
336.66	8.811
337.02	9.820
337.38	8.913
337.75	9.745
338.11	9.928
338.47	10.053
338.84	8.893
339.20	9.490
339.56	10.428
339.93	9.965
340.29	8.857
340.65	9.266
341.02	9.528
341.38	11.205
341.74	10.246
342.11	9.556
342.47	10.472
342.83	10.747
343.20	9.308
343.56	8.898
343.92	10.184
344.28	10.849
344.65	8.581
345.01	9.412
345.37	10.548
345.73	9.329
346.10	7.768
346.46	9.504
346.82	9.623
347.19	9.778
347.55	9.149
347.91	9.213
348.27	9.944
348.63	9.774
349.00	9.706
349.36	9.133
349.72	10.350
350.08	10.425
350.45	9.141
350.81	9.793
351.17	10.048
351.53	8.910
351.89	9.054
352.26	10.388
352.62	11.598
352.98	10.047
353.34	11.191
353.70	9.189
354.07	9.913
354.43	10.356
354.79	10.301
355.15	9.505
355.51	9.375
355.87	9.723
356.24	9.531
356.60	10.475
356.96	10.162
357.32	9.026
357.68	10.345
358.04	11.393
358.40	9.358
358.77	10.046
359.13	10.635
359.49	11.111
359.85	10.061
360.21	10.274
360.57	11.145
360.93	10.444
361.29	11.286
361.66	8.994
362.02	9.837
362.38	10.565
362.74	10.623
363.10	10.043
363.46	11.396
363.82	10.860
364.18	10.854
364.54	12.795
364.90	10.342
365.26	10.842
365.62	11.475
365.98	11.664
366.35	10.563
366.71	11.487
367.07	11.574
367.43	12.903
367.79	12.096
368.15	11.024
368.51	12.308
368.87	13.668
369.23	12.842
369.59	12.569
369.95	11.980
370.31	12.658
370.67	11.714
371.03	11.953
371.39	11.457
371.75	12.446
372.11	11.478
372.47	12.075
372.83	12.796
373.19	12.214
373.55	12.808
373.91	12.945
374.27	11.910
374.63	12.284
374.99	12.239
375.35	12.517
375.71	13.977
376.07	13.142
376.42	11.921
376.78	13.464
377.14	13.085
377.50	13.798
377.86	13.589
378.22	14.070
378.58	14.083
378.94	13.625
379.30	13.955
379.66	13.297
380.02	13.844
380.38	13.656
380.74	13.482
381.09	15.231
381.45	14.916
381.81	15.245
382.17	14.223
382.53	14.590
382.89	14.474
383.25	14.750
383.61	15.448
383.97	16.044
384.32	14.956
384.68	15.538
385.04	14.432
385.40	15.338
385.76	14.817
386.12	15.678
386.48	16.460
386.83	16.074
387.19	16.378
387.55	15.930
387.91	15.768
388.27	14.837
388.62	16.346
388.98	16.293
389.34	15.606
389.70	16.322
390.06	15.475
390.42	17.308
390.77	16.215
391.13	17.205
391.49	16.968
391.85	17.269
392.20	16.323
392.56	16.310
392.92	16.771
393.28	16.705
393.64	16.837
393.99	17.538
394.35	16.545
394.71	16.862
395.07	17.640
395.42	16.210
395.78	17.410
396.14	17.196
396.50	16.330
396.85	17.088
397.21	16.889
397.57	17.812
397.92	17.857
398.28	17.111
398.64	17.609
399.00	17.921
399.35	17.813
399.71	17.828
400.07	18.149
400.42	18.187
400.78	16.935
401.14	17.725
401.49	17.335
401.85	18.365
402.21	18.176
402.57	18.083
402.92	18.439
403.28	16.850
403.63	17.376
403.99	17.961
404.35	18.478
404.70	17.730
405.06	18.743
405.42	17.897
405.77	17.421
406.13	17.888
406.49	18.634
406.84	17.816
407.20	18.610
407.55	17.479
407.91	18.070
408.27	19.056
408.62	18.340
408.98	18.132
409.34	18.708
409.69	18.273
410.05	17.526
410.40	17.903
410.76	18.257
411.11	18.329
411.47	17.711
411.83	18.460
412.18	17.574
412.54	17.816
412.89	17.618
413.25	17.946
413.60	17.436
413.96	17.498
414.31	18.532
414.67	17.460
415.03	18.499
415.38	17.957
415.74	18.686
416.09	17.711
416.45	17.460
416.80	18.661
417.16	17.940
417.51	19.238
417.87	17.799
418.22	18.521
418.58	18.164
418.93	18.639
419.29	17.880
419.64	17.714
420.00	19.077
420.35	17.978
420.71	18.607
421.06	17.929
421.42	19.262
421.77	19.040
422.12	20.034
422.48	18.867
422.83	18.622
423.19	17.539
423.54	18.732
423.90	18.623
424.25	18.835
424.61	20.084
424.96	20.012
425.31	19.005
425.67	18.682
426.02	18.130
426.38	19.722
426.73	19.345
427.09	19.240
427.44	19.659
427.79	18.256
428.15	19.330
428.50	20.059
428.85	19.784
429.21	19.480
429.56	18.906
429.92	19.940
430.27	19.541
430.62	19.331
430.98	19.707
431.33	19.584
431.68	19.839
432.04	20.090
432.39	20.456
432.74	20.384
433.10	20.090
433.45	19.229
433.80	19.429
434.16	20.795
434.51	19.671
434.86	20.621
435.22	21.771
435.57	19.584
435.92	20.164
436.28	20.297
436.63	19.559
436.98	19.072
437.34	20.673
437.69	19.895
438.04	20.023
438.39	20.517
438.75	20.198
439.10	20.711
439.45	19.614
439.81	20.904
440.16	20.897
440.51	21.529
440.86	20.590
441.22	20.343
441.57	20.737
441.92	20.972
442.27	21.212
442.63	21.084
442.98	19.921
443.33	20.538
443.68	20.896
444.03	20.481
444.39	19.873
444.74	20.154
445.09	20.943
445.44	20.540
445.79	20.602
446.15	21.742
446.50	20.631
446.85	21.036
447.20	20.225
447.55	20.994
447.91	21.056
448.26	20.894
448.61	20.939
448.96	21.232
449.31	19.729
449.66	20.836
450.02	21.108
450.37	20.928
450.72	20.678
451.07	21.496
451.42	21.375
451.77	21.305
452.12	21.335
452.47	21.411
452.83	21.374
453.18	20.810
453.53	21.206
453.88	21.830
454.23	20.738
454.58	21.877
454.93	21.411
455.28	20.969
455.63	21.499
455.98	22.048
456.34	20.966
456.69	21.639
457.04	21.389
457.39	21.112
457.74	21.677
458.09	21.984
458.44	22.055
458.79	21.973
459.14	21.677
459.49	21.966
459.84	21.698
460.19	21.420
460.54	21.295
460.89	21.076
461.24	21.494
461.59	21.923
461.94	22.661
462.29	21.977
462.64	21.080
462.99	22.624
463.34	21.337
463.69	21.501
464.04	20.680
464.39	21.804
464.74	21.986
465.09	21.167
465.44	22.109
465.79	22.222
466.14	21.634
466.49	21.762
466.84	21.609
467.19	22.382
467.54	20.443
467.89	21.332
468.24	20.843
468.59	21.674
468.94	21.286
469.29	20.533
469.64	21.429
469.99	22.755
470.34	22.846
470.68	21.366
471.03	22.299
471.38	21.458
471.73	21.958
472.08	22.289
472.43	22.394
472.78	22.333
473.13	20.875
473.48	22.144
473.83	21.836
474.17	22.994
474.52	22.187
474.87	22.028
475.22	21.711
475.57	22.167
475.92	22.462
476.27	22.229
476.61	22.141
476.96	22.247
477.31	21.851
477.66	23.630
478.01	22.798
478.36	22.839
478.70	23.011
479.05	22.336
479.40	21.813
479.75	21.814
480.10	22.272
480.45	22.195
480.79	22.952
481.14	22.378
481.49	22.798
481.84	22.931
482.19	22.796
482.53	22.680
482.88	21.927
483.23	22.300
483.58	23.451
483.92	23.029
484.27	21.976
484.62	22.073
484.97	22.564
485.31	21.568
485.66	21.275
486.01	21.544
486.36	22.409
486.70	23.131
487.05	21.917
487.40	22.115
487.75	22.319
488.09	22.143
488.44	22.327
488.79	22.533
489.13	22.214
489.48	22.064
489.83	22.445
490.17	22.725
490.52	22.826
490.87	22.540
491.22	22.419
491.56	22.361
491.91	23.378
492.26	22.028
492.60	22.835
492.95	22.608
493.30	22.535
493.64	22.567
493.99	22.562
494.34	22.905
494.68	22.612
495.03	22.419
495.37	22.419
495.72	22.888
496.07	22.712
496.41	22.696
496.76	23.105
497.11	22.751
497.45	23.180
497.80	22.961
498.14	22.986
498.49	23.004
498.84	22.427
499.18	22.953
499.53	23.137
499.87	22.587
500.22	23.676
500.56	22.661
500.91	23.005
501.26	23.872
501.60	22.725
501.95	23.768
502.29	22.721
502.64	23.244
502.98	22.568
503.33	23.308
503.67	22.989
504.02	22.356
504.36	24.363
504.71	22.948
505.06	22.516
505.40	23.453
505.75	24.035
506.09	23.559
506.44	23.609
506.78	22.880
507.13	23.223
507.47	23.266
507.82	23.800
508.16	24.093
508.51	23.442
508.85	23.240
509.19	23.496
509.54	23.309
509.88	23.830
510.23	23.847
510.57	23.280
510.92	24.544
511.26	23.392
511.61	23.974
511.95	23.653
512.30	23.694
512.64	23.984
512.98	24.202
513.33	24.547
513.67	23.953
514.02	22.931
514.36	24.044
514.70	24.052
515.05	24.700
515.39	24.221
515.74	24.491
516.08	24.496
516.42	24.703
516.77	24.841
517.11	24.657
517.46	24.522
517.80	24.489
518.14	23.792
518.49	24.447
518.83	25.045
519.17	25.340
519.52	23.597
519.86	24.671
520.20	24.083
520.55	24.185
520.89	24.734
521.23	24.908
521.58	24.451
521.92	24.699
522.26	24.063
522.61	25.539
522.95	24.314
523.29	25.580
523.64	24.297
523.98	24.634
524.32	24.827
524.66	24.224
525.01	24.534
525.35	25.322
525.69	25.244
526.04	24.674
526.38	25.016
526.72	23.883
527.06	25.846
527.41	25.479
527.75	24.686
528.09	25.414
528.43	24.984
528.78	24.874
529.12	26.056
529.46	24.162
529.80	24.855
530.15	25.370
530.49	25.614
530.83	26.588
531.17	25.320
531.51	24.916
531.86	25.543
532.20	25.439
532.54	25.602
532.88	24.901
533.22	25.334
533.57	25.326
533.91	24.657
534.25	24.953
534.59	24.235
534.93	24.704
535.27	25.173
535.62	25.575
535.96	25.275
536.30	24.215
536.64	25.764
536.98	25.777
537.32	24.326
537.66	24.440
538.01	25.292
538.35	25.541
538.69	24.131
539.03	25.999
539.37	24.617
539.71	25.417
540.05	25.291
540.39	24.931
540.73	24.810
541.07	25.410
541.42	24.713
541.76	24.983
542.10	25.658
542.44	24.983
542.78	25.984
543.12	24.576
543.46	25.137
543.80	24.415
544.14	24.849
544.48	23.819
544.82	24.899
545.16	25.486
545.50	24.293
545.84	24.965
546.18	25.936
546.52	24.822
546.86	24.501
547.20	24.895
547.54	24.518
547.88	25.282
548.22	23.198
548.56	24.115
548.90	25.067
549.24	25.158
549.58	24.912
549.92	25.724
550.26	26.373
550.60	25.107
550.94	25.328
551.28	25.132
551.62	25.111
551.96	24.747
552.30	24.878
552.64	25.475
552.98	25.298
553.32	25.613
553.66	25.379
554.00	24.733
554.34	24.693
554.68	24.708
555.02	25.470
555.36	24.443
555.69	25.143
556.03	25.333
556.37	24.395
556.71	25.125
557.05	25.277
557.39	24.647
557.73	26.039
558.07	26.149
558.41	24.682
558.75	24.639
559.08	23.268
559.42	25.881
559.76	25.383
560.10	25.503
560.44	25.578
560.78	24.148
561.12	25.121
561.45	24.247
561.79	24.599
562.13	24.614
562.47	24.860
562.81	25.743
563.15	25.192
563.48	24.879
563.82	24.679
564.16	24.746
564.50	25.269
564.84	25.198
565.17	24.536
565.51	24.707
565.85	25.558
566.19	25.165
566.52	25.506
566.86	24.842
567.20	26.150
567.54	25.162
567.88	24.065
568.21	24.664
568.55	24.549
568.89	24.304
569.23	24.387
569.56	23.665
569.90	23.958
570.24	24.690
570.57	23.480
570.91	23.427
571.25	23.768
571.59	24.508
571.92	24.435
572.26	24.266
572.60	24.046
572.93	23.258
573.27	23.537
573.61	23.143
573.95	24.109
574.28	23.433
574.62	23.920
574.96	22.906
575.29	23.653
575.63	23.520
575.97	22.816
576.30	23.294
576.64	23.760
576.98	23.538
577.31	23.123
577.65	23.194
577.98	23.936
578.32	23.342
578.66	23.369
578.99	23.382
579.33	23.411
579.67	23.003
580.00	23.289
580.34	23.630
580.67	23.805
581.01	23.126
581.35	23.669
581.68	23.206
582.02	23.536
582.35	23.456
582.69	23.787
583.02	23.607
583.36	22.974
583.70	23.682
584.03	23.572
584.37	23.166
584.70	23.606
585.04	23.443
585.37	23.079
585.71	23.319
586.04	23.683
586.38	23.283
586.72	23.534
587.05	23.563
587.39	22.917
587.72	23.786
588.06	23.714
588.39	23.754
588.73	24.291
589.06	24.457
589.40	24.734
589.73	24.186
590.07	23.744
590.40	24.280
590.73	23.830
591.07	23.566
591.40	24.133
591.74	23.936
592.07	23.874
592.41	24.289
592.74	24.366
593.08	23.824
593.41	23.520
593.75	22.981
594.08	23.724
594.41	23.586
594.75	24.462
595.08	23.195
595.42	23.916
595.75	24.072
596.09	24.098
596.42	24.550
596.75	24.321
597.09	24.933
597.42	23.701
597.75	23.826
598.09	24.311
598.42	23.730
598.76	24.128
599.09	23.481
599.42	23.068
599.76	23.820
600.09	23.931
600.42	23.889
600.76	23.766
601.09	24.725
601.42	23.744
601.76	24.338
602.09	23.517
602.42	23.827
602.76	22.933
603.09	24.113
603.42	23.691
603.76	23.694
604.09	23.588
604.42	24.230
604.76	23.027
605.09	24.412
605.42	23.892
605.75	23.458
606.09	23.537
606.42	23.837
606.75	23.701
607.09	24.041
607.42	24.252
607.75	23.532
608.08	24.130
608.42	24.125
608.75	23.505
609.08	24.452
609.41	23.717
609.75	23.062
610.08	24.020
610.41	23.952
610.74	24.710
611.07	24.544
611.41	23.348
611.74	25.244
612.07	24.275
612.40	23.614
612.73	24.556
613.07	24.216
613.40	24.904
613.73	24.142
614.06	23.558
614.39	24.352
614.72	23.296
615.06	24.076
615.39	24.145
615.72	23.683
616.05	23.854
616.38	24.434
616.71	24.084
617.05	24.849
617.38	24.520
617.71	24.447
618.04	23.975
618.37	25.031
618.70	24.902
619.03	24.983
619.36	24.806
619.69	25.269
620.03	24.105
620.36	24.543
620.69	24.910
621.02	24.505
621.35	24.516
621.68	25.000
622.01	23.867
622.34	25.932
622.67	25.703
623.00	24.637
623.33	24.254
623.66	23.708
623.99	24.962
624.32	24.628
624.65	24.503
624.99	24.347
625.32	24.102
625.65	23.932
625.98	25.274
626.31	25.449
626.64	25.021
626.97	24.914
627.30	25.106
627.63	23.575
627.96	24.717
628.29	24.540
628.62	25.310
628.95	25.591
629.28	25.000
629.61	24.436
629.94	25.236
630.26	25.447
630.59	26.432
630.92	23.624
631.25	27.218
631.58	24.550
631.91	24.362
632.24	25.000
632.57	24.000
632.90	25.287
633.23	24.766
633.56	24.444
633.89	25.472
634.22	24.793
