SpectraSuite Data File
++++++++++++++++++++++++++++++++++++
Date: Sat May 16 11:47:24 PDT 2015
User: schluterlab
Dark Spectrum Present: Yes
Reference Spectrum Present: Yes
Number of Sampled Component Spectra: 1
Spectrometers: USB2E3373
Integration Time (usec): 3000 (USB2E3373)
Spectra Averaged: 3 (USB2E3373)
Boxcar Smoothing: 0 (USB2E3373)
Correct for Electrical Dark: No (USB2E3373)
Strobe/Lamp Enabled: No (USB2E3373)
Correct for Detector Non-linearity: No (USB2E3373)
Correct for Stray Light: No (USB2E3373)
Number of Pixels in Processed Spectrum: 2048
>>>>>Begin Processed Spectral Data<<<<<
178.53	0.000
178.91	86.667
179.29	466.667
179.67	-500.000
180.04	-107.692
180.42	1100.000
180.80	250.000
181.18	450.000
181.56	-25.000
181.94	1100.000
182.31	500.000
182.69	-46.154
183.07	-400.000
183.45	1100.000
183.83	633.333
184.20	-200.000
184.58	-162.500
184.96	-500.000
185.34	137.500
185.72	-425.000
186.09	250.000
186.47	-125.000
186.85	-62.500
187.23	-150.000
187.61	-50.000
187.98	-175.000
188.36	-162.500
188.74	0.000
189.12	900.000
189.49	342.857
189.87	0.000
190.25	425.000
190.63	-71.429
191.00	-133.333
191.38	460.000
191.76	-26.667
192.14	460.000
192.51	-200.000
192.89	-466.667
193.27	0.000
193.65	-144.444
194.02	-157.143
194.40	533.333
194.78	-140.000
195.15	-800.000
195.53	-145.455
195.91	-383.333
196.29	440.000
196.66	-333.333
197.04	2000.000
197.42	-125.000
197.79	-40.000
198.17	-400.000
198.55	-700.000
198.92	-300.000
199.30	175.000
199.68	-800.000
200.05	-122.222
200.43	-211.111
200.81	-2200.000
201.18	-116.667
201.56	242.857
201.94	-13.333
202.31	9.091
202.69	0.000
203.07	-180.000
203.44	500.000
203.82	-350.000
204.19	-275.000
204.57	-275.000
204.95	-1600.000
205.32	-37.500
205.70	1200.000
206.08	-3000.000
206.45	-44.444
206.83	-900.000
207.20	-600.000
207.58	-700.000
207.96	-666.667
208.33	-125.000
208.71	-200.000
209.08	250.000
209.46	-214.286
209.84	550.000
210.21	0.000
210.59	-10.000
210.96	1800.000
211.34	-250.000
211.71	-366.667
212.09	300.000
212.46	600.000
212.84	-1400.000
213.22	333.333
213.59	125.000
213.97	33.333
214.34	250.000
214.72	-100.000
215.09	-633.333
215.47	-300.000
215.84	-90.000
216.22	-140.000
216.59	40.000
216.97	-475.000
217.34	950.000
217.72	-157.143
218.09	-250.000
218.47	-300.000
218.84	285.714
219.22	-157.143
219.59	0.000
219.97	171.429
220.34	500.000
220.72	125.000
221.09	-23.077
221.47	0.000
221.84	400.000
222.22	-700.000
222.59	2000.000
222.97	-187.500
223.34	-50.000
223.72	-400.000
224.09	-28.571
224.46	-375.000
224.84	-64.286
225.21	-200.000
225.59	-45.455
225.96	-225.000
226.34	-285.714
226.71	-122.222
227.08	-40.000
227.46	2200.000
227.83	-200.000
228.21	-237.500
228.58	250.000
228.95	-131.250
229.33	-700.000
229.70	-200.000
230.08	-1300.000
230.45	-41.667
230.82	-66.667
231.20	-800.000
231.57	-750.000
231.95	1200.000
232.32	-28.571
232.69	-144.444
233.07	-157.143
233.44	-1300.000
233.81	-73.333
234.19	-111.111
234.56	-62.500
234.93	28.125
235.31	-242.857
235.68	-142.857
236.05	-100.000
236.43	-109.091
236.80	-25.806
237.17	-50.000
237.55	-33.333
237.92	-77.273
238.29	-57.143
238.67	-20.588
239.04	-41.667
239.41	-29.032
239.79	-56.410
240.16	-42.857
240.53	-7.273
240.91	-15.385
241.28	-9.091
241.65	-3.077
242.02	-13.115
242.40	-22.951
242.77	-18.182
243.14	-30.508
243.51	-18.571
243.89	-22.785
244.26	-1.124
244.63	-15.789
245.00	-5.263
245.38	-10.169
245.75	-6.195
246.12	-0.800
246.49	-7.874
246.87	-10.569
247.24	-20.339
247.61	-11.864
247.98	-4.930
248.36	-17.483
248.73	-1.899
249.10	-11.465
249.47	-2.339
249.84	1.136
250.22	-11.310
250.59	-4.520
250.96	-3.141
251.33	1.896
251.70	-3.846
252.08	-0.474
252.45	-2.844
252.82	-8.095
253.19	-2.979
253.56	-7.661
253.94	-4.219
254.31	-6.009
254.68	-0.407
255.05	-7.661
255.42	-0.397
255.79	-4.659
256.16	-5.490
256.54	-2.574
256.91	-6.061
257.28	-10.623
257.65	-3.546
258.02	0.000
258.39	-4.348
258.76	-4.730
259.14	-2.778
259.51	-1.967
259.88	-2.134
260.25	0.311
260.62	-1.929
260.99	-2.671
261.36	-1.524
261.73	-3.468
262.10	1.111
262.47	-3.419
262.85	2.286
263.22	-3.152
263.59	-6.154
263.96	-3.768
264.33	-0.813
264.70	0.000
265.07	-2.198
265.44	-2.326
265.81	-1.809
266.18	-1.772
266.55	0.490
266.92	-0.504
267.29	0.000
267.66	-1.975
268.03	-0.242
268.40	-0.469
268.77	-2.410
269.14	-2.088
269.51	0.690
269.88	-2.982
270.25	-3.263
270.62	-2.288
270.99	-0.225
271.36	-1.865
271.73	-4.933
272.10	-0.229
272.47	-1.333
272.84	2.889
273.21	-0.917
273.58	-0.220
273.95	-0.877
274.32	-3.620
274.69	-0.656
275.06	-0.409
275.43	-1.339
275.80	-0.204
276.17	-2.510
276.54	0.000
276.91	-1.852
277.28	0.203
277.65	-3.099
278.02	-1.670
278.39	0.786
278.76	-1.394
279.13	-0.198
279.50	-1.193
279.87	-2.114
280.23	-0.202
280.60	0.398
280.97	-1.359
281.34	0.000
281.71	-0.577
282.08	0.000
282.45	-3.666
282.82	-1.163
283.19	-2.909
283.56	1.832
283.92	-0.353
284.29	-2.416
284.66	-1.259
285.03	1.426
285.40	0.369
285.77	0.526
286.14	-2.527
286.51	-0.533
286.87	-2.178
287.24	0.853
287.61	-0.496
287.98	-1.733
288.35	-1.488
288.72	-1.698
289.08	-1.186
289.45	-1.010
289.82	-1.557
290.19	1.806
290.56	-1.488
290.93	-1.272
291.29	-0.810
291.66	-0.966
292.03	0.471
292.40	0.301
292.77	-2.019
293.13	-1.951
293.50	0.446
293.87	0.000
294.24	1.357
294.60	-1.364
294.97	1.366
295.34	-0.296
295.71	-0.744
296.08	-1.997
296.44	-1.431
296.81	-0.285
297.18	-0.845
297.55	-0.989
297.91	0.837
298.28	-2.466
298.65	-1.255
299.02	0.535
299.38	-1.604
299.75	-0.815
300.12	-0.641
300.48	-0.895
300.85	-0.786
301.22	-0.259
301.59	0.000
301.95	1.385
302.32	-0.522
302.69	0.245
303.05	-0.122
303.42	-0.625
303.79	-0.478
304.15	-1.540
304.52	1.400
304.89	-0.826
305.25	-0.366
305.62	-0.823
305.99	0.353
306.35	0.333
306.72	0.000
307.09	0.681
307.45	-0.227
307.82	-0.447
308.19	-0.224
308.55	-1.743
308.92	-0.859
309.29	-0.541
309.65	0.318
310.02	0.216
310.38	-1.730
310.75	-1.025
311.12	0.620
311.48	0.522
311.85	0.824
312.22	0.824
312.58	-0.305
312.95	-0.510
313.31	0.999
313.68	0.503
314.05	1.682
314.41	0.503
314.78	-0.899
315.14	0.197
315.51	-0.507
315.87	-0.097
316.24	0.680
316.61	0.864
316.97	0.597
317.34	0.096
317.70	0.371
318.07	0.187
318.43	0.375
318.80	0.282
319.16	-1.032
319.53	0.658
319.89	-0.094
320.26	-0.098
320.62	-0.577
320.99	-0.100
321.35	-1.576
321.72	-0.716
322.08	-0.198
322.45	-0.990
322.81	-0.961
323.18	-0.961
323.54	-0.647
323.91	-0.093
324.27	-0.665
324.64	-0.548
325.00	0.785
325.37	-1.357
325.73	1.837
326.10	-1.151
326.46	-0.788
326.83	-0.170
327.19	-0.500
327.56	0.256
327.92	-0.510
328.29	0.693
328.65	-1.273
329.01	0.353
329.38	-0.624
329.74	0.458
330.11	-1.088
330.47	-0.545
330.84	0.550
331.20	0.000
331.56	1.003
331.93	-0.977
332.29	0.639
332.66	0.439
333.02	-0.090
333.38	0.358
333.75	-0.267
334.11	-0.711
334.48	-0.706
334.84	1.487
335.20	-0.266
335.57	-0.090
335.93	0.627
336.29	-0.443
336.66	-1.233
337.02	-0.270
337.38	-0.267
337.75	0.439
338.11	-0.716
338.47	0.178
338.84	-0.544
339.20	0.264
339.56	0.446
339.93	-0.265
340.29	-0.797
340.65	-0.087
341.02	0.084
341.38	0.505
341.74	0.085
342.11	-0.597
342.47	-0.343
342.83	-0.252
343.20	-0.171
343.56	-0.898
343.92	0.584
344.28	-0.336
344.65	0.165
345.01	-0.588
345.37	-0.332
345.73	-1.146
346.10	-0.572
346.46	-0.244
346.82	-0.561
347.19	-1.150
347.55	-0.803
347.91	-0.315
348.27	-1.352
348.63	0.646
349.00	0.955
349.36	-0.937
349.72	0.478
350.08	-0.241
350.45	-0.867
350.81	0.478
351.17	-0.241
351.53	-0.477
351.89	-0.162
352.26	0.310
352.62	0.998
352.98	0.791
353.34	0.400
353.70	-0.695
354.07	-0.236
354.43	0.237
354.79	-0.792
355.15	-0.479
355.51	-0.391
355.87	-0.791
356.24	-0.874
356.60	0.725
356.96	0.847
357.32	-0.554
357.68	0.000
358.04	0.231
358.40	0.232
358.77	-0.232
359.13	0.000
359.49	-0.076
359.85	-0.457
360.21	-0.457
360.57	0.000
360.93	0.296
361.29	-0.673
361.66	-1.143
362.02	-0.814
362.38	-0.073
362.74	-0.440
363.10	1.076
363.46	0.783
363.82	-0.292
364.18	0.072
364.54	0.071
364.90	-0.419
365.26	0.000
365.62	0.641
365.98	0.213
366.35	-0.141
366.71	-0.846
367.07	-0.212
367.43	0.618
367.79	-0.481
368.15	-0.853
368.51	0.769
368.87	0.687
369.23	0.702
369.59	0.139
369.95	0.423
370.31	0.703
370.67	-0.651
371.03	0.073
371.39	-0.566
371.75	-0.358
372.11	0.359
372.47	-0.651
372.83	0.000
373.19	-0.143
373.55	0.141
373.91	-0.356
374.27	0.205
374.63	-0.276
374.99	-0.139
375.35	0.404
375.71	1.148
376.07	-0.479
376.42	-0.993
376.78	0.196
377.14	-0.881
377.50	0.387
377.86	0.065
378.22	0.188
378.58	-0.247
378.94	-0.123
379.30	0.427
379.66	1.093
380.02	-0.238
380.38	0.121
380.74	0.059
381.09	0.996
381.45	0.239
381.81	-0.484
382.17	0.439
382.53	-0.608
382.89	0.718
383.25	0.722
383.61	0.590
383.97	0.367
384.32	-0.125
384.68	0.242
385.04	0.000
385.40	0.548
385.76	-0.366
386.12	-0.062
386.48	0.619
386.83	0.245
387.19	0.299
387.55	0.061
387.91	0.119
388.27	-0.483
388.62	-0.120
388.98	0.182
389.34	0.061
389.70	-0.061
390.06	0.497
390.42	0.192
390.77	-0.442
391.13	0.745
391.49	0.374
391.85	0.312
392.20	-0.182
392.56	-0.367
392.92	0.114
393.28	0.746
393.64	-0.180
393.99	0.369
394.35	0.061
394.71	0.494
395.07	0.502
395.42	-0.238
395.78	-0.817
396.14	0.623
396.50	-0.122
396.85	0.494
397.21	0.668
397.57	0.486
397.92	0.234
398.28	0.278
398.64	0.297
399.00	0.225
399.35	0.507
399.71	1.394
400.07	0.119
400.42	0.791
400.78	0.239
401.14	0.898
401.49	-0.118
401.85	0.183
402.21	0.000
402.57	0.971
402.92	0.063
403.28	0.368
403.63	-0.120
403.99	-0.186
404.35	-0.060
404.70	0.527
405.06	0.519
405.42	-0.308
405.77	0.283
406.13	0.795
406.49	0.180
406.84	-0.420
407.20	0.766
407.55	0.190
407.91	-0.648
408.27	1.042
408.62	0.180
408.98	1.031
409.34	0.183
409.69	0.441
410.05	0.121
410.40	0.061
410.76	0.593
411.11	0.312
411.47	0.512
411.83	0.917
412.18	-0.309
412.54	-0.183
412.89	0.365
413.25	-0.118
413.60	-0.425
413.96	-1.109
414.31	0.122
414.67	-0.190
415.03	0.000
415.38	0.130
415.74	0.644
416.09	0.064
416.45	-0.926
416.80	0.845
417.16	-0.399
417.51	0.525
417.87	-0.583
418.22	-0.253
418.58	0.642
418.93	0.613
419.29	0.502
419.64	-0.628
420.00	1.154
420.35	-0.177
420.71	-0.060
421.06	0.710
421.42	-0.527
421.77	1.005
422.12	-0.336
422.48	0.321
422.83	0.854
423.19	0.278
423.54	0.173
423.90	-0.058
424.25	0.339
424.61	0.422
424.96	0.527
425.31	0.335
425.67	0.172
426.02	0.000
426.38	0.423
426.73	0.292
427.09	-0.061
427.44	0.739
427.79	0.581
428.15	0.778
428.50	0.704
428.85	-0.060
429.21	-0.332
429.56	0.052
429.92	1.002
430.27	0.399
430.62	0.261
430.98	0.941
431.33	-0.053
431.68	0.268
432.04	0.560
432.39	0.855
432.74	-0.360
433.10	0.563
433.45	0.173
433.80	0.616
434.16	0.591
434.51	0.219
434.86	1.347
435.22	0.780
435.57	-0.122
435.92	0.469
436.28	0.356
436.63	0.057
436.98	-0.057
437.34	0.650
437.69	0.350
438.04	-0.057
438.39	0.542
438.75	0.116
439.10	0.555
439.45	-0.422
439.81	-0.181
440.16	0.625
440.51	0.294
440.86	-0.058
441.22	-0.221
441.57	0.684
441.92	0.256
442.27	0.379
442.63	0.161
442.98	-0.508
443.33	-0.055
443.68	-0.104
444.03	0.147
444.39	0.587
444.74	0.165
445.09	-0.274
445.44	0.619
445.79	0.000
446.15	0.712
446.50	-0.708
446.85	0.103
447.20	0.204
447.55	0.331
447.91	0.505
448.26	0.726
448.61	-0.113
448.96	0.392
449.31	0.282
449.66	0.057
450.02	0.000
450.37	-0.406
450.72	0.395
451.07	-0.377
451.42	-0.186
451.77	0.419
452.12	0.417
452.47	0.567
452.83	0.582
453.18	0.633
453.53	-0.373
453.88	0.837
454.23	0.060
454.58	0.622
454.93	0.630
455.28	-0.319
455.63	1.106
455.98	0.542
456.34	0.445
456.69	0.563
457.04	0.553
457.39	-0.179
457.74	0.059
458.09	0.116
458.44	0.693
458.79	-0.280
459.14	1.084
459.49	0.651
459.84	0.675
460.19	0.418
460.54	0.060
460.89	-0.336
461.24	0.546
461.59	0.469
461.94	-0.191
462.29	0.774
462.64	0.856
462.99	0.736
463.34	0.135
463.69	0.445
464.04	0.527
464.39	0.119
464.74	0.414
465.09	-0.301
465.44	0.677
465.79	0.790
466.14	0.115
466.49	0.115
466.84	1.200
467.19	0.686
467.54	-0.127
467.89	0.617
468.24	0.653
468.59	0.375
468.94	0.257
469.29	0.130
469.64	0.539
469.99	0.878
470.34	0.334
470.68	0.509
471.03	0.964
471.38	-0.833
471.73	-0.070
472.08	-0.134
472.43	-0.257
472.78	0.133
473.13	-0.265
473.48	0.319
473.83	-0.124
474.17	0.064
474.52	1.023
474.87	0.932
475.22	0.531
475.57	0.222
475.92	0.378
476.27	0.743
476.61	0.113
476.96	-0.112
477.31	0.377
477.66	-0.166
478.01	0.918
478.36	0.838
478.70	0.053
479.05	0.649
479.40	0.570
479.75	0.968
480.10	0.546
480.45	0.484
480.79	0.099
481.14	0.702
481.49	0.387
481.84	0.832
482.19	0.640
482.53	0.473
482.88	0.664
483.23	0.376
483.58	0.694
483.92	0.382
484.27	0.310
484.62	0.389
484.97	0.273
485.31	0.320
485.66	0.963
486.01	0.754
486.36	1.059
486.70	0.965
487.05	0.827
487.40	0.855
487.75	0.983
488.09	0.216
488.44	1.015
488.79	1.556
489.13	0.533
489.48	0.979
489.83	0.568
490.17	0.653
490.52	0.996
490.87	0.185
491.22	0.374
491.56	0.417
491.91	0.716
492.26	0.330
492.60	-0.190
492.95	0.714
493.30	1.334
493.64	0.235
493.99	0.287
494.34	0.857
494.68	1.077
495.03	0.478
495.37	-0.393
495.72	0.589
496.07	1.032
496.41	1.436
496.76	0.137
497.11	0.424
497.45	0.192
497.80	-0.150
498.14	1.424
498.49	-0.151
498.84	0.825
499.18	1.462
499.53	0.633
499.87	-0.483
500.22	0.245
500.56	0.500
500.91	0.148
501.26	1.019
501.60	0.193
501.95	0.773
502.29	0.472
502.64	1.179
502.98	0.240
503.33	1.222
503.67	0.431
504.02	0.338
504.36	0.931
504.71	0.253
505.06	-0.050
505.40	0.699
505.75	0.356
506.09	0.404
506.44	0.100
506.78	0.853
507.13	-0.257
507.47	0.626
507.82	0.723
508.16	0.881
508.51	0.103
508.85	0.776
509.19	-0.366
509.54	0.740
509.88	0.957
510.23	0.262
510.57	1.111
510.92	0.644
511.26	0.904
511.61	0.432
511.95	1.239
512.30	-0.110
512.64	0.000
512.98	0.935
513.33	1.098
513.67	0.838
514.02	0.503
514.36	0.554
514.70	0.340
515.05	1.201
515.39	0.000
515.74	1.163
516.08	0.980
516.42	0.963
516.77	0.982
517.11	0.286
517.46	0.299
517.80	0.542
518.14	-0.664
518.49	-0.120
518.83	0.475
519.17	1.480
519.52	0.578
519.86	0.358
520.20	0.306
520.55	0.615
520.89	-0.501
521.23	1.160
521.58	0.502
521.92	0.633
522.26	0.889
522.61	0.127
522.95	0.511
523.29	0.063
523.64	0.625
523.98	-0.064
524.32	0.754
524.66	-0.062
525.01	0.064
525.35	1.031
525.69	-0.130
526.04	0.522
526.38	0.827
526.72	0.766
527.06	0.846
527.41	0.924
527.75	-0.462
528.09	0.596
528.43	0.852
528.78	0.879
529.12	0.704
529.46	0.258
529.80	0.258
530.15	1.030
530.49	0.841
530.83	1.375
531.17	0.135
531.51	-0.268
531.86	1.448
532.20	0.540
532.54	1.003
532.88	0.132
533.22	0.134
533.57	0.392
533.91	0.000
534.25	0.314
534.59	0.500
534.93	0.373
535.27	-0.063
535.62	1.023
535.96	0.452
536.30	-0.262
536.64	0.996
536.98	-0.071
537.32	0.138
537.66	0.475
538.01	-0.137
538.35	1.216
538.69	0.334
539.03	0.745
539.37	0.399
539.71	1.201
540.05	0.617
540.39	0.485
540.73	-0.138
541.07	0.410
541.42	0.473
541.76	0.066
542.10	0.878
542.44	1.066
542.78	1.764
543.12	0.679
543.46	0.479
543.80	0.669
544.14	-0.067
544.48	1.115
544.82	0.474
545.16	1.073
545.50	-0.740
545.84	0.556
546.18	0.624
546.52	0.640
546.86	0.926
547.20	1.125
547.54	-0.069
547.88	1.261
548.22	0.131
548.56	0.401
548.90	0.876
549.24	0.140
549.58	0.847
549.92	0.565
550.26	1.012
550.60	1.422
550.94	0.511
551.28	0.150
551.62	0.295
551.96	1.085
552.30	0.279
552.64	-0.774
552.98	0.981
553.32	0.361
553.66	1.226
554.00	0.711
554.34	-0.433
554.68	0.219
555.02	0.724
555.36	-0.288
555.69	0.358
556.03	0.772
556.37	0.498
556.71	1.074
557.05	-0.074
557.39	-0.520
557.73	1.751
558.07	0.603
558.41	0.374
558.75	1.293
559.08	-0.545
559.42	0.383
559.76	1.074
560.10	0.820
560.44	1.228
560.78	0.487
561.12	0.138
561.45	1.164
561.79	-0.279
562.13	0.140
562.47	0.210
562.81	0.283
563.15	0.770
563.48	0.691
563.82	0.609
564.16	0.068
564.50	0.470
564.84	1.852
565.17	1.061
565.51	0.978
565.85	0.203
566.19	0.527
566.52	0.718
566.86	0.695
567.20	1.271
567.54	0.827
567.88	0.391
568.21	0.559
568.55	1.060
568.89	0.000
569.23	0.278
569.56	0.673
569.90	1.141
570.24	1.052
570.57	1.090
570.91	1.054
571.25	1.329
571.59	1.124
571.92	1.280
572.26	1.258
572.60	1.706
572.93	1.208
573.27	1.037
573.61	0.803
573.95	1.570
574.28	0.829
574.62	1.195
574.96	1.171
575.29	1.194
575.63	1.354
575.97	0.890
576.30	1.507
576.64	1.410
576.98	1.219
577.31	1.240
577.65	1.208
577.98	1.432
578.32	0.947
578.66	1.260
578.99	1.003
579.33	1.331
579.67	1.091
580.00	1.116
580.34	0.930
580.67	1.324
581.01	1.188
581.35	1.452
581.68	1.202
582.02	1.524
582.35	1.228
582.69	1.107
583.02	1.503
583.36	1.168
583.70	1.101
584.03	1.374
584.37	1.245
584.70	1.137
585.04	1.519
585.37	1.217
585.71	1.355
586.04	1.292
586.38	1.069
586.72	1.437
587.05	1.473
587.39	1.120
587.72	1.380
588.06	1.320
588.39	1.025
588.73	1.418
589.06	1.630
589.40	1.443
589.73	1.416
590.07	0.947
590.40	2.103
590.73	0.640
591.07	1.393
591.40	1.083
591.74	1.651
592.07	1.036
592.41	1.104
592.74	1.653
593.08	1.648
593.41	0.987
593.75	0.462
594.08	1.258
594.41	1.774
594.75	1.359
595.08	1.090
595.42	1.301
595.75	0.772
596.09	0.737
596.42	1.555
596.75	0.733
597.09	1.514
597.42	1.091
597.75	1.373
598.09	1.039
598.42	1.370
598.76	0.914
599.09	1.144
599.42	0.923
599.76	1.510
600.09	1.450
600.42	1.557
600.76	1.243
601.09	1.253
601.42	0.633
601.76	1.869
602.09	1.186
602.42	1.276
602.76	0.706
603.09	1.008
603.42	1.612
603.76	1.356
604.09	1.201
604.42	0.791
604.76	1.265
605.09	0.904
605.42	1.862
605.75	1.337
606.09	1.121
606.42	1.341
606.75	1.116
607.09	1.456
607.42	0.792
607.75	1.501
608.08	1.627
608.42	0.899
608.75	0.701
609.08	1.169
609.41	0.698
609.75	0.975
610.08	0.833
610.41	0.964
610.74	1.451
611.07	1.116
611.41	0.454
611.74	1.542
612.07	1.289
612.40	1.173
612.73	0.969
613.07	1.266
613.40	1.040
613.73	0.654
614.06	1.098
614.39	0.733
614.72	0.782
615.06	0.924
615.39	1.031
615.72	1.086
616.05	0.552
616.38	1.567
616.71	1.201
617.05	0.844
617.38	0.929
617.71	0.430
618.04	0.745
618.37	0.000
618.70	1.630
619.03	0.880
619.36	1.339
619.69	2.010
620.03	1.309
620.36	0.141
620.69	0.215
621.02	1.446
621.35	0.806
621.68	0.000
622.01	0.243
622.34	1.320
622.67	-0.547
623.00	1.683
623.33	1.343
623.66	0.591
623.99	1.128
624.32	0.074
624.65	1.325
624.99	0.672
625.32	0.449
625.65	0.855
625.98	0.548
626.31	0.571
626.64	0.837
626.97	0.599
627.30	0.511
627.63	-0.345
627.96	0.261
628.29	0.643
628.62	-0.573
628.95	0.689
629.28	1.034
629.61	-0.294
629.94	1.418
630.26	1.193
630.59	0.000
630.92	-0.400
631.25	1.714
631.58	1.164
631.91	-1.702
632.24	-0.778
632.57	1.111
632.90	0.345
633.23	0.350
633.56	-1.053
633.89	-0.236
634.22	0.945
634.55	1.322
634.88	0.484
635.20	-1.248
635.53	-1.272
635.86	-1.889
636.19	0.366
636.52	-0.478
636.85	-1.203
637.18	-1.625
637.51	0.124
637.83	-0.932
638.16	-0.263
638.49	-3.172
638.82	-0.386
639.15	0.778
639.48	-0.519
639.81	0.277
640.13	-0.270
640.46	-0.570
640.79	1.261
641.12	1.128
641.45	-0.287
641.77	-1.198
642.10	-0.604
642.43	-1.366
642.76	0.472
643.09	-0.952
643.41	0.159
643.74	-0.318
644.07	0.312
644.40	-0.810
644.73	-0.660
645.05	-1.836
645.38	-0.828
645.71	1.890
646.04	0.000
646.36	-2.443
646.69	1.038
647.02	-0.181
647.35	0.722
647.67	-0.365
