SpectraSuite Data File
++++++++++++++++++++++++++++++++++++
Date: Sat May 16 11:36:10 PDT 2015
User: schluterlab
Dark Spectrum Present: Yes
Reference Spectrum Present: Yes
Number of Sampled Component Spectra: 1
Spectrometers: USB2E3373
Integration Time (usec): 3000 (USB2E3373)
Spectra Averaged: 3 (USB2E3373)
Boxcar Smoothing: 0 (USB2E3373)
Correct for Electrical Dark: No (USB2E3373)
Strobe/Lamp Enabled: No (USB2E3373)
Correct for Detector Non-linearity: No (USB2E3373)
Correct for Stray Light: No (USB2E3373)
Number of Pixels in Processed Spectrum: 2048
>>>>>Begin Processed Spectral Data<<<<<
178.53	0.000
178.91	180.000
179.29	366.667
179.67	-600.000
180.04	-92.308
180.42	1000.000
180.80	425.000
181.18	450.000
181.56	-75.000
181.94	900.000
182.31	475.000
182.69	-69.231
183.07	-700.000
183.45	1200.000
183.83	466.667
184.20	-242.857
184.58	-212.500
184.96	-475.000
185.34	143.750
185.72	-500.000
186.09	250.000
186.47	-212.500
186.85	-325.000
187.23	-62.500
187.61	-125.000
187.98	-337.500
188.36	-125.000
188.74	-137.500
189.12	1600.000
189.49	342.857
189.87	-83.333
190.25	100.000
190.63	-128.571
191.00	-211.111
191.38	260.000
191.76	13.333
192.14	560.000
192.51	-60.000
192.89	-333.333
193.27	0.000
193.65	-244.444
194.02	-342.857
194.40	566.667
194.78	-120.000
195.15	-600.000
195.53	-154.545
195.91	-433.333
196.29	80.000
196.66	-366.667
197.04	2100.000
197.42	25.000
197.79	6.667
198.17	-366.667
198.55	-800.000
198.92	-2000.000
199.30	350.000
199.68	-850.000
200.05	-77.778
200.43	-211.111
200.81	-1300.000
201.18	-200.000
201.56	157.143
201.94	-40.000
202.31	-4.545
202.69	-30.000
203.07	-90.000
203.44	700.000
203.82	-283.333
204.19	-475.000
204.57	-75.000
204.95	-2100.000
205.32	-62.500
205.70	700.000
206.08	-2600.000
206.45	-38.889
206.83	-1050.000
207.20	-700.000
207.58	-533.333
207.96	-733.333
208.33	-162.500
208.71	-111.111
209.08	160.000
209.46	-228.571
209.84	700.000
210.21	0.000
210.59	65.000
210.96	1500.000
211.34	-333.333
211.71	-400.000
212.09	225.000
212.46	1150.000
212.84	-2500.000
213.22	633.333
213.59	216.667
213.97	-88.889
214.34	150.000
214.72	-160.000
215.09	-366.667
215.47	-116.667
215.84	-90.000
216.22	-90.000
216.59	20.000
216.97	-350.000
217.34	950.000
217.72	-214.286
218.09	-216.667
218.47	-228.571
218.84	328.571
219.22	-200.000
219.59	0.000
219.97	314.286
220.34	600.000
220.72	250.000
221.09	0.000
221.47	0.000
221.84	466.667
222.22	-350.000
222.59	1600.000
222.97	-300.000
223.34	-1150.000
223.72	-400.000
224.09	-150.000
224.46	-350.000
224.84	-14.286
225.21	-85.714
225.59	-36.364
225.96	-37.500
226.34	-42.857
226.71	-88.889
227.08	-35.000
227.46	1500.000
227.83	-200.000
228.21	-300.000
228.58	600.000
228.95	-81.250
229.33	-1600.000
229.70	-60.000
230.08	-1000.000
230.45	33.333
230.82	-166.667
231.20	-800.000
231.57	-750.000
231.95	1600.000
232.32	9.524
232.69	-44.444
233.07	-242.857
233.44	-1100.000
233.81	-93.333
234.19	-155.556
234.56	18.750
234.93	6.250
235.31	-100.000
235.68	-14.286
236.05	-41.176
236.43	-31.818
236.80	22.581
237.17	41.667
237.55	-57.143
237.92	-100.000
238.29	-11.429
238.67	14.706
239.04	22.222
239.41	0.000
239.79	0.000
240.16	14.286
240.53	-9.091
240.91	43.590
241.28	16.364
241.65	38.462
242.02	21.311
242.40	36.066
242.77	28.788
243.14	16.949
243.51	17.143
243.89	26.582
244.26	37.079
244.63	29.474
245.00	43.158
245.38	35.593
245.75	35.398
246.12	29.600
246.49	34.646
246.87	37.398
247.24	33.051
247.61	32.203
247.98	35.211
248.36	40.559
248.73	36.709
249.10	38.854
249.47	43.860
249.84	38.636
250.22	30.357
250.59	35.593
250.96	38.220
251.33	44.550
251.70	39.423
252.08	40.284
252.45	36.019
252.82	41.905
253.19	37.872
253.56	37.500
253.94	36.709
254.31	36.052
254.68	43.496
255.05	41.532
255.42	41.667
255.79	39.427
256.16	42.745
256.54	41.176
256.91	42.045
257.28	41.758
257.65	41.489
258.02	42.767
258.39	40.134
258.76	40.878
259.14	39.198
259.51	44.262
259.88	35.976
260.25	43.478
260.62	44.051
260.99	36.202
261.36	42.683
261.73	38.728
262.10	42.222
262.47	43.875
262.85	43.429
263.22	38.968
263.59	46.154
263.96	43.188
264.33	40.108
264.70	43.094
265.07	42.033
265.44	44.444
265.81	39.793
266.18	40.506
266.55	43.137
266.92	43.577
267.29	41.889
267.66	41.975
268.03	42.271
268.40	42.254
268.77	46.988
269.14	42.459
269.51	43.908
269.88	42.202
270.25	41.026
270.62	40.046
270.99	40.991
271.36	41.259
271.73	39.910
272.10	42.105
272.47	41.778
272.84	42.444
273.21	43.807
273.58	39.341
273.95	43.640
274.32	45.475
274.69	43.107
275.06	39.877
275.43	39.509
275.80	43.585
276.17	43.515
276.54	41.141
276.91	43.210
277.28	42.394
277.65	45.248
278.02	44.468
278.39	42.043
278.76	40.837
279.13	41.502
279.50	41.551
279.87	41.015
280.23	42.105
280.60	42.147
280.97	41.165
281.34	43.133
281.71	42.115
282.08	43.145
282.45	42.770
282.82	42.248
283.19	42.909
283.56	41.209
283.92	41.696
284.29	39.963
284.66	39.568
285.03	40.820
285.40	41.882
285.77	42.281
286.14	40.794
286.51	39.076
286.87	40.472
287.24	41.468
287.61	42.149
287.98	38.995
288.35	39.008
288.72	38.540
289.08	38.475
289.45	37.879
289.82	38.062
290.19	39.737
290.56	34.876
290.93	36.407
291.29	37.115
291.66	35.910
292.03	39.089
292.40	35.392
292.77	36.180
293.13	35.610
293.50	35.364
293.87	34.816
294.24	35.143
294.60	34.242
294.97	36.571
295.34	33.333
295.71	34.226
296.08	33.641
296.44	32.332
296.81	36.752
297.18	32.958
297.55	33.757
297.91	34.310
298.28	32.877
298.65	32.497
299.02	32.620
299.38	31.417
299.75	31.522
300.12	31.795
300.48	32.737
300.85	31.324
301.22	31.436
301.59	32.640
301.95	31.738
302.32	30.639
302.69	31.701
303.05	30.891
303.42	31.125
303.79	31.459
304.15	30.095
304.52	30.922
304.89	31.051
305.25	30.647
305.62	29.965
305.99	32.980
306.35	28.968
306.72	28.929
307.09	30.306
307.45	30.079
307.82	29.385
308.19	30.313
308.55	29.521
308.92	29.001
309.29	29.730
309.65	27.147
310.02	28.618
310.38	27.135
310.75	28.893
311.12	29.545
311.48	28.497
311.85	28.527
312.22	29.351
312.58	28.688
312.95	27.523
313.31	29.870
313.68	28.744
314.05	27.992
314.41	28.471
314.78	28.571
315.14	29.714
315.51	27.761
315.87	28.558
316.24	28.086
316.61	28.599
316.97	29.154
317.34	26.686
317.70	26.994
318.07	27.892
318.43	27.154
318.80	28.263
319.16	28.424
319.53	26.786
319.89	26.905
320.26	27.941
320.62	26.731
320.99	27.065
321.35	25.222
321.72	25.896
322.08	27.596
322.45	26.535
322.81	27.281
323.18	28.530
323.54	27.357
323.91	26.599
324.27	26.236
324.64	26.600
325.00	27.487
325.37	28.326
325.73	26.247
326.10	25.864
326.46	27.145
326.83	26.979
327.19	27.356
327.56	28.194
327.92	28.037
328.29	26.926
328.65	27.182
329.01	27.120
329.38	27.565
329.74	27.564
330.11	27.108
330.47	27.702
330.84	27.681
331.20	27.076
331.56	27.165
331.93	26.465
332.29	27.215
332.66	27.919
333.02	26.516
333.38	26.165
333.75	26.536
334.11	27.111
334.48	27.008
334.84	27.909
335.20	26.684
335.57	27.527
335.93	26.500
336.29	26.395
336.66	27.577
337.02	27.568
337.38	25.847
337.75	25.637
338.11	27.281
338.47	26.423
338.84	25.681
339.20	25.483
339.56	27.005
339.93	25.397
340.29	26.926
340.65	26.311
341.02	25.885
341.38	25.274
341.74	26.164
342.11	26.024
342.47	25.150
342.83	25.189
343.20	25.107
343.56	25.306
343.92	27.045
344.28	26.241
344.65	25.000
345.01	25.546
345.37	26.246
345.73	24.877
346.10	24.693
346.46	25.345
346.82	24.218
347.19	26.048
347.55	25.361
347.91	25.433
348.27	24.105
348.63	25.767
349.00	25.776
349.36	24.200
349.72	25.876
350.08	25.662
350.45	23.719
350.81	25.637
351.17	24.277
351.53	25.298
351.89	24.414
352.26	24.031
352.62	26.267
352.98	25.475
353.34	25.100
353.70	24.324
354.07	23.997
354.43	24.743
354.79	25.753
355.15	24.760
355.51	24.531
355.87	25.059
356.24	24.543
356.60	25.705
356.96	25.173
357.32	23.832
357.68	24.215
358.04	24.788
358.40	25.058
358.77	23.879
359.13	23.718
359.49	23.810
359.85	24.238
360.21	24.658
360.57	25.602
360.93	24.444
361.29	24.514
361.66	23.780
362.02	23.373
362.38	24.138
362.74	24.469
363.10	23.601
363.46	24.858
363.82	24.927
364.18	24.096
364.54	24.732
364.90	23.969
365.26	23.395
365.62	24.947
365.98	23.755
366.35	24.437
366.71	23.679
367.07	23.783
367.43	24.777
367.79	24.192
368.15	23.186
368.51	25.455
368.87	24.794
369.23	24.211
369.59	22.986
369.95	24.172
370.31	24.824
370.67	23.283
371.03	23.761
371.39	23.550
371.75	24.893
372.11	23.960
372.47	23.789
372.83	23.853
373.19	23.571
373.55	23.997
373.91	24.111
374.27	23.066
374.63	22.981
374.99	23.505
375.35	22.678
375.71	24.375
376.07	24.504
376.42	23.377
376.78	24.248
377.14	24.068
377.50	23.404
377.86	23.537
378.22	23.618
378.58	23.471
378.94	23.058
379.30	23.583
379.66	23.679
380.02	24.242
380.38	23.686
380.74	23.154
381.09	23.843
381.45	24.105
381.81	23.291
382.17	23.997
382.53	22.614
382.89	24.222
383.25	24.684
383.61	23.526
383.97	24.495
384.32	23.467
384.68	23.519
385.04	23.430
385.40	24.163
385.76	24.512
386.12	23.485
386.48	24.072
386.83	23.804
387.19	23.730
387.55	24.228
387.91	24.007
388.27	23.221
388.62	23.317
388.98	23.198
389.34	22.950
389.70	23.995
390.06	23.493
390.42	23.590
390.77	23.533
391.13	24.348
391.49	23.581
391.85	24.252
392.20	22.755
392.56	22.724
392.92	24.130
393.28	23.995
393.64	22.790
393.99	23.200
394.35	23.723
394.71	23.842
395.07	23.603
395.42	22.825
395.78	23.821
396.14	23.738
396.50	23.303
396.85	23.689
397.21	23.269
397.57	23.830
397.92	23.653
398.28	24.389
398.64	22.665
399.00	24.607
399.35	23.901
399.71	24.158
400.07	24.239
400.42	24.148
400.78	24.210
401.14	22.994
401.49	23.290
401.85	24.466
402.21	23.897
402.57	22.998
402.92	24.921
403.28	23.162
403.63	22.768
403.99	23.369
404.35	22.947
404.70	24.459
405.06	23.529
405.42	23.370
405.77	23.077
406.13	23.055
406.49	23.487
406.84	23.575
407.20	24.382
407.55	23.623
407.91	23.381
408.27	23.713
408.62	24.113
408.98	23.529
409.34	22.121
409.69	23.945
410.05	23.590
410.40	23.728
410.76	23.177
411.11	24.377
411.47	22.890
411.83	23.289
412.18	22.649
412.54	23.246
412.89	23.451
413.25	22.432
413.60	23.451
413.96	22.982
414.31	23.914
414.67	23.556
415.03	23.286
415.38	23.682
415.74	24.034
416.09	23.465
416.45	22.354
416.80	23.277
417.16	22.724
417.51	23.112
417.87	22.977
418.22	23.325
418.58	23.620
418.93	23.421
419.29	24.216
419.64	22.676
420.00	23.208
420.35	22.590
420.71	22.389
421.06	23.669
421.42	22.658
421.77	23.339
422.12	23.167
422.48	23.410
422.83	23.349
423.19	23.274
423.54	24.150
423.90	23.424
424.25	22.851
424.61	23.221
424.96	23.640
425.31	23.141
425.67	24.527
426.02	22.834
426.38	22.323
426.73	22.794
427.09	23.346
427.44	23.182
427.79	23.256
428.15	23.339
428.50	23.988
428.85	23.621
429.21	22.025
429.56	23.750
429.92	23.046
430.27	22.732
430.62	22.780
430.98	22.321
431.33	23.479
431.68	23.861
432.04	22.943
432.39	23.590
432.74	23.022
433.10	23.073
433.45	21.992
433.80	22.004
434.16	23.052
434.51	23.178
434.86	23.374
435.22	23.886
435.57	22.889
435.92	23.681
436.28	22.908
436.63	22.612
436.98	22.165
437.34	22.800
437.69	22.870
438.04	22.745
438.39	23.345
438.75	22.643
439.10	23.043
439.45	22.269
439.81	23.554
440.16	22.771
440.51	23.765
440.86	23.655
441.22	22.112
441.57	22.842
441.92	22.864
442.27	22.403
442.63	23.015
442.98	22.630
443.33	22.954
443.68	22.876
444.03	22.299
444.39	23.495
444.74	23.678
445.09	22.807
445.44	23.467
445.79	23.661
446.15	23.494
446.50	22.972
446.85	22.935
447.20	23.238
447.55	23.646
447.91	22.852
448.26	22.458
448.61	22.298
448.96	23.641
449.31	21.871
449.66	24.270
450.02	22.271
450.37	22.725
450.72	23.220
451.07	23.570
451.42	21.933
451.77	23.160
452.12	23.421
452.47	22.859
452.83	23.471
453.18	23.719
453.53	22.388
453.88	23.804
454.23	22.491
454.58	24.674
454.93	23.866
455.28	22.753
455.63	23.649
455.98	23.855
456.34	22.490
456.69	23.202
457.04	23.602
457.39	23.325
457.74	23.036
458.09	23.260
458.44	23.614
458.79	23.094
459.14	23.560
459.49	23.446
459.84	22.766
460.19	22.971
460.54	22.384
460.89	22.702
461.24	22.404
461.59	23.623
461.94	23.743
462.29	23.407
462.64	23.452
462.99	24.766
463.34	22.417
463.69	22.901
464.04	22.847
464.39	21.983
464.74	23.168
465.09	22.790
465.44	22.843
465.79	23.068
466.14	23.303
466.49	22.740
466.84	23.649
467.19	23.192
467.54	22.722
467.89	23.243
468.24	23.515
468.59	22.798
468.94	23.730
469.29	22.157
469.64	23.181
469.99	22.485
470.34	24.516
470.68	24.419
471.03	22.987
471.38	22.014
471.73	23.217
472.08	23.494
472.43	23.488
472.78	23.600
473.13	22.068
473.48	22.974
473.83	22.891
474.17	23.758
474.52	24.808
474.87	23.368
475.22	22.183
475.57	22.944
475.92	23.704
476.27	23.029
476.61	23.493
476.96	23.589
477.31	23.197
477.66	23.354
478.01	23.771
478.36	22.472
478.70	23.652
479.05	23.202
479.40	22.798
479.75	23.140
480.10	23.264
480.45	22.872
480.79	23.001
481.14	22.880
481.49	23.040
481.84	23.209
482.19	23.435
482.53	23.390
482.88	22.876
483.23	23.803
483.58	23.451
483.92	22.599
484.27	22.774
484.62	23.844
484.97	23.227
485.31	22.208
485.66	21.917
486.01	22.298
486.36	22.722
486.70	23.911
487.05	22.914
487.40	23.104
487.75	22.937
488.09	23.317
488.44	23.478
488.79	23.559
489.13	23.697
489.48	24.103
489.83	23.231
490.17	23.291
490.52	24.592
490.87	23.603
491.22	22.933
491.56	23.472
491.91	24.141
492.26	23.585
492.60	23.549
492.95	23.703
493.30	23.059
493.64	22.520
493.99	24.092
494.34	23.619
494.68	24.860
495.03	23.709
495.37	22.861
495.72	23.969
496.07	23.839
496.41	23.807
496.76	22.466
497.11	23.740
497.45	23.755
497.80	23.962
498.14	23.428
498.49	23.606
498.84	23.592
499.18	25.049
499.53	24.014
499.87	23.407
500.22	23.873
500.56	23.762
500.91	23.547
501.26	25.085
501.60	22.581
501.95	24.010
502.29	22.626
502.64	23.762
502.98	23.766
503.33	24.201
503.67	22.941
504.02	23.998
504.36	24.755
504.71	23.860
505.06	23.665
505.40	23.603
505.75	24.339
506.09	23.964
506.44	24.561
506.78	23.532
507.13	22.812
507.47	24.570
507.82	23.593
508.16	24.041
508.51	23.390
508.85	24.431
509.19	23.339
509.54	24.366
509.88	23.989
510.23	24.004
510.57	24.127
510.92	23.792
511.26	23.817
511.61	23.326
511.95	23.976
512.30	24.574
512.64	23.317
512.98	24.257
513.33	23.888
513.67	23.395
514.02	23.881
514.36	24.820
514.70	23.316
515.05	24.643
515.39	23.414
515.74	25.131
516.08	23.689
516.42	24.249
516.77	25.014
517.11	23.627
517.46	24.103
517.80	24.669
518.14	23.551
518.49	23.849
518.83	24.748
519.17	24.334
519.52	24.639
519.86	24.373
520.20	24.328
520.55	23.569
520.89	23.482
521.23	24.847
521.58	24.326
521.92	25.396
522.26	24.571
522.61	24.271
522.95	24.378
523.29	24.639
523.64	22.986
523.98	24.443
524.32	25.267
524.66	23.727
525.01	24.213
525.35	24.162
525.69	24.398
526.04	24.347
526.38	25.080
526.72	24.138
527.06	24.414
527.41	24.620
527.75	23.366
528.09	23.825
528.43	25.180
528.78	24.623
529.12	25.032
529.46	23.711
529.80	24.467
530.15	24.598
530.49	23.157
530.83	25.475
531.17	24.175
531.51	24.313
531.86	23.963
532.20	24.561
532.54	24.866
532.88	23.913
533.22	23.864
533.57	25.457
533.91	24.095
534.25	23.947
534.59	23.798
534.93	23.149
535.27	24.292
535.62	24.488
535.96	24.305
536.30	24.084
536.64	24.768
536.98	24.435
537.32	23.290
537.66	24.372
538.01	24.192
538.35	24.054
538.69	23.930
539.03	24.915
539.37	24.085
539.71	25.217
540.05	23.578
540.39	23.615
540.73	24.810
541.07	24.385
541.42	23.025
541.76	23.721
542.10	23.970
542.44	24.117
542.78	23.677
543.12	23.489
543.46	23.493
543.80	23.211
544.14	23.774
544.48	24.541
544.82	24.222
545.16	25.084
545.50	23.082
545.84	24.409
546.18	24.965
546.52	24.182
546.86	25.142
547.20	24.543
547.54	23.347
547.88	24.088
548.22	22.739
548.56	23.580
548.90	24.057
549.24	23.406
549.58	23.994
549.92	23.958
550.26	24.928
550.60	23.400
550.94	23.869
551.28	24.229
551.62	24.077
551.96	24.096
552.30	24.460
552.64	24.419
552.98	24.247
553.32	23.304
553.66	24.009
554.00	23.667
554.34	23.105
554.68	23.757
555.02	24.602
555.36	23.940
555.69	23.639
556.03	23.860
556.37	24.111
556.71	24.338
557.05	24.242
557.39	23.534
557.73	25.237
558.07	24.115
558.41	23.934
558.75	24.030
559.08	23.346
559.42	23.430
559.76	25.153
560.10	25.130
560.44	24.350
560.78	23.382
561.12	23.464
561.45	24.178
561.79	23.972
562.13	24.544
562.47	23.669
562.81	24.470
563.15	24.983
563.48	23.497
563.82	23.665
564.16	24.206
564.50	24.731
564.84	23.214
565.17	23.143
565.51	23.207
565.85	24.341
566.19	24.506
566.52	24.462
566.86	23.578
567.20	25.545
567.54	24.690
567.88	23.730
568.21	23.490
568.55	23.489
568.89	23.012
569.23	23.184
569.56	23.623
569.90	23.564
570.24	23.638
570.57	22.988
570.91	22.781
571.25	23.054
571.59	23.416
571.92	23.661
572.26	23.188
572.60	22.898
572.93	22.453
573.27	22.622
573.61	22.512
573.95	22.485
574.28	22.450
574.62	22.623
574.96	22.657
575.29	22.586
575.63	22.803
575.97	22.303
576.30	22.609
576.64	22.872
576.98	22.394
577.31	22.408
577.65	22.456
577.98	22.005
578.32	22.921
578.66	23.104
578.99	22.474
579.33	22.934
579.67	22.597
580.00	22.470
580.34	22.603
580.67	22.628
581.01	22.486
581.35	22.407
581.68	22.099
582.02	22.324
582.35	22.285
582.69	22.821
583.02	22.878
583.36	22.617
583.70	22.760
584.03	23.249
584.37	22.219
584.70	22.363
585.04	21.975
585.37	22.434
585.71	22.448
586.04	22.670
586.38	22.187
586.72	23.055
587.05	22.911
587.39	22.371
587.72	22.458
588.06	22.641
588.39	22.871
588.73	22.933
589.06	22.858
589.40	23.188
589.73	22.911
590.07	21.449
590.40	22.804
590.73	23.151
591.07	23.238
591.40	23.094
591.74	23.588
592.07	23.063
592.41	23.355
592.74	22.291
593.08	22.966
593.41	22.072
593.75	21.827
594.08	23.005
594.41	23.216
594.75	22.424
595.08	22.594
595.42	23.158
595.75	22.381
596.09	23.477
596.42	23.691
596.75	23.243
597.09	23.508
597.42	23.003
597.75	22.498
598.09	23.091
598.42	22.802
598.76	22.135
599.09	21.705
599.42	22.184
599.76	22.235
600.09	23.206
600.42	23.243
600.76	22.637
601.09	22.294
601.42	22.200
601.76	23.170
602.09	22.945
602.42	23.169
602.76	22.684
603.09	21.855
603.42	22.562
603.76	22.736
604.09	23.108
604.42	22.689
604.76	22.983
605.09	22.740
605.42	22.872
605.75	21.992
606.09	22.623
606.42	21.617
606.75	22.757
607.09	23.070
607.42	22.139
607.75	22.914
608.08	23.407
608.42	22.564
608.75	21.729
609.08	23.478
609.41	22.820
609.75	22.331
610.08	23.186
610.41	22.940
610.74	24.081
611.07	22.870
611.41	22.037
611.74	22.879
612.07	22.718
612.40	22.708
612.73	22.886
613.07	23.225
613.40	23.481
613.73	22.834
614.06	21.801
614.39	24.070
614.72	22.402
615.06	22.011
615.39	21.975
615.72	22.542
616.05	22.253
616.38	22.635
616.71	22.462
617.05	23.402
617.38	23.529
617.71	22.359
618.04	22.857
618.37	22.767
618.70	23.533
619.03	22.478
619.36	22.903
619.69	23.475
620.03	22.245
620.36	22.785
620.69	22.111
621.02	23.135
621.35	22.903
621.68	23.525
622.01	23.058
622.34	23.137
622.67	23.750
623.00	23.106
623.33	23.657
623.66	22.230
623.99	23.609
624.32	21.503
624.65	22.884
624.99	22.554
625.32	22.530
625.65	22.999
625.98	23.474
626.31	21.860
626.64	22.845
626.97	22.774
627.30	23.660
627.63	22.625
627.96	22.889
628.29	23.162
628.62	23.305
628.95	22.047
629.28	23.120
629.61	22.375
629.94	23.724
630.26	23.360
630.59	23.618
630.92	23.023
631.25	23.992
631.58	24.444
