SpectraSuite Data File
++++++++++++++++++++++++++++++++++++
Date: Sat May 16 11:42:18 PDT 2015
User: schluterlab
Dark Spectrum Present: Yes
Reference Spectrum Present: Yes
Number of Sampled Component Spectra: 1
Spectrometers: USB2E3373
Integration Time (usec): 3000 (USB2E3373)
Spectra Averaged: 3 (USB2E3373)
Boxcar Smoothing: 0 (USB2E3373)
Correct for Electrical Dark: No (USB2E3373)
Strobe/Lamp Enabled: No (USB2E3373)
Correct for Detector Non-linearity: No (USB2E3373)
Correct for Stray Light: No (USB2E3373)
Number of Pixels in Processed Spectrum: 2048
>>>>>Begin Processed Spectral Data<<<<<
178.53	0.000
178.91	120.000
179.29	566.667
179.67	-800.000
180.04	-69.231
180.42	500.000
180.80	550.000
181.18	500.000
181.56	-162.500
181.94	-0.000
182.31	575.000
182.69	-176.923
183.07	-566.667
183.45	1800.000
183.83	866.667
184.20	-228.571
184.58	-175.000
184.96	-275.000
185.34	143.750
185.72	-250.000
186.09	250.000
186.47	-212.500
186.85	-262.500
187.23	-262.500
187.61	-225.000
187.98	-287.500
188.36	-125.000
188.74	-87.500
189.12	800.000
189.49	214.286
189.87	-25.000
190.25	600.000
190.63	-135.714
191.00	-155.556
191.38	420.000
191.76	-6.667
192.14	260.000
192.51	-460.000
192.89	-633.333
193.27	0.000
193.65	-155.556
194.02	-242.857
194.40	400.000
194.78	-30.000
195.15	-1000.000
195.53	-90.909
195.91	-600.000
196.29	80.000
196.66	-466.667
197.04	2600.000
197.42	-325.000
197.79	20.000
198.17	-400.000
198.55	-1050.000
198.92	-1000.000
199.30	125.000
199.68	-550.000
200.05	-166.667
200.43	-155.556
200.81	-1900.000
201.18	-108.333
201.56	214.286
201.94	-20.000
202.31	4.545
202.69	-100.000
203.07	-110.000
203.44	666.667
203.82	-300.000
204.19	-350.000
204.57	-175.000
204.95	-1800.000
205.32	-25.000
205.70	1600.000
206.08	-2800.000
206.45	-100.000
206.83	-900.000
207.20	-700.000
207.58	-566.667
207.96	-533.333
208.33	-275.000
208.71	-122.222
209.08	220.000
209.46	-214.286
209.84	1150.000
210.21	0.000
210.59	-25.000
210.96	300.000
211.34	-250.000
211.71	-500.000
212.09	425.000
212.46	1100.000
212.84	-2500.000
213.22	733.333
213.59	116.667
213.97	-44.444
214.34	180.000
214.72	-110.000
215.09	-400.000
215.47	-200.000
215.84	-60.000
216.22	-50.000
216.59	33.333
216.97	-675.000
217.34	1000.000
217.72	-57.143
218.09	-433.333
218.47	-214.286
218.84	200.000
219.22	-100.000
219.59	0.000
219.97	357.143
220.34	350.000
220.72	275.000
221.09	-107.692
221.47	0.000
221.84	433.333
222.22	-600.000
222.59	1500.000
222.97	-262.500
223.34	-650.000
223.72	-400.000
224.09	-71.429
224.46	-200.000
224.84	-92.857
225.21	-171.429
225.59	-18.182
225.96	-187.500
226.34	-128.571
226.71	-155.556
227.08	5.000
227.46	2600.000
227.83	-185.714
228.21	-250.000
228.58	450.000
228.95	-75.000
229.33	-1600.000
229.70	-380.000
230.08	-400.000
230.45	-25.000
230.82	-200.000
231.20	-1300.000
231.57	-1050.000
231.95	2400.000
232.32	-42.857
232.69	-77.778
233.07	-185.714
233.44	-1300.000
233.81	-160.000
234.19	-66.667
234.56	-125.000
234.93	-12.500
235.31	-300.000
235.68	-121.429
236.05	-52.941
236.43	-113.636
236.80	-22.581
237.17	-50.000
237.55	-61.905
237.92	-31.818
238.29	-17.143
238.67	20.588
239.04	-11.111
239.41	-25.806
239.79	-56.410
240.16	-40.476
240.53	-23.636
240.91	-2.564
241.28	-5.455
241.65	-10.769
242.02	-19.672
242.40	-16.393
242.77	-25.758
243.14	-18.644
243.51	-20.000
243.89	-25.316
244.26	7.865
244.63	-8.421
245.00	-5.263
245.38	5.932
245.75	7.965
246.12	-2.400
246.49	11.811
246.87	-8.943
247.24	3.390
247.61	-1.695
247.98	-6.338
248.36	-7.692
248.73	5.063
249.10	0.000
249.47	1.754
249.84	2.273
250.22	-4.167
250.59	5.085
250.96	-3.141
251.33	7.109
251.70	5.288
252.08	5.687
252.45	0.000
252.82	1.905
253.19	3.404
253.56	5.242
253.94	3.376
254.31	4.721
254.68	5.285
255.05	2.823
255.42	7.540
255.79	3.226
256.16	6.275
256.54	8.088
256.91	4.924
257.28	4.762
257.65	3.191
258.02	6.604
258.39	6.020
258.76	7.770
259.14	6.790
259.51	9.508
259.88	5.488
260.25	6.522
260.62	3.537
260.99	4.451
261.36	4.878
261.73	6.936
262.10	9.722
262.47	7.123
262.85	8.286
263.22	4.585
263.59	6.462
263.96	10.435
264.33	7.046
264.70	4.144
265.07	8.516
265.44	4.134
265.81	8.527
266.18	4.810
266.55	5.882
266.92	7.809
267.29	3.874
267.66	7.160
268.03	10.145
268.40	7.512
268.77	7.711
269.14	4.408
269.51	9.885
269.88	2.294
270.25	2.797
270.62	4.805
270.99	7.207
271.36	7.692
271.73	7.175
272.10	5.721
272.47	5.333
272.84	6.667
273.21	6.422
273.58	7.912
273.95	6.579
274.32	8.597
274.69	7.221
275.06	7.771
275.43	6.027
275.80	7.536
276.17	5.649
276.54	11.405
276.91	6.584
277.28	9.128
277.65	6.612
278.02	5.846
278.39	7.662
278.76	5.378
279.13	6.917
279.50	5.765
279.87	6.765
280.23	7.692
280.60	8.549
280.97	6.214
281.34	9.478
281.71	6.923
282.08	6.250
282.45	6.110
282.82	4.264
283.19	7.091
283.56	8.242
283.92	6.890
284.29	6.320
284.66	7.554
285.03	6.952
285.40	6.642
285.77	7.719
286.14	7.040
286.51	7.282
286.87	7.078
287.24	6.826
287.61	6.612
287.98	6.759
288.35	6.612
288.72	5.942
289.08	5.085
289.45	7.576
289.82	6.228
290.19	7.553
290.56	6.116
290.93	7.313
291.29	4.700
291.66	6.602
292.03	7.535
292.40	6.928
292.77	7.143
293.13	7.154
293.50	6.389
293.87	5.675
294.24	6.033
294.60	3.939
294.97	8.346
295.34	6.370
295.71	5.952
296.08	4.147
296.44	4.292
296.81	5.840
297.18	4.507
297.55	7.203
297.91	6.695
298.28	5.342
298.65	6.695
299.02	8.289
299.38	6.150
299.75	6.386
300.12	5.641
300.48	7.289
300.85	5.111
301.22	6.856
301.59	6.242
301.95	5.416
302.32	5.215
302.69	6.610
303.05	6.349
303.42	7.125
303.79	5.861
304.15	6.161
304.52	6.651
304.89	6.730
305.25	4.274
305.62	5.288
305.99	7.185
306.35	5.993
306.72	4.897
307.09	7.719
307.45	6.356
307.82	5.028
308.19	6.264
308.55	6.863
308.92	5.800
309.29	5.514
309.65	5.302
310.02	5.400
310.38	4.865
310.75	5.840
311.12	7.128
311.48	6.994
311.85	6.694
312.22	6.282
312.58	7.528
312.95	6.320
313.31	6.494
313.68	6.633
314.05	7.418
314.41	5.533
314.78	5.395
315.14	7.206
315.51	5.775
315.87	8.132
316.24	7.094
316.61	8.157
316.97	7.065
317.34	6.936
317.70	6.865
318.07	7.463
318.43	6.648
318.80	7.418
319.16	5.816
319.53	6.579
319.89	6.115
320.26	7.255
320.62	5.769
320.99	7.164
321.35	6.010
321.72	6.039
322.08	7.517
322.45	7.525
322.81	7.973
323.18	6.916
323.54	7.763
323.91	7.322
324.27	7.224
324.64	6.490
325.00	8.028
325.37	7.511
325.73	9.449
326.10	7.174
326.46	7.793
326.83	7.745
327.19	8.340
327.56	9.199
327.92	7.732
328.29	7.965
328.65	7.364
329.01	8.834
329.38	7.939
329.74	10.165
330.11	9.701
330.47	7.993
330.84	9.624
331.20	8.935
331.56	8.751
331.93	8.970
332.29	8.219
332.66	9.219
333.02	9.502
333.38	9.767
333.75	8.905
334.11	9.067
334.48	9.091
334.84	10.411
335.20	9.840
335.57	9.838
335.93	9.579
336.29	9.920
336.66	8.899
337.02	9.099
337.38	9.715
337.75	10.360
338.11	8.587
338.47	9.786
338.84	10.345
339.20	9.666
339.56	10.873
339.93	9.612
340.29	9.566
340.65	9.091
341.02	10.540
341.38	9.267
341.74	9.822
342.11	9.642
342.47	9.442
342.83	9.488
343.20	8.967
343.56	8.000
343.92	11.853
344.28	10.934
344.65	9.323
345.01	9.748
345.37	10.299
345.73	9.411
346.10	8.258
346.46	9.586
346.82	9.783
347.19	10.271
347.55	9.551
347.91	9.843
348.27	9.785
348.63	10.097
349.00	10.819
349.36	9.290
349.72	10.032
350.08	10.024
350.45	9.377
350.81	10.111
351.17	8.762
351.53	9.228
351.89	9.863
352.26	10.310
352.62	10.522
352.98	9.652
353.34	10.392
353.70	10.965
354.07	10.228
354.43	9.960
354.79	10.143
355.15	9.265
355.51	9.687
355.87	9.802
356.24	8.817
356.60	9.992
356.96	9.777
357.32	11.243
357.68	10.651
358.04	9.700
358.40	10.209
358.77	10.278
359.13	9.946
359.49	9.826
359.85	9.223
360.21	10.426
360.57	10.392
360.93	10.519
361.29	10.987
361.66	9.146
362.02	10.355
362.38	9.685
362.74	9.963
363.10	9.900
363.46	11.752
363.82	10.714
364.18	10.564
364.54	11.580
364.90	10.692
365.26	9.700
365.62	11.404
365.98	10.882
366.35	10.423
366.71	10.782
367.07	10.586
367.43	11.119
367.79	10.515
368.15	10.100
368.51	11.119
368.87	10.920
369.23	10.175
369.59	10.625
369.95	11.416
370.31	11.252
370.67	9.689
371.03	10.569
371.39	10.042
371.75	11.660
372.11	11.334
372.47	11.714
372.83	11.752
373.19	10.786
373.55	11.330
373.91	11.024
374.27	10.883
374.63	10.214
374.99	11.405
375.35	10.431
375.71	12.897
376.07	11.362
376.42	10.662
376.78	11.307
377.14	11.051
377.50	11.283
377.86	11.183
378.22	11.495
378.58	11.859
378.94	11.159
379.30	11.395
379.66	11.779
380.02	11.289
380.38	10.453
380.74	10.551
381.09	12.127
381.45	11.695
381.81	10.587
382.17	12.343
382.53	12.280
382.89	11.304
383.25	11.981
383.61	11.733
383.97	11.635
384.32	11.014
384.68	11.850
385.04	11.775
385.40	11.808
385.76	11.585
386.12	11.493
386.48	11.943
386.83	11.902
387.19	11.835
387.55	12.053
387.91	11.559
388.27	11.218
388.62	11.959
388.98	11.205
389.34	12.056
389.70	11.754
390.06	11.746
390.42	12.308
390.77	12.114
391.13	12.671
391.49	12.102
391.85	12.157
392.20	11.893
392.56	12.340
392.92	12.664
393.28	12.170
393.64	12.989
393.99	12.738
394.35	12.774
394.71	11.921
395.07	12.806
395.42	11.859
395.78	12.508
396.14	13.271
396.50	12.232
396.85	12.215
397.21	13.244
397.57	12.401
397.92	12.119
398.28	12.778
398.64	12.314
399.00	12.528
399.35	12.909
399.71	13.647
400.07	12.896
400.42	13.321
400.78	12.880
401.14	12.635
401.49	11.969
401.85	12.935
402.21	13.111
402.57	12.803
402.92	13.593
403.28	12.929
403.63	12.463
403.99	12.430
404.35	12.802
404.70	12.580
405.06	13.610
405.42	12.485
405.77	12.443
406.13	11.868
406.49	13.182
406.84	12.178
407.20	13.369
407.55	13.426
407.91	11.917
408.27	13.787
408.62	13.049
408.98	12.674
409.34	12.492
409.69	12.917
410.05	12.796
410.40	12.630
410.76	13.100
411.11	13.030
411.47	12.404
411.83	13.509
412.18	13.676
412.54	13.057
412.89	13.001
413.25	12.633
413.60	12.333
413.96	12.693
414.31	14.006
414.67	12.952
415.03	13.519
415.38	13.273
415.74	13.531
416.09	13.427
416.45	13.426
416.80	14.174
417.16	13.953
417.51	13.395
417.87	13.139
418.22	12.389
418.58	12.901
418.93	13.305
419.29	12.861
419.64	13.065
420.00	13.487
420.35	13.247
420.71	13.505
421.06	14.260
421.42	12.646
421.77	13.791
422.12	13.766
422.48	13.415
422.83	13.952
423.19	13.196
423.54	13.256
423.90	13.071
424.25	13.631
424.61	13.752
424.96	14.043
425.31	12.465
425.67	14.040
426.02	13.196
426.38	13.551
426.73	14.611
427.09	13.664
427.44	14.602
427.79	12.733
428.15	14.303
428.50	14.428
428.85	13.969
429.21	14.222
429.56	13.958
429.92	13.778
430.27	14.506
430.62	14.420
430.98	13.853
431.33	14.408
431.68	14.853
432.04	14.829
432.39	13.903
432.74	14.269
433.10	13.731
433.45	14.162
433.80	14.894
434.16	14.938
434.51	14.795
434.86	15.290
435.22	14.143
435.57	14.688
435.92	13.892
436.28	14.184
436.63	14.245
436.98	14.204
437.34	14.176
437.69	14.527
438.04	14.804
438.39	14.681
438.75	14.843
439.10	14.492
439.45	14.363
439.81	15.422
440.16	14.480
440.51	15.059
440.86	14.748
441.22	14.317
441.57	14.263
441.92	14.834
442.27	15.097
442.63	14.163
442.98	13.600
443.33	15.047
443.68	14.382
444.03	14.882
444.39	14.782
444.74	15.033
445.09	15.625
445.44	15.307
445.79	14.737
446.15	15.334
446.50	14.045
446.85	14.469
447.20	14.556
447.55	14.751
447.91	15.665
448.26	14.302
448.61	14.714
448.96	16.190
449.31	16.009
449.66	15.112
450.02	14.848
450.37	14.203
450.72	15.311
451.07	15.462
451.42	14.374
451.77	15.500
452.12	15.137
452.47	15.302
452.83	15.492
453.18	15.876
453.53	15.112
453.88	15.909
454.23	14.329
454.58	16.346
454.93	16.436
455.28	15.551
455.63	15.663
455.98	15.843
456.34	15.565
456.69	16.323
457.04	15.673
457.39	14.414
457.74	14.708
458.09	15.487
458.44	15.647
458.79	14.742
459.14	15.516
459.49	16.282
459.84	15.683
460.19	15.931
460.54	15.729
460.89	14.910
461.24	16.090
461.59	16.530
461.94	16.104
462.29	16.438
462.64	15.547
462.99	16.332
463.34	15.733
463.69	15.522
464.04	15.524
464.39	15.412
464.74	16.371
465.09	15.454
465.44	16.356
465.79	15.510
466.14	16.226
466.49	16.120
466.84	16.206
467.19	15.648
467.54	15.506
467.89	16.461
468.24	15.796
468.59	16.490
468.94	16.270
469.29	15.530
469.64	15.768
469.99	16.543
470.34	16.700
470.68	16.715
471.03	16.793
471.38	16.181
471.73	16.084
472.08	16.131
472.43	16.023
472.78	16.467
473.13	14.645
473.48	16.528
473.83	16.563
474.17	16.815
474.52	17.775
474.87	16.667
475.22	16.873
475.57	15.944
475.92	16.847
476.27	16.000
476.61	16.282
476.96	16.657
477.31	16.900
477.66	16.602
478.01	17.072
478.36	15.977
478.70	17.085
479.05	17.307
479.40	16.528
479.75	16.871
480.10	16.419
480.45	16.151
480.79	16.782
481.14	16.658
481.49	17.183
481.84	16.505
482.19	17.725
482.53	16.714
482.88	17.133
483.23	16.995
483.58	16.929
483.92	17.152
484.27	16.571
484.62	16.933
484.97	16.875
485.31	16.352
485.66	16.048
486.01	15.478
486.36	15.935
486.70	16.701
487.05	16.298
487.40	16.720
487.75	16.704
488.09	16.430
488.44	17.084
488.79	16.802
489.13	17.573
489.48	17.496
489.83	17.249
490.17	17.283
490.52	17.708
490.87	17.229
491.22	17.282
491.56	17.500
491.91	17.653
492.26	17.358
492.60	17.079
492.95	17.563
493.30	17.485
493.64	17.160
493.99	18.021
494.34	17.286
494.68	17.743
495.03	17.256
495.37	17.896
495.72	17.141
496.07	17.879
496.41	17.508
496.76	17.717
497.11	17.381
497.45	17.577
497.80	17.009
498.14	16.798
498.49	16.926
498.84	16.893
499.18	17.300
499.53	17.876
499.87	17.133
500.22	17.941
500.56	18.109
500.91	16.897
501.26	18.098
501.60	17.236
501.95	17.729
502.29	17.667
502.64	18.529
502.98	17.920
503.33	17.575
503.67	17.289
504.02	17.479
504.36	18.039
504.71	17.477
505.06	17.773
505.40	18.114
505.75	18.191
506.09	17.644
506.44	18.296
506.78	18.665
507.13	17.302
507.47	18.049
507.82	17.914
508.16	18.238
508.51	17.671
508.85	17.805
509.19	18.420
509.54	18.023
509.88	18.404
510.23	18.449
510.57	18.783
510.92	19.012
511.26	18.501
511.61	18.035
511.95	18.427
512.30	18.032
512.64	17.140
512.98	19.142
513.33	19.220
513.67	18.481
514.02	18.568
514.36	18.837
514.70	17.997
515.05	18.811
515.39	18.512
515.74	18.848
516.08	18.790
516.42	19.377
516.77	19.353
517.11	18.879
517.46	18.959
517.80	19.374
518.14	18.720
518.49	19.307
518.83	18.991
519.17	19.301
519.52	18.797
519.86	18.937
520.20	19.499
520.55	19.508
520.89	18.159
521.23	19.475
521.58	18.997
521.92	19.823
522.26	19.937
522.61	19.455
522.95	19.528
523.29	19.561
523.64	19.176
523.98	19.096
524.32	19.107
524.66	18.447
525.01	19.075
525.35	19.394
525.69	18.673
526.04	19.060
526.38	20.878
526.72	19.093
527.06	20.312
527.41	19.208
527.75	18.614
528.09	19.523
528.43	19.344
528.78	18.844
529.12	20.166
529.46	19.781
529.80	19.238
530.15	19.897
530.49	19.017
530.83	20.236
531.17	19.394
531.51	19.692
531.86	19.421
532.20	19.163
532.54	20.187
532.88	19.104
533.22	18.850
533.57	19.256
533.91	19.101
534.25	19.359
534.59	18.301
534.93	18.419
535.27	18.943
535.62	19.629
535.96	18.940
536.30	18.652
536.64	19.788
536.98	19.845
537.32	18.452
537.66	18.941
538.01	18.969
538.35	19.392
538.69	19.652
539.03	19.431
539.37	18.896
539.71	19.813
540.05	19.054
540.39	20.222
540.73	18.659
541.07	19.740
541.42	19.109
541.76	18.140
542.10	20.122
542.44	19.387
542.78	19.946
543.12	19.009
543.46	19.110
543.80	18.395
544.14	19.006
544.48	19.029
544.82	19.689
545.16	19.718
545.50	18.708
545.84	19.054
546.18	19.903
546.52	20.555
546.86	19.302
547.20	20.183
547.54	19.077
547.88	19.642
548.22	19.135
548.56	18.971
548.90	19.744
549.24	19.902
549.58	18.772
549.92	19.435
550.26	20.014
550.60	19.915
550.94	19.708
551.28	20.241
551.62	19.055
551.96	19.826
552.30	20.000
552.64	18.719
552.98	19.832
553.32	18.831
553.66	19.899
554.00	19.616
554.34	18.989
554.68	18.933
555.02	18.813
555.36	18.620
555.69	19.269
556.03	18.737
556.37	19.630
556.71	19.041
557.05	19.882
557.39	20.490
557.73	20.642
558.07	19.367
558.41	19.222
558.75	19.468
559.08	17.665
559.42	19.066
559.76	19.862
560.10	20.656
560.44	20.376
560.78	19.555
561.12	19.324
561.45	20.205
561.79	19.373
562.13	19.986
562.47	19.188
562.81	18.529
563.15	19.664
563.48	19.419
563.82	19.135
564.16	19.946
564.50	19.556
564.84	19.312
565.17	19.098
565.51	19.426
565.85	20.690
566.19	19.829
566.52	19.048
566.86	19.090
567.20	19.249
567.54	18.842
567.88	18.816
568.21	19.128
568.55	19.300
568.89	18.042
569.23	17.862
569.56	17.360
569.90	18.371
570.24	17.888
570.57	17.153
570.91	16.865
571.25	18.029
571.59	16.922
571.92	17.083
572.26	17.765
572.60	17.561
572.93	16.940
573.27	16.829
573.61	17.063
573.95	17.137
574.28	16.572
574.62	17.438
574.96	17.298
575.29	17.175
575.63	17.229
575.97	16.775
576.30	16.964
576.64	16.710
576.98	16.895
577.31	16.663
577.65	16.506
577.98	16.732
578.32	16.712
578.66	16.980
578.99	17.363
579.33	17.759
579.67	17.398
580.00	16.766
580.34	16.267
580.67	16.916
581.01	16.179
581.35	16.348
581.68	16.508
582.02	17.055
582.35	16.733
582.69	16.724
583.02	17.020
583.36	17.112
583.70	17.435
584.03	17.322
584.37	16.888
584.70	17.605
585.04	16.608
585.37	16.420
585.71	17.102
586.04	16.591
586.38	16.359
586.72	16.516
587.05	17.247
587.39	16.717
587.72	17.122
588.06	17.276
588.39	17.203
588.73	17.743
589.06	17.168
589.40	17.829
589.73	17.918
590.07	16.861
590.40	17.934
590.73	17.433
591.07	17.664
591.40	17.981
591.74	17.724
592.07	17.568
592.41	17.113
592.74	17.141
593.08	17.233
593.41	16.842
593.75	16.650
594.08	17.469
594.41	17.412
594.75	18.007
595.08	17.669
595.42	17.522
595.75	17.163
596.09	17.229
596.42	17.921
596.75	18.025
597.09	17.854
597.42	17.809
597.75	17.936
598.09	18.482
598.42	17.234
598.76	17.276
599.09	16.969
599.42	16.878
599.76	17.516
600.09	17.023
600.42	17.015
600.76	16.949
601.09	17.129
601.42	17.016
601.76	17.445
602.09	17.137
602.42	17.531
602.76	17.200
603.09	17.218
603.42	17.647
603.76	17.511
604.09	17.621
604.42	17.319
604.76	17.837
605.09	17.495
605.42	17.553
605.75	16.516
606.09	17.642
606.42	17.009
606.75	17.604
607.09	17.292
607.42	17.518
607.75	17.528
608.08	18.030
608.42	18.117
608.75	17.477
609.08	17.828
609.41	17.738
609.75	17.796
610.08	17.451
610.41	17.590
610.74	17.843
611.07	18.053
611.41	16.894
611.74	18.098
612.07	17.938
612.40	17.217
612.73	17.663
613.07	17.942
613.40	18.555
613.73	17.493
614.06	17.847
614.39	18.546
614.72	17.542
615.06	17.663
615.39	17.417
615.72	17.871
616.05	16.842
616.38	17.760
616.71	18.018
617.05	18.335
617.38	18.328
617.71	16.830
618.04	18.447
618.37	18.553
618.70	19.100
619.03	18.483
619.36	19.380
619.69	19.454
620.03	19.215
620.36	18.354
620.69	18.378
621.02	18.569
621.35	19.355
621.68	18.689
622.01	18.932
622.34	19.099
622.67	18.203
623.00	19.434
623.33	19.254
623.66	17.873
623.99	18.872
624.32	18.452
624.65	17.586
624.99	18.447
625.32	18.713
625.65	18.803
625.98	18.310
626.31	20.147
626.64	18.159
626.97	19.264
627.30	18.553
627.63	17.703
627.96	19.234
628.29	19.026
628.62	19.293
628.95	19.685
629.28	20.019
629.61	19.038
629.94	20.321
630.26	20.477
630.59	20.101
630.92	20.320
631.25	19.960
631.58	19.683
631.91	17.872
632.24	19.889
632.57	20.556
632.90	21.034
633.23	21.145
633.56	20.117
633.89	20.401
634.22	19.008
634.55	21.274
634.88	19.347
635.20	18.102
635.53	18.448
635.86	20.025
636.19	19.658
636.52	20.191
636.85	19.134
637.18	18.000
