SpectraSuite Data File
++++++++++++++++++++++++++++++++++++
Date: Sat May 16 11:11:01 PDT 2015
User: schluterlab
Dark Spectrum Present: Yes
Reference Spectrum Present: Yes
Number of Sampled Component Spectra: 1
Spectrometers: USB2E3373
Integration Time (usec): 3000 (USB2E3373)
Spectra Averaged: 3 (USB2E3373)
Boxcar Smoothing: 0 (USB2E3373)
Correct for Electrical Dark: No (USB2E3373)
Strobe/Lamp Enabled: No (USB2E3373)
Correct for Detector Non-linearity: No (USB2E3373)
Correct for Stray Light: No (USB2E3373)
Number of Pixels in Processed Spectrum: 2048
>>>>>Begin Processed Spectral Data<<<<<
178.53	0.000
178.91	33.333
179.29	233.333
179.67	-200.000
180.04	7.692
180.42	600.000
180.80	50.000
181.18	250.000
181.56	-62.500
181.94	-400.000
182.31	300.000
182.69	-7.692
183.07	-266.667
183.45	900.000
183.83	33.333
184.20	-85.714
184.58	12.500
184.96	150.000
185.34	100.000
185.72	-200.000
186.09	233.333
186.47	-125.000
186.85	-75.000
187.23	-37.500
187.61	-175.000
187.98	-237.500
188.36	-50.000
188.74	-50.000
189.12	300.000
189.49	300.000
189.87	8.333
190.25	225.000
190.63	35.714
191.00	-166.667
191.38	100.000
191.76	-13.333
192.14	240.000
192.51	-120.000
192.89	-300.000
193.27	0.000
193.65	-55.556
194.02	-157.143
194.40	-100.000
194.78	50.000
195.15	200.000
195.53	-81.818
195.91	-283.333
196.29	220.000
196.66	-433.333
197.04	1900.000
197.42	25.000
197.79	13.333
198.17	233.333
198.55	-450.000
198.92	-700.000
199.30	125.000
199.68	-100.000
200.05	11.111
200.43	-66.667
200.81	-600.000
201.18	-66.667
201.56	114.286
201.94	26.667
202.31	27.273
202.69	70.000
203.07	60.000
203.44	466.667
203.82	-166.667
204.19	-250.000
204.57	25.000
204.95	-800.000
205.32	37.500
205.70	600.000
206.08	-1400.000
206.45	22.222
206.83	-500.000
207.20	150.000
207.58	-466.667
207.96	-100.000
208.33	-12.500
208.71	-244.444
209.08	230.000
209.46	-142.857
209.84	750.000
210.21	0.000
210.59	50.000
210.96	600.000
211.34	-166.667
211.71	-333.333
212.09	250.000
212.46	900.000
212.84	-2100.000
213.22	233.333
213.59	58.333
213.97	88.889
214.34	150.000
214.72	-70.000
215.09	-233.333
215.47	0.000
215.84	-30.000
216.22	50.000
216.59	-20.000
216.97	-350.000
217.34	500.000
217.72	-71.429
218.09	-216.667
218.47	-171.429
218.84	28.571
219.22	128.571
219.59	0.000
219.97	128.571
220.34	275.000
220.72	162.500
221.09	-38.462
221.47	0.000
221.84	266.667
222.22	250.000
222.59	500.000
222.97	-125.000
223.34	-450.000
223.72	-166.667
224.09	-28.571
224.46	-100.000
224.84	21.429
225.21	-114.286
225.59	-100.000
225.96	-37.500
226.34	14.286
226.71	-88.889
227.08	75.000
227.46	1300.000
227.83	-42.857
228.21	-187.500
228.58	500.000
228.95	12.500
229.33	-1500.000
229.70	-140.000
230.08	-350.000
230.45	116.667
230.82	16.667
231.20	-200.000
231.57	-600.000
231.95	1600.000
232.32	14.286
232.69	-77.778
233.07	-85.714
233.44	-600.000
233.81	-60.000
234.19	-122.222
234.56	6.250
234.93	-3.125
235.31	-242.857
235.68	-78.571
236.05	-52.941
236.43	-40.909
236.80	25.806
237.17	8.333
237.55	-33.333
237.92	-22.727
238.29	-20.000
238.67	14.706
239.04	2.778
239.41	3.226
239.79	-30.769
240.16	2.381
240.53	-3.636
240.91	2.564
241.28	-1.818
241.65	7.692
242.02	-8.197
242.40	-18.033
242.77	-3.030
243.14	-20.339
243.51	-15.714
243.89	-3.797
244.26	-5.618
244.63	3.158
245.00	-9.474
245.38	1.695
245.75	4.425
246.12	0.800
246.49	1.575
246.87	0.000
247.24	-5.932
247.61	-6.780
247.98	0.000
248.36	-0.699
248.73	8.228
249.10	-5.096
249.47	-0.585
249.84	4.545
250.22	-10.119
250.59	4.520
250.96	1.571
251.33	7.583
251.70	1.923
252.08	1.896
252.45	0.000
252.82	7.143
253.19	2.979
253.56	-2.419
253.94	4.219
254.31	-3.433
254.68	4.878
255.05	0.000
255.42	3.968
255.79	-4.301
256.16	2.745
256.54	0.000
256.91	-1.894
257.28	1.099
257.65	0.709
258.02	4.717
258.39	2.341
258.76	-1.351
259.14	-0.617
259.51	3.279
259.88	-0.305
260.25	2.795
260.62	0.965
260.99	3.264
261.36	3.354
261.73	6.936
262.10	4.722
262.47	1.425
262.85	3.714
263.22	0.860
263.59	-0.615
263.96	1.159
264.33	2.439
264.70	2.210
265.07	3.022
265.44	3.101
265.81	0.258
266.18	-3.291
266.55	1.716
266.92	3.275
267.29	2.906
267.66	0.741
268.03	2.415
268.40	2.817
268.77	4.819
269.14	0.000
269.51	2.759
269.88	0.000
270.25	0.932
270.62	2.059
270.99	1.351
271.36	1.166
271.73	-0.224
272.10	2.746
272.47	1.556
272.84	3.556
273.21	1.835
273.58	3.956
273.95	1.535
274.32	1.584
274.69	5.252
275.06	3.067
275.43	2.009
275.80	3.259
276.17	5.021
276.54	3.666
276.91	1.852
277.28	2.231
277.65	1.860
278.02	3.340
278.39	3.929
278.76	0.199
279.13	4.743
279.50	1.988
279.87	2.960
280.23	4.251
280.60	1.988
280.97	-0.583
281.34	1.934
281.71	3.077
282.08	3.226
282.45	0.407
282.82	1.357
283.19	1.636
283.56	4.029
283.92	1.943
284.29	0.743
284.66	1.799
285.03	3.922
285.40	2.399
285.77	3.333
286.14	2.888
286.51	2.487
286.87	1.089
287.24	1.877
287.61	1.983
287.98	1.040
288.35	2.314
288.72	2.207
289.08	1.017
289.45	4.040
289.82	1.211
290.19	2.956
290.56	2.314
290.93	2.226
291.29	1.135
291.66	1.771
292.03	1.570
292.40	3.916
292.77	1.398
293.13	2.114
293.50	2.377
293.87	2.914
294.24	3.017
294.60	1.364
294.97	4.401
295.34	2.222
295.71	3.571
296.08	1.536
296.44	0.715
296.81	2.849
297.18	1.690
297.55	3.672
297.91	4.881
298.28	1.370
298.65	4.324
299.02	4.679
299.38	2.540
299.75	2.310
300.12	4.103
300.48	4.604
300.85	1.048
301.22	3.493
301.59	2.601
301.95	4.912
302.32	1.956
302.69	4.162
303.05	1.709
303.42	2.875
303.79	2.153
304.15	3.910
304.52	3.267
304.89	3.070
305.25	2.808
305.62	2.350
305.99	4.594
306.35	4.772
306.72	2.506
307.09	4.313
307.45	3.859
307.82	3.687
308.19	4.251
308.55	4.031
308.92	2.793
309.29	4.216
309.65	4.878
310.02	4.752
310.38	3.568
310.75	5.225
311.12	4.649
311.48	4.906
311.85	5.664
312.22	5.664
312.58	5.799
312.95	6.728
313.31	6.394
313.68	6.533
314.05	6.627
314.41	5.131
314.78	5.095
315.14	6.910
315.51	6.383
315.87	7.841
316.24	7.580
316.61	7.774
316.97	7.662
317.34	7.707
317.70	7.328
318.07	8.489
318.43	8.146
318.80	9.014
319.16	7.598
319.53	9.211
319.89	7.808
320.26	8.529
320.62	8.846
320.99	9.453
321.35	7.882
321.72	9.212
322.08	9.792
322.45	9.703
322.81	9.702
323.18	9.894
323.54	10.721
323.91	9.546
324.27	11.597
324.64	10.695
325.00	10.733
325.37	10.679
325.73	11.986
326.10	9.035
326.46	11.296
326.83	10.213
327.19	12.093
327.56	12.692
327.92	12.489
328.29	11.082
328.65	11.182
329.01	10.954
329.38	11.954
329.74	12.454
330.11	12.330
330.47	12.807
330.84	12.191
331.20	13.357
331.56	13.036
331.93	13.321
332.29	12.329
332.66	12.818
333.02	13.032
333.38	12.634
333.75	12.912
334.11	12.978
334.48	12.886
334.84	13.561
335.20	11.968
335.57	12.906
335.93	14.682
336.29	12.489
336.66	12.511
337.02	12.162
337.38	11.319
337.75	12.116
338.11	11.807
338.47	12.367
338.84	11.615
339.20	12.830
339.56	14.082
339.93	12.081
340.29	12.312
340.65	12.413
341.02	13.322
341.38	12.384
341.74	12.108
342.11	13.396
342.47	11.760
342.83	12.678
343.20	11.443
343.56	12.163
343.92	12.354
344.28	13.036
344.65	12.129
345.01	12.185
345.37	11.794
345.73	12.848
346.10	11.284
346.46	11.292
346.82	12.430
347.19	12.079
347.55	11.798
347.91	12.047
348.27	11.695
348.63	12.278
349.00	12.411
349.36	9.992
349.72	12.500
350.08	12.029
350.45	10.717
350.81	12.261
351.17	11.013
351.53	10.899
351.89	11.641
352.26	11.860
352.62	12.442
352.98	12.025
353.34	11.431
353.70	12.124
354.07	12.038
354.43	12.490
354.79	11.886
355.15	11.342
355.51	11.875
355.87	11.542
356.24	10.643
356.60	12.893
356.96	11.547
357.32	11.560
357.68	11.571
358.04	11.932
358.40	11.137
358.77	10.587
359.13	11.247
359.49	11.640
359.85	11.128
360.21	11.035
360.57	12.199
360.93	11.852
361.29	11.360
361.66	10.595
362.02	10.873
362.38	11.592
362.74	11.429
363.10	10.976
363.46	12.963
363.82	11.880
364.18	11.650
364.54	12.509
364.90	12.089
365.26	11.127
365.62	11.832
365.98	12.233
366.35	11.408
366.71	10.923
367.07	10.797
367.43	11.942
367.79	11.753
368.15	11.451
368.51	12.308
368.87	13.049
369.23	12.632
369.59	12.083
369.95	11.769
370.31	11.744
370.67	12.003
371.03	11.735
371.39	11.174
371.75	10.801
372.11	11.765
372.47	11.497
372.83	11.544
373.19	11.786
373.55	11.963
373.91	12.020
374.27	11.910
374.63	11.318
374.99	11.961
375.35	11.036
375.71	12.221
376.07	11.636
376.42	10.795
376.78	12.092
377.14	11.525
377.50	12.057
377.86	12.094
378.22	11.746
378.58	11.242
378.94	12.269
379.30	12.127
379.66	12.568
380.02	12.181
380.38	11.480
380.74	11.606
381.09	12.419
381.45	12.351
381.81	12.220
382.17	11.905
382.53	10.760
382.89	11.304
383.25	12.583
383.61	12.559
383.97	12.064
384.32	11.264
384.68	11.790
385.04	11.413
385.40	12.781
385.76	12.927
386.12	12.680
386.48	12.500
386.83	12.822
387.19	12.134
387.55	11.993
387.91	11.737
388.27	11.218
388.62	11.839
388.98	11.872
389.34	11.750
389.70	11.876
390.06	11.995
390.42	12.821
390.77	11.924
391.13	12.547
391.49	12.414
391.85	12.656
392.20	12.500
392.56	11.851
392.92	12.208
393.28	12.572
393.64	12.808
393.99	12.738
394.35	12.348
394.71	12.230
395.07	14.187
395.42	11.919
395.78	11.502
396.14	12.710
396.50	13.028
396.85	12.215
397.21	12.029
397.57	11.854
397.92	12.529
398.28	12.833
398.64	13.385
399.00	13.146
399.35	12.176
399.71	13.008
400.07	12.418
400.42	13.139
400.78	12.701
401.14	12.275
401.49	12.028
401.85	12.142
402.21	12.396
402.57	12.561
402.92	12.209
403.28	12.439
403.63	11.923
403.99	13.238
404.35	11.836
404.70	13.224
405.06	12.745
405.42	11.808
405.77	11.821
406.13	12.436
406.49	12.403
406.84	12.657
407.20	13.428
407.55	12.730
407.91	12.111
408.27	13.235
408.62	12.026
408.98	12.310
409.34	12.127
409.69	11.909
410.05	12.796
410.40	12.508
410.76	12.389
411.11	12.406
411.47	12.596
411.83	12.286
412.18	12.314
412.54	12.142
412.89	12.758
413.25	11.924
413.60	11.604
413.96	11.768
414.31	13.211
414.67	12.571
415.03	12.678
415.38	12.492
415.74	13.853
416.09	13.427
416.45	12.566
416.80	13.264
417.16	11.960
417.51	13.526
417.87	12.427
418.22	11.820
418.58	12.901
418.93	13.243
419.29	12.296
419.64	11.997
420.00	12.940
420.35	12.419
420.71	13.145
421.06	13.491
421.42	12.705
421.77	12.451
422.12	12.591
422.48	12.774
422.83	14.009
423.19	12.806
423.54	13.775
423.90	12.261
424.25	12.896
424.61	12.967
424.96	14.453
425.31	13.807
425.67	12.951
426.02	12.737
426.38	12.583
426.73	13.209
427.09	13.113
427.44	14.375
427.79	12.907
428.15	13.226
428.50	13.314
428.85	13.729
429.21	13.448
429.56	12.865
429.92	13.427
430.27	13.958
430.62	13.793
430.98	13.957
431.33	13.767
431.68	13.566
432.04	13.430
432.39	14.131
432.74	14.029
433.10	13.956
433.45	13.069
433.80	13.774
434.16	13.971
434.51	13.479
434.86	14.060
435.22	13.864
435.57	13.525
435.92	14.361
436.28	13.650
436.63	13.397
436.98	12.887
437.34	14.589
437.69	13.477
438.04	14.237
438.39	14.621
438.75	14.028
439.10	13.326
439.45	13.337
439.81	13.976
440.16	14.083
440.51	14.000
440.86	14.286
441.22	13.378
441.57	14.053
441.92	14.527
442.27	13.528
442.63	14.056
442.98	13.375
443.33	13.893
443.68	13.913
444.03	14.980
444.39	14.537
444.74	13.656
445.09	13.706
445.44	14.913
445.79	13.259
446.15	15.170
446.50	13.936
446.85	13.699
447.20	14.402
447.55	13.923
447.91	14.318
448.26	13.687
448.61	14.601
448.96	14.846
449.31	13.754
449.66	14.825
450.02	13.352
450.37	14.087
450.72	14.237
451.07	14.079
451.42	12.825
451.77	14.123
452.12	14.422
452.47	14.673
452.83	14.036
453.18	14.105
453.53	14.366
453.88	14.952
454.23	13.785
454.58	15.040
454.93	13.665
455.28	13.958
455.63	14.865
455.98	14.578
456.34	13.596
456.69	14.447
457.04	15.243
457.39	14.055
457.74	14.530
458.09	14.907
458.44	14.665
458.79	14.182
459.14	15.630
459.49	14.506
459.84	14.840
460.19	15.215
460.54	14.459
460.89	14.182
461.24	14.693
461.59	14.537
461.94	14.513
462.29	15.068
462.64	14.295
462.99	14.793
463.34	14.787
463.69	14.631
464.04	14.411
464.39	15.173
464.74	14.480
465.09	14.612
465.44	15.172
465.79	15.285
466.14	15.593
466.49	14.680
466.84	15.066
467.19	14.776
467.54	14.557
467.89	13.564
468.24	14.846
468.59	15.678
468.94	14.148
469.29	14.555
469.64	14.555
469.99	14.585
470.34	14.763
470.68	15.407
471.03	15.554
471.38	14.444
471.73	15.175
472.08	14.056
472.43	13.449
472.78	14.800
473.13	13.453
473.48	14.997
473.83	14.330
474.17	14.777
474.52	14.898
474.87	14.569
475.22	13.451
475.57	14.000
475.92	15.011
476.27	13.943
476.61	14.648
476.96	14.925
477.31	14.962
477.66	14.831
478.01	14.911
478.36	14.563
478.70	15.056
479.05	15.251
479.40	14.508
479.75	13.965
480.10	14.931
480.45	14.362
480.79	14.610
481.14	15.153
481.49	14.860
481.84	14.193
482.19	14.938
482.53	14.962
482.88	14.713
483.23	14.319
483.58	15.264
483.92	14.477
484.27	14.621
484.62	14.730
484.97	14.458
485.31	14.208
485.66	14.672
486.01	14.044
486.36	14.338
486.70	14.647
487.05	14.473
487.40	14.557
487.75	14.206
488.09	14.330
488.44	13.938
488.79	14.503
489.13	14.378
489.48	15.171
489.83	14.279
490.17	14.758
490.52	14.221
490.87	14.411
491.22	14.292
491.56	14.491
491.91	14.504
492.26	14.528
492.60	14.320
492.95	14.660
493.30	14.531
493.64	14.480
493.99	14.484
494.34	14.952
494.68	14.513
495.03	14.293
495.37	13.815
495.72	13.998
496.07	14.547
496.41	14.914
496.76	14.110
497.11	14.131
497.45	15.086
497.80	14.007
498.14	14.145
498.49	13.461
498.84	13.835
499.18	14.522
499.53	14.467
499.87	14.093
500.22	14.510
500.56	14.707
500.91	13.990
501.26	14.993
501.60	14.107
501.95	14.783
502.29	14.265
502.64	14.993
502.98	14.231
503.33	14.098
503.67	14.224
504.02	14.437
504.36	14.216
504.71	14.286
505.06	14.179
505.40	15.070
505.75	14.024
506.09	14.408
506.44	14.035
506.78	13.598
507.13	14.058
507.47	14.502
507.82	14.610
508.16	13.990
508.51	14.323
508.85	14.545
509.19	14.286
509.54	14.799
509.88	13.830
510.23	14.046
510.57	14.709
510.92	14.876
511.26	13.557
511.61	13.769
511.95	14.278
512.30	14.513
512.64	13.801
512.98	15.017
513.33	14.278
513.67	14.070
514.02	13.031
514.36	14.848
514.70	14.318
515.05	14.694
515.39	13.206
515.74	14.369
516.08	14.179
516.42	14.108
516.77	15.020
517.11	14.474
517.46	14.234
517.80	14.380
518.14	14.372
518.49	13.748
518.83	13.769
519.17	14.091
519.52	13.939
519.86	13.978
520.20	13.631
520.55	14.092
520.89	13.838
521.23	14.652
521.58	13.918
521.92	14.566
522.26	14.667
522.61	14.892
522.95	13.146
523.29	13.856
523.64	13.679
523.98	13.877
524.32	13.891
524.66	14.596
525.01	13.423
525.35	14.562
525.69	13.142
526.04	14.426
526.38	13.622
526.72	13.921
527.06	14.648
527.41	13.729
527.75	12.673
528.09	14.626
528.43	13.902
528.78	14.447
529.12	14.789
529.46	13.015
529.80	13.428
530.15	14.359
530.49	14.036
530.83	14.669
531.17	14.276
531.51	13.262
531.86	14.417
532.20	13.495
532.54	14.639
532.88	13.043
533.22	13.168
533.57	14.164
533.91	12.797
534.25	13.325
534.59	13.179
534.93	12.757
535.27	13.782
535.62	13.875
535.96	13.704
536.30	13.416
536.64	14.409
536.98	13.630
537.32	13.476
537.66	13.510
538.01	13.333
538.35	14.527
538.69	13.035
539.03	13.879
539.37	13.706
539.71	14.009
540.05	13.502
540.39	13.089
540.73	14.236
541.07	13.866
541.42	12.424
541.76	12.824
542.10	14.517
542.44	13.458
542.78	14.586
543.12	13.035
543.46	12.260
543.80	13.043
544.14	13.633
544.48	13.976
544.82	13.464
545.16	13.615
545.50	12.853
545.84	13.839
546.18	13.245
546.52	14.083
546.86	13.818
547.20	13.432
547.54	12.603
547.88	14.068
548.22	11.992
548.56	12.291
548.90	13.612
549.24	13.034
549.58	13.267
549.92	13.357
550.26	14.523
550.60	13.300
550.94	13.577
551.28	13.920
551.62	13.737
551.96	13.676
552.30	13.589
552.64	13.300
552.98	13.735
553.32	13.636
553.66	13.266
554.00	12.793
554.34	13.574
554.68	13.304
555.02	13.459
555.36	13.228
555.69	12.966
556.03	13.193
556.37	12.802
556.71	13.958
557.05	13.747
557.39	12.621
557.73	13.567
558.07	13.037
558.41	12.865
558.75	12.624
559.08	12.685
559.42	13.017
559.76	14.110
560.10	13.721
560.44	13.367
560.78	12.735
561.12	13.389
561.45	12.945
561.79	13.728
562.13	13.745
562.47	14.216
562.81	12.801
563.15	13.226
563.48	13.753
563.82	13.049
564.16	12.103
564.50	12.702
564.84	13.624
565.17	13.660
565.51	14.081
565.85	12.914
566.19	13.570
566.52	12.524
566.86	13.148
567.20	14.165
567.54	14.176
567.88	13.289
568.21	13.535
568.55	12.725
568.89	12.575
569.23	12.494
569.56	12.610
569.90	13.729
570.24	13.003
570.57	12.583
570.91	12.683
571.25	13.327
571.59	13.300
571.92	13.006
572.26	13.122
572.60	12.969
572.93	12.852
573.27	12.591
573.61	12.475
573.95	12.799
574.28	12.869
574.62	13.345
574.96	12.861
575.29	13.008
575.63	12.636
575.97	12.190
576.30	12.935
576.64	12.428
576.98	12.914
577.31	12.992
577.65	12.883
577.98	12.954
578.32	12.692
578.66	12.823
578.99	12.204
579.33	12.836
579.67	12.529
580.00	12.351
580.34	12.622
580.67	12.699
581.01	12.363
581.35	12.539
581.68	12.729
582.02	12.851
582.35	12.691
582.69	12.819
583.02	12.754
583.36	12.655
583.70	12.212
584.03	13.039
584.37	12.233
584.70	12.794
585.04	12.608
585.37	12.554
585.71	12.651
586.04	12.310
586.38	12.323
586.72	12.796
587.05	12.773
587.39	13.138
587.72	13.034
588.06	13.260
588.39	12.390
588.73	12.794
589.06	12.852
589.40	13.123
589.73	12.465
590.07	12.600
590.40	13.026
590.73	12.515
591.07	12.705
591.40	13.085
591.74	12.728
592.07	13.018
592.41	12.739
592.74	13.028
593.08	13.388
593.41	12.467
593.75	12.529
594.08	12.581
594.41	13.494
594.75	12.835
595.08	12.594
595.42	13.367
595.75	12.679
596.09	12.806
596.42	13.134
596.75	12.807
597.09	13.446
597.42	12.746
597.75	12.843
598.09	13.195
598.42	12.329
598.76	12.375
599.09	13.023
599.42	12.957
599.76	13.364
600.09	13.092
600.42	13.559
600.76	13.296
601.09	12.799
601.42	12.742
601.76	13.006
602.09	12.434
602.42	12.881
602.76	12.921
603.09	12.419
603.42	13.014
603.76	13.004
604.09	13.216
604.42	12.531
604.76	12.909
605.09	12.658
605.42	13.076
605.75	12.376
606.09	12.868
606.42	12.275
606.75	12.666
607.09	12.660
607.42	13.116
607.75	12.892
608.08	13.511
608.42	12.914
608.75	12.897
609.08	13.200
609.41	12.755
609.75	12.921
610.08	12.745
610.41	12.916
610.74	13.781
611.07	12.931
611.41	12.658
611.74	13.676
612.07	14.071
612.40	12.846
612.73	12.870
613.07	12.878
613.40	13.465
613.73	13.243
614.06	12.905
614.39	13.360
614.72	12.458
615.06	12.772
615.39	12.480
615.72	13.797
616.05	13.197
616.38	12.826
616.71	13.333
617.05	13.691
617.38	13.189
617.71	12.531
618.04	13.540
618.37	12.516
618.70	13.299
619.03	12.864
619.36	13.953
619.69	12.706
620.03	12.810
620.36	13.010
620.69	14.142
621.02	13.318
621.35	12.823
621.68	12.623
622.01	13.107
622.34	13.898
622.67	13.359
623.00	13.160
623.33	14.328
623.66	12.186
623.99	13.609
624.32	12.574
624.65	12.877
624.99	13.368
625.32	12.575
625.65	14.064
625.98	12.754
626.31	12.887
626.64	12.971
626.97	13.870
627.30	12.851
627.63	12.349
627.96	13.142
628.29	12.960
628.62	12.034
628.95	14.469
629.28	13.064
629.61	12.758
629.94	13.989
630.26	13.022
630.59	14.573
630.92	14.114
631.25	13.710
631.58	14.074
631.91	11.383
632.24	14.111
632.57	14.000
632.90	12.989
633.23	13.084
633.56	11.813
633.89	14.623
634.22	13.223
634.55	13.341
634.88	14.148
635.20	12.484
635.53	12.977
635.86	13.098
636.19	13.919
636.52	13.620
636.85	12.876
637.18	11.750
