SpectraSuite Data File
++++++++++++++++++++++++++++++++++++
Date: Sat May 16 11:21:48 PDT 2015
User: schluterlab
Dark Spectrum Present: Yes
Reference Spectrum Present: Yes
Number of Sampled Component Spectra: 1
Spectrometers: USB2E3373
Integration Time (usec): 3000 (USB2E3373)
Spectra Averaged: 3 (USB2E3373)
Boxcar Smoothing: 0 (USB2E3373)
Correct for Electrical Dark: No (USB2E3373)
Strobe/Lamp Enabled: No (USB2E3373)
Correct for Detector Non-linearity: No (USB2E3373)
Correct for Stray Light: No (USB2E3373)
Number of Pixels in Processed Spectrum: 2048
>>>>>Begin Processed Spectral Data<<<<<
178.53	0.000
178.91	173.333
179.29	600.000
179.67	-200.000
180.04	-84.615
180.42	2000.000
180.80	75.000
181.18	300.000
181.56	-150.000
181.94	1400.000
182.31	300.000
182.69	-15.385
183.07	-600.000
183.45	1100.000
183.83	133.333
184.20	-357.143
184.58	-162.500
184.96	-325.000
185.34	156.250
185.72	-450.000
186.09	183.333
186.47	-175.000
186.85	-237.500
187.23	-25.000
187.61	-225.000
187.98	-275.000
188.36	-87.500
188.74	-162.500
189.12	1200.000
189.49	342.857
189.87	-41.667
190.25	25.000
190.63	-71.429
191.00	-155.556
191.38	400.000
191.76	-20.000
192.14	380.000
192.51	-60.000
192.89	-433.333
193.27	0.000
193.65	-144.444
194.02	-142.857
194.40	600.000
194.78	-60.000
195.15	-100.000
195.53	-109.091
195.91	-366.667
196.29	140.000
196.66	-700.000
197.04	2800.000
197.42	-75.000
197.79	0.000
198.17	-166.667
198.55	-1000.000
198.92	-1400.000
199.30	262.500
199.68	-450.000
200.05	-133.333
200.43	-222.222
200.81	-2300.000
201.18	-8.333
201.56	128.571
201.94	-46.667
202.31	27.273
202.69	60.000
203.07	20.000
203.44	700.000
203.82	-400.000
204.19	-325.000
204.57	-225.000
204.95	-900.000
205.32	37.500
205.70	1500.000
206.08	-1600.000
206.45	-22.222
206.83	-550.000
207.20	500.000
207.58	-600.000
207.96	33.333
208.33	-175.000
208.71	-144.444
209.08	170.000
209.46	-142.857
209.84	850.000
210.21	0.000
210.59	15.000
210.96	1200.000
211.34	-283.333
211.71	133.333
212.09	225.000
212.46	600.000
212.84	-2000.000
213.22	766.667
213.59	225.000
213.97	-22.222
214.34	200.000
214.72	-60.000
215.09	-433.333
215.47	-133.333
215.84	-200.000
216.22	-80.000
216.59	66.667
216.97	-400.000
217.34	400.000
217.72	-85.714
218.09	-250.000
218.47	-285.714
218.84	271.429
219.22	28.571
219.59	0.000
219.97	328.571
220.34	400.000
220.72	150.000
221.09	-23.077
221.47	0.000
221.84	700.000
222.22	-400.000
222.59	100.000
222.97	-137.500
223.34	-450.000
223.72	-366.667
224.09	-85.714
224.46	-400.000
224.84	-100.000
225.21	-257.143
225.59	-45.455
225.96	-187.500
226.34	-57.143
226.71	-166.667
227.08	-35.000
227.46	1700.000
227.83	-185.714
228.21	-150.000
228.58	550.000
228.95	-56.250
229.33	-2400.000
229.70	-280.000
230.08	-900.000
230.45	-41.667
230.82	-216.667
231.20	-500.000
231.57	-850.000
231.95	1200.000
232.32	-19.048
232.69	-200.000
233.07	-185.714
233.44	-900.000
233.81	-60.000
234.19	11.111
234.56	-62.500
234.93	0.000
235.31	-214.286
235.68	-107.143
236.05	-29.412
236.43	-72.727
236.80	0.000
237.17	-12.500
237.55	-66.667
237.92	-100.000
238.29	-42.857
238.67	-20.588
239.04	-41.667
239.41	-45.161
239.79	-79.487
240.16	-38.095
240.53	-40.000
240.91	-35.897
241.28	-7.273
241.65	9.231
242.02	9.836
242.40	-13.115
242.77	-10.606
243.14	-11.864
243.51	-27.143
243.89	3.797
244.26	-11.236
244.63	-7.368
245.00	-10.526
245.38	-5.085
245.75	-4.425
246.12	-4.800
246.49	-6.299
246.87	-8.130
247.24	-18.644
247.61	-10.169
247.98	-9.155
248.36	-9.790
248.73	-12.025
249.10	-8.280
249.47	-4.094
249.84	-1.136
250.22	-11.310
250.59	-9.605
250.96	-2.618
251.33	0.948
251.70	-8.654
252.08	-1.422
252.45	-9.953
252.82	-5.714
253.19	-6.809
253.56	-9.274
253.94	-6.751
254.31	-1.288
254.68	-1.220
255.05	-7.258
255.42	-2.381
255.79	-3.943
256.16	1.176
256.54	-3.309
256.91	-2.273
257.28	-3.297
257.65	-1.064
258.02	-0.943
258.39	-2.007
258.76	-5.068
259.14	-2.778
259.51	-3.279
259.88	-5.488
260.25	-2.174
260.62	-4.180
260.99	-3.264
261.36	-1.829
261.73	-2.312
262.10	-0.833
262.47	-4.558
262.85	2.000
263.22	-6.877
263.59	-5.538
263.96	-2.029
264.33	-0.813
264.70	-0.552
265.07	-2.473
265.44	-2.584
265.81	-1.550
266.18	-1.013
266.55	-0.980
266.92	0.756
267.29	-0.484
267.66	-4.938
268.03	0.000
268.40	-2.347
268.77	-0.723
269.14	-3.016
269.51	-0.460
269.88	-5.046
270.25	-3.030
270.62	-2.059
270.99	-4.505
271.36	-0.932
271.73	1.121
272.10	-1.831
272.47	-2.667
272.84	0.222
273.21	0.688
273.58	0.220
273.95	-2.851
274.32	-2.715
274.69	1.313
275.06	-2.249
275.43	-3.795
275.80	-0.204
276.17	-1.255
276.54	-1.222
276.91	-1.235
277.28	-1.014
277.65	-1.240
278.02	-0.626
278.39	-1.179
278.76	-0.598
279.13	-1.779
279.50	-0.398
279.87	-2.326
280.23	-0.405
280.60	-1.789
280.97	-3.301
281.34	-0.967
281.71	-1.346
282.08	-2.016
282.45	-2.648
282.82	-1.744
283.19	-0.545
283.56	0.733
283.92	-2.650
284.29	-2.602
284.66	-0.360
285.03	1.070
285.40	1.476
285.77	1.053
286.14	0.542
286.51	-1.776
286.87	0.181
287.24	-0.171
287.61	-0.496
287.98	-1.040
288.35	0.331
288.72	-1.698
289.08	-2.373
289.45	-1.178
289.82	-1.730
290.19	0.000
290.56	-2.810
290.93	-0.795
291.29	-2.107
291.66	-1.127
292.03	2.041
292.40	-0.301
292.77	-1.553
293.13	-2.276
293.50	-1.634
293.87	-2.301
294.24	0.000
294.60	-3.333
294.97	-0.152
295.34	-1.630
295.71	-1.339
296.08	-0.154
296.44	-3.004
296.81	-0.712
297.18	-1.268
297.55	-0.424
297.91	1.395
298.28	-0.685
298.65	-0.976
299.02	1.070
299.38	-0.267
299.75	-0.679
300.12	0.641
300.48	1.023
300.85	-0.655
301.22	0.388
301.59	-0.260
301.95	0.126
302.32	-0.130
302.69	-0.979
303.05	-0.122
303.42	0.125
303.79	-2.392
304.15	-0.355
304.52	1.050
304.89	-0.472
305.25	-1.221
305.62	-0.588
305.99	0.589
306.35	0.111
306.72	-1.822
307.09	0.681
307.45	-0.341
307.82	-0.670
308.19	-0.559
308.55	-0.980
308.92	-0.537
309.29	0.432
309.65	-0.636
310.02	-0.432
310.38	-0.757
310.75	1.025
311.12	0.000
311.48	1.148
311.85	-0.309
312.22	0.412
312.58	1.831
312.95	0.000
313.31	1.099
313.68	0.503
314.05	1.385
314.41	0.604
314.78	-1.199
315.14	0.790
315.51	-0.304
315.87	1.258
316.24	0.875
316.61	0.768
316.97	0.896
317.34	0.096
317.70	0.278
318.07	1.399
318.43	1.030
318.80	2.441
319.16	0.375
319.53	0.564
319.89	0.470
320.26	1.078
320.62	0.288
320.99	2.189
321.35	-0.197
321.72	0.409
322.08	0.890
322.45	0.891
322.81	0.865
323.18	1.249
323.54	2.126
323.91	1.668
324.27	1.711
324.64	0.091
325.00	2.269
325.37	1.900
325.73	3.150
326.10	0.797
326.46	1.839
326.83	0.851
327.19	2.419
327.56	3.578
327.92	2.294
328.29	2.857
328.65	0.818
329.01	2.473
329.38	2.944
329.74	2.656
330.11	2.629
330.47	2.452
330.84	3.483
331.20	1.986
331.56	2.370
331.93	2.398
332.29	2.192
332.66	2.283
333.02	2.262
333.38	3.763
333.75	3.651
334.11	1.956
334.48	2.736
334.84	4.112
335.20	3.014
335.57	3.069
335.93	2.954
336.29	2.746
336.66	2.819
337.02	3.964
337.38	1.961
337.75	2.809
338.11	4.114
338.47	3.025
338.84	2.450
339.20	2.812
339.56	3.119
339.93	2.734
340.29	3.100
340.65	2.273
341.02	3.794
341.38	3.033
341.74	3.556
342.11	3.413
342.47	2.918
342.83	2.435
343.20	2.647
343.56	2.531
343.92	3.756
344.28	3.869
344.65	2.310
345.01	2.185
345.37	3.821
345.73	2.209
346.10	2.208
346.46	2.193
346.82	2.727
347.19	1.233
347.55	2.809
347.91	2.677
348.27	2.466
348.63	4.523
349.00	3.580
349.36	1.639
349.72	4.061
350.08	2.807
350.45	3.546
350.81	3.264
351.17	2.733
351.53	1.432
351.89	2.668
352.26	3.256
352.62	4.531
352.98	2.532
353.34	2.798
353.70	3.166
354.07	2.832
354.43	3.953
354.79	2.298
355.15	3.275
355.51	3.125
355.87	2.609
356.24	3.813
356.60	4.110
356.96	4.234
357.32	2.930
357.68	2.835
358.04	3.541
358.40	2.784
358.77	3.478
359.13	3.826
359.49	3.930
359.85	2.973
360.21	4.338
360.57	4.217
360.93	4.889
361.29	3.886
361.66	1.677
362.02	2.441
362.38	4.109
362.74	3.956
363.10	3.228
363.46	4.630
363.82	2.988
364.18	3.763
364.54	4.360
364.90	2.725
365.26	3.352
365.62	3.849
365.98	3.983
366.35	3.592
366.71	3.383
367.07	3.740
367.43	4.530
367.79	3.505
368.15	2.916
368.51	4.056
368.87	4.602
369.23	4.351
369.59	4.375
369.95	4.017
370.31	4.782
370.67	3.326
371.03	4.373
371.39	2.758
371.75	3.934
372.11	3.945
372.47	3.688
372.83	4.033
373.19	3.929
373.55	4.856
373.91	4.481
374.27	4.244
374.63	4.210
374.99	4.659
375.35	4.307
375.71	4.862
376.07	4.038
376.42	2.980
376.78	4.706
377.14	3.661
377.50	4.449
377.86	4.291
378.22	4.397
378.58	5.003
378.94	4.131
379.30	4.753
379.66	5.586
380.02	4.397
380.38	4.955
380.74	4.220
381.09	5.272
381.45	4.236
381.81	4.658
382.17	4.887
382.53	4.498
382.89	4.844
383.25	5.298
383.61	5.601
383.97	5.205
384.32	4.756
384.68	4.958
385.04	4.952
385.40	4.869
385.76	5.549
386.12	5.309
386.48	5.012
386.83	5.644
387.19	5.320
387.55	4.846
387.91	5.276
388.27	4.644
388.62	5.048
388.98	5.633
389.34	4.590
389.70	5.359
390.06	4.786
390.42	5.577
390.77	4.795
391.13	5.901
391.49	5.115
391.85	5.299
392.20	5.340
392.56	5.254
392.92	5.705
393.28	6.028
393.64	6.133
393.99	6.092
394.35	5.596
394.71	6.115
395.07	5.650
395.42	5.244
395.78	4.840
396.14	5.732
396.50	5.321
396.85	5.799
397.21	5.043
397.57	5.410
397.92	6.089
398.28	6.056
398.64	5.294
399.00	6.011
399.35	5.186
399.71	6.156
400.07	5.851
400.42	6.022
400.78	5.307
401.14	5.629
401.49	6.250
401.85	6.040
402.21	5.542
402.57	6.250
402.92	6.167
403.28	5.576
403.63	4.673
403.99	5.345
404.35	5.495
404.70	5.968
405.06	6.690
405.42	5.412
405.77	5.882
406.13	4.997
406.49	5.932
406.84	5.459
407.20	6.125
407.55	5.636
407.91	5.829
408.27	5.760
408.62	5.953
408.98	6.428
409.34	5.241
409.69	5.797
410.05	5.943
410.40	5.579
410.76	6.165
411.11	5.112
411.47	6.330
411.83	6.907
412.18	5.446
412.54	5.552
412.89	5.650
413.25	5.195
413.60	5.468
413.96	5.114
414.31	5.933
414.67	5.016
415.03	6.080
415.38	5.465
415.74	6.250
416.09	4.987
416.45	5.159
416.80	5.787
417.16	5.050
417.51	6.500
417.87	5.955
418.22	5.879
418.58	5.712
418.93	6.622
419.29	6.274
419.64	5.653
420.00	6.622
420.35	5.855
420.71	5.942
421.06	5.799
421.42	5.562
421.77	6.644
422.12	6.212
422.48	6.360
422.83	6.264
423.19	5.958
423.54	6.398
423.90	5.726
424.25	5.826
424.61	6.936
424.96	6.905
425.31	6.596
425.67	6.705
426.02	5.336
426.38	7.441
426.73	6.195
427.09	6.679
427.44	6.761
427.79	5.930
428.15	7.002
428.50	6.393
428.85	6.355
429.21	6.364
429.56	6.406
429.92	6.663
430.27	6.331
430.62	6.792
430.98	7.371
431.33	6.617
431.68	6.917
432.04	7.387
432.39	7.066
432.74	6.715
433.10	6.753
433.45	6.160
433.80	6.271
434.16	6.717
434.51	6.521
434.86	7.323
435.22	7.684
435.57	6.548
435.92	6.975
436.28	6.706
436.63	6.444
436.98	6.071
437.34	6.911
437.69	6.768
438.04	6.466
438.39	7.100
438.75	7.218
439.10	7.496
439.45	6.880
439.81	7.048
440.16	7.041
440.51	7.706
440.86	7.808
441.22	6.136
441.57	6.947
441.92	7.366
442.27	7.197
442.63	7.618
442.98	6.716
443.33	7.304
443.68	6.670
444.03	6.778
444.39	7.342
444.74	7.379
445.09	7.401
445.44	7.710
445.79	6.935
446.15	7.558
446.50	5.825
446.85	7.748
447.20	6.844
447.55	7.293
447.91	7.075
448.26	6.872
448.61	7.357
448.96	7.899
449.31	7.610
449.66	6.697
450.02	7.202
450.37	6.841
450.72	7.006
451.07	7.354
451.42	7.187
451.77	7.361
452.12	6.794
452.47	7.746
452.83	7.630
453.18	7.464
453.53	8.085
453.88	7.476
454.23	7.013
454.58	7.520
454.93	7.809
455.28	7.266
455.63	7.125
455.98	8.072
456.34	6.099
456.69	8.568
457.04	8.236
457.39	7.237
457.74	7.324
458.09	7.483
458.44	8.199
458.79	6.726
459.14	7.815
459.49	7.342
459.84	7.645
460.19	7.995
460.54	7.260
460.89	6.951
461.24	7.954
461.59	7.913
461.94	7.129
462.29	7.802
462.64	7.378
462.99	7.898
463.34	6.752
463.69	6.870
464.04	8.202
464.39	6.930
464.74	7.624
465.09	7.937
465.44	7.671
465.79	8.235
466.14	7.998
466.49	8.290
466.84	7.803
467.19	7.731
467.54	7.532
467.89	8.138
468.24	7.779
468.59	7.620
468.94	7.074
469.29	7.862
469.64	7.749
469.99	8.440
470.34	7.749
470.68	8.503
471.03	9.222
471.38	7.222
471.73	8.112
472.08	7.095
472.43	8.301
472.78	8.867
473.13	8.019
473.48	8.232
473.83	7.692
474.17	7.516
474.52	9.335
474.87	9.149
475.22	8.319
475.57	7.889
475.92	8.315
476.27	8.171
476.61	8.563
476.96	8.776
477.31	8.504
477.66	8.356
478.01	8.428
478.36	8.800
478.70	8.329
479.05	8.491
479.40	7.772
479.75	8.206
480.10	8.532
480.45	8.656
480.79	8.687
481.14	8.931
481.49	8.809
481.84	8.414
482.19	8.634
482.53	8.428
482.88	8.068
483.23	8.545
483.58	9.019
483.92	8.505
484.27	8.507
484.62	8.726
484.97	8.963
485.31	8.000
485.66	8.184
486.01	7.923
486.36	8.228
486.70	8.525
487.05	8.465
487.40	7.986
487.75	8.619
488.09	8.369
488.44	8.288
488.79	8.985
489.13	8.711
489.48	8.728
489.83	9.083
490.17	9.055
490.52	9.284
490.87	8.499
491.22	8.688
491.56	8.796
491.91	8.731
492.26	8.726
492.60	8.611
492.95	9.757
493.30	8.766
493.64	8.275
493.99	8.987
494.34	9.000
494.68	9.223
495.03	9.321
495.37	8.407
495.72	9.234
496.07	8.728
496.41	9.403
496.76	8.950
497.11	9.279
497.45	9.052
497.80	8.754
498.14	8.939
498.49	8.187
498.84	8.932
499.18	9.113
499.53	8.914
499.87	8.542
500.22	9.265
500.56	8.754
500.91	8.966
501.26	9.995
501.60	8.714
501.95	9.662
502.29	8.692
502.64	10.042
502.98	9.439
503.33	9.305
503.67	9.339
504.02	9.126
504.36	9.314
504.71	8.612
505.06	9.436
505.40	10.080
505.75	8.333
506.09	9.454
506.44	9.624
506.78	9.433
507.13	9.423
507.47	10.329
507.82	10.067
508.16	9.896
508.51	9.325
508.85	9.524
509.19	9.733
509.54	10.148
509.88	9.362
510.23	10.377
510.57	10.582
510.92	10.580
511.26	10.048
511.61	9.611
511.95	9.537
512.30	9.951
512.64	9.405
512.98	10.231
513.33	9.830
513.67	10.497
514.02	9.787
514.36	10.803
514.70	9.677
515.05	10.292
515.39	10.150
515.74	11.751
516.08	10.548
516.42	10.878
516.77	10.861
517.11	11.041
517.46	10.885
517.80	10.469
518.14	10.447
518.49	11.058
518.83	10.326
519.17	11.782
519.52	10.411
519.86	10.573
520.20	11.125
520.55	10.769
520.89	10.645
521.23	12.088
521.58	10.909
521.92	11.716
522.26	11.683
522.61	10.266
522.95	11.678
523.29	11.599
523.64	10.743
523.98	10.503
524.32	10.999
524.66	10.435
525.01	10.918
525.35	12.113
525.69	11.386
526.04	11.292
526.38	11.712
526.72	10.856
527.06	11.068
527.41	11.617
527.75	10.759
528.09	11.648
528.43	11.148
528.78	11.118
529.12	12.228
529.46	10.825
529.80	11.168
530.15	12.041
530.49	11.902
530.83	11.657
531.17	11.044
531.51	11.520
531.86	11.784
532.20	12.213
532.54	11.698
532.88	11.462
533.22	12.567
533.57	12.206
533.91	11.735
534.25	11.691
534.59	11.743
534.93	12.508
535.27	10.824
535.62	12.148
535.96	12.540
536.30	11.322
536.64	12.151
536.98	11.864
537.32	11.126
537.66	12.084
538.01	11.546
538.35	12.365
538.69	11.230
539.03	11.848
539.37	11.178
539.71	12.608
540.05	11.652
540.39	12.050
540.73	12.509
541.07	12.022
541.42	11.344
541.76	11.761
542.10	12.154
542.44	12.258
542.78	12.415
543.12	11.270
543.46	10.822
543.80	11.639
544.14	11.686
544.48	12.073
544.82	11.367
545.16	12.408
545.50	11.709
545.84	12.517
546.18	11.859
546.52	11.735
546.86	11.254
547.20	12.096
547.54	12.397
547.88	11.878
548.22	11.337
548.56	11.690
548.90	12.803
549.24	10.301
549.58	12.279
549.92	12.085
550.26	13.078
550.60	12.376
550.94	11.971
551.28	12.340
551.62	12.925
551.96	12.229
552.30	12.753
552.64	10.908
552.98	11.773
553.32	11.760
553.66	12.401
554.00	12.651
554.34	11.769
554.68	11.550
555.02	12.156
555.36	11.071
555.69	11.461
556.03	12.491
556.37	12.233
556.71	12.384
557.05	12.491
557.39	12.175
557.73	13.129
558.07	11.605
558.41	12.416
558.75	11.483
559.08	10.506
559.42	12.864
559.76	12.577
560.10	12.379
560.44	12.355
560.78	11.621
561.12	12.077
561.45	12.740
561.79	11.638
562.13	12.202
562.47	12.465
562.81	12.164
563.15	12.176
563.48	11.748
563.82	11.697
564.16	11.494
564.50	12.298
564.84	11.442
565.17	12.135
565.51	12.516
565.85	12.170
566.19	13.109
566.52	12.329
566.86	11.315
567.20	12.712
567.54	12.936
567.88	11.781
568.21	11.577
568.55	12.195
568.89	10.984
569.23	11.337
569.56	10.761
569.90	11.448
570.24	11.124
570.57	11.037
570.91	11.085
571.25	11.089
571.59	11.208
571.92	11.101
572.26	11.174
572.60	10.704
572.93	10.468
573.27	10.518
573.61	10.812
573.95	10.777
574.28	10.720
574.62	10.702
574.96	10.668
575.29	10.696
575.63	10.645
575.97	10.329
576.30	10.770
576.64	10.392
576.98	10.351
577.31	10.489
577.65	10.736
577.98	10.629
578.32	10.250
578.66	10.789
578.99	10.365
579.33	10.349
579.67	10.424
580.00	10.764
580.34	10.812
580.67	10.419
581.01	10.283
581.35	10.436
581.68	10.286
582.02	10.520
582.35	10.595
582.69	10.706
583.02	10.411
583.36	10.486
583.70	10.932
584.03	10.830
584.37	10.528
584.70	10.732
585.04	10.481
585.37	10.668
585.71	10.643
586.04	10.613
586.38	10.799
586.72	10.485
587.05	10.649
587.39	10.544
587.72	10.937
588.06	11.032
588.39	11.051
588.73	11.074
589.06	11.093
589.40	11.542
589.73	11.544
590.07	11.034
590.40	11.476
590.73	11.076
591.07	11.762
591.40	11.265
591.74	11.512
592.07	10.811
592.41	11.847
592.74	11.414
593.08	11.432
593.41	11.250
593.75	10.880
594.08	10.999
594.41	11.165
594.75	11.476
595.08	10.977
595.42	11.019
595.75	11.062
596.09	11.176
596.42	11.702
596.75	10.910
597.09	11.220
597.42	11.087
597.75	11.470
598.09	11.297
598.42	12.064
598.76	10.507
599.09	11.405
599.42	10.996
599.76	11.250
600.09	11.641
600.42	11.280
600.76	11.450
601.09	11.318
601.42	10.408
601.76	11.215
602.09	11.452
602.42	10.988
602.76	10.553
603.09	11.250
603.42	11.402
603.76	10.929
604.09	10.933
604.42	10.783
604.76	11.557
605.09	11.438
605.42	11.525
605.75	10.953
606.09	11.457
606.42	11.227
606.75	11.292
607.09	11.469
607.42	11.312
607.75	10.861
608.08	11.478
608.42	10.501
608.75	10.701
609.08	11.154
609.41	11.211
609.75	10.629
610.08	11.225
610.41	11.614
610.74	11.750
611.07	11.258
611.41	11.447
611.74	12.339
612.07	11.815
612.40	10.874
612.73	11.416
613.07	10.732
613.40	12.151
613.73	11.553
614.06	11.532
614.39	11.612
614.72	10.894
615.06	11.141
615.39	11.069
615.72	11.841
616.05	11.044
616.38	11.608
616.71	12.072
617.05	12.183
617.38	12.570
617.71	10.995
618.04	11.429
618.37	11.258
618.70	12.190
619.03	11.848
619.36	12.403
619.69	12.563
620.03	10.950
620.36	11.814
620.69	12.132
621.02	11.644
621.35	10.887
621.68	12.295
622.01	12.540
622.34	12.655
622.67	11.016
623.00	11.859
623.33	11.716
623.66	11.374
623.99	12.256
624.32	12.202
624.65	12.656
624.99	11.128
625.32	11.826
625.65	11.733
625.98	11.581
626.31	11.990
626.64	12.134
626.97	12.757
627.30	13.787
627.63	10.881
627.96	12.185
628.29	12.316
628.62	13.181
628.95	13.484
629.28	12.876
629.61	11.384
629.94	13.422
630.26	14.016
630.59	13.467
630.92	13.313
631.25	14.113
631.58	12.275
631.91	11.383
632.24	13.222
632.57	12.444
632.90	13.678
633.23	13.084
633.56	11.696
633.89	13.679
634.22	12.751
634.55	13.221
634.88	13.785
635.20	12.984
635.53	14.249
635.86	13.350
636.19	13.309
636.52	12.306
636.85	12.274
637.18	9.875
637.51	14.374
637.83	11.585
638.16	12.895
638.49	12.276
638.82	12.484
639.15	14.267
639.48	11.543
639.81	13.555
640.13	12.838
640.46	14.815
640.79	14.426
641.12	13.963
641.45	13.056
641.77	13.922
642.10	10.725
642.43	13.657
642.76	12.913
643.09	13.333
643.41	14.921
643.74	13.672
644.07	13.729
644.40	13.452
