SpectraSuite Data File
++++++++++++++++++++++++++++++++++++
Date: Sat May 16 11:40:02 PDT 2015
User: schluterlab
Dark Spectrum Present: Yes
Reference Spectrum Present: Yes
Number of Sampled Component Spectra: 1
Spectrometers: USB2E3373
Integration Time (usec): 3000 (USB2E3373)
Spectra Averaged: 3 (USB2E3373)
Boxcar Smoothing: 0 (USB2E3373)
Correct for Electrical Dark: No (USB2E3373)
Strobe/Lamp Enabled: No (USB2E3373)
Correct for Detector Non-linearity: No (USB2E3373)
Correct for Stray Light: No (USB2E3373)
Number of Pixels in Processed Spectrum: 2048
>>>>>Begin Processed Spectral Data<<<<<
178.53	0.000
178.91	140.000
179.29	500.000
179.67	-1300.000
180.04	-84.615
180.42	1600.000
180.80	450.000
181.18	450.000
181.56	-100.000
181.94	800.000
182.31	275.000
182.69	-61.538
183.07	-633.333
183.45	1450.000
183.83	633.333
184.20	-42.857
184.58	-125.000
184.96	-550.000
185.34	125.000
185.72	-575.000
186.09	450.000
186.47	-212.500
186.85	-175.000
187.23	25.000
187.61	-300.000
187.98	-387.500
188.36	-200.000
188.74	-187.500
189.12	1900.000
189.49	471.429
189.87	-116.667
190.25	475.000
190.63	-78.571
191.00	-188.889
191.38	380.000
191.76	-13.333
192.14	460.000
192.51	-280.000
192.89	-366.667
193.27	0.000
193.65	-200.000
194.02	-314.286
194.40	600.000
194.78	-180.000
195.15	-900.000
195.53	-145.455
195.91	-466.667
196.29	340.000
196.66	-600.000
197.04	800.000
197.42	-175.000
197.79	20.000
198.17	-566.667
198.55	-650.000
198.92	-2300.000
199.30	275.000
199.68	-300.000
200.05	-200.000
200.43	-166.667
200.81	-1100.000
201.18	-141.667
201.56	257.143
201.94	-93.333
202.31	-45.455
202.69	-40.000
203.07	30.000
203.44	400.000
203.82	-300.000
204.19	-500.000
204.57	-200.000
204.95	-1600.000
205.32	-62.500
205.70	1700.000
206.08	-1600.000
206.45	-11.111
206.83	-1000.000
207.20	-400.000
207.58	-666.667
207.96	-666.667
208.33	-200.000
208.71	-311.111
209.08	210.000
209.46	-271.429
209.84	900.000
210.21	0.000
210.59	45.000
210.96	800.000
211.34	-400.000
211.71	-400.000
212.09	275.000
212.46	1200.000
212.84	-2800.000
213.22	833.333
213.59	141.667
213.97	-55.556
214.34	210.000
214.72	-120.000
215.09	-733.333
215.47	-133.333
215.84	-30.000
216.22	-50.000
216.59	-33.333
216.97	-325.000
217.34	600.000
217.72	-128.571
218.09	-283.333
218.47	-128.571
218.84	200.000
219.22	-242.857
219.59	0.000
219.97	171.429
220.34	450.000
220.72	187.500
221.09	-69.231
221.47	0.000
221.84	633.333
222.22	-550.000
222.59	2300.000
222.97	-150.000
223.34	-1100.000
223.72	-466.667
224.09	-78.571
224.46	-325.000
224.84	-42.857
225.21	-328.571
225.59	-45.455
225.96	-150.000
226.34	-14.286
226.71	-222.222
227.08	-35.000
227.46	1500.000
227.83	-142.857
228.21	-275.000
228.58	1000.000
228.95	6.250
229.33	-1700.000
229.70	-200.000
230.08	-1100.000
230.45	-66.667
230.82	-250.000
231.20	-800.000
231.57	-900.000
231.95	1600.000
232.32	9.524
232.69	-166.667
233.07	-271.429
233.44	-750.000
233.81	-86.667
234.19	-111.111
234.56	-87.500
234.93	15.625
235.31	-400.000
235.68	-178.571
236.05	-5.882
236.43	-100.000
236.80	-3.226
237.17	-58.333
237.55	-109.524
237.92	-59.091
238.29	-17.143
238.67	-23.529
239.04	-16.667
239.41	-3.226
239.79	-61.538
240.16	-30.952
240.53	-23.636
240.91	-38.462
241.28	-30.909
241.65	-4.615
242.02	-24.590
242.40	-24.590
242.77	-12.121
243.14	-25.424
243.51	-18.571
243.89	-25.316
244.26	-16.854
244.63	-8.421
245.00	-15.789
245.38	1.695
245.75	-8.850
246.12	-5.600
246.49	-13.386
246.87	-9.756
247.24	-27.119
247.61	-16.102
247.98	-16.901
248.36	-15.385
248.73	-9.494
249.10	-7.006
249.47	-5.263
249.84	-6.250
250.22	-14.286
250.59	-3.955
250.96	-3.141
251.33	-3.318
251.70	-6.250
252.08	-5.687
252.45	-3.791
252.82	-8.571
253.19	-2.553
253.56	-6.452
253.94	-11.392
254.31	-4.721
254.68	-4.472
255.05	-10.887
255.42	-3.968
255.79	-7.885
256.16	-7.451
256.54	-3.309
256.91	-3.788
257.28	-5.495
257.65	-5.319
258.02	0.000
258.39	-2.676
258.76	-6.419
259.14	-5.247
259.51	-1.639
259.88	-3.049
260.25	-1.863
260.62	-5.788
260.99	-4.451
261.36	-3.963
261.73	-4.335
262.10	0.000
262.47	-3.989
262.85	-1.429
263.22	-1.719
263.59	-7.077
263.96	-3.188
264.33	0.542
264.70	-1.934
265.07	-3.571
265.44	-4.393
265.81	-2.842
266.18	-3.797
266.55	-2.696
266.92	-5.038
267.29	-0.969
267.66	-2.716
268.03	-2.174
268.40	-2.113
268.77	-3.855
269.14	-3.248
269.51	2.069
269.88	-4.358
270.25	-3.030
270.62	-0.686
270.99	-2.703
271.36	-0.699
271.73	-1.121
272.10	-2.288
272.47	-3.556
272.84	0.000
273.21	-4.587
273.58	-1.758
273.95	-2.193
274.32	-2.489
274.69	-1.532
275.06	-0.613
275.43	-4.241
275.80	-1.222
276.17	-0.418
276.54	0.407
276.91	-2.058
277.28	-0.609
277.65	-1.033
278.02	-1.670
278.39	-2.358
278.76	-2.590
279.13	-3.953
279.50	-2.386
279.87	-3.171
280.23	-1.012
280.60	-2.982
280.97	-2.524
281.34	-2.708
281.71	-2.115
282.08	0.806
282.45	-3.259
282.82	-2.713
283.19	-2.727
283.56	1.282
283.92	-1.413
284.29	-1.487
284.66	-3.058
285.03	-0.178
285.40	0.185
285.77	0.877
286.14	-1.625
286.51	-2.487
286.87	0.000
287.24	-1.195
287.61	-1.488
287.98	-3.293
288.35	-2.479
288.72	-1.358
289.08	-1.695
289.45	-0.673
289.82	-3.806
290.19	-1.314
290.56	-2.975
290.93	-0.795
291.29	-1.945
291.66	-2.254
292.03	-1.099
292.40	-0.602
292.77	-1.087
293.13	-1.138
293.50	-0.743
293.87	-1.227
294.24	-1.357
294.60	-3.636
294.97	0.303
295.34	-1.037
295.71	-1.935
296.08	-3.994
296.44	-2.575
296.81	0.142
297.18	0.141
297.55	-0.847
297.91	0.837
298.28	-1.370
298.65	-1.813
299.02	-0.134
299.38	-1.604
299.75	-0.815
300.12	-0.769
300.48	-1.918
300.85	-0.655
301.22	-0.776
301.59	-0.910
301.95	-0.630
302.32	-2.086
302.69	-0.612
303.05	0.611
303.42	-0.625
303.79	-1.435
304.15	0.829
304.52	0.350
304.89	-0.826
305.25	-1.587
305.62	-0.823
305.99	0.118
306.35	-0.444
306.72	-2.278
307.09	-1.135
307.45	-0.795
307.82	-1.006
308.19	-0.895
308.55	-1.307
308.92	-1.396
309.29	-1.189
309.65	-0.636
310.02	-0.108
310.38	-1.730
310.75	-0.410
311.12	0.826
311.48	0.313
311.85	-0.206
312.22	0.824
312.58	0.102
312.95	-0.306
313.31	0.400
313.68	1.508
314.05	1.484
314.41	-0.905
314.78	-0.899
315.14	1.283
315.51	0.101
315.87	1.162
316.24	0.486
316.61	0.576
316.97	0.199
317.34	0.771
317.70	1.206
318.07	1.026
318.43	2.060
318.80	2.066
319.16	1.313
319.53	1.410
319.89	0.753
320.26	2.647
320.62	0.385
320.99	2.786
321.35	0.000
321.72	1.842
322.08	2.770
322.45	1.683
322.81	3.362
323.18	3.650
323.54	3.974
323.91	4.263
324.27	4.943
324.64	4.296
325.00	4.712
325.37	5.430
325.73	5.774
326.10	5.137
326.46	6.743
326.83	7.064
327.19	6.505
327.56	8.433
327.92	7.562
328.29	8.745
328.65	6.818
329.01	9.364
329.38	10.259
329.74	11.081
330.11	9.157
330.47	9.264
330.84	10.907
331.20	11.191
331.56	10.848
331.93	11.456
332.29	11.781
332.66	11.940
333.02	12.127
333.38	13.620
333.75	12.556
334.11	12.533
334.48	13.063
334.84	14.698
335.20	13.652
335.57	13.267
335.93	15.488
336.29	14.260
336.66	14.185
337.02	14.414
337.38	13.904
337.75	14.047
338.11	14.490
338.47	14.057
338.84	15.336
339.20	15.114
339.56	15.419
339.93	15.432
340.29	13.552
340.65	14.510
341.02	15.093
341.38	15.501
341.74	15.834
342.11	15.017
342.47	15.021
342.83	13.602
343.20	15.969
343.56	14.449
343.92	16.110
344.28	15.559
344.65	14.686
345.01	15.714
345.37	15.282
345.73	13.339
346.10	14.800
346.46	14.947
346.82	14.836
347.19	14.626
347.55	13.884
347.91	15.118
348.27	14.956
348.63	15.751
349.00	15.036
349.36	13.739
349.72	16.322
350.08	15.237
350.45	14.657
350.81	15.446
351.17	14.630
351.53	14.479
351.89	14.632
352.26	14.574
352.62	15.899
352.98	15.111
353.34	15.028
353.70	14.595
354.07	16.129
354.43	14.941
354.79	14.897
355.15	15.016
355.51	14.609
355.87	14.308
356.24	14.774
356.60	15.068
356.96	15.473
357.32	14.964
357.68	15.249
358.04	15.473
358.40	16.396
358.77	14.760
359.13	15.226
359.49	15.042
359.85	14.558
360.21	14.764
360.57	15.964
360.93	16.519
361.29	16.069
361.66	14.787
362.02	14.497
362.38	15.334
362.74	15.678
363.10	15.638
363.46	16.524
363.82	16.108
364.18	15.991
364.54	16.512
364.90	15.723
365.26	15.478
365.62	16.750
365.98	16.643
366.35	15.845
366.71	15.997
367.07	16.090
367.43	17.021
367.79	16.426
368.15	15.505
368.51	16.853
368.87	16.964
369.23	16.912
369.59	16.944
369.95	16.984
370.31	17.511
370.67	16.269
371.03	16.764
371.39	15.205
371.75	16.810
372.11	17.432
372.47	16.631
372.83	16.620
373.19	17.214
373.55	17.171
373.91	17.354
374.27	17.591
374.63	17.391
374.99	18.428
375.35	17.362
375.71	18.366
376.07	17.454
376.42	16.821
376.78	17.974
377.14	18.780
377.50	18.504
377.86	18.205
378.22	19.095
378.58	18.406
378.94	18.372
379.30	19.196
379.66	18.701
380.02	18.657
380.38	18.973
380.74	18.757
381.09	19.274
381.45	19.809
381.81	18.996
382.17	19.173
382.53	19.149
382.89	20.215
383.25	19.567
383.61	20.342
383.97	20.637
384.32	20.401
384.68	19.891
385.04	20.169
385.40	19.294
385.76	20.000
386.12	20.550
386.48	20.297
386.83	20.491
387.19	20.921
387.55	21.139
387.91	20.273
388.27	19.481
388.62	21.454
388.98	20.715
389.34	20.747
389.70	21.011
390.06	20.696
390.42	21.859
390.77	21.325
391.13	21.615
391.49	21.148
391.85	20.636
392.20	20.570
392.56	21.319
392.92	21.734
393.28	21.412
393.64	21.227
393.99	22.215
394.35	21.168
394.71	21.001
395.07	22.285
395.42	20.739
395.78	20.553
396.14	22.305
396.50	21.590
396.85	22.209
397.21	21.142
397.57	21.945
397.92	22.424
398.28	21.667
398.64	21.237
399.00	21.798
399.35	21.251
399.71	22.242
400.07	21.791
400.42	21.898
400.78	21.646
401.14	21.437
401.49	21.639
401.85	22.453
402.21	21.454
402.57	21.359
402.92	21.460
403.28	21.262
403.63	21.150
403.99	20.758
404.35	21.256
404.70	21.416
405.06	21.569
405.42	20.849
405.77	21.324
406.13	20.500
406.49	20.731
406.84	21.176
407.20	21.849
407.55	20.456
407.91	19.883
408.27	22.304
408.62	19.904
408.98	20.800
409.34	20.963
409.69	21.235
410.05	20.861
410.40	20.233
410.76	21.873
411.11	21.509
411.47	21.292
411.83	20.844
412.18	20.978
412.54	21.843
412.89	21.993
413.25	19.362
413.60	20.778
413.96	20.209
414.31	21.957
414.67	20.762
415.03	20.828
415.38	21.535
415.74	20.747
416.09	21.164
416.45	20.040
416.80	21.456
417.16	20.864
417.51	21.536
417.87	21.294
418.22	21.176
418.58	21.759
418.93	21.091
419.29	20.891
419.64	21.106
420.00	21.507
420.35	20.698
420.71	21.309
421.06	22.130
421.42	20.960
421.77	21.273
422.12	21.600
422.48	21.700
422.83	22.380
423.19	21.604
423.54	21.787
423.90	21.689
424.25	21.719
424.61	22.376
424.96	22.762
425.31	21.968
425.67	21.547
426.02	21.285
426.38	21.960
426.73	22.326
427.09	22.488
427.44	21.648
427.79	21.453
428.15	21.843
428.50	22.757
428.85	22.962
429.21	23.022
429.56	23.542
429.92	22.996
430.27	21.934
430.62	22.675
430.98	22.426
431.33	23.212
431.68	23.485
432.04	22.888
432.39	23.476
432.74	23.321
433.10	22.566
433.45	22.740
433.80	23.180
434.16	23.643
434.51	23.616
434.86	23.550
435.22	23.552
435.57	23.256
435.92	23.681
436.28	23.086
436.63	23.855
436.98	22.566
437.34	23.627
437.69	22.929
438.04	24.050
438.39	24.368
438.75	22.759
439.10	23.542
439.45	23.476
439.81	23.434
440.16	23.623
440.51	24.588
440.86	24.349
441.22	23.328
441.57	24.316
441.92	23.939
442.27	24.675
442.63	24.088
442.98	23.533
443.33	24.163
443.68	24.023
444.03	24.607
444.39	24.229
444.74	24.835
445.09	24.123
445.44	24.817
445.79	24.885
446.15	24.370
446.50	23.680
446.85	24.628
447.20	23.800
447.55	24.586
447.91	24.874
448.26	24.078
448.61	23.995
448.96	25.490
449.31	25.310
449.66	24.671
450.02	24.100
450.37	24.058
450.72	24.011
451.07	24.764
451.42	24.349
451.77	25.613
452.12	24.851
452.47	25.063
452.83	24.112
453.18	25.111
453.53	25.249
453.88	25.598
454.23	24.909
454.58	26.103
454.93	25.945
455.28	24.729
455.63	25.491
455.98	25.422
456.34	24.460
456.69	25.641
457.04	24.524
457.39	24.701
457.74	25.044
458.09	25.290
458.44	25.693
458.79	24.496
459.14	25.556
459.49	26.051
459.84	24.564
460.19	25.119
460.54	25.711
460.89	24.944
461.24	24.469
461.59	25.088
461.94	24.316
462.29	26.325
462.64	26.219
462.99	26.238
463.34	25.118
463.69	25.318
464.04	23.609
464.39	25.209
464.74	25.887
465.09	24.775
465.44	25.550
465.79	25.494
466.14	26.007
466.49	24.698
466.84	25.510
467.19	25.810
467.54	24.241
467.89	25.832
468.24	25.178
468.59	25.047
468.94	26.367
469.29	25.471
469.64	25.741
469.99	25.726
470.34	26.119
470.68	26.090
471.03	26.015
471.38	24.583
471.73	25.804
472.08	26.171
472.43	25.869
472.78	26.267
473.13	24.718
473.48	25.909
473.83	25.124
474.17	25.924
474.52	27.238
474.87	25.816
475.22	25.369
475.57	25.000
475.92	24.784
476.27	26.114
476.61	25.521
476.96	25.657
477.31	25.350
477.66	26.121
478.01	25.878
478.36	25.511
478.70	26.108
479.05	25.744
479.40	26.062
479.75	25.688
480.10	26.240
480.45	25.097
480.79	25.716
481.14	25.891
481.49	25.750
481.84	25.104
482.19	25.308
482.53	25.237
482.88	26.009
483.23	25.634
483.58	26.364
483.92	26.087
484.27	25.166
484.62	25.443
484.97	25.955
485.31	24.576
485.66	24.370
486.01	23.805
486.36	24.753
486.70	25.575
487.05	25.079
487.40	25.534
487.75	25.239
488.09	24.861
488.44	25.541
488.79	25.610
489.13	25.029
489.48	25.979
489.83	25.677
490.17	25.599
490.52	26.313
490.87	25.635
491.22	26.016
491.56	25.139
491.91	26.145
492.26	25.660
492.60	25.833
492.95	25.321
493.30	25.679
493.64	25.059
493.99	25.335
494.34	26.048
494.68	26.639
495.03	25.717
495.37	26.155
495.72	26.621
496.07	26.654
496.41	25.567
496.76	25.982
497.11	26.001
497.45	25.718
497.80	25.713
498.14	26.473
498.49	25.716
498.84	26.165
499.18	26.413
499.53	26.254
499.87	24.710
500.22	26.275
500.56	25.663
500.91	25.714
501.26	26.880
501.60	24.747
501.95	26.087
502.29	25.319
502.64	25.413
502.98	25.156
503.33	25.564
503.67	26.245
504.02	25.930
504.36	26.716
504.71	25.532
505.06	25.911
505.40	25.998
505.75	27.033
506.09	26.643
506.44	26.516
506.78	26.392
507.13	25.077
507.47	26.082
507.82	26.691
508.16	26.477
508.51	25.863
508.85	26.035
509.19	25.432
509.54	26.163
509.88	27.074
510.23	26.048
510.57	26.614
510.92	25.725
511.26	25.837
511.61	25.648
511.95	25.808
512.30	26.333
512.64	24.763
512.98	25.633
513.33	26.085
513.67	25.516
514.02	25.391
514.36	26.981
514.70	25.467
515.05	26.129
515.39	25.029
515.74	26.876
516.08	26.282
516.42	26.516
516.77	26.863
517.11	26.144
517.46	26.017
517.80	26.775
518.14	25.845
518.49	25.583
518.83	26.647
519.17	26.347
519.52	26.721
519.86	26.225
520.20	27.017
520.55	25.723
520.89	26.675
521.23	26.252
521.58	26.144
521.92	26.029
522.26	25.651
522.61	25.665
522.95	25.463
523.29	26.332
523.64	25.859
523.98	26.416
524.32	26.776
524.66	25.404
525.01	26.397
525.35	26.353
525.69	26.090
526.04	26.567
526.38	26.098
526.72	25.670
527.06	26.367
527.41	27.459
527.75	25.215
528.09	25.811
528.43	26.164
528.78	26.131
529.12	26.440
529.46	25.387
529.80	24.855
530.15	26.594
530.49	26.520
530.83	27.046
531.17	25.387
531.51	25.385
531.86	24.951
532.20	26.383
532.54	26.270
532.88	25.823
533.22	26.136
533.57	25.914
533.91	25.593
534.25	24.639
534.59	25.609
534.93	24.269
535.27	24.984
535.62	25.320
535.96	25.016
536.30	24.346
536.64	25.299
536.98	26.695
537.32	25.363
537.66	24.983
538.01	24.811
538.35	25.743
538.69	25.468
539.03	25.118
539.37	25.682
539.71	25.684
540.05	25.565
540.39	25.623
540.73	25.639
541.07	25.410
541.42	25.523
541.76	24.518
542.10	25.793
542.44	25.117
542.78	24.830
543.12	24.847
543.46	24.521
543.80	23.946
544.14	24.513
544.48	24.934
544.82	25.034
545.16	25.620
545.50	24.630
545.84	25.452
546.18	25.312
546.52	26.031
546.86	24.288
547.20	25.316
547.54	25.275
547.88	24.486
548.22	23.198
548.56	24.516
548.90	25.943
549.24	24.457
549.58	24.629
549.92	25.088
550.26	25.723
550.60	24.040
550.94	25.109
551.28	25.734
551.62	25.037
551.96	24.964
552.30	24.878
552.64	23.997
552.98	24.947
553.32	23.882
553.66	24.874
554.00	26.297
554.34	24.332
554.68	23.392
555.02	24.891
555.36	24.155
555.69	24.785
556.03	25.263
556.37	24.395
556.71	24.481
557.05	24.982
557.39	24.944
557.73	25.310
558.07	25.471
558.41	24.981
558.75	24.487
559.08	23.424
559.42	24.119
559.76	24.693
560.10	24.087
560.44	24.566
560.78	24.913
561.12	24.500
561.45	24.178
561.79	24.948
562.13	24.053
562.47	24.230
562.81	25.248
563.15	24.073
563.48	24.603
563.82	24.746
564.16	23.867
564.50	23.656
564.84	24.537
565.17	23.873
565.51	24.641
565.85	24.476
566.19	24.506
566.52	24.331
566.86	24.210
567.20	25.061
567.54	24.099
567.88	23.897
568.21	22.763
568.55	23.118
568.89	22.614
569.23	23.461
569.56	22.362
569.90	22.502
570.24	22.886
570.57	22.707
570.91	21.727
571.25	22.114
571.59	22.229
571.92	22.321
572.26	22.528
572.60	21.967
572.93	21.617
573.27	21.799
573.61	21.394
573.95	21.421
574.28	21.414
574.62	22.039
574.96	21.486
575.29	21.341
575.63	21.795
575.97	21.467
576.30	21.129
576.64	21.593
576.98	21.075
577.31	21.192
577.65	21.315
577.98	21.196
578.32	20.880
578.66	21.159
578.99	21.209
579.33	21.251
579.67	21.405
580.00	21.379
580.34	21.135
580.67	21.133
581.01	20.635
581.35	20.682
581.68	20.935
582.02	21.039
582.35	20.831
582.69	21.554
583.02	21.773
583.36	21.306
583.70	21.736
584.03	21.713
584.37	21.651
584.70	21.279
585.04	21.139
585.37	20.979
585.71	20.803
586.04	20.922
586.38	21.198
586.72	21.561
587.05	21.524
587.39	20.951
587.72	20.786
588.06	21.568
588.39	20.877
588.73	21.123
589.06	21.675
589.40	21.814
589.73	21.565
590.07	21.304
590.40	21.328
590.73	21.791
591.07	21.557
591.40	22.227
591.74	21.503
592.07	21.937
592.41	21.699
592.74	22.060
593.08	21.765
593.41	21.612
593.75	20.739
594.08	21.891
594.41	21.996
594.75	21.669
595.08	21.429
595.42	21.640
595.75	21.426
596.09	21.692
596.42	21.604
596.75	22.553
597.09	22.039
597.42	21.650
597.75	21.435
598.09	22.277
598.42	21.299
598.76	20.515
599.09	21.271
599.42	21.030
599.76	21.027
600.09	21.641
600.42	20.965
600.76	20.942
601.09	20.889
601.42	21.448
601.76	21.573
602.09	21.022
602.42	20.988
602.76	20.773
603.09	21.613
603.42	21.031
603.76	21.061
604.09	21.506
604.42	21.524
604.76	21.675
605.09	21.383
605.42	21.144
605.75	20.483
606.09	20.922
606.42	20.654
606.75	21.039
607.09	22.232
607.42	20.423
607.75	20.618
608.08	21.148
608.42	21.381
608.75	20.374
609.08	21.432
609.41	20.827
609.75	21.112
610.08	21.814
610.41	20.819
610.74	21.615
611.07	21.602
611.41	21.230
611.74	21.542
612.07	21.321
612.40	21.002
612.73	21.055
613.07	20.969
613.40	21.620
613.73	21.362
614.06	20.977
614.39	21.984
614.72	21.285
615.06	21.522
615.39	21.161
615.72	21.021
616.05	20.486
616.38	21.822
616.71	21.922
617.05	21.834
617.38	21.920
617.71	20.209
618.04	21.180
618.37	21.384
618.70	22.360
619.03	21.666
619.36	22.410
619.69	22.469
620.03	20.661
620.36	21.519
620.69	22.685
621.02	22.222
621.35	21.694
621.68	21.721
622.01	21.359
622.34	22.360
622.67	21.719
623.00	21.270
623.33	21.493
623.66	21.196
623.99	21.203
624.32	21.577
624.65	22.075
624.99	21.658
625.32	21.632
625.65	22.455
625.98	20.814
626.31	21.697
626.64	21.925
626.97	21.918
627.30	22.468
627.63	20.294
627.96	21.584
628.29	21.783
628.62	21.108
628.95	24.114
629.28	21.241
629.61	20.805
629.94	21.928
630.26	22.266
630.59	24.322
630.92	23.924
631.25	23.387
631.58	21.693
631.91	21.702
632.24	23.111
