SpectraSuite Data File
++++++++++++++++++++++++++++++++++++
Date: Sat May 16 11:07:13 PDT 2015
User: schluterlab
Dark Spectrum Present: Yes
Reference Spectrum Present: Yes
Number of Sampled Component Spectra: 1
Spectrometers: USB2E3373
Integration Time (usec): 3000 (USB2E3373)
Spectra Averaged: 3 (USB2E3373)
Boxcar Smoothing: 0 (USB2E3373)
Correct for Electrical Dark: No (USB2E3373)
Strobe/Lamp Enabled: No (USB2E3373)
Correct for Detector Non-linearity: No (USB2E3373)
Correct for Stray Light: No (USB2E3373)
Number of Pixels in Processed Spectrum: 2048
>>>>>Begin Processed Spectral Data<<<<<
178.53	0.000
178.91	33.333
179.29	-133.333
179.67	-700.000
180.04	38.462
180.42	-400.000
180.80	175.000
181.18	-100.000
181.56	50.000
181.94	400.000
182.31	125.000
182.69	84.615
183.07	33.333
183.45	300.000
183.83	-200.000
184.20	28.571
184.58	-25.000
184.96	125.000
185.34	93.750
185.72	-200.000
186.09	16.667
186.47	75.000
186.85	0.000
187.23	100.000
187.61	-25.000
187.98	-50.000
188.36	0.000
188.74	187.500
189.12	300.000
189.49	171.429
189.87	0.000
190.25	50.000
190.63	-14.286
191.00	-55.556
191.38	240.000
191.76	53.333
192.14	220.000
192.51	-60.000
192.89	100.000
193.27	0.000
193.65	11.111
194.02	-85.714
194.40	300.000
194.78	-30.000
195.15	1000.000
195.53	36.364
195.91	-66.667
196.29	-0.000
196.66	166.667
197.04	800.000
197.42	0.000
197.79	26.667
198.17	333.333
198.55	-100.000
198.92	-100.000
199.30	12.500
199.68	400.000
200.05	100.000
200.43	-100.000
200.81	300.000
201.18	33.333
201.56	14.286
201.94	0.000
202.31	95.455
202.69	50.000
203.07	100.000
203.44	166.667
203.82	-50.000
204.19	-200.000
204.57	25.000
204.95	500.000
205.32	62.500
205.70	-0.000
206.08	-100.000
206.45	38.889
206.83	200.000
207.20	550.000
207.58	-400.000
207.96	-100.000
208.33	-37.500
208.71	33.333
209.08	40.000
209.46	28.571
209.84	750.000
210.21	0.000
210.59	90.000
210.96	100.000
211.34	-16.667
211.71	0.000
212.09	175.000
212.46	700.000
212.84	-1200.000
213.22	300.000
213.59	83.333
213.97	44.444
214.34	80.000
214.72	60.000
215.09	100.000
215.47	133.333
215.84	40.000
216.22	-90.000
216.59	113.333
216.97	0.000
217.34	-50.000
217.72	-28.571
218.09	-33.333
218.47	-142.857
218.84	85.714
219.22	157.143
219.59	0.000
219.97	114.286
220.34	250.000
220.72	87.500
221.09	84.615
221.47	0.000
221.84	-133.333
222.22	350.000
222.59	-900.000
222.97	25.000
223.34	150.000
223.72	66.667
224.09	-21.429
224.46	125.000
224.84	14.286
225.21	-157.143
225.59	45.455
225.96	75.000
226.34	57.143
226.71	22.222
227.08	65.000
227.46	200.000
227.83	-71.429
228.21	-100.000
228.58	-450.000
228.95	-18.750
229.33	-700.000
229.70	-60.000
230.08	-200.000
230.45	75.000
230.82	-33.333
231.20	400.000
231.57	150.000
231.95	-100.000
232.32	61.905
232.69	-33.333
233.07	-114.286
233.44	0.000
233.81	86.667
234.19	55.556
234.56	56.250
234.93	56.250
235.31	-100.000
235.68	-35.714
236.05	47.059
236.43	31.818
236.80	16.129
237.17	29.167
237.55	52.381
237.92	-36.364
238.29	28.571
238.67	29.412
239.04	19.444
239.41	22.581
239.79	-5.128
240.16	30.952
240.53	14.545
240.91	33.333
241.28	21.818
241.65	47.692
242.02	31.148
242.40	4.918
242.77	21.212
243.14	23.729
243.51	21.429
243.89	12.658
244.26	19.101
244.63	29.474
245.00	22.105
245.38	26.271
245.75	27.434
246.12	24.800
246.49	18.898
246.87	8.943
247.24	18.644
247.61	13.559
247.98	15.493
248.36	14.685
248.73	21.519
249.10	24.204
249.47	21.053
249.84	25.568
250.22	20.238
250.59	20.904
250.96	18.325
251.33	23.223
251.70	21.635
252.08	18.957
252.45	15.166
252.82	20.000
253.19	20.851
253.56	20.565
253.94	20.253
254.31	19.742
254.68	19.106
255.05	17.742
255.42	23.016
255.79	21.505
256.16	21.569
256.54	24.265
256.91	17.803
257.28	19.780
257.65	21.986
258.02	23.899
258.39	20.401
258.76	21.622
259.14	21.605
259.51	23.934
259.88	21.341
260.25	23.292
260.62	19.293
260.99	15.727
261.36	20.427
261.73	20.520
262.10	19.167
262.47	22.792
262.85	20.286
263.22	20.057
263.59	20.308
263.96	22.899
264.33	22.222
264.70	22.652
265.07	20.055
265.44	18.088
265.81	21.705
266.18	21.772
266.55	20.833
266.92	23.929
267.29	21.550
267.66	21.235
268.03	25.604
268.40	21.127
268.77	23.855
269.14	17.169
269.51	21.609
269.88	19.495
270.25	18.415
270.62	20.595
270.99	22.523
271.36	18.881
271.73	18.610
272.10	20.595
272.47	19.778
272.84	21.778
273.21	21.330
273.58	21.978
273.95	17.325
274.32	21.267
274.69	22.319
275.06	22.290
275.43	19.420
275.80	23.014
276.17	21.548
276.54	20.774
276.91	20.165
277.28	21.907
277.65	20.248
278.02	21.294
278.39	21.415
278.76	21.315
279.13	21.344
279.50	20.676
279.87	20.507
280.23	21.255
280.60	19.881
280.97	18.641
281.34	18.956
281.71	20.962
282.08	20.968
282.45	17.923
282.82	23.062
283.19	21.455
283.56	22.161
283.92	18.198
284.29	19.517
284.66	18.885
285.03	19.964
285.40	21.587
285.77	22.281
286.14	18.231
286.51	19.361
286.87	18.512
287.24	20.648
287.61	20.826
287.98	19.064
288.35	17.025
288.72	17.148
289.08	16.949
289.45	21.044
289.82	14.533
290.19	18.883
290.56	17.851
290.93	17.011
291.29	17.990
291.66	18.680
292.03	18.995
292.40	16.717
292.77	15.528
293.13	16.911
293.50	18.574
293.87	17.178
294.24	17.496
294.60	15.455
294.97	18.513
295.34	16.444
295.71	18.304
296.08	15.515
296.44	16.166
296.81	18.803
297.18	16.338
297.55	17.090
297.91	17.992
298.28	15.342
298.65	16.736
299.02	16.310
299.38	14.973
299.75	14.946
300.12	16.026
300.48	16.368
300.85	15.596
301.22	17.594
301.59	15.345
301.95	15.869
302.32	13.820
302.69	15.422
303.05	14.896
303.42	14.750
303.79	14.713
304.15	14.218
304.52	16.336
304.89	14.640
305.25	13.309
305.62	14.689
305.99	16.726
306.35	15.427
306.72	13.667
307.09	16.232
307.45	15.096
307.82	13.073
308.19	16.667
308.55	14.379
308.92	13.749
309.29	14.378
309.65	15.270
310.02	16.523
310.38	12.324
310.75	15.676
311.12	14.463
311.48	15.449
311.85	14.521
312.22	16.375
312.58	14.954
312.95	15.087
313.31	16.883
313.68	15.377
314.05	15.727
314.41	13.984
314.78	13.886
315.14	15.795
315.51	15.907
315.87	14.618
316.24	14.869
316.61	14.971
316.97	15.721
317.34	16.859
317.70	15.584
318.07	16.604
318.43	15.730
318.80	16.526
319.16	14.822
319.53	14.850
319.89	16.087
320.26	16.961
320.62	15.192
320.99	16.915
321.35	14.975
321.72	14.944
322.08	17.211
322.45	15.842
322.81	15.562
323.18	17.003
323.54	14.972
323.91	16.960
324.27	17.205
324.64	17.093
325.00	16.056
325.37	17.738
325.73	18.635
326.10	15.412
326.46	16.462
326.83	17.447
327.19	17.515
327.56	18.654
327.92	17.672
328.29	16.970
328.65	17.182
329.01	17.138
329.38	16.949
329.74	17.491
330.11	17.588
330.47	18.347
330.84	17.874
331.20	17.419
331.56	17.229
331.93	16.874
332.29	18.813
332.66	17.559
333.02	17.828
333.38	17.025
333.75	18.611
334.11	17.689
334.48	15.975
334.84	17.148
335.20	17.908
335.57	17.690
335.93	18.979
336.29	17.626
336.66	16.476
337.02	18.378
337.38	17.112
337.75	17.647
338.11	17.531
338.47	17.972
338.84	17.604
339.20	17.223
339.56	17.380
339.93	17.725
340.29	16.386
340.65	16.084
341.02	17.454
341.38	17.102
341.74	17.782
342.11	17.321
342.47	17.597
342.83	17.464
343.20	17.336
343.56	17.796
343.92	17.947
344.28	17.914
344.65	16.914
345.01	18.992
345.37	18.854
345.73	16.858
346.10	15.699
346.46	16.572
346.82	16.520
347.19	16.845
347.55	17.095
347.91	17.559
348.27	17.263
348.63	18.094
349.00	17.582
349.36	15.691
349.72	17.516
350.08	17.001
350.45	17.730
350.81	17.596
351.17	16.399
351.53	16.309
351.89	18.351
352.26	17.054
352.62	18.049
352.98	16.218
353.34	17.346
353.70	16.139
354.07	17.703
354.43	16.838
354.79	18.146
355.15	16.933
355.51	16.719
355.87	16.364
356.24	17.554
356.60	17.808
356.96	17.167
357.32	17.498
357.68	16.628
358.04	17.706
358.40	17.247
358.77	17.388
359.13	17.215
359.49	17.385
359.85	17.530
360.21	17.123
360.57	17.319
360.93	18.444
361.29	17.862
361.66	16.463
362.02	17.234
362.38	17.755
362.74	16.484
363.10	17.073
363.46	18.376
363.82	17.128
364.18	17.077
364.54	18.799
364.90	16.771
365.26	16.334
365.62	17.962
365.98	19.203
366.35	17.394
366.71	17.054
367.07	18.207
367.43	19.423
367.79	17.388
368.15	17.070
368.51	18.112
368.87	18.201
369.23	17.965
369.59	17.569
369.95	18.182
370.31	18.495
370.67	17.137
371.03	18.878
371.39	17.893
371.75	18.240
372.11	17.647
372.47	18.149
372.83	18.846
373.19	18.357
373.55	20.056
373.91	18.350
374.27	18.891
374.63	18.288
374.99	18.498
375.35	17.900
375.71	18.569
376.07	18.754
376.42	18.477
376.78	19.085
377.14	18.508
377.50	18.440
377.86	19.441
378.22	18.844
378.58	19.518
378.94	18.496
379.30	19.683
379.66	18.883
380.02	18.954
380.38	19.456
380.74	18.113
381.09	18.864
381.45	18.854
381.81	17.846
382.17	19.236
382.53	18.176
382.89	19.438
383.25	19.928
383.61	19.281
383.97	19.535
384.32	19.587
384.68	20.073
385.04	18.297
385.40	19.355
385.76	19.573
386.12	19.113
386.48	20.050
386.83	20.368
387.19	19.127
387.55	19.685
387.91	19.798
388.27	18.335
388.62	20.433
388.98	18.958
389.34	19.829
389.70	19.062
390.06	19.950
390.42	20.000
390.77	19.874
391.13	19.752
391.49	20.150
391.85	20.324
392.20	19.053
392.56	19.365
392.92	19.566
393.28	20.321
393.64	19.844
393.99	19.938
394.35	19.769
394.71	19.456
395.07	20.590
395.42	18.892
395.78	20.113
396.14	20.748
396.50	19.939
396.85	20.913
397.21	20.535
397.57	19.757
397.92	20.316
398.28	20.278
398.64	20.167
399.00	21.292
399.35	19.222
399.71	21.138
400.07	20.000
400.42	20.377
400.78	20.155
401.14	20.778
401.49	19.929
401.85	20.012
402.21	20.203
402.57	20.024
402.92	20.894
403.28	19.792
403.63	20.312
403.99	20.323
404.35	20.652
404.70	20.070
405.06	20.761
405.42	20.172
405.77	20.928
406.13	20.443
406.49	20.791
406.84	20.696
407.20	20.612
407.55	20.139
407.91	20.661
408.27	22.365
408.62	21.708
408.98	20.800
409.34	20.536
409.69	21.487
410.05	21.528
410.40	20.785
410.76	20.984
411.11	21.509
411.47	21.483
411.83	21.027
412.18	21.473
412.54	20.317
412.89	20.049
413.25	21.429
413.60	20.474
413.96	20.579
414.31	21.651
414.67	21.016
415.03	21.992
415.38	22.056
415.74	21.521
416.09	20.908
416.45	20.370
416.80	21.196
417.16	21.063
417.51	22.259
417.87	21.230
418.22	22.630
418.58	21.117
418.93	21.766
419.29	21.957
419.64	21.231
420.00	21.628
420.35	21.289
420.71	21.309
421.06	21.953
421.42	20.550
421.77	21.329
422.12	20.929
422.48	21.219
422.83	21.811
423.19	21.492
423.54	21.729
423.90	22.094
424.25	22.342
424.61	22.738
424.96	22.762
425.31	21.912
425.67	22.464
426.02	20.941
426.38	22.505
426.73	21.742
427.09	22.610
427.44	22.784
427.79	22.151
428.15	22.501
428.50	21.701
428.85	23.022
429.21	22.468
429.56	23.490
429.92	22.395
430.27	22.283
430.62	22.309
430.98	22.060
431.33	23.052
431.68	22.949
432.04	23.279
432.39	23.362
432.74	22.482
433.10	22.228
433.45	22.280
433.80	22.564
434.16	22.461
434.51	23.288
434.86	22.671
435.22	22.996
435.57	23.011
435.92	23.271
436.28	23.323
436.63	23.403
436.98	22.509
437.34	22.800
437.69	23.454
438.04	23.029
438.39	23.285
438.75	23.108
439.10	23.431
439.45	23.537
439.81	23.675
440.16	23.339
440.51	24.412
440.86	22.903
441.22	22.664
441.57	23.632
441.92	24.348
442.27	24.026
442.63	23.283
442.98	22.799
443.33	23.449
443.68	24.231
444.03	23.183
444.39	23.691
444.74	23.568
445.09	23.410
445.44	24.198
445.79	23.100
446.15	23.932
446.50	23.081
446.85	24.064
447.20	24.515
447.55	24.530
447.91	24.144
448.26	24.134
448.61	23.486
448.96	24.706
449.31	24.464
449.66	24.041
450.02	24.432
450.37	23.768
450.72	24.294
451.07	24.513
451.42	23.854
451.77	24.536
452.12	24.374
452.47	24.055
452.83	24.461
453.18	25.300
453.53	25.435
453.88	25.299
454.23	24.849
454.58	25.482
454.93	25.378
455.28	23.964
455.63	25.184
455.98	24.578
456.34	23.316
456.69	25.391
457.04	23.970
457.39	24.821
457.74	25.399
458.09	24.478
458.44	25.462
458.79	25.168
459.14	24.643
459.49	23.860
459.84	24.283
460.19	25.239
460.54	24.864
460.89	24.776
461.24	25.562
461.59	25.088
461.94	25.016
462.29	24.598
462.64	26.021
462.99	26.037
463.34	24.578
463.69	26.018
464.04	25.073
464.39	25.149
464.74	25.296
465.09	24.474
465.44	24.873
465.79	25.437
466.14	25.662
466.49	25.907
466.84	25.390
467.19	25.499
467.54	24.937
467.89	24.538
468.24	24.941
468.59	26.109
468.94	25.981
469.29	25.861
469.64	25.876
469.99	25.523
470.34	26.319
470.68	27.544
471.03	26.497
471.38	26.458
471.73	26.084
472.08	26.037
472.43	25.483
472.78	25.200
473.13	25.977
473.48	25.909
473.83	26.365
474.17	26.178
474.52	27.558
474.87	25.699
475.22	25.959
475.57	26.556
475.92	25.864
476.27	25.086
476.61	26.366
476.96	26.272
477.31	25.673
477.66	26.453
478.01	26.688
478.36	25.511
478.70	25.467
479.05	26.393
479.40	26.321
479.75	26.045
480.10	25.843
480.45	24.807
480.79	25.716
481.14	26.493
481.49	25.218
481.84	25.844
482.19	25.902
482.53	26.373
482.88	26.578
483.23	25.399
483.58	26.688
483.92	26.183
484.27	25.255
484.62	25.788
484.97	26.306
485.31	25.568
485.66	24.782
486.01	23.548
486.36	23.954
486.70	25.021
487.05	24.520
487.40	25.294
487.75	25.126
488.09	25.108
488.44	26.049
488.79	26.353
489.13	26.132
489.48	26.713
489.83	26.332
490.17	26.687
490.52	26.993
490.87	26.189
491.22	27.277
491.56	26.481
491.91	26.718
492.26	27.170
492.60	26.403
492.95	26.559
493.30	27.108
493.64	26.375
493.99	26.577
494.34	26.857
494.68	27.434
495.03	26.338
495.37	26.549
495.72	26.719
496.07	27.593
496.41	27.142
496.76	26.667
497.11	26.613
497.45	27.395
497.80	26.713
498.14	26.424
498.49	25.716
498.84	26.359
499.18	26.852
499.53	28.008
499.87	26.496
500.22	27.402
500.56	26.863
500.91	27.143
501.26	27.608
501.60	25.951
501.95	27.053
502.29	27.161
502.64	27.487
502.98	26.785
503.33	27.303
503.67	26.724
504.02	27.185
504.36	27.255
504.71	26.697
505.06	26.161
505.40	28.293
505.75	27.134
506.09	28.210
506.44	27.820
506.78	27.496
507.13	26.622
507.47	28.117
507.82	27.362
508.16	28.446
508.51	27.563
508.85	27.795
509.19	27.002
509.54	27.643
509.88	28.085
510.23	28.302
510.57	28.571
510.92	29.108
511.26	28.761
511.61	27.808
511.95	28.394
512.30	28.202
512.64	27.435
512.98	28.878
513.33	28.885
513.67	28.308
514.02	28.859
514.36	28.366
514.70	28.636
515.05	29.102
515.39	28.662
515.74	29.785
516.08	29.395
516.42	28.839
516.77	29.405
517.11	28.318
517.46	28.828
517.80	28.821
518.14	28.563
518.49	29.289
518.83	29.911
519.17	29.663
519.52	28.571
519.86	29.510
520.20	29.462
520.55	28.738
520.89	29.555
521.23	30.159
521.58	30.470
521.92	30.082
522.26	29.905
522.61	30.038
522.95	29.036
523.29	29.216
523.64	29.357
523.98	30.045
524.32	30.358
524.66	29.689
525.01	29.929
525.35	29.897
525.69	31.034
526.04	29.634
526.38	31.190
526.72	29.374
527.06	29.622
527.41	30.495
527.75	29.967
528.09	29.848
528.43	30.230
528.78	29.523
529.12	29.641
529.46	29.897
529.80	30.342
530.15	30.844
530.49	30.013
530.83	31.696
531.17	30.370
531.51	29.806
531.86	30.546
532.20	29.487
532.54	30.615
532.88	30.501
533.22	30.013
533.57	30.744
533.91	29.213
534.25	29.730
534.59	29.731
534.93	29.745
535.27	30.334
535.62	30.882
535.96	30.769
536.30	28.599
536.64	30.412
536.98	30.720
537.32	30.753
537.66	31.093
538.01	31.065
538.35	30.541
538.69	30.147
539.03	31.077
539.37	30.007
539.71	29.887
540.05	30.158
540.39	30.402
540.73	30.546
541.07	30.464
541.42	30.115
541.76	29.435
542.10	30.925
542.44	30.247
542.78	31.140
543.12	30.007
543.46	30.137
543.80	29.498
544.14	29.617
544.48	30.906
544.82	29.499
545.16	30.516
545.50	29.273
545.84	31.085
546.18	31.137
546.52	30.299
546.86	30.271
547.20	31.294
547.54	29.339
547.88	29.662
548.22	29.489
548.56	30.394
548.90	30.863
549.24	30.203
549.58	30.134
549.92	30.247
550.26	30.708
550.60	30.014
550.94	30.730
551.28	31.452
551.62	30.355
551.96	30.897
552.30	30.523
552.64	30.331
552.98	30.484
553.32	30.592
553.66	30.786
554.00	32.267
554.34	29.242
554.68	29.971
555.02	31.331
555.36	31.776
555.69	30.444
556.03	30.877
556.37	30.939
556.71	30.565
557.05	30.746
557.39	30.290
557.73	30.780
558.07	31.047
558.41	30.441
558.75	32.471
559.08	29.105
559.42	30.628
559.76	30.521
560.10	31.544
560.44	31.286
560.78	30.550
561.12	30.435
561.45	30.616
561.79	31.498
562.13	30.715
562.47	30.882
562.81	30.764
563.15	30.721
563.48	29.578
563.82	30.696
564.16	30.629
564.50	30.444
564.84	30.886
565.17	30.703
565.51	30.508
565.85	30.832
566.19	29.974
566.52	30.267
566.86	30.152
567.20	30.932
567.54	30.242
567.88	28.867
568.21	29.306
568.55	29.109
568.89	28.380
569.23	28.459
569.56	27.785
569.90	27.773
570.24	27.959
570.57	27.452
570.91	27.576
571.25	27.951
571.59	27.630
571.92	27.054
572.26	27.172
572.60	26.683
572.93	27.346
573.27	27.073
573.61	26.470
573.95	26.583
574.28	26.877
574.62	26.995
574.96	26.620
575.29	25.940
575.63	26.546
575.97	26.753
576.30	26.911
576.64	26.945
576.98	26.151
577.31	26.508
577.65	26.571
577.98	26.178
578.32	26.521
578.66	26.465
578.99	26.941
579.33	26.325
579.67	26.985
580.00	26.290
580.34	26.957
580.67	27.139
581.01	26.165
581.35	26.341
581.68	26.450
582.02	26.198
582.35	26.440
582.69	26.766
583.02	26.768
583.36	26.263
583.70	26.984
584.03	27.047
584.37	26.820
584.70	27.861
585.04	27.038
585.37	26.396
585.71	27.068
586.04	26.976
586.38	26.677
586.72	26.917
587.05	27.414
587.39	27.315
587.72	26.838
588.06	26.905
588.39	26.801
588.73	27.972
589.06	27.590
589.40	28.100
589.73	27.514
590.07	27.458
590.40	27.122
590.73	27.869
591.07	28.115
591.40	28.553
591.74	28.801
592.07	27.973
592.41	28.535
592.74	27.902
593.08	27.532
593.41	26.974
593.75	26.970
594.08	27.534
594.41	28.725
594.75	27.105
595.08	27.744
595.42	27.565
595.75	27.600
596.09	28.211
596.42	28.191
596.75	28.245
597.09	28.629
597.42	28.241
597.75	28.654
598.09	28.333
598.42	28.679
598.76	27.824
599.09	27.545
599.42	27.682
599.76	27.822
600.09	28.130
600.42	27.953
600.76	28.286
601.09	27.535
601.42	27.503
601.76	27.882
602.09	27.935
602.42	28.313
602.76	28.085
603.09	28.508
603.42	28.566
603.76	28.321
604.09	27.994
604.42	28.018
604.76	28.565
605.09	29.250
605.42	28.280
605.75	28.331
606.09	27.688
606.42	27.943
606.75	28.982
607.09	28.672
607.42	28.653
607.75	29.095
608.08	28.739
608.42	29.186
608.75	28.131
609.08	29.274
609.41	28.899
609.75	28.620
610.08	29.020
610.41	28.723
610.74	29.062
611.07	29.716
611.41	28.038
611.74	29.357
612.07	29.860
612.40	28.571
612.73	28.648
613.07	28.674
613.40	30.104
613.73	28.447
614.06	28.446
614.39	30.158
614.72	29.385
615.06	28.696
615.39	28.866
615.72	29.006
616.05	28.216
616.38	29.367
616.71	28.829
617.05	29.493
617.38	28.483
617.71	29.177
618.04	29.006
618.37	29.623
618.70	30.183
619.03	29.587
619.36	30.867
619.69	31.299
620.03	29.959
620.36	30.169
620.69	30.151
621.02	31.126
621.35	31.694
621.68	31.311
622.01	31.715
622.34	30.978
622.67	30.000
623.00	30.528
623.33	31.119
623.66	29.468
623.99	30.301
624.32	30.580
624.65	30.464
624.99	30.097
625.32	30.539
625.65	31.779
625.98	30.360
626.31	32.953
626.64	31.297
626.97	32.449
627.30	32.170
627.63	30.484
627.96	30.809
628.29	30.974
628.62	31.614
628.95	33.465
629.28	32.613
629.61	32.188
629.94	32.609
630.26	34.195
630.59	32.462
630.92	32.833
631.25	33.266
631.58	31.534
631.91	31.170
632.24	33.111
632.57	32.556
632.90	34.483
633.23	32.944
633.56	31.813
633.89	34.670
634.22	34.947
