SpectraSuite Data File
++++++++++++++++++++++++++++++++++++
Date: Sat May 16 11:29:32 PDT 2015
User: schluterlab
Dark Spectrum Present: Yes
Reference Spectrum Present: Yes
Number of Sampled Component Spectra: 1
Spectrometers: USB2E3373
Integration Time (usec): 3000 (USB2E3373)
Spectra Averaged: 3 (USB2E3373)
Boxcar Smoothing: 0 (USB2E3373)
Correct for Electrical Dark: No (USB2E3373)
Strobe/Lamp Enabled: No (USB2E3373)
Correct for Detector Non-linearity: No (USB2E3373)
Correct for Stray Light: No (USB2E3373)
Number of Pixels in Processed Spectrum: 2048
>>>>>Begin Processed Spectral Data<<<<<
178.53	0.000
178.91	180.000
179.29	433.333
179.67	-1600.000
180.04	-61.538
180.42	600.000
180.80	100.000
181.18	475.000
181.56	-87.500
181.94	600.000
182.31	475.000
182.69	-107.692
183.07	-533.333
183.45	1500.000
183.83	300.000
184.20	-314.286
184.58	-125.000
184.96	-550.000
185.34	75.000
185.72	-450.000
186.09	200.000
186.47	-62.500
186.85	-100.000
187.23	-62.500
187.61	-300.000
187.98	-112.500
188.36	-112.500
188.74	-150.000
189.12	400.000
189.49	414.286
189.87	-108.333
190.25	475.000
190.63	-78.571
191.00	-88.889
191.38	500.000
191.76	-80.000
192.14	420.000
192.51	-220.000
192.89	-333.333
193.27	0.000
193.65	-233.333
194.02	-157.143
194.40	800.000
194.78	-130.000
195.15	-1100.000
195.53	-118.182
195.91	-316.667
196.29	180.000
196.66	-500.000
197.04	1400.000
197.42	-225.000
197.79	-66.667
198.17	-400.000
198.55	-800.000
198.92	-900.000
199.30	262.500
199.68	-950.000
200.05	-77.778
200.43	-166.667
200.81	-1100.000
201.18	-66.667
201.56	185.714
201.94	-66.667
202.31	31.818
202.69	70.000
203.07	-10.000
203.44	533.333
203.82	-250.000
204.19	-475.000
204.57	-75.000
204.95	-500.000
205.32	-87.500
205.70	700.000
206.08	-2000.000
206.45	-16.667
206.83	-950.000
207.20	-150.000
207.58	-533.333
207.96	-700.000
208.33	-225.000
208.71	-100.000
209.08	360.000
209.46	-157.143
209.84	500.000
210.21	0.000
210.59	45.000
210.96	1000.000
211.34	-216.667
211.71	-266.667
212.09	575.000
212.46	1050.000
212.84	-2900.000
213.22	1133.333
213.59	150.000
213.97	-11.111
214.34	160.000
214.72	-70.000
215.09	-400.000
215.47	-216.667
215.84	-50.000
216.22	-30.000
216.59	0.000
216.97	-525.000
217.34	600.000
217.72	-57.143
218.09	-283.333
218.47	-342.857
218.84	200.000
219.22	-85.714
219.59	0.000
219.97	271.429
220.34	275.000
220.72	212.500
221.09	-61.538
221.47	0.000
221.84	100.000
222.22	-750.000
222.59	1600.000
222.97	-187.500
223.34	-900.000
223.72	-566.667
224.09	-142.857
224.46	-300.000
224.84	-21.429
225.21	-214.286
225.59	-63.636
225.96	-175.000
226.34	-42.857
226.71	-222.222
227.08	-10.000
227.46	1900.000
227.83	-214.286
228.21	-212.500
228.58	650.000
228.95	0.000
229.33	-1200.000
229.70	-300.000
230.08	-900.000
230.45	-83.333
230.82	-283.333
231.20	-1300.000
231.57	-700.000
231.95	1900.000
232.32	-33.333
232.69	-122.222
233.07	-257.143
233.44	-850.000
233.81	-93.333
234.19	-155.556
234.56	-31.250
234.93	34.375
235.31	-271.429
235.68	-71.429
236.05	-35.294
236.43	-31.818
236.80	-9.677
237.17	-29.167
237.55	-33.333
237.92	-68.182
238.29	-28.571
238.67	-2.941
239.04	-13.889
239.41	-19.355
239.79	-51.282
240.16	-28.571
240.53	-32.727
240.91	-10.256
241.28	3.636
241.65	6.154
242.02	-6.557
242.40	-36.066
242.77	-10.606
243.14	-23.729
243.51	-24.286
243.89	-11.392
244.26	-14.607
244.63	0.000
245.00	1.053
245.38	-2.542
245.75	2.655
246.12	-2.400
246.49	-1.575
246.87	-3.252
247.24	-6.780
247.61	-12.712
247.98	-7.042
248.36	-9.790
248.73	-1.266
249.10	-2.548
249.47	-5.263
249.84	-1.705
250.22	-6.548
250.59	-0.565
250.96	0.524
251.33	6.161
251.70	-0.962
252.08	0.948
252.45	-3.791
252.82	-6.667
253.19	-2.979
253.56	1.613
253.94	-4.219
254.31	-0.429
254.68	-3.252
255.05	0.000
255.42	3.571
255.79	0.717
256.16	-0.784
256.54	0.000
256.91	1.136
257.28	-2.564
257.65	-0.709
258.02	1.887
258.39	-1.003
258.76	-3.378
259.14	-1.543
259.51	3.607
259.88	1.220
260.25	1.242
260.62	1.608
260.99	-1.187
261.36	-1.220
261.73	-0.578
262.10	5.556
262.47	-0.855
262.85	4.857
263.22	-2.579
263.59	-1.231
263.96	0.000
264.33	2.710
264.70	1.381
265.07	0.549
265.44	2.067
265.81	0.000
266.18	-1.266
266.55	0.735
266.92	1.259
267.29	3.148
267.66	0.494
268.03	2.657
268.40	0.469
268.77	0.241
269.14	0.696
269.51	0.460
269.88	-1.835
270.25	-1.399
270.62	0.229
270.99	-0.225
271.36	-1.166
271.73	-0.673
272.10	0.915
272.47	0.222
272.84	2.000
273.21	1.835
273.58	0.879
273.95	-0.658
274.32	1.131
274.69	0.656
275.06	2.249
275.43	0.670
275.80	3.259
276.17	-1.046
276.54	1.629
276.91	1.440
277.28	1.217
277.65	1.240
278.02	2.505
278.39	3.733
278.76	2.988
279.13	0.593
279.50	0.596
279.87	1.057
280.23	2.227
280.60	0.398
280.97	0.000
281.34	0.580
281.71	0.769
282.08	2.823
282.45	-1.833
282.82	1.357
283.19	1.636
283.56	2.747
283.92	4.417
284.29	1.859
284.66	1.439
285.03	3.743
285.40	2.952
285.77	2.807
286.14	2.888
286.51	1.599
286.87	2.904
287.24	3.072
287.61	3.140
287.98	1.560
288.35	1.653
288.72	3.735
289.08	1.356
289.45	2.020
289.82	-0.173
290.19	4.269
290.56	1.818
290.93	5.405
291.29	2.593
291.66	2.415
292.03	3.140
292.40	2.560
292.77	2.329
293.13	4.390
293.50	5.052
293.87	4.601
294.24	3.469
294.60	0.455
294.97	5.615
295.34	2.222
295.71	4.613
296.08	1.690
296.44	3.433
296.81	2.707
297.18	2.958
297.55	4.237
297.91	6.695
298.28	4.110
298.65	4.324
299.02	6.818
299.38	4.947
299.75	5.027
300.12	5.641
300.48	5.243
300.85	3.408
301.22	5.692
301.59	4.941
301.95	6.549
302.32	3.520
302.69	5.508
303.05	4.762
303.42	4.250
303.79	5.024
304.15	5.924
304.52	6.534
304.89	4.959
305.25	5.250
305.62	5.993
305.99	7.185
306.35	6.437
306.72	4.784
307.09	7.832
307.45	5.789
307.82	5.251
308.19	5.705
308.55	5.991
308.92	5.156
309.29	5.189
309.65	6.045
310.02	4.752
310.38	5.405
310.75	7.172
311.12	6.198
311.48	6.576
311.85	7.106
312.22	7.312
312.58	6.816
312.95	7.747
313.31	7.293
313.68	8.141
314.05	7.221
314.41	6.640
314.78	6.893
315.14	7.305
315.51	7.801
315.87	8.325
316.24	7.775
316.61	8.637
316.97	8.856
317.34	8.767
317.70	6.957
318.07	8.396
318.43	8.521
318.80	8.357
319.16	7.692
319.53	8.365
319.89	8.937
320.26	8.039
320.62	8.077
320.99	9.353
321.35	8.079
321.72	7.369
322.08	10.485
322.45	7.129
322.81	8.549
323.18	9.606
323.54	10.444
323.91	9.917
324.27	10.361
324.64	10.146
325.00	9.948
325.37	11.312
325.73	12.598
326.10	10.717
326.46	12.084
326.83	11.745
327.19	12.427
327.56	14.055
327.92	13.509
328.29	14.113
328.65	13.182
329.01	15.018
329.38	14.362
329.74	16.941
330.11	15.866
330.47	15.531
330.84	16.774
331.20	17.419
331.56	16.317
331.93	18.117
332.29	19.635
332.66	17.647
333.02	18.462
333.38	19.444
333.75	20.303
334.11	18.311
334.48	17.387
334.84	19.773
335.20	19.415
335.57	19.134
335.93	21.755
336.29	19.043
336.66	19.824
337.02	21.261
337.38	20.232
337.75	20.281
338.11	19.946
338.47	20.907
338.84	20.962
339.20	20.123
339.56	20.766
339.93	21.076
340.29	21.346
340.65	20.542
341.02	20.995
341.38	20.893
341.74	21.507
342.11	21.160
342.47	20.601
342.83	20.403
343.20	21.520
343.56	20.571
343.92	21.703
344.28	22.960
344.65	19.554
345.01	20.252
345.37	20.432
345.73	20.622
346.10	20.114
346.46	20.959
346.82	20.369
347.19	20.624
347.55	21.669
347.91	21.024
348.27	21.639
348.63	22.052
349.00	21.718
349.36	20.141
349.72	22.134
350.08	21.091
350.45	20.095
350.81	20.621
351.17	19.855
351.53	19.491
351.89	20.291
352.26	20.853
352.62	21.275
352.98	22.073
353.34	21.343
353.70	20.618
354.07	21.951
354.43	21.581
354.79	21.791
355.15	21.805
355.51	20.234
355.87	20.079
356.24	20.890
356.60	22.482
356.96	21.786
357.32	20.744
357.68	20.230
358.04	20.939
358.40	20.804
358.77	21.175
359.13	21.500
359.49	21.769
359.85	21.494
360.21	22.070
360.57	21.687
360.93	21.778
361.29	22.347
361.66	21.265
362.02	21.228
362.38	22.010
362.74	21.978
363.10	20.301
363.46	21.937
363.82	22.376
364.18	21.708
364.54	22.802
364.90	21.803
365.26	21.612
365.62	22.452
365.98	22.760
366.35	22.254
366.71	22.269
367.07	22.018
367.43	22.375
367.79	22.612
368.15	21.835
368.51	23.077
368.87	23.352
369.23	23.018
369.59	21.736
369.95	23.115
370.31	23.418
370.67	21.330
371.03	23.105
371.39	22.702
371.75	22.318
372.11	24.103
372.47	23.500
372.83	24.131
373.19	23.857
373.55	23.153
373.91	23.186
374.27	23.614
374.63	24.293
374.99	24.200
375.35	23.486
375.71	23.903
376.07	24.914
376.42	22.252
376.78	24.706
377.14	24.271
377.50	23.985
377.86	24.772
378.22	24.812
378.58	23.780
378.94	24.908
379.30	24.619
379.66	24.408
380.02	24.005
380.38	24.471
380.74	25.205
381.09	26.011
381.45	26.372
381.81	25.771
382.17	24.937
382.53	25.167
382.89	26.615
383.25	26.430
383.61	26.120
383.97	26.577
384.32	26.721
384.68	26.663
385.04	26.570
385.40	26.537
385.76	26.037
386.12	25.734
386.48	27.228
386.83	26.994
387.19	27.197
387.55	27.680
387.91	27.504
388.27	26.417
388.62	26.863
388.98	27.075
389.34	26.622
389.70	26.857
390.06	27.160
390.42	28.782
390.77	27.508
391.13	27.516
391.49	28.946
391.85	27.868
392.20	26.942
392.56	26.940
392.92	27.724
393.28	28.473
393.64	28.743
393.99	28.862
394.35	28.041
394.71	27.671
395.07	28.186
395.42	27.592
395.78	27.907
396.14	28.474
396.50	27.829
396.85	28.439
397.21	28.007
397.57	28.146
397.92	28.162
398.28	28.222
398.64	28.911
399.00	28.652
399.35	28.410
399.71	28.746
400.07	28.299
400.42	29.440
400.78	28.086
401.14	27.246
401.49	28.715
401.85	28.371
402.21	28.605
402.57	29.248
402.92	29.138
403.28	27.512
403.63	27.861
403.99	28.154
404.35	26.630
404.70	28.672
405.06	27.509
405.42	28.290
405.77	28.111
406.13	27.825
406.49	28.520
406.84	27.894
407.20	28.092
407.55	27.866
407.91	26.943
408.27	29.289
408.62	27.661
408.98	27.714
409.34	28.215
409.69	27.473
410.05	27.956
410.40	28.326
410.76	27.860
411.11	27.618
411.47	28.005
411.83	28.301
412.18	27.413
412.54	27.822
412.89	28.433
413.25	27.391
413.60	27.521
413.96	27.603
414.31	28.563
414.67	27.365
415.03	28.137
415.38	27.912
415.74	28.544
416.09	29.028
416.45	26.587
416.80	27.633
417.16	28.439
417.51	29.350
417.87	28.220
418.22	28.508
418.58	28.049
418.93	28.449
419.29	27.729
419.64	27.764
420.00	28.311
420.35	28.149
420.71	29.712
421.06	29.467
421.42	27.869
421.77	29.202
422.12	28.931
422.48	28.541
422.83	28.759
423.19	29.454
423.54	29.337
423.90	28.745
424.25	30.090
424.61	29.855
424.96	30.486
425.31	29.681
425.67	29.570
426.02	29.375
426.38	30.067
426.73	29.398
427.09	29.779
427.44	30.966
427.79	30.000
428.15	29.384
428.50	29.501
428.85	30.516
429.21	30.493
429.56	29.792
429.92	30.711
430.27	30.359
430.62	30.721
430.98	31.312
431.33	30.683
431.68	31.582
432.04	30.386
432.39	30.541
432.74	31.055
433.10	31.120
433.45	30.685
433.80	30.459
434.16	31.650
434.51	30.959
434.86	32.396
435.22	31.125
435.57	31.151
435.92	31.243
436.28	31.217
436.63	31.374
436.98	30.412
437.34	30.419
437.69	31.097
438.04	32.104
438.39	32.431
438.75	30.792
439.10	31.205
439.45	31.804
439.81	31.205
440.16	31.630
440.51	31.647
440.86	32.157
441.22	31.233
441.57	31.211
441.92	32.430
442.27	31.818
442.63	32.082
442.98	31.151
443.33	30.423
443.68	32.361
444.03	31.582
444.39	31.375
444.74	32.104
445.09	31.634
445.44	31.851
445.79	32.228
446.15	31.763
446.50	32.444
446.85	32.324
447.20	32.074
447.55	32.044
447.91	32.791
448.26	31.453
448.61	32.428
448.96	33.165
449.31	31.680
449.66	33.371
450.02	32.188
450.37	31.826
450.72	31.977
451.07	32.558
451.42	31.537
451.77	32.795
452.12	32.420
452.47	33.186
452.83	33.023
453.18	33.397
453.53	33.271
453.88	34.151
454.23	32.044
454.58	33.810
454.93	33.186
455.28	32.122
455.63	32.555
455.98	32.771
456.34	32.656
456.69	33.333
457.04	32.883
457.39	33.553
457.74	33.136
458.09	34.281
458.44	33.372
458.79	32.511
459.14	33.086
459.49	33.274
459.84	33.614
460.19	33.652
460.54	33.999
460.89	32.175
461.24	32.483
461.59	33.177
461.94	34.118
462.29	33.532
462.64	33.597
462.99	34.070
463.34	33.221
463.69	33.715
464.04	33.040
464.39	33.035
464.74	33.156
465.09	32.171
465.44	32.826
465.79	33.897
466.14	33.487
466.49	33.736
466.84	32.893
467.19	33.541
467.54	32.342
467.89	34.895
468.24	33.610
468.59	33.479
468.94	35.048
469.29	33.008
469.64	33.962
469.99	35.111
470.34	33.868
470.68	33.503
471.03	33.999
471.38	33.264
471.73	34.336
472.08	33.601
472.43	32.690
472.78	34.067
473.13	33.068
473.48	34.525
473.83	34.119
474.17	33.885
474.52	34.847
474.87	34.557
475.22	33.156
475.57	33.500
475.92	34.773
476.27	34.000
476.61	33.972
476.96	35.215
477.31	34.499
477.66	33.702
478.01	34.738
478.36	33.421
478.70	34.544
479.05	34.397
479.40	34.715
479.75	33.945
480.10	33.978
480.45	33.269
480.79	33.712
481.14	34.621
481.49	34.318
481.84	34.674
482.19	34.079
482.53	33.759
482.88	34.789
483.23	34.131
483.58	34.736
483.92	33.970
484.27	33.141
484.62	33.909
484.97	33.905
485.31	33.248
485.66	32.279
486.01	33.235
486.36	33.588
486.70	34.696
487.05	33.714
487.40	33.574
487.75	34.110
488.09	33.385
488.44	33.694
488.79	33.852
489.13	34.310
489.48	35.073
489.83	34.410
490.17	34.306
490.52	34.828
490.87	34.550
491.22	34.844
491.56	35.278
491.91	34.971
492.26	34.906
492.60	35.109
492.95	35.317
493.30	34.207
493.64	35.214
493.99	35.134
494.34	35.762
494.68	35.768
495.03	35.373
495.37	35.497
495.72	35.216
496.07	35.242
496.41	35.757
496.76	34.749
497.11	35.374
497.45	35.632
497.80	36.168
498.14	35.413
498.49	35.510
498.84	34.612
499.18	35.916
499.53	35.460
499.87	34.894
500.22	34.510
500.56	35.968
500.91	35.123
501.26	36.633
501.60	34.714
501.95	36.329
502.29	35.002
502.64	35.879
502.98	35.458
503.33	35.714
503.67	35.489
504.02	34.959
504.36	35.833
504.71	35.056
505.06	34.948
505.40	36.377
505.75	35.569
506.09	36.451
506.44	36.241
506.78	35.926
507.13	35.324
507.47	36.359
507.82	35.209
508.16	36.839
508.51	36.373
508.85	36.284
509.19	36.316
509.54	35.307
509.88	36.117
510.23	35.954
510.57	36.455
510.92	36.896
511.26	35.460
511.61	35.745
511.95	35.506
512.30	35.954
512.64	35.726
512.98	36.359
513.33	36.134
513.67	36.404
514.02	35.570
514.36	36.066
514.70	36.503
515.05	35.735
515.39	37.024
515.74	37.464
516.08	36.484
516.42	36.941
516.77	38.013
517.11	36.670
517.46	36.722
517.80	37.605
518.14	36.232
518.49	37.478
518.83	37.092
519.17	37.063
519.52	35.917
519.86	37.993
520.20	36.186
520.55	37.723
520.89	36.569
521.23	38.095
521.58	36.614
521.92	37.429
522.26	36.762
522.61	37.136
522.95	35.737
523.29	37.492
523.64	36.165
523.98	37.938
524.32	37.461
524.66	36.211
525.01	37.444
525.35	37.371
525.69	38.191
526.04	37.272
526.38	38.701
526.72	36.079
527.06	38.346
527.41	37.756
527.75	36.568
528.09	36.863
528.43	36.852
528.78	36.558
529.12	38.924
529.46	37.693
529.80	36.475
530.15	37.991
530.49	37.193
530.83	38.834
531.17	38.114
531.51	36.705
531.86	37.130
532.20	36.977
532.54	37.032
532.88	36.561
533.22	38.436
533.57	38.055
533.91	36.267
534.25	36.832
534.59	36.790
534.93	37.150
535.27	36.753
535.62	37.404
535.96	37.363
536.30	36.649
536.64	37.649
536.98	38.277
537.32	36.973
537.66	36.660
538.01	38.007
538.35	37.905
538.69	37.233
539.03	36.831
539.37	37.991
539.71	36.958
540.05	38.314
540.39	37.742
540.73	38.217
541.07	37.637
541.42	35.787
541.76	37.076
542.10	37.880
542.44	37.042
542.78	37.178
543.12	37.950
543.46	36.233
543.80	36.789
544.14	37.206
544.48	37.336
544.82	36.874
545.16	37.626
545.50	37.685
545.84	37.274
546.18	36.616
546.52	36.842
546.86	37.322
547.20	38.748
547.54	36.915
547.88	37.293
548.22	35.387
548.56	37.475
548.90	38.005
549.24	36.861
549.58	36.627
549.92	36.608
550.26	37.211
550.60	36.558
550.94	37.153
551.28	37.848
551.62	37.962
551.96	36.758
552.30	36.934
552.64	37.650
552.98	38.262
553.32	38.745
553.66	37.347
554.00	37.527
554.34	36.462
554.68	37.208
555.02	36.686
555.36	37.096
555.69	36.819
556.03	36.491
556.37	37.269
556.71	37.151
557.05	37.916
557.39	38.085
557.73	37.710
558.07	37.302
558.41	37.322
558.75	38.327
559.08	36.654
559.42	37.060
559.76	37.653
560.10	37.808
560.44	36.705
560.78	37.022
561.12	37.474
561.45	38.151
561.79	37.631
562.13	36.816
562.47	36.625
562.81	37.341
563.15	37.579
563.48	37.457
563.82	38.404
564.16	36.511
564.50	37.231
564.84	37.169
565.17	36.737
565.51	37.288
565.85	37.390
566.19	37.747
566.52	37.117
566.86	36.283
567.20	37.712
567.54	37.803
567.88	35.846
568.21	36.969
568.55	36.585
568.89	35.835
569.23	36.048
569.56	35.267
569.90	35.208
570.24	35.137
570.57	33.743
570.91	34.750
571.25	34.857
571.59	34.967
571.92	34.107
572.26	33.733
572.60	34.657
572.93	34.345
573.27	33.018
573.61	33.238
573.95	33.928
574.28	33.584
574.62	33.808
574.96	33.774
575.29	33.613
575.63	34.351
575.97	33.252
576.30	34.037
576.64	33.734
576.98	33.367
577.31	33.325
577.65	33.728
577.98	32.987
578.32	33.319
578.66	33.540
578.99	33.843
579.33	33.484
579.67	33.655
580.00	33.259
580.34	33.806
580.67	33.734
581.01	32.724
581.35	33.789
581.68	32.824
582.02	33.707
582.35	33.428
582.69	33.689
583.02	33.709
583.36	33.651
583.70	34.229
584.03	33.971
584.37	34.073
584.70	33.545
585.04	32.911
585.37	33.126
585.71	33.914
586.04	34.144
586.38	33.467
586.72	33.737
587.05	33.617
587.39	33.898
587.72	33.873
588.06	33.865
588.39	33.780
588.73	34.309
589.06	34.751
589.40	34.765
589.73	34.632
590.07	34.304
590.40	35.092
590.73	35.106
591.07	34.918
591.40	35.182
591.74	35.361
592.07	34.414
592.41	34.989
592.74	34.973
593.08	34.638
593.41	34.507
593.75	33.663
594.08	34.436
594.41	34.603
594.75	34.692
595.08	33.759
595.42	34.429
595.75	34.436
596.09	35.662
596.42	34.984
596.75	35.058
597.09	35.040
597.42	34.439
597.75	34.810
598.09	35.382
598.42	34.247
598.76	34.053
599.09	33.741
599.42	33.910
599.76	34.390
600.09	34.695
600.42	34.561
600.76	34.426
601.09	34.295
601.42	34.586
601.76	34.346
602.09	33.742
602.42	35.062
602.76	34.898
603.09	34.355
603.42	34.287
603.76	35.660
604.09	35.563
604.42	34.555
604.76	34.584
605.09	36.257
605.42	35.195
605.75	34.627
606.09	34.869
606.42	34.688
606.75	34.607
607.09	35.245
607.42	34.771
607.75	35.276
608.08	35.698
608.42	34.248
608.75	35.421
609.08	34.730
609.41	35.227
609.75	34.666
610.08	35.000
610.41	35.277
610.74	35.106
611.07	35.497
611.41	34.947
611.74	35.630
612.07	35.553
612.40	35.394
612.73	35.972
613.07	35.003
613.40	35.906
613.73	35.967
614.06	34.541
614.39	36.640
614.72	35.196
615.06	35.978
615.39	34.889
615.72	35.524
616.05	35.174
616.38	35.926
616.71	35.796
617.05	36.309
617.38	36.594
617.71	35.197
618.04	35.155
618.37	35.472
618.70	36.571
619.03	35.680
619.36	35.800
619.69	37.545
620.03	36.226
620.36	36.217
620.69	36.683
621.02	37.215
621.35	37.339
621.68	37.787
622.01	36.489
622.34	37.655
622.67	35.781
623.00	37.490
623.33	36.866
623.66	36.337
623.99	36.165
624.32	35.491
624.65	36.424
624.99	36.296
625.32	36.826
625.65	36.286
625.98	37.011
626.31	37.520
626.64	36.318
626.97	37.329
627.30	36.851
627.63	37.047
627.96	38.903
628.29	38.143
628.62	36.772
628.95	39.469
629.28	38.252
629.61	36.506
629.94	37.996
630.26	38.668
630.59	36.884
630.92	38.238
631.25	39.214
631.58	37.989
631.91	38.298
632.24	39.333
632.57	39.556
632.90	39.540
633.23	39.136
633.56	38.012
633.89	39.623
634.22	38.607
634.55	40.144
634.88	39.299
635.20	38.077
