SpectraSuite Data File
++++++++++++++++++++++++++++++++++++
Date: Sat May 16 11:36:17 PDT 2015
User: schluterlab
Dark Spectrum Present: Yes
Reference Spectrum Present: Yes
Number of Sampled Component Spectra: 1
Spectrometers: USB2E3373
Integration Time (usec): 3000 (USB2E3373)
Spectra Averaged: 3 (USB2E3373)
Boxcar Smoothing: 0 (USB2E3373)
Correct for Electrical Dark: No (USB2E3373)
Strobe/Lamp Enabled: No (USB2E3373)
Correct for Detector Non-linearity: No (USB2E3373)
Correct for Stray Light: No (USB2E3373)
Number of Pixels in Processed Spectrum: 2048
>>>>>Begin Processed Spectral Data<<<<<
178.53	0.000
178.91	173.333
179.29	266.667
179.67	-1000.000
180.04	-146.154
180.42	1000.000
180.80	325.000
181.18	175.000
181.56	-112.500
181.94	1000.000
182.31	550.000
182.69	-123.077
183.07	-666.667
183.45	1200.000
183.83	966.667
184.20	-257.143
184.58	-87.500
184.96	-425.000
185.34	100.000
185.72	-600.000
186.09	366.667
186.47	-262.500
186.85	-237.500
187.23	-125.000
187.61	-300.000
187.98	-250.000
188.36	-225.000
188.74	-237.500
189.12	1500.000
189.49	171.429
189.87	-91.667
190.25	425.000
190.63	-92.857
191.00	-166.667
191.38	120.000
191.76	-20.000
192.14	420.000
192.51	-240.000
192.89	-500.000
193.27	0.000
193.65	-144.444
194.02	-171.429
194.40	666.667
194.78	-90.000
195.15	-1600.000
195.53	-90.909
195.91	-516.667
196.29	120.000
196.66	-566.667
197.04	1900.000
197.42	-225.000
197.79	-46.667
198.17	-633.333
198.55	-1300.000
198.92	-1200.000
199.30	262.500
199.68	-300.000
200.05	-188.889
200.43	-277.778
200.81	-1100.000
201.18	-75.000
201.56	342.857
201.94	-53.333
202.31	4.545
202.69	-40.000
203.07	-80.000
203.44	800.000
203.82	-516.667
204.19	-350.000
204.57	-250.000
204.95	-700.000
205.32	0.000
205.70	1600.000
206.08	-1800.000
206.45	-16.667
206.83	-1250.000
207.20	-400.000
207.58	-833.333
207.96	-566.667
208.33	-162.500
208.71	-188.889
209.08	210.000
209.46	-214.286
209.84	750.000
210.21	0.000
210.59	5.000
210.96	800.000
211.34	-183.333
211.71	-200.000
212.09	550.000
212.46	850.000
212.84	-2500.000
213.22	566.667
213.59	175.000
213.97	-44.444
214.34	220.000
214.72	-50.000
215.09	-466.667
215.47	-250.000
215.84	-150.000
216.22	-100.000
216.59	-6.667
216.97	-350.000
217.34	850.000
217.72	-71.429
218.09	-366.667
218.47	-142.857
218.84	157.143
219.22	-128.571
219.59	0.000
219.97	314.286
220.34	500.000
220.72	250.000
221.09	-100.000
221.47	0.000
221.84	700.000
222.22	-600.000
222.59	1200.000
222.97	-150.000
223.34	-1150.000
223.72	-633.333
224.09	-107.143
224.46	-600.000
224.84	-50.000
225.21	-214.286
225.59	-181.818
225.96	-212.500
226.34	-228.571
226.71	-200.000
227.08	-35.000
227.46	2100.000
227.83	-200.000
228.21	-325.000
228.58	550.000
228.95	-31.250
229.33	-2400.000
229.70	-240.000
230.08	-1200.000
230.45	-8.333
230.82	-250.000
231.20	-1300.000
231.57	-1000.000
231.95	1300.000
232.32	-9.524
232.69	-155.556
233.07	-271.429
233.44	-1500.000
233.81	-53.333
234.19	-55.556
234.56	-50.000
234.93	-28.125
235.31	-242.857
235.68	-185.714
236.05	-47.059
236.43	-77.273
236.80	-19.355
237.17	-79.167
237.55	-85.714
237.92	-86.364
238.29	-11.429
238.67	-11.765
239.04	-5.556
239.41	-41.935
239.79	-56.410
240.16	-26.190
240.53	-10.909
240.91	-35.897
241.28	-16.364
241.65	-3.077
242.02	-9.836
242.40	-18.033
242.77	-21.212
243.14	-25.424
243.51	-24.286
243.89	-10.127
244.26	-4.494
244.63	7.368
245.00	-1.053
245.38	-3.390
245.75	9.735
246.12	2.400
246.49	0.000
246.87	-4.878
247.24	-2.542
247.61	-4.237
247.98	-4.225
248.36	-0.699
248.73	5.063
249.10	-3.185
249.47	1.170
249.84	3.409
250.22	-10.714
250.59	-1.130
250.96	3.665
251.33	10.900
251.70	1.442
252.08	5.213
252.45	-0.474
252.82	4.762
253.19	2.553
253.56	7.258
253.94	0.844
254.31	2.146
254.68	8.537
255.05	0.000
255.42	7.540
255.79	2.867
256.16	5.098
256.54	3.676
256.91	2.652
257.28	2.564
257.65	5.674
258.02	10.692
258.39	4.682
258.76	1.351
259.14	3.395
259.51	9.180
259.88	3.049
260.25	9.006
260.62	0.322
260.99	2.374
261.36	8.841
261.73	5.202
262.10	7.500
262.47	9.117
262.85	10.000
263.22	1.146
263.59	4.000
263.96	5.217
264.33	6.233
264.70	6.906
265.07	1.099
265.44	6.202
265.81	6.202
266.18	3.797
266.55	7.108
266.92	6.801
267.29	6.295
267.66	4.691
268.03	7.488
268.40	7.042
268.77	8.434
269.14	4.640
269.51	6.437
269.88	5.275
270.25	6.294
270.62	6.636
270.99	6.306
271.36	7.925
271.73	7.175
272.10	7.551
272.47	4.889
272.84	7.778
273.21	7.339
273.58	8.352
273.95	6.360
274.32	7.692
274.69	8.315
275.06	8.384
275.43	5.134
275.80	9.572
276.17	6.276
276.54	9.165
276.91	5.144
277.28	5.477
277.65	7.645
278.02	6.681
278.39	7.662
278.76	4.382
279.13	7.510
279.50	7.555
279.87	5.920
280.23	7.895
280.60	5.964
280.97	6.990
281.34	6.770
281.71	7.308
282.08	9.677
282.45	2.851
282.82	6.395
283.19	7.273
283.56	9.890
283.92	7.951
284.29	5.576
284.66	9.353
285.03	8.378
285.40	8.672
285.77	8.070
286.14	6.318
286.51	7.282
286.87	7.804
287.24	7.167
287.61	7.603
287.98	6.759
288.35	6.116
288.72	5.603
289.08	6.610
289.45	6.229
289.82	6.228
290.19	8.867
290.56	5.950
290.93	6.995
291.29	6.483
291.66	5.958
292.03	6.907
292.40	8.434
292.77	5.745
293.13	6.341
293.50	8.321
293.87	7.515
294.24	7.089
294.60	5.303
294.97	8.498
295.34	4.889
295.71	5.357
296.08	4.916
296.44	5.293
296.81	6.838
297.18	6.901
297.55	7.203
297.91	8.089
298.28	5.479
298.65	6.416
299.02	6.952
299.38	7.888
299.75	5.435
300.12	7.051
300.48	7.033
300.85	5.636
301.22	6.339
301.59	6.112
301.95	8.060
302.32	4.694
302.69	6.854
303.05	4.640
303.42	6.000
303.79	7.536
304.15	6.754
304.52	7.001
304.89	5.903
305.25	5.006
305.62	6.933
305.99	6.949
306.35	8.102
306.72	5.011
307.09	6.697
307.45	5.789
307.82	5.475
308.19	6.152
308.55	5.991
308.92	4.619
309.29	6.486
309.65	7.105
310.02	7.127
310.38	5.622
310.75	6.967
311.12	6.715
311.48	6.889
311.85	7.209
312.22	5.767
312.58	7.731
312.95	6.932
313.31	6.494
313.68	7.538
314.05	7.616
314.41	5.231
314.78	5.794
315.14	7.502
315.51	6.282
315.87	6.292
316.24	7.677
316.61	7.774
316.97	6.965
317.34	6.166
317.70	7.050
318.07	7.183
318.43	7.678
318.80	6.761
319.16	6.285
319.53	7.049
319.89	6.491
320.26	6.667
320.62	6.250
320.99	7.562
321.35	6.108
321.72	6.244
322.08	7.221
322.45	6.337
322.81	6.916
323.18	6.052
323.54	6.747
323.91	7.692
324.27	6.179
324.64	5.850
325.00	6.719
325.37	8.235
325.73	8.749
326.10	5.934
326.46	6.830
326.83	6.383
327.19	7.923
327.56	7.240
327.92	7.052
328.29	7.706
328.65	6.364
329.01	7.420
329.38	6.869
329.74	7.967
330.11	6.981
330.47	5.631
330.84	7.883
331.20	7.130
331.56	6.837
331.93	6.306
332.29	6.758
332.66	7.638
333.02	8.054
333.38	7.527
333.75	7.124
334.11	6.578
334.48	6.973
334.84	7.874
335.20	7.092
335.57	7.220
335.93	7.252
336.29	6.377
336.66	6.520
337.02	7.207
337.38	7.219
337.75	5.531
338.11	6.798
338.47	7.295
338.84	5.898
339.20	6.591
339.56	7.843
339.93	6.261
340.29	6.997
340.65	6.643
341.02	6.830
341.38	7.077
341.74	7.875
342.11	7.167
342.47	6.352
342.83	5.626
343.20	7.430
343.56	6.204
343.92	7.262
344.28	8.074
344.65	7.508
345.01	6.891
345.37	7.558
345.73	6.547
346.10	6.214
346.46	6.824
346.82	7.217
347.19	7.067
347.55	7.384
347.91	7.402
348.27	7.558
348.63	7.270
349.00	7.796
349.36	6.714
349.72	7.723
350.08	7.057
350.45	6.383
350.81	7.166
351.17	6.270
351.53	6.285
351.89	7.033
352.26	6.899
352.62	8.449
352.98	7.516
353.34	6.395
353.70	6.409
354.07	6.766
354.43	7.352
354.79	7.369
355.15	6.789
355.51	6.797
355.87	6.403
356.24	7.069
356.60	8.219
356.96	6.928
357.32	6.334
357.68	7.356
358.04	7.390
358.40	7.502
358.77	7.342
359.13	6.656
359.49	7.105
359.85	6.860
360.21	7.230
360.57	7.154
360.93	7.704
361.29	7.324
361.66	5.793
362.02	6.065
362.38	8.144
362.74	7.692
363.10	7.174
363.46	7.407
363.82	7.143
364.18	7.091
364.54	7.934
364.90	7.407
365.26	6.277
365.62	8.411
365.98	7.610
366.35	6.690
366.71	6.836
367.07	6.916
367.43	8.373
367.79	7.973
368.15	5.832
368.51	7.692
368.87	7.761
369.23	7.088
369.59	6.736
369.95	7.752
370.31	8.017
370.67	6.291
371.03	7.507
371.39	7.072
371.75	7.296
372.11	7.676
372.47	7.881
372.83	7.302
373.19	5.857
373.55	7.882
373.91	6.899
374.27	6.160
374.63	8.006
374.99	8.206
375.35	7.537
375.71	8.508
376.07	6.571
376.42	6.358
376.78	7.908
377.14	7.729
377.50	7.995
377.86	7.932
378.22	6.658
378.58	6.547
378.94	7.090
379.30	7.252
379.66	7.590
380.02	7.665
380.38	7.190
380.74	7.210
381.09	7.909
381.45	7.697
381.81	7.320
382.17	6.704
382.53	6.748
382.89	7.416
383.25	7.887
383.61	7.547
383.97	8.145
384.32	7.822
384.68	8.404
385.04	7.850
385.40	7.608
385.76	8.293
386.12	7.808
386.48	8.045
386.83	6.994
387.19	8.249
387.55	8.237
387.91	7.706
388.27	6.996
388.62	7.933
388.98	7.813
389.34	8.017
389.70	7.613
390.06	7.644
390.42	7.564
390.77	7.508
391.13	8.012
391.49	7.236
391.85	8.229
392.20	7.464
392.56	7.208
392.92	8.043
393.28	8.209
393.64	7.817
393.99	8.308
394.35	8.151
394.71	8.030
395.07	7.533
395.42	6.496
395.78	7.542
396.14	8.162
396.50	7.706
396.85	7.958
397.21	8.445
397.57	7.720
397.92	7.670
398.28	7.944
398.64	8.328
399.00	8.371
399.35	7.610
399.71	8.479
400.07	8.000
400.42	8.090
400.78	8.766
401.14	7.665
401.49	6.781
401.85	7.200
402.21	7.926
402.57	8.799
402.92	7.615
403.28	8.211
403.63	7.909
403.99	7.644
404.35	8.092
404.70	8.075
405.06	8.131
405.42	6.827
405.77	7.749
406.13	7.269
406.49	8.388
406.84	6.779
407.20	8.245
407.55	8.296
407.91	8.679
408.27	7.904
408.62	8.238
408.98	8.126
409.34	7.434
409.69	7.624
410.05	7.520
410.40	8.277
410.76	7.884
411.11	8.292
411.47	7.801
411.83	8.130
412.18	7.302
412.54	7.200
412.89	7.473
413.25	7.143
413.60	7.533
413.96	8.195
414.31	8.012
414.67	7.175
415.03	8.473
415.38	8.003
415.74	8.183
416.09	8.056
416.45	8.003
416.80	8.518
417.16	7.309
417.51	8.339
417.87	8.026
418.22	7.332
418.58	8.793
418.93	7.971
419.29	8.218
419.64	7.663
420.00	8.445
420.35	7.983
420.71	7.323
421.06	8.757
421.42	7.436
421.77	7.984
422.12	8.786
422.48	7.857
422.83	8.542
423.19	8.018
423.54	7.896
423.90	8.155
424.25	8.145
424.61	8.142
424.96	9.362
425.31	8.440
425.67	7.278
426.02	7.688
426.38	8.651
426.73	8.475
427.09	7.966
427.44	9.034
427.79	8.256
428.15	8.079
428.50	8.504
428.85	8.753
429.21	8.024
429.56	8.385
429.92	8.066
430.27	8.574
430.62	8.777
430.98	7.946
431.33	8.805
431.68	8.579
432.04	8.450
432.39	9.345
432.74	8.333
433.10	8.610
433.45	7.830
433.80	8.567
434.16	8.114
434.51	8.329
434.86	9.315
435.22	8.575
435.57	7.895
435.92	9.086
436.28	8.843
436.63	7.801
436.98	8.477
437.34	8.565
437.69	8.868
438.04	8.452
438.39	9.085
438.75	8.033
439.10	9.106
439.45	7.664
439.81	8.795
440.16	8.348
440.51	8.941
440.86	8.444
441.22	8.071
441.57	8.947
441.92	8.696
442.27	8.496
442.63	8.315
442.98	8.126
443.33	9.445
443.68	8.442
444.03	8.841
444.39	9.153
444.74	8.921
445.09	8.498
445.44	8.329
445.79	8.924
446.15	8.708
446.50	7.839
446.85	8.876
447.20	8.733
447.55	8.895
447.91	8.647
448.26	8.603
448.61	8.772
448.96	9.748
449.31	8.512
449.66	9.788
450.02	8.476
450.37	8.522
450.72	8.362
451.07	8.611
451.42	8.055
451.77	8.558
452.12	8.462
452.47	8.375
452.83	8.387
453.18	8.792
453.53	8.831
453.88	9.330
454.23	8.827
454.58	10.131
454.93	9.257
455.28	8.031
455.63	8.784
455.98	8.916
456.34	7.433
456.69	9.131
457.04	9.281
457.39	8.493
457.74	9.273
458.09	9.861
458.44	9.758
458.79	8.576
459.14	9.584
459.49	9.118
459.84	8.938
460.19	8.950
460.54	8.772
460.89	9.193
461.24	8.561
461.59	8.968
461.94	9.102
462.29	9.589
462.64	8.762
462.99	8.902
463.34	9.791
463.69	10.242
464.04	8.494
464.39	8.841
464.74	8.983
465.09	7.998
465.44	9.475
465.79	9.983
466.14	9.436
466.49	8.866
466.84	9.304
467.19	9.601
467.54	8.418
467.89	9.864
468.24	8.967
468.59	9.307
468.94	8.682
469.29	9.097
469.64	9.232
469.99	10.196
470.34	9.953
470.68	9.084
471.03	10.117
471.38	8.889
471.73	9.860
472.08	8.233
472.43	8.752
472.78	9.667
473.13	8.416
473.48	9.700
473.83	9.181
474.17	9.936
474.52	9.847
474.87	9.615
475.22	9.086
475.57	8.778
475.92	9.503
476.27	9.314
476.61	9.859
476.96	9.950
477.31	10.011
477.66	9.851
478.01	9.778
478.36	9.010
478.70	10.091
479.05	10.114
479.40	9.845
479.75	9.378
480.10	9.772
480.45	9.091
480.79	9.378
481.14	9.634
481.49	9.826
481.84	9.524
482.19	10.233
482.53	9.422
482.88	9.587
483.23	10.094
483.58	9.991
483.92	9.842
484.27	10.102
484.62	10.238
484.97	9.587
485.31	8.992
485.66	9.262
486.01	8.860
486.36	9.113
486.70	9.655
487.05	9.803
487.40	9.428
487.75	9.517
488.09	8.678
488.44	9.472
488.79	9.445
489.13	9.890
489.48	10.481
489.83	9.782
490.17	10.100
490.52	10.915
490.87	9.792
491.22	10.042
491.56	10.324
491.91	9.924
492.26	9.953
492.60	10.704
492.95	10.376
493.30	10.386
493.64	9.826
493.99	9.512
494.34	9.714
494.68	10.581
495.03	9.990
495.37	10.374
495.72	10.953
496.07	9.855
496.41	10.977
496.76	10.000
497.11	10.410
497.45	10.584
497.80	9.855
498.14	9.676
498.49	9.995
498.84	9.951
499.18	11.209
499.53	10.326
499.87	9.894
500.22	10.196
500.56	10.405
500.91	10.345
501.26	10.820
501.60	9.629
501.95	11.014
502.29	10.581
502.64	10.561
502.98	9.679
503.33	10.855
503.67	10.441
504.02	9.995
504.36	10.343
504.71	10.081
505.06	10.534
505.40	11.128
505.75	10.467
506.09	10.870
506.44	10.426
506.78	10.186
507.13	10.608
507.47	10.850
507.82	10.532
508.16	10.933
508.51	9.995
508.85	10.818
509.19	9.733
509.54	10.677
509.88	11.011
510.23	11.006
510.57	11.534
510.92	11.439
511.26	11.005
511.61	11.069
511.95	10.991
512.30	10.720
512.64	9.794
512.98	10.781
513.33	10.928
513.67	11.167
514.02	11.018
514.36	11.579
514.70	10.809
515.05	11.206
515.39	10.611
515.74	11.286
516.08	10.778
516.42	11.445
516.77	11.727
517.11	11.899
517.46	11.543
517.80	11.613
518.14	11.292
518.49	11.297
518.83	11.217
519.17	12.137
519.52	10.526
519.86	11.649
520.20	12.042
520.55	11.569
520.89	11.209
521.23	12.149
521.58	11.975
521.92	12.413
522.26	11.556
522.61	11.787
522.95	11.040
523.29	11.975
523.64	11.930
523.98	11.330
524.32	11.816
524.66	11.615
525.01	11.818
525.35	12.242
525.69	12.232
526.04	12.206
526.38	12.094
526.72	11.367
527.06	11.979
527.41	11.419
527.75	12.277
528.09	12.707
528.43	12.000
528.78	12.626
529.12	12.228
529.46	11.856
529.80	11.298
530.15	13.007
530.49	12.484
530.83	12.574
531.17	11.111
531.51	12.324
531.86	12.640
532.20	12.483
532.54	11.965
532.88	12.648
533.22	12.099
533.57	12.598
533.91	11.298
534.25	12.194
534.59	11.305
534.93	11.637
535.27	12.272
535.62	12.532
535.96	13.187
536.30	11.911
536.64	11.753
536.98	12.429
537.32	11.887
537.66	12.899
538.01	12.165
538.35	12.027
538.69	11.230
539.03	12.661
539.37	12.043
539.71	12.542
540.05	11.172
540.39	11.842
540.73	12.301
541.07	12.295
541.42	11.344
541.76	11.894
542.10	13.639
542.44	12.325
542.78	12.483
543.12	11.881
543.46	11.575
543.80	11.572
544.14	11.619
544.48	12.270
544.82	12.788
545.16	12.408
545.50	10.633
545.84	12.726
546.18	12.067
546.52	12.091
546.86	11.538
547.20	12.307
547.54	11.019
547.88	11.480
548.22	11.140
548.56	12.091
548.90	12.601
549.24	12.053
549.58	12.773
549.92	13.145
550.26	12.861
550.60	12.802
550.94	11.387
551.28	13.168
551.62	11.965
551.96	13.314
552.30	11.986
552.64	12.386
552.98	12.334
553.32	11.472
553.66	11.896
554.00	12.864
554.34	11.697
554.68	11.696
555.02	13.242
555.36	12.365
555.69	12.178
556.03	12.140
556.37	11.735
556.71	12.169
557.05	12.712
557.39	10.839
557.73	12.910
558.07	12.509
558.41	11.369
558.75	11.939
559.08	11.440
559.42	12.557
559.76	12.117
560.10	12.006
560.44	13.295
560.78	11.830
561.12	12.215
561.45	12.740
561.79	12.125
562.13	12.062
562.47	12.815
562.81	11.669
563.15	12.176
563.48	12.301
563.82	12.103
564.16	12.711
564.50	12.097
564.84	11.508
565.17	12.003
565.51	12.060
565.85	13.117
566.19	11.989
566.52	12.459
566.86	11.631
567.20	12.530
567.54	12.640
567.88	12.284
568.21	11.577
568.55	11.771
568.89	10.934
569.23	11.152
569.56	10.467
569.90	10.504
570.24	11.349
570.57	10.510
570.91	10.507
571.25	10.765
571.59	10.802
571.92	10.863
572.26	10.755
572.60	10.332
572.93	10.251
573.27	10.366
573.61	10.095
573.95	10.564
574.28	10.357
574.62	10.473
574.96	10.120
575.29	10.239
575.63	10.273
575.97	9.978
576.30	10.003
576.64	10.366
576.98	10.326
577.31	10.346
577.65	10.400
577.98	10.193
578.32	9.851
578.66	10.458
578.99	10.150
579.33	9.997
579.67	10.068
580.00	10.293
580.34	9.956
580.67	10.321
581.01	9.712
581.35	10.057
581.68	9.828
582.02	10.299
582.35	9.896
582.69	9.982
583.02	10.323
583.36	10.176
583.70	9.985
584.03	10.264
584.37	10.041
584.70	9.913
585.04	9.975
585.37	9.976
585.71	10.353
586.04	10.208
586.38	10.211
586.72	10.231
587.05	10.082
587.39	9.970
587.72	10.114
588.06	9.849
588.39	10.026
588.73	10.471
589.06	10.358
589.40	10.340
589.73	10.800
590.07	9.978
590.40	10.443
590.73	9.796
591.07	10.451
591.40	10.745
591.74	11.208
592.07	10.360
592.41	10.870
592.74	11.184
593.08	10.367
593.41	10.197
593.75	9.957
594.08	10.855
594.41	11.165
594.75	10.495
595.08	10.226
595.42	11.055
595.75	9.960
596.09	10.128
596.42	10.802
596.75	10.824
597.09	11.309
597.42	10.214
597.75	10.806
598.09	10.981
598.42	10.340
598.76	10.922
599.09	10.695
599.42	10.342
599.76	10.079
600.09	10.496
600.42	10.406
600.76	10.734
601.09	10.406
601.42	10.447
601.76	11.020
602.09	10.634
602.42	10.370
602.76	9.514
603.09	10.806
603.42	10.959
603.76	10.850
604.09	10.933
604.42	10.575
604.76	10.903
605.09	10.488
605.42	11.215
605.75	10.651
606.09	11.208
606.42	10.054
606.75	10.863
607.09	11.204
607.42	10.431
607.75	10.596
608.08	10.981
608.42	10.643
608.75	10.794
609.08	10.862
609.41	10.962
609.75	10.873
610.08	10.784
610.41	11.181
610.74	11.267
611.07	11.207
611.41	10.338
611.74	11.722
612.07	11.976
612.40	11.407
612.73	11.470
613.07	10.787
613.40	11.768
613.73	11.226
614.06	10.983
614.39	11.218
614.72	10.503
615.06	10.380
615.39	10.092
615.72	11.027
616.05	10.271
616.38	11.201
616.71	11.291
617.05	11.279
617.38	11.950
617.71	11.241
618.04	11.553
618.37	10.881
618.70	11.995
619.03	11.171
619.36	11.980
619.69	11.271
620.03	11.639
620.36	11.885
620.69	10.983
621.02	11.111
621.35	12.097
621.68	11.967
622.01	11.570
622.34	12.034
622.67	11.172
623.00	11.477
623.33	12.164
623.66	11.448
623.99	12.180
624.32	11.235
624.65	11.111
624.99	12.024
625.32	11.527
625.65	12.665
625.98	11.111
626.31	12.724
626.64	12.636
626.97	12.329
627.30	12.426
627.63	11.831
627.96	12.010
628.29	11.581
628.62	12.034
628.95	12.795
629.28	12.688
629.61	12.758
629.94	12.476
630.26	12.922
630.59	13.065
630.92	13.013
631.25	13.710
631.58	12.804
631.91	11.915
632.24	12.667
632.57	13.000
632.90	14.828
633.23	14.252
633.56	13.450
633.89	14.033
634.22	12.869
634.55	12.620
634.88	13.301
635.20	13.983
635.53	11.959
635.86	13.224
636.19	14.652
636.52	13.023
636.85	12.515
637.18	12.750
637.51	15.242
637.83	12.650
638.16	12.763
638.49	11.448
638.82	12.870
639.15	12.711
639.48	10.895
639.81	14.523
640.13	14.324
640.46	14.245
640.79	15.266
641.12	15.515
641.45	14.921
641.77	13.623
642.10	14.502
642.43	13.505
642.76	13.071
643.09	12.540
643.41	15.079
643.74	15.421
644.07	15.757
644.40	13.290
644.73	14.356
645.05	13.523
645.38	13.907
645.71	14.777
646.04	14.790
