SpectraSuite Data File
++++++++++++++++++++++++++++++++++++
Date: Sat May 16 11:13:04 PDT 2015
User: schluterlab
Dark Spectrum Present: Yes
Reference Spectrum Present: Yes
Number of Sampled Component Spectra: 1
Spectrometers: USB2E3373
Integration Time (usec): 3000 (USB2E3373)
Spectra Averaged: 3 (USB2E3373)
Boxcar Smoothing: 0 (USB2E3373)
Correct for Electrical Dark: No (USB2E3373)
Strobe/Lamp Enabled: No (USB2E3373)
Correct for Detector Non-linearity: No (USB2E3373)
Correct for Stray Light: No (USB2E3373)
Number of Pixels in Processed Spectrum: 2048
>>>>>Begin Processed Spectral Data<<<<<
178.53	0.000
178.91	60.000
179.29	400.000
179.67	0.000
180.04	15.385
180.42	-300.000
180.80	275.000
181.18	150.000
181.56	0.000
181.94	100.000
182.31	450.000
182.69	0.000
183.07	-433.333
183.45	600.000
183.83	333.333
184.20	57.143
184.58	-37.500
184.96	-175.000
185.34	81.250
185.72	-550.000
186.09	133.333
186.47	-187.500
186.85	12.500
187.23	162.500
187.61	-100.000
187.98	-87.500
188.36	-25.000
188.74	-25.000
189.12	-0.000
189.49	171.429
189.87	16.667
190.25	50.000
190.63	-7.143
191.00	-11.111
191.38	240.000
191.76	26.667
192.14	260.000
192.51	-120.000
192.89	-300.000
193.27	0.000
193.65	-33.333
194.02	-171.429
194.40	166.667
194.78	-80.000
195.15	-200.000
195.53	-72.727
195.91	-266.667
196.29	40.000
196.66	-600.000
197.04	1400.000
197.42	-125.000
197.79	6.667
198.17	-133.333
198.55	-150.000
198.92	-200.000
199.30	150.000
199.68	0.000
200.05	11.111
200.43	-133.333
200.81	-700.000
201.18	8.333
201.56	42.857
201.94	0.000
202.31	31.818
202.69	90.000
203.07	10.000
203.44	500.000
203.82	-283.333
204.19	-50.000
204.57	-75.000
204.95	-700.000
205.32	31.250
205.70	800.000
206.08	-1500.000
206.45	-5.556
206.83	-500.000
207.20	-100.000
207.58	-433.333
207.96	-100.000
208.33	-112.500
208.71	-33.333
209.08	140.000
209.46	-142.857
209.84	150.000
210.21	0.000
210.59	90.000
210.96	-0.000
211.34	-283.333
211.71	133.333
212.09	175.000
212.46	650.000
212.84	-1800.000
213.22	533.333
213.59	66.667
213.97	0.000
214.34	70.000
214.72	-10.000
215.09	-466.667
215.47	-150.000
215.84	20.000
216.22	110.000
216.59	0.000
216.97	-150.000
217.34	350.000
217.72	28.571
218.09	-100.000
218.47	-114.286
218.84	57.143
219.22	85.714
219.59	0.000
219.97	142.857
220.34	225.000
220.72	112.500
221.09	-46.154
221.47	0.000
221.84	333.333
222.22	50.000
222.59	600.000
222.97	-200.000
223.34	-200.000
223.72	-66.667
224.09	-57.143
224.46	-25.000
224.84	28.571
225.21	-57.143
225.59	-109.091
225.96	-112.500
226.34	185.714
226.71	-44.444
227.08	15.000
227.46	700.000
227.83	0.000
228.21	-137.500
228.58	-0.000
228.95	-31.250
229.33	-400.000
229.70	-160.000
230.08	-850.000
230.45	8.333
230.82	-66.667
231.20	-1000.000
231.57	-300.000
231.95	900.000
232.32	33.333
232.69	-100.000
233.07	-157.143
233.44	-550.000
233.81	-20.000
234.19	-77.778
234.56	25.000
234.93	34.375
235.31	-14.286
235.68	-42.857
236.05	-17.647
236.43	-9.091
236.80	-9.677
237.17	-8.333
237.55	0.000
237.92	-68.182
238.29	-14.286
238.67	17.647
239.04	36.111
239.41	-9.677
239.79	-12.821
240.16	-21.429
240.53	-1.818
240.91	5.128
241.28	18.182
241.65	13.846
242.02	8.197
242.40	-1.639
242.77	-3.030
243.14	-1.695
243.51	-7.143
243.89	-3.797
244.26	5.618
244.63	11.579
245.00	10.526
245.38	16.102
245.75	9.735
246.12	7.200
246.49	12.598
246.87	0.000
247.24	-1.695
247.61	-0.847
247.98	5.634
248.36	13.986
248.73	12.025
249.10	5.732
249.47	16.374
249.84	10.227
250.22	3.571
250.59	13.559
250.96	8.901
251.33	11.848
251.70	3.846
252.08	13.744
252.45	6.635
252.82	10.476
253.19	6.383
253.56	8.065
253.94	9.283
254.31	11.588
254.68	13.008
255.05	7.661
255.42	13.095
255.79	10.753
256.16	11.373
256.54	12.132
256.91	11.364
257.28	8.791
257.65	8.865
258.02	11.006
258.39	12.375
258.76	6.757
259.14	11.111
259.51	14.098
259.88	7.317
260.25	12.112
260.62	9.325
260.99	9.792
261.36	12.195
261.73	12.428
262.10	11.667
262.47	9.972
262.85	12.571
263.22	12.034
263.59	10.154
263.96	12.174
264.33	13.550
264.70	12.431
265.07	11.538
265.44	12.145
265.81	8.010
266.18	6.835
266.55	9.559
266.92	13.350
267.29	11.864
267.66	11.111
268.03	11.594
268.40	12.676
268.77	12.771
269.14	10.209
269.51	14.253
269.88	10.092
270.25	8.159
270.62	10.984
270.99	13.063
271.36	13.520
271.73	12.108
272.10	11.670
272.47	10.444
272.84	12.889
273.21	12.156
273.58	12.527
273.95	12.281
274.32	10.633
274.69	13.348
275.06	13.088
275.43	13.616
275.80	13.035
276.17	14.226
276.54	14.257
276.91	8.642
277.28	13.590
277.65	11.364
278.02	11.273
278.39	13.360
278.76	10.558
279.13	9.881
279.50	12.922
279.87	13.742
280.23	11.741
280.60	12.127
280.97	12.816
281.34	12.186
281.71	12.692
282.08	11.290
282.45	11.813
282.82	13.372
283.19	12.000
283.56	13.187
283.92	11.837
284.29	11.524
284.66	10.612
285.03	14.973
285.40	12.362
285.77	12.807
286.14	11.011
286.51	13.144
286.87	12.341
287.24	11.604
287.61	13.223
287.98	11.265
288.35	10.248
288.72	9.338
289.08	10.339
289.45	11.953
289.82	9.343
290.19	11.987
290.56	10.248
290.93	11.765
291.29	9.076
291.66	10.789
292.03	11.617
292.40	11.295
292.77	11.491
293.13	9.593
293.50	10.401
293.87	11.196
294.24	9.955
294.60	8.636
294.97	10.015
295.34	9.778
295.71	9.970
296.08	8.909
296.44	8.584
296.81	9.829
297.18	8.873
297.55	10.311
297.91	10.460
298.28	9.315
298.65	8.229
299.02	11.096
299.38	10.160
299.75	9.783
300.12	10.385
300.48	9.463
300.85	7.602
301.22	9.832
301.59	10.143
301.95	10.076
302.32	7.823
302.69	10.037
303.05	9.158
303.42	9.500
303.79	10.287
304.15	10.308
304.52	9.335
304.89	9.209
305.25	8.547
305.62	8.813
305.99	11.072
306.35	9.767
306.72	7.859
307.09	10.329
307.45	9.081
307.82	7.709
308.19	8.837
308.55	8.061
308.92	7.948
309.29	9.189
309.65	9.226
310.02	9.611
310.38	6.919
310.75	10.348
311.12	9.401
311.48	8.873
311.85	9.887
312.22	9.578
312.58	9.563
312.95	9.582
313.31	7.892
313.68	8.643
314.05	10.485
314.41	8.551
314.78	8.192
315.14	9.773
315.51	9.422
315.87	10.455
316.24	9.038
316.61	11.132
316.97	10.547
317.34	9.056
317.70	8.813
318.07	9.422
318.43	9.363
318.80	11.455
319.16	9.662
319.53	9.305
319.89	10.442
320.26	10.196
320.62	9.423
320.99	10.050
321.35	8.966
321.72	9.110
322.08	10.188
322.45	9.109
322.81	10.183
323.18	10.663
323.54	10.259
323.91	10.287
324.27	10.266
324.64	10.969
325.00	10.733
325.37	10.498
325.73	11.374
326.10	10.452
326.46	11.646
326.83	10.809
327.19	11.676
327.56	12.436
327.92	12.150
328.29	11.688
328.65	10.273
329.01	11.219
329.38	10.705
329.74	13.278
330.11	12.602
330.47	10.990
330.84	12.741
331.20	11.552
331.56	11.121
331.93	11.989
332.29	11.963
332.66	11.501
333.02	12.036
333.38	12.007
333.75	11.665
334.11	11.644
334.48	12.445
334.84	12.248
335.20	11.791
335.57	12.545
335.93	13.339
336.29	12.489
336.66	11.806
337.02	12.703
337.38	13.012
337.75	12.818
338.11	11.896
338.47	12.722
338.84	12.341
339.20	13.181
339.56	12.923
339.93	10.758
340.29	11.957
340.65	12.413
341.02	12.395
341.38	11.626
341.74	12.193
342.11	11.604
342.47	11.159
342.83	12.594
343.20	11.785
343.56	11.265
343.92	12.855
344.28	13.457
344.65	11.881
345.01	11.933
345.37	13.538
345.73	12.193
346.10	10.957
346.46	11.698
346.82	11.227
347.19	11.915
347.55	11.717
347.91	11.732
348.27	11.058
348.63	12.763
349.00	11.854
349.36	10.929
349.72	12.659
350.08	11.548
350.45	10.481
350.81	12.182
351.17	11.334
351.53	10.979
351.89	11.075
352.26	11.318
352.62	11.444
352.98	12.896
353.34	11.990
353.70	10.502
354.07	12.352
354.43	11.858
354.79	11.252
355.15	10.383
355.51	12.500
355.87	11.225
356.24	11.914
356.60	13.457
356.96	12.163
357.32	11.006
357.68	11.954
358.04	13.318
358.40	12.374
358.77	11.824
359.13	11.324
359.49	11.867
359.85	11.433
360.21	12.253
360.57	12.048
360.93	12.148
361.29	11.958
361.66	10.671
362.02	11.834
362.38	12.252
362.74	12.234
363.10	12.052
363.46	12.892
363.82	11.735
364.18	12.373
364.54	12.795
364.90	12.648
365.26	11.769
365.62	12.687
365.98	12.945
366.35	11.549
366.71	11.769
367.07	11.997
367.43	12.835
367.79	11.753
368.15	10.740
368.51	13.357
368.87	12.775
369.23	12.000
369.59	12.847
369.95	13.390
370.31	12.729
370.67	12.364
371.03	12.099
371.39	11.245
371.75	12.017
372.11	11.908
372.47	11.714
372.83	12.656
373.19	12.500
373.55	12.808
373.91	12.091
374.27	12.936
374.63	12.491
374.99	13.213
375.35	11.777
375.71	12.762
376.07	12.457
376.42	11.325
376.78	12.680
377.14	12.678
377.50	12.186
377.86	12.094
378.22	12.500
378.58	12.292
378.94	11.591
379.30	12.431
379.66	12.811
380.02	11.943
380.38	12.447
380.74	12.075
381.09	12.771
381.45	12.530
381.81	11.918
382.17	11.529
382.53	12.097
382.89	11.124
383.25	11.981
383.61	12.677
383.97	11.635
384.32	12.140
384.68	12.334
385.04	11.655
385.40	11.625
385.76	13.171
386.12	12.555
386.48	12.562
386.83	12.209
387.19	12.194
387.55	11.145
387.91	11.678
388.27	11.158
388.62	11.779
388.98	10.781
389.34	11.077
389.70	12.119
390.06	11.684
390.42	12.244
390.77	12.177
391.13	12.050
391.49	10.605
391.85	11.658
392.20	11.711
392.56	10.935
392.92	11.751
393.28	12.170
393.64	11.365
393.99	11.877
394.35	11.618
394.71	10.994
395.07	11.551
395.42	11.144
395.78	11.376
396.14	12.025
396.50	11.131
396.85	11.104
397.21	11.179
397.57	11.550
397.92	11.300
398.28	11.333
398.64	11.362
399.00	11.798
399.35	11.612
399.71	11.731
400.07	11.343
400.42	11.192
400.78	11.866
401.14	11.078
401.49	10.554
401.85	10.128
402.21	10.548
402.57	11.044
402.92	11.076
403.28	11.275
403.63	10.545
403.99	10.317
404.35	10.145
404.70	11.001
405.06	10.784
405.42	10.332
405.77	10.124
406.13	10.278
406.49	10.066
406.84	11.518
407.20	11.249
407.55	11.020
407.91	10.363
408.27	10.723
408.62	11.064
408.98	11.280
409.34	9.628
409.69	10.271
410.05	10.370
410.40	9.565
410.76	10.433
411.11	9.913
411.47	10.358
411.83	10.880
412.18	9.839
412.54	9.091
412.89	10.510
413.25	9.917
413.60	10.389
413.96	9.057
414.31	10.336
414.67	9.841
415.03	10.285
415.38	10.345
415.74	11.469
416.09	9.655
416.45	10.053
416.80	10.598
417.16	9.502
417.51	10.965
417.87	10.421
418.22	11.125
418.58	10.911
418.93	10.239
419.29	10.853
419.64	9.799
420.00	10.632
420.35	9.817
420.71	10.144
421.06	10.414
421.42	10.363
421.77	9.659
422.12	10.632
422.48	9.834
422.83	10.308
423.19	10.022
423.54	9.856
423.90	9.717
424.25	9.615
424.61	10.314
424.96	10.181
425.31	10.565
425.67	10.143
426.02	9.696
426.38	10.405
426.73	10.695
427.09	9.743
427.44	10.455
427.79	9.709
428.15	10.712
428.50	10.205
428.85	9.892
429.21	10.017
429.56	10.208
429.92	10.020
430.27	10.568
430.62	10.449
430.98	10.559
431.33	10.299
431.68	10.831
432.04	10.520
432.39	10.598
432.74	10.192
433.10	10.298
433.45	10.363
433.80	10.638
434.16	10.048
434.51	10.137
434.86	11.248
435.22	10.356
435.57	10.037
435.92	10.375
436.28	10.148
436.63	9.949
436.98	10.195
437.34	10.159
437.69	10.560
438.04	11.117
438.39	10.229
438.75	11.001
439.10	10.328
439.45	10.078
439.81	10.663
440.16	10.562
440.51	10.882
440.86	10.006
441.22	10.779
441.57	10.368
441.92	10.281
442.27	10.335
442.63	10.139
442.98	9.368
443.33	10.434
443.68	9.901
444.03	10.314
444.39	10.915
444.74	10.848
445.09	10.691
445.44	10.805
445.79	9.995
446.15	10.898
446.50	10.615
446.85	10.775
447.20	10.776
447.55	9.945
447.91	10.724
448.26	10.615
448.61	9.394
448.96	10.700
449.31	10.541
449.66	11.105
450.02	10.693
450.37	9.159
450.72	10.056
451.07	10.308
451.42	10.657
451.77	11.011
452.12	10.429
452.47	10.579
452.83	11.182
453.18	11.069
453.53	10.137
453.88	10.347
454.23	9.794
454.58	11.374
454.93	10.705
455.28	11.026
455.63	10.197
455.98	11.446
456.34	10.229
456.69	11.445
457.04	10.510
457.39	10.048
457.74	11.223
458.09	10.789
458.44	10.970
458.79	10.314
459.14	11.010
459.49	11.545
459.84	10.736
460.19	10.143
460.54	10.466
460.89	10.090
461.24	11.658
461.59	10.434
461.94	10.248
462.29	10.899
462.64	11.199
462.99	11.513
463.34	10.736
463.69	9.987
464.04	11.424
464.39	10.454
464.74	10.284
465.09	10.583
465.44	9.983
465.79	11.168
466.14	11.507
466.49	11.111
466.84	11.104
467.19	10.723
467.54	10.759
467.89	11.406
468.24	11.580
468.59	11.305
468.94	11.190
469.29	10.006
469.64	11.388
469.99	11.614
470.34	11.089
470.68	10.610
471.03	11.562
471.38	11.667
471.73	11.329
472.08	11.847
472.43	10.875
472.78	11.600
473.13	9.808
473.48	11.232
473.83	11.663
474.17	11.401
474.52	11.829
474.87	11.247
475.22	11.327
475.57	11.500
475.92	11.771
476.27	11.314
476.61	11.268
476.96	11.794
477.31	11.141
477.66	11.289
478.01	11.129
478.36	11.943
478.70	11.586
479.05	12.169
479.40	11.399
479.75	11.927
480.10	11.458
480.45	11.074
480.79	11.797
481.14	11.440
481.49	11.084
481.84	11.188
482.19	12.015
482.53	11.695
482.88	11.818
483.23	11.502
483.58	12.211
483.92	11.801
484.27	11.342
484.62	11.015
484.97	11.613
485.31	10.368
485.66	10.362
486.01	10.239
486.36	10.918
486.70	11.072
487.05	10.800
487.40	11.191
487.75	11.061
488.09	10.809
488.44	11.333
488.79	12.062
489.13	11.754
489.48	12.031
489.83	11.834
490.17	11.711
490.52	11.775
490.87	11.039
491.22	10.649
491.56	11.852
491.91	12.166
492.26	11.368
492.60	11.180
492.95	11.709
493.30	11.672
493.64	11.801
493.99	11.711
494.34	11.952
494.68	12.594
495.03	11.807
495.37	11.701
495.72	12.083
496.07	11.779
496.41	12.274
496.76	12.100
497.11	11.823
497.45	12.021
497.80	12.006
498.14	11.984
498.49	11.803
498.84	11.893
499.18	12.183
499.53	12.275
499.87	11.969
500.22	12.206
500.56	12.156
500.91	12.217
501.26	12.664
501.60	12.374
501.95	12.464
502.29	12.282
502.64	13.201
502.98	12.075
503.33	12.547
503.67	12.787
504.02	12.747
504.36	12.108
504.71	12.259
505.06	12.731
505.40	13.124
505.75	12.043
506.09	12.639
506.44	12.782
506.78	13.547
507.13	13.028
507.47	13.250
507.82	12.287
508.16	13.731
508.51	13.241
508.85	12.733
509.19	12.925
509.54	13.214
509.88	13.245
510.23	13.155
510.57	13.704
510.92	14.286
511.26	13.876
511.61	13.877
511.95	13.254
512.30	13.689
512.64	14.357
512.98	14.466
513.33	14.772
513.67	14.182
514.02	13.647
514.36	14.626
514.70	14.092
515.05	15.152
515.39	15.225
515.74	16.056
516.08	15.274
516.42	15.524
516.77	15.540
517.11	15.160
517.46	14.892
517.80	15.644
518.14	14.795
518.49	15.362
518.83	15.549
519.17	16.282
519.52	15.269
519.86	16.308
520.20	16.565
520.55	15.815
520.89	15.967
521.23	15.873
521.58	16.489
521.92	17.099
522.26	16.381
522.61	16.477
522.95	15.635
523.29	17.618
523.64	15.928
523.98	17.123
524.32	16.908
524.66	16.211
525.01	16.699
525.35	17.848
525.69	16.851
526.04	17.363
526.38	17.759
526.72	16.922
527.06	18.164
527.41	17.096
527.75	17.294
528.09	18.001
528.43	18.492
528.78	18.153
529.12	18.438
529.46	17.204
529.80	17.818
530.15	17.965
530.49	18.952
530.83	19.581
531.17	18.384
531.51	17.950
531.86	18.762
532.20	18.421
532.54	19.719
532.88	18.511
533.22	18.316
533.57	18.799
533.91	17.790
534.25	18.228
534.59	18.239
534.93	17.859
535.27	19.257
535.62	19.118
535.96	18.358
536.30	18.521
536.64	19.057
536.98	18.785
537.32	19.696
537.66	19.552
538.01	18.763
538.35	20.473
538.69	19.118
539.03	19.499
539.37	19.029
539.71	20.080
540.05	19.123
540.39	20.360
540.73	19.558
541.07	19.877
541.42	19.244
541.76	18.272
542.10	19.986
542.44	20.053
542.78	20.760
543.12	19.280
543.46	18.836
543.80	18.395
544.14	18.670
544.48	19.751
544.82	19.756
545.16	19.920
545.50	19.112
545.84	20.445
546.18	19.903
546.52	19.772
546.86	20.442
547.20	21.097
547.54	18.664
547.88	19.177
548.22	18.021
548.56	19.439
548.90	19.946
549.24	20.182
549.58	20.466
549.92	20.495
550.26	20.592
550.60	18.563
550.94	20.146
551.28	20.391
551.62	20.679
551.96	20.839
552.30	20.139
552.64	19.493
552.98	20.603
553.32	19.986
553.66	21.053
554.00	20.327
554.34	19.711
554.68	20.175
555.02	21.056
555.36	20.058
555.69	19.771
556.03	19.789
556.37	21.053
556.71	20.544
557.05	21.212
557.39	21.010
557.73	21.955
558.07	20.874
558.41	20.494
558.75	21.217
559.08	20.467
559.42	21.057
559.76	20.782
560.10	21.029
560.44	20.520
560.78	21.225
561.12	19.600
561.45	20.959
561.79	20.697
562.13	20.547
562.47	20.448
562.81	21.004
563.15	21.414
563.48	20.318
563.82	19.743
564.16	21.095
564.50	21.102
564.84	20.040
565.17	19.695
565.51	21.512
565.85	20.825
566.19	20.356
566.52	20.222
566.86	20.038
567.20	21.126
567.54	21.796
567.88	20.045
568.21	19.743
568.55	20.467
568.89	19.334
569.23	19.389
569.56	18.327
569.90	19.473
570.24	19.053
570.57	19.227
570.91	18.803
571.25	18.774
571.59	19.326
571.92	18.542
572.26	18.274
572.60	18.275
572.93	18.613
573.27	18.567
573.61	18.067
573.95	18.600
574.28	18.074
574.62	18.709
574.96	18.569
575.29	18.420
575.63	18.503
575.97	18.581
576.30	18.992
576.64	18.773
576.98	18.437
577.31	18.522
577.65	18.631
577.98	18.186
578.32	18.712
578.66	18.461
578.99	18.653
579.33	18.488
579.67	18.717
580.00	18.651
580.34	18.664
580.67	18.436
581.01	18.350
581.35	18.136
581.68	17.939
582.02	18.249
582.35	18.319
582.69	18.776
583.02	18.744
583.36	18.899
583.70	18.484
584.03	19.558
584.37	18.945
584.70	19.138
585.04	18.785
585.37	18.234
585.71	18.505
586.04	18.794
586.38	18.631
586.72	19.222
587.05	19.201
587.39	18.820
587.72	18.928
588.06	19.037
588.39	18.798
588.73	18.920
589.06	19.853
589.40	20.062
589.73	19.334
590.07	18.755
590.40	20.443
590.73	19.752
591.07	19.754
591.40	20.061
591.74	20.330
592.07	20.405
592.41	19.915
592.74	19.716
593.08	19.361
593.41	19.046
593.75	19.156
594.08	19.626
594.41	20.037
594.75	20.008
595.08	19.662
595.42	20.087
595.75	19.919
596.09	20.334
596.42	20.213
596.75	20.440
597.09	21.015
597.42	19.817
597.75	20.239
598.09	20.334
598.42	20.018
598.76	19.020
599.09	19.613
599.42	19.185
599.76	20.159
600.09	19.809
600.42	20.623
600.76	20.339
601.09	19.559
601.42	19.193
601.76	19.977
602.09	20.245
602.42	20.412
602.76	19.859
603.09	19.960
603.42	20.346
603.76	20.463
604.09	20.144
604.42	19.734
604.76	20.235
605.09	21.248
605.42	20.257
605.75	20.483
606.09	20.382
606.42	19.062
606.75	19.665
607.09	20.556
607.42	20.511
607.75	20.044
608.08	20.741
608.42	20.009
608.75	20.187
609.08	20.604
609.41	20.379
609.75	20.332
610.08	20.490
610.41	21.398
610.74	21.132
611.07	21.298
611.41	20.524
611.74	21.851
612.07	21.643
612.40	21.748
612.73	21.217
613.07	21.134
613.40	22.058
613.73	21.689
614.06	20.593
614.39	22.153
614.72	20.447
615.06	20.652
615.39	19.913
615.72	20.858
616.05	20.596
616.38	21.880
616.71	21.802
617.05	21.713
617.38	21.920
617.71	21.376
618.04	22.298
618.37	21.698
618.70	22.164
619.03	21.801
619.36	22.622
619.69	21.823
620.03	22.245
620.36	21.449
620.69	22.972
621.02	22.679
621.35	22.903
621.68	22.377
622.01	22.816
622.34	22.050
622.67	21.953
623.00	23.871
623.33	23.358
623.66	21.492
623.99	22.707
624.32	22.024
624.65	23.326
624.99	22.629
625.32	22.904
625.65	23.077
625.98	22.222
626.31	22.675
626.64	22.343
626.97	22.945
627.30	23.319
627.63	22.453
627.96	23.151
628.29	24.265
628.62	22.254
628.95	24.803
629.28	24.060
629.61	23.160
629.94	25.142
630.26	25.149
630.59	24.824
630.92	24.625
631.25	24.597
631.58	23.810
631.91	22.553
632.24	24.667
632.57	24.444
632.90	24.253
633.23	26.869
633.56	24.211
633.89	24.528
634.22	25.620
634.55	24.760
634.88	24.909
635.20	24.095
635.53	26.336
635.86	24.685
