SpectraSuite Data File
++++++++++++++++++++++++++++++++++++
Date: Sat May 16 11:19:01 PDT 2015
User: schluterlab
Dark Spectrum Present: Yes
Reference Spectrum Present: Yes
Number of Sampled Component Spectra: 1
Spectrometers: USB2E3373
Integration Time (usec): 3000 (USB2E3373)
Spectra Averaged: 3 (USB2E3373)
Boxcar Smoothing: 0 (USB2E3373)
Correct for Electrical Dark: No (USB2E3373)
Strobe/Lamp Enabled: No (USB2E3373)
Correct for Detector Non-linearity: No (USB2E3373)
Correct for Stray Light: No (USB2E3373)
Number of Pixels in Processed Spectrum: 2048
>>>>>Begin Processed Spectral Data<<<<<
178.53	0.000
178.91	73.333
179.29	66.667
179.67	-900.000
180.04	-69.231
180.42	600.000
180.80	400.000
181.18	125.000
181.56	-112.500
181.94	300.000
182.31	125.000
182.69	7.692
183.07	-600.000
183.45	1500.000
183.83	233.333
184.20	-214.286
184.58	-100.000
184.96	-325.000
185.34	100.000
185.72	-450.000
186.09	266.667
186.47	-187.500
186.85	-175.000
187.23	50.000
187.61	-250.000
187.98	-287.500
188.36	-37.500
188.74	-162.500
189.12	1400.000
189.49	342.857
189.87	-41.667
190.25	350.000
190.63	7.143
191.00	-144.444
191.38	400.000
191.76	-40.000
192.14	520.000
192.51	-200.000
192.89	-166.667
193.27	0.000
193.65	-111.111
194.02	-185.714
194.40	500.000
194.78	-50.000
195.15	-600.000
195.53	-145.455
195.91	-250.000
196.29	240.000
196.66	-200.000
197.04	900.000
197.42	-225.000
197.79	0.000
198.17	-566.667
198.55	-1400.000
198.92	-800.000
199.30	125.000
199.68	0.000
200.05	-22.222
200.43	-122.222
200.81	-1400.000
201.18	-141.667
201.56	42.857
201.94	-46.667
202.31	40.909
202.69	30.000
203.07	-30.000
203.44	366.667
203.82	-350.000
204.19	-475.000
204.57	-125.000
204.95	-700.000
205.32	-25.000
205.70	700.000
206.08	-1100.000
206.45	-11.111
206.83	-800.000
207.20	-150.000
207.58	-333.333
207.96	-300.000
208.33	-75.000
208.71	-33.333
209.08	270.000
209.46	-271.429
209.84	50.000
210.21	0.000
210.59	40.000
210.96	1300.000
211.34	-183.333
211.71	-166.667
212.09	50.000
212.46	1450.000
212.84	-1700.000
213.22	333.333
213.59	141.667
213.97	-11.111
214.34	120.000
214.72	0.000
215.09	-300.000
215.47	66.667
215.84	-10.000
216.22	-110.000
216.59	-26.667
216.97	-200.000
217.34	250.000
217.72	-171.429
218.09	-150.000
218.47	-200.000
218.84	128.571
219.22	-85.714
219.59	0.000
219.97	157.143
220.34	400.000
220.72	150.000
221.09	-38.462
221.47	0.000
221.84	433.333
222.22	-450.000
222.59	800.000
222.97	-125.000
223.34	-800.000
223.72	-566.667
224.09	-35.714
224.46	-200.000
224.84	-71.429
225.21	-71.429
225.59	-9.091
225.96	0.000
226.34	-57.143
226.71	-11.111
227.08	0.000
227.46	2200.000
227.83	-42.857
228.21	-225.000
228.58	500.000
228.95	-25.000
229.33	-2100.000
229.70	-160.000
230.08	-500.000
230.45	16.667
230.82	-33.333
231.20	-400.000
231.57	-250.000
231.95	600.000
232.32	33.333
232.69	-11.111
233.07	-157.143
233.44	-750.000
233.81	-33.333
234.19	11.111
234.56	-50.000
234.93	21.875
235.31	-142.857
235.68	-85.714
236.05	-58.824
236.43	-40.909
236.80	-9.677
237.17	-25.000
237.55	-57.143
237.92	-54.545
238.29	-8.571
238.67	5.882
239.04	0.000
239.41	-19.355
239.79	-35.897
240.16	-11.905
240.53	-9.091
240.91	28.205
241.28	9.091
241.65	18.462
242.02	0.000
242.40	-9.836
242.77	19.697
243.14	-1.695
243.51	-7.143
243.89	8.861
244.26	-3.371
244.63	10.526
245.00	5.263
245.38	5.932
245.75	17.699
246.12	8.000
246.49	5.512
246.87	5.691
247.24	1.695
247.61	4.237
247.98	9.155
248.36	4.196
248.73	6.962
249.10	9.554
249.47	8.772
249.84	17.045
250.22	2.381
250.59	13.559
250.96	8.901
251.33	13.744
251.70	15.385
252.08	13.744
252.45	5.687
252.82	8.571
253.19	13.617
253.56	13.306
253.94	13.924
254.31	10.730
254.68	16.260
255.05	11.290
255.42	9.921
255.79	12.545
256.16	14.118
256.54	13.971
256.91	11.742
257.28	9.890
257.65	16.667
258.02	17.610
258.39	12.040
258.76	11.149
259.14	9.568
259.51	10.820
259.88	14.024
260.25	14.286
260.62	9.325
260.99	12.166
261.36	14.024
261.73	11.850
262.10	11.944
262.47	12.536
262.85	16.000
263.22	12.034
263.59	8.923
263.96	12.174
264.33	14.905
264.70	12.983
265.07	17.582
265.44	10.853
265.81	10.336
266.18	9.620
266.55	11.275
266.92	16.625
267.29	13.317
267.66	10.370
268.03	14.976
268.40	13.615
268.77	12.771
269.14	10.905
269.51	14.483
269.88	12.156
270.25	11.888
270.62	11.670
270.99	14.640
271.36	13.287
271.73	12.780
272.10	13.959
272.47	10.667
272.84	14.222
273.21	11.927
273.58	13.846
273.95	12.281
274.32	13.348
274.69	12.910
275.06	13.701
275.43	10.491
275.80	16.090
276.17	11.506
276.54	13.442
276.91	10.905
277.28	10.953
277.65	14.876
278.02	12.109
278.39	13.360
278.76	10.757
279.13	12.253
279.50	12.525
279.87	10.148
280.23	12.753
280.60	12.525
280.97	12.427
281.34	11.412
281.71	12.692
282.08	11.895
282.45	11.405
282.82	12.403
283.19	12.182
283.56	14.286
283.92	13.251
284.29	13.197
284.66	12.950
285.03	12.656
285.40	13.653
285.77	12.105
286.14	12.635
286.51	12.256
286.87	13.067
287.24	14.505
287.61	13.388
287.98	10.919
288.35	10.744
288.72	11.375
289.08	9.492
289.45	13.468
289.82	10.727
290.19	14.122
290.56	10.248
290.93	12.560
291.29	11.994
291.66	13.205
292.03	13.658
292.40	12.500
292.77	12.422
293.13	14.309
293.50	11.441
293.87	12.270
294.24	13.122
294.60	10.152
294.97	14.112
295.34	12.000
295.71	13.244
296.08	8.449
296.44	12.017
296.81	11.966
297.18	13.239
297.55	12.712
297.91	12.831
298.28	12.055
298.65	11.715
299.02	14.439
299.38	13.102
299.75	11.957
300.12	13.846
300.48	13.299
300.85	13.499
301.22	12.419
301.59	12.744
301.95	14.484
302.32	11.082
302.69	12.240
303.05	11.844
303.42	12.000
303.79	13.876
304.15	13.507
304.52	13.536
304.89	12.987
305.25	12.576
305.62	13.396
305.99	13.428
306.35	14.428
306.72	13.554
307.09	13.961
307.45	13.394
307.82	11.844
308.19	12.752
308.55	15.033
308.92	13.963
309.29	13.189
309.65	13.574
310.02	14.039
310.38	12.324
310.75	14.447
311.12	15.186
311.48	14.196
311.85	13.388
312.22	15.242
312.58	15.158
312.95	15.087
313.31	15.784
313.68	16.583
314.05	16.419
314.41	14.085
314.78	15.684
315.14	16.091
315.51	14.894
315.87	15.876
316.24	15.743
316.61	16.315
316.97	16.716
317.34	15.800
317.70	15.863
318.07	16.978
318.43	16.011
318.80	17.465
319.16	15.103
319.53	16.541
319.89	17.121
320.26	17.549
320.62	16.827
320.99	18.109
321.35	16.453
321.72	16.991
322.08	18.002
322.45	17.327
322.81	17.579
323.18	20.557
323.54	19.501
323.91	20.204
324.27	20.057
324.64	19.927
325.00	20.942
325.37	22.443
325.73	23.185
326.10	21.169
326.46	22.417
326.83	22.723
327.19	22.769
327.56	24.106
327.92	24.809
328.29	24.762
328.65	24.818
329.01	25.265
329.38	26.762
329.74	27.106
330.11	27.380
330.47	27.430
330.84	28.873
331.20	27.527
331.56	28.168
331.93	28.686
332.29	28.950
332.66	27.744
333.02	29.321
333.38	29.928
333.75	31.879
334.11	30.489
334.48	29.214
334.84	31.321
335.20	31.206
335.57	30.235
335.93	32.677
336.29	29.584
336.66	30.396
337.02	32.072
337.38	31.907
337.75	30.904
338.11	31.574
338.47	32.028
338.84	30.309
339.20	30.668
339.56	31.016
339.93	31.129
340.29	31.621
340.65	32.255
341.02	31.788
341.38	30.581
341.74	31.583
342.11	31.911
342.47	31.588
342.83	30.982
343.20	32.024
343.56	28.490
343.92	32.053
344.28	30.698
344.65	31.023
345.01	31.597
345.37	31.229
345.73	29.951
346.10	29.436
346.46	29.245
346.82	30.152
347.19	31.553
347.55	30.578
347.91	30.709
348.27	30.867
348.63	30.856
349.00	30.708
349.36	28.493
349.72	32.325
350.08	30.233
350.45	30.102
350.81	30.573
351.17	30.949
351.53	29.515
351.89	30.315
352.26	30.310
352.62	31.260
352.98	29.984
353.34	30.536
353.70	29.112
354.07	30.685
354.43	30.751
354.79	31.300
355.15	31.390
355.51	28.984
355.87	30.593
356.24	30.183
356.60	31.023
356.96	31.255
357.32	30.325
357.68	30.728
358.04	31.101
358.40	31.168
358.77	29.907
359.13	30.145
359.49	30.612
359.85	31.098
360.21	31.050
360.57	30.873
360.93	31.185
361.29	31.390
361.66	30.564
362.02	29.956
362.38	30.154
362.74	31.062
363.10	31.205
363.46	31.695
363.82	30.248
364.18	31.187
364.54	31.665
364.90	30.189
365.26	30.385
365.62	31.718
365.98	30.868
366.35	30.986
366.71	30.796
367.07	31.334
367.43	31.434
367.79	30.928
368.15	30.156
368.51	30.699
368.87	31.319
369.23	31.368
369.59	30.486
369.95	30.796
370.31	31.013
370.67	30.441
371.03	31.778
371.39	30.764
371.75	31.259
372.11	32.353
372.47	31.453
372.83	32.615
373.19	31.286
373.55	32.090
373.91	32.290
374.27	31.211
374.63	31.125
374.99	32.684
375.35	31.359
375.71	32.208
376.07	31.896
376.42	30.795
376.78	32.941
377.14	31.593
377.50	32.753
377.86	32.185
378.22	33.229
378.58	32.427
378.94	32.737
379.30	33.151
379.66	33.333
380.02	32.086
380.38	33.353
380.74	33.236
381.09	33.450
381.45	32.518
381.81	32.426
382.17	32.957
382.53	33.678
382.89	33.553
383.25	33.654
383.61	33.785
383.97	33.558
384.32	34.043
384.68	34.281
385.04	33.998
385.40	34.084
385.76	34.512
386.12	33.417
386.48	34.901
386.83	33.742
387.19	34.130
387.55	35.130
387.91	34.084
388.27	33.353
388.62	32.993
388.98	34.040
389.34	34.455
389.70	32.887
390.06	33.810
390.42	34.487
390.77	34.700
391.13	35.652
391.49	33.188
391.85	34.289
392.20	33.738
392.56	34.942
392.92	34.398
393.28	34.730
393.64	35.658
393.99	34.215
394.35	34.854
394.71	34.095
395.07	34.777
395.42	34.029
395.78	34.318
396.14	34.517
396.50	35.229
396.85	34.732
397.21	34.022
397.57	35.258
397.92	35.773
398.28	35.000
398.64	33.135
399.00	35.169
399.35	34.329
399.71	35.424
400.07	35.463
400.42	34.246
400.78	34.049
401.14	34.132
401.49	35.083
401.85	34.716
402.21	35.399
402.57	34.587
402.92	35.368
403.28	34.988
403.63	33.913
403.99	34.493
404.35	34.601
404.70	34.055
405.06	34.487
405.42	33.764
405.77	33.937
406.13	34.583
406.49	34.811
406.84	34.193
407.20	34.217
407.55	34.326
407.91	34.521
408.27	34.130
408.62	34.336
408.98	34.991
409.34	34.186
409.69	32.766
410.05	33.778
410.40	34.703
410.76	34.618
411.11	34.913
411.47	34.271
411.83	34.474
412.18	34.406
412.54	34.289
412.89	32.625
413.25	32.349
413.60	34.083
413.96	34.442
414.31	33.884
414.67	33.333
415.03	34.153
415.38	33.572
415.74	35.760
416.09	33.376
416.45	33.201
416.80	34.655
417.16	33.953
417.51	34.734
417.87	33.269
418.22	33.881
418.58	34.467
418.93	33.538
419.29	33.689
419.64	34.045
420.00	34.569
420.35	35.068
420.71	35.114
421.06	34.734
421.42	33.489
421.77	34.394
422.12	35.031
422.48	33.405
422.83	34.282
423.19	34.465
423.54	36.196
423.90	35.049
424.25	34.106
424.61	35.645
424.96	35.869
425.31	34.600
425.67	34.785
426.02	33.678
426.38	35.027
426.73	35.184
427.09	35.172
427.44	34.943
427.79	35.465
428.15	35.248
428.50	35.308
428.85	35.671
429.21	34.920
429.56	35.833
429.92	35.922
430.27	34.546
430.62	35.110
430.98	34.867
431.33	35.059
431.68	35.013
432.04	35.870
432.39	35.954
432.74	36.391
433.10	35.903
433.45	34.830
433.80	35.274
434.16	35.519
434.51	35.890
434.86	37.668
435.22	35.913
435.57	36.597
435.92	36.518
436.28	36.499
436.63	35.274
436.98	35.796
437.34	36.326
437.69	36.756
438.04	36.188
438.39	36.101
438.75	36.380
439.10	35.591
439.45	35.365
439.81	37.048
440.16	36.570
440.51	36.529
440.86	37.189
441.22	35.987
441.57	36.158
441.92	36.215
442.27	35.714
442.63	36.695
442.98	35.892
443.33	36.189
443.68	35.748
444.03	35.511
444.39	36.662
444.74	36.509
445.09	36.294
445.44	36.522
445.79	37.328
446.15	37.349
446.50	35.275
446.85	36.326
447.20	36.364
447.55	36.740
447.91	37.170
448.26	35.922
448.61	36.276
448.96	37.031
449.31	36.640
449.66	36.863
450.02	36.233
450.37	36.348
450.72	35.989
451.07	36.141
451.42	36.369
451.77	36.685
452.12	35.757
452.47	37.657
452.83	36.692
453.18	37.065
453.53	37.562
453.88	37.321
454.23	37.062
454.58	37.787
454.93	36.902
455.28	36.902
455.63	37.531
455.98	38.373
456.34	37.548
456.69	38.149
457.04	37.554
457.39	37.261
457.74	36.621
458.09	36.833
458.44	37.760
458.79	36.211
459.14	37.307
459.49	37.774
459.84	37.605
460.19	37.530
460.54	36.358
460.89	37.164
461.24	37.158
461.59	37.397
461.94	38.001
462.29	36.986
462.64	38.011
462.99	38.420
463.34	37.947
463.69	37.850
464.04	36.731
464.39	37.993
464.74	37.352
465.09	36.681
465.44	36.323
465.79	37.507
466.14	38.090
466.49	36.385
466.84	37.335
467.19	38.529
467.54	36.646
467.89	37.300
468.24	37.945
468.59	37.601
468.94	37.814
469.29	37.752
469.64	38.275
469.99	37.542
470.34	37.876
470.68	38.808
471.03	37.784
471.38	36.042
471.73	39.161
472.08	38.755
472.43	37.259
472.78	38.067
473.13	36.978
473.48	38.162
473.83	37.097
474.17	37.070
474.52	38.811
474.87	37.995
475.22	37.699
475.57	37.222
475.92	38.877
476.27	38.000
476.61	38.704
476.96	38.122
477.31	37.890
477.66	38.019
478.01	38.142
478.36	38.030
478.70	39.028
479.05	37.804
479.40	37.876
479.75	37.870
480.10	37.202
480.45	36.122
480.79	37.710
481.14	37.933
481.49	38.577
481.84	37.679
482.19	37.277
482.53	37.784
482.88	37.589
483.23	37.887
483.58	38.575
483.92	38.318
484.27	36.774
484.62	38.056
484.97	37.880
485.31	36.512
485.66	36.199
486.01	35.938
486.36	36.435
486.70	37.243
487.05	36.560
487.40	36.752
487.75	36.777
488.09	36.844
488.44	36.840
488.79	36.930
489.13	37.048
489.48	37.928
489.83	37.948
490.17	37.745
490.52	37.998
490.87	37.644
491.22	38.533
491.56	37.778
491.91	39.027
492.26	38.443
492.60	37.964
492.95	38.030
493.30	38.780
493.64	37.471
493.99	39.149
494.34	39.333
494.68	39.279
495.03	38.289
495.37	39.036
495.72	38.507
496.07	38.010
496.41	38.536
496.76	38.311
497.11	38.954
497.45	39.272
497.80	38.119
498.14	38.409
498.49	38.272
498.84	38.350
499.18	39.425
499.53	38.480
499.87	38.031
500.22	38.676
500.56	39.370
500.91	38.818
501.26	39.010
501.60	38.517
501.95	38.937
502.29	37.648
502.64	38.567
502.98	38.285
503.33	37.735
503.67	38.602
504.02	38.629
504.36	38.824
504.71	38.349
505.06	37.494
505.40	39.222
505.75	39.126
506.09	38.979
506.44	39.449
506.78	39.338
507.13	39.547
507.47	39.541
507.82	39.494
508.16	39.534
508.51	38.588
508.85	38.147
509.19	39.037
509.54	38.742
509.88	39.255
510.23	39.046
510.57	38.836
510.92	40.172
511.26	39.553
511.61	38.985
511.95	38.578
512.30	40.022
512.64	38.564
512.98	39.934
513.33	39.758
513.67	39.754
514.02	39.541
514.36	38.781
514.70	39.162
515.05	39.680
515.39	39.619
515.74	40.081
516.08	40.000
516.42	39.150
516.77	40.150
517.11	39.703
517.46	40.490
517.80	39.952
518.14	38.889
518.49	39.629
518.83	39.644
519.17	39.728
519.52	38.866
519.86	39.725
520.20	39.914
520.55	40.369
520.89	39.887
521.23	39.805
521.58	41.066
521.92	40.722
522.26	40.698
522.61	40.431
522.95	39.056
523.29	38.934
523.64	40.412
523.98	40.993
524.32	40.101
524.66	38.944
525.01	40.719
525.35	40.657
525.69	39.883
526.04	39.621
526.38	39.975
526.72	39.400
527.06	41.016
527.41	39.142
527.75	39.670
528.09	39.974
528.43	40.000
528.78	40.515
529.12	40.717
529.46	40.013
529.80	40.671
530.15	41.082
530.49	39.780
530.83	41.061
531.17	40.404
531.51	39.652
531.86	39.961
532.20	39.879
532.54	40.174
532.88	39.328
533.22	40.040
533.57	39.491
533.91	39.263
534.25	39.158
534.59	38.601
534.93	38.395
535.27	38.955
535.62	38.683
535.96	38.849
536.30	38.482
536.64	38.977
536.98	40.184
537.32	39.115
537.66	38.832
538.01	40.137
538.35	40.608
538.69	38.636
539.03	39.540
539.37	38.257
539.71	39.026
540.05	39.616
540.39	39.266
540.73	39.737
541.07	40.232
541.42	39.500
541.76	38.073
542.10	39.163
542.44	40.373
542.78	39.009
543.12	39.851
543.46	38.151
543.80	37.726
544.14	40.027
544.48	39.633
544.82	38.566
545.16	40.040
545.50	39.771
545.84	39.569
546.18	39.112
546.52	40.185
546.86	38.960
547.20	40.014
547.54	38.499
547.88	40.146
548.22	38.860
548.56	39.279
548.90	38.612
549.24	39.664
549.58	40.296
549.92	41.131
550.26	40.535
550.60	38.549
550.94	38.905
551.28	39.880
551.62	39.439
551.96	38.712
552.30	38.328
552.64	39.057
552.98	39.523
553.32	38.961
553.66	40.231
554.00	40.085
554.34	39.639
554.68	39.912
555.02	39.580
555.36	38.965
555.69	39.255
556.03	40.070
556.37	39.118
556.71	39.871
557.05	39.320
557.39	38.307
557.73	40.044
558.07	39.412
558.41	39.043
558.75	39.772
559.08	38.054
559.42	40.199
559.76	40.261
560.10	40.940
560.44	40.390
560.78	39.527
561.12	38.578
561.45	38.973
561.79	39.094
562.13	37.938
562.47	37.465
562.81	37.836
563.15	39.958
563.48	38.010
563.82	38.540
564.16	40.095
564.50	38.508
564.84	39.616
565.17	37.732
565.51	38.201
565.85	39.216
566.19	39.987
566.52	38.030
566.86	38.875
567.20	37.833
567.54	40.047
567.88	38.191
568.21	38.591
568.55	37.593
568.89	37.624
569.23	37.066
569.56	36.780
569.90	37.215
570.24	37.204
570.57	36.239
570.91	35.906
571.25	36.446
571.59	35.998
571.92	35.417
572.26	35.590
572.60	35.681
572.93	34.593
573.27	34.634
573.61	34.930
573.95	34.912
574.28	34.697
574.62	34.494
574.96	34.895
575.29	34.782
575.63	34.829
575.97	34.520
576.30	34.612
576.64	35.065
576.98	34.212
577.31	34.732
577.65	34.981
577.98	34.773
578.32	34.288
578.66	34.822
578.99	34.488
579.33	34.187
579.67	34.745
580.00	34.623
580.34	34.467
580.67	34.469
581.01	33.592
581.35	34.294
581.68	33.855
582.02	34.496
582.35	34.372
582.69	34.534
583.02	35.080
583.36	34.414
583.70	34.588
584.03	34.779
584.37	34.723
584.70	34.285
585.04	35.038
585.37	34.487
585.71	34.615
586.04	34.093
586.38	34.616
586.72	35.034
587.05	34.551
587.39	34.089
587.72	34.404
588.06	34.663
588.39	34.805
588.73	34.822
589.06	35.582
589.40	35.417
589.73	35.411
590.07	35.543
590.40	34.723
590.73	35.066
591.07	35.369
591.40	36.698
591.74	35.708
592.07	35.811
592.41	36.008
592.74	35.396
593.08	35.015
593.41	35.921
593.75	34.652
594.08	35.011
594.41	36.229
594.75	35.561
595.08	35.977
595.42	35.405
595.75	34.105
596.09	35.972
596.42	35.802
596.75	35.015
597.09	36.643
597.42	35.050
597.75	35.164
598.09	36.331
598.42	35.307
598.76	34.178
599.09	35.478
599.42	34.564
599.76	34.655
600.09	35.954
600.42	35.207
600.76	35.631
601.09	35.549
601.42	34.468
601.76	35.008
602.09	35.092
602.42	35.103
602.76	35.189
603.09	35.444
603.42	35.455
603.76	35.740
604.09	35.122
604.42	34.971
604.76	34.802
605.09	35.986
605.42	35.993
605.75	35.058
606.09	35.077
606.42	35.065
606.75	35.552
607.09	34.627
607.42	35.211
607.75	35.188
608.08	35.969
608.42	35.714
608.75	35.140
609.08	35.899
609.41	34.928
609.75	34.715
610.08	36.569
610.41	35.277
610.74	36.122
611.07	35.953
611.41	35.956
611.74	36.247
612.07	36.735
612.40	35.768
612.73	35.810
613.07	35.553
613.40	36.782
613.73	35.422
614.06	35.475
614.39	36.359
614.72	35.587
615.06	35.109
615.39	34.563
615.72	35.850
616.05	35.229
616.38	37.086
616.71	36.577
617.05	36.490
617.38	36.347
617.71	35.197
618.04	35.963
618.37	36.541
618.70	37.484
619.03	36.425
619.36	37.139
619.69	37.186
620.03	36.639
620.36	36.217
620.69	36.109
621.02	37.823
621.35	37.258
621.68	37.787
622.01	36.893
622.34	37.500
622.67	36.484
623.00	38.485
623.33	37.463
623.66	36.484
623.99	36.767
624.32	36.756
624.65	37.380
624.99	37.117
625.32	36.302
625.65	36.597
625.98	35.994
626.31	36.868
626.64	37.406
626.97	37.586
627.30	38.809
627.63	36.356
627.96	38.729
628.29	38.327
628.62	37.631
628.95	39.469
629.28	36.560
629.61	38.960
629.94	37.618
630.26	39.165
630.59	40.704
630.92	39.339
631.25	39.315
631.58	39.788
631.91	36.383
632.24	38.333
632.57	39.222
632.90	40.690
