SpectraSuite Data File
++++++++++++++++++++++++++++++++++++
Date: Sat May 16 11:07:01 PDT 2015
User: schluterlab
Dark Spectrum Present: Yes
Reference Spectrum Present: Yes
Number of Sampled Component Spectra: 1
Spectrometers: USB2E3373
Integration Time (usec): 3000 (USB2E3373)
Spectra Averaged: 3 (USB2E3373)
Boxcar Smoothing: 0 (USB2E3373)
Correct for Electrical Dark: No (USB2E3373)
Strobe/Lamp Enabled: No (USB2E3373)
Correct for Detector Non-linearity: No (USB2E3373)
Correct for Stray Light: No (USB2E3373)
Number of Pixels in Processed Spectrum: 2048
>>>>>Begin Processed Spectral Data<<<<<
178.53	0.000
178.91	6.667
179.29	-100.000
179.67	100.000
180.04	69.231
180.42	-900.000
180.80	-175.000
181.18	-0.000
181.56	62.500
181.94	-400.000
182.31	200.000
182.69	92.308
183.07	33.333
183.45	700.000
183.83	366.667
184.20	-71.429
184.58	-62.500
184.96	-100.000
185.34	50.000
185.72	-75.000
186.09	-133.333
186.47	-200.000
186.85	0.000
187.23	100.000
187.61	200.000
187.98	-87.500
188.36	100.000
188.74	12.500
189.12	-100.000
189.49	200.000
189.87	41.667
190.25	100.000
190.63	92.857
191.00	-88.889
191.38	-0.000
191.76	26.667
192.14	100.000
192.51	100.000
192.89	0.000
193.27	0.000
193.65	122.222
194.02	-57.143
194.40	-33.333
194.78	-10.000
195.15	-200.000
195.53	-18.182
195.91	-100.000
196.29	-220.000
196.66	-166.667
197.04	-0.000
197.42	0.000
197.79	140.000
198.17	466.667
198.55	150.000
198.92	100.000
199.30	62.500
199.68	0.000
200.05	155.556
200.43	-11.111
200.81	100.000
201.18	8.333
201.56	-100.000
201.94	-13.333
202.31	118.182
202.69	-10.000
203.07	120.000
203.44	33.333
203.82	-100.000
204.19	-300.000
204.57	200.000
204.95	700.000
205.32	6.250
205.70	-200.000
206.08	0.000
206.45	33.333
206.83	0.000
207.20	550.000
207.58	-400.000
207.96	100.000
208.33	25.000
208.71	66.667
209.08	140.000
209.46	57.143
209.84	-0.000
210.21	0.000
210.59	125.000
210.96	-100.000
211.34	-83.333
211.71	33.333
212.09	50.000
212.46	650.000
212.84	-700.000
213.22	66.667
213.59	83.333
213.97	66.667
214.34	30.000
214.72	60.000
215.09	-166.667
215.47	83.333
215.84	-30.000
216.22	40.000
216.59	100.000
216.97	75.000
217.34	150.000
217.72	14.286
218.09	-16.667
218.47	-14.286
218.84	85.714
219.22	-42.857
219.59	0.000
219.97	-85.714
220.34	250.000
220.72	12.500
221.09	0.000
221.47	0.000
221.84	33.333
222.22	200.000
222.59	-500.000
222.97	-37.500
223.34	-200.000
223.72	-100.000
224.09	135.714
224.46	200.000
224.84	28.571
225.21	-71.429
225.59	127.273
225.96	62.500
226.34	185.714
226.71	33.333
227.08	55.000
227.46	700.000
227.83	14.286
228.21	0.000
228.58	150.000
228.95	12.500
229.33	-300.000
229.70	160.000
230.08	-350.000
230.45	41.667
230.82	150.000
231.20	600.000
231.57	100.000
231.95	-200.000
232.32	61.905
232.69	55.556
233.07	28.571
233.44	-100.000
233.81	46.667
234.19	122.222
234.56	37.500
234.93	78.125
235.31	-100.000
235.68	-35.714
236.05	52.941
236.43	36.364
236.80	51.613
237.17	50.000
237.55	-23.810
237.92	36.364
238.29	17.143
238.67	64.706
239.04	47.222
239.41	32.258
239.79	12.821
240.16	57.143
240.53	36.364
240.91	64.103
241.28	50.909
241.65	47.692
242.02	54.098
242.40	52.459
242.77	54.545
243.14	35.593
243.51	34.286
243.89	54.430
244.26	48.315
244.63	50.526
245.00	32.632
245.38	38.983
245.75	49.558
246.12	36.000
246.49	45.669
246.87	34.146
247.24	40.678
247.61	54.237
247.98	38.732
248.36	35.664
248.73	47.468
249.10	39.490
249.47	43.275
249.84	42.614
250.22	35.119
250.59	40.113
250.96	50.785
251.33	43.602
251.70	42.788
252.08	45.972
252.45	44.550
252.82	44.762
253.19	50.638
253.56	39.113
253.94	42.194
254.31	46.781
254.68	47.561
255.05	46.774
255.42	45.635
255.79	40.860
256.16	45.882
256.54	45.221
256.91	42.424
257.28	41.392
257.65	39.007
258.02	47.799
258.39	41.137
258.76	44.257
259.14	45.370
259.51	44.590
259.88	41.463
260.25	49.689
260.62	40.836
260.99	39.466
261.36	41.463
261.73	44.220
262.10	45.833
262.47	40.456
262.85	45.143
263.22	39.542
263.59	43.692
263.96	41.739
264.33	42.818
264.70	45.580
265.07	44.505
265.44	41.085
265.81	41.602
266.18	41.266
266.55	43.137
266.92	45.592
267.29	46.973
267.66	43.704
268.03	45.169
268.40	42.958
268.77	43.133
269.14	44.548
269.51	43.908
269.88	40.138
270.25	41.259
270.62	43.249
270.99	43.919
271.36	42.657
271.73	42.377
272.10	42.334
272.47	42.000
272.84	46.889
273.21	41.284
273.58	43.297
273.95	41.886
274.32	40.271
274.69	43.326
275.06	44.581
275.43	41.964
275.80	45.621
276.17	41.423
276.54	41.548
276.91	42.387
277.28	43.408
277.65	42.355
278.02	42.589
278.39	42.436
278.76	43.625
279.13	39.723
279.50	44.533
279.87	41.860
280.23	43.927
280.60	39.960
280.97	40.971
281.34	41.393
281.71	40.385
282.08	42.540
282.45	41.344
282.82	40.698
283.19	42.000
283.56	41.026
283.92	41.696
284.29	40.335
284.66	38.849
285.03	38.859
285.40	40.221
285.77	39.123
286.14	39.170
286.51	38.366
286.87	41.379
287.24	38.737
287.61	37.521
287.98	38.302
288.35	38.512
288.72	36.163
289.08	35.593
289.45	38.215
289.82	37.370
290.19	39.409
290.56	34.876
290.93	34.658
291.29	36.629
291.66	36.554
292.03	35.479
292.40	35.542
292.77	34.938
293.13	38.699
293.50	35.364
293.87	35.429
294.24	32.428
294.60	30.909
294.97	35.660
295.34	33.185
295.71	32.440
296.08	33.487
296.44	32.904
296.81	34.046
297.18	32.817
297.55	35.028
297.91	34.868
298.28	30.685
298.65	30.962
299.02	32.487
299.38	30.749
299.75	30.163
300.12	30.513
300.48	32.353
300.85	31.717
301.22	30.401
301.59	30.689
301.95	32.368
302.32	30.639
302.69	28.397
303.05	30.647
303.42	28.500
303.79	28.828
304.15	29.976
304.52	29.055
304.89	28.689
305.25	29.548
305.62	28.790
305.99	29.446
306.35	28.968
306.72	28.588
307.09	28.717
307.45	28.604
307.82	27.151
308.19	30.201
308.55	28.431
308.92	26.208
309.29	28.432
309.65	27.784
310.02	28.726
310.38	26.486
310.75	27.459
311.12	27.686
311.48	28.497
311.85	26.777
312.22	26.777
312.58	26.653
312.95	25.994
313.31	27.273
313.68	27.236
314.05	27.596
314.41	25.855
314.78	25.674
315.14	26.160
315.51	26.950
315.87	27.493
316.24	25.753
316.61	27.735
316.97	27.960
317.34	26.301
317.70	25.974
318.07	26.679
318.43	25.749
318.80	27.418
319.16	25.516
319.53	25.188
319.89	25.118
320.26	26.176
320.62	25.385
320.99	26.269
321.35	24.729
321.72	25.691
322.08	27.102
322.45	24.059
322.81	25.648
323.18	24.880
323.54	25.508
323.91	25.765
324.27	25.856
324.64	25.594
325.00	25.567
325.37	25.158
325.73	25.022
326.10	24.004
326.46	25.744
326.83	25.277
327.19	24.854
327.56	25.980
327.92	24.384
328.29	25.801
328.65	23.273
329.01	24.117
329.38	24.799
329.74	24.176
330.11	24.297
330.47	24.705
330.84	24.931
331.20	24.278
331.56	24.066
331.93	23.979
332.29	24.292
332.66	23.354
333.02	24.253
333.38	25.269
333.75	24.399
334.11	23.111
334.48	24.095
334.84	25.372
335.20	23.759
335.57	23.736
335.93	25.067
336.29	22.764
336.66	23.084
337.02	23.694
337.38	23.173
337.75	24.056
338.11	23.256
338.47	23.932
338.84	23.049
339.20	23.286
339.56	23.440
339.93	23.633
340.29	23.295
340.65	23.339
341.02	23.609
341.38	23.336
341.74	22.777
342.11	22.184
342.47	23.176
342.83	22.670
343.20	23.057
343.56	22.204
343.92	22.538
344.28	23.297
344.65	21.947
345.01	23.109
345.37	23.007
345.73	21.931
346.10	22.567
346.46	22.096
346.82	21.492
347.19	22.432
347.55	22.311
347.91	22.047
348.27	22.196
348.63	23.183
349.00	22.275
349.36	21.702
349.72	23.010
350.08	22.534
350.45	21.828
350.81	22.691
351.17	22.428
351.53	20.286
351.89	22.312
352.26	22.558
352.62	22.427
352.98	21.677
353.34	21.902
353.70	21.004
354.07	22.895
354.43	22.451
354.79	22.425
355.15	21.326
355.51	21.641
355.87	21.344
356.24	22.319
356.60	21.676
356.96	21.863
357.32	21.932
357.68	21.226
358.04	21.247
358.40	21.423
358.77	21.638
359.13	22.265
359.49	21.013
359.85	21.723
360.21	22.146
360.57	22.063
360.93	22.222
361.29	22.347
361.66	20.579
362.02	20.784
362.38	21.643
362.74	21.758
363.10	20.803
363.46	22.436
363.82	21.137
364.18	21.708
364.54	21.372
364.90	20.894
365.26	20.542
365.62	22.096
365.98	21.337
366.35	20.493
366.71	20.296
367.07	21.383
367.43	22.169
367.79	21.856
368.15	20.057
368.51	21.259
368.87	21.566
369.23	22.105
369.59	21.111
369.95	21.353
370.31	21.660
370.67	20.680
371.03	20.991
371.39	19.731
371.75	21.030
372.11	21.162
372.47	20.897
372.83	21.627
373.19	20.500
373.55	21.605
373.91	21.337
374.27	21.150
374.63	20.428
374.99	21.419
375.35	20.592
375.71	22.080
376.07	20.671
376.42	18.874
376.78	21.438
377.14	21.085
377.50	21.277
377.86	20.351
378.22	21.294
378.58	20.630
378.94	20.715
379.30	20.353
379.66	20.340
380.02	20.559
380.38	19.396
380.74	20.692
381.09	20.680
381.45	20.943
381.81	20.206
382.17	20.301
382.53	19.878
382.89	21.591
383.25	20.771
383.61	19.870
383.97	21.066
384.32	20.463
384.68	20.073
385.04	19.686
385.40	19.781
385.76	21.220
386.12	20.362
386.48	21.225
386.83	20.982
387.19	21.219
387.55	20.957
387.91	20.273
388.27	19.361
388.62	21.575
388.98	19.261
389.34	20.073
389.70	20.706
390.06	19.204
390.42	20.641
390.77	20.063
391.13	21.118
391.49	19.588
391.85	20.387
392.20	20.024
392.56	20.525
392.92	20.137
393.28	20.666
393.64	19.784
393.99	19.508
394.35	20.620
394.71	20.815
395.07	20.465
395.42	19.130
395.78	19.736
396.14	21.121
396.50	20.550
396.85	20.111
397.21	19.684
397.57	20.243
397.92	20.199
398.28	20.111
398.64	19.988
399.00	20.787
399.35	20.800
399.71	20.848
400.07	20.119
400.42	20.803
400.78	19.559
401.14	19.940
401.49	19.752
401.85	20.500
402.21	19.905
402.57	19.782
402.92	20.705
403.28	21.630
403.63	19.832
403.99	20.323
404.35	19.807
404.70	20.129
405.06	20.934
405.42	20.111
405.77	19.966
406.13	20.386
406.49	20.132
406.84	20.216
407.20	20.612
407.55	20.709
407.91	19.624
408.27	20.159
408.62	19.844
408.98	20.497
409.34	19.196
409.69	19.534
410.05	19.891
410.40	20.785
410.76	20.628
411.11	19.514
411.47	19.885
411.83	20.538
412.18	20.235
412.54	19.402
412.89	19.988
413.25	18.949
413.60	18.894
413.96	19.224
414.31	19.572
414.67	19.619
415.03	20.116
415.38	19.779
415.74	20.619
416.09	19.565
416.45	19.246
416.80	19.571
417.16	19.269
417.51	20.880
417.87	19.935
418.22	20.544
418.58	20.347
418.93	20.172
419.29	20.201
419.64	19.535
420.00	20.595
420.35	19.692
420.71	19.148
421.06	19.172
421.42	18.560
421.77	20.491
422.12	20.313
422.48	20.363
422.83	20.046
423.19	19.710
423.54	20.115
423.90	19.838
424.25	19.287
424.61	20.265
424.96	19.895
425.31	20.067
425.67	19.713
426.02	19.048
426.38	20.508
426.73	20.164
427.09	19.975
427.44	19.886
427.79	19.244
428.15	20.048
428.50	20.352
428.85	19.964
429.21	19.148
429.56	19.583
429.92	19.389
430.27	19.890
430.62	20.428
430.98	19.446
431.33	19.477
431.68	20.483
432.04	20.145
432.39	19.715
432.74	20.024
433.10	20.203
433.45	19.171
433.80	19.541
434.16	20.527
434.51	19.781
434.86	20.094
435.22	19.822
435.57	19.951
435.92	20.164
436.28	20.237
436.63	19.785
436.98	19.530
437.34	19.551
437.69	19.020
438.04	19.626
438.39	19.916
438.75	19.150
439.10	19.489
439.45	19.071
439.81	20.000
440.16	19.818
440.51	20.706
440.86	19.375
441.22	18.408
441.57	19.211
441.92	20.000
442.27	19.372
442.63	20.494
442.98	19.074
443.33	19.110
443.68	19.750
444.03	20.088
444.39	19.383
444.74	19.438
445.09	20.504
445.44	20.203
445.79	19.888
446.15	20.099
446.50	18.726
446.85	19.754
447.20	19.816
447.55	20.276
447.91	20.606
448.26	20.056
448.61	20.091
448.96	21.064
449.31	19.560
449.66	19.576
450.02	18.837
450.37	19.188
450.72	19.322
451.07	20.302
451.42	18.340
451.77	19.090
452.12	19.547
452.47	19.710
452.83	19.394
453.18	19.861
453.53	19.092
453.88	19.856
454.23	19.166
454.58	20.261
454.93	20.718
455.28	19.439
455.63	19.779
455.98	20.181
456.34	18.234
456.69	20.263
457.04	20.713
457.39	18.900
457.74	19.669
458.09	19.548
458.44	19.804
458.79	19.114
459.14	19.338
459.49	20.545
459.84	19.674
460.19	20.227
460.54	19.601
460.89	19.283
461.24	19.369
461.59	19.578
461.94	19.733
462.29	19.059
462.64	20.026
462.99	20.147
463.34	19.109
463.69	19.656
464.04	19.508
464.39	19.415
464.74	20.095
465.09	19.363
465.44	19.233
465.79	19.741
466.14	20.081
466.49	19.574
466.84	19.808
467.19	19.451
467.54	18.861
467.89	19.605
468.24	19.181
468.59	19.550
468.94	18.971
469.29	19.038
469.64	19.609
469.99	19.649
470.34	19.906
470.68	19.549
471.03	19.546
471.38	18.889
471.73	18.951
472.08	19.746
472.43	18.082
472.78	19.267
473.13	18.091
473.48	19.974
473.83	19.231
474.17	19.045
474.52	19.757
474.87	19.464
475.22	19.174
475.57	19.167
475.92	19.006
476.27	19.314
476.61	18.873
476.96	19.061
477.31	19.214
477.66	19.369
478.01	18.909
478.36	18.701
478.70	19.167
479.05	19.145
479.40	19.275
479.75	19.113
480.10	19.891
480.45	18.714
480.79	19.743
481.14	19.870
481.49	19.700
481.84	19.417
482.19	19.918
482.53	19.934
482.88	18.462
483.23	18.451
483.58	19.935
483.92	19.111
484.27	18.919
484.62	19.741
484.97	19.486
485.31	19.648
485.66	20.495
486.01	19.871
486.36	20.361
486.70	19.967
487.05	19.776
487.40	19.818
487.75	19.708
488.09	18.746
488.44	18.978
488.79	18.889
489.13	18.828
489.48	19.372
489.83	19.476
490.17	19.025
490.52	18.886
490.87	19.030
491.22	18.356
491.56	18.287
491.91	18.177
492.26	18.585
492.60	18.554
492.95	18.991
493.30	18.437
493.64	18.524
493.99	19.407
494.34	19.190
494.68	19.335
495.03	18.547
495.37	18.732
495.72	19.008
496.07	19.474
496.41	19.407
496.76	18.676
497.11	19.407
497.45	19.253
497.80	18.809
498.14	18.762
498.49	19.136
498.84	18.592
499.18	18.811
499.53	18.266
499.87	17.954
500.22	18.873
500.56	19.260
500.91	19.163
501.26	19.893
501.60	18.584
501.95	19.903
502.29	18.706
502.64	18.859
502.98	18.448
503.33	19.314
503.67	18.151
504.02	18.590
504.36	19.216
504.71	18.338
505.06	19.071
505.40	19.012
505.75	18.343
506.09	19.060
506.44	19.198
506.78	18.816
507.13	17.920
507.47	18.884
507.82	19.050
508.16	18.808
508.51	18.753
508.85	18.530
509.19	17.949
509.54	18.975
509.88	19.628
510.23	18.501
510.57	18.677
510.92	18.690
511.26	18.235
511.61	17.549
511.95	18.050
512.30	19.186
512.64	18.086
512.98	19.582
513.33	18.232
513.67	18.146
514.02	17.897
514.36	19.058
514.70	18.449
515.05	18.353
515.39	17.705
515.74	19.255
516.08	17.810
516.42	18.357
516.77	18.775
517.11	18.192
517.46	18.421
517.80	17.870
518.14	17.754
518.49	18.530
518.83	17.270
519.17	19.065
519.52	17.814
519.86	18.519
520.20	17.787
520.55	18.031
520.89	18.096
521.23	18.803
521.58	17.743
521.92	18.556
522.26	18.159
522.61	18.124
522.95	17.932
523.29	18.056
523.64	17.989
523.98	18.078
524.32	18.353
524.66	17.081
525.01	17.662
525.35	17.977
525.69	17.437
526.04	18.081
526.38	18.205
526.72	17.178
527.06	17.187
527.41	17.492
527.75	17.954
528.09	18.332
528.43	17.770
528.78	17.839
529.12	19.014
529.46	17.977
529.80	18.141
530.15	17.772
530.49	18.758
530.83	19.319
531.17	16.768
531.51	16.745
531.86	17.182
532.20	17.679
532.54	19.184
532.88	17.589
533.22	17.914
533.57	19.125
533.91	17.728
534.25	18.416
534.59	17.989
534.93	17.922
535.27	18.313
535.62	17.903
535.96	17.582
536.30	17.212
536.64	18.459
536.98	18.573
537.32	17.968
537.66	17.583
538.01	18.213
538.35	17.973
538.69	18.382
539.03	18.009
539.37	17.964
539.71	18.546
540.05	17.820
540.39	18.490
540.73	18.936
541.07	18.033
541.42	17.556
541.76	17.542
542.10	18.501
542.44	18.454
542.78	17.978
543.12	18.126
543.46	17.945
543.80	16.856
544.14	16.991
544.48	18.176
544.82	17.524
545.16	18.511
545.50	16.958
545.84	16.898
546.18	18.100
546.52	18.065
546.86	17.806
547.20	17.370
547.54	17.631
547.88	17.784
548.22	17.169
548.56	17.568
548.90	19.003
549.24	17.870
549.58	18.278
549.92	17.527
550.26	18.569
550.60	17.425
550.94	16.934
551.28	17.457
551.62	16.913
551.96	17.438
552.30	18.606
552.64	17.452
552.98	18.220
553.32	16.955
553.66	18.097
554.00	17.129
554.34	16.029
554.68	17.032
555.02	17.800
555.36	17.469
555.69	17.837
556.03	17.123
556.37	17.923
556.71	17.895
557.05	18.034
557.39	17.595
557.73	18.818
558.07	17.106
558.41	17.053
558.75	17.338
559.08	14.942
559.42	17.841
559.76	17.638
560.10	17.599
560.44	18.786
560.78	17.606
561.12	17.391
561.45	18.973
561.79	18.467
562.13	18.163
562.47	17.087
562.81	17.610
563.15	17.705
563.48	18.452
563.82	17.782
564.16	17.850
564.50	18.145
564.84	17.923
565.17	17.042
565.51	18.970
565.85	18.391
566.19	17.523
566.52	18.200
566.86	17.636
567.20	18.947
567.54	18.960
567.88	17.923
568.21	18.289
568.55	18.399
568.89	17.942
569.23	19.389
569.56	18.621
569.90	19.119
570.24	18.790
570.57	18.840
570.91	19.075
571.25	19.131
571.59	19.357
571.92	19.167
572.26	19.173
572.60	19.485
572.93	18.675
573.27	18.872
573.61	19.358
573.95	19.159
574.28	18.954
574.62	19.471
574.96	18.943
575.29	19.080
575.63	19.140
575.97	18.662
576.30	19.403
576.64	19.269
576.98	18.985
577.31	19.190
577.65	19.146
577.98	19.618
578.32	19.133
578.66	19.301
578.99	19.441
579.33	19.015
579.67	19.021
580.00	19.072
580.34	19.178
580.67	19.122
581.01	19.264
581.35	19.377
581.68	19.370
582.02	19.479
582.35	19.471
582.69	19.581
583.02	19.363
583.36	19.471
583.70	19.432
584.03	19.181
584.37	18.674
584.70	18.900
585.04	19.443
585.37	18.974
585.71	19.424
586.04	19.048
586.38	18.979
586.72	19.081
587.05	19.541
587.39	18.957
587.72	19.113
588.06	19.285
588.39	19.111
588.73	18.648
589.06	18.702
589.40	18.997
589.73	19.051
590.07	18.572
590.40	18.708
590.73	18.792
591.07	18.770
591.40	18.414
591.74	18.375
592.07	18.964
592.41	18.938
592.74	19.293
593.08	19.156
593.41	19.112
593.75	18.595
594.08	19.231
594.41	19.113
594.75	19.064
595.08	19.248
595.42	19.328
595.75	19.184
596.09	18.549
596.42	18.576
596.75	18.586
597.09	19.323
597.42	18.725
597.75	18.822
598.09	18.482
598.42	18.029
598.76	18.272
599.09	18.903
599.42	18.916
599.76	18.573
600.09	18.359
600.42	19.142
600.76	18.832
601.09	18.420
601.42	18.560
601.76	18.614
602.09	18.364
602.42	18.560
602.76	18.072
603.09	19.113
603.42	18.453
603.76	19.465
604.09	19.143
604.42	18.068
604.76	18.622
605.09	18.716
605.42	18.883
605.75	18.542
606.09	19.012
606.42	18.643
606.75	18.205
607.09	19.541
607.42	18.574
607.75	19.117
608.08	19.024
608.42	19.016
608.75	17.617
609.08	18.022
609.41	18.186
609.75	17.796
610.08	19.167
610.41	18.313
610.74	18.617
611.07	18.154
611.41	18.608
611.74	18.972
612.07	18.904
612.40	18.230
612.73	18.148
613.07	17.722
613.40	18.664
613.73	18.856
614.06	18.561
614.39	18.828
614.72	17.933
615.06	17.826
615.39	17.906
615.72	18.577
616.05	17.835
616.38	18.166
616.71	17.958
617.05	18.335
617.38	18.885
617.71	17.813
618.04	18.261
618.37	18.553
618.70	17.862
619.03	17.332
619.36	19.168
619.69	18.090
620.03	18.388
620.36	18.143
620.69	17.803
621.02	17.352
621.35	16.694
621.68	17.213
622.01	17.233
622.34	18.789
622.67	17.187
623.00	17.904
623.33	19.104
623.66	17.282
623.99	17.669
624.32	17.411
624.65	17.734
624.99	17.102
625.32	16.692
625.65	18.648
625.98	16.197
626.31	18.515
626.64	17.908
626.97	17.123
627.30	17.362
627.63	16.926
627.96	17.058
628.29	16.544
628.62	14.995
628.95	17.421
629.28	15.414
629.61	16.192
629.94	17.297
630.26	17.893
630.59	17.286
630.92	16.116
631.25	17.137
631.58	16.614
631.91	14.787
632.24	17.222
632.57	16.556
632.90	18.161
633.23	16.355
633.56	16.374
633.89	16.156
634.22	15.939
