SpectraSuite Data File
++++++++++++++++++++++++++++++++++++
Date: Sat May 16 11:36:39 PDT 2015
User: schluterlab
Dark Spectrum Present: Yes
Reference Spectrum Present: Yes
Number of Sampled Component Spectra: 1
Spectrometers: USB2E3373
Integration Time (usec): 3000 (USB2E3373)
Spectra Averaged: 3 (USB2E3373)
Boxcar Smoothing: 0 (USB2E3373)
Correct for Electrical Dark: No (USB2E3373)
Strobe/Lamp Enabled: No (USB2E3373)
Correct for Detector Non-linearity: No (USB2E3373)
Correct for Stray Light: No (USB2E3373)
Number of Pixels in Processed Spectrum: 2048
>>>>>Begin Processed Spectral Data<<<<<
178.53	0.000
178.91	146.667
179.29	500.000
179.67	-1100.000
180.04	-69.231
180.42	400.000
180.80	200.000
181.18	350.000
181.56	-100.000
181.94	-100.000
182.31	775.000
182.69	-46.154
183.07	-333.333
183.45	1450.000
183.83	433.333
184.20	-171.429
184.58	-37.500
184.96	-275.000
185.34	150.000
185.72	-450.000
186.09	300.000
186.47	-225.000
186.85	-112.500
187.23	37.500
187.61	-375.000
187.98	-262.500
188.36	-150.000
188.74	-212.500
189.12	1200.000
189.49	257.143
189.87	-100.000
190.25	275.000
190.63	-35.714
191.00	-155.556
191.38	300.000
191.76	-6.667
192.14	480.000
192.51	-280.000
192.89	-400.000
193.27	0.000
193.65	-188.889
194.02	-185.714
194.40	733.333
194.78	-120.000
195.15	-800.000
195.53	-154.545
195.91	-550.000
196.29	280.000
196.66	-800.000
197.04	2500.000
197.42	-250.000
197.79	0.000
198.17	-200.000
198.55	-1100.000
198.92	-1300.000
199.30	275.000
199.68	-900.000
200.05	-100.000
200.43	-244.444
200.81	-1900.000
201.18	-75.000
201.56	128.571
201.94	-93.333
202.31	-4.545
202.69	10.000
203.07	-60.000
203.44	533.333
203.82	-366.667
204.19	-400.000
204.57	-275.000
204.95	-1400.000
205.32	18.750
205.70	1300.000
206.08	-1600.000
206.45	22.222
206.83	-1050.000
207.20	-50.000
207.58	-933.333
207.96	-566.667
208.33	-137.500
208.71	-188.889
209.08	130.000
209.46	-200.000
209.84	1200.000
210.21	0.000
210.59	15.000
210.96	900.000
211.34	-266.667
211.71	-400.000
212.09	375.000
212.46	1150.000
212.84	-1800.000
213.22	600.000
213.59	108.333
213.97	-77.778
214.34	150.000
214.72	-120.000
215.09	-266.667
215.47	-200.000
215.84	-130.000
216.22	-80.000
216.59	13.333
216.97	-375.000
217.34	700.000
217.72	-128.571
218.09	-316.667
218.47	-242.857
218.84	271.429
219.22	-114.286
219.59	0.000
219.97	385.714
220.34	375.000
220.72	275.000
221.09	-61.538
221.47	0.000
221.84	666.667
222.22	-500.000
222.59	1300.000
222.97	-187.500
223.34	-550.000
223.72	-466.667
224.09	-92.857
224.46	-775.000
224.84	-35.714
225.21	-242.857
225.59	-45.455
225.96	-287.500
226.34	-214.286
226.71	-155.556
227.08	-5.000
227.46	2200.000
227.83	-214.286
228.21	-237.500
228.58	-0.000
228.95	-37.500
229.33	-1200.000
229.70	-300.000
230.08	-850.000
230.45	-25.000
230.82	-233.333
231.20	-1700.000
231.57	-300.000
231.95	1300.000
232.32	-9.524
232.69	-233.333
233.07	-257.143
233.44	-1250.000
233.81	-100.000
234.19	-88.889
234.56	-131.250
234.93	0.000
235.31	-214.286
235.68	-142.857
236.05	-41.176
236.43	-81.818
236.80	6.452
237.17	-70.833
237.55	-47.619
237.92	-95.455
238.29	-48.571
238.67	-8.824
239.04	8.333
239.41	-48.387
239.79	-56.410
240.16	-40.476
240.53	-25.455
240.91	-66.667
241.28	-5.455
241.65	-6.154
242.02	-9.836
242.40	-16.393
242.77	-9.091
243.14	-22.034
243.51	-21.429
243.89	-11.392
244.26	-15.730
244.63	-3.158
245.00	-5.263
245.38	-4.237
245.75	-6.195
246.12	5.600
246.49	-4.724
246.87	-8.130
247.24	-12.712
247.61	-11.864
247.98	-1.408
248.36	-6.993
248.73	0.000
249.10	-6.369
249.47	1.170
249.84	1.136
250.22	-17.262
250.59	-3.390
250.96	-1.047
251.33	4.739
251.70	3.846
252.08	3.791
252.45	-5.213
252.82	-2.381
253.19	0.851
253.56	3.226
253.94	-0.422
254.31	-2.146
254.68	2.846
255.05	0.403
255.42	1.587
255.79	4.659
256.16	1.569
256.54	0.735
256.91	-5.303
257.28	0.000
257.65	2.482
258.02	5.660
258.39	1.672
258.76	1.689
259.14	-0.309
259.51	3.607
259.88	1.524
260.25	4.037
260.62	-0.322
260.99	-2.077
261.36	4.573
261.73	2.023
262.10	1.667
262.47	1.140
262.85	4.571
263.22	1.719
263.59	-1.538
263.96	1.739
264.33	2.439
264.70	2.762
265.07	3.022
265.44	-1.809
265.81	1.550
266.18	0.000
266.55	0.000
266.92	3.275
267.29	1.211
267.66	0.247
268.03	6.039
268.40	1.408
268.77	2.410
269.14	0.464
269.51	1.839
269.88	-0.688
270.25	1.399
270.62	2.975
270.99	0.901
271.36	0.932
271.73	3.587
272.10	-0.229
272.47	0.444
272.84	4.889
273.21	2.294
273.58	2.637
273.95	2.632
274.32	1.584
274.69	4.595
275.06	1.636
275.43	1.339
275.80	5.906
276.17	1.883
276.54	3.055
276.91	1.646
277.28	2.028
277.65	-0.207
278.02	2.505
278.39	2.554
278.76	2.988
279.13	2.767
279.50	1.789
279.87	3.594
280.23	2.632
280.60	1.988
280.97	1.748
281.34	1.354
281.71	3.654
282.08	0.806
282.45	-0.611
282.82	2.519
283.19	1.273
283.56	4.212
283.92	2.650
284.29	2.416
284.66	4.317
285.03	5.704
285.40	3.321
285.77	2.982
286.14	2.708
286.51	3.552
286.87	3.085
287.24	3.242
287.61	3.140
287.98	4.159
288.35	4.463
288.72	2.547
289.08	3.220
289.45	4.545
289.82	2.422
290.19	5.911
290.56	2.479
290.93	1.272
291.29	2.107
291.66	1.932
292.03	6.122
292.40	5.120
292.77	4.814
293.13	5.203
293.50	4.012
293.87	4.294
294.24	3.469
294.60	3.485
294.97	4.097
295.34	2.815
295.71	2.232
296.08	2.458
296.44	2.146
296.81	3.561
297.18	4.507
297.55	4.802
297.91	6.416
298.28	3.425
298.65	3.905
299.02	5.481
299.38	4.011
299.75	3.940
300.12	4.487
300.48	4.987
300.85	4.718
301.22	4.269
301.59	4.161
301.95	6.927
302.32	3.390
302.69	5.263
303.05	4.029
303.42	3.750
303.79	5.742
304.15	5.095
304.52	5.484
304.89	5.077
305.25	5.006
305.62	5.758
305.99	5.418
306.35	5.993
306.72	5.011
307.09	6.129
307.45	5.221
307.82	4.581
308.19	5.369
308.55	5.229
308.92	4.834
309.29	5.189
309.65	4.666
310.02	4.860
310.38	4.324
310.75	5.430
311.12	5.165
311.48	5.115
311.85	5.355
312.22	5.149
312.58	6.002
312.95	6.014
313.31	5.794
313.68	6.030
314.05	7.319
314.41	5.131
314.78	4.895
315.14	6.318
315.51	5.572
315.87	7.067
316.24	6.317
316.61	7.582
316.97	6.169
317.34	5.588
317.70	5.380
318.07	6.343
318.43	6.086
318.80	7.512
319.16	6.848
319.53	6.203
319.89	6.773
320.26	6.176
320.62	6.154
320.99	6.667
321.35	6.207
321.72	7.165
322.08	6.726
322.45	6.040
322.81	8.261
323.18	6.532
323.54	6.839
323.91	7.322
324.27	7.224
324.64	6.856
325.00	6.894
325.37	7.602
325.73	8.399
326.10	6.200
326.46	7.356
326.83	7.319
327.19	7.923
327.56	9.284
327.92	8.751
328.29	8.571
328.65	7.364
329.01	7.951
329.38	7.939
329.74	8.333
330.11	7.706
330.47	8.084
330.84	9.166
331.20	8.574
331.56	7.931
331.93	7.815
332.29	8.767
332.66	7.989
333.02	7.873
333.38	8.781
333.75	9.439
334.11	7.467
334.48	7.326
334.84	9.099
335.20	8.599
335.57	9.206
335.93	10.116
336.29	7.706
336.66	8.370
337.02	8.559
337.38	8.467
337.75	8.253
338.11	8.497
338.47	8.630
338.84	7.623
339.20	8.875
339.56	9.180
339.93	7.496
340.29	8.503
340.65	8.829
341.02	8.769
341.38	7.835
341.74	8.467
342.11	8.362
342.47	8.412
342.83	7.893
343.20	7.600
343.56	7.837
343.92	8.598
344.28	8.495
344.65	8.746
345.01	7.731
345.37	9.468
345.73	7.529
346.10	7.604
346.46	8.773
346.82	7.298
347.19	7.560
347.55	7.865
347.91	8.583
348.27	8.035
348.63	8.885
349.00	8.274
349.36	7.884
349.72	9.076
350.08	7.939
350.45	7.329
350.81	8.280
351.17	7.878
351.53	7.558
351.89	7.357
352.26	8.605
352.62	9.524
352.98	7.911
353.34	9.193
353.70	8.340
354.07	8.340
354.43	8.221
354.79	8.320
355.15	7.109
355.51	7.969
355.87	8.221
356.24	6.990
356.60	8.219
356.96	8.930
357.32	7.363
357.68	6.897
358.04	8.930
358.40	8.662
358.77	7.805
359.13	7.651
359.49	8.314
359.85	7.698
360.21	8.067
360.57	8.810
360.93	9.111
361.29	8.744
361.66	8.003
362.02	8.136
362.38	7.924
362.74	8.059
363.10	8.608
363.46	9.046
363.82	7.872
364.18	9.190
364.54	8.506
364.90	7.897
365.26	7.775
365.62	8.054
365.98	8.962
366.35	7.817
366.71	8.175
367.07	8.186
367.43	9.540
367.79	9.485
368.15	8.890
368.51	8.741
368.87	8.723
369.23	8.281
369.59	8.958
369.95	8.809
370.31	8.298
370.67	7.954
371.03	9.038
371.39	7.496
371.75	8.727
372.11	8.680
372.47	8.388
372.83	9.179
373.19	9.000
373.55	9.008
373.91	8.606
374.27	8.830
374.63	9.179
374.99	9.318
375.35	8.412
375.71	8.980
376.07	8.830
376.42	8.146
376.78	9.281
377.14	9.153
377.50	9.413
377.86	8.322
378.22	9.736
378.58	8.894
378.94	8.631
379.30	9.324
379.66	9.350
380.02	9.091
380.38	8.701
380.74	9.086
381.09	9.783
381.45	9.905
381.81	9.316
382.17	9.649
382.53	8.267
382.89	9.270
383.25	9.151
383.61	9.906
383.97	9.614
384.32	9.387
384.68	9.553
385.04	9.662
385.40	10.408
385.76	9.878
386.12	9.494
386.48	8.973
386.83	10.061
387.19	9.504
387.55	9.873
387.91	9.899
388.27	8.384
388.62	9.495
388.98	9.146
389.34	9.914
389.70	9.379
390.06	9.323
390.42	8.910
390.77	10.032
391.13	9.379
391.49	9.357
391.85	9.726
392.20	9.891
392.56	9.591
392.92	10.040
393.28	10.850
393.64	9.802
393.99	10.154
394.35	10.158
394.71	9.574
395.07	10.232
395.42	9.714
395.78	9.365
396.14	10.841
396.50	10.092
396.85	10.487
397.21	9.235
397.57	9.787
397.92	10.480
398.28	9.833
398.64	10.410
399.00	10.337
399.35	9.977
399.71	10.105
400.07	10.328
400.42	9.246
400.78	10.197
401.14	9.641
401.49	9.729
401.85	11.104
402.21	10.131
402.57	10.255
402.92	10.699
403.28	9.926
403.63	9.467
403.99	10.503
404.35	9.964
404.70	10.123
405.06	10.554
405.42	10.148
405.77	9.446
406.13	9.540
406.49	9.946
406.84	10.498
407.20	10.188
407.55	11.146
407.91	8.744
408.27	10.110
408.62	9.862
408.98	9.885
409.34	9.567
409.69	9.578
410.05	9.885
410.40	9.994
410.76	10.907
411.11	9.663
411.47	9.079
411.83	9.780
412.18	9.777
412.54	9.213
412.89	10.328
413.25	9.327
413.60	9.660
413.96	8.811
414.31	9.847
414.67	9.524
415.03	9.120
415.38	10.540
415.74	9.858
416.09	10.102
416.45	8.796
416.80	10.533
417.16	9.037
417.51	9.652
417.87	9.968
418.22	9.355
418.58	10.141
418.93	10.178
419.29	10.289
419.64	9.485
420.00	10.085
420.35	10.349
420.71	9.484
421.06	10.414
421.42	8.782
421.77	10.497
422.12	9.849
422.48	10.048
422.83	10.251
423.19	9.911
423.54	9.914
423.90	9.774
424.25	10.124
424.61	10.856
424.96	10.532
425.31	10.509
425.67	10.372
426.02	9.065
426.38	11.252
426.73	10.812
427.09	10.110
427.44	10.682
427.79	10.291
428.15	11.071
428.50	10.674
428.85	10.372
429.21	9.685
429.56	10.677
429.92	10.721
430.27	9.721
430.62	10.920
430.98	10.037
431.33	10.245
431.68	9.866
432.04	10.688
432.39	10.370
432.74	10.312
433.10	10.186
433.45	10.075
433.80	10.582
434.16	10.908
434.51	11.014
434.86	10.310
435.22	10.245
435.57	9.180
435.92	9.379
436.28	10.801
436.63	9.949
436.98	10.309
437.34	11.223
437.69	10.968
438.04	10.040
438.39	11.492
438.75	10.477
439.10	10.994
439.45	9.535
439.81	11.205
440.16	11.471
440.51	10.824
440.86	10.526
441.22	10.171
441.57	10.789
441.92	10.997
442.27	10.335
442.63	10.408
442.98	10.553
443.33	10.763
443.68	11.256
444.03	10.806
444.39	10.573
444.74	10.297
445.09	10.800
445.44	10.692
445.79	10.352
446.15	10.679
446.50	10.234
446.85	10.416
447.20	10.163
447.55	10.718
447.91	11.286
448.26	11.173
448.61	10.640
448.96	10.644
449.31	10.259
449.66	11.162
450.02	10.139
450.37	9.797
450.72	10.621
451.07	10.308
451.42	10.223
451.77	10.592
452.12	10.846
452.47	10.327
452.83	10.775
453.18	10.689
453.53	10.634
453.88	11.244
454.23	9.855
454.58	11.311
454.93	11.398
455.28	10.198
455.63	10.381
455.98	10.904
456.34	9.403
456.69	11.132
457.04	11.309
457.39	11.423
457.74	10.632
458.09	11.253
458.44	11.085
458.79	10.706
459.14	10.268
459.49	11.072
459.84	11.074
460.19	10.382
460.54	10.829
460.89	10.650
461.24	11.111
461.59	11.313
461.94	11.267
462.29	11.316
462.64	11.331
462.99	11.111
463.34	11.411
463.69	10.941
464.04	10.779
464.39	10.394
464.74	10.993
465.09	10.102
465.44	11.224
465.79	11.506
466.14	11.335
466.49	11.054
466.84	11.224
467.19	11.596
467.54	10.316
467.89	11.221
468.24	11.283
468.59	11.181
468.94	10.740
469.29	9.877
469.64	11.860
469.99	12.424
470.34	11.556
470.68	11.410
471.03	11.562
471.38	11.528
471.73	10.909
472.08	10.107
472.43	11.647
472.78	11.467
473.13	10.139
473.48	10.913
473.83	11.166
474.17	10.701
474.52	11.701
474.87	11.480
475.22	11.150
475.57	10.722
475.92	11.069
476.27	11.314
476.61	11.437
476.96	10.565
477.31	10.980
477.66	11.455
478.01	11.723
478.36	11.786
478.70	11.426
479.05	11.574
479.40	11.451
479.75	11.417
480.10	11.607
480.45	10.445
480.79	11.945
481.14	12.042
481.49	11.181
481.84	11.142
482.19	11.923
482.53	10.890
482.88	11.580
483.23	11.408
483.58	12.396
483.92	11.849
484.27	10.988
484.62	11.922
484.97	11.613
485.31	11.232
485.66	11.004
486.01	10.993
486.36	11.387
486.70	11.812
487.05	11.189
487.40	11.779
487.75	11.202
488.09	11.211
488.44	11.637
488.79	11.815
489.13	11.487
489.48	12.194
489.83	12.052
490.17	12.364
490.52	12.047
490.87	11.640
491.22	11.677
491.56	11.481
491.91	11.927
492.26	11.462
492.60	12.274
492.95	11.614
493.30	12.149
493.64	11.236
493.99	11.568
494.34	12.000
494.68	11.798
495.03	11.472
495.37	11.603
495.72	11.984
496.07	12.248
496.41	12.691
496.76	11.918
497.11	12.153
497.45	12.213
497.80	11.456
498.14	12.132
498.49	11.150
498.84	12.184
499.18	12.476
499.53	11.836
499.87	11.293
500.22	12.304
500.56	11.456
500.91	12.020
501.26	11.887
501.60	11.363
501.95	12.271
502.29	11.526
502.64	12.730
502.98	11.787
503.33	12.312
503.67	12.308
504.02	11.733
504.36	12.549
504.71	10.892
505.06	11.882
505.40	12.176
505.75	11.382
506.09	12.184
506.44	11.579
506.78	12.092
507.13	11.535
507.47	13.093
507.82	12.545
508.16	12.539
508.51	12.468
508.85	11.853
509.19	11.826
509.54	12.315
509.88	11.968
510.23	11.950
510.57	12.487
510.92	12.675
511.26	11.590
511.61	11.825
511.95	12.231
512.30	11.875
512.64	11.742
512.98	12.101
513.33	12.411
513.67	11.893
514.02	12.416
514.36	13.019
514.70	11.998
515.05	12.636
515.39	12.457
515.74	14.252
516.08	12.680
516.42	12.975
516.77	12.594
517.11	13.101
517.46	12.679
517.80	12.756
518.14	12.198
518.49	13.090
518.83	12.641
519.17	13.558
519.52	12.435
519.86	12.127
520.20	13.386
520.55	12.923
520.89	12.210
521.23	13.553
521.58	12.853
521.92	13.553
522.26	13.079
522.61	13.435
522.95	12.061
523.29	13.605
523.64	13.242
523.98	13.176
524.32	13.388
524.66	13.043
525.01	13.295
525.35	13.531
525.69	13.468
526.04	13.903
526.38	14.067
526.72	12.580
527.06	13.346
527.41	13.861
527.75	13.663
528.09	13.633
528.43	13.902
528.78	14.070
529.12	13.380
529.46	12.822
529.80	12.331
530.15	13.844
530.49	13.001
530.83	13.949
531.17	13.737
531.51	13.731
531.86	13.298
532.20	13.698
532.54	14.171
532.88	13.702
533.22	13.369
533.57	13.773
533.91	13.983
534.25	14.142
534.59	13.179
534.93	13.815
535.27	14.034
535.62	14.130
535.96	13.704
536.30	13.089
536.64	13.878
536.98	13.347
537.32	13.131
537.66	13.849
538.01	13.127
538.35	13.784
538.69	13.102
539.03	13.473
539.37	13.240
539.71	14.676
540.05	13.091
540.39	13.781
540.73	13.960
541.07	14.959
541.42	13.302
541.76	13.156
542.10	13.977
542.44	13.924
542.78	13.161
543.12	13.781
543.46	13.904
543.80	14.381
544.14	12.895
544.48	14.173
544.82	13.058
545.16	14.286
545.50	12.786
545.84	14.395
546.18	14.771
546.52	14.083
546.86	13.675
547.20	14.135
547.54	13.636
547.88	13.736
548.22	13.172
548.56	12.291
548.90	13.881
549.24	13.805
549.58	14.114
549.92	14.205
550.26	14.090
550.60	13.300
550.94	13.577
551.28	13.469
551.62	13.516
551.96	13.242
552.30	14.216
552.64	14.145
552.98	14.576
553.32	13.059
553.66	14.492
554.00	13.646
554.34	14.079
554.68	13.670
555.02	13.965
555.36	13.875
555.69	12.894
556.03	13.684
556.37	14.154
556.71	14.102
557.05	13.969
557.39	13.883
557.73	14.661
558.07	14.469
558.41	13.687
558.75	13.840
559.08	13.385
559.42	14.701
559.76	13.957
560.10	14.840
560.44	14.957
560.78	13.848
561.12	12.836
561.45	13.425
561.79	13.728
562.13	13.604
562.47	13.585
562.81	13.225
563.15	13.226
563.48	14.029
563.82	13.387
564.16	14.266
564.50	13.172
564.84	14.286
565.17	13.064
565.51	14.081
565.85	15.145
566.19	14.361
566.52	13.438
566.86	13.274
567.20	15.315
567.54	14.826
567.88	13.903
568.21	13.535
568.55	13.309
568.89	12.823
569.23	12.911
569.56	12.778
569.90	13.139
570.24	13.454
570.57	12.865
570.91	13.125
571.25	13.359
571.59	13.487
571.92	13.363
572.26	12.942
572.60	13.280
572.93	13.410
573.27	12.652
573.61	13.020
573.95	13.332
574.28	12.817
574.62	13.091
574.96	13.185
575.29	13.084
575.63	13.087
575.97	12.621
576.30	13.127
576.64	12.977
576.98	13.362
577.31	13.087
577.65	13.576
577.98	13.016
578.32	13.029
578.66	12.779
578.99	13.279
579.33	12.962
579.67	13.391
580.00	13.194
580.34	13.283
580.67	13.091
581.01	12.820
581.35	13.023
581.68	12.595
582.02	12.704
582.35	12.691
582.69	13.222
583.02	13.263
583.36	13.108
583.70	13.082
584.03	12.985
584.37	12.882
584.70	13.138
585.04	13.063
585.37	12.530
585.71	13.087
586.04	13.171
586.38	13.098
586.72	13.219
587.05	13.112
587.39	13.057
587.72	12.848
588.06	12.957
588.39	13.386
588.73	13.488
589.06	13.139
589.40	13.432
589.73	13.704
590.07	12.964
590.40	13.727
590.73	13.035
591.07	13.648
591.40	13.345
591.74	13.076
592.07	13.288
592.41	12.951
592.74	13.528
593.08	13.903
593.41	13.651
593.75	13.056
594.08	13.408
594.41	13.752
594.75	13.779
595.08	13.571
595.42	13.259
595.75	13.304
596.09	13.232
596.42	13.748
596.75	12.893
597.09	13.758
597.42	13.226
597.75	13.596
598.09	13.059
598.42	13.301
598.76	13.538
599.09	12.747
599.42	13.303
599.76	13.137
600.09	13.550
600.42	13.673
600.76	13.446
601.09	12.761
601.42	12.980
601.76	13.279
602.09	13.661
602.42	13.333
602.76	13.087
603.09	13.306
603.42	13.417
603.76	13.123
604.09	13.576
604.42	13.072
604.76	13.868
605.09	13.472
605.42	14.140
605.75	13.540
606.09	12.827
606.42	12.778
606.75	13.225
607.09	13.277
607.42	13.732
607.75	13.687
608.08	13.556
608.42	13.150
608.75	13.505
609.08	14.126
609.41	13.702
609.75	13.749
610.08	13.529
610.41	13.783
610.74	13.491
611.07	13.742
611.41	13.515
611.74	13.728
612.07	14.232
612.40	14.179
612.73	13.193
613.07	13.374
613.40	14.833
613.73	13.733
614.06	13.125
614.39	13.360
614.72	13.631
615.06	13.424
615.39	13.782
615.72	13.580
616.05	13.142
616.38	13.813
616.71	13.694
617.05	15.018
617.38	12.879
617.71	12.838
618.04	14.410
618.37	13.082
618.70	14.407
619.03	13.541
619.36	13.742
619.69	15.291
620.03	13.774
620.36	13.572
620.69	13.855
621.02	14.612
621.35	14.758
621.68	14.590
622.01	13.916
622.34	14.829
622.67	14.766
623.00	14.308
623.33	15.373
623.66	13.663
623.99	14.211
624.32	14.137
624.65	13.613
624.99	14.787
625.32	12.799
625.65	14.375
625.98	13.459
626.31	14.029
626.64	14.895
626.97	14.041
627.30	14.894
627.63	14.076
627.96	14.534
628.29	14.522
628.62	14.613
628.95	14.764
629.28	14.568
629.61	13.543
629.94	14.839
630.26	14.712
630.59	15.879
630.92	14.615
631.25	15.625
631.58	14.497
631.91	12.553
632.24	15.000
632.57	14.222
632.90	14.828
633.23	15.421
633.56	13.567
633.89	15.094
634.22	13.932
634.55	16.226
634.88	16.082
635.20	15.481
635.53	15.140
635.86	15.743
636.19	13.797
636.52	14.337
636.85	14.801
637.18	13.750
637.51	15.242
637.83	14.647
638.16	15.000
638.49	13.793
638.82	15.701
639.15	16.472
639.48	13.619
639.81	15.906
640.13	15.676
640.46	15.100
640.79	14.286
