SpectraSuite Data File
++++++++++++++++++++++++++++++++++++
Date: Sat May 16 11:30:59 PDT 2015
User: schluterlab
Dark Spectrum Present: Yes
Reference Spectrum Present: Yes
Number of Sampled Component Spectra: 1
Spectrometers: USB2E3373
Integration Time (usec): 3000 (USB2E3373)
Spectra Averaged: 3 (USB2E3373)
Boxcar Smoothing: 0 (USB2E3373)
Correct for Electrical Dark: No (USB2E3373)
Strobe/Lamp Enabled: No (USB2E3373)
Correct for Detector Non-linearity: No (USB2E3373)
Correct for Stray Light: No (USB2E3373)
Number of Pixels in Processed Spectrum: 2048
>>>>>Begin Processed Spectral Data<<<<<
178.53	0.000
178.91	126.667
179.29	366.667
179.67	-800.000
180.04	-92.308
180.42	900.000
180.80	450.000
181.18	350.000
181.56	-125.000
181.94	1400.000
182.31	450.000
182.69	-53.846
183.07	-233.333
183.45	1150.000
183.83	666.667
184.20	-200.000
184.58	-125.000
184.96	-375.000
185.34	187.500
185.72	-400.000
186.09	266.667
186.47	-275.000
186.85	-112.500
187.23	-100.000
187.61	-150.000
187.98	-212.500
188.36	-62.500
188.74	-200.000
189.12	1500.000
189.49	228.571
189.87	-41.667
190.25	275.000
190.63	-50.000
191.00	-144.444
191.38	320.000
191.76	-53.333
192.14	480.000
192.51	-300.000
192.89	-433.333
193.27	0.000
193.65	-166.667
194.02	-257.143
194.40	600.000
194.78	-130.000
195.15	-500.000
195.53	-136.364
195.91	-450.000
196.29	100.000
196.66	-400.000
197.04	2100.000
197.42	-225.000
197.79	66.667
198.17	-600.000
198.55	-650.000
198.92	-900.000
199.30	337.500
199.68	-550.000
200.05	-122.222
200.43	-177.778
200.81	-1800.000
201.18	-108.333
201.56	257.143
201.94	-60.000
202.31	-22.727
202.69	80.000
203.07	-150.000
203.44	733.333
203.82	-266.667
204.19	-375.000
204.57	-475.000
204.95	-500.000
205.32	-68.750
205.70	900.000
206.08	-2000.000
206.45	-94.444
206.83	-1450.000
207.20	100.000
207.58	-800.000
207.96	-400.000
208.33	-225.000
208.71	-33.333
209.08	160.000
209.46	-28.571
209.84	750.000
210.21	0.000
210.59	25.000
210.96	300.000
211.34	-366.667
211.71	-400.000
212.09	375.000
212.46	1100.000
212.84	-1900.000
213.22	766.667
213.59	166.667
213.97	11.111
214.34	160.000
214.72	0.000
215.09	-300.000
215.47	-183.333
215.84	-160.000
216.22	-60.000
216.59	13.333
216.97	-700.000
217.34	1100.000
217.72	-142.857
218.09	-150.000
218.47	-171.429
218.84	385.714
219.22	-71.429
219.59	0.000
219.97	185.714
220.34	425.000
220.72	312.500
221.09	0.000
221.47	0.000
221.84	600.000
222.22	-350.000
222.59	1300.000
222.97	-62.500
223.34	-550.000
223.72	-466.667
224.09	-57.143
224.46	-500.000
224.84	-78.571
225.21	-185.714
225.59	-27.273
225.96	-250.000
226.34	-157.143
226.71	-177.778
227.08	-5.000
227.46	1800.000
227.83	-128.571
228.21	-187.500
228.58	650.000
228.95	-75.000
229.33	-2200.000
229.70	-280.000
230.08	-700.000
230.45	-66.667
230.82	-283.333
231.20	-900.000
231.57	-600.000
231.95	1900.000
232.32	23.810
232.69	-222.222
233.07	-128.571
233.44	-1000.000
233.81	-40.000
234.19	-111.111
234.56	-106.250
234.93	-18.750
235.31	-285.714
235.68	-100.000
236.05	23.529
236.43	-45.455
236.80	-6.452
237.17	-54.167
237.55	-85.714
237.92	-86.364
238.29	-17.143
238.67	5.882
239.04	-13.889
239.41	-35.484
239.79	-38.462
240.16	-40.476
240.53	-29.091
240.91	-30.769
241.28	-20.000
241.65	21.538
242.02	-22.951
242.40	-34.426
242.77	-9.091
243.14	-20.339
243.51	-20.000
243.89	-18.987
244.26	-13.483
244.63	-1.053
245.00	-1.053
245.38	-5.085
245.75	-1.770
246.12	-9.600
246.49	-6.299
246.87	-7.317
247.24	-16.102
247.61	-6.780
247.98	-7.746
248.36	-6.993
248.73	-3.165
249.10	-3.822
249.47	-2.339
249.84	1.136
250.22	-11.905
250.59	-2.825
250.96	-0.524
251.33	6.161
251.70	0.000
252.08	-2.844
252.45	-3.791
252.82	-4.286
253.19	-2.128
253.56	-1.210
253.94	-1.688
254.31	-1.288
254.68	0.407
255.05	-6.048
255.42	-3.175
255.79	-4.301
256.16	-1.569
256.54	-1.471
256.91	-3.030
257.28	-3.297
257.65	-1.418
258.02	3.459
258.39	0.000
258.76	-5.068
259.14	0.926
259.51	-0.984
259.88	0.610
260.25	2.484
260.62	0.965
260.99	-1.187
261.36	1.524
261.73	0.578
262.10	1.111
262.47	0.285
262.85	2.000
263.22	-0.287
263.59	-4.923
263.96	-1.159
264.33	-0.542
264.70	3.039
265.07	-1.099
265.44	-0.517
265.81	1.292
266.18	-2.532
266.55	-0.735
266.92	2.519
267.29	0.484
267.66	-0.741
268.03	2.415
268.40	-0.235
268.77	-0.482
269.14	0.696
269.51	3.218
269.88	1.147
270.25	-0.699
270.62	-1.373
270.99	1.577
271.36	-1.166
271.73	-0.673
272.10	0.458
272.47	-0.444
272.84	4.222
273.21	1.147
273.58	-1.099
273.95	0.219
274.32	0.452
274.69	0.000
275.06	3.885
275.43	-1.116
275.80	1.426
276.17	-0.418
276.54	1.629
276.91	-1.646
277.28	0.203
277.65	-0.207
278.02	1.253
278.39	1.572
278.76	0.797
279.13	0.198
279.50	2.187
279.87	-0.634
280.23	2.024
280.60	0.994
280.97	-0.583
281.34	1.741
281.71	-0.385
282.08	2.016
282.45	-2.037
282.82	-0.581
283.19	-1.455
283.56	2.930
283.92	0.530
284.29	0.558
284.66	0.000
285.03	3.565
285.40	0.369
285.77	2.281
286.14	0.542
286.51	0.710
286.87	0.544
287.24	2.048
287.61	0.661
287.98	1.040
288.35	0.661
288.72	-0.340
289.08	-0.847
289.45	0.842
289.82	0.519
290.19	2.299
290.56	0.000
290.93	-0.954
291.29	0.486
291.66	0.644
292.03	2.669
292.40	2.410
292.77	1.087
293.13	-0.163
293.50	0.892
293.87	1.380
294.24	1.357
294.60	-0.152
294.97	1.669
295.34	0.444
295.71	0.744
296.08	0.461
296.44	0.858
296.81	1.852
297.18	2.535
297.55	2.684
297.91	2.510
298.28	0.685
298.65	1.813
299.02	3.476
299.38	1.471
299.75	2.310
300.12	3.462
300.48	3.069
300.85	0.786
301.22	2.587
301.59	2.731
301.95	4.156
302.32	0.522
302.69	1.591
303.05	2.076
303.42	1.250
303.79	2.512
304.15	2.844
304.52	3.151
304.89	2.715
305.25	1.832
305.62	2.585
305.99	4.005
306.35	2.997
306.72	3.075
307.09	3.632
307.45	4.654
307.82	1.229
308.19	2.796
308.55	2.941
308.92	2.470
309.29	2.703
309.65	4.030
310.02	3.348
310.38	2.486
310.75	3.791
311.12	4.649
311.48	3.862
311.85	3.708
312.22	4.222
312.58	5.595
312.95	4.485
313.31	4.695
313.68	5.025
314.05	5.539
314.41	4.125
314.78	4.396
315.14	4.541
315.51	5.471
315.87	5.518
316.24	5.539
316.61	6.718
316.97	6.269
317.34	5.780
317.70	6.215
318.07	7.090
318.43	7.116
318.80	7.793
319.16	6.379
319.53	5.545
319.89	6.867
320.26	7.549
320.62	5.673
320.99	8.159
321.35	7.192
321.72	6.755
322.08	7.913
322.45	7.426
322.81	8.261
323.18	7.973
323.54	9.797
323.91	9.361
324.27	9.125
324.64	8.867
325.00	9.773
325.37	10.498
325.73	11.286
326.10	9.566
326.46	10.946
326.83	10.383
327.19	11.760
327.56	11.840
327.92	12.914
328.29	12.208
328.65	9.727
329.01	12.721
329.38	12.578
329.74	12.821
330.11	12.874
330.47	13.806
330.84	13.841
331.20	12.726
331.56	12.306
331.93	12.700
332.29	13.242
332.66	13.169
333.02	13.394
333.38	14.695
333.75	12.912
334.11	14.578
334.48	13.151
334.84	15.486
335.20	14.362
335.57	13.177
335.93	14.682
336.29	14.792
336.66	13.833
337.02	14.505
337.38	14.260
337.75	13.784
338.11	14.490
338.47	13.256
338.84	14.610
339.20	14.675
339.56	16.578
339.93	13.933
340.29	14.703
340.65	14.598
341.02	15.093
341.38	14.238
341.74	14.141
342.11	14.505
342.47	13.991
342.83	13.182
343.20	14.432
343.56	13.878
343.92	15.609
344.28	16.400
344.65	14.604
345.01	13.782
345.37	14.369
345.73	12.930
346.10	13.001
346.46	14.379
346.82	14.194
347.19	14.051
347.55	14.446
347.91	14.567
348.27	14.558
348.63	15.105
349.00	15.195
349.36	13.037
349.72	14.570
350.08	14.755
350.45	13.948
350.81	13.854
351.17	14.228
351.53	13.365
351.89	14.390
352.26	14.341
352.62	15.131
352.98	14.161
353.34	14.468
353.70	14.440
354.07	15.500
354.43	14.704
354.79	15.135
355.15	14.776
355.51	14.922
355.87	15.336
356.24	14.218
356.60	15.794
356.96	15.550
357.32	14.252
357.68	14.253
358.04	15.858
358.40	14.695
358.77	13.215
359.13	14.920
359.49	15.571
359.85	13.796
360.21	15.753
360.57	15.286
360.93	15.926
361.29	16.069
361.66	14.710
362.02	15.015
362.38	15.187
362.74	15.897
363.10	14.921
363.46	17.094
363.82	14.796
364.18	15.630
364.54	15.297
364.90	15.793
365.26	14.693
365.62	16.892
365.98	16.074
366.35	15.986
366.71	15.152
367.07	16.514
367.43	17.159
367.79	15.876
368.15	15.647
368.51	17.063
368.87	16.346
369.23	16.772
369.59	15.903
369.95	16.490
370.31	17.159
370.67	15.980
371.03	16.327
371.39	16.620
371.75	17.096
372.11	16.858
372.47	16.775
372.83	17.524
373.19	17.000
373.55	16.467
373.91	17.781
374.27	18.617
374.63	16.701
374.99	17.524
375.35	17.564
375.71	17.556
376.07	17.659
376.42	17.152
376.78	18.431
377.14	18.169
377.50	19.020
377.86	18.661
378.22	18.781
378.58	18.098
378.94	18.434
379.30	19.622
379.66	19.247
380.02	18.717
380.38	18.550
380.74	19.168
381.09	19.742
381.45	18.795
381.81	18.633
382.17	20.050
382.53	19.453
382.89	20.215
383.25	20.169
383.61	20.283
383.97	20.821
384.32	20.526
384.68	20.617
385.04	20.290
385.40	20.268
385.76	20.732
386.12	20.550
386.48	20.730
386.83	21.166
387.19	20.741
387.55	20.775
387.91	21.162
388.27	20.567
388.62	21.154
388.98	21.320
389.34	20.930
389.70	21.681
390.06	21.069
390.42	21.154
390.77	22.145
391.13	22.733
391.49	22.021
391.85	21.633
392.20	21.966
392.56	21.319
392.92	22.305
393.28	23.020
393.64	22.309
393.99	22.400
394.35	21.837
394.71	22.854
395.07	23.289
395.42	21.931
395.78	21.936
396.14	23.115
396.50	22.508
396.85	21.838
397.21	22.843
397.57	23.404
397.92	23.244
398.28	22.889
398.64	22.070
399.00	23.258
399.35	22.379
399.71	23.984
400.07	23.284
400.42	23.905
400.78	22.898
401.14	23.234
401.49	22.818
401.85	23.185
402.21	23.957
402.57	23.301
402.92	24.795
403.28	23.652
403.63	22.349
403.99	23.058
404.35	24.034
404.70	24.283
405.06	23.645
405.42	23.555
405.77	23.303
406.13	22.942
406.49	23.847
406.84	23.395
407.20	24.499
407.55	22.926
407.91	23.187
408.27	23.775
408.62	24.293
408.98	24.257
409.34	24.193
409.69	24.008
410.05	23.529
410.40	24.341
410.76	23.711
411.11	24.626
411.47	23.657
411.83	23.472
412.18	23.515
412.54	23.673
412.89	24.787
413.25	23.672
413.60	23.937
413.96	23.290
414.31	23.670
414.67	23.556
415.03	23.933
415.38	24.919
415.74	24.807
416.09	24.808
416.45	23.876
416.80	24.252
417.16	23.588
417.51	24.885
417.87	24.725
418.22	25.284
418.58	25.289
418.93	25.751
419.29	24.216
419.64	24.749
420.00	25.456
420.35	24.364
420.71	25.210
421.06	25.976
421.42	24.707
421.77	25.628
422.12	25.294
422.48	25.227
422.83	24.886
423.19	24.889
423.54	26.398
423.90	25.737
424.25	25.170
424.61	26.719
424.96	27.092
425.31	26.104
425.67	25.903
426.02	25.244
426.38	26.921
426.73	25.658
427.09	25.980
427.44	25.739
427.79	25.988
428.15	26.332
428.50	26.100
428.85	26.679
429.21	25.789
429.56	26.094
429.92	26.653
430.27	25.823
430.62	27.325
430.98	27.339
431.33	27.161
431.68	27.131
432.04	28.204
432.39	27.407
432.74	27.518
433.10	27.575
433.45	27.058
433.80	27.044
434.16	27.512
434.51	27.507
434.86	28.354
435.22	28.062
435.57	27.356
435.92	27.667
436.28	27.656
436.63	27.191
436.98	26.174
437.34	28.529
437.69	27.596
438.04	28.531
438.39	28.520
438.75	27.939
439.10	27.651
439.45	27.942
439.81	28.313
440.16	28.166
440.51	29.176
440.86	27.646
441.22	27.695
441.57	28.105
441.92	29.054
442.27	28.409
442.63	29.024
442.98	27.314
443.33	28.007
443.68	28.400
444.03	28.929
444.39	28.732
444.74	30.011
445.09	28.015
445.44	29.263
445.79	29.271
446.15	28.368
446.50	28.089
446.85	27.963
447.20	29.469
447.55	29.227
447.91	29.478
448.26	28.715
448.61	29.485
448.96	29.132
449.31	28.523
449.66	29.651
450.02	27.867
450.37	29.913
450.72	28.870
451.07	29.478
451.42	28.748
451.77	29.623
452.12	29.440
452.47	29.849
452.83	29.761
453.18	29.665
453.53	28.607
453.88	30.443
454.23	28.416
454.58	29.956
454.93	29.723
455.28	30.019
455.63	30.467
455.98	30.060
456.34	28.971
456.69	29.769
457.04	29.441
457.39	29.007
457.74	30.065
458.09	29.640
458.44	30.196
458.79	30.325
459.14	30.348
459.49	29.840
459.84	30.129
460.19	29.773
460.54	30.369
460.89	29.709
461.24	30.905
461.59	30.188
461.94	29.663
462.29	29.601
462.64	29.513
462.99	29.451
463.34	28.832
463.69	30.471
464.04	29.408
464.39	29.988
464.74	29.551
465.09	30.126
465.44	29.780
465.79	31.134
466.14	30.035
466.49	30.570
466.84	29.832
467.19	29.925
467.54	30.380
467.89	30.456
468.24	30.166
468.59	30.356
468.94	29.775
469.29	30.279
469.64	30.256
469.99	30.722
470.34	30.127
470.68	30.160
471.03	32.140
471.38	30.208
471.73	31.888
472.08	30.254
472.43	30.566
472.78	30.067
473.13	30.285
473.48	30.504
473.83	30.769
474.17	30.127
474.52	31.074
474.87	30.070
475.22	30.029
475.57	29.944
475.92	30.778
476.27	30.400
476.61	30.141
476.96	31.079
477.31	31.539
477.66	30.825
478.01	30.848
478.36	30.330
478.70	31.554
479.05	30.557
479.40	31.347
479.75	29.562
480.10	30.506
480.45	30.029
480.79	31.491
481.14	31.560
481.49	31.123
481.84	30.143
482.19	30.745
482.53	31.203
482.88	31.134
483.23	30.657
483.58	31.545
483.92	30.674
484.27	30.040
484.62	30.626
484.97	30.281
485.31	29.184
485.66	29.207
486.01	30.092
486.36	30.585
486.70	31.779
487.05	30.528
487.40	30.449
487.75	30.432
488.09	29.617
488.44	30.041
488.79	30.775
489.13	30.544
489.48	30.710
489.83	31.747
490.17	30.997
490.52	30.616
490.87	31.640
491.22	31.107
491.56	31.204
491.91	29.962
492.26	31.179
492.60	30.828
492.95	31.223
493.30	31.396
493.64	30.136
493.99	30.593
494.34	31.952
494.68	30.993
495.03	30.497
495.37	31.711
495.72	31.385
496.07	31.206
496.41	31.496
496.76	30.594
497.11	31.276
497.45	31.513
497.80	31.616
498.14	31.631
498.49	30.588
498.84	30.291
499.18	31.335
499.53	30.784
499.87	31.274
500.22	31.961
500.56	31.466
500.91	30.000
501.26	31.150
501.60	30.573
501.95	31.643
502.29	30.798
502.64	31.542
502.98	30.954
503.33	30.545
503.67	31.130
504.02	30.806
504.36	31.275
504.71	30.851
505.06	30.654
505.40	31.238
505.75	31.911
506.09	30.991
506.44	31.278
506.78	31.059
507.13	31.926
507.47	30.934
507.82	30.821
508.16	31.917
508.51	31.839
508.85	31.056
509.19	30.822
509.54	31.025
509.88	31.649
510.23	31.866
510.57	31.429
510.92	31.633
511.26	30.516
511.61	30.508
511.95	30.873
512.30	31.776
512.64	31.163
512.98	30.913
513.33	31.356
513.67	31.156
514.02	31.823
514.36	31.136
514.70	32.088
515.05	31.103
515.39	31.257
515.74	32.577
516.08	31.470
516.42	32.068
516.77	32.178
517.11	31.751
517.46	31.519
517.80	31.408
518.14	31.461
518.49	32.098
518.83	31.869
519.17	31.439
519.52	30.943
519.86	32.198
520.20	31.846
520.55	31.262
520.89	31.309
521.23	31.868
521.58	31.912
521.92	31.919
522.26	31.175
522.61	30.798
522.95	31.398
523.29	32.038
523.64	30.668
523.98	31.700
524.32	31.804
524.66	31.118
525.01	31.278
525.35	32.603
525.69	32.921
526.04	32.050
526.38	32.591
526.72	30.651
527.06	32.943
527.41	31.947
527.75	31.683
528.09	31.635
528.43	31.410
528.78	31.847
529.12	31.818
529.46	30.992
529.80	32.279
530.15	32.003
530.49	31.565
530.83	32.417
531.17	31.852
531.51	31.480
531.86	31.139
532.20	31.511
532.54	32.019
532.88	31.291
533.22	32.754
533.57	31.984
533.91	30.649
534.25	31.301
534.59	30.606
534.93	29.745
535.27	30.963
535.62	32.225
535.96	30.705
536.30	30.432
536.64	30.876
536.98	32.345
537.32	30.891
537.66	31.093
538.01	32.165
538.35	32.770
538.69	30.816
539.03	30.873
539.37	31.603
539.71	30.821
540.05	31.391
540.39	31.510
540.73	32.135
541.07	31.079
541.42	30.655
541.76	29.967
542.10	31.735
542.44	30.779
542.78	30.461
543.12	31.840
543.46	30.137
543.80	30.702
544.14	31.028
544.48	31.299
544.82	30.717
545.16	32.193
545.50	30.417
545.84	30.946
546.18	30.999
546.52	30.868
546.86	30.413
547.20	31.364
547.54	28.994
547.88	31.520
548.22	30.603
548.56	30.194
548.90	31.469
549.24	30.834
549.58	31.757
549.92	31.166
550.26	32.298
550.60	30.797
550.94	32.628
551.28	31.452
551.62	30.724
551.96	30.246
552.30	31.498
552.64	31.105
552.98	31.745
553.32	30.736
553.66	31.002
554.00	31.983
554.34	31.625
554.68	29.898
555.02	30.897
555.36	30.266
555.69	30.444
556.03	31.088
556.37	31.294
556.71	31.138
557.05	32.299
557.39	30.215
557.73	31.510
558.07	31.349
558.41	31.189
558.75	31.103
559.08	30.428
559.42	31.623
559.76	30.982
560.10	31.245
560.44	31.792
560.78	31.106
561.12	31.332
561.45	30.685
561.79	31.010
562.13	30.295
562.47	31.513
562.81	31.612
563.15	29.321
563.48	30.408
563.82	31.034
564.16	29.953
564.50	31.250
564.84	31.746
565.17	30.504
565.51	30.313
565.85	31.846
566.19	32.082
566.52	30.659
566.86	29.393
567.20	32.082
567.54	30.715
567.88	30.095
568.21	30.034
568.55	30.965
568.89	29.473
569.23	29.523
569.56	29.424
569.90	29.622
570.24	29.688
570.57	29.315
570.91	28.460
571.25	28.794
571.59	29.035
571.92	28.899
572.26	28.550
572.60	29.258
572.93	28.832
573.27	28.415
573.61	28.248
573.95	28.659
574.28	28.483
574.62	28.495
574.96	27.767
575.29	28.125
575.63	28.458
575.97	28.344
576.30	27.651
576.64	28.198
576.98	27.868
577.31	28.129
577.65	28.293
577.98	28.379
578.32	27.720
578.66	27.968
578.99	28.636
579.33	28.259
579.67	28.100
580.00	27.827
580.34	28.278
580.67	27.899
581.01	27.399
581.35	27.709
581.68	27.767
582.02	28.217
582.35	27.970
582.69	28.155
583.02	28.426
583.36	28.217
583.70	27.522
584.03	28.583
584.37	28.092
584.70	27.941
585.04	28.177
585.37	27.900
585.71	28.302
586.04	28.116
586.38	27.640
586.72	28.833
587.05	28.519
587.39	28.380
587.72	27.821
588.06	28.528
588.39	28.396
588.73	28.546
589.06	28.836
589.40	28.890
589.73	28.824
590.07	28.733
590.40	28.930
590.73	28.469
591.07	28.484
591.40	28.423
591.74	29.583
592.07	28.514
592.41	29.002
592.74	28.901
593.08	29.145
593.41	28.355
593.75	27.728
594.08	28.936
594.41	29.538
594.75	28.011
595.08	28.947
595.42	28.974
595.75	28.813
596.09	28.250
596.42	28.805
596.75	28.331
597.09	28.807
597.42	28.416
597.75	28.919
598.09	28.513
598.42	28.281
598.76	28.281
599.09	28.098
599.42	28.604
599.76	28.652
600.09	29.160
600.42	28.523
600.76	29.454
601.09	28.902
601.42	28.215
601.76	28.933
602.09	28.303
602.42	28.889
602.76	28.459
603.09	28.871
603.42	28.364
603.76	28.600
604.09	28.474
604.42	28.435
604.76	28.914
605.09	28.978
605.42	29.388
605.75	28.547
606.09	28.560
606.42	28.781
606.75	28.124
607.09	29.422
607.42	28.785
607.75	28.433
608.08	29.779
608.42	28.477
608.75	28.879
609.08	29.274
609.41	29.198
609.75	29.010
610.08	29.118
610.41	29.639
610.74	29.014
611.07	29.970
611.41	28.845
611.74	29.100
612.07	30.290
612.40	28.678
612.73	28.218
613.07	28.564
613.40	30.542
613.73	29.101
614.06	29.599
614.39	29.425
614.72	29.162
615.06	28.804
615.39	28.920
615.72	30.201
616.05	28.382
616.38	29.832
616.71	29.550
617.05	29.735
617.38	29.721
617.71	29.300
618.04	30.373
618.37	28.491
618.70	30.639
619.03	29.722
619.36	29.810
619.69	31.443
620.03	29.063
620.36	28.903
620.69	29.792
621.02	30.822
621.35	30.968
621.68	29.262
622.01	30.178
622.34	30.668
622.67	29.609
623.00	30.681
623.33	31.045
623.66	30.207
623.99	30.602
624.32	29.687
624.65	29.507
624.99	29.798
625.32	30.314
625.65	30.148
625.98	29.812
626.31	30.098
626.64	30.544
626.97	30.736
627.30	29.957
627.63	30.225
627.96	30.374
628.29	31.893
628.62	29.513
628.95	30.807
629.28	30.827
629.61	30.618
629.94	31.664
630.26	31.511
630.59	32.563
630.92	31.031
631.25	31.855
631.58	31.111
631.91	30.213
632.24	32.111
632.57	31.778
632.90	33.448
633.23	31.776
633.56	30.643
633.89	30.660
634.22	31.759
634.55	31.010
