SpectraSuite Data File
++++++++++++++++++++++++++++++++++++
Date: Sat May 16 11:44:57 PDT 2015
User: schluterlab
Dark Spectrum Present: Yes
Reference Spectrum Present: Yes
Number of Sampled Component Spectra: 1
Spectrometers: USB2E3373
Integration Time (usec): 3000 (USB2E3373)
Spectra Averaged: 3 (USB2E3373)
Boxcar Smoothing: 0 (USB2E3373)
Correct for Electrical Dark: No (USB2E3373)
Strobe/Lamp Enabled: No (USB2E3373)
Correct for Detector Non-linearity: No (USB2E3373)
Correct for Stray Light: No (USB2E3373)
Number of Pixels in Processed Spectrum: 2048
>>>>>Begin Processed Spectral Data<<<<<
178.53	0.000
178.91	93.333
179.29	400.000
179.67	-1800.000
180.04	-115.385
180.42	800.000
180.80	275.000
181.18	425.000
181.56	-25.000
181.94	400.000
182.31	375.000
182.69	-46.154
183.07	-766.667
183.45	1550.000
183.83	300.000
184.20	-342.857
184.58	-112.500
184.96	-400.000
185.34	87.500
185.72	-750.000
186.09	283.333
186.47	-100.000
186.85	-187.500
187.23	-25.000
187.61	-150.000
187.98	-325.000
188.36	-150.000
188.74	-187.500
189.12	900.000
189.49	271.429
189.87	-41.667
190.25	250.000
190.63	-157.143
191.00	-211.111
191.38	300.000
191.76	-73.333
192.14	420.000
192.51	-120.000
192.89	-500.000
193.27	0.000
193.65	-55.556
194.02	-242.857
194.40	800.000
194.78	-150.000
195.15	-1300.000
195.53	-118.182
195.91	-366.667
196.29	300.000
196.66	-733.333
197.04	1100.000
197.42	-200.000
197.79	-13.333
198.17	-366.667
198.55	-650.000
198.92	-1500.000
199.30	200.000
199.68	-550.000
200.05	-144.444
200.43	-222.222
200.81	-300.000
201.18	-75.000
201.56	257.143
201.94	-66.667
202.31	45.455
202.69	0.000
203.07	-110.000
203.44	1000.000
203.82	-183.333
204.19	-375.000
204.57	-125.000
204.95	-1200.000
205.32	-12.500
205.70	600.000
206.08	-2500.000
206.45	-44.444
206.83	-1000.000
207.20	0.000
207.58	-766.667
207.96	-600.000
208.33	-200.000
208.71	-177.778
209.08	220.000
209.46	-171.429
209.84	850.000
210.21	0.000
210.59	-5.000
210.96	1100.000
211.34	-150.000
211.71	-100.000
212.09	375.000
212.46	900.000
212.84	-2100.000
213.22	533.333
213.59	91.667
213.97	-22.222
214.34	280.000
214.72	-50.000
215.09	-433.333
215.47	-233.333
215.84	-30.000
216.22	-30.000
216.59	26.667
216.97	-225.000
217.34	800.000
217.72	-142.857
218.09	-216.667
218.47	-214.286
218.84	128.571
219.22	-28.571
219.59	0.000
219.97	271.429
220.34	450.000
220.72	212.500
221.09	-38.462
221.47	0.000
221.84	433.333
222.22	-250.000
222.59	900.000
222.97	-175.000
223.34	-1250.000
223.72	-300.000
224.09	-28.571
224.46	-275.000
224.84	-28.571
225.21	-128.571
225.59	-118.182
225.96	-212.500
226.34	-142.857
226.71	-88.889
227.08	30.000
227.46	1200.000
227.83	-85.714
228.21	-50.000
228.58	350.000
228.95	-68.750
229.33	-1900.000
229.70	-160.000
230.08	-850.000
230.45	-41.667
230.82	-50.000
231.20	-400.000
231.57	0.000
231.95	1000.000
232.32	4.762
232.69	-211.111
233.07	-214.286
233.44	-900.000
233.81	-13.333
234.19	-66.667
234.56	-62.500
234.93	12.500
235.31	-142.857
235.68	-92.857
236.05	23.529
236.43	-86.364
236.80	-6.452
237.17	-20.833
237.55	-4.762
237.92	-59.091
238.29	5.714
238.67	0.000
239.04	8.333
239.41	9.677
239.79	2.564
240.16	14.286
240.53	1.818
240.91	33.333
241.28	34.545
241.65	36.923
242.02	16.393
242.40	13.115
242.77	24.242
243.14	15.254
243.51	22.857
243.89	18.987
244.26	29.213
244.63	42.105
245.00	32.632
245.38	27.966
245.75	30.088
246.12	28.000
246.49	29.134
246.87	32.520
247.24	36.441
247.61	29.661
247.98	34.507
248.36	31.469
248.73	36.709
249.10	27.389
249.47	32.749
249.84	39.205
250.22	36.310
250.59	40.678
250.96	34.031
251.33	34.597
251.70	32.692
252.08	37.441
252.45	31.754
252.82	31.429
253.19	31.064
253.56	31.855
253.94	29.536
254.31	38.197
254.68	39.431
255.05	36.694
255.42	35.714
255.79	35.842
256.16	36.863
256.54	37.132
256.91	39.394
257.28	35.531
257.65	33.333
258.02	40.566
258.39	38.127
258.76	36.486
259.14	36.420
259.51	39.672
259.88	38.720
260.25	38.199
260.62	36.334
260.99	37.389
261.36	37.805
261.73	37.572
262.10	37.500
262.47	33.048
262.85	37.143
263.22	37.249
263.59	34.154
263.96	36.812
264.33	37.669
264.70	35.912
265.07	38.462
265.44	37.984
265.81	37.209
266.18	35.696
266.55	35.539
266.92	40.554
267.29	36.320
267.66	36.790
268.03	37.440
268.40	37.089
268.77	38.795
269.14	35.963
269.51	38.621
269.88	33.945
270.25	33.333
270.62	34.783
270.99	35.135
271.36	38.928
271.73	38.565
272.10	37.986
272.47	33.778
272.84	35.333
273.21	36.468
273.58	35.385
273.95	35.526
274.32	38.688
274.69	38.512
275.06	37.423
275.43	36.161
275.80	37.882
276.17	34.937
276.54	36.660
276.91	36.626
277.28	38.540
277.65	36.364
278.02	35.908
278.39	38.507
278.76	38.048
279.13	37.352
279.50	35.388
279.87	37.421
280.23	35.425
280.60	36.978
280.97	36.893
281.34	37.524
281.71	37.308
282.08	37.298
282.45	36.253
282.82	37.209
283.19	36.000
283.56	37.546
283.92	36.572
284.29	35.502
284.66	36.151
285.03	36.185
285.40	35.240
285.77	36.491
286.14	35.379
286.51	35.346
286.87	35.935
287.24	34.812
287.61	33.388
287.98	33.276
288.35	33.884
288.72	33.956
289.08	34.237
289.45	33.333
289.82	33.910
290.19	34.154
290.56	32.231
290.93	35.294
291.29	31.118
291.66	33.172
292.03	32.653
292.40	32.380
292.77	31.522
293.13	32.520
293.50	32.392
293.87	30.061
294.24	32.127
294.60	29.848
294.97	31.866
295.34	30.519
295.71	31.845
296.08	30.261
296.44	30.615
296.81	31.339
297.18	29.296
297.55	31.215
297.91	31.381
298.28	30.548
298.65	30.265
299.02	30.348
299.38	28.476
299.75	27.989
300.12	29.231
300.48	29.540
300.85	28.965
301.22	27.684
301.59	27.438
301.95	29.597
302.32	29.465
302.69	27.417
303.05	27.595
303.42	27.625
303.79	30.144
304.15	27.370
304.52	29.172
304.89	27.745
305.25	27.839
305.62	26.910
305.99	29.329
306.35	26.637
306.72	27.449
307.09	29.058
307.45	27.469
307.82	25.140
308.19	28.971
308.55	26.797
308.92	25.456
309.29	27.892
309.65	26.511
310.02	28.078
310.38	27.568
310.75	27.561
311.12	29.236
311.48	27.140
311.85	27.394
312.22	27.909
312.58	26.958
312.95	27.829
313.31	27.473
313.68	28.844
314.05	29.674
314.41	27.163
314.78	26.573
315.14	29.319
315.51	28.571
315.87	27.009
316.24	28.280
316.61	28.887
316.97	29.154
317.34	27.360
317.70	27.180
318.07	28.358
318.43	29.307
318.80	29.390
319.16	28.518
319.53	28.102
319.89	28.128
320.26	30.588
320.62	29.327
320.99	28.557
321.35	28.670
321.72	29.580
322.08	28.882
322.45	28.119
322.81	28.818
323.18	29.491
323.54	29.575
323.91	29.286
324.27	29.753
324.64	29.525
325.00	29.930
325.37	31.674
325.73	30.884
326.10	29.318
326.46	29.860
326.83	31.234
327.19	30.442
327.56	33.475
327.92	30.671
328.29	31.602
328.65	31.364
329.01	32.774
329.38	31.668
329.74	33.059
330.11	33.273
330.47	33.061
330.84	34.830
331.20	32.040
331.56	32.088
331.93	33.215
332.29	33.333
332.66	33.889
333.02	33.213
333.38	34.229
333.75	34.194
334.11	33.333
334.48	33.363
334.84	35.346
335.20	33.954
335.57	33.484
335.93	34.915
336.29	34.101
336.66	33.304
337.02	35.135
337.38	32.799
337.75	33.011
338.11	33.989
338.47	34.609
338.84	34.936
339.20	32.689
339.56	34.938
339.93	33.686
340.29	32.241
340.65	34.178
341.02	33.474
341.38	33.698
341.74	33.616
342.11	34.386
342.47	33.991
342.83	33.753
343.20	34.586
343.56	32.898
343.92	34.307
344.28	35.071
344.65	33.663
345.01	33.445
345.37	34.801
345.73	32.733
346.10	31.398
346.46	32.088
346.82	31.516
347.19	32.210
347.55	34.189
347.91	33.307
348.27	33.413
348.63	34.410
349.00	35.322
349.36	31.694
349.72	35.589
350.08	34.242
350.45	32.861
350.81	33.599
351.17	33.280
351.53	33.174
351.89	32.821
352.26	32.946
352.62	34.025
352.98	33.228
353.34	33.173
353.70	31.429
354.07	34.461
354.43	33.360
354.79	34.390
355.15	33.866
355.51	33.750
355.87	32.411
356.24	32.963
356.60	33.521
356.96	32.948
357.32	33.017
357.68	33.487
358.04	33.872
358.40	32.715
358.77	32.844
359.13	33.435
359.49	32.577
359.85	33.384
360.21	32.725
360.57	34.187
360.93	34.222
361.29	33.034
361.66	32.470
362.02	34.246
362.38	35.583
362.74	34.359
363.10	33.788
363.46	34.615
363.82	33.965
364.18	34.081
364.54	35.239
364.90	32.704
365.26	34.237
365.62	33.215
365.98	35.633
366.35	33.873
366.71	33.545
367.07	34.510
367.43	33.905
367.79	33.883
368.15	34.211
368.51	34.755
368.87	34.272
369.23	34.386
369.59	34.097
369.95	34.672
370.31	35.373
370.67	34.779
371.03	34.840
371.39	35.644
371.75	35.050
372.11	34.362
372.47	35.647
372.83	36.231
373.19	35.571
373.55	35.116
373.91	35.704
374.27	34.634
374.63	35.611
374.99	36.092
375.35	35.330
375.71	37.272
376.07	36.003
376.42	35.033
376.78	37.255
377.14	36.610
377.50	37.202
377.86	36.151
378.22	37.437
378.58	36.380
378.94	36.498
379.30	37.172
379.66	36.976
380.02	36.245
380.38	37.160
380.74	35.991
381.09	36.731
381.45	37.172
381.81	37.266
382.17	37.594
382.53	37.690
382.89	37.739
383.25	37.267
383.61	38.561
383.97	38.763
384.32	38.235
384.68	39.843
385.04	37.862
385.40	39.014
385.76	38.780
386.12	38.101
386.48	38.800
386.83	37.914
387.19	38.135
387.55	39.007
387.91	38.589
388.27	38.359
388.62	38.642
388.98	39.431
389.34	37.638
389.70	38.429
390.06	38.844
390.42	39.103
390.77	39.558
391.13	41.366
391.49	40.299
391.85	39.900
392.20	40.898
392.56	39.157
392.92	40.160
393.28	40.471
393.64	40.710
393.99	40.677
394.35	38.686
394.71	39.222
395.07	40.929
395.42	40.167
395.78	39.912
396.14	40.561
396.50	39.694
396.85	41.333
397.21	40.887
397.57	39.331
397.92	41.101
398.28	40.167
398.64	40.095
399.00	41.910
399.35	40.248
399.71	41.115
400.07	42.030
400.42	40.754
400.78	40.310
401.14	40.479
401.49	41.274
401.85	40.879
402.21	41.061
402.57	40.534
402.92	41.347
403.28	40.564
403.63	38.286
403.99	41.144
404.35	40.338
404.70	40.199
405.06	40.369
405.42	40.037
405.77	40.328
406.13	39.920
406.49	41.522
406.84	40.432
407.20	40.754
407.55	41.039
407.91	38.925
408.27	40.135
408.62	40.649
408.98	40.691
409.34	39.976
409.69	40.895
410.05	40.509
410.40	41.631
410.76	41.909
411.11	40.461
411.47	40.857
411.83	41.932
412.18	40.470
412.54	40.146
412.89	40.583
413.25	40.791
413.60	40.948
413.96	40.727
414.31	41.407
414.67	40.635
415.03	39.780
415.38	41.054
415.74	41.817
416.09	41.176
416.45	41.005
416.80	42.458
417.16	40.332
417.51	41.563
417.87	41.489
418.22	40.076
418.58	40.436
418.93	42.244
419.29	39.774
419.64	41.143
420.00	41.981
420.35	42.046
420.71	40.696
421.06	41.420
421.42	41.335
421.77	41.262
422.12	41.858
422.48	41.261
422.83	40.376
423.19	40.702
423.54	41.210
423.90	41.180
424.25	41.233
424.61	42.461
424.96	43.534
425.31	42.370
425.67	42.407
426.02	41.767
426.38	42.589
426.73	42.431
427.09	41.789
427.44	42.330
427.79	42.035
428.15	43.148
428.50	42.581
428.85	42.746
429.21	42.612
429.56	42.760
429.92	42.184
430.27	41.874
430.62	43.260
430.98	42.656
431.33	41.942
431.68	43.056
432.04	43.705
432.39	42.963
432.74	42.506
433.10	43.331
433.45	43.063
433.80	43.169
434.16	43.418
434.51	43.671
434.86	43.761
435.22	43.875
435.57	43.146
435.92	42.849
436.28	42.908
436.63	43.640
436.98	42.898
437.34	42.528
437.69	44.166
438.04	44.073
438.39	43.863
438.75	43.655
439.10	43.476
439.45	44.538
439.81	43.916
440.16	44.009
440.51	44.824
440.86	43.551
441.22	42.565
441.57	43.421
441.92	43.939
442.27	44.318
442.63	44.152
442.98	43.905
443.33	43.273
443.68	44.398
444.03	44.450
444.39	43.808
444.74	44.824
445.09	44.463
445.44	44.232
445.79	44.620
446.15	44.688
446.50	44.257
446.85	44.023
447.20	43.565
447.55	44.751
447.91	45.199
448.26	44.022
448.61	44.595
448.96	45.546
449.31	44.250
449.66	45.278
450.02	44.875
450.37	45.101
450.72	44.520
451.07	45.003
451.42	44.300
451.77	45.302
452.12	44.219
452.47	46.033
452.83	44.729
453.18	45.857
453.53	44.963
453.88	46.531
454.23	44.377
454.58	46.240
454.93	47.166
455.28	46.399
455.63	45.700
455.98	46.747
456.34	45.997
456.69	45.403
457.04	45.482
457.39	45.156
457.74	45.600
458.09	45.766
458.44	46.882
458.79	45.179
459.14	45.921
459.49	46.181
459.84	46.150
460.19	46.539
460.54	46.219
460.89	46.300
461.24	45.659
461.59	46.190
461.94	46.022
462.29	46.575
462.64	45.455
462.99	47.456
463.34	46.185
463.69	48.219
464.04	45.284
464.39	45.938
464.74	46.336
465.09	44.799
465.44	46.926
465.79	45.572
466.14	47.353
466.49	46.229
466.84	46.879
467.19	47.070
467.54	46.456
467.89	46.547
468.24	47.565
468.59	47.158
468.94	48.232
469.29	47.368
469.64	46.698
469.99	48.346
470.34	49.232
470.68	49.201
471.03	48.314
471.38	47.847
471.73	48.811
472.08	48.059
472.43	47.941
472.78	48.933
473.13	48.443
473.48	50.096
473.83	47.519
474.17	47.834
474.52	49.488
474.87	47.786
475.22	48.850
475.57	47.944
475.92	48.110
476.27	48.114
476.61	47.606
476.96	48.910
477.31	48.547
477.66	48.700
478.01	49.217
478.36	47.721
478.70	49.653
479.05	49.324
479.40	48.549
479.75	49.235
480.10	48.264
480.45	47.534
480.79	48.914
481.14	48.771
481.49	49.855
481.84	48.313
482.19	48.652
482.53	48.958
482.88	48.932
483.23	48.920
483.58	48.797
483.92	49.785
484.27	47.895
484.62	47.775
484.97	48.714
485.31	45.920
485.66	44.269
486.01	44.393
486.36	45.426
486.70	46.816
487.05	46.826
487.40	46.982
487.75	46.687
488.09	47.221
488.44	47.936
488.79	47.860
489.13	47.699
489.48	49.144
489.83	49.476
490.17	49.456
490.52	50.589
490.87	48.915
491.22	49.883
491.56	49.028
491.91	50.000
492.26	49.953
492.60	50.523
492.95	49.929
493.30	50.119
493.64	50.071
493.99	50.860
494.34	50.810
494.68	50.983
495.03	50.191
495.37	49.902
495.72	50.786
496.07	49.977
496.41	50.625
496.76	50.639
497.11	51.625
497.45	51.006
497.80	50.975
498.14	51.473
498.49	51.783
498.84	49.757
499.18	51.413
499.53	51.193
499.87	50.290
500.22	51.373
500.56	52.126
500.91	50.493
501.26	52.014
501.60	50.698
501.95	52.029
502.29	51.441
502.64	51.202
502.98	50.455
503.33	50.940
503.67	51.389
504.02	51.473
504.36	51.225
504.71	52.837
505.06	52.371
505.40	52.295
505.75	52.083
506.09	52.781
506.44	52.982
506.78	51.831
507.13	51.596
507.47	53.782
507.82	52.555
508.16	54.145
508.51	53.529
508.85	53.261
509.19	53.114
509.54	53.277
509.88	53.670
510.23	54.612
510.57	53.280
510.92	54.995
511.26	53.907
511.61	55.184
511.95	54.418
512.30	54.590
512.64	53.868
512.98	55.006
513.33	55.464
513.67	55.444
514.02	55.817
514.36	55.789
514.70	54.839
515.05	56.661
515.39	55.075
515.74	57.824
516.08	55.677
516.42	56.657
516.77	57.019
517.11	56.293
517.46	59.629
517.80	58.123
518.14	57.186
518.49	57.860
518.83	57.092
519.17	57.430
519.52	56.333
519.86	59.080
520.20	59.352
520.55	57.846
520.89	58.359
521.23	58.669
521.58	59.185
521.92	58.645
522.26	59.619
522.61	60.013
522.95	59.221
523.29	60.564
523.64	60.025
523.98	60.089
524.32	59.648
524.66	59.193
525.01	60.501
525.35	60.503
525.69	59.336
526.04	59.987
526.38	61.617
526.72	60.153
527.06	61.133
527.41	59.868
527.75	60.198
528.09	60.556
528.43	61.115
528.78	59.296
529.12	60.563
529.46	60.760
529.80	59.458
530.15	60.077
530.49	59.961
530.83	61.297
531.17	61.616
531.51	60.683
531.86	60.171
532.20	61.876
532.54	61.631
532.88	60.738
533.22	60.762
533.57	60.836
533.91	58.240
534.25	58.580
534.59	59.275
534.93	59.490
535.27	61.422
535.62	60.230
535.96	58.824
536.30	59.359
536.64	60.823
536.98	62.853
537.32	61.852
537.66	61.100
538.01	60.825
538.35	60.541
538.69	60.361
539.03	61.341
539.37	60.546
539.71	60.240
540.05	60.452
540.39	60.249
540.73	60.885
541.07	61.817
541.42	60.702
541.76	58.206
542.10	61.175
542.44	60.759
542.78	60.312
543.12	60.896
543.46	60.068
543.80	59.398
544.14	60.645
544.48	60.236
544.82	59.337
545.16	59.423
545.50	60.633
545.84	60.779
546.18	61.234
546.52	61.949
546.86	61.182
547.20	61.603
547.54	60.262
547.88	60.717
548.22	59.371
548.56	59.786
548.90	60.984
549.24	60.897
549.58	61.750
549.92	60.989
550.26	62.283
550.60	60.028
550.94	62.336
551.28	61.926
551.62	62.112
551.96	62.301
552.30	60.836
552.64	61.436
552.98	61.598
553.32	62.626
553.66	62.725
554.00	62.189
554.34	61.805
554.68	60.161
555.02	60.709
555.36	61.323
555.69	60.530
556.03	60.421
556.37	61.949
556.71	61.346
557.05	61.863
557.39	63.103
557.73	61.634
558.07	62.472
558.41	61.406
558.75	61.977
559.08	61.712
559.42	61.792
559.76	63.190
560.10	63.162
560.44	62.645
560.78	61.935
561.12	60.041
561.45	61.644
561.79	60.906
562.13	62.903
562.47	60.364
562.81	60.467
563.15	59.482
563.48	61.368
563.82	61.596
564.16	60.514
564.50	61.089
564.84	58.929
565.17	59.748
565.51	59.778
565.85	61.934
566.19	61.726
566.52	60.274
566.86	59.924
567.20	61.017
567.54	59.539
567.88	57.733
568.21	59.676
568.55	56.787
568.89	54.871
569.23	55.298
569.56	54.855
569.90	54.367
570.24	54.867
570.57	53.146
570.91	53.145
571.25	53.470
571.59	53.637
571.92	51.696
572.26	51.348
572.60	51.753
572.93	51.626
573.27	51.433
573.61	50.588
573.95	51.517
574.28	50.466
574.62	50.356
574.96	50.349
575.29	50.534
575.63	51.181
575.97	49.946
576.30	50.343
576.64	50.992
576.98	49.888
577.31	49.869
577.65	49.631
577.98	49.408
578.32	49.653
578.66	50.586
578.99	49.845
579.33	50.515
579.67	49.810
580.00	50.149
580.34	49.242
580.67	51.189
581.01	49.726
581.35	49.569
581.68	48.225
582.02	48.596
582.35	48.857
582.69	49.809
583.02	50.729
583.36	49.714
583.70	50.282
584.03	50.835
584.37	50.663
584.70	50.357
585.04	50.177
585.37	48.687
585.71	49.516
586.04	50.735
586.38	50.200
586.72	50.423
587.05	50.864
587.39	50.724
587.72	50.836
588.06	50.949
588.39	50.983
588.73	51.358
589.06	52.078
589.40	53.212
589.73	51.735
590.07	51.821
590.40	51.218
590.73	53.539
591.07	52.828
591.40	53.510
591.74	53.258
592.07	54.009
592.41	53.546
592.74	52.652
593.08	51.802
593.41	51.118
593.75	50.676
594.08	52.948
594.41	53.530
594.75	52.548
595.08	52.556
595.42	51.987
595.75	51.966
596.09	52.192
596.42	53.560
596.75	53.126
597.09	54.007
597.42	52.946
597.75	53.942
598.09	53.502
598.42	52.452
598.76	52.243
599.09	51.776
599.42	52.326
599.76	52.057
600.09	53.282
600.42	52.260
600.76	52.618
601.09	51.538
601.42	52.078
601.76	53.544
602.09	53.170
602.42	53.333
602.76	53.220
603.09	53.145
603.42	53.787
603.76	52.732
604.09	53.384
604.42	52.331
604.76	52.464
605.09	53.617
605.42	53.679
605.75	53.428
606.09	52.428
606.42	52.995
606.75	52.769
607.09	53.375
607.42	52.685
607.75	53.377
608.08	54.993
608.42	54.447
608.75	53.832
609.08	54.700
609.41	54.360
609.75	52.608
610.08	54.657
610.41	54.651
610.74	54.981
611.07	54.412
611.41	54.110
611.74	55.219
612.07	55.747
612.40	54.691
612.73	54.281
613.07	54.761
613.40	55.993
613.73	55.967
614.06	55.354
614.39	55.750
614.72	55.642
615.06	54.239
615.39	54.097
615.72	55.839
616.05	54.611
616.38	55.775
616.71	56.937
617.05	56.514
617.38	56.780
617.71	56.020
618.04	56.211
618.37	56.289
618.70	58.344
619.03	57.075
619.36	58.421
619.69	58.363
620.03	57.576
620.36	57.876
620.69	58.435
621.02	58.980
621.35	59.516
621.68	61.393
622.01	61.570
622.34	58.618
622.67	59.844
623.00	60.597
623.33	58.955
623.66	58.493
623.99	60.226
624.32	59.598
624.65	58.352
624.99	58.028
625.32	59.880
625.65	60.839
625.98	59.781
626.31	60.440
626.64	60.167
626.97	61.644
627.30	61.277
627.63	61.226
627.96	62.402
628.29	63.879
628.62	62.751
628.95	64.469
629.28	63.346
629.61	64.377
629.94	63.989
630.26	64.414
630.59	63.719
630.92	62.663
631.25	63.810
631.58	66.455
631.91	62.979
