SpectraSuite Data File
++++++++++++++++++++++++++++++++++++
Date: Sat May 16 11:22:15 PDT 2015
User: schluterlab
Dark Spectrum Present: Yes
Reference Spectrum Present: Yes
Number of Sampled Component Spectra: 1
Spectrometers: USB2E3373
Integration Time (usec): 3000 (USB2E3373)
Spectra Averaged: 3 (USB2E3373)
Boxcar Smoothing: 0 (USB2E3373)
Correct for Electrical Dark: No (USB2E3373)
Strobe/Lamp Enabled: No (USB2E3373)
Correct for Detector Non-linearity: No (USB2E3373)
Correct for Stray Light: No (USB2E3373)
Number of Pixels in Processed Spectrum: 2048
>>>>>Begin Processed Spectral Data<<<<<
178.53	0.000
178.91	133.333
179.29	333.333
179.67	-600.000
180.04	-53.846
180.42	1000.000
180.80	300.000
181.18	600.000
181.56	-37.500
181.94	1000.000
182.31	275.000
182.69	-100.000
183.07	-333.333
183.45	1300.000
183.83	466.667
184.20	-114.286
184.58	-237.500
184.96	-250.000
185.34	112.500
185.72	-375.000
186.09	166.667
186.47	-75.000
186.85	-162.500
187.23	-125.000
187.61	-275.000
187.98	-250.000
188.36	-37.500
188.74	-125.000
189.12	1000.000
189.49	371.429
189.87	-33.333
190.25	325.000
190.63	-35.714
191.00	-188.889
191.38	360.000
191.76	0.000
192.14	660.000
192.51	-420.000
192.89	-166.667
193.27	0.000
193.65	-133.333
194.02	-285.714
194.40	500.000
194.78	-220.000
195.15	-600.000
195.53	-172.727
195.91	-450.000
196.29	120.000
196.66	-733.333
197.04	2900.000
197.42	-125.000
197.79	-6.667
198.17	-266.667
198.55	-300.000
198.92	-1500.000
199.30	212.500
199.68	-550.000
200.05	-88.889
200.43	-233.333
200.81	-2100.000
201.18	-100.000
201.56	171.429
201.94	-6.667
202.31	50.000
202.69	30.000
203.07	-140.000
203.44	566.667
203.82	-266.667
204.19	-275.000
204.57	-325.000
204.95	-1300.000
205.32	0.000
205.70	300.000
206.08	-1400.000
206.45	-5.556
206.83	-1000.000
207.20	-300.000
207.58	-500.000
207.96	-366.667
208.33	-87.500
208.71	-133.333
209.08	160.000
209.46	-185.714
209.84	600.000
210.21	0.000
210.59	45.000
210.96	1800.000
211.34	-250.000
211.71	-400.000
212.09	500.000
212.46	1250.000
212.84	-1300.000
213.22	600.000
213.59	175.000
213.97	-133.333
214.34	240.000
214.72	-150.000
215.09	-566.667
215.47	-83.333
215.84	-130.000
216.22	-70.000
216.59	-26.667
216.97	-325.000
217.34	1000.000
217.72	-142.857
218.09	-333.333
218.47	-142.857
218.84	357.143
219.22	-242.857
219.59	0.000
219.97	228.571
220.34	300.000
220.72	250.000
221.09	-38.462
221.47	0.000
221.84	533.333
222.22	-750.000
222.59	2000.000
222.97	-250.000
223.34	-700.000
223.72	-500.000
224.09	-14.286
224.46	-400.000
224.84	-71.429
225.21	-157.143
225.59	-63.636
225.96	-225.000
226.34	-242.857
226.71	-144.444
227.08	60.000
227.46	2200.000
227.83	28.571
228.21	-87.500
228.58	900.000
228.95	-37.500
229.33	-2300.000
229.70	-380.000
230.08	-950.000
230.45	-66.667
230.82	-216.667
231.20	100.000
231.57	-1050.000
231.95	1100.000
232.32	14.286
232.69	-177.778
233.07	-271.429
233.44	-450.000
233.81	-53.333
234.19	-100.000
234.56	-43.750
234.93	0.000
235.31	-200.000
235.68	-121.429
236.05	-47.059
236.43	-45.455
236.80	-12.903
237.17	-20.833
237.55	-95.238
237.92	-86.364
238.29	-20.000
238.67	-23.529
239.04	2.778
239.41	-67.742
239.79	-82.051
240.16	-11.905
240.53	-18.182
240.91	-12.821
241.28	1.818
241.65	1.538
242.02	-16.393
242.40	-8.197
242.77	-13.636
243.14	-25.424
243.51	-25.714
243.89	-13.924
244.26	-7.865
244.63	0.000
245.00	3.158
245.38	-1.695
245.75	3.540
246.12	-8.000
246.49	-0.787
246.87	-11.382
247.24	-1.695
247.61	-14.407
247.98	-3.521
248.36	-17.483
248.73	0.000
249.10	-7.643
249.47	9.357
249.84	-3.977
250.22	-12.500
250.59	-1.695
250.96	-4.188
251.33	2.844
251.70	0.000
252.08	-1.896
252.45	-1.896
252.82	-1.429
253.19	-0.851
253.56	-2.419
253.94	0.000
254.31	-3.004
254.68	2.033
255.05	-5.242
255.42	0.794
255.79	1.075
256.16	2.745
256.54	0.735
256.91	-0.758
257.28	-2.564
257.65	2.837
258.02	2.201
258.39	-2.007
258.76	-1.351
259.14	1.235
259.51	-1.967
259.88	-1.829
260.25	1.242
260.62	0.322
260.99	-0.593
261.36	1.220
261.73	2.312
262.10	2.222
262.47	-2.849
262.85	1.714
263.22	0.000
263.59	0.000
263.96	-1.449
264.33	2.439
264.70	3.315
265.07	0.824
265.44	1.034
265.81	0.258
266.18	-0.253
266.55	0.490
266.92	3.526
267.29	1.211
267.66	0.000
268.03	2.415
268.40	2.817
268.77	0.000
269.14	-0.696
269.51	4.138
269.88	-0.459
270.25	-0.932
270.62	-0.458
270.99	0.225
271.36	1.166
271.73	-0.673
272.10	-1.373
272.47	-1.111
272.84	2.667
273.21	1.376
273.58	0.000
273.95	-0.439
274.32	2.489
274.69	1.313
275.06	0.818
275.43	0.893
275.80	2.240
276.17	-0.628
276.54	2.240
276.91	-0.206
277.28	1.217
277.65	0.000
278.02	1.044
278.39	2.554
278.76	0.398
279.13	1.581
279.50	0.596
279.87	0.000
280.23	0.607
280.60	0.000
280.97	0.388
281.34	0.387
281.71	1.538
282.08	0.605
282.45	-0.611
282.82	0.775
283.19	0.727
283.56	3.480
283.92	3.004
284.29	0.186
284.66	1.799
285.03	4.456
285.40	-0.738
285.77	0.702
286.14	1.625
286.51	1.421
286.87	1.270
287.24	1.365
287.61	1.818
287.98	-0.173
288.35	0.992
288.72	0.849
289.08	1.356
289.45	1.347
289.82	-1.211
290.19	1.314
290.56	0.331
290.93	0.477
291.29	1.297
291.66	2.254
292.03	3.297
292.40	2.108
292.77	0.466
293.13	2.439
293.50	0.594
293.87	3.067
294.24	3.167
294.60	-0.455
294.97	2.731
295.34	1.926
295.71	1.935
296.08	0.614
296.44	1.860
296.81	1.425
297.18	1.831
297.55	1.271
297.91	3.347
298.28	0.959
298.65	1.116
299.02	3.075
299.38	3.342
299.75	1.223
300.12	1.667
300.48	3.453
300.85	1.966
301.22	2.846
301.59	2.471
301.95	2.645
302.32	0.522
302.69	3.060
303.05	2.198
303.42	1.500
303.79	2.033
304.15	1.422
304.52	3.501
304.89	2.834
305.25	1.832
305.62	3.643
305.99	4.005
306.35	3.663
306.72	2.733
307.09	3.292
307.45	3.859
307.82	3.128
308.19	3.132
308.55	3.050
308.92	2.900
309.29	3.459
309.65	2.863
310.02	4.428
310.38	3.027
310.75	4.713
311.12	3.926
311.48	5.846
311.85	4.325
312.22	3.708
312.58	6.104
312.95	4.893
313.31	5.195
313.68	4.925
314.05	6.429
314.41	4.326
314.78	4.895
315.14	6.219
315.51	5.370
315.87	7.067
316.24	6.900
316.61	7.294
316.97	6.070
317.34	6.262
317.70	7.050
318.07	7.556
318.43	6.648
318.80	8.732
319.16	6.473
319.53	7.519
319.89	7.996
320.26	7.451
320.62	7.308
320.99	8.060
321.35	7.291
321.72	7.984
322.08	8.902
322.45	9.010
322.81	9.990
323.18	10.279
323.54	11.183
323.91	11.399
324.27	11.787
324.64	11.609
325.00	12.740
325.37	14.027
325.73	15.573
326.10	13.729
326.46	15.762
326.83	16.170
327.19	14.595
327.56	17.547
327.92	16.822
328.29	18.009
328.65	17.545
329.01	18.816
329.38	18.198
329.74	20.604
330.11	19.583
330.47	19.619
330.84	21.357
331.20	19.856
331.56	20.419
331.93	20.337
332.29	21.096
332.66	21.510
333.02	20.724
333.38	21.864
333.75	20.214
334.11	20.622
334.48	20.741
334.84	21.347
335.20	20.922
335.57	21.931
335.93	22.560
336.29	20.461
336.66	21.850
337.02	23.063
337.38	19.964
337.75	21.335
338.11	20.841
338.47	22.598
338.84	21.506
339.20	21.090
339.56	21.747
339.93	22.134
340.29	21.612
340.65	21.766
341.02	20.742
341.38	22.241
341.74	21.507
342.11	22.526
342.47	21.288
342.83	21.830
343.20	21.349
343.56	20.490
343.92	21.870
344.28	21.699
344.65	21.040
345.01	21.092
345.37	21.512
345.73	20.295
346.10	20.114
346.46	20.715
346.82	20.850
347.19	20.707
347.55	20.626
347.91	22.441
348.27	21.321
348.63	22.536
349.00	22.593
349.36	21.390
349.72	23.169
350.08	21.251
350.45	20.489
350.81	22.532
351.17	22.267
351.53	20.923
351.89	21.423
352.26	21.705
352.62	21.813
352.98	21.994
353.34	21.423
353.70	21.236
354.07	22.817
354.43	21.739
354.79	22.504
355.15	21.486
355.51	22.266
355.87	22.134
356.24	21.922
356.60	22.885
356.96	23.249
357.32	22.803
357.68	22.452
358.04	22.479
358.40	23.202
358.77	21.638
359.13	22.188
359.49	23.129
359.85	22.561
360.21	23.212
360.57	23.569
360.93	23.481
361.29	23.543
361.66	23.095
362.02	23.669
362.38	24.285
362.74	23.956
363.10	22.884
363.46	24.217
363.82	24.271
364.18	23.300
364.54	24.732
364.90	23.201
365.26	23.395
365.62	24.804
365.98	24.182
366.35	24.225
366.71	23.679
367.07	24.065
367.43	25.532
367.79	24.330
368.15	23.898
368.51	24.476
368.87	24.451
369.23	24.561
369.59	25.139
369.95	24.454
370.31	25.387
370.67	25.669
371.03	24.927
371.39	24.187
371.75	26.967
372.11	26.471
372.47	24.946
372.83	26.287
373.19	25.714
373.55	27.023
373.91	26.102
374.27	24.846
374.63	26.501
374.99	26.634
375.35	26.514
375.71	27.684
376.07	26.283
376.42	25.894
376.78	27.647
377.14	27.593
377.50	28.627
377.86	27.763
378.22	28.894
378.58	27.980
378.94	28.545
379.30	28.641
379.66	28.415
380.02	28.223
380.38	28.882
380.74	28.429
381.09	28.588
381.45	29.296
381.81	28.736
382.17	29.637
382.53	29.666
382.89	29.605
383.25	29.922
383.61	30.837
383.97	30.557
384.32	30.914
384.68	31.620
385.04	30.556
385.40	30.676
385.76	32.195
386.12	31.106
386.48	32.426
386.83	32.025
387.19	31.321
387.55	31.435
387.91	31.357
388.27	32.207
388.62	31.490
388.98	31.738
389.34	31.395
389.70	31.790
390.06	31.945
390.42	32.436
390.77	31.798
391.13	32.919
391.49	32.002
391.85	32.918
392.20	31.978
392.56	32.437
392.92	33.200
393.28	33.180
393.64	33.915
393.99	33.723
394.35	32.968
394.71	33.477
395.07	33.647
395.42	32.479
395.78	32.432
396.14	33.583
396.50	32.844
396.85	34.053
397.21	33.536
397.57	34.103
397.92	34.309
398.28	34.500
398.64	33.789
399.00	34.213
399.35	33.371
399.71	34.088
400.07	33.970
400.42	34.124
400.78	33.453
401.14	33.293
401.49	34.198
401.85	34.777
402.21	34.207
402.57	33.920
402.92	35.116
403.28	33.824
403.63	33.433
403.99	33.686
404.35	33.454
404.70	34.757
405.06	33.679
405.42	33.395
405.77	32.240
406.13	33.163
406.49	34.212
406.84	33.773
407.20	34.688
407.55	33.186
407.91	33.679
408.27	34.007
408.62	33.854
408.98	33.960
409.34	32.602
409.69	33.270
410.05	32.686
410.40	34.090
410.76	33.906
411.11	34.476
411.47	32.864
411.83	34.291
412.18	34.097
412.54	33.740
412.89	34.083
413.25	32.822
413.60	33.779
413.96	32.779
414.31	34.495
414.67	34.603
415.03	34.476
415.38	34.548
415.74	34.794
416.09	33.696
416.45	32.474
416.80	34.005
417.16	33.156
417.51	34.143
417.87	33.981
418.22	34.134
418.58	35.558
418.93	34.457
419.29	33.940
419.64	34.987
420.00	35.298
420.35	35.305
420.71	35.594
421.06	34.793
421.42	34.485
421.77	35.399
422.12	35.870
422.48	34.955
422.83	35.706
423.19	35.245
423.54	35.389
423.90	35.396
424.25	36.029
424.61	35.766
424.96	35.518
425.31	36.724
425.67	36.218
426.02	35.800
426.38	37.084
426.73	36.470
427.09	37.194
427.44	37.045
427.79	36.802
428.15	37.582
428.50	37.185
428.85	37.890
429.21	36.635
429.56	37.708
429.92	36.974
430.27	36.989
430.62	37.356
430.98	37.742
431.33	37.460
431.68	38.499
432.04	38.053
432.39	38.575
432.74	37.290
433.10	38.492
433.45	37.363
433.80	38.858
434.16	38.796
434.51	39.014
434.86	39.250
435.22	40.145
435.57	38.250
435.92	39.215
436.28	39.110
436.63	37.705
436.98	38.144
437.34	39.043
437.69	39.615
438.04	38.741
438.39	39.591
438.75	38.591
439.10	39.367
439.45	39.529
439.81	39.458
440.16	40.545
440.51	39.941
440.86	39.907
441.22	39.027
441.57	39.684
441.92	40.205
442.27	39.286
442.63	40.504
442.98	39.673
443.33	40.637
443.68	40.281
444.03	40.472
444.39	39.648
444.74	40.584
445.09	39.748
445.44	40.743
445.79	40.745
446.15	40.252
446.50	40.827
446.85	40.021
447.20	40.603
447.55	40.773
447.91	41.157
448.26	40.056
448.61	40.690
448.96	41.457
449.31	40.023
449.66	41.500
450.02	40.222
450.37	40.058
450.72	40.508
451.07	41.358
451.42	39.591
451.77	40.575
452.12	41.359
452.47	41.877
452.83	40.827
453.18	41.935
453.53	40.858
453.88	41.388
454.23	39.843
454.58	41.889
454.93	40.050
455.28	42.001
455.63	41.646
455.98	42.892
456.34	40.152
456.69	41.401
457.04	40.811
457.39	40.072
457.74	40.992
458.09	40.835
458.44	42.321
458.79	41.760
459.14	41.129
459.49	41.859
459.84	41.765
460.19	41.527
460.54	41.440
460.89	41.143
461.24	41.105
461.59	41.501
461.94	41.884
462.29	41.632
462.64	40.777
462.99	42.169
463.34	40.851
463.69	42.239
464.04	42.121
464.39	40.442
464.74	40.839
465.09	40.168
465.44	41.624
465.79	42.132
466.14	41.945
466.49	40.645
466.84	42.917
467.19	41.646
467.54	40.443
467.89	42.047
468.24	40.202
468.59	41.412
468.94	42.122
469.29	41.455
469.64	41.577
469.99	41.594
470.34	41.149
470.68	41.642
471.03	41.432
471.38	41.250
471.73	42.727
472.08	40.027
472.43	40.798
472.78	42.400
473.13	41.683
473.48	42.374
473.83	42.494
474.17	41.210
474.52	43.478
474.87	40.793
475.22	41.298
475.57	41.444
475.92	42.657
476.27	41.829
476.61	42.310
476.96	42.985
477.31	42.573
477.66	42.391
478.01	42.085
478.36	41.173
478.70	43.780
479.05	41.969
479.40	42.332
479.75	41.794
480.10	42.510
480.45	40.377
480.79	42.744
481.14	42.298
481.49	42.256
481.84	42.302
482.19	42.165
482.53	42.330
482.88	41.528
483.23	42.160
483.58	41.212
483.92	42.284
484.27	40.851
484.62	41.210
484.97	40.530
485.31	40.544
485.66	40.738
486.01	40.754
486.36	41.538
486.70	42.502
487.05	41.571
487.40	41.827
487.75	40.904
488.09	39.839
488.44	40.020
488.79	40.255
489.13	40.015
489.48	40.905
489.83	41.354
490.17	41.141
490.52	41.848
490.87	41.709
491.22	41.196
491.56	40.880
491.91	41.889
492.26	42.217
492.60	41.532
492.95	41.694
493.30	41.115
493.64	41.326
493.99	41.635
494.34	40.810
494.68	42.322
495.03	40.822
495.37	40.954
495.72	41.159
496.07	41.718
496.41	42.427
496.76	41.598
497.11	41.309
497.45	41.906
497.80	41.521
498.14	41.847
498.49	42.341
498.84	41.845
499.18	42.398
499.53	41.500
499.87	41.795
500.22	41.716
500.56	41.971
500.91	42.611
501.26	41.873
501.60	41.647
501.95	42.126
502.29	40.954
502.64	42.056
502.98	41.591
503.33	41.635
503.67	41.762
504.02	41.236
504.36	41.667
504.71	43.009
505.06	41.787
505.40	42.615
505.75	42.530
506.09	41.304
506.44	42.456
506.78	40.542
507.13	40.937
507.47	41.993
507.82	42.179
508.16	43.109
508.51	42.349
508.85	42.288
509.19	41.915
509.54	42.865
509.88	42.819
510.23	42.086
510.57	43.651
510.92	41.890
511.26	41.946
511.61	42.117
511.95	41.433
512.30	42.716
512.64	41.347
512.98	42.464
513.33	42.834
513.67	41.932
514.02	42.282
514.36	43.102
514.70	43.011
515.05	43.682
515.39	42.445
515.74	42.118
516.08	42.824
516.42	43.173
516.77	44.425
517.11	42.906
517.46	44.378
517.80	44.404
518.14	42.814
518.49	43.276
518.83	42.967
519.17	42.392
519.52	42.741
519.86	43.608
520.20	43.460
520.55	43.815
520.89	43.081
521.23	43.101
521.58	42.633
521.92	43.825
522.26	43.175
522.61	43.726
522.95	42.693
523.29	42.884
523.64	43.410
523.98	43.348
524.32	43.683
524.66	42.174
525.01	43.353
525.35	44.716
525.69	43.982
526.04	43.995
526.38	43.603
526.72	41.954
527.06	43.555
527.41	42.442
527.75	43.630
528.09	43.018
528.43	42.754
528.78	43.781
529.12	45.134
529.46	42.784
529.80	43.706
530.15	43.142
530.49	43.467
530.83	43.877
531.17	43.300
531.51	42.599
531.86	42.199
532.20	43.522
532.54	43.850
532.88	43.215
533.22	43.316
533.57	44.517
533.91	41.635
534.25	42.489
534.59	42.473
534.93	42.004
535.27	43.109
535.62	43.670
535.96	43.568
536.30	42.081
536.64	43.426
536.98	42.514
537.32	42.985
537.66	42.295
538.01	42.268
538.35	42.432
538.69	41.711
539.03	42.383
539.37	42.582
539.71	41.828
540.05	42.975
540.39	43.075
540.73	42.985
541.07	41.872
541.42	41.999
541.76	40.465
542.10	42.741
542.44	41.839
542.78	42.130
543.12	42.906
543.46	41.507
543.80	40.669
544.14	41.169
544.48	42.192
544.82	42.016
545.16	42.723
545.50	41.184
545.84	40.751
546.18	42.372
546.52	42.461
546.86	43.447
547.20	43.038
547.54	40.909
547.88	41.208
548.22	41.153
548.56	42.418
548.90	42.385
549.24	41.416
549.58	42.202
549.92	42.120
550.26	41.474
550.60	41.536
550.94	42.263
551.28	41.535
551.62	41.654
551.96	40.738
552.30	41.951
552.64	41.942
552.98	43.518
553.32	40.476
553.66	41.384
554.00	41.294
554.34	41.877
554.68	40.789
555.02	41.027
555.36	41.625
555.69	41.117
556.03	41.825
556.37	41.821
556.71	41.732
557.05	41.981
557.39	40.386
557.73	41.138
558.07	42.050
558.41	40.464
558.75	41.749
559.08	40.778
559.42	40.888
559.76	41.488
560.10	41.984
560.44	42.413
560.78	41.614
561.12	41.063
561.45	40.411
561.79	42.578
562.13	41.445
562.47	40.686
562.81	39.463
563.15	41.288
563.48	41.742
563.82	41.988
564.16	41.109
564.50	42.204
564.84	41.336
565.17	40.650
565.51	40.417
565.85	41.785
566.19	41.963
566.52	40.378
566.86	40.898
567.20	41.162
567.54	41.583
567.88	40.927
568.21	41.051
568.55	40.933
568.89	40.308
569.23	39.889
569.56	39.596
569.90	40.126
570.24	40.023
570.57	38.629
570.91	38.592
571.25	39.591
571.59	39.213
571.92	38.601
572.26	38.197
572.60	38.567
572.93	37.597
573.27	37.744
573.61	37.339
573.95	38.079
574.28	37.934
574.62	38.358
574.96	36.964
575.29	37.271
575.63	37.669
575.97	37.648
576.30	37.243
576.64	37.755
576.98	37.372
577.31	37.616
577.65	38.314
577.98	38.032
578.32	37.760
578.66	37.630
578.99	37.975
579.33	37.830
579.67	37.408
580.00	37.649
580.34	37.011
580.67	37.632
581.01	36.723
581.35	37.724
581.68	37.538
582.02	38.315
582.35	38.263
582.69	38.056
583.02	38.528
583.36	37.893
583.70	37.199
584.03	37.150
584.37	37.591
584.70	36.717
585.04	37.570
585.37	37.041
585.71	37.663
586.04	37.943
586.38	37.316
586.72	38.275
587.05	37.978
587.39	38.077
587.72	37.510
588.06	37.744
588.39	38.394
588.73	38.021
589.06	38.523
589.40	38.750
589.73	37.358
590.07	38.055
590.40	38.007
590.73	38.944
591.07	38.566
591.40	38.042
591.74	38.923
592.07	38.198
592.41	39.108
592.74	39.085
593.08	39.307
593.41	38.586
593.75	38.642
594.08	39.360
594.41	39.889
594.75	39.147
595.08	39.211
595.42	39.017
595.75	38.111
596.09	37.757
596.42	39.321
596.75	39.457
597.09	39.314
597.42	38.193
597.75	38.973
598.09	38.816
598.42	38.754
598.76	38.538
599.09	38.200
599.42	38.524
599.76	38.316
600.09	39.733
600.42	39.271
600.76	39.209
601.09	39.119
601.42	37.792
601.76	38.201
602.09	38.732
602.42	38.395
602.76	38.720
603.09	38.065
603.42	38.678
603.76	39.769
604.09	38.366
604.42	37.635
604.76	38.770
605.09	39.602
605.42	39.583
605.75	37.602
606.09	38.896
606.42	38.500
606.75	38.042
607.09	38.509
607.42	38.424
607.75	38.146
608.08	40.036
608.42	38.316
608.75	37.523
609.08	38.139
609.41	38.366
609.75	37.445
610.08	38.824
610.41	38.410
610.74	39.410
611.07	38.641
611.41	38.477
611.74	38.972
612.07	38.937
612.40	38.380
612.73	38.503
613.07	39.075
613.40	39.901
613.73	39.128
614.06	38.386
614.39	40.192
614.72	38.156
615.06	38.043
615.39	38.361
615.72	38.892
616.05	37.880
616.38	39.060
616.71	38.138
617.05	39.023
617.38	38.762
617.71	38.943
618.04	38.571
618.37	39.057
618.70	40.156
619.03	39.404
619.36	39.605
619.69	39.627
620.03	39.876
620.36	39.944
620.69	40.273
621.02	38.584
621.35	39.597
621.68	39.836
622.01	39.725
622.34	39.363
622.67	40.469
623.00	38.256
623.33	40.299
623.66	39.069
623.99	39.474
624.32	39.807
624.65	38.190
624.99	38.611
625.32	40.269
625.65	39.394
625.98	39.671
626.31	39.070
626.64	39.247
626.97	39.384
627.30	39.404
627.63	40.242
627.96	40.209
628.29	39.706
628.62	39.255
628.95	40.354
629.28	41.259
629.61	40.530
629.94	40.643
630.26	41.650
630.59	41.005
630.92	40.941
631.25	41.431
631.58	40.106
631.91	39.787
632.24	41.333
632.57	41.444
632.90	40.690
633.23	42.407
633.56	40.819
633.89	41.274
634.22	39.669
634.55	41.106
634.88	40.266
