SpectraSuite Data File
++++++++++++++++++++++++++++++++++++
Date: Sat May 16 11:36:41 PDT 2015
User: schluterlab
Dark Spectrum Present: Yes
Reference Spectrum Present: Yes
Number of Sampled Component Spectra: 1
Spectrometers: USB2E3373
Integration Time (usec): 3000 (USB2E3373)
Spectra Averaged: 3 (USB2E3373)
Boxcar Smoothing: 0 (USB2E3373)
Correct for Electrical Dark: No (USB2E3373)
Strobe/Lamp Enabled: No (USB2E3373)
Correct for Detector Non-linearity: No (USB2E3373)
Correct for Stray Light: No (USB2E3373)
Number of Pixels in Processed Spectrum: 2048
>>>>>Begin Processed Spectral Data<<<<<
178.53	0.000
178.91	126.667
179.29	500.000
179.67	-700.000
180.04	0.000
180.42	2500.000
180.80	400.000
181.18	425.000
181.56	-12.500
181.94	300.000
182.31	475.000
182.69	-46.154
183.07	-366.667
183.45	1300.000
183.83	600.000
184.20	-185.714
184.58	-212.500
184.96	-425.000
185.34	106.250
185.72	-625.000
186.09	200.000
186.47	-312.500
186.85	-50.000
187.23	-112.500
187.61	-225.000
187.98	-237.500
188.36	-137.500
188.74	-150.000
189.12	2000.000
189.49	257.143
189.87	-66.667
190.25	550.000
190.63	-57.143
191.00	-255.556
191.38	400.000
191.76	33.333
192.14	420.000
192.51	-260.000
192.89	-300.000
193.27	0.000
193.65	-188.889
194.02	-71.429
194.40	633.333
194.78	-40.000
195.15	-1300.000
195.53	-90.909
195.91	-433.333
196.29	280.000
196.66	-600.000
197.04	2600.000
197.42	-50.000
197.79	26.667
198.17	-700.000
198.55	-650.000
198.92	-1100.000
199.30	187.500
199.68	-450.000
200.05	55.556
200.43	-188.889
200.81	-2000.000
201.18	-191.667
201.56	57.143
201.94	6.667
202.31	22.727
202.69	40.000
203.07	-100.000
203.44	533.333
203.82	-483.333
204.19	-375.000
204.57	-25.000
204.95	-1300.000
205.32	-25.000
205.70	2200.000
206.08	-2000.000
206.45	11.111
206.83	-1050.000
207.20	-350.000
207.58	-766.667
207.96	-700.000
208.33	-187.500
208.71	-355.556
209.08	190.000
209.46	-228.571
209.84	1000.000
210.21	0.000
210.59	50.000
210.96	2200.000
211.34	-83.333
211.71	-600.000
212.09	450.000
212.46	1200.000
212.84	-1800.000
213.22	666.667
213.59	100.000
213.97	-122.222
214.34	190.000
214.72	-170.000
215.09	-566.667
215.47	-333.333
215.84	-100.000
216.22	-130.000
216.59	0.000
216.97	-500.000
217.34	1400.000
217.72	-128.571
218.09	-383.333
218.47	-128.571
218.84	185.714
219.22	-42.857
219.59	0.000
219.97	300.000
220.34	500.000
220.72	162.500
221.09	-69.231
221.47	0.000
221.84	300.000
222.22	-250.000
222.59	2400.000
222.97	-237.500
223.34	-550.000
223.72	-433.333
224.09	-21.429
224.46	-250.000
224.84	-78.571
225.21	-185.714
225.59	-45.455
225.96	-125.000
226.34	-171.429
226.71	-77.778
227.08	-20.000
227.46	1900.000
227.83	-185.714
228.21	-300.000
228.58	450.000
228.95	-62.500
229.33	-3300.000
229.70	-280.000
230.08	-1300.000
230.45	-8.333
230.82	-300.000
231.20	-1000.000
231.57	-550.000
231.95	2600.000
232.32	28.571
232.69	-244.444
233.07	-300.000
233.44	-750.000
233.81	-46.667
234.19	-77.778
234.56	-50.000
234.93	-12.500
235.31	-157.143
235.68	-114.286
236.05	-64.706
236.43	-113.636
236.80	-9.677
237.17	-83.333
237.55	-61.905
237.92	-131.818
238.29	-65.714
238.67	-14.706
239.04	-16.667
239.41	-41.935
239.79	-53.846
240.16	-11.905
240.53	-3.636
240.91	-7.692
241.28	-16.364
241.65	20.000
242.02	-9.836
242.40	-6.557
242.77	-9.091
243.14	-28.814
243.51	-5.714
243.89	-5.063
244.26	-10.112
244.63	1.053
245.00	-7.368
245.38	2.542
245.75	6.195
246.12	7.200
246.49	-3.150
246.87	1.626
247.24	-5.085
247.61	-0.847
247.98	0.704
248.36	-3.497
248.73	1.899
249.10	-2.548
249.47	5.848
249.84	-1.136
250.22	-4.762
250.59	2.825
250.96	-0.524
251.33	11.848
251.70	3.846
252.08	4.265
252.45	-1.422
252.82	-4.762
253.19	3.830
253.56	4.435
253.94	1.266
254.31	5.579
254.68	0.407
255.05	2.016
255.42	2.778
255.79	1.792
256.16	3.529
256.54	4.044
256.91	5.303
257.28	4.396
257.65	2.837
258.02	3.145
258.39	4.013
258.76	3.716
259.14	3.086
259.51	7.869
259.88	3.354
260.25	4.658
260.62	4.823
260.99	4.154
261.36	6.707
261.73	5.491
262.10	6.111
262.47	3.989
262.85	8.857
263.22	3.725
263.59	2.462
263.96	2.899
264.33	4.336
264.70	3.039
265.07	5.220
265.44	3.359
265.81	5.168
266.18	2.278
266.55	4.412
266.92	4.030
267.29	5.569
267.66	2.469
268.03	6.280
268.40	4.695
268.77	4.819
269.14	1.624
269.51	3.678
269.88	1.835
270.25	4.662
270.62	5.950
270.99	4.054
271.36	2.331
271.73	3.587
272.10	3.890
272.47	3.111
272.84	6.222
273.21	5.046
273.58	2.637
273.95	5.482
274.32	6.109
274.69	3.939
275.06	7.157
275.43	0.446
275.80	5.703
276.17	4.393
276.54	6.517
276.91	3.086
277.28	3.854
277.65	4.545
278.02	3.758
278.39	6.090
278.76	4.183
279.13	4.743
279.50	4.970
279.87	3.383
280.23	6.275
280.60	3.380
280.97	3.495
281.34	4.642
281.71	5.769
282.08	4.637
282.45	2.037
282.82	3.682
283.19	4.000
283.56	7.692
283.92	5.830
284.29	3.160
284.66	5.216
285.03	6.595
285.40	5.535
285.77	6.667
286.14	4.874
286.51	3.375
286.87	4.537
287.24	7.509
287.61	6.612
287.98	5.026
288.35	6.116
288.72	5.093
289.08	4.407
289.45	5.892
289.82	3.633
290.19	8.374
290.56	5.289
290.93	4.769
291.29	4.538
291.66	5.153
292.03	6.593
292.40	6.627
292.77	5.280
293.13	6.504
293.50	4.458
293.87	4.908
294.24	5.882
294.60	5.000
294.97	7.284
295.34	4.296
295.71	7.143
296.08	3.533
296.44	4.149
296.81	7.977
297.18	5.634
297.55	7.062
297.91	7.113
298.28	5.068
298.65	4.603
299.02	6.818
299.38	5.348
299.75	4.620
300.12	6.538
300.48	6.522
300.85	4.849
301.22	6.080
301.59	5.722
301.95	7.935
302.32	5.215
302.69	6.977
303.05	6.716
303.42	5.000
303.79	7.057
304.15	5.569
304.52	7.585
304.89	7.202
305.25	4.762
305.62	5.993
305.99	8.127
306.35	5.771
306.72	6.264
307.09	8.059
307.45	6.243
307.82	5.475
308.19	6.488
308.55	6.972
308.92	5.800
309.29	6.378
309.65	6.469
310.02	6.695
310.38	6.919
310.75	7.684
311.12	8.058
311.48	6.994
311.85	7.209
312.22	8.033
312.58	7.528
312.95	7.543
313.31	6.793
313.68	7.638
314.05	7.913
314.41	6.539
314.78	6.793
315.14	8.885
315.51	7.092
315.87	8.422
316.24	7.775
316.61	8.637
316.97	7.861
317.34	7.418
317.70	7.978
318.07	8.396
318.43	7.303
318.80	9.108
319.16	7.223
319.53	8.083
319.89	6.867
320.26	8.627
320.62	6.827
320.99	9.154
321.35	7.980
321.72	7.677
322.08	8.902
322.45	7.129
322.81	7.877
323.18	9.318
323.54	9.057
323.91	8.619
324.27	8.650
324.64	8.592
325.00	9.511
325.37	9.502
325.73	10.324
326.10	7.972
326.46	9.107
326.83	9.021
327.19	9.008
327.56	10.562
327.92	9.261
328.29	9.437
328.65	9.455
329.01	10.424
329.38	9.367
329.74	8.883
330.11	10.154
330.47	9.628
330.84	10.174
331.20	9.025
331.56	8.204
331.93	10.124
332.29	10.594
332.66	10.360
333.02	10.407
333.38	9.946
333.75	10.329
334.11	9.689
334.48	9.797
334.84	9.536
335.20	9.663
335.57	8.755
335.93	9.937
336.29	10.806
336.66	9.868
337.02	10.180
337.38	9.804
337.75	10.448
338.11	10.286
338.47	9.253
338.84	10.073
339.20	10.193
339.56	11.141
339.93	8.201
340.29	8.857
340.65	10.839
341.02	10.793
341.38	9.857
341.74	10.076
342.11	9.556
342.47	9.528
342.83	9.404
343.20	10.077
343.56	8.980
343.92	10.434
344.28	10.008
344.65	8.498
345.01	9.916
345.37	10.548
345.73	10.229
346.10	9.076
346.46	9.342
346.82	9.703
347.19	9.778
347.55	9.791
347.91	9.685
348.27	9.228
348.63	10.582
349.00	9.785
349.36	8.821
349.72	10.669
350.08	9.944
350.45	9.377
350.81	8.997
351.17	8.923
351.53	8.990
351.89	8.973
352.26	10.620
352.62	10.522
352.98	9.652
353.34	9.193
353.70	8.803
354.07	10.386
354.43	10.356
354.79	9.509
355.15	9.345
355.51	10.078
355.87	9.328
356.24	9.134
356.60	10.153
356.96	10.547
357.32	9.422
357.68	9.272
358.04	8.776
358.40	8.662
358.77	8.733
359.13	9.640
359.49	9.751
359.85	9.299
360.21	9.285
360.57	10.316
360.93	10.074
361.29	10.015
361.66	9.832
362.02	9.393
362.38	10.271
362.74	9.304
363.10	8.895
363.46	9.829
363.82	9.840
364.18	9.696
364.54	10.793
364.90	9.294
365.26	8.488
365.62	9.907
365.98	10.455
366.35	9.437
366.71	8.527
367.07	9.386
367.43	10.844
367.79	10.241
368.15	8.819
368.51	10.280
368.87	11.195
369.23	9.544
369.59	10.139
369.95	9.514
370.31	11.111
370.67	8.894
371.03	9.985
371.39	8.982
371.75	10.658
372.11	9.756
372.47	10.340
372.83	9.944
373.19	10.357
373.55	10.274
373.91	9.886
374.27	9.377
374.63	10.007
374.99	10.640
375.35	9.287
375.71	10.263
376.07	9.856
376.42	8.808
376.78	10.131
377.14	10.644
377.50	9.994
377.86	10.208
378.22	10.364
378.58	10.315
378.94	10.049
379.30	11.213
379.66	11.293
380.02	10.220
380.38	10.695
380.74	10.199
381.09	10.662
381.45	11.158
381.81	10.284
382.17	10.464
382.53	10.578
382.89	11.244
383.25	11.620
383.61	11.026
383.97	10.961
384.32	10.826
384.68	11.850
385.04	10.749
385.40	10.347
385.76	11.280
386.12	11.368
386.48	11.696
386.83	11.534
387.19	11.715
387.55	11.448
387.91	11.974
388.27	10.555
388.62	11.298
388.98	10.902
389.34	10.832
389.70	10.353
390.06	11.249
390.42	11.410
390.77	10.726
391.13	11.677
391.49	11.167
391.85	11.409
392.20	10.437
392.56	10.629
392.92	11.409
393.28	11.137
393.64	10.042
393.99	11.631
394.35	12.105
394.71	11.242
395.07	11.174
395.42	11.502
395.78	12.005
396.14	11.526
396.50	11.865
396.85	11.474
397.21	11.300
397.57	11.976
397.92	11.300
398.28	11.444
398.64	11.838
399.00	12.303
399.35	11.612
399.71	12.195
400.07	11.940
400.42	11.314
400.78	10.674
401.14	11.078
401.49	11.675
401.85	11.531
402.21	11.502
402.57	12.318
402.92	10.887
403.28	11.397
403.63	10.845
403.99	11.374
404.35	11.594
404.70	11.527
405.06	12.457
405.42	11.132
405.77	11.143
406.13	11.073
406.49	11.204
406.84	11.398
407.20	12.367
407.55	11.463
407.91	11.658
408.27	11.765
408.62	11.245
408.98	11.522
409.34	11.883
409.69	10.901
410.05	11.765
410.40	11.159
410.76	12.330
411.11	12.282
411.47	11.061
411.83	11.736
412.18	11.077
412.54	11.043
412.89	11.118
413.25	10.744
413.60	11.057
413.96	9.858
414.31	11.743
414.67	10.857
415.03	11.578
415.38	11.776
415.74	11.598
416.09	11.445
416.45	10.317
416.80	11.053
417.16	11.229
417.51	12.081
417.87	11.650
418.22	11.631
418.58	12.067
418.93	11.649
419.29	11.418
419.64	11.683
420.00	12.090
420.35	11.827
420.71	11.224
421.06	12.308
421.42	11.534
421.77	12.116
422.12	11.696
422.48	11.064
422.83	11.788
423.19	11.192
423.54	11.758
423.90	11.452
424.25	11.708
424.61	11.520
424.96	12.054
425.31	11.347
425.67	11.461
426.02	11.245
426.38	11.736
426.73	11.748
427.09	11.397
427.44	11.875
427.79	11.977
428.15	12.029
428.50	11.965
428.85	11.691
429.21	11.898
429.56	11.302
429.92	12.124
430.27	12.164
430.62	11.651
430.98	11.918
431.33	12.220
431.68	12.172
432.04	12.703
432.39	12.308
432.74	12.230
433.10	12.324
433.45	11.975
433.80	11.758
434.16	12.520
434.51	12.219
434.86	12.654
435.22	11.860
435.57	12.056
435.92	12.016
436.28	12.047
436.63	11.306
436.98	12.486
437.34	13.172
437.69	12.019
438.04	12.138
438.39	13.057
438.75	11.758
439.10	12.715
439.45	11.527
439.81	12.590
440.16	12.947
440.51	13.176
440.86	12.319
441.22	11.940
441.57	12.158
441.92	12.481
442.27	11.797
442.63	12.768
442.98	11.851
443.33	12.356
443.68	12.194
444.03	12.475
444.39	12.041
444.74	12.996
445.09	12.061
445.44	12.831
445.79	11.933
446.15	12.432
446.50	12.194
446.85	12.571
447.20	12.360
447.55	11.989
447.91	12.746
448.26	11.955
448.61	11.602
448.96	12.213
449.31	11.781
449.66	12.593
450.02	12.465
450.37	11.884
450.72	11.186
451.07	11.942
451.42	12.515
451.77	11.610
452.12	12.038
452.47	12.720
452.83	12.114
453.18	12.966
453.53	12.376
453.88	13.038
454.23	12.152
454.58	12.741
454.93	13.791
455.28	12.556
455.63	12.899
455.98	13.012
456.34	11.626
456.69	12.570
457.04	12.661
457.39	11.663
457.74	12.581
458.09	13.341
458.44	13.106
458.79	12.052
459.14	12.949
459.49	12.256
459.84	12.985
460.19	12.888
460.54	12.704
460.89	12.948
461.24	12.629
461.59	12.896
461.94	13.176
462.29	12.507
462.64	11.989
462.99	12.316
463.34	12.559
463.69	12.468
464.04	12.009
464.39	12.903
464.74	12.943
465.09	12.868
465.44	12.126
465.79	13.198
466.14	13.291
466.49	12.896
466.84	13.145
467.19	12.469
467.54	11.962
467.89	12.700
468.24	13.480
468.59	13.367
468.94	11.576
469.29	12.995
469.64	12.534
469.99	13.504
470.34	13.694
470.68	13.372
471.03	13.971
471.38	12.292
471.73	12.727
472.08	12.985
472.43	12.162
472.78	13.600
473.13	12.790
473.48	12.891
473.83	13.089
474.17	13.822
474.52	13.939
474.87	13.869
475.22	12.625
475.57	13.056
475.92	13.121
476.27	12.686
476.61	13.296
476.96	12.633
477.31	12.971
477.66	12.950
478.01	14.263
478.36	13.410
478.70	12.920
479.05	13.088
479.40	13.472
479.75	13.201
480.10	13.194
480.45	12.524
480.79	13.228
481.14	13.146
481.49	13.408
481.84	13.037
482.19	13.614
482.53	13.447
482.88	13.194
483.23	12.676
483.58	13.552
483.92	14.238
484.27	12.583
484.62	13.693
484.97	13.055
485.31	13.120
485.66	12.884
486.01	13.107
486.36	13.383
486.70	13.394
487.05	13.063
487.40	13.061
487.75	12.942
488.09	12.508
488.44	13.363
488.79	13.371
489.13	13.351
489.48	13.662
489.83	13.493
490.17	13.539
490.52	13.949
490.87	13.580
491.22	12.891
491.56	13.796
491.91	14.313
492.26	13.632
492.60	13.225
492.95	13.470
493.30	14.150
493.64	13.211
493.99	13.480
494.34	13.810
494.68	13.998
495.03	13.432
495.37	12.242
495.72	13.752
496.07	13.515
496.41	13.617
496.76	13.516
497.11	13.236
497.45	14.272
497.80	13.757
498.14	13.703
498.49	14.164
498.84	13.641
499.18	13.548
499.53	13.833
499.87	13.176
500.22	13.186
500.56	13.607
500.91	13.695
501.26	14.847
501.60	12.614
501.95	13.961
502.29	13.368
502.64	13.909
502.98	12.985
503.33	14.615
503.67	14.033
504.02	13.713
504.36	14.216
504.71	13.374
505.06	13.180
505.40	14.571
505.75	13.516
506.09	14.105
506.44	13.734
506.78	13.798
507.13	14.109
507.47	14.867
507.82	14.197
508.16	14.093
508.51	13.447
508.85	13.923
509.19	13.972
509.54	13.953
509.88	14.415
510.23	14.727
510.57	15.026
510.92	14.608
511.26	13.769
511.61	14.093
511.95	14.440
512.30	14.733
512.64	13.912
512.98	14.136
513.33	14.443
513.67	14.405
514.02	13.423
514.36	14.404
514.70	14.941
515.05	15.094
515.39	14.764
515.74	15.300
516.08	14.813
516.42	14.901
516.77	15.540
517.11	14.817
517.46	14.892
517.80	14.681
518.14	15.097
518.49	14.764
518.83	14.481
519.17	16.104
519.52	15.095
519.86	15.293
520.20	14.976
520.55	14.708
520.89	14.715
521.23	16.300
521.58	14.545
521.92	15.516
522.26	16.063
522.61	15.399
522.95	14.486
523.29	15.235
523.64	15.865
523.98	15.086
524.32	14.582
524.66	15.093
525.01	15.607
525.35	16.044
525.69	15.290
526.04	15.470
526.38	15.532
526.72	15.070
527.06	15.560
527.41	14.719
527.75	14.587
528.09	16.281
528.43	16.000
528.78	16.143
529.12	16.325
529.46	15.722
529.80	15.107
530.15	15.583
530.49	15.783
530.83	16.699
531.17	16.094
531.51	14.802
531.86	15.273
532.20	15.722
532.54	15.775
532.88	14.756
533.22	15.508
533.57	16.188
533.91	14.919
534.25	16.091
534.59	15.615
534.93	14.437
535.27	15.859
535.62	16.368
535.96	15.902
536.30	15.772
536.64	16.202
536.98	16.172
537.32	16.310
537.66	15.954
538.01	15.670
538.35	16.284
538.69	15.508
539.03	15.708
539.37	15.635
539.71	16.478
540.05	16.244
540.39	17.105
540.73	16.655
541.07	16.393
541.42	15.665
541.76	15.017
542.10	16.408
542.44	15.723
542.78	16.621
543.12	15.547
543.46	14.658
543.80	15.786
544.14	15.447
544.48	16.142
544.82	16.035
545.16	15.694
545.50	15.276
545.84	15.647
546.18	16.089
546.52	15.007
546.86	16.667
547.20	16.737
547.54	14.945
547.88	15.793
548.22	13.630
548.56	15.765
548.90	15.836
549.24	15.767
549.58	16.514
549.92	15.830
550.26	16.763
550.60	16.287
550.94	15.766
551.28	16.253
551.62	15.731
551.96	15.991
552.30	16.376
552.64	15.341
552.98	16.048
553.32	15.440
553.66	16.294
554.00	16.418
554.34	15.307
554.68	14.620
555.02	16.570
555.36	16.319
555.69	14.756
556.03	15.368
556.37	16.643
556.71	16.822
557.05	16.556
557.39	14.848
557.73	17.651
558.07	16.127
558.41	15.931
558.75	15.970
559.08	14.786
559.42	16.080
559.76	16.104
560.10	16.555
560.44	16.835
560.78	15.449
561.12	15.873
561.45	16.507
561.79	16.446
562.13	16.410
562.47	15.756
562.81	16.124
563.15	16.095
563.48	16.448
563.82	16.430
564.16	15.686
564.50	15.995
564.84	15.807
565.17	16.180
565.51	16.167
565.85	16.633
566.19	16.140
566.52	15.721
566.86	16.056
567.20	16.889
567.54	16.302
567.88	16.025
568.21	16.163
568.55	15.376
568.89	14.712
569.23	15.224
569.56	15.259
569.90	15.539
570.24	15.333
570.57	14.798
570.91	14.553
571.25	14.818
571.59	14.549
571.92	14.762
572.26	15.099
572.60	14.676
572.93	14.710
573.27	14.665
573.61	14.081
573.95	14.875
574.28	14.319
574.62	15.201
574.96	14.382
575.29	14.685
575.63	14.600
575.97	14.563
576.30	14.525
576.64	14.856
576.98	14.357
577.31	14.517
577.65	14.762
577.98	14.677
578.32	14.250
578.66	14.813
578.99	15.238
579.33	14.444
579.67	14.583
580.00	14.410
580.34	14.335
580.67	14.660
581.01	14.420
581.35	14.664
581.68	14.370
582.02	14.558
582.35	14.523
582.69	14.671
583.02	14.788
583.36	14.704
583.70	14.567
584.03	14.871
584.37	14.750
584.70	14.539
585.04	14.658
585.37	14.248
585.71	14.562
586.04	14.666
586.38	14.622
586.72	14.402
587.05	14.444
587.39	14.832
587.72	14.415
588.06	14.828
588.39	14.953
588.73	15.088
589.06	14.642
589.40	15.493
589.73	15.085
590.07	14.931
590.40	15.055
590.73	14.674
591.07	15.164
591.40	15.771
591.74	15.161
592.07	14.820
592.41	15.329
592.74	15.104
593.08	14.933
593.41	14.868
593.75	14.837
594.08	14.809
594.41	15.712
594.75	15.138
595.08	14.850
595.42	15.137
595.75	14.994
596.09	15.522
596.42	15.835
596.75	15.050
597.09	14.960
597.42	14.622
597.75	15.412
598.09	15.725
598.42	14.980
598.76	14.867
599.09	14.522
599.42	14.764
599.76	15.515
600.09	14.885
600.42	15.648
600.76	15.480
601.09	14.888
601.42	14.642
601.76	15.304
602.09	14.765
602.42	15.144
602.76	14.749
603.09	14.960
603.42	14.706
603.76	15.397
604.09	15.699
604.42	14.696
604.76	14.784
605.09	15.099
605.42	15.691
605.75	14.834
606.09	15.401
606.42	15.207
606.75	15.200
607.09	15.792
607.42	14.921
607.75	15.188
608.08	15.409
608.42	15.232
608.75	14.813
609.08	15.879
609.41	15.446
609.75	14.920
610.08	15.931
610.41	15.036
610.74	15.667
611.07	16.176
611.41	15.381
611.74	16.041
612.07	15.951
612.40	14.872
612.73	15.078
613.07	14.915
613.40	17.406
613.73	15.749
614.06	15.706
614.39	15.276
614.72	15.531
615.06	15.109
615.39	15.138
615.72	15.861
616.05	15.130
616.38	16.019
616.71	15.375
617.05	16.345
617.38	15.728
617.71	15.233
618.04	15.590
618.37	15.597
618.70	16.558
619.03	16.046
619.36	16.913
619.69	16.583
620.03	15.909
620.36	15.120
620.69	17.085
621.02	15.753
621.35	16.855
621.68	15.246
622.01	15.777
622.34	16.848
622.67	16.406
623.00	16.679
623.33	17.537
623.66	15.510
623.99	15.414
624.32	16.890
624.65	16.851
624.99	16.580
625.32	16.542
625.65	16.861
625.98	16.197
626.31	16.721
626.64	17.657
626.97	15.839
627.30	17.191
627.63	15.889
627.96	16.623
628.29	15.993
628.62	16.141
628.95	17.126
629.28	16.541
629.61	15.996
629.94	17.769
630.26	18.091
630.59	17.688
630.92	17.017
631.25	17.540
631.58	18.942
631.91	15.851
632.24	17.333
632.57	17.333
632.90	18.506
633.23	17.290
633.56	17.193
633.89	18.514
634.22	16.647
634.55	17.308
634.88	15.840
635.20	16.604
635.53	17.684
635.86	16.751
636.19	17.705
636.52	16.965
636.85	16.727
637.18	16.625
637.51	16.481
637.83	18.109
