SpectraSuite Data File
++++++++++++++++++++++++++++++++++++
Date: Sat May 16 11:10:45 PDT 2015
User: schluterlab
Dark Spectrum Present: Yes
Reference Spectrum Present: Yes
Number of Sampled Component Spectra: 1
Spectrometers: USB2E3373
Integration Time (usec): 3000 (USB2E3373)
Spectra Averaged: 3 (USB2E3373)
Boxcar Smoothing: 0 (USB2E3373)
Correct for Electrical Dark: No (USB2E3373)
Strobe/Lamp Enabled: No (USB2E3373)
Correct for Detector Non-linearity: No (USB2E3373)
Correct for Stray Light: No (USB2E3373)
Number of Pixels in Processed Spectrum: 2048
>>>>>Begin Processed Spectral Data<<<<<
178.53	0.000
178.91	13.333
179.29	66.667
179.67	-100.000
180.04	-7.692
180.42	800.000
180.80	-25.000
181.18	-150.000
181.56	25.000
181.94	500.000
182.31	-100.000
182.69	-15.385
183.07	-233.333
183.45	1050.000
183.83	166.667
184.20	-57.143
184.58	62.500
184.96	-125.000
185.34	106.250
185.72	-425.000
186.09	183.333
186.47	-50.000
186.85	-100.000
187.23	12.500
187.61	-175.000
187.98	-237.500
188.36	-25.000
188.74	-62.500
189.12	500.000
189.49	314.286
189.87	-33.333
190.25	200.000
190.63	35.714
191.00	-55.556
191.38	100.000
191.76	0.000
192.14	420.000
192.51	-40.000
192.89	-33.333
193.27	0.000
193.65	44.444
194.02	-185.714
194.40	100.000
194.78	-10.000
195.15	-800.000
195.53	-72.727
195.91	-350.000
196.29	60.000
196.66	-266.667
197.04	1800.000
197.42	-250.000
197.79	6.667
198.17	166.667
198.55	-600.000
198.92	-100.000
199.30	125.000
199.68	-200.000
200.05	44.444
200.43	-44.444
200.81	-800.000
201.18	-33.333
201.56	157.143
201.94	40.000
202.31	68.182
202.69	170.000
203.07	-40.000
203.44	533.333
203.82	-183.333
204.19	-50.000
204.57	0.000
204.95	-800.000
205.32	-31.250
205.70	200.000
206.08	-1200.000
206.45	38.889
206.83	-500.000
207.20	500.000
207.58	-166.667
207.96	-300.000
208.33	-112.500
208.71	-211.111
209.08	150.000
209.46	-28.571
209.84	400.000
210.21	0.000
210.59	25.000
210.96	1200.000
211.34	-100.000
211.71	-200.000
212.09	175.000
212.46	450.000
212.84	-1300.000
213.22	366.667
213.59	100.000
213.97	33.333
214.34	-30.000
214.72	0.000
215.09	0.000
215.47	83.333
215.84	10.000
216.22	30.000
216.59	-6.667
216.97	-125.000
217.34	350.000
217.72	-114.286
218.09	-283.333
218.47	-171.429
218.84	57.143
219.22	-142.857
219.59	0.000
219.97	-0.000
220.34	325.000
220.72	-125.000
221.09	15.385
221.47	0.000
221.84	66.667
222.22	-450.000
222.59	300.000
222.97	-37.500
223.34	-450.000
223.72	-166.667
224.09	-14.286
224.46	-250.000
224.84	-50.000
225.21	-85.714
225.59	-18.182
225.96	37.500
226.34	-14.286
226.71	-122.222
227.08	30.000
227.46	1600.000
227.83	142.857
228.21	-87.500
228.58	400.000
228.95	-18.750
229.33	-600.000
229.70	-120.000
230.08	-700.000
230.45	75.000
230.82	116.667
231.20	-300.000
231.57	50.000
231.95	800.000
232.32	23.810
232.69	-55.556
233.07	-157.143
233.44	-600.000
233.81	-6.667
234.19	-22.222
234.56	-25.000
234.93	12.500
235.31	-171.429
235.68	-64.286
236.05	11.765
236.43	-54.545
236.80	-22.581
237.17	-8.333
237.55	-14.286
237.92	-31.818
238.29	20.000
238.67	-29.412
239.04	5.556
239.41	0.000
239.79	-30.769
240.16	-9.524
240.53	1.818
240.91	-2.564
241.28	7.273
241.65	10.769
242.02	3.279
242.40	-16.393
242.77	6.061
243.14	-3.390
243.51	-27.143
243.89	0.000
244.26	4.494
244.63	-2.105
245.00	6.316
245.38	3.390
245.75	1.770
246.12	7.200
246.49	6.299
246.87	-0.813
247.24	-5.932
247.61	-9.322
247.98	1.408
248.36	-7.692
248.73	0.633
249.10	-1.911
249.47	4.094
249.84	0.568
250.22	-8.929
250.59	4.520
250.96	2.094
251.33	9.479
251.70	0.000
252.08	0.948
252.45	-0.948
252.82	-0.476
253.19	1.702
253.56	4.435
253.94	-2.532
254.31	-0.429
254.68	-0.407
255.05	1.210
255.42	3.175
255.79	3.226
256.16	4.706
256.54	3.309
256.91	3.030
257.28	0.733
257.65	1.064
258.02	4.088
258.39	2.341
258.76	-1.014
259.14	0.309
259.51	0.656
259.88	1.524
260.25	4.658
260.62	4.502
260.99	-1.187
261.36	3.354
261.73	3.179
262.10	4.444
262.47	1.425
262.85	3.429
263.22	0.287
263.59	-2.154
263.96	2.029
264.33	3.252
264.70	2.486
265.07	2.473
265.44	3.876
265.81	-0.517
266.18	-1.519
266.55	2.696
266.92	3.275
267.29	-0.242
267.66	2.963
268.03	5.314
268.40	1.174
268.77	2.169
269.14	1.624
269.51	2.529
269.88	1.147
270.25	0.466
270.62	0.229
270.99	2.027
271.36	5.594
271.73	3.363
272.10	1.602
272.47	1.333
272.84	4.889
273.21	4.128
273.58	0.440
273.95	2.632
274.32	0.679
274.69	0.656
275.06	1.636
275.43	0.670
275.80	5.295
276.17	2.510
276.54	4.073
276.91	3.086
277.28	1.420
277.65	3.926
278.02	3.967
278.39	3.536
278.76	2.590
279.13	1.581
279.50	0.795
279.87	3.594
280.23	3.846
280.60	1.392
280.97	1.942
281.34	3.095
281.71	2.308
282.08	2.218
282.45	0.611
282.82	1.744
283.19	2.364
283.56	2.930
283.92	3.534
284.29	1.115
284.66	1.799
285.03	3.565
285.40	4.059
285.77	4.211
286.14	3.069
286.51	2.131
286.87	5.626
287.24	2.730
287.61	4.628
287.98	1.040
288.35	2.810
288.72	1.868
289.08	0.678
289.45	2.862
289.82	2.768
290.19	3.284
290.56	0.165
290.93	1.431
291.29	1.621
291.66	2.738
292.03	2.669
292.40	3.012
292.77	2.640
293.13	2.602
293.50	2.377
293.87	2.761
294.24	5.581
294.60	1.061
294.97	4.552
295.34	1.926
295.71	1.786
296.08	0.154
296.44	0.572
296.81	2.707
297.18	2.958
297.55	3.672
297.91	4.324
298.28	2.329
298.65	2.510
299.02	4.412
299.38	1.337
299.75	1.495
300.12	3.846
300.48	3.581
300.85	4.587
301.22	2.329
301.59	2.081
301.95	4.030
302.32	2.477
302.69	3.794
303.05	2.198
303.42	2.500
303.79	2.632
304.15	3.673
304.52	3.967
304.89	3.896
305.25	2.808
305.62	3.525
305.99	4.476
306.35	4.218
306.72	3.075
307.09	4.994
307.45	4.540
307.82	3.464
308.19	2.796
308.55	4.466
308.92	2.685
309.29	2.595
309.65	4.666
310.02	2.700
310.38	3.027
310.75	3.996
311.12	4.959
311.48	4.175
311.85	4.840
312.22	5.046
312.58	4.171
312.95	4.587
313.31	4.795
313.68	4.121
314.05	4.847
314.41	3.823
314.78	4.496
315.14	4.344
315.51	5.471
315.87	5.808
316.24	4.956
316.61	5.278
316.97	5.174
317.34	4.239
317.70	4.360
318.07	5.410
318.43	5.150
318.80	6.385
319.16	4.597
319.53	7.049
319.89	4.892
320.26	5.000
320.62	4.231
320.99	4.975
321.35	5.025
321.72	5.015
322.08	5.242
322.45	5.446
322.81	5.668
323.18	7.685
323.54	7.209
323.91	7.229
324.27	7.319
324.64	6.216
325.00	7.592
325.37	6.606
325.73	9.186
326.10	7.174
326.46	7.356
326.83	7.745
327.19	7.256
327.56	7.751
327.92	7.732
328.29	9.091
328.65	7.818
329.01	8.481
329.38	8.118
329.74	9.432
330.11	8.885
330.47	9.355
330.84	9.441
331.20	9.386
331.56	9.298
331.93	9.236
332.29	8.767
332.66	9.745
333.02	10.498
333.38	10.932
333.75	9.350
334.11	9.600
334.48	10.238
334.84	11.986
335.20	10.106
335.57	11.191
335.93	10.922
336.29	10.275
336.66	9.780
337.02	10.721
337.38	10.071
337.75	11.150
338.11	10.286
338.47	10.498
338.84	10.799
339.20	10.808
339.56	11.854
339.93	10.758
340.29	10.186
340.65	11.451
341.02	11.046
341.38	10.615
341.74	10.838
342.11	11.263
342.47	9.700
342.83	10.076
343.20	11.785
343.56	9.959
343.92	11.686
344.28	11.102
344.65	11.881
345.01	10.756
345.37	11.462
345.73	8.838
346.10	10.057
346.46	10.398
346.82	10.585
347.19	10.271
347.55	11.075
347.91	10.787
348.27	10.501
348.63	10.743
349.00	11.217
349.36	10.383
349.72	11.146
350.08	11.307
350.45	10.875
350.81	11.624
351.17	10.611
351.53	10.024
351.89	11.237
352.26	10.233
352.62	11.982
352.98	10.364
353.34	10.791
353.70	10.734
354.07	11.015
354.43	11.383
354.79	10.856
355.15	10.144
355.51	11.250
355.87	10.830
356.24	10.405
356.60	12.168
356.96	10.855
357.32	10.293
357.68	11.111
358.04	11.547
358.40	10.131
358.77	11.051
359.13	10.559
359.49	11.111
359.85	11.052
360.21	10.883
360.57	11.295
360.93	11.630
361.29	10.987
361.66	10.137
362.02	10.429
362.38	11.812
362.74	11.868
363.10	11.406
363.46	11.467
363.82	11.224
364.18	11.288
364.54	11.508
364.90	10.692
365.26	10.057
365.62	11.974
365.98	12.518
366.35	12.394
366.71	10.923
367.07	11.009
367.43	12.491
367.79	11.959
368.15	11.095
368.51	11.608
368.87	12.363
369.23	12.140
369.59	12.292
369.95	12.403
370.31	12.869
370.67	11.280
371.03	11.880
371.39	10.891
371.75	12.589
372.11	12.195
372.47	11.714
372.83	13.143
373.19	11.857
373.55	13.089
373.91	12.376
374.27	12.868
374.63	12.905
374.99	13.004
375.35	13.257
375.71	13.572
376.07	13.142
376.42	11.589
376.78	13.203
377.14	12.949
377.50	13.669
377.86	13.394
378.22	12.940
378.58	13.095
378.94	13.009
379.30	13.346
379.66	13.600
380.02	12.775
380.38	13.293
380.74	14.068
381.09	13.884
381.45	14.081
381.81	14.156
382.17	14.286
382.53	12.766
382.89	13.636
383.25	14.028
383.61	14.800
383.97	14.881
384.32	13.892
384.68	15.659
385.04	14.191
385.40	14.973
385.76	15.122
386.12	14.928
386.48	14.728
386.83	14.417
387.19	15.660
387.55	15.324
387.91	15.116
388.27	14.536
388.62	15.565
388.98	15.263
389.34	15.483
389.70	15.286
390.06	14.916
390.42	15.449
390.77	15.457
391.13	16.087
391.49	16.220
391.85	16.584
392.20	15.534
392.56	15.272
392.92	15.973
393.28	15.729
393.64	15.935
393.99	16.923
394.35	16.119
394.71	16.121
395.07	16.573
395.42	15.912
395.78	16.091
396.14	16.698
396.50	15.719
396.85	15.731
397.21	15.857
397.57	16.231
397.92	16.393
398.28	16.611
398.64	16.478
399.00	16.236
399.35	16.798
399.71	15.854
400.07	16.537
400.42	16.180
400.78	16.637
401.14	16.287
401.49	16.450
401.85	16.901
402.21	17.342
402.57	16.930
402.92	16.740
403.28	16.176
403.63	15.878
403.99	16.781
404.35	16.667
404.70	17.086
405.06	17.705
405.42	16.544
405.77	16.290
406.13	16.638
406.49	16.058
406.84	16.257
407.20	16.078
407.55	16.466
407.91	15.933
408.27	17.647
408.62	16.777
408.98	16.798
409.34	16.149
409.69	16.950
410.05	17.344
410.40	16.800
410.76	16.894
411.11	16.958
411.47	17.647
411.83	16.748
412.18	17.636
412.54	17.450
412.89	16.768
413.25	16.293
413.60	16.768
413.96	16.697
414.31	17.492
414.67	15.746
415.03	16.753
415.38	16.721
415.74	16.559
416.09	17.583
416.45	16.865
416.80	16.840
417.16	16.478
417.51	18.056
417.87	16.634
418.22	17.320
418.58	17.394
418.93	17.842
419.29	17.315
419.64	16.960
420.00	18.226
420.35	17.031
420.71	17.167
421.06	17.396
421.42	16.920
421.77	16.974
422.12	17.068
422.48	17.531
422.83	17.312
423.19	16.537
423.54	17.176
423.90	17.640
424.25	18.100
424.61	18.577
424.96	18.432
425.31	18.670
425.67	17.421
426.02	17.843
426.38	18.209
426.73	17.534
427.09	18.137
427.44	18.295
427.79	17.326
428.15	18.253
428.50	17.537
428.85	17.806
429.21	17.709
429.56	18.125
429.92	18.186
430.27	17.846
430.62	17.659
430.98	17.982
431.33	18.570
431.68	17.587
432.04	18.355
432.39	19.202
432.74	17.386
433.10	18.289
433.45	18.998
433.80	18.701
434.16	18.270
434.51	18.521
434.86	19.625
435.22	19.376
435.57	18.054
435.92	18.699
436.28	18.694
436.63	18.146
436.98	18.729
437.34	18.960
437.69	18.145
438.04	19.058
438.39	19.073
438.75	18.976
439.10	19.212
439.45	19.071
439.81	19.036
440.16	18.796
440.51	18.941
440.86	19.318
441.22	18.574
441.57	18.737
441.92	18.772
442.27	19.589
442.63	19.474
442.98	18.115
443.33	19.605
443.68	19.646
444.03	19.204
444.39	19.285
444.74	19.934
445.09	19.682
445.44	19.415
445.79	18.766
446.15	20.263
446.50	18.944
446.85	19.343
447.20	19.459
447.55	19.006
447.91	19.540
448.26	19.441
448.61	19.977
448.96	20.056
449.31	19.053
449.66	20.321
450.02	19.169
450.37	18.899
450.72	18.870
451.07	19.296
451.42	18.587
451.77	19.569
452.12	19.487
452.47	20.718
452.83	19.569
453.18	20.177
453.53	19.154
453.88	20.156
454.23	19.468
454.58	20.758
454.93	20.025
455.28	19.630
455.63	20.086
455.98	19.880
456.34	19.060
456.69	20.763
457.04	19.852
457.39	20.275
457.74	20.673
458.09	20.360
458.44	20.208
458.79	20.291
459.14	21.677
459.49	21.018
459.84	20.911
460.19	20.764
460.54	20.387
460.89	19.507
461.24	21.372
461.59	20.516
461.94	20.496
462.29	20.667
462.64	20.949
462.99	21.553
463.34	20.324
463.69	20.229
464.04	20.738
464.39	20.251
464.74	20.390
465.09	20.565
465.44	20.925
465.79	20.756
466.14	20.656
466.49	20.438
466.84	21.248
467.19	21.135
467.54	20.316
467.89	20.222
468.24	20.724
468.59	20.675
468.94	20.707
469.29	20.663
469.64	21.496
469.99	21.675
470.34	21.042
470.68	20.858
471.03	21.404
471.38	20.139
471.73	21.329
472.08	20.080
472.43	20.914
472.78	20.733
473.13	19.616
473.48	21.315
473.83	21.092
474.17	21.083
474.52	21.867
474.87	20.338
475.22	20.885
475.57	20.333
475.92	21.328
476.27	20.057
476.61	20.620
476.96	21.353
477.31	20.721
477.66	20.919
478.01	21.016
478.36	20.534
478.70	21.143
479.05	20.822
479.40	21.192
479.75	21.305
480.10	20.933
480.45	21.083
480.79	21.520
481.14	21.576
481.49	21.249
481.84	21.452
482.19	21.608
482.53	21.638
482.88	21.832
483.23	20.751
483.58	22.340
483.92	21.739
484.27	21.843
484.62	20.562
484.97	20.928
485.31	20.224
485.66	20.403
486.01	19.761
486.36	20.222
486.70	20.460
487.05	20.141
487.40	20.272
487.75	20.494
488.09	20.074
488.44	21.008
488.79	21.648
489.13	21.529
489.48	21.248
489.83	21.616
490.17	21.680
490.52	21.694
490.87	21.755
491.22	21.252
491.56	21.898
491.91	21.613
492.26	21.557
492.60	21.408
492.95	21.561
493.30	21.439
493.64	21.721
493.99	21.415
494.34	21.429
494.68	22.472
495.03	22.562
495.37	21.288
495.72	21.906
496.07	21.868
496.41	22.140
496.76	21.370
497.11	21.667
497.45	21.983
497.80	21.161
498.14	22.053
498.49	21.748
498.84	21.699
499.18	22.710
499.53	21.627
499.87	21.525
500.22	21.961
500.56	22.061
500.91	21.379
501.26	21.689
501.60	21.425
501.95	22.174
502.29	21.918
502.64	22.065
502.98	21.562
503.33	21.898
503.67	22.079
504.02	22.405
504.36	22.059
504.71	22.138
505.06	20.819
505.40	22.206
505.75	22.154
506.09	21.891
506.44	21.754
506.78	21.877
507.13	21.473
507.47	23.005
507.82	22.044
508.16	22.228
508.51	22.257
508.85	21.998
509.19	22.030
509.54	21.882
509.88	22.606
510.23	22.432
510.57	22.804
510.92	22.449
511.26	23.126
511.61	21.652
511.95	22.468
512.30	22.375
512.64	21.480
512.98	23.267
513.33	21.966
513.67	22.892
514.02	21.756
514.36	22.438
514.70	22.750
515.05	22.241
515.39	22.837
515.74	23.328
516.08	22.997
516.42	21.983
516.77	22.935
517.11	22.254
517.46	22.967
517.80	22.202
518.14	22.101
518.49	23.072
518.83	22.671
519.17	22.854
519.52	22.325
519.86	22.640
520.20	22.616
520.55	23.323
520.89	22.417
521.23	22.161
521.58	23.260
521.92	24.066
522.26	22.921
522.61	22.814
522.95	23.293
523.29	23.197
523.64	23.298
523.98	23.806
524.32	23.004
524.66	20.994
525.01	22.736
525.35	22.165
525.69	22.186
526.04	23.303
526.38	23.234
526.72	22.989
527.06	21.419
527.41	22.442
527.75	22.046
528.09	22.568
528.43	22.951
528.78	22.739
529.12	24.264
529.46	22.616
529.80	22.208
530.15	22.344
530.49	22.510
530.83	23.903
531.17	22.828
531.51	22.237
531.86	21.791
532.20	22.740
532.54	23.930
532.88	22.925
533.22	22.527
533.57	22.454
533.91	22.285
534.25	22.187
534.59	21.986
534.93	22.340
535.27	22.530
535.62	22.890
535.96	22.366
536.30	21.597
536.64	22.776
536.98	23.023
537.32	22.391
537.66	22.811
538.01	21.856
538.35	23.243
538.69	22.660
539.03	22.478
539.37	22.488
539.71	22.482
540.05	22.824
540.39	22.715
540.73	22.460
541.07	22.063
541.42	21.945
541.76	21.395
542.10	22.822
542.44	22.252
542.78	22.117
543.12	23.082
543.46	21.370
543.80	22.074
544.14	21.357
544.48	22.572
544.82	21.854
545.16	22.871
545.50	21.467
545.84	22.670
546.18	22.469
546.52	22.546
546.86	23.789
547.20	21.800
547.54	22.452
547.88	22.163
548.22	21.887
548.56	21.977
548.90	22.372
549.24	22.355
549.58	23.147
549.92	22.686
550.26	23.627
550.60	22.262
550.94	22.847
551.28	23.175
551.62	22.083
551.96	22.721
552.30	22.300
552.64	21.886
552.98	23.336
553.32	22.872
553.66	22.999
554.00	22.886
554.34	21.661
554.68	23.392
555.02	23.082
555.36	22.358
555.69	21.490
556.03	22.807
556.37	22.902
556.71	22.477
557.05	23.725
557.39	22.420
557.73	23.122
558.07	22.909
558.41	22.214
558.75	22.510
559.08	21.634
559.42	22.435
559.76	23.466
560.10	22.595
560.44	23.121
560.78	23.034
561.12	22.015
561.45	22.192
561.79	21.742
562.13	22.160
562.47	21.989
562.81	21.287
563.15	23.093
563.48	21.355
563.82	22.177
564.16	21.433
564.50	22.648
564.84	21.495
565.17	22.944
565.51	22.621
565.85	22.921
566.19	22.003
566.52	21.461
566.86	21.113
567.20	21.973
567.54	22.445
567.88	22.446
568.21	21.141
568.55	20.944
568.89	20.477
569.23	21.564
569.56	20.723
569.90	20.732
570.24	20.669
570.57	20.562
570.91	19.993
571.25	20.331
571.59	20.512
571.92	20.060
572.26	20.671
572.60	20.105
572.93	20.006
573.27	19.726
573.61	19.386
573.95	19.771
574.28	19.679
574.62	20.005
574.96	19.292
575.29	19.842
575.63	19.485
575.97	19.444
576.30	19.704
576.64	19.687
576.98	19.433
577.31	19.380
577.65	19.884
577.98	19.016
578.32	19.385
578.66	19.677
578.99	19.943
579.33	19.091
579.67	19.630
580.00	19.767
580.34	19.472
580.67	20.226
581.01	19.561
581.35	19.272
581.68	19.218
582.02	19.093
582.35	18.980
582.69	18.897
583.02	19.651
583.36	19.209
583.70	19.662
584.03	19.989
584.37	19.946
584.70	19.667
585.04	19.646
585.37	19.594
585.71	19.666
586.04	19.656
586.38	19.246
586.72	20.293
587.05	20.674
587.39	19.557
587.72	19.936
588.06	19.395
588.39	19.282
588.73	20.036
589.06	20.460
589.40	20.921
589.73	20.432
590.07	20.211
590.40	20.517
590.73	19.832
591.07	20.205
591.40	20.754
591.74	20.982
592.07	20.586
592.41	20.510
592.74	20.830
593.08	20.563
593.41	20.066
593.75	18.925
594.08	20.058
594.41	20.555
594.75	20.310
595.08	19.887
595.42	20.195
595.75	19.919
596.09	20.101
596.42	20.499
596.75	19.793
597.09	20.971
597.42	20.297
597.75	20.505
598.09	20.606
598.42	20.725
598.76	19.850
599.09	20.600
599.42	20.069
599.76	19.555
600.09	20.267
600.42	19.863
600.76	20.414
601.09	19.445
601.42	18.916
601.76	20.483
602.09	20.736
602.42	19.712
602.76	19.402
603.09	20.323
603.42	20.629
603.76	20.503
604.09	20.264
604.42	19.484
604.76	20.279
605.09	20.524
605.42	20.168
605.75	20.052
606.09	20.340
606.42	20.486
606.75	20.953
607.09	21.350
607.42	20.114
607.75	20.397
608.08	20.696
608.42	20.908
608.75	19.439
609.08	21.189
609.41	20.030
609.75	20.575
610.08	20.980
610.41	20.723
610.74	21.325
611.07	21.298
611.41	20.524
611.74	21.183
612.07	20.569
612.40	20.789
612.73	21.379
613.07	20.308
613.40	21.128
613.73	20.654
614.06	20.483
614.39	21.251
614.72	20.894
615.06	19.728
615.39	20.890
615.72	20.858
616.05	20.541
616.38	21.416
616.71	20.661
617.05	20.989
617.38	21.362
617.71	20.516
618.04	20.994
618.37	20.755
618.70	21.643
619.03	21.192
619.36	22.481
619.69	22.613
620.03	20.937
620.36	21.871
620.69	21.464
621.02	21.081
621.35	21.774
621.68	21.066
622.01	21.926
622.34	21.894
622.67	22.188
623.00	22.035
623.33	22.463
623.66	20.089
623.99	20.977
624.32	21.503
624.65	21.339
624.99	20.986
625.32	21.332
625.65	22.300
625.98	22.457
626.31	21.941
626.64	22.259
626.97	22.346
627.30	22.468
627.63	21.503
627.96	23.151
628.29	22.886
628.62	21.681
628.95	23.425
629.28	22.086
629.61	21.786
629.94	23.062
630.26	24.453
630.59	23.819
630.92	21.922
631.25	23.992
631.58	23.386
631.91	22.660
632.24	23.111
632.57	23.444
632.90	23.563
633.23	23.715
633.56	22.690
633.89	23.821
634.22	22.550
634.55	23.558
634.88	24.305
635.20	21.348
635.53	25.191
635.86	24.433
636.19	22.955
636.52	23.297
636.85	24.669
637.18	22.875
637.51	24.659
637.83	22.636
638.16	23.421
