SpectraSuite Data File
++++++++++++++++++++++++++++++++++++
Date: Sat May 16 11:20:22 PDT 2015
User: schluterlab
Dark Spectrum Present: Yes
Reference Spectrum Present: Yes
Number of Sampled Component Spectra: 1
Spectrometers: USB2E3373
Integration Time (usec): 3000 (USB2E3373)
Spectra Averaged: 3 (USB2E3373)
Boxcar Smoothing: 0 (USB2E3373)
Correct for Electrical Dark: No (USB2E3373)
Strobe/Lamp Enabled: No (USB2E3373)
Correct for Detector Non-linearity: No (USB2E3373)
Correct for Stray Light: No (USB2E3373)
Number of Pixels in Processed Spectrum: 2048
>>>>>Begin Processed Spectral Data<<<<<
178.53	0.000
178.91	133.333
179.29	433.333
179.67	-1200.000
180.04	23.077
180.42	500.000
180.80	375.000
181.18	75.000
181.56	12.500
181.94	100.000
182.31	350.000
182.69	-30.769
183.07	-533.333
183.45	950.000
183.83	333.333
184.20	-42.857
184.58	-250.000
184.96	-50.000
185.34	125.000
185.72	-625.000
186.09	183.333
186.47	-112.500
186.85	-50.000
187.23	-150.000
187.61	0.000
187.98	-262.500
188.36	75.000
188.74	-137.500
189.12	700.000
189.49	271.429
189.87	-16.667
190.25	275.000
190.63	-14.286
191.00	-66.667
191.38	340.000
191.76	33.333
192.14	400.000
192.51	40.000
192.89	-133.333
193.27	0.000
193.65	-22.222
194.02	-142.857
194.40	366.667
194.78	-140.000
195.15	-1300.000
195.53	-72.727
195.91	-233.333
196.29	200.000
196.66	-500.000
197.04	2200.000
197.42	-50.000
197.79	13.333
198.17	-66.667
198.55	-900.000
198.92	-700.000
199.30	262.500
199.68	100.000
200.05	-144.444
200.43	-233.333
200.81	-1400.000
201.18	-83.333
201.56	114.286
201.94	26.667
202.31	81.818
202.69	40.000
203.07	0.000
203.44	133.333
203.82	-216.667
204.19	-25.000
204.57	-100.000
204.95	-1200.000
205.32	-62.500
205.70	1100.000
206.08	-1400.000
206.45	-5.556
206.83	-800.000
207.20	150.000
207.58	-333.333
207.96	-366.667
208.33	-75.000
208.71	-22.222
209.08	130.000
209.46	-142.857
209.84	900.000
210.21	0.000
210.59	15.000
210.96	1100.000
211.34	-100.000
211.71	-533.333
212.09	50.000
212.46	800.000
212.84	-1800.000
213.22	66.667
213.59	125.000
213.97	-55.556
214.34	100.000
214.72	-170.000
215.09	-133.333
215.47	-266.667
215.84	-30.000
216.22	-90.000
216.59	-26.667
216.97	-150.000
217.34	100.000
217.72	-71.429
218.09	33.333
218.47	-157.143
218.84	114.286
219.22	85.714
219.59	0.000
219.97	271.429
220.34	600.000
220.72	150.000
221.09	-15.385
221.47	0.000
221.84	133.333
222.22	-250.000
222.59	400.000
222.97	-75.000
223.34	-200.000
223.72	-300.000
224.09	-35.714
224.46	-175.000
224.84	35.714
225.21	-85.714
225.59	-27.273
225.96	-175.000
226.34	-171.429
226.71	-22.222
227.08	0.000
227.46	1200.000
227.83	-157.143
228.21	-225.000
228.58	500.000
228.95	-6.250
229.33	-1400.000
229.70	-180.000
230.08	-550.000
230.45	-75.000
230.82	-100.000
231.20	-1300.000
231.57	-700.000
231.95	2200.000
232.32	9.524
232.69	33.333
233.07	-214.286
233.44	-850.000
233.81	-26.667
234.19	-22.222
234.56	-18.750
234.93	31.250
235.31	-228.571
235.68	-121.429
236.05	-29.412
236.43	-31.818
236.80	29.032
237.17	-4.167
237.55	23.810
237.92	-36.364
238.29	8.571
238.67	17.647
239.04	41.667
239.41	-9.677
239.79	-20.513
240.16	28.571
240.53	9.091
240.91	33.333
241.28	38.182
241.65	35.385
242.02	14.754
242.40	14.754
242.77	33.333
243.14	25.424
243.51	12.857
243.89	22.785
244.26	30.337
244.63	32.632
245.00	32.632
245.38	30.508
245.75	23.009
246.12	29.600
246.49	20.472
246.87	29.268
247.24	23.729
247.61	29.661
247.98	25.352
248.36	27.273
248.73	32.911
249.10	26.752
249.47	30.409
249.84	34.659
250.22	24.405
250.59	34.463
250.96	32.984
251.33	36.493
251.70	31.250
252.08	31.280
252.45	35.071
252.82	34.762
253.19	37.021
253.56	31.452
253.94	32.489
254.31	31.760
254.68	36.992
255.05	31.855
255.42	33.730
255.79	32.616
256.16	33.333
256.54	30.515
256.91	33.333
257.28	32.601
257.65	30.142
258.02	33.019
258.39	29.097
258.76	31.757
259.14	34.568
259.51	33.770
259.88	32.927
260.25	33.540
260.62	31.833
260.99	30.564
261.36	34.451
261.73	35.260
262.10	35.000
262.47	33.618
262.85	35.143
263.22	31.805
263.59	34.462
263.96	31.884
264.33	33.604
264.70	32.320
265.07	36.538
265.44	34.109
265.81	31.008
266.18	31.139
266.55	31.618
266.92	36.020
267.29	32.203
267.66	33.086
268.03	34.541
268.40	32.864
268.77	31.566
269.14	32.483
269.51	32.414
269.88	33.945
270.25	31.702
270.62	33.638
270.99	32.658
271.36	33.333
271.73	31.839
272.10	32.723
272.47	32.889
272.84	36.222
273.21	33.945
273.58	34.725
273.95	34.211
274.32	32.805
274.69	35.886
275.06	36.196
275.43	32.143
275.80	35.234
276.17	36.192
276.54	33.605
276.91	34.979
277.28	32.657
277.65	36.157
278.02	32.359
278.39	33.006
278.76	35.657
279.13	33.202
279.50	35.388
279.87	32.981
280.23	33.806
280.60	35.189
280.97	36.311
281.34	35.397
281.71	35.192
282.08	36.492
282.45	32.994
282.82	34.302
283.19	32.182
283.56	32.784
283.92	31.272
284.29	31.413
284.66	32.194
285.03	32.799
285.40	33.764
285.77	35.088
286.14	33.032
286.51	33.393
286.87	33.575
287.24	33.447
287.61	31.901
287.98	32.409
288.35	31.901
288.72	31.409
289.08	29.831
289.45	32.155
289.82	31.142
290.19	31.527
290.56	29.587
290.93	28.776
291.29	30.308
291.66	31.079
292.03	30.769
292.40	28.916
292.77	28.882
293.13	31.220
293.50	29.272
293.87	26.994
294.24	30.015
294.60	26.212
294.97	30.956
295.34	28.296
295.71	27.232
296.08	27.650
296.44	26.896
296.81	30.057
297.18	28.310
297.55	28.814
297.91	28.731
298.28	27.397
298.65	28.591
299.02	28.476
299.38	26.872
299.75	27.853
300.12	25.128
300.48	27.621
300.85	26.474
301.22	27.684
301.59	27.828
301.95	28.463
302.32	24.902
302.69	25.581
303.05	25.275
303.42	24.000
303.79	25.837
304.15	24.763
304.52	26.954
304.89	27.155
305.25	26.129
305.62	26.322
305.99	27.680
306.35	25.638
306.72	25.171
307.09	27.469
307.45	26.788
307.82	25.810
308.19	26.510
308.55	25.163
308.92	24.597
309.29	26.595
309.65	25.239
310.02	27.214
310.38	26.054
310.75	24.898
311.12	26.343
311.48	26.514
311.85	25.953
312.22	26.880
312.58	26.755
312.95	25.994
313.31	26.374
313.68	26.231
314.05	27.992
314.41	27.062
314.78	26.474
315.14	27.246
315.51	27.254
315.87	27.493
316.24	26.531
316.61	29.079
316.97	29.453
317.34	28.805
317.70	27.922
318.07	30.504
318.43	29.401
318.80	31.549
319.16	29.081
319.53	30.921
319.89	29.351
320.26	29.902
320.62	31.635
320.99	31.244
321.35	30.640
321.72	32.242
322.08	33.432
322.45	33.465
322.81	34.198
323.18	34.870
323.54	35.675
323.91	35.681
324.27	36.882
324.64	36.380
325.00	37.086
325.37	38.643
325.73	40.682
326.10	39.327
326.46	39.755
326.83	41.362
327.19	40.534
327.56	42.164
327.92	42.141
328.29	42.944
328.65	43.545
329.01	43.198
329.38	45.138
329.74	45.879
330.11	45.875
330.47	46.322
330.84	47.021
331.20	46.390
331.56	45.305
331.93	47.513
332.29	47.945
332.66	47.322
333.02	49.774
333.38	48.029
333.75	47.907
334.11	47.556
334.48	48.014
334.84	48.031
335.20	48.316
335.57	50.993
335.93	50.492
336.29	48.893
336.66	47.930
337.02	48.829
337.38	48.930
337.75	48.288
338.11	51.699
338.47	49.021
338.84	51.089
339.20	50.351
339.56	50.802
339.93	50.088
340.29	48.361
340.65	49.563
341.02	49.157
341.38	49.115
341.74	50.889
342.11	49.573
342.47	49.957
342.83	49.202
343.20	50.213
343.56	49.061
343.92	50.334
344.28	53.238
344.65	49.175
345.01	50.084
345.37	50.748
345.73	49.427
346.10	49.714
346.46	50.366
346.82	49.960
347.19	50.534
347.55	48.716
347.91	51.102
348.27	48.846
348.63	49.677
349.00	51.790
349.36	47.853
349.72	51.194
350.08	50.040
350.45	49.330
350.81	52.229
351.17	51.608
351.53	50.597
351.89	50.687
352.26	50.543
352.62	52.688
352.98	50.396
353.34	51.319
353.70	50.734
354.07	50.511
354.43	51.225
354.79	50.317
355.15	51.358
355.51	51.484
355.87	50.198
356.24	52.581
356.60	51.732
356.96	51.347
357.32	51.386
357.68	51.264
358.04	51.809
358.40	51.817
358.77	51.777
359.13	51.109
359.49	51.323
359.85	52.363
360.21	52.283
360.57	52.937
360.93	54.815
361.29	52.840
361.66	52.210
362.02	52.293
362.38	52.531
362.74	54.725
363.10	51.722
363.46	52.422
363.82	52.114
364.18	53.111
364.54	53.467
364.90	53.809
365.26	53.638
365.62	53.599
365.98	54.267
366.35	54.014
366.71	52.713
367.07	53.564
367.43	53.672
367.79	52.509
368.15	54.694
368.51	54.755
368.87	54.533
369.23	53.965
369.59	53.333
369.95	53.559
370.31	55.485
370.67	54.302
371.03	54.082
371.39	53.890
371.75	53.648
372.11	56.385
372.47	55.748
372.83	55.355
373.19	55.500
373.55	55.243
373.91	54.694
374.27	53.936
374.63	55.280
374.99	55.981
375.35	54.240
375.71	56.111
376.07	56.126
376.42	54.238
376.78	56.275
377.14	56.136
377.50	55.255
377.86	55.137
378.22	56.407
378.58	56.393
378.94	55.487
379.30	56.490
379.66	56.466
380.02	55.734
380.38	56.677
380.74	55.744
381.09	56.649
381.45	56.384
381.81	55.535
382.17	56.579
382.53	54.590
382.89	56.459
383.25	56.592
383.61	55.071
383.97	56.828
384.32	55.569
384.68	57.134
385.04	56.099
385.40	56.299
385.76	57.134
386.12	55.528
386.48	57.054
386.83	55.583
387.19	56.007
387.55	56.511
387.91	56.076
388.27	54.463
388.62	54.688
388.98	55.118
389.34	56.426
389.70	56.577
390.06	55.500
390.42	56.218
390.77	55.836
391.13	57.205
391.49	56.831
391.85	55.736
392.20	55.765
392.56	54.918
392.92	55.220
393.28	56.372
393.64	56.825
393.99	56.800
394.35	55.718
394.71	55.281
395.07	56.183
395.42	54.708
395.78	54.808
396.14	56.324
396.50	55.352
396.85	54.719
397.21	53.827
397.57	54.833
397.92	55.328
398.28	55.500
398.64	53.778
399.00	54.551
399.35	54.791
399.71	55.923
400.07	55.463
400.42	53.832
400.78	53.787
401.14	54.311
401.49	52.830
401.85	54.728
402.21	54.589
402.57	54.187
402.92	55.255
403.28	55.025
403.63	53.685
403.99	53.822
404.35	53.321
404.70	52.604
405.06	54.037
405.42	52.030
405.77	52.206
406.13	52.811
406.49	53.206
406.84	53.269
407.20	54.476
407.55	53.452
407.91	52.332
408.27	53.002
408.62	52.375
408.98	51.486
409.34	52.468
409.69	51.985
410.05	51.910
410.40	52.544
410.76	52.045
411.11	52.681
411.47	52.302
411.83	51.467
412.18	51.918
412.54	52.410
412.89	53.584
413.25	52.007
413.60	52.309
413.96	51.386
414.31	52.355
414.67	51.429
415.03	51.682
415.38	52.635
415.74	52.448
416.09	52.046
416.45	51.124
416.80	53.316
417.16	52.425
417.51	53.381
417.87	52.492
418.22	52.908
418.58	52.953
418.93	54.077
419.29	52.635
419.64	53.078
420.00	53.645
420.35	54.169
420.71	55.162
421.06	54.142
421.42	53.864
421.77	54.104
422.12	55.624
422.48	53.821
422.83	53.702
423.19	53.675
423.54	54.640
423.90	52.863
424.25	54.186
424.61	55.911
424.96	55.939
425.31	56.624
425.67	56.275
426.02	55.192
426.38	58.318
426.73	56.458
427.09	58.027
427.44	57.443
427.79	56.570
428.15	58.229
428.50	58.006
428.85	57.314
429.21	57.775
429.56	58.333
429.92	57.665
430.27	58.275
430.62	58.882
430.98	57.919
431.33	60.619
431.68	60.268
432.04	60.604
432.39	59.487
432.74	59.353
433.10	60.270
433.45	59.240
433.80	60.470
434.16	60.290
434.51	61.753
434.86	63.327
435.22	61.024
435.57	61.873
435.92	62.016
436.28	61.840
436.63	61.051
436.98	61.397
437.34	61.961
437.69	62.135
438.04	62.621
438.39	62.635
438.75	62.165
439.10	62.632
439.45	62.824
439.81	62.470
440.16	62.635
440.51	64.471
440.86	62.580
441.22	64.179
441.57	63.158
441.92	62.404
442.27	63.420
442.63	64.807
442.98	63.093
443.33	63.921
443.68	64.044
444.03	64.096
444.39	64.513
444.74	65.639
445.09	64.638
445.44	65.504
445.79	64.049
446.15	65.334
446.50	64.398
446.85	64.238
447.20	64.556
447.55	65.249
447.91	66.030
448.26	65.084
448.61	65.195
448.96	65.938
449.31	65.333
449.66	66.285
450.02	64.377
450.37	65.971
450.72	64.633
451.07	66.373
451.42	64.560
451.77	65.230
452.12	66.031
452.47	66.877
452.83	65.929
453.18	66.983
453.53	66.418
453.88	67.285
454.23	65.659
454.58	68.428
454.93	66.688
455.28	67.495
455.63	67.138
455.98	67.711
456.34	66.137
456.69	67.104
457.04	67.671
457.39	67.285
457.74	68.045
458.09	67.865
458.44	68.187
458.79	67.209
459.14	67.655
459.49	68.265
459.84	67.397
460.19	66.766
460.54	67.151
460.89	66.480
461.24	67.152
461.59	68.054
461.94	69.446
462.29	67.123
462.64	68.182
462.99	68.072
463.34	67.995
463.69	69.211
464.04	66.139
464.39	66.308
464.74	67.376
465.09	65.905
465.44	67.231
465.79	67.738
466.14	69.563
466.49	67.991
466.84	68.487
467.19	67.269
467.54	65.633
467.89	67.694
468.24	67.280
468.59	68.770
468.94	69.775
469.29	67.966
469.64	67.992
469.99	68.940
470.34	67.802
470.68	68.968
471.03	67.515
471.38	68.681
471.73	69.720
472.08	70.147
472.43	68.726
472.78	69.800
473.13	68.721
473.48	69.751
473.83	69.913
474.17	68.217
474.52	69.182
474.87	67.133
475.22	67.611
475.57	67.556
475.92	68.844
476.27	67.371
476.61	69.521
476.96	69.480
477.31	70.614
477.66	68.733
478.01	67.531
478.36	68.727
478.70	70.689
479.05	69.010
479.40	69.378
479.75	69.011
480.10	68.105
480.45	68.085
480.79	68.806
481.14	69.594
481.49	68.635
481.84	68.978
482.19	69.667
482.53	69.176
482.88	69.340
483.23	68.451
483.58	70.028
483.92	70.521
484.27	68.587
484.62	67.430
484.97	67.381
485.31	65.984
485.66	64.076
486.01	64.357
486.36	65.909
486.70	67.132
487.05	66.480
487.40	67.415
487.75	66.788
488.09	67.202
488.44	67.727
488.79	66.678
489.13	68.962
489.48	67.659
489.83	69.520
490.17	68.219
490.52	70.788
490.87	69.792
491.22	69.921
491.56	68.194
491.91	69.561
492.26	70.094
492.60	69.838
492.95	69.253
493.30	69.462
493.64	68.500
493.99	71.128
494.34	70.190
494.68	71.021
495.03	69.646
495.37	70.796
495.72	70.138
496.07	70.389
496.41	70.171
496.76	71.187
497.11	71.314
497.45	71.121
497.80	69.885
498.14	69.892
498.49	70.969
498.84	70.000
499.18	70.906
499.53	70.434
499.87	69.884
500.22	70.196
500.56	71.186
500.91	71.232
501.26	69.918
501.60	70.727
501.95	70.918
502.29	69.438
502.64	70.863
502.98	70.867
503.33	70.019
503.67	69.971
504.02	70.594
504.36	71.275
504.71	71.175
505.06	70.494
505.40	71.058
505.75	72.205
506.09	71.790
506.44	71.128
506.78	71.099
507.13	71.370
507.47	71.518
507.82	70.934
508.16	73.368
508.51	71.458
508.85	71.584
509.19	70.330
509.54	71.987
509.88	72.606
510.23	70.860
510.57	72.593
510.92	73.255
511.26	71.877
511.61	72.138
511.95	71.875
512.30	73.392
512.64	71.731
512.98	72.497
513.33	70.291
513.67	72.027
514.02	73.098
514.36	72.133
514.70	72.496
515.05	72.156
515.39	72.780
515.74	73.822
516.08	71.873
516.42	72.578
516.77	74.408
517.11	73.284
517.46	75.359
517.80	76.354
518.14	72.464
518.49	73.819
518.83	73.116
519.17	72.765
519.52	71.544
519.86	74.492
520.20	75.122
520.55	73.354
520.89	74.452
521.23	73.504
521.58	74.295
521.92	74.288
522.26	75.238
522.61	74.398
522.95	73.006
523.29	73.480
523.64	71.705
523.98	75.048
524.32	73.853
524.66	72.298
525.01	74.502
525.35	74.936
525.69	74.691
526.04	74.347
526.38	74.093
526.72	72.286
527.06	74.805
527.41	73.333
527.75	72.937
528.09	73.858
528.43	72.852
528.78	72.236
529.12	73.496
529.46	73.260
529.80	74.048
530.15	72.440
530.49	72.122
530.83	73.084
531.17	73.535
531.51	73.141
531.86	72.614
532.20	72.537
532.54	73.864
532.88	72.991
533.22	73.663
533.57	73.172
533.91	71.286
534.25	70.333
534.59	71.330
534.93	70.255
535.27	71.366
535.62	70.844
535.96	72.334
536.30	71.335
536.64	71.381
536.98	73.446
537.32	71.458
537.66	71.962
538.01	72.371
538.35	72.905
538.69	70.455
539.03	72.173
539.37	70.326
539.71	71.381
540.05	72.036
540.39	71.537
540.73	72.287
541.07	74.249
541.42	71.708
541.76	69.967
542.10	71.708
542.44	70.486
542.78	72.252
543.12	71.623
543.46	71.301
543.80	70.769
544.14	69.308
544.48	70.604
544.82	71.448
545.16	72.166
545.50	69.785
545.84	70.236
546.18	72.607
546.52	70.839
546.86	72.293
547.20	72.855
547.54	70.661
547.88	70.405
548.22	69.201
548.56	70.942
548.90	71.765
549.24	72.320
549.58	72.124
549.92	72.367
550.26	73.121
550.60	72.333
550.94	72.993
551.28	74.116
551.62	72.674
551.96	72.287
552.30	70.383
552.64	71.640
552.98	71.338
553.32	73.160
553.66	72.098
554.00	72.566
554.34	72.202
554.68	71.930
555.02	70.767
555.36	71.675
555.69	70.917
556.03	71.088
556.37	72.475
556.71	72.226
557.05	74.797
557.39	72.012
557.73	73.085
558.07	74.303
558.41	71.578
558.75	72.700
559.08	72.140
559.42	72.741
559.76	73.620
560.10	72.707
560.44	73.338
560.78	72.164
561.12	71.291
561.45	72.397
561.79	70.383
562.13	72.581
562.47	72.479
562.81	71.216
563.15	71.449
563.48	71.527
563.82	70.723
564.16	70.926
564.50	71.438
564.84	69.444
565.17	70.358
565.51	71.186
565.85	71.332
566.19	71.937
566.52	70.776
566.86	71.302
567.20	70.278
567.54	70.762
567.88	68.453
568.21	69.016
568.55	68.611
568.89	67.147
569.23	67.330
569.56	65.280
569.90	66.247
570.24	65.464
570.57	64.183
570.91	63.618
571.25	64.267
571.59	64.096
571.92	62.738
572.26	63.751
572.60	62.892
572.93	62.682
573.27	62.500
573.61	62.088
573.95	61.868
574.28	61.626
574.62	62.303
574.96	61.042
575.29	61.103
575.63	61.561
575.97	61.381
576.30	61.496
576.64	62.089
576.98	61.035
577.31	61.478
577.65	61.418
577.98	61.283
578.32	60.850
578.66	60.933
578.99	61.404
579.33	61.794
579.67	61.527
580.00	61.533
580.34	60.568
580.67	61.633
581.01	60.123
581.35	60.741
581.68	60.382
582.02	60.565
582.35	60.661
582.69	61.602
583.02	61.472
583.36	61.344
583.70	62.519
584.03	62.635
584.37	62.517
584.70	62.067
585.04	61.696
585.37	61.527
585.71	61.224
586.04	62.791
586.38	62.523
586.72	62.909
587.05	63.410
587.39	63.098
587.72	63.446
588.06	62.586
588.39	62.860
588.73	64.665
589.06	64.450
589.40	65.098
589.73	63.704
590.07	64.567
590.40	64.465
590.73	64.974
591.07	65.164
591.40	65.251
591.74	65.204
592.07	66.396
592.41	65.563
592.74	65.296
593.08	63.920
593.41	64.243
593.75	63.732
594.08	65.492
594.41	65.176
594.75	65.761
595.08	65.150
595.42	65.173
595.75	64.792
596.09	65.503
596.42	65.835
596.75	65.718
597.09	67.097
597.42	65.168
597.75	65.545
598.09	66.155
598.42	64.825
598.76	63.787
599.09	64.720
599.42	65.129
599.76	64.439
600.09	64.962
600.42	64.375
600.76	65.122
601.09	64.337
601.42	64.583
601.76	64.759
602.09	65.112
602.42	64.938
602.76	65.310
603.09	65.081
603.42	65.391
603.76	65.457
604.09	66.480
604.42	64.238
604.76	66.420
605.09	66.998
605.42	65.337
605.75	65.934
606.09	65.629
606.42	65.522
606.75	65.221
607.09	65.858
607.42	66.153
607.75	64.768
608.08	66.380
608.42	67.692
608.75	64.159
609.08	65.611
609.41	65.421
609.75	64.408
610.08	66.863
610.41	66.265
610.74	65.426
611.07	67.495
611.41	65.255
611.74	66.787
612.07	66.756
612.40	66.151
612.73	66.344
613.07	66.263
613.40	68.637
613.73	68.610
614.06	66.008
614.39	67.700
614.72	66.201
615.06	67.011
615.39	65.925
615.72	66.649
616.05	64.605
616.38	68.485
616.71	68.048
617.05	68.094
617.38	68.359
617.71	66.585
618.04	69.193
618.37	68.553
618.70	69.296
619.03	68.382
619.36	69.415
619.69	69.131
620.03	68.664
620.36	69.269
620.69	70.424
621.02	70.091
621.35	70.000
621.68	72.787
622.01	71.521
622.34	71.118
622.67	70.781
623.00	69.778
623.33	71.269
623.66	69.793
623.99	68.947
624.32	69.271
624.65	68.580
624.99	70.575
625.32	69.835
625.65	70.085
625.98	69.484
626.31	71.941
626.64	70.209
626.97	72.688
627.30	72.340
627.63	71.675
627.96	72.411
628.29	73.438
628.62	73.448
628.95	73.327
629.28	72.932
629.61	74.583
629.94	74.008
630.26	74.652
630.59	74.573
630.92	74.875
631.25	74.798
631.58	75.556
631.91	74.574
632.24	75.444
632.57	76.889
