SpectraSuite Data File
++++++++++++++++++++++++++++++++++++
Date: Sat May 16 11:14:46 PDT 2015
User: schluterlab
Dark Spectrum Present: Yes
Reference Spectrum Present: Yes
Number of Sampled Component Spectra: 1
Spectrometers: USB2E3373
Integration Time (usec): 3000 (USB2E3373)
Spectra Averaged: 3 (USB2E3373)
Boxcar Smoothing: 0 (USB2E3373)
Correct for Electrical Dark: No (USB2E3373)
Strobe/Lamp Enabled: No (USB2E3373)
Correct for Detector Non-linearity: No (USB2E3373)
Correct for Stray Light: No (USB2E3373)
Number of Pixels in Processed Spectrum: 2048
>>>>>Begin Processed Spectral Data<<<<<
178.53	0.000
178.91	113.333
179.29	166.667
179.67	-500.000
180.04	-23.077
180.42	400.000
180.80	100.000
181.18	375.000
181.56	-12.500
181.94	-1300.000
182.31	375.000
182.69	0.000
183.07	-300.000
183.45	800.000
183.83	300.000
184.20	-142.857
184.58	-87.500
184.96	25.000
185.34	100.000
185.72	-275.000
186.09	50.000
186.47	-175.000
186.85	-100.000
187.23	-150.000
187.61	100.000
187.98	-137.500
188.36	-37.500
188.74	-50.000
189.12	900.000
189.49	357.143
189.87	-8.333
190.25	175.000
190.63	-114.286
191.00	-66.667
191.38	220.000
191.76	46.667
192.14	460.000
192.51	-320.000
192.89	-366.667
193.27	0.000
193.65	33.333
194.02	-142.857
194.40	433.333
194.78	0.000
195.15	-600.000
195.53	-136.364
195.91	-200.000
196.29	200.000
196.66	-366.667
197.04	2200.000
197.42	-25.000
197.79	46.667
198.17	-266.667
198.55	-450.000
198.92	-900.000
199.30	125.000
199.68	-250.000
200.05	-66.667
200.43	-55.556
200.81	-600.000
201.18	0.000
201.56	242.857
201.94	33.333
202.31	4.545
202.69	-10.000
203.07	30.000
203.44	566.667
203.82	-316.667
204.19	-225.000
204.57	-100.000
204.95	-800.000
205.32	-6.250
205.70	200.000
206.08	-800.000
206.45	-11.111
206.83	-750.000
207.20	500.000
207.58	-333.333
207.96	-266.667
208.33	-62.500
208.71	0.000
209.08	150.000
209.46	-14.286
209.84	200.000
210.21	0.000
210.59	65.000
210.96	200.000
211.34	0.000
211.71	-100.000
212.09	225.000
212.46	850.000
212.84	-1900.000
213.22	500.000
213.59	83.333
213.97	100.000
214.34	170.000
214.72	-60.000
215.09	-266.667
215.47	116.667
215.84	40.000
216.22	0.000
216.59	26.667
216.97	-475.000
217.34	450.000
217.72	-228.571
218.09	-50.000
218.47	-185.714
218.84	142.857
219.22	28.571
219.59	0.000
219.97	114.286
220.34	275.000
220.72	200.000
221.09	0.000
221.47	0.000
221.84	300.000
222.22	-100.000
222.59	100.000
222.97	-112.500
223.34	-850.000
223.72	-466.667
224.09	-100.000
224.46	-325.000
224.84	-7.143
225.21	-171.429
225.59	-9.091
225.96	-137.500
226.34	-28.571
226.71	-166.667
227.08	5.000
227.46	1400.000
227.83	-271.429
228.21	-75.000
228.58	-200.000
228.95	-12.500
229.33	-300.000
229.70	-180.000
230.08	-500.000
230.45	16.667
230.82	0.000
231.20	-400.000
231.57	-500.000
231.95	500.000
232.32	47.619
232.69	-122.222
233.07	-185.714
233.44	-1100.000
233.81	-86.667
234.19	-55.556
234.56	-50.000
234.93	12.500
235.31	-128.571
235.68	-28.571
236.05	-11.765
236.43	4.545
236.80	-9.677
237.17	33.333
237.55	-14.286
237.92	-18.182
238.29	2.857
238.67	41.176
239.04	19.444
239.41	-3.226
239.79	-2.564
240.16	30.952
240.53	0.000
240.91	25.641
241.28	14.545
241.65	32.308
242.02	26.230
242.40	24.590
242.77	22.727
243.14	13.559
243.51	15.714
243.89	18.987
244.26	30.337
244.63	37.895
245.00	21.053
245.38	32.203
245.75	39.823
246.12	30.400
246.49	34.646
246.87	19.512
247.24	27.119
247.61	30.508
247.98	28.169
248.36	25.175
248.73	32.278
249.10	28.025
249.47	35.673
249.84	30.114
250.22	22.024
250.59	36.158
250.96	30.366
251.33	35.071
251.70	31.250
252.08	34.597
252.45	31.280
252.82	28.095
253.19	29.787
253.56	31.048
253.94	28.692
254.31	29.185
254.68	32.927
255.05	27.016
255.42	30.952
255.79	29.032
256.16	35.686
256.54	32.353
256.91	32.576
257.28	28.938
257.65	29.433
258.02	35.535
258.39	33.110
258.76	30.405
259.14	33.333
259.51	35.410
259.88	32.012
260.25	34.472
260.62	31.511
260.99	31.157
261.36	36.585
261.73	33.237
262.10	32.500
262.47	31.339
262.85	37.143
263.22	33.238
263.59	33.538
263.96	32.754
264.33	34.146
264.70	37.845
265.07	31.319
265.44	32.041
265.81	29.974
266.18	30.886
266.55	30.637
266.92	34.761
267.29	34.383
267.66	33.580
268.03	32.850
268.40	34.038
268.77	33.976
269.14	34.339
269.51	33.103
269.88	31.422
270.25	31.469
270.62	32.265
270.99	32.883
271.36	34.266
271.73	30.717
272.10	34.554
272.47	31.111
272.84	33.556
273.21	36.697
273.58	33.407
273.95	32.237
274.32	32.127
274.69	31.510
275.06	30.266
275.43	34.375
275.80	34.012
276.17	31.799
276.54	33.809
276.91	33.333
277.28	32.049
277.65	33.884
278.02	30.898
278.39	32.613
278.76	31.474
279.13	31.423
279.50	33.002
279.87	31.501
280.23	33.198
280.60	32.207
280.97	32.621
281.34	33.075
281.71	33.846
282.08	34.476
282.45	31.976
282.82	30.814
283.19	32.909
283.56	33.150
283.92	31.095
284.29	32.528
284.66	27.698
285.03	32.620
285.40	32.103
285.77	32.632
286.14	32.491
286.51	31.794
286.87	35.027
287.24	32.082
287.61	31.736
287.98	30.329
288.35	29.091
288.72	28.862
289.08	27.966
289.45	28.956
289.82	29.066
290.19	30.213
290.56	26.942
290.93	29.094
291.29	28.039
291.66	29.147
292.03	29.984
292.40	28.163
292.77	28.416
293.13	27.805
293.50	26.003
293.87	25.153
294.24	27.753
294.60	26.061
294.97	26.707
295.34	25.037
295.71	26.190
296.08	25.806
296.44	23.891
296.81	26.496
297.18	24.366
297.55	25.565
297.91	24.965
298.28	23.425
298.65	25.802
299.02	25.802
299.38	22.861
299.75	23.641
300.12	25.128
300.48	24.808
300.85	23.591
301.22	23.674
301.59	23.667
301.95	22.796
302.32	22.686
302.69	23.868
303.05	22.222
303.42	23.250
303.79	23.804
304.15	22.749
304.52	21.937
304.89	22.904
305.25	23.932
305.62	21.974
305.99	24.617
306.35	22.420
306.72	22.551
307.09	23.496
307.45	22.474
307.82	22.346
308.19	22.371
308.55	22.767
308.92	20.945
309.29	22.595
309.65	22.163
310.02	21.166
310.38	20.757
310.75	22.234
311.12	22.314
311.48	20.877
311.85	20.494
312.22	21.421
312.58	21.160
312.95	21.916
313.31	22.577
313.68	21.307
314.05	21.761
314.41	21.127
314.78	21.179
315.14	23.593
315.51	20.770
315.87	22.072
316.24	20.311
316.61	21.017
316.97	21.393
317.34	20.039
317.70	20.223
318.07	20.709
318.43	20.318
318.80	22.160
319.16	21.201
319.53	20.489
319.89	18.532
320.26	21.275
320.62	19.615
320.99	21.990
321.35	21.084
321.72	21.392
322.08	21.365
322.45	20.000
322.81	20.269
323.18	19.308
323.54	20.425
323.91	19.648
324.27	20.722
324.64	21.024
325.00	20.681
325.37	21.448
325.73	20.210
326.10	19.486
326.46	20.841
326.83	19.830
327.19	20.851
327.56	20.698
327.92	20.306
328.29	20.000
328.65	20.545
329.01	20.936
329.38	20.339
329.74	21.612
330.11	20.943
330.47	19.800
330.84	20.898
331.20	19.134
331.56	19.143
331.93	19.805
332.29	21.370
332.66	19.140
333.02	20.181
333.38	21.057
333.75	20.570
334.11	20.267
334.48	19.241
334.84	20.560
335.20	19.415
335.57	18.773
335.93	21.576
336.29	20.903
336.66	18.678
337.02	20.811
337.38	19.251
337.75	20.193
338.11	19.589
338.47	19.662
338.84	19.419
339.20	18.893
339.56	18.538
339.93	19.665
340.29	19.575
340.65	19.668
341.02	20.320
341.38	19.966
341.74	19.390
342.11	18.686
342.47	19.142
342.83	19.479
343.20	17.848
343.56	18.612
343.92	19.866
344.28	19.680
344.65	18.977
345.01	18.571
345.37	20.100
345.73	17.594
346.10	18.070
346.46	17.547
346.82	17.803
347.19	19.638
347.55	18.700
347.91	18.661
348.27	18.934
348.63	19.386
349.00	18.298
349.36	17.330
349.72	19.745
350.08	19.006
350.45	17.888
350.81	18.153
351.17	17.444
351.53	17.184
351.89	17.947
352.26	18.992
352.62	19.662
352.98	17.722
353.34	19.025
353.70	18.224
354.07	18.411
354.43	19.130
354.79	18.067
355.15	17.572
355.51	17.734
355.87	18.656
356.24	18.030
356.60	18.775
356.96	18.399
357.32	17.340
357.68	17.854
358.04	18.553
358.40	18.252
358.77	17.852
359.13	17.292
359.49	17.838
359.85	17.912
360.21	18.798
360.57	18.373
360.93	17.556
361.29	18.759
361.66	16.921
362.02	17.086
362.38	17.682
362.74	17.436
363.10	17.217
363.46	18.234
363.82	18.805
364.18	19.103
364.54	18.513
364.90	17.890
365.26	17.261
365.62	18.817
365.98	18.706
366.35	17.887
366.71	17.618
367.07	17.078
367.43	18.394
367.79	16.564
368.15	16.999
368.51	18.811
368.87	18.544
369.23	18.246
369.59	17.708
369.95	18.393
370.31	18.706
370.67	17.209
371.03	18.294
371.39	17.397
371.75	18.240
372.11	17.575
372.47	16.992
372.83	17.385
373.19	17.786
373.55	17.945
373.91	18.350
374.27	17.248
374.63	17.598
374.99	18.359
375.35	17.497
375.71	17.961
376.07	17.728
376.42	16.026
376.78	17.712
377.14	17.966
377.50	17.924
377.86	17.100
378.22	17.651
378.58	16.739
378.94	17.633
379.30	17.611
379.66	17.608
380.02	16.696
380.38	17.160
380.74	17.644
381.09	17.458
381.45	17.959
381.81	17.423
382.17	17.607
382.53	17.143
382.89	17.344
383.25	18.242
383.61	18.101
383.97	18.371
384.32	17.835
384.68	17.836
385.04	16.727
385.40	16.799
385.76	17.744
386.12	17.552
386.48	18.007
386.83	16.687
387.19	17.693
387.55	17.323
387.91	17.605
388.27	16.707
388.62	17.308
388.98	17.505
389.34	17.319
389.70	16.687
390.06	16.408
390.42	17.372
390.77	16.656
391.13	17.702
391.49	18.153
391.85	16.771
392.20	16.626
392.56	16.799
392.92	17.456
393.28	17.738
393.64	16.597
393.99	17.600
394.35	15.937
394.71	16.615
395.07	17.389
395.42	16.567
395.78	16.845
396.14	17.383
396.50	17.003
396.85	17.767
397.21	16.768
397.57	18.237
397.92	17.623
398.28	16.722
398.64	16.657
399.00	17.809
399.35	16.798
399.71	17.305
400.07	17.493
400.42	17.518
400.78	16.995
401.14	17.006
401.49	17.571
401.85	16.901
402.21	16.567
402.57	17.112
402.92	16.929
403.28	17.525
403.63	17.016
403.99	17.651
404.35	16.546
404.70	17.496
405.06	17.416
405.42	16.605
405.77	16.120
406.13	16.638
406.49	17.376
406.84	17.157
407.20	17.256
407.55	16.656
407.91	16.451
408.27	17.096
408.62	16.897
408.98	16.677
409.34	16.941
409.69	17.643
410.05	17.283
410.40	16.800
410.76	17.664
411.11	16.646
411.47	17.136
411.83	17.359
412.18	17.141
412.54	16.656
412.89	17.375
413.25	16.352
413.60	16.343
413.96	16.513
414.31	17.370
414.67	16.508
415.03	16.882
415.38	17.241
415.74	16.688
416.09	17.583
416.45	16.799
416.80	17.685
417.16	16.678
417.51	17.728
417.87	16.634
418.22	17.004
418.58	17.458
418.93	17.351
419.29	16.813
419.64	16.143
420.00	16.464
420.35	17.150
420.71	16.807
421.06	17.456
421.42	15.867
421.77	16.918
422.12	16.956
422.48	16.729
422.83	16.743
423.19	16.537
423.54	16.945
423.90	16.657
424.25	16.855
424.61	16.888
424.96	17.437
425.31	16.881
425.67	17.536
426.02	16.581
426.38	17.241
426.73	16.774
427.09	16.605
427.44	17.102
427.79	16.686
428.15	17.235
428.50	17.361
428.85	17.626
429.21	16.325
429.56	16.563
429.92	18.086
430.27	16.949
430.62	16.562
430.98	17.250
431.33	17.556
431.68	16.783
432.04	17.571
432.39	16.695
432.74	16.847
433.10	16.939
433.45	16.983
433.80	17.469
434.16	16.873
434.51	17.644
434.86	17.340
435.22	16.982
435.57	16.401
435.92	17.585
436.28	17.151
436.63	16.789
436.98	16.724
437.34	16.834
437.69	16.394
438.04	16.109
438.39	17.509
438.75	17.171
439.10	17.157
439.45	16.777
439.81	17.229
440.16	17.320
440.51	17.118
440.86	17.178
441.22	15.920
441.57	17.000
441.92	16.777
442.27	17.045
442.63	16.792
442.98	15.688
443.33	16.529
443.68	17.457
444.03	16.601
444.39	16.936
444.74	18.227
445.09	16.612
445.44	16.770
445.79	16.828
446.15	17.853
446.50	16.549
446.85	16.983
447.20	17.160
447.55	17.459
447.91	16.788
448.26	16.816
448.61	16.186
448.96	17.983
449.31	16.347
449.66	17.745
450.02	16.787
450.37	16.174
450.72	16.893
451.07	17.536
451.42	16.357
451.77	16.936
452.12	16.687
452.47	17.443
452.83	17.239
453.18	16.635
453.53	17.600
453.88	17.763
454.23	16.082
454.58	17.651
454.93	17.128
455.28	17.655
455.63	17.506
455.98	16.988
456.34	16.391
456.69	18.011
457.04	17.517
457.39	16.627
457.74	17.247
458.09	16.995
458.44	17.725
458.79	17.377
459.14	17.969
459.49	17.703
459.84	17.369
460.19	17.124
460.54	16.818
460.89	16.256
461.24	16.879
461.59	16.940
461.94	17.187
462.29	17.272
462.64	17.128
462.99	17.269
463.34	17.286
463.69	17.875
464.04	16.286
464.39	15.830
464.74	17.908
465.09	17.017
465.44	17.202
465.79	18.274
466.14	17.664
466.49	17.501
466.84	16.807
467.19	16.708
467.54	16.203
467.89	16.831
468.24	17.518
468.59	17.427
468.94	16.527
469.29	17.219
469.64	18.059
469.99	18.569
470.34	17.568
470.68	17.587
471.03	16.930
471.38	16.042
471.73	17.273
472.08	15.863
472.43	16.345
472.78	17.867
473.13	16.567
473.48	17.486
473.83	17.184
474.17	16.943
474.52	17.519
474.87	17.191
475.22	16.165
475.57	16.111
475.92	16.847
476.27	16.343
476.61	17.408
476.96	16.769
477.31	17.169
477.66	17.045
478.01	17.612
478.36	17.025
478.70	16.765
479.05	17.523
479.40	17.565
479.75	17.533
480.10	17.113
480.45	16.489
480.79	16.486
481.14	16.708
481.49	17.667
481.84	17.060
482.19	18.045
482.53	17.235
482.88	17.038
483.23	16.573
483.58	18.131
483.92	17.248
484.27	16.837
484.62	16.760
484.97	16.524
485.31	16.480
485.66	17.079
486.01	17.316
486.36	17.497
486.70	17.523
487.05	17.222
487.40	16.640
487.75	16.648
488.09	16.245
488.44	16.543
488.79	16.661
489.13	16.052
489.48	16.966
489.83	16.856
490.17	16.500
490.52	17.346
490.87	16.952
491.22	16.348
491.56	17.037
491.91	17.366
492.26	16.604
492.60	16.556
492.95	17.040
493.30	17.627
493.64	16.925
493.99	17.352
494.34	17.524
494.68	16.994
495.03	18.021
495.37	16.814
495.72	16.601
496.07	17.410
496.41	17.045
496.76	17.032
497.11	17.334
497.45	17.864
497.80	17.159
498.14	17.191
498.49	16.223
498.84	17.282
499.18	17.349
499.53	17.292
499.87	16.458
500.22	16.814
500.56	17.009
500.91	17.340
501.26	17.758
501.60	16.322
501.95	17.971
502.29	16.297
502.64	17.586
502.98	17.298
503.33	17.340
503.67	17.050
504.02	16.610
504.36	17.696
504.71	16.717
505.06	16.575
505.40	17.066
505.75	16.413
506.09	16.936
506.44	16.892
506.78	17.210
507.13	17.044
507.47	17.997
507.82	17.501
508.16	17.824
508.51	17.311
508.85	17.391
509.19	16.850
509.54	17.812
509.88	17.447
510.23	17.034
510.57	17.407
510.92	17.938
511.26	17.597
511.61	17.225
511.95	17.295
512.30	17.372
512.64	17.251
512.98	17.657
513.33	16.749
513.67	17.532
514.02	17.170
514.36	16.787
514.70	17.431
515.05	17.439
515.39	17.186
515.74	17.394
516.08	16.945
516.42	17.677
516.77	17.793
517.11	17.220
517.46	17.464
517.80	16.907
518.14	16.486
518.49	16.438
518.83	17.389
519.17	17.644
519.52	17.525
519.86	17.384
520.20	17.543
520.55	17.231
520.89	16.719
521.23	17.338
521.58	16.991
521.92	17.289
522.26	17.397
522.61	17.744
522.95	17.167
523.29	17.241
523.64	16.677
523.98	17.250
524.32	16.970
524.66	17.143
525.01	17.277
525.35	18.492
525.69	17.437
526.04	16.971
526.38	17.250
526.72	16.603
527.06	17.448
527.41	17.030
527.75	16.568
528.09	16.810
528.43	17.180
528.78	17.776
529.12	18.374
529.46	17.139
529.80	16.075
530.15	17.965
530.49	16.753
530.83	18.599
531.17	16.566
531.51	17.214
531.86	17.643
532.20	17.746
532.54	18.449
532.88	17.457
533.22	17.914
533.57	17.298
533.91	16.792
534.25	16.468
534.59	16.115
534.93	16.553
535.27	16.174
535.62	16.944
535.96	17.324
536.30	16.427
536.64	17.065
536.98	17.373
537.32	16.862
537.66	17.447
538.01	17.457
538.35	18.108
538.69	17.714
539.03	17.468
539.37	16.833
539.71	17.612
540.05	16.450
540.39	17.659
540.73	16.862
541.07	17.350
541.42	16.880
541.76	15.947
542.10	17.083
542.44	17.655
542.78	16.689
543.12	17.651
543.46	16.644
543.80	16.789
544.14	16.320
544.48	17.388
544.82	16.779
545.16	17.304
545.50	15.747
545.84	17.107
546.18	18.724
546.52	17.354
546.86	16.880
547.20	17.792
547.54	16.460
547.88	17.585
548.22	16.448
548.56	17.368
548.90	18.396
549.24	16.608
549.58	16.725
549.92	17.668
550.26	17.775
550.60	17.425
550.94	16.496
551.28	17.081
551.62	17.725
551.96	17.294
552.30	17.282
552.64	17.101
552.98	16.819
553.32	16.522
553.66	18.025
554.00	17.413
554.34	16.968
554.68	16.886
555.02	17.945
555.36	17.469
555.69	17.264
556.03	17.614
556.37	16.501
556.71	17.323
557.05	16.851
557.39	17.075
557.73	17.068
558.07	17.558
558.41	16.679
558.75	16.882
559.08	14.553
559.42	17.458
559.76	16.794
560.10	17.002
560.44	18.136
560.78	16.493
561.12	17.391
561.45	17.260
561.79	16.864
562.13	17.952
562.47	17.017
562.81	16.973
563.15	16.585
563.48	16.517
563.82	16.700
564.16	16.498
564.50	17.339
564.84	17.659
565.17	16.379
565.51	17.536
565.85	17.918
566.19	17.523
566.52	16.960
566.86	17.130
567.20	18.644
567.54	18.074
567.88	16.639
568.21	17.226
568.55	16.490
568.89	17.346
569.23	17.492
569.56	16.141
569.90	17.781
570.24	16.986
570.57	16.801
570.91	17.137
571.25	17.510
571.59	17.608
571.92	16.935
572.26	17.286
572.60	17.003
572.93	16.569
573.27	16.677
573.61	16.863
573.95	17.429
574.28	16.831
574.62	17.438
574.96	16.476
575.29	17.022
575.63	16.857
575.97	16.802
576.30	17.128
576.64	17.180
576.98	16.795
577.31	16.663
577.65	17.200
577.98	16.878
578.32	17.154
578.66	17.157
578.99	16.933
579.33	16.780
579.67	17.119
580.00	16.716
580.34	16.952
580.67	16.793
581.01	16.545
581.35	17.210
581.68	17.214
582.02	17.202
582.35	16.676
582.69	17.267
583.02	17.330
583.36	16.969
583.70	16.974
584.03	17.349
584.37	16.617
584.70	16.574
585.04	16.911
585.37	16.396
585.71	17.030
586.04	16.743
586.38	16.680
586.72	17.334
587.05	16.794
587.39	16.990
587.72	17.467
588.06	16.671
588.39	16.576
588.73	16.717
589.06	16.976
589.40	17.726
589.73	17.139
590.07	16.679
590.40	17.196
590.73	16.873
591.07	16.230
591.40	16.724
591.74	17.376
592.07	16.081
592.41	16.263
592.74	16.987
593.08	17.679
593.41	17.039
593.75	16.485
594.08	16.715
594.41	17.597
594.75	17.629
595.08	16.842
595.42	17.052
595.75	16.942
596.09	16.531
596.42	16.899
596.75	16.688
597.09	17.498
597.42	17.285
597.75	16.829
598.09	16.493
598.42	16.880
598.76	17.027
599.09	16.772
599.42	16.417
599.76	16.950
600.09	17.252
600.42	18.040
600.76	16.949
601.09	17.015
601.42	16.818
601.76	16.900
602.09	17.178
602.42	16.626
602.76	16.369
603.09	16.815
603.42	17.244
603.76	17.232
604.09	17.060
604.42	16.736
604.76	16.398
605.09	16.863
605.42	17.066
605.75	17.033
606.09	17.061
606.42	16.967
606.75	16.574
607.09	17.203
607.42	16.725
607.75	17.439
608.08	17.126
608.42	17.029
608.75	16.308
609.08	16.610
609.41	16.442
609.75	16.919
610.08	17.500
610.41	16.964
610.74	17.602
611.07	17.292
611.41	16.440
611.74	16.864
612.07	17.186
612.40	16.578
612.73	16.855
613.07	15.575
613.40	17.077
613.73	16.621
614.06	15.706
614.39	17.418
614.72	17.039
615.06	16.196
615.39	16.983
615.72	16.730
616.05	16.897
616.38	17.237
616.71	16.216
617.05	17.250
617.38	17.214
617.71	15.725
618.04	16.708
618.37	17.233
618.70	16.688
619.03	16.655
619.36	16.843
619.69	16.655
620.03	16.529
620.36	17.018
620.69	15.937
621.02	16.286
621.35	16.290
621.68	15.738
622.01	15.696
622.34	17.158
622.67	16.797
623.00	16.144
623.33	18.134
623.66	15.953
623.99	16.391
624.32	16.518
624.65	17.145
624.99	16.131
625.32	16.617
625.65	17.172
625.98	16.275
626.31	16.069
626.64	16.234
626.97	16.610
627.30	16.681
627.63	15.630
627.96	17.145
628.29	15.809
628.62	15.950
628.95	17.126
629.28	15.977
629.61	16.389
629.94	16.824
630.26	16.402
630.59	17.588
630.92	17.117
631.25	16.935
631.58	16.720
631.91	14.894
632.24	15.222
632.57	16.889
632.90	17.126
