SpectraSuite Data File
++++++++++++++++++++++++++++++++++++
Date: Sat May 16 11:08:34 PDT 2015
User: schluterlab
Dark Spectrum Present: Yes
Reference Spectrum Present: Yes
Number of Sampled Component Spectra: 1
Spectrometers: USB2E3373
Integration Time (usec): 3000 (USB2E3373)
Spectra Averaged: 3 (USB2E3373)
Boxcar Smoothing: 0 (USB2E3373)
Correct for Electrical Dark: No (USB2E3373)
Strobe/Lamp Enabled: No (USB2E3373)
Correct for Detector Non-linearity: No (USB2E3373)
Correct for Stray Light: No (USB2E3373)
Number of Pixels in Processed Spectrum: 2048
>>>>>Begin Processed Spectral Data<<<<<
178.53	0.000
178.91	53.333
179.29	166.667
179.67	700.000
180.04	-61.538
180.42	-300.000
180.80	-0.000
181.18	325.000
181.56	-37.500
181.94	-1200.000
182.31	300.000
182.69	84.615
183.07	-333.333
183.45	850.000
183.83	200.000
184.20	71.429
184.58	-25.000
184.96	-175.000
185.34	37.500
185.72	-450.000
186.09	150.000
186.47	-62.500
186.85	62.500
187.23	100.000
187.61	375.000
187.98	-37.500
188.36	-75.000
188.74	-50.000
189.12	-600.000
189.49	142.857
189.87	50.000
190.25	325.000
190.63	42.857
191.00	-11.111
191.38	120.000
191.76	0.000
192.14	200.000
192.51	20.000
192.89	-33.333
193.27	0.000
193.65	66.667
194.02	-28.571
194.40	-66.667
194.78	70.000
195.15	200.000
195.53	-9.091
195.91	-183.333
196.29	-140.000
196.66	33.333
197.04	700.000
197.42	0.000
197.79	86.667
198.17	100.000
198.55	200.000
198.92	300.000
199.30	25.000
199.68	-250.000
200.05	-77.778
200.43	-100.000
200.81	-300.000
201.18	75.000
201.56	-85.714
201.94	33.333
202.31	59.091
202.69	110.000
203.07	-10.000
203.44	166.667
203.82	-50.000
204.19	-25.000
204.57	-100.000
204.95	200.000
205.32	6.250
205.70	100.000
206.08	-400.000
206.45	38.889
206.83	-550.000
207.20	950.000
207.58	-166.667
207.96	0.000
208.33	-25.000
208.71	-22.222
209.08	70.000
209.46	28.571
209.84	-50.000
210.21	0.000
210.59	75.000
210.96	-300.000
211.34	0.000
211.71	233.333
212.09	75.000
212.46	450.000
212.84	-1400.000
213.22	33.333
213.59	16.667
213.97	133.333
214.34	90.000
214.72	140.000
215.09	-133.333
215.47	-66.667
215.84	-90.000
216.22	120.000
216.59	106.667
216.97	-325.000
217.34	450.000
217.72	0.000
218.09	0.000
218.47	-57.143
218.84	71.429
219.22	100.000
219.59	0.000
219.97	-71.429
220.34	100.000
220.72	125.000
221.09	15.385
221.47	0.000
221.84	-0.000
222.22	150.000
222.59	600.000
222.97	62.500
223.34	-700.000
223.72	66.667
224.09	14.286
224.46	225.000
224.84	0.000
225.21	-28.571
225.59	36.364
225.96	-62.500
226.34	14.286
226.71	22.222
227.08	25.000
227.46	1000.000
227.83	28.571
228.21	-87.500
228.58	100.000
228.95	62.500
229.33	0.000
229.70	-260.000
230.08	100.000
230.45	41.667
230.82	16.667
231.20	200.000
231.57	-200.000
231.95	1000.000
232.32	104.762
232.69	11.111
233.07	-28.571
233.44	-50.000
233.81	13.333
234.19	-11.111
234.56	0.000
234.93	50.000
235.31	-28.571
235.68	-57.143
236.05	11.765
236.43	-31.818
236.80	29.032
237.17	20.833
237.55	19.048
237.92	-4.545
238.29	-11.429
238.67	47.059
239.04	22.222
239.41	-3.226
239.79	-20.513
240.16	-14.286
240.53	-1.818
240.91	12.821
241.28	12.727
241.65	23.077
242.02	6.557
242.40	-4.918
242.77	15.152
243.14	-15.254
243.51	-14.286
243.89	8.861
244.26	-6.742
244.63	20.000
245.00	3.158
245.38	10.169
245.75	9.735
246.12	16.000
246.49	4.724
246.87	4.878
247.24	6.780
247.61	7.627
247.98	4.225
248.36	7.692
248.73	5.696
249.10	3.822
249.47	9.942
249.84	6.818
250.22	-3.571
250.59	12.429
250.96	7.853
251.33	8.531
251.70	11.538
252.08	10.427
252.45	0.474
252.82	6.667
253.19	10.213
253.56	3.629
253.94	6.751
254.31	5.579
254.68	6.098
255.05	6.855
255.42	11.508
255.79	5.376
256.16	9.020
256.54	9.559
256.91	5.682
257.28	9.890
257.65	6.383
258.02	7.233
258.39	5.351
258.76	6.081
259.14	6.790
259.51	10.492
259.88	8.232
260.25	7.453
260.62	4.502
260.99	6.825
261.36	10.366
261.73	10.116
262.10	10.000
262.47	6.838
262.85	10.286
263.22	7.450
263.59	4.308
263.96	13.333
264.33	8.943
264.70	5.249
265.07	6.593
265.44	11.370
265.81	7.752
266.18	7.848
266.55	8.088
266.92	8.312
267.29	6.780
267.66	7.654
268.03	7.246
268.40	7.277
268.77	8.916
269.14	7.425
269.51	8.736
269.88	5.505
270.25	5.128
270.62	10.069
270.99	6.306
271.36	9.091
271.73	8.520
272.10	5.263
272.47	7.333
272.84	10.000
273.21	7.798
273.58	8.132
273.95	8.114
274.32	8.824
274.69	8.534
275.06	10.429
275.43	4.911
275.80	7.739
276.17	4.603
276.54	9.776
276.91	6.584
277.28	8.519
277.65	6.198
278.02	8.142
278.39	7.662
278.76	6.972
279.13	7.905
279.50	6.362
279.87	5.920
280.23	7.895
280.60	7.157
280.97	7.184
281.34	9.284
281.71	9.038
282.08	9.274
282.45	5.499
282.82	9.690
283.19	7.273
283.56	8.791
283.92	8.127
284.29	7.249
284.66	7.554
285.03	9.091
285.40	7.011
285.77	8.947
286.14	9.025
286.51	5.861
286.87	9.074
287.24	8.362
287.61	9.587
287.98	6.412
288.35	9.256
288.72	8.489
289.08	6.102
289.45	8.249
289.82	6.574
290.19	9.031
290.56	7.934
290.93	6.677
291.29	7.618
291.66	8.052
292.03	9.419
292.40	9.187
292.77	8.385
293.13	10.732
293.50	8.618
293.87	9.049
294.24	8.446
294.60	5.152
294.97	8.649
295.34	8.444
295.71	6.994
296.08	6.605
296.44	8.298
296.81	9.259
297.18	6.197
297.55	10.028
297.91	8.787
298.28	8.219
298.65	8.229
299.02	9.893
299.38	9.893
299.75	9.511
300.12	9.744
300.48	7.545
300.85	7.471
301.22	9.056
301.59	7.932
301.95	11.335
302.32	7.823
302.69	8.446
303.05	9.402
303.42	8.875
303.79	9.450
304.15	9.005
304.52	8.985
304.89	10.272
305.25	7.082
305.62	8.108
305.99	11.072
306.35	9.545
306.72	7.745
307.09	10.670
307.45	9.308
307.82	7.151
308.19	9.060
308.55	9.041
308.92	8.378
309.29	9.946
309.65	8.484
310.02	9.287
310.38	7.892
310.75	9.016
311.12	9.504
311.48	9.812
311.85	9.372
312.22	9.578
312.58	9.563
312.95	9.072
313.31	10.090
313.68	11.256
314.05	9.891
314.41	8.048
314.78	7.992
315.14	10.563
315.51	9.220
315.87	9.971
316.24	10.787
316.61	9.981
316.97	10.547
317.34	9.730
317.70	9.091
318.07	11.194
318.43	9.363
318.80	10.892
319.16	8.724
319.53	10.808
319.89	9.313
320.26	10.686
320.62	9.519
320.99	10.050
321.35	9.261
321.72	9.826
322.08	10.188
322.45	9.505
322.81	10.279
323.18	11.720
323.54	10.351
323.91	10.751
324.27	10.266
324.64	9.598
325.00	11.082
325.37	11.674
325.73	12.423
326.10	10.983
326.46	12.259
326.83	12.851
327.19	12.761
327.56	12.862
327.92	13.594
328.29	13.420
328.65	12.455
329.01	14.223
329.38	14.362
329.74	16.300
330.11	14.143
330.47	15.985
330.84	15.765
331.20	16.065
331.56	15.679
331.93	15.364
332.29	16.804
332.66	16.242
333.02	16.471
333.38	18.459
333.75	18.878
334.11	19.022
334.48	18.976
334.84	19.335
335.20	19.592
335.57	20.487
335.93	21.397
336.29	18.778
336.66	20.000
337.02	21.712
337.38	21.123
337.75	20.896
338.11	21.377
338.47	21.619
338.84	20.690
339.20	21.441
339.56	22.460
339.93	21.958
340.29	21.701
340.65	21.154
341.02	21.585
341.38	21.146
341.74	22.354
342.11	22.355
342.47	22.918
342.83	21.411
343.20	22.801
343.56	20.163
343.92	23.456
344.28	23.633
344.65	22.112
345.01	23.529
345.37	23.256
345.73	22.177
346.10	21.096
346.46	21.202
346.82	22.614
347.19	21.364
347.55	22.071
347.91	22.520
348.27	21.161
348.63	21.809
349.00	22.991
349.36	20.999
349.72	22.691
350.08	22.374
350.45	21.198
350.81	22.532
351.17	21.865
351.53	20.923
351.89	22.070
352.26	21.783
352.62	22.427
352.98	22.073
353.34	22.702
353.70	21.776
354.07	21.322
354.43	22.134
354.79	21.949
355.15	22.444
355.51	22.031
355.87	21.502
356.24	22.002
356.60	22.885
356.96	22.402
357.32	21.061
357.68	21.379
358.04	21.709
358.40	22.892
358.77	21.947
359.13	22.418
359.49	21.542
359.85	21.951
360.21	22.679
360.57	22.289
360.93	22.074
361.29	22.870
361.66	22.256
362.02	21.893
362.38	22.671
362.74	22.491
363.10	21.808
363.46	23.932
363.82	21.866
364.18	22.214
364.54	22.516
364.90	22.781
365.26	22.468
365.62	23.592
365.98	22.973
366.35	21.761
366.71	22.128
367.07	22.865
367.43	23.679
367.79	22.749
368.15	21.195
368.51	21.958
368.87	23.008
369.23	22.667
369.59	23.125
369.95	21.917
370.31	24.051
370.67	22.415
371.03	23.251
371.39	22.277
371.75	23.534
372.11	23.386
372.47	22.849
372.83	23.505
373.19	23.143
373.55	23.856
373.91	23.898
374.27	22.382
374.63	22.774
374.99	23.853
375.35	22.678
375.71	24.105
376.07	23.819
376.42	22.649
376.78	24.052
377.14	23.458
377.50	24.307
377.86	23.342
378.22	23.178
378.58	23.595
378.94	23.859
379.30	24.254
379.66	24.347
380.02	23.767
380.38	23.263
380.74	23.623
381.09	24.546
381.45	24.523
381.81	24.017
382.17	25.501
382.53	23.951
382.89	24.342
383.25	25.045
383.61	24.233
383.97	25.107
384.32	25.407
384.68	24.909
385.04	23.792
385.40	24.102
385.76	24.695
386.12	24.859
386.48	25.495
386.83	25.215
387.19	26.001
387.55	25.318
387.91	25.252
388.27	24.487
388.62	24.820
388.98	25.560
389.34	24.541
389.70	25.030
390.06	24.798
390.42	25.321
390.77	24.227
391.13	25.901
391.49	25.140
391.85	25.873
392.20	24.818
392.56	24.740
392.92	24.701
393.28	25.258
393.64	24.835
393.99	24.431
394.35	24.635
394.71	24.521
395.07	25.800
395.42	24.136
395.78	24.701
396.14	25.857
396.50	24.954
396.85	24.738
397.21	24.484
397.57	25.046
397.92	24.473
398.28	25.556
398.64	25.402
399.00	25.281
399.35	24.126
399.71	25.319
400.07	24.418
400.42	24.331
400.78	24.329
401.14	24.910
401.49	24.175
401.85	24.100
402.21	24.553
402.57	24.211
402.92	24.670
403.28	23.897
403.63	23.787
403.99	24.549
404.35	24.457
404.70	24.166
405.06	24.279
405.42	24.108
405.77	24.038
406.13	23.225
406.49	23.907
406.84	24.415
407.20	24.617
407.55	23.749
407.91	24.547
408.27	24.387
408.62	23.933
408.98	24.439
409.34	23.157
409.69	24.512
410.05	24.560
410.40	24.218
410.76	23.948
411.11	23.317
411.47	23.785
411.83	23.961
412.18	24.010
412.54	23.978
412.89	23.451
413.25	22.727
413.60	23.147
413.96	22.181
414.31	24.037
414.67	23.873
415.03	23.674
415.38	23.292
415.74	23.711
416.09	23.721
416.45	23.280
416.80	24.317
417.16	24.252
417.51	23.506
417.87	23.819
418.22	23.578
418.58	24.390
418.93	24.157
419.29	23.839
419.64	23.869
420.00	24.848
420.35	25.251
420.71	24.190
421.06	24.379
421.42	23.770
421.77	23.618
422.12	24.398
422.48	23.624
422.83	24.943
423.19	24.666
423.54	25.014
423.90	24.928
424.25	24.943
424.61	25.392
424.96	25.688
425.31	24.483
425.67	25.731
426.02	24.096
426.38	26.074
426.73	24.898
427.09	25.613
427.44	25.114
427.79	25.058
428.15	25.314
428.50	25.689
428.85	25.480
429.21	25.955
429.56	25.365
429.92	26.102
430.27	25.374
430.62	26.071
430.98	25.771
431.33	25.880
431.68	26.166
432.04	25.909
432.39	26.838
432.74	26.619
433.10	26.393
433.45	26.079
433.80	26.876
434.16	26.169
434.51	26.849
434.86	26.655
435.22	26.336
435.57	26.499
435.92	26.788
436.28	26.409
436.63	27.360
436.98	26.002
437.34	27.230
437.69	26.021
438.04	27.510
438.39	27.316
438.75	26.950
439.10	26.541
439.45	27.097
439.81	27.048
440.16	26.917
440.51	26.941
440.86	26.836
441.22	26.368
441.57	26.526
441.92	26.854
442.27	26.623
442.63	26.556
442.98	27.201
443.33	27.348
443.68	27.358
444.03	28.242
444.39	27.655
444.74	27.148
445.09	27.467
445.44	27.349
445.79	27.486
446.15	28.094
446.50	27.109
446.85	27.450
447.20	27.017
447.55	27.403
447.91	28.018
448.26	27.263
448.61	28.353
448.96	28.011
449.31	28.410
449.66	28.449
450.02	27.258
450.37	26.609
450.72	28.136
451.07	28.096
451.42	27.943
451.77	27.828
452.12	27.592
452.47	28.212
452.83	28.014
453.18	27.894
453.53	28.358
453.88	28.289
454.23	27.751
454.58	29.211
454.93	28.023
455.28	27.788
455.63	28.378
455.98	28.675
456.34	28.780
456.69	29.018
457.04	28.519
457.39	27.871
457.74	28.766
458.09	29.234
458.44	28.580
458.79	28.195
459.14	29.093
459.49	29.070
459.84	28.555
460.19	28.401
460.54	27.526
460.89	28.587
461.24	28.233
461.59	28.195
461.94	28.835
462.29	29.541
462.64	28.195
462.99	29.451
463.34	28.022
463.69	27.990
464.04	28.178
464.39	27.658
464.74	28.191
465.09	28.984
465.44	28.426
465.79	29.160
466.14	29.689
466.49	28.037
466.84	29.352
467.19	28.491
467.54	28.038
467.89	28.483
468.24	29.038
468.59	27.983
468.94	29.389
469.29	28.200
469.64	29.515
469.99	29.102
470.34	28.925
470.68	27.980
471.03	30.351
471.38	28.681
471.73	29.650
472.08	28.648
472.43	29.215
472.78	29.667
473.13	29.158
473.48	29.164
473.83	29.218
474.17	28.917
474.52	30.115
474.87	29.662
475.22	29.676
475.57	28.333
475.92	29.590
476.27	28.057
476.61	29.127
476.96	29.011
477.31	28.902
477.66	28.888
478.01	29.930
478.36	28.497
478.70	29.578
479.05	28.772
479.40	29.378
479.75	29.205
480.10	29.167
480.45	29.304
480.79	28.924
481.14	28.249
481.49	29.719
481.84	28.941
482.19	28.872
482.53	28.930
482.88	29.188
483.23	29.296
483.58	29.880
483.92	28.858
484.27	28.578
484.62	28.898
484.97	28.371
485.31	28.736
485.66	27.762
486.01	27.151
486.36	27.582
486.70	28.184
487.05	27.633
487.40	28.285
487.75	28.523
488.09	28.258
488.44	28.890
488.79	28.369
489.13	28.756
489.48	29.772
489.83	30.000
490.17	29.256
490.52	30.254
490.87	29.885
491.22	30.033
491.56	29.120
491.91	29.914
492.26	29.623
492.60	30.114
492.95	29.843
493.30	29.824
493.64	29.572
493.99	29.063
494.34	29.952
494.68	30.290
495.03	29.398
495.37	29.597
495.72	29.617
496.07	30.596
496.41	29.551
496.76	29.269
497.11	29.816
497.45	29.310
497.80	29.965
498.14	29.961
498.49	29.985
498.84	29.854
499.18	29.386
499.53	31.076
499.87	29.730
500.22	30.392
500.56	30.265
500.91	29.852
501.26	29.791
501.60	30.284
501.95	30.338
502.29	29.854
502.64	30.080
502.98	29.756
503.33	30.028
503.67	29.598
504.02	30.372
504.36	29.951
504.71	29.889
505.06	30.205
505.40	30.589
505.75	29.624
506.09	30.131
506.44	29.975
506.78	29.955
507.13	29.609
507.47	31.247
507.82	30.872
508.16	30.674
508.51	30.191
508.85	29.762
509.19	29.827
509.54	30.021
509.88	30.851
510.23	30.660
510.57	30.317
510.92	30.827
511.26	29.133
511.61	29.644
511.95	29.688
512.30	30.786
512.64	28.993
512.98	31.078
513.33	30.368
513.67	29.927
514.02	29.586
514.36	30.914
514.70	30.900
515.05	30.875
515.39	30.565
515.74	30.308
516.08	31.182
516.42	30.878
516.77	31.774
517.11	30.950
517.46	31.400
517.80	30.927
518.14	30.556
518.49	30.723
518.83	29.792
519.17	30.669
519.52	30.249
519.86	30.585
520.20	30.257
520.55	31.692
520.89	29.618
521.23	31.319
521.58	30.658
521.92	30.969
522.26	30.857
522.61	30.418
522.95	30.759
523.29	31.223
523.64	29.981
523.98	29.981
524.32	30.798
524.66	30.124
525.01	30.700
525.35	31.765
525.69	31.165
526.04	32.245
526.38	30.872
526.72	31.162
527.06	30.990
527.41	30.825
527.75	29.967
528.09	30.443
528.43	31.016
528.78	31.093
529.12	32.266
529.46	30.670
529.80	31.375
530.15	30.457
530.49	30.724
530.83	32.155
531.17	31.987
531.51	30.007
531.86	30.941
532.20	31.377
532.54	31.484
532.88	31.094
533.22	30.214
533.57	31.462
533.91	29.526
534.25	30.421
534.59	30.356
534.93	29.745
535.27	30.900
535.62	30.882
535.96	30.058
536.30	31.086
536.64	30.677
536.98	31.709
537.32	30.822
537.66	31.025
538.01	30.172
538.35	31.824
538.69	31.016
539.03	30.873
539.37	31.005
539.71	30.420
540.05	30.226
540.39	30.471
540.73	30.822
541.07	30.396
541.42	29.777
541.76	30.365
542.10	30.993
542.44	30.713
542.78	29.376
543.12	30.686
543.46	30.548
543.80	29.498
544.14	30.826
544.48	30.315
544.82	30.717
545.16	30.584
545.50	29.677
545.84	30.598
546.18	30.860
546.52	31.437
546.86	30.413
547.20	31.153
547.54	30.234
547.88	31.121
548.22	29.489
548.56	29.526
548.90	31.739
549.24	29.783
549.58	30.416
549.92	30.742
550.26	30.347
550.60	30.299
550.94	30.949
551.28	31.527
551.62	30.059
551.96	31.114
552.30	29.617
552.64	29.697
552.98	30.904
553.32	30.519
553.66	30.786
554.00	31.130
554.34	30.253
554.68	30.482
555.02	29.595
555.36	29.260
555.69	30.444
556.03	31.088
556.37	31.152
556.71	31.138
557.05	31.116
557.39	30.141
557.73	30.562
558.07	30.445
558.41	30.217
558.75	31.255
559.08	29.961
559.42	30.858
559.76	30.215
560.10	30.947
560.44	30.347
560.78	30.132
561.12	30.159
561.45	29.795
561.79	30.871
562.13	30.645
562.47	30.742
562.81	29.915
563.15	29.881
563.48	30.615
563.82	30.696
564.16	30.426
564.50	30.242
564.84	29.630
565.17	29.443
565.51	30.052
565.85	30.832
566.19	31.094
566.52	30.137
566.86	30.405
567.20	30.932
567.54	30.715
567.88	29.704
568.21	29.810
568.55	29.374
568.89	28.777
569.23	28.413
569.56	27.449
569.90	27.655
570.24	27.621
570.57	27.733
570.91	27.202
571.25	27.562
571.59	27.193
571.92	26.964
572.26	26.783
572.60	26.838
572.93	27.253
573.27	27.134
573.61	26.556
573.95	26.663
574.28	25.997
574.62	26.360
574.96	26.221
575.29	26.296
575.63	26.653
575.97	26.052
576.30	26.774
576.64	26.449
576.98	26.300
577.31	26.079
577.65	26.280
577.98	25.991
578.32	26.268
578.66	25.868
578.99	25.675
579.33	26.024
579.67	25.970
580.00	26.513
580.34	26.468
580.67	26.404
581.01	25.503
581.35	26.068
581.68	25.668
582.02	25.941
582.35	26.062
582.69	26.182
583.02	26.282
583.36	26.168
583.70	26.114
584.03	26.940
584.37	26.847
584.70	26.883
585.04	26.759
585.37	25.800
585.71	26.149
586.04	26.368
586.38	25.795
586.72	26.945
587.05	26.678
587.39	26.332
587.72	26.175
588.06	26.713
588.39	26.915
588.73	26.856
589.06	26.790
589.40	27.619
589.73	26.877
590.07	27.094
590.40	27.306
590.73	27.229
591.07	27.746
591.40	28.510
591.74	27.976
592.07	28.514
592.41	27.134
592.74	26.787
593.08	27.360
593.41	26.974
593.75	26.937
594.08	27.067
594.41	27.948
594.75	27.633
595.08	27.331
595.42	27.529
595.75	27.196
596.09	28.056
596.42	27.496
596.75	27.296
597.09	28.183
597.42	27.150
597.75	27.635
598.09	27.113
598.42	28.237
598.76	27.741
599.09	26.914
599.42	27.451
599.76	27.067
600.09	28.168
600.42	26.965
600.76	27.006
601.09	26.168
601.42	26.553
601.76	27.336
602.09	27.894
602.42	27.119
602.76	27.794
603.09	27.339
603.42	27.317
603.76	27.643
604.09	27.113
604.42	26.811
604.76	28.085
605.09	27.034
605.42	28.014
605.75	27.469
606.09	26.318
606.42	27.021
606.75	26.921
607.09	27.525
607.42	27.949
607.75	28.212
608.08	28.197
608.42	28.335
608.75	27.430
609.08	28.008
609.41	28.052
609.75	27.548
610.08	28.382
610.41	27.373
610.74	27.805
611.07	28.448
611.41	27.887
611.74	27.712
612.07	29.108
612.40	28.092
612.73	28.002
613.07	27.683
613.40	28.571
613.73	27.956
614.06	27.622
614.39	28.805
614.72	27.095
615.06	27.826
615.39	28.486
615.72	28.083
616.05	27.443
616.38	28.439
616.71	28.589
617.05	28.589
617.38	28.545
617.71	28.563
618.04	28.137
618.37	27.925
618.70	29.140
619.03	28.436
619.36	30.303
619.69	29.648
620.03	28.719
620.36	28.762
620.69	29.361
621.02	29.604
621.35	30.000
621.68	29.918
622.01	29.369
622.34	30.202
622.67	28.828
623.00	28.539
623.33	30.672
623.66	28.656
623.99	29.098
624.32	28.497
624.65	29.801
624.99	29.126
625.32	28.892
625.65	29.604
625.98	28.951
626.31	28.793
626.64	29.874
626.97	29.538
627.30	29.532
627.63	29.965
627.96	29.591
628.29	30.331
628.62	30.372
628.95	31.791
629.28	30.451
629.61	30.226
629.94	31.569
630.26	30.915
630.59	31.960
630.92	31.732
631.25	32.460
631.58	31.323
631.91	30.106
632.24	31.556
632.57	31.778
632.90	32.529
633.23	30.724
633.56	31.111
633.89	32.783
634.22	30.342
634.55	31.611
634.88	29.504
635.20	29.838
635.53	31.298
635.86	32.494
636.19	30.647
636.52	31.900
636.85	30.806
637.18	28.625
637.51	31.599
637.83	33.156
