SpectraSuite Data File
++++++++++++++++++++++++++++++++++++
Date: Sat May 16 11:11:05 PDT 2015
User: schluterlab
Dark Spectrum Present: Yes
Reference Spectrum Present: Yes
Number of Sampled Component Spectra: 1
Spectrometers: USB2E3373
Integration Time (usec): 3000 (USB2E3373)
Spectra Averaged: 3 (USB2E3373)
Boxcar Smoothing: 0 (USB2E3373)
Correct for Electrical Dark: No (USB2E3373)
Strobe/Lamp Enabled: No (USB2E3373)
Correct for Detector Non-linearity: No (USB2E3373)
Correct for Stray Light: No (USB2E3373)
Number of Pixels in Processed Spectrum: 2048
>>>>>Begin Processed Spectral Data<<<<<
178.53	0.000
178.91	33.333
179.29	266.667
179.67	-300.000
180.04	-30.769
180.42	-300.000
180.80	-225.000
181.18	325.000
181.56	-25.000
181.94	100.000
182.31	200.000
182.69	-30.769
183.07	-233.333
183.45	1050.000
183.83	566.667
184.20	-28.571
184.58	-25.000
184.96	-150.000
185.34	68.750
185.72	-225.000
186.09	-33.333
186.47	-37.500
186.85	-12.500
187.23	12.500
187.61	-175.000
187.98	-237.500
188.36	-100.000
188.74	37.500
189.12	1000.000
189.49	157.143
189.87	-75.000
190.25	75.000
190.63	42.857
191.00	-44.444
191.38	180.000
191.76	33.333
192.14	180.000
192.51	20.000
192.89	-466.667
193.27	0.000
193.65	-55.556
194.02	-71.429
194.40	333.333
194.78	-50.000
195.15	-700.000
195.53	-27.273
195.91	-266.667
196.29	-60.000
196.66	-300.000
197.04	1400.000
197.42	0.000
197.79	93.333
198.17	-33.333
198.55	-100.000
198.92	-1300.000
199.30	150.000
199.68	-150.000
200.05	0.000
200.43	44.444
200.81	0.000
201.18	-50.000
201.56	142.857
201.94	-20.000
202.31	63.636
202.69	40.000
203.07	40.000
203.44	366.667
203.82	-150.000
204.19	-325.000
204.57	150.000
204.95	-300.000
205.32	43.750
205.70	400.000
206.08	-1400.000
206.45	33.333
206.83	-600.000
207.20	50.000
207.58	-166.667
207.96	-266.667
208.33	-137.500
208.71	100.000
209.08	180.000
209.46	-200.000
209.84	500.000
210.21	0.000
210.59	25.000
210.96	-0.000
211.34	-200.000
211.71	-433.333
212.09	200.000
212.46	800.000
212.84	-1200.000
213.22	600.000
213.59	83.333
213.97	-33.333
214.34	-80.000
214.72	-100.000
215.09	-100.000
215.47	133.333
215.84	50.000
216.22	50.000
216.59	26.667
216.97	-375.000
217.34	950.000
217.72	14.286
218.09	-150.000
218.47	-71.429
218.84	185.714
219.22	85.714
219.59	0.000
219.97	42.857
220.34	100.000
220.72	50.000
221.09	-30.769
221.47	0.000
221.84	333.333
222.22	-150.000
222.59	-200.000
222.97	-137.500
223.34	-350.000
223.72	-200.000
224.09	7.143
224.46	-75.000
224.84	35.714
225.21	42.857
225.59	0.000
225.96	-112.500
226.34	-57.143
226.71	-44.444
227.08	5.000
227.46	1100.000
227.83	-57.143
228.21	-100.000
228.58	100.000
228.95	-12.500
229.33	700.000
229.70	-100.000
230.08	-600.000
230.45	25.000
230.82	-66.667
231.20	-200.000
231.57	150.000
231.95	1000.000
232.32	4.762
232.69	55.556
233.07	-214.286
233.44	-500.000
233.81	26.667
234.19	88.889
234.56	-6.250
234.93	34.375
235.31	-114.286
235.68	-50.000
236.05	-23.529
236.43	-31.818
236.80	-16.129
237.17	12.500
237.55	0.000
237.92	-54.545
238.29	5.714
238.67	0.000
239.04	11.111
239.41	-19.355
239.79	-23.077
240.16	-14.286
240.53	-14.545
240.91	7.692
241.28	18.182
241.65	15.385
242.02	18.033
242.40	-8.197
242.77	3.030
243.14	-11.864
243.51	-4.286
243.89	-6.329
244.26	-3.371
244.63	3.158
245.00	6.316
245.38	13.559
245.75	10.619
246.12	0.000
246.49	4.724
246.87	-5.691
247.24	2.542
247.61	-7.627
247.98	0.704
248.36	0.699
248.73	3.165
249.10	-2.548
249.47	0.585
249.84	3.977
250.22	1.786
250.59	8.475
250.96	1.047
251.33	3.791
251.70	10.096
252.08	4.265
252.45	2.370
252.82	-3.810
253.19	4.681
253.56	0.806
253.94	2.954
254.31	0.000
254.68	2.846
255.05	-3.629
255.42	5.952
255.79	0.358
256.16	1.569
256.54	5.147
256.91	-2.273
257.28	-0.366
257.65	0.000
258.02	3.774
258.39	1.672
258.76	0.676
259.14	1.852
259.51	1.311
259.88	3.354
260.25	3.416
260.62	0.000
260.99	-0.593
261.36	5.488
261.73	4.335
262.10	6.111
262.47	0.570
262.85	4.000
263.22	3.438
263.59	0.308
263.96	4.348
264.33	2.439
264.70	4.972
265.07	2.473
265.44	3.359
265.81	2.067
266.18	1.013
266.55	-0.245
266.92	5.038
267.29	2.179
267.66	1.975
268.03	3.865
268.40	3.286
268.77	0.723
269.14	2.552
269.51	4.138
269.88	0.459
270.25	0.000
270.62	-0.458
270.99	4.505
271.36	5.594
271.73	3.587
272.10	2.288
272.47	2.889
272.84	4.444
273.21	2.752
273.58	4.615
273.95	3.509
274.32	2.715
274.69	5.689
275.06	2.454
275.43	1.339
275.80	4.277
276.17	2.092
276.54	5.906
276.91	1.646
277.28	3.448
277.65	3.926
278.02	3.340
278.39	3.143
278.76	0.598
279.13	5.929
279.50	3.380
279.87	2.960
280.23	3.239
280.60	0.000
280.97	1.553
281.34	1.741
281.71	3.269
282.08	4.032
282.45	2.037
282.82	3.876
283.19	4.364
283.56	5.495
283.92	2.473
284.29	1.115
284.66	3.777
285.03	3.209
285.40	2.768
285.77	4.035
286.14	4.332
286.51	2.309
286.87	2.722
287.24	3.242
287.61	3.140
287.98	3.640
288.35	3.140
288.72	3.226
289.08	1.186
289.45	3.872
289.82	2.941
290.19	5.583
290.56	1.488
290.93	3.339
291.29	2.593
291.66	3.382
292.03	4.082
292.40	3.464
292.77	3.727
293.13	4.390
293.50	4.309
293.87	3.374
294.24	2.866
294.60	3.485
294.97	5.159
295.34	1.185
295.71	3.720
296.08	0.768
296.44	3.004
296.81	2.849
297.18	3.662
297.55	3.107
297.91	4.603
298.28	3.562
298.65	4.324
299.02	4.947
299.38	3.075
299.75	2.446
300.12	3.205
300.48	4.604
300.85	2.359
301.22	4.657
301.59	3.121
301.95	5.290
302.32	2.347
302.69	4.774
303.05	3.175
303.42	2.625
303.79	3.708
304.15	4.384
304.52	4.434
304.89	4.368
305.25	3.907
305.62	3.408
305.99	5.065
306.35	5.327
306.72	5.353
307.09	4.540
307.45	3.746
307.82	3.799
308.19	5.705
308.55	4.684
308.92	3.759
309.29	5.189
309.65	4.348
310.02	5.616
310.38	3.351
310.75	5.533
311.12	7.335
311.48	6.054
311.85	5.458
312.22	5.355
312.58	6.612
312.95	5.505
313.31	6.893
313.68	7.538
314.05	7.517
314.41	6.539
314.78	6.394
315.14	6.713
315.51	7.700
315.87	7.551
316.24	7.289
316.61	8.061
316.97	7.463
317.34	7.900
317.70	7.607
318.07	8.769
318.43	9.176
318.80	9.577
319.16	7.036
319.53	8.929
319.89	8.937
320.26	9.118
320.62	7.885
320.99	9.552
321.35	8.473
321.72	9.212
322.08	11.672
322.45	9.901
322.81	9.702
323.18	11.335
323.54	10.998
323.91	10.751
324.27	11.027
324.64	11.152
325.00	10.122
325.37	12.217
325.73	12.248
326.10	10.186
326.46	12.960
326.83	11.489
327.19	12.260
327.56	12.777
327.92	12.914
328.29	13.680
328.65	11.636
329.01	13.251
329.38	12.846
329.74	13.553
330.11	12.239
330.47	13.079
330.84	13.932
331.20	12.996
331.56	13.036
331.93	13.144
332.29	12.694
332.66	14.399
333.02	12.217
333.38	12.903
333.75	13.357
334.11	13.244
334.48	13.327
334.84	13.998
335.20	13.652
335.57	14.350
335.93	16.294
336.29	13.906
336.66	12.423
337.02	14.414
337.38	14.617
337.75	13.082
338.11	14.401
338.47	13.345
338.84	14.065
339.20	13.357
339.56	13.636
339.93	14.638
340.29	12.666
340.65	12.937
341.02	13.491
341.38	13.732
341.74	14.056
342.11	13.737
342.47	13.391
342.83	13.434
343.20	12.980
343.56	12.490
343.92	14.023
344.28	13.877
344.65	12.871
345.01	13.193
345.37	13.704
345.73	12.275
346.10	12.020
346.46	12.591
346.82	12.510
347.19	12.490
347.55	12.841
347.91	14.252
348.27	12.808
348.63	14.055
349.00	13.524
349.36	12.959
349.72	14.092
350.08	12.670
350.45	11.978
350.81	12.818
351.17	12.058
351.53	12.570
351.89	12.854
352.26	13.023
352.62	13.594
352.98	12.658
353.34	13.349
353.70	11.429
354.07	13.533
354.43	13.123
354.79	13.074
355.15	12.300
355.51	12.031
355.87	12.569
356.24	12.708
356.60	13.054
356.96	13.087
357.32	12.431
357.68	11.648
358.04	12.548
358.40	11.756
358.77	12.983
359.13	13.466
359.49	12.774
359.85	13.338
360.21	12.177
360.57	13.102
360.93	13.259
361.29	12.780
361.66	11.052
362.02	13.018
362.38	12.472
362.74	12.821
363.10	12.123
363.46	13.604
363.82	13.557
364.18	12.735
364.54	13.867
364.90	12.299
365.26	12.910
365.62	12.616
365.98	13.229
366.35	12.465
366.71	12.685
367.07	12.915
367.43	13.384
367.79	12.784
368.15	11.664
368.51	13.497
368.87	12.706
369.23	13.053
369.59	13.819
369.95	13.460
370.31	13.643
370.67	13.232
371.03	12.828
371.39	12.306
371.75	14.020
372.11	12.841
372.47	13.015
372.83	13.700
373.19	13.429
373.55	13.582
373.91	12.945
374.27	12.252
374.63	13.182
374.99	13.282
375.35	12.786
375.71	14.787
376.07	14.168
376.42	12.848
376.78	14.314
377.14	13.492
377.50	13.411
377.86	13.069
378.22	13.568
378.58	12.847
378.94	13.194
379.30	13.772
379.66	14.026
380.02	13.488
380.38	13.716
380.74	13.599
381.09	13.357
381.45	13.842
381.81	13.854
382.17	13.409
382.53	13.374
382.89	13.517
383.25	14.329
383.61	13.620
383.97	14.513
384.32	13.830
384.68	13.966
385.04	13.466
385.40	13.755
385.76	14.451
386.12	13.304
386.48	14.604
386.83	13.681
387.19	14.405
387.55	14.173
387.91	13.574
388.27	12.666
388.62	14.303
388.98	14.537
389.34	13.158
389.70	14.555
390.06	14.046
390.42	13.782
390.77	14.574
391.13	15.901
391.49	15.159
391.85	14.900
392.20	14.138
392.56	14.539
392.92	13.292
393.28	14.638
393.64	14.552
393.99	15.323
394.35	15.085
394.71	13.774
395.07	14.062
395.42	13.707
395.78	14.833
396.14	14.642
396.50	14.373
396.85	14.004
397.21	15.128
397.57	15.076
397.92	14.696
398.28	15.000
398.64	14.813
399.00	15.337
399.35	14.543
399.71	15.099
400.07	14.866
400.42	15.207
400.78	15.086
401.14	14.671
401.49	14.623
401.85	14.643
402.21	15.316
402.57	15.109
402.92	15.356
403.28	15.012
403.63	14.620
403.99	16.035
404.35	15.278
404.70	14.804
405.06	14.879
405.42	14.514
405.77	14.197
406.13	14.424
406.49	14.679
406.84	15.057
407.20	14.959
407.55	14.946
407.91	14.249
408.27	15.870
408.62	14.672
408.98	15.221
409.34	14.747
409.69	14.430
410.05	15.767
410.40	15.144
410.76	14.878
411.11	15.399
411.47	14.706
411.83	15.709
412.18	15.161
412.54	14.643
412.89	15.128
413.25	14.817
413.60	14.581
413.96	15.096
414.31	15.107
414.67	14.540
415.03	14.942
415.38	15.745
415.74	15.013
416.09	15.409
416.45	14.683
416.80	15.800
417.16	15.083
417.51	16.546
417.87	15.469
418.22	14.791
418.58	16.046
418.93	15.635
419.29	15.872
419.64	15.515
420.00	15.310
420.35	15.671
420.71	15.366
421.06	15.740
421.42	15.222
421.77	16.806
422.12	15.669
422.48	16.462
422.83	15.831
423.19	16.036
423.54	16.023
423.90	15.269
424.25	15.158
424.61	16.405
424.96	16.735
425.31	15.819
425.67	15.759
426.02	15.548
426.38	16.455
426.73	15.430
427.09	15.809
427.44	16.648
427.79	16.163
428.15	16.996
428.50	16.422
428.85	16.007
429.21	16.104
429.56	16.042
429.92	15.731
430.27	16.251
430.62	15.831
430.98	16.623
431.33	16.542
431.68	16.783
432.04	16.956
432.39	16.809
432.74	16.427
433.10	16.151
433.45	15.717
433.80	15.957
434.16	16.174
434.51	15.507
434.86	17.340
435.22	16.704
435.57	16.524
435.92	16.882
436.28	17.092
436.63	16.280
436.98	16.667
437.34	16.598
437.69	17.036
438.04	16.336
438.39	16.787
438.75	16.705
439.10	17.268
439.45	16.838
439.81	16.807
440.16	16.411
440.51	16.941
440.86	16.599
441.22	15.976
441.57	16.684
441.92	17.136
442.27	16.829
442.63	17.275
442.98	16.253
443.33	16.255
443.68	16.363
444.03	17.092
444.39	17.083
444.74	17.181
445.09	17.160
445.44	17.276
445.79	16.777
446.15	17.579
446.50	16.004
446.85	17.394
447.20	17.160
447.55	16.796
447.91	17.125
448.26	17.039
448.61	16.582
448.96	17.367
449.31	17.362
449.66	17.058
450.02	16.620
450.37	16.000
450.72	17.062
451.07	17.159
451.42	16.543
451.77	16.697
452.12	16.985
452.47	18.136
452.83	17.414
453.18	17.647
453.53	16.915
453.88	18.062
454.23	15.780
454.58	17.837
454.93	18.262
455.28	16.826
455.63	18.059
455.98	18.554
456.34	16.328
456.69	17.323
457.04	18.070
457.39	17.464
457.74	17.247
458.09	17.807
458.44	17.494
458.79	17.433
459.14	17.570
459.49	17.999
459.84	17.144
460.19	17.780
460.54	16.939
460.89	17.040
461.24	17.608
461.59	17.585
461.94	17.314
462.29	17.689
462.64	18.050
462.99	17.871
463.34	16.678
463.69	17.239
464.04	16.344
464.39	16.487
464.74	16.785
465.09	16.777
465.44	16.920
465.79	17.710
466.14	17.837
466.49	17.386
466.84	17.587
467.19	18.080
467.54	15.823
467.89	17.879
468.24	17.340
468.59	17.926
468.94	17.556
469.29	16.764
469.64	17.520
469.99	17.623
470.34	16.633
470.68	19.041
471.03	17.688
471.38	16.111
471.73	18.252
472.08	17.470
472.43	16.988
472.78	17.067
473.13	16.501
473.48	17.230
473.83	17.680
474.17	17.197
474.52	18.478
474.87	18.415
475.22	17.050
475.57	16.389
475.92	17.657
476.27	17.257
476.61	16.845
476.96	17.216
477.31	17.707
477.66	17.930
478.01	17.720
478.36	17.339
478.70	16.925
479.05	17.631
479.40	17.565
479.75	16.871
480.10	17.758
480.45	16.876
480.79	17.374
481.14	17.511
481.49	17.764
481.84	17.291
482.19	17.360
482.53	17.235
482.88	16.137
483.23	17.465
483.58	18.178
483.92	17.296
484.27	16.748
484.62	17.063
484.97	17.069
485.31	16.800
485.66	16.621
486.01	16.581
486.36	17.063
486.70	17.379
487.05	16.833
487.40	17.014
487.75	16.985
488.09	16.708
488.44	16.847
488.79	16.696
489.13	17.269
489.48	17.945
489.83	16.943
490.17	17.545
490.52	17.255
490.87	16.721
491.22	17.001
491.56	16.898
491.91	17.176
492.26	16.745
492.60	17.079
492.95	16.897
493.30	16.627
493.64	16.784
493.99	17.543
494.34	16.476
494.68	17.275
495.03	17.208
495.37	16.814
495.72	16.945
496.07	16.987
496.41	17.508
496.76	17.078
497.11	16.863
497.45	18.008
497.80	17.059
498.14	16.994
498.49	16.323
498.84	16.214
499.18	17.349
499.53	17.243
499.87	16.506
500.22	16.912
500.56	16.408
500.91	17.241
501.26	17.225
501.60	16.418
501.95	17.295
502.29	16.155
502.64	17.303
502.98	16.770
503.33	16.870
503.67	16.571
504.02	16.707
504.36	17.010
504.71	16.565
505.06	16.276
505.40	17.066
505.75	16.108
506.09	16.936
506.44	16.992
506.78	17.010
507.13	16.478
507.47	16.693
507.82	17.450
508.16	17.461
508.51	16.795
508.85	16.356
509.19	16.536
509.54	16.966
509.88	16.809
510.23	16.509
510.57	17.460
510.92	16.864
511.26	16.640
511.61	15.875
511.95	15.841
512.30	17.592
512.64	16.194
512.98	17.272
513.33	16.859
513.67	16.527
514.02	17.170
514.36	16.620
514.70	16.412
515.05	16.867
515.39	15.744
515.74	17.336
516.08	17.176
516.42	17.280
516.77	16.927
517.11	16.419
517.46	17.165
517.80	17.268
518.14	16.123
518.49	16.139
518.83	15.905
519.17	17.407
519.52	16.310
519.86	16.487
520.20	17.054
520.55	16.246
520.89	15.529
521.23	17.155
521.58	16.803
521.92	16.593
522.26	16.635
522.61	16.350
522.95	16.018
523.29	16.238
523.64	17.052
523.98	16.932
524.32	16.279
524.66	15.280
525.01	15.671
525.35	17.461
525.69	15.420
526.04	16.319
526.38	16.805
526.72	16.220
527.06	16.081
527.41	16.502
527.75	15.908
528.09	16.545
528.43	16.393
528.78	16.960
529.12	16.517
529.46	16.173
529.80	16.527
530.15	16.613
530.49	15.395
530.83	17.158
531.17	16.566
531.51	16.209
531.86	16.458
532.20	16.329
532.54	16.444
532.88	16.469
533.22	16.578
533.57	16.449
533.91	16.042
534.25	15.839
534.59	15.678
534.93	15.308
535.27	15.922
535.62	16.496
535.96	15.772
536.30	14.987
536.64	16.534
536.98	15.042
537.32	16.102
537.66	16.225
538.01	15.326
538.35	15.946
538.69	15.709
539.03	15.572
539.37	16.500
539.71	16.011
540.05	14.873
540.39	16.413
540.73	16.586
541.07	15.847
541.42	14.652
541.76	16.346
542.10	16.408
542.44	16.123
542.78	15.943
543.12	16.158
543.46	14.384
543.80	15.920
544.14	16.118
544.48	16.601
544.82	15.968
545.16	15.359
545.50	14.939
545.84	16.134
546.18	16.505
546.52	16.145
546.86	15.741
547.20	15.471
547.54	15.014
547.88	16.125
548.22	15.531
548.56	15.097
548.90	15.970
549.24	16.258
549.58	15.455
549.92	15.053
550.26	16.546
550.60	15.647
550.94	14.745
551.28	16.253
551.62	14.623
551.96	15.702
552.30	16.028
552.64	15.764
552.98	16.118
553.32	14.863
553.66	15.357
554.00	15.920
554.34	15.018
554.68	15.863
555.02	15.919
555.36	14.738
555.69	15.759
556.03	15.509
556.37	15.292
556.71	15.891
557.05	15.965
557.39	15.442
557.73	16.703
558.07	15.373
558.41	16.156
558.75	15.741
559.08	13.774
559.42	15.773
559.76	15.337
560.10	15.511
560.44	15.824
560.78	15.518
561.12	16.011
561.45	15.959
561.79	15.610
562.13	15.288
562.47	15.686
562.81	15.134
563.15	15.465
563.48	15.342
563.82	15.010
564.16	15.213
564.50	15.927
564.84	15.212
565.17	15.650
565.51	14.928
565.85	15.957
566.19	15.810
566.52	15.460
566.86	15.424
567.20	15.860
567.54	15.535
567.88	14.908
568.21	15.324
568.55	14.687
568.89	14.712
569.23	15.317
569.56	14.712
569.90	15.539
570.24	15.182
570.57	14.728
570.91	14.825
571.25	15.045
571.59	15.173
571.92	15.446
572.26	14.530
572.60	14.645
572.93	14.525
573.27	14.543
573.61	14.167
573.95	14.556
574.28	14.992
574.62	14.870
574.96	14.457
575.29	14.609
575.63	14.946
575.97	14.132
576.30	14.333
576.64	14.726
576.98	14.755
577.31	14.422
577.65	14.918
577.98	14.490
578.32	14.502
578.66	14.570
578.99	14.712
579.33	14.645
579.67	14.608
580.00	14.534
580.34	14.237
580.67	14.857
581.01	14.282
581.35	14.622
581.68	14.389
582.02	14.595
582.35	14.466
582.69	14.530
583.02	14.943
583.36	14.633
583.70	14.772
584.03	15.005
584.37	14.479
584.70	14.592
585.04	14.203
585.37	14.129
585.71	14.780
586.04	14.260
586.38	14.248
586.72	14.825
587.05	14.528
587.39	14.586
587.72	14.786
588.06	15.158
588.39	14.440
588.73	14.454
589.06	15.537
589.40	15.184
589.73	14.660
590.07	14.530
590.40	15.129
590.73	14.914
591.07	14.303
591.40	14.775
591.74	15.204
592.07	14.865
592.41	14.607
592.74	14.796
593.08	14.418
593.41	14.441
593.75	14.375
594.08	15.097
594.41	15.046
594.75	14.647
595.08	15.038
595.42	15.029
595.75	14.590
596.09	14.785
596.42	14.894
596.75	15.308
597.09	15.405
597.42	14.797
597.75	14.969
598.09	14.912
598.42	14.715
598.76	14.452
599.09	14.404
599.42	14.072
599.76	14.723
600.09	15.000
600.42	14.888
600.76	14.652
601.09	14.698
601.42	14.365
601.76	15.109
602.09	14.724
602.42	15.103
602.76	14.873
603.09	14.556
603.42	15.109
603.76	14.838
604.09	14.778
604.42	15.071
604.76	15.089
605.09	14.964
605.42	15.293
605.75	14.230
606.09	14.363
606.42	14.076
606.75	14.212
607.09	14.910
607.42	14.833
607.75	14.393
608.08	15.409
608.42	14.948
608.75	14.860
609.08	14.856
609.41	15.047
609.75	15.066
610.08	15.392
610.41	14.988
610.74	15.426
611.07	15.061
611.41	13.918
611.74	15.630
612.07	15.521
612.40	14.552
612.73	14.432
613.07	15.190
613.40	15.764
613.73	14.496
614.06	15.541
614.39	15.220
614.72	14.078
615.06	14.783
615.39	14.813
615.72	14.883
616.05	14.688
616.38	15.206
616.71	15.616
617.05	15.440
617.38	15.913
617.71	15.172
618.04	15.217
618.37	15.472
618.70	15.841
619.03	15.572
619.36	15.645
619.69	15.650
620.03	15.358
620.36	14.838
620.69	15.075
621.02	14.460
621.35	15.242
621.68	14.836
622.01	15.291
622.34	15.683
622.67	15.000
623.00	15.914
623.33	16.269
623.66	15.362
623.99	16.165
624.32	14.807
624.65	15.600
624.99	15.086
625.32	14.746
625.65	15.929
625.98	15.415
626.31	17.210
626.64	15.983
626.97	15.068
627.30	15.745
627.63	14.594
627.96	16.014
628.29	15.717
628.62	15.091
628.95	16.339
629.28	15.508
629.61	15.505
629.94	16.163
630.26	15.805
630.59	15.477
630.92	15.716
631.25	16.431
631.58	16.825
631.91	15.000
632.24	16.333
632.57	16.000
632.90	16.092
633.23	17.056
633.56	14.152
633.89	16.981
634.22	15.466
634.55	15.024
634.88	16.929
635.20	13.733
635.53	16.158
635.86	16.373
636.19	15.995
636.52	15.890
636.85	15.884
637.18	15.125
637.51	16.853
