SpectraSuite Data File
++++++++++++++++++++++++++++++++++++
Date: Sat May 16 11:13:07 PDT 2015
User: schluterlab
Dark Spectrum Present: Yes
Reference Spectrum Present: Yes
Number of Sampled Component Spectra: 1
Spectrometers: USB2E3373
Integration Time (usec): 3000 (USB2E3373)
Spectra Averaged: 3 (USB2E3373)
Boxcar Smoothing: 0 (USB2E3373)
Correct for Electrical Dark: No (USB2E3373)
Strobe/Lamp Enabled: No (USB2E3373)
Correct for Detector Non-linearity: No (USB2E3373)
Correct for Stray Light: No (USB2E3373)
Number of Pixels in Processed Spectrum: 2048
>>>>>Begin Processed Spectral Data<<<<<
178.53	0.000
178.91	120.000
179.29	100.000
179.67	200.000
180.04	-38.462
180.42	200.000
180.80	150.000
181.18	125.000
181.56	37.500
181.94	500.000
182.31	300.000
182.69	-46.154
183.07	-200.000
183.45	1000.000
183.83	333.333
184.20	0.000
184.58	-100.000
184.96	-175.000
185.34	56.250
185.72	-200.000
186.09	216.667
186.47	-37.500
186.85	-25.000
187.23	175.000
187.61	-100.000
187.98	-275.000
188.36	25.000
188.74	-125.000
189.12	600.000
189.49	271.429
189.87	-25.000
190.25	375.000
190.63	7.143
191.00	-88.889
191.38	200.000
191.76	46.667
192.14	400.000
192.51	-200.000
192.89	-300.000
193.27	0.000
193.65	-100.000
194.02	-200.000
194.40	300.000
194.78	-40.000
195.15	-400.000
195.53	-27.273
195.91	-200.000
196.29	200.000
196.66	-466.667
197.04	2400.000
197.42	-175.000
197.79	13.333
198.17	-100.000
198.55	-850.000
198.92	-700.000
199.30	212.500
199.68	-150.000
200.05	11.111
200.43	-55.556
200.81	-1100.000
201.18	8.333
201.56	71.429
201.94	0.000
202.31	59.091
202.69	-40.000
203.07	130.000
203.44	500.000
203.82	-300.000
204.19	-250.000
204.57	175.000
204.95	-1200.000
205.32	-6.250
205.70	-100.000
206.08	-1700.000
206.45	50.000
206.83	-600.000
207.20	0.000
207.58	-700.000
207.96	-166.667
208.33	-87.500
208.71	88.889
209.08	110.000
209.46	0.000
209.84	200.000
210.21	0.000
210.59	25.000
210.96	500.000
211.34	-83.333
211.71	0.000
212.09	-25.000
212.46	800.000
212.84	-2000.000
213.22	300.000
213.59	133.333
213.97	-66.667
214.34	80.000
214.72	-90.000
215.09	-233.333
215.47	-183.333
215.84	0.000
216.22	-50.000
216.59	80.000
216.97	-200.000
217.34	550.000
217.72	-28.571
218.09	-133.333
218.47	-157.143
218.84	142.857
219.22	-85.714
219.59	0.000
219.97	385.714
220.34	200.000
220.72	200.000
221.09	-7.692
221.47	0.000
221.84	466.667
222.22	250.000
222.59	400.000
222.97	-150.000
223.34	-650.000
223.72	-100.000
224.09	-42.857
224.46	-200.000
224.84	-64.286
225.21	-85.714
225.59	-27.273
225.96	-112.500
226.34	28.571
226.71	22.222
227.08	20.000
227.46	900.000
227.83	-114.286
228.21	-125.000
228.58	400.000
228.95	18.750
229.33	-1600.000
229.70	-260.000
230.08	-50.000
230.45	91.667
230.82	-183.333
231.20	500.000
231.57	-400.000
231.95	300.000
232.32	28.571
232.69	-77.778
233.07	-171.429
233.44	-50.000
233.81	-60.000
234.19	-100.000
234.56	18.750
234.93	12.500
235.31	-214.286
235.68	-64.286
236.05	-5.882
236.43	-63.636
236.80	29.032
237.17	29.167
237.55	4.762
237.92	-40.909
238.29	-8.571
238.67	-8.824
239.04	8.333
239.41	-32.258
239.79	-28.205
240.16	-21.429
240.53	5.455
240.91	-28.205
241.28	-14.545
241.65	6.154
242.02	-4.918
242.40	-6.557
242.77	-3.030
243.14	-18.644
243.51	-10.000
243.89	1.266
244.26	-4.494
244.63	-4.211
245.00	3.158
245.38	5.085
245.75	10.619
246.12	1.600
246.49	0.000
246.87	-6.504
247.24	-10.169
247.61	0.000
247.98	4.930
248.36	-6.993
248.73	8.861
249.10	0.000
249.47	1.754
249.84	0.000
250.22	-5.357
250.59	1.130
250.96	0.000
251.33	9.479
251.70	4.808
252.08	-2.370
252.45	1.896
252.82	2.381
253.19	7.234
253.56	2.823
253.94	5.907
254.31	3.004
254.68	4.878
255.05	0.000
255.42	7.937
255.79	-2.509
256.16	7.451
256.54	4.412
256.91	0.000
257.28	2.198
257.65	4.255
258.02	5.975
258.39	1.338
258.76	0.000
259.14	4.321
259.51	9.180
259.88	4.878
260.25	3.727
260.62	2.251
260.99	0.593
261.36	2.744
261.73	8.092
262.10	3.889
262.47	0.285
262.85	4.571
263.22	4.298
263.59	1.231
263.96	0.870
264.33	8.401
264.70	4.696
265.07	5.769
265.44	1.550
265.81	0.517
266.18	3.291
266.55	2.206
266.92	5.038
267.29	5.811
267.66	4.198
268.03	5.797
268.40	5.399
268.77	3.855
269.14	2.552
269.51	5.057
269.88	0.688
270.25	0.233
270.62	1.831
270.99	4.505
271.36	2.331
271.73	4.036
272.10	5.034
272.47	0.889
272.84	5.556
273.21	2.752
273.58	6.154
273.95	3.070
274.32	2.489
274.69	6.783
275.06	4.090
275.43	2.232
275.80	5.703
276.17	4.812
276.54	6.517
276.91	2.469
277.28	5.477
277.65	3.306
278.02	4.593
278.39	4.519
278.76	4.183
279.13	4.545
279.50	4.175
279.87	2.537
280.23	4.858
280.60	5.567
280.97	2.136
281.34	2.708
281.71	5.769
282.08	4.637
282.45	0.815
282.82	4.457
283.19	4.182
283.56	7.326
283.92	3.887
284.29	2.788
284.66	4.496
285.03	5.704
285.40	5.535
285.77	5.439
286.14	4.152
286.51	3.730
286.87	5.445
287.24	3.925
287.61	6.116
287.98	3.466
288.35	1.983
288.72	3.565
289.08	2.712
289.45	5.724
289.82	1.903
290.19	5.255
290.56	2.810
290.93	4.293
291.29	3.890
291.66	2.093
292.03	3.454
292.40	4.518
292.77	2.174
293.13	2.927
293.50	4.458
293.87	3.681
294.24	4.676
294.60	2.424
294.97	5.766
295.34	2.222
295.71	5.060
296.08	3.072
296.44	4.292
296.81	5.413
297.18	4.366
297.55	4.237
297.91	5.858
298.28	2.055
298.65	3.626
299.02	5.749
299.38	4.412
299.75	3.940
300.12	4.872
300.48	4.476
300.85	4.063
301.22	4.657
301.59	4.681
301.95	6.045
302.32	2.999
302.69	4.284
303.05	4.396
303.42	3.125
303.79	4.187
304.15	4.384
304.52	4.201
304.89	4.959
305.25	4.518
305.62	4.113
305.99	6.125
306.35	4.661
306.72	3.531
307.09	6.243
307.45	2.724
307.82	4.581
308.19	3.691
308.55	4.466
308.92	3.330
309.29	4.216
309.65	4.136
310.02	4.536
310.38	4.649
310.75	5.533
311.12	6.095
311.48	5.115
311.85	4.325
312.22	5.973
312.58	6.511
312.95	4.485
313.31	5.495
313.68	5.930
314.05	6.034
314.41	5.835
314.78	5.495
315.14	6.910
315.51	5.876
315.87	6.099
316.24	5.831
316.61	6.046
316.97	6.667
317.34	6.166
317.70	5.380
318.07	7.463
318.43	6.554
318.80	7.793
319.16	5.910
319.53	7.425
319.89	6.303
320.26	7.549
320.62	6.538
320.99	6.667
321.35	5.517
321.72	5.425
322.08	7.023
322.45	6.337
322.81	7.685
323.18	7.973
323.54	6.654
323.91	7.229
324.27	8.270
324.64	7.770
325.00	8.551
325.37	7.511
325.73	9.099
326.10	6.377
326.46	8.231
326.83	8.426
327.19	8.007
327.56	9.114
327.92	8.496
328.29	7.619
328.65	6.636
329.01	8.392
329.38	8.385
329.74	9.341
330.11	7.434
330.47	7.720
330.84	10.082
331.20	7.491
331.56	7.566
331.93	7.549
332.29	8.493
332.66	7.199
333.02	8.326
333.38	9.588
333.75	8.014
334.11	8.800
334.48	8.032
334.84	10.149
335.20	8.599
335.57	7.581
335.93	9.400
336.29	9.389
336.66	6.696
337.02	8.559
337.38	7.308
337.75	7.902
338.11	7.513
338.47	8.274
338.84	7.895
339.20	9.402
339.56	8.111
339.93	7.407
340.29	7.174
340.65	6.993
341.02	8.432
341.38	6.992
341.74	9.145
342.11	8.362
342.47	7.983
342.83	7.641
343.20	8.454
343.56	7.347
343.92	8.932
344.28	7.990
344.65	8.086
345.01	7.311
345.37	8.056
345.73	7.692
346.10	6.623
346.46	6.824
346.82	8.260
347.19	7.724
347.55	7.143
347.91	8.031
348.27	8.274
348.63	8.562
349.00	7.876
349.36	7.806
349.72	7.564
350.08	8.019
350.45	7.329
350.81	8.201
351.17	6.913
351.53	6.205
351.89	7.599
352.26	8.217
352.62	8.218
352.98	7.595
353.34	7.514
353.70	6.641
354.07	7.632
354.43	8.538
354.79	7.211
355.15	7.188
355.51	7.109
355.87	7.273
356.24	6.910
356.60	8.622
356.96	7.775
357.32	7.601
357.68	6.284
358.04	8.083
358.40	7.347
358.77	7.187
359.13	7.575
359.49	6.803
359.85	7.622
360.21	7.382
360.57	7.380
360.93	7.333
361.29	7.773
361.66	6.860
362.02	6.361
362.38	7.190
362.74	8.205
363.10	6.958
363.46	7.407
363.82	7.216
364.18	8.321
364.54	8.506
364.90	7.617
365.26	7.347
365.62	7.840
365.98	7.681
366.35	6.549
366.71	7.470
367.07	7.975
367.43	7.893
367.79	7.766
368.15	7.041
368.51	8.462
368.87	8.723
369.23	7.018
369.59	7.361
369.95	7.611
370.31	8.228
370.67	6.797
371.03	8.090
371.39	7.496
371.75	7.010
372.11	6.815
372.47	7.375
372.83	7.719
373.19	7.643
373.55	7.952
373.91	6.899
374.27	7.871
374.63	7.522
374.99	7.997
375.35	7.470
375.71	7.968
376.07	6.776
376.42	6.821
376.78	7.386
377.14	6.983
377.50	8.188
377.86	7.347
378.22	7.098
378.58	7.536
378.94	7.398
379.30	7.617
379.66	7.468
380.02	7.190
380.38	7.190
380.74	7.562
381.09	8.026
381.45	7.757
381.81	7.260
382.17	7.644
382.53	6.748
382.89	7.715
383.25	7.827
383.61	7.252
383.97	7.838
384.32	7.259
384.68	7.557
385.04	7.790
385.40	7.304
385.76	7.683
386.12	7.183
386.48	8.168
386.83	7.669
387.19	7.531
387.55	7.147
387.91	7.884
388.27	7.057
388.62	7.332
388.98	7.208
389.34	7.099
389.70	7.369
390.06	7.272
390.42	8.013
390.77	7.508
391.13	8.447
391.49	7.486
391.85	8.354
392.20	7.282
392.56	7.147
392.92	7.872
393.28	7.348
393.64	6.915
393.99	7.938
394.35	7.786
394.71	7.474
395.07	7.910
395.42	6.913
395.78	7.417
396.14	7.726
396.50	7.339
396.85	7.341
397.21	7.716
397.57	7.295
397.92	7.845
398.28	7.833
398.64	7.317
399.00	7.303
399.35	6.032
399.71	7.201
400.07	6.687
400.42	7.968
400.78	7.036
401.14	7.365
401.49	7.311
401.85	6.833
402.21	7.569
402.57	7.949
402.92	7.300
403.28	7.230
403.63	6.950
403.99	7.644
404.35	6.461
404.70	7.841
405.06	7.439
405.42	7.257
405.77	7.070
406.13	7.496
406.49	6.771
406.84	7.319
407.20	7.538
407.55	7.030
407.91	6.218
408.27	7.782
408.62	7.276
408.98	7.277
409.34	7.739
409.69	7.057
410.05	6.610
410.40	7.480
410.76	8.299
411.11	7.606
411.47	7.417
411.83	7.213
412.18	6.126
412.54	6.955
412.89	7.594
413.25	6.198
413.60	6.683
413.96	6.408
414.31	6.850
414.67	6.413
415.03	7.568
415.38	7.222
415.74	8.183
416.09	7.289
416.45	6.415
416.80	6.827
417.16	6.777
417.51	7.617
417.87	7.443
418.22	6.890
418.58	7.510
418.93	7.357
419.29	7.277
419.64	7.161
420.00	7.776
420.35	6.860
420.71	6.843
421.06	7.041
421.42	6.148
421.77	7.705
422.12	8.282
422.48	7.483
422.83	7.859
423.19	7.461
423.54	6.801
423.90	6.940
424.25	7.692
424.61	7.780
424.96	7.841
425.31	7.378
425.67	7.450
426.02	7.401
426.38	7.864
426.73	8.358
427.09	7.537
427.44	7.216
427.79	6.977
428.15	8.079
428.50	7.625
428.85	7.914
429.21	7.305
429.56	7.240
429.92	8.016
430.27	7.129
430.62	7.576
430.98	7.580
431.33	7.631
431.68	7.989
432.04	7.611
432.39	7.806
432.74	7.914
433.10	7.485
433.45	7.311
433.80	7.783
434.16	7.630
434.51	7.068
434.86	7.323
435.22	7.517
435.57	6.977
435.92	7.737
436.28	8.249
436.63	7.349
436.98	7.159
437.34	8.269
437.69	7.760
438.04	7.657
438.39	7.702
438.75	7.916
439.10	7.885
439.45	6.940
439.81	8.193
440.16	7.553
440.51	8.353
440.86	7.172
441.22	7.407
441.57	7.737
441.92	7.519
442.27	8.009
442.63	7.457
442.98	7.506
443.33	7.578
443.68	7.400
444.03	7.417
444.39	7.685
444.74	7.489
445.09	7.127
445.44	8.047
445.79	7.700
446.15	8.050
446.50	7.784
446.85	8.107
447.20	8.069
447.55	8.619
447.91	8.141
448.26	7.598
448.61	7.414
448.96	7.955
449.31	7.554
449.66	8.758
450.02	7.756
450.37	7.652
450.72	7.288
451.07	8.234
451.42	7.683
451.77	7.421
452.12	7.867
452.47	8.060
452.83	7.222
453.18	7.970
453.53	7.649
453.88	8.373
454.23	6.711
454.58	8.266
454.93	8.123
455.28	7.839
455.63	8.722
455.98	7.892
456.34	7.306
456.69	8.630
457.04	8.420
457.39	8.074
457.74	8.210
458.09	8.005
458.44	9.007
458.79	8.240
459.14	8.157
459.49	8.526
459.84	8.207
460.19	7.936
460.54	7.985
460.89	7.679
461.24	8.318
461.59	7.620
461.94	8.084
462.29	8.100
462.64	8.498
462.99	9.036
463.34	8.035
463.69	7.570
464.04	7.674
464.39	7.826
464.74	7.801
465.09	7.817
465.44	7.727
465.79	8.629
466.14	8.400
466.49	8.233
466.84	8.163
467.19	9.040
467.54	7.532
467.89	7.707
468.24	8.551
468.59	7.870
468.94	8.296
469.29	8.707
469.64	8.491
469.99	9.048
470.34	8.350
470.68	8.576
471.03	8.672
471.38	7.431
471.73	8.601
472.08	8.166
472.43	8.366
472.78	9.267
473.13	8.085
473.48	8.679
473.83	8.127
474.17	8.408
474.52	8.632
474.87	8.858
475.22	8.555
475.57	7.944
475.92	9.233
476.27	7.943
476.61	8.113
476.96	7.937
477.31	8.719
477.66	8.356
478.01	9.346
478.36	8.434
478.70	8.062
479.05	8.761
479.40	7.668
479.75	8.665
480.10	8.482
480.45	7.930
480.79	8.440
481.14	8.430
481.49	8.180
481.84	8.692
482.19	8.497
482.53	8.239
482.88	8.590
483.23	8.310
483.58	8.696
483.92	8.505
484.27	7.931
484.62	8.380
484.97	8.613
485.31	8.416
485.66	7.978
486.01	7.849
486.36	8.037
486.70	7.991
487.05	7.979
487.40	7.986
487.75	8.170
488.09	7.813
488.44	8.288
488.79	8.949
489.13	8.520
489.48	8.605
489.83	8.515
490.17	8.968
490.52	8.741
490.87	8.545
491.22	8.361
491.56	9.120
491.91	8.635
492.26	8.915
492.60	8.801
492.95	8.853
493.30	8.861
493.64	8.275
493.99	8.126
494.34	8.619
494.68	9.878
495.03	8.556
495.37	7.670
495.72	8.890
496.07	8.775
496.41	8.939
496.76	8.904
497.11	8.573
497.45	8.477
497.80	8.404
498.14	9.185
498.49	8.438
498.84	8.932
499.18	8.869
499.53	8.524
499.87	8.156
500.22	8.578
500.56	8.904
500.91	8.966
501.26	8.928
501.60	8.666
501.95	8.744
502.29	8.644
502.64	9.807
502.98	8.816
503.33	9.211
503.67	8.525
504.02	8.691
504.36	8.922
504.71	8.004
505.06	8.787
505.40	9.780
505.75	8.283
506.09	8.999
506.44	8.421
506.78	9.232
507.13	8.239
507.47	9.129
507.82	9.293
508.16	9.430
508.51	8.861
508.85	9.420
509.19	9.105
509.54	9.091
509.88	9.255
510.23	8.962
510.57	10.000
510.92	9.667
511.26	9.410
511.61	9.071
511.95	9.483
512.30	9.511
512.64	9.516
512.98	9.516
513.33	9.445
513.67	9.213
514.02	9.340
514.36	9.640
514.70	9.508
515.05	9.891
515.39	9.977
515.74	10.413
516.08	9.971
516.42	10.198
516.77	10.225
517.11	9.897
517.46	9.450
517.80	10.108
518.14	9.601
518.49	10.341
518.83	9.733
519.17	10.657
519.52	10.295
519.86	10.872
520.20	10.147
520.55	10.338
520.89	8.892
521.23	10.379
521.58	9.906
521.92	10.450
522.26	10.222
522.61	9.632
522.95	10.657
523.29	10.658
523.64	10.431
523.98	10.503
524.32	10.182
524.66	10.062
525.01	10.212
525.35	11.018
525.69	10.670
526.04	10.901
526.38	11.139
526.72	10.728
527.06	10.547
527.41	10.363
527.75	10.033
528.09	10.920
528.43	10.885
528.78	11.621
529.12	11.780
529.46	10.889
529.80	10.975
530.15	10.689
530.49	10.220
530.83	12.050
531.17	10.842
531.51	10.583
531.86	9.743
532.20	11.471
532.54	11.096
532.88	10.738
533.22	10.628
533.57	10.966
533.91	10.549
534.25	11.251
534.59	10.743
534.93	10.703
535.27	10.573
535.62	11.253
535.96	10.407
536.30	10.471
536.64	12.085
536.98	11.864
537.32	11.057
537.66	10.862
538.01	10.515
538.35	11.081
538.69	10.361
539.03	11.171
539.37	11.311
539.71	11.141
540.05	10.418
540.39	11.773
540.73	10.850
541.07	11.407
541.42	10.331
541.76	10.963
542.10	11.951
542.44	11.592
542.78	11.262
543.12	11.202
543.46	10.616
543.80	10.769
544.14	10.410
544.48	11.155
544.82	10.352
545.16	11.335
545.50	10.431
545.84	10.987
546.18	11.650
546.52	11.878
546.86	10.613
547.20	11.885
547.54	10.675
547.88	10.750
548.22	9.633
548.56	10.554
548.90	11.456
549.24	10.652
549.58	12.138
549.92	11.661
550.26	11.994
550.60	11.522
550.94	11.460
551.28	10.910
551.62	10.487
551.96	11.360
552.30	11.568
552.64	11.400
552.98	11.983
553.32	11.183
553.66	12.689
554.00	11.798
554.34	10.975
554.68	11.404
555.02	11.505
555.36	12.006
555.69	10.960
556.03	10.947
556.37	11.166
556.71	11.310
557.05	11.086
557.39	11.062
557.73	12.764
558.07	11.379
558.41	11.444
558.75	10.798
559.08	10.584
559.42	11.639
559.76	11.120
560.10	12.752
560.44	11.922
560.78	11.761
561.12	11.042
561.45	12.329
561.79	10.801
562.13	10.870
562.47	12.045
562.81	10.820
563.15	11.127
563.48	12.163
563.82	11.562
564.16	10.953
564.50	11.962
564.84	11.640
565.17	11.538
565.51	10.756
565.85	11.562
566.19	11.660
566.52	10.763
566.86	11.694
567.20	12.288
567.54	11.872
567.88	10.553
568.21	10.962
568.55	11.347
568.89	10.089
569.23	10.134
569.56	10.004
569.90	10.307
570.24	10.334
570.57	9.736
570.91	10.235
571.25	10.733
571.59	10.584
571.92	10.327
572.26	10.695
572.60	10.115
572.93	10.065
573.27	9.939
573.61	9.751
573.95	10.085
574.28	9.891
574.62	9.761
574.96	9.920
575.29	9.782
575.63	10.035
575.97	9.951
576.30	10.003
576.64	10.235
576.98	9.828
577.31	9.678
577.65	9.998
577.98	9.944
578.32	9.682
578.66	9.772
578.99	9.959
579.33	10.173
579.67	10.246
580.00	9.425
580.34	9.883
580.67	9.782
581.01	9.644
581.35	9.573
581.68	9.542
582.02	9.785
582.35	9.178
582.69	9.761
583.02	9.925
583.36	9.843
583.70	9.652
584.03	9.779
584.37	9.932
584.70	9.543
585.04	10.000
585.37	9.594
585.71	9.821
586.04	9.524
586.38	9.810
586.72	9.921
587.05	10.054
587.39	9.943
587.72	10.353
588.06	10.151
588.39	9.684
588.73	9.867
589.06	10.678
589.40	10.271
589.73	10.446
590.07	10.306
590.40	10.185
590.73	10.316
591.07	10.738
591.40	11.005
591.74	10.426
592.07	9.820
592.41	10.658
592.74	10.607
593.08	10.676
593.41	10.493
593.75	9.660
594.08	10.424
594.41	10.536
594.75	10.532
595.08	9.812
595.42	10.188
595.75	9.666
596.09	10.322
596.42	11.293
596.75	10.436
597.09	10.374
597.42	10.301
597.75	10.983
598.09	10.574
598.42	10.561
598.76	10.174
599.09	10.379
599.42	9.919
599.76	10.910
600.09	9.962
600.42	11.090
600.76	10.885
601.09	10.482
601.42	10.170
601.76	11.137
602.09	10.184
602.42	10.823
602.76	10.511
603.09	10.484
603.42	10.919
603.76	10.650
604.09	10.453
604.42	10.366
604.76	10.816
605.09	10.533
605.42	10.993
605.75	10.608
606.09	10.461
606.42	10.264
606.75	10.820
607.09	10.543
607.42	11.488
607.75	10.817
608.08	10.619
608.42	10.454
608.75	10.514
609.08	10.667
609.41	10.962
609.75	10.922
610.08	10.784
610.41	10.265
610.74	10.880
611.07	11.613
611.41	10.590
611.74	11.208
612.07	11.547
612.40	10.874
612.73	11.578
613.07	10.897
613.40	11.494
613.73	10.681
614.06	11.367
614.39	11.218
614.72	10.391
615.06	10.870
615.39	11.286
615.72	10.918
616.05	10.933
616.38	11.317
616.71	10.871
617.05	11.399
617.38	11.641
617.71	10.627
618.04	10.932
618.37	11.006
618.70	12.516
619.03	10.900
619.36	11.064
619.69	12.491
620.03	11.846
620.36	11.041
620.69	11.199
621.02	10.731
621.35	11.613
621.68	11.639
622.01	12.460
622.34	13.043
622.67	11.016
623.00	11.783
623.33	12.836
623.66	11.448
623.99	11.955
624.32	11.830
624.65	11.626
624.99	10.904
625.32	10.629
625.65	12.743
625.98	11.659
626.31	12.072
626.64	12.134
626.97	11.986
627.30	12.085
627.63	10.881
627.96	12.010
628.29	11.581
628.62	13.181
628.95	13.780
629.28	12.312
629.61	12.659
629.94	13.043
630.26	12.525
630.59	13.769
630.92	13.213
631.25	12.298
631.58	11.958
631.91	12.340
632.24	12.222
632.57	12.889
632.90	12.184
633.23	13.668
633.56	12.749
633.89	13.797
634.22	13.695
634.55	12.861
634.88	13.301
635.20	10.487
635.53	12.977
635.86	13.476
636.19	14.042
636.52	13.859
636.85	10.469
637.18	12.750
637.51	14.498
637.83	13.582
638.16	13.026
638.49	12.276
638.82	14.929
639.15	14.397
639.48	11.543
639.81	14.108
640.13	14.730
640.46	14.957
640.79	13.025
641.12	13.963
641.45	12.339
641.77	12.575
642.10	14.653
642.43	12.443
642.76	12.283
643.09	11.905
643.41	15.238
643.74	13.990
644.07	13.885
644.40	14.425
644.73	15.017
645.05	12.187
645.38	15.563
645.71	14.948
646.04	12.941
646.36	12.391
646.69	13.322
647.02	14.621
647.35	13.538
647.67	13.321
648.00	15.114
648.33	15.008
648.66	11.129
648.98	13.057
649.31	13.385
649.64	13.281
649.96	13.815
650.29	13.443
