SpectraSuite Data File
++++++++++++++++++++++++++++++++++++
Date: Sat May 16 11:41:31 PDT 2015
User: schluterlab
Dark Spectrum Present: Yes
Reference Spectrum Present: Yes
Number of Sampled Component Spectra: 1
Spectrometers: USB2E3373
Integration Time (usec): 3000 (USB2E3373)
Spectra Averaged: 3 (USB2E3373)
Boxcar Smoothing: 0 (USB2E3373)
Correct for Electrical Dark: No (USB2E3373)
Strobe/Lamp Enabled: No (USB2E3373)
Correct for Detector Non-linearity: No (USB2E3373)
Correct for Stray Light: No (USB2E3373)
Number of Pixels in Processed Spectrum: 2048
>>>>>Begin Processed Spectral Data<<<<<
178.53	0.000
178.91	113.333
179.29	533.333
179.67	-1300.000
180.04	-84.615
180.42	1300.000
180.80	150.000
181.18	625.000
181.56	-125.000
181.94	1600.000
182.31	675.000
182.69	-123.077
183.07	-433.333
183.45	1550.000
183.83	500.000
184.20	-228.571
184.58	-125.000
184.96	-275.000
185.34	131.250
185.72	-850.000
186.09	383.333
186.47	-87.500
186.85	-187.500
187.23	-137.500
187.61	-175.000
187.98	-325.000
188.36	12.500
188.74	-112.500
189.12	2100.000
189.49	271.429
189.87	-83.333
190.25	250.000
190.63	-35.714
191.00	-155.556
191.38	400.000
191.76	6.667
192.14	400.000
192.51	-60.000
192.89	-433.333
193.27	0.000
193.65	-100.000
194.02	-157.143
194.40	500.000
194.78	-220.000
195.15	-1300.000
195.53	-127.273
195.91	-283.333
196.29	100.000
196.66	-433.333
197.04	1400.000
197.42	-275.000
197.79	6.667
198.17	-566.667
198.55	-750.000
198.92	-2300.000
199.30	200.000
199.68	-300.000
200.05	-66.667
200.43	-177.778
200.81	-1600.000
201.18	-66.667
201.56	271.429
201.94	-6.667
202.31	50.000
202.69	0.000
203.07	-110.000
203.44	533.333
203.82	-400.000
204.19	-300.000
204.57	-100.000
204.95	-1400.000
205.32	-62.500
205.70	1200.000
206.08	-1900.000
206.45	-77.778
206.83	-750.000
207.20	-100.000
207.58	-666.667
207.96	-233.333
208.33	-237.500
208.71	-133.333
209.08	160.000
209.46	-228.571
209.84	500.000
210.21	0.000
210.59	40.000
210.96	100.000
211.34	-483.333
211.71	-366.667
212.09	675.000
212.46	600.000
212.84	-1900.000
213.22	666.667
213.59	208.333
213.97	-55.556
214.34	230.000
214.72	-40.000
215.09	-633.333
215.47	-100.000
215.84	-70.000
216.22	-110.000
216.59	13.333
216.97	-475.000
217.34	1250.000
217.72	-157.143
218.09	-266.667
218.47	-242.857
218.84	285.714
219.22	-200.000
219.59	0.000
219.97	200.000
220.34	625.000
220.72	250.000
221.09	-15.385
221.47	0.000
221.84	533.333
222.22	-850.000
222.59	2700.000
222.97	-300.000
223.34	-750.000
223.72	-533.333
224.09	-114.286
224.46	-100.000
224.84	-92.857
225.21	-185.714
225.59	-145.455
225.96	-50.000
226.34	-157.143
226.71	-188.889
227.08	-20.000
227.46	1700.000
227.83	-242.857
228.21	-287.500
228.58	650.000
228.95	0.000
229.33	-900.000
229.70	-220.000
230.08	-950.000
230.45	16.667
230.82	-116.667
231.20	-600.000
231.57	-650.000
231.95	2200.000
232.32	0.000
232.69	-155.556
233.07	-171.429
233.44	-1050.000
233.81	-53.333
234.19	-211.111
234.56	-100.000
234.93	6.250
235.31	-271.429
235.68	-92.857
236.05	-82.353
236.43	-45.455
236.80	-19.355
237.17	-45.833
237.55	-52.381
237.92	-45.455
238.29	5.714
238.67	-8.824
239.04	25.000
239.41	-3.226
239.79	-48.718
240.16	-23.810
240.53	-9.091
240.91	0.000
241.28	1.818
241.65	13.846
242.02	22.951
242.40	-4.918
242.77	-6.061
243.14	5.085
243.51	-2.857
243.89	-1.266
244.26	0.000
244.63	16.842
245.00	14.737
245.38	14.407
245.75	15.044
246.12	5.600
246.49	11.811
246.87	8.130
247.24	20.339
247.61	4.237
247.98	8.451
248.36	9.091
248.73	20.886
249.10	12.739
249.47	16.959
249.84	20.455
250.22	10.119
250.59	20.904
250.96	17.277
251.33	20.853
251.70	13.462
252.08	11.848
252.45	14.218
252.82	18.095
253.19	17.872
253.56	14.113
253.94	19.409
254.31	13.734
254.68	19.919
255.05	15.323
255.42	17.063
255.79	13.978
256.16	15.686
256.54	18.015
256.91	14.773
257.28	14.286
257.65	18.085
258.02	21.069
258.39	16.722
258.76	15.878
259.14	15.432
259.51	23.279
259.88	14.939
260.25	21.118
260.62	16.399
260.99	18.398
261.36	18.902
261.73	17.052
262.10	21.111
262.47	20.228
262.85	22.000
263.22	18.911
263.59	15.692
263.96	21.159
264.33	17.615
264.70	17.403
265.07	19.780
265.44	18.346
265.81	16.796
266.18	17.468
266.55	18.137
266.92	19.647
267.29	18.644
267.66	17.284
268.03	17.633
268.40	19.718
268.77	19.277
269.14	19.954
269.51	19.770
269.88	16.972
270.25	14.685
270.62	17.620
270.99	19.144
271.36	20.047
271.73	15.471
272.10	18.078
272.47	18.444
272.84	21.778
273.21	21.101
273.58	20.879
273.95	17.763
274.32	19.457
274.69	20.350
275.06	18.814
275.43	19.196
275.80	19.756
276.17	16.318
276.54	21.181
276.91	18.107
277.28	17.241
277.65	19.215
278.02	19.207
278.39	18.861
278.76	16.534
279.13	20.949
279.50	18.091
279.87	19.450
280.23	18.219
280.60	17.893
280.97	20.194
281.34	17.021
281.71	19.231
282.08	19.960
282.45	17.108
282.82	20.930
283.19	16.000
283.56	18.864
283.92	19.435
284.29	18.773
284.66	17.626
285.03	21.034
285.40	18.819
285.77	17.368
286.14	17.148
286.51	18.117
286.87	19.238
287.24	19.795
287.61	17.686
287.98	17.158
288.35	16.529
288.72	16.978
289.08	15.424
289.45	16.667
289.82	16.436
290.19	17.734
290.56	16.364
290.93	17.170
291.29	16.694
291.66	16.747
292.03	15.856
292.40	17.470
292.77	15.062
293.13	16.585
293.50	16.493
293.87	16.871
294.24	16.139
294.60	13.788
294.97	16.085
295.34	14.074
295.71	15.030
296.08	14.439
296.44	13.305
296.81	16.667
297.18	15.775
297.55	15.395
297.91	16.179
298.28	13.973
298.65	14.226
299.02	16.711
299.38	14.706
299.75	15.489
300.12	14.103
300.48	16.240
300.85	14.679
301.22	15.265
301.59	14.824
301.95	15.365
302.32	13.299
302.69	15.055
303.05	13.065
303.42	13.500
303.79	14.593
304.15	14.100
304.52	15.053
304.89	13.577
305.25	13.431
305.62	12.338
305.99	15.548
306.35	14.983
306.72	13.554
307.09	14.529
307.45	13.507
307.82	14.637
308.19	14.989
308.55	13.617
308.92	13.426
309.29	14.270
309.65	14.952
310.02	14.039
310.38	14.270
310.75	14.857
311.12	16.322
311.48	14.092
311.85	15.139
312.22	17.096
312.58	16.073
312.95	15.902
313.31	17.083
313.68	16.281
314.05	17.705
314.41	15.694
314.78	16.883
315.14	17.966
315.51	17.933
315.87	17.909
316.24	17.881
316.61	18.810
316.97	19.104
317.34	19.557
317.70	19.666
318.07	18.843
318.43	19.007
318.80	21.408
319.16	21.295
319.53	22.368
319.89	21.261
320.26	22.745
320.62	23.269
320.99	22.687
321.35	22.463
321.72	22.723
322.08	24.728
322.45	24.455
322.81	24.880
323.18	26.321
323.54	25.416
323.91	26.784
324.27	27.852
324.64	28.428
325.00	27.749
325.37	30.317
325.73	30.184
326.10	29.318
326.46	30.998
326.83	31.404
327.19	31.276
327.56	33.305
327.92	33.560
328.29	33.939
328.65	33.182
329.01	35.071
329.38	35.593
329.74	36.905
330.11	35.811
330.47	37.421
330.84	37.764
331.20	37.816
331.56	38.742
331.93	37.922
332.29	40.274
332.66	40.035
333.02	40.181
333.38	41.129
333.75	39.982
334.11	41.422
334.48	40.777
334.84	40.507
335.20	41.312
335.57	42.419
335.93	42.256
336.29	40.655
336.66	41.233
337.02	43.694
337.38	41.533
337.75	41.528
338.11	42.129
338.47	41.459
338.84	43.103
339.20	42.794
339.56	42.781
339.93	42.769
340.29	43.578
340.65	42.133
341.02	41.484
341.38	42.376
341.74	42.083
342.11	41.980
342.47	43.176
342.83	41.562
343.20	44.663
343.56	40.816
343.92	42.988
344.28	43.146
344.65	42.327
345.01	43.782
345.37	42.525
345.73	42.226
346.10	42.355
346.46	42.323
346.82	42.342
347.19	42.810
347.55	43.740
347.91	43.307
348.27	41.925
348.63	42.973
349.00	44.391
349.36	40.671
349.72	41.799
350.08	43.144
350.45	43.341
350.81	43.869
351.17	44.534
351.53	43.516
351.89	42.280
352.26	41.318
352.62	44.470
352.98	43.117
353.34	43.165
353.70	41.853
354.07	42.408
354.43	44.901
354.79	43.819
355.15	42.891
355.51	42.578
355.87	43.320
356.24	43.050
356.60	44.883
356.96	43.110
357.32	43.785
357.68	43.831
358.04	43.572
358.40	42.846
358.77	43.122
359.13	43.917
359.49	43.915
359.85	44.970
360.21	44.901
360.57	45.105
360.93	44.815
361.29	45.665
361.66	44.207
362.02	44.822
362.38	45.415
362.74	46.300
363.10	44.835
363.46	46.154
363.82	45.845
364.18	45.586
364.54	47.248
364.90	45.493
365.26	44.722
365.62	46.472
365.98	45.875
366.35	45.915
366.71	44.891
367.07	45.378
367.43	46.603
367.79	48.041
368.15	46.373
368.51	47.273
368.87	46.497
369.23	47.018
369.59	45.972
369.95	46.653
370.31	47.750
370.67	48.228
371.03	46.647
371.39	46.322
371.75	47.496
372.11	49.857
372.47	48.952
372.83	48.331
373.19	49.643
373.55	49.683
373.91	49.858
374.27	49.829
374.63	49.344
374.99	49.930
375.35	48.789
375.71	50.236
376.07	50.650
376.42	50.132
376.78	50.719
377.14	52.407
377.50	52.418
377.86	50.390
378.22	52.010
378.58	52.254
378.94	51.480
379.30	51.676
379.66	52.155
380.02	51.277
380.38	52.870
380.74	53.048
381.09	52.021
381.45	53.103
381.81	52.934
382.17	53.383
382.53	53.191
382.89	54.366
383.25	53.703
383.61	53.420
383.97	54.807
384.32	55.695
384.68	55.200
385.04	54.650
385.40	55.386
385.76	56.159
386.12	55.153
386.48	57.550
386.83	55.276
387.19	57.143
387.55	56.148
387.91	55.957
388.27	56.212
388.62	57.212
388.98	57.359
389.34	57.038
389.70	57.613
390.06	56.495
390.42	58.205
390.77	58.297
391.13	58.882
391.49	58.016
391.85	59.601
392.20	57.100
392.56	58.094
392.92	58.699
393.28	59.357
393.64	59.411
393.99	60.369
394.35	59.002
394.71	58.802
395.07	60.703
395.42	58.820
395.78	58.957
396.14	61.869
396.50	59.450
396.85	59.655
397.21	60.207
397.57	60.000
397.92	60.773
398.28	61.389
398.64	59.905
399.00	61.854
399.35	61.669
399.71	62.079
400.07	61.731
400.42	61.922
400.78	61.479
401.14	61.497
401.49	60.849
401.85	61.440
402.21	62.694
402.57	63.107
402.92	62.996
403.28	62.071
403.63	61.414
403.99	63.207
404.35	61.836
404.70	61.908
405.06	61.419
405.42	61.808
405.77	61.595
406.13	62.124
406.49	63.152
406.84	64.067
407.20	63.192
407.55	64.281
407.91	63.148
408.27	63.113
408.62	63.079
408.98	62.947
409.34	63.620
409.69	62.823
410.05	63.008
410.40	64.746
410.76	64.019
411.11	65.274
411.47	63.939
411.83	64.059
412.18	64.233
412.54	63.941
412.89	64.034
413.25	63.046
413.60	63.183
413.96	63.093
414.31	64.709
414.67	63.746
415.03	63.777
415.38	64.411
415.74	65.142
416.09	64.898
416.45	64.484
416.80	66.905
417.16	65.449
417.51	65.594
417.87	67.314
418.22	66.372
418.58	64.506
418.93	65.113
419.29	65.872
419.64	65.264
420.00	66.464
420.35	65.287
420.71	66.687
421.06	65.385
421.42	65.222
421.77	65.997
422.12	66.144
422.48	66.970
422.83	67.027
423.19	65.367
423.54	67.262
423.90	66.744
424.25	67.081
424.61	68.335
424.96	67.817
425.31	67.077
425.67	66.991
426.02	67.183
426.38	68.905
426.73	67.621
427.09	67.463
427.44	67.330
427.79	67.791
428.15	68.163
428.50	67.859
428.85	66.906
429.21	67.737
429.56	67.760
429.92	68.236
430.27	68.345
430.62	69.436
430.98	67.642
431.33	68.677
431.68	69.544
432.04	70.285
432.39	70.199
432.74	70.324
433.10	69.724
433.45	68.509
433.80	70.157
434.16	70.177
434.51	70.301
434.86	69.889
435.22	69.710
435.57	69.767
435.92	70.516
436.28	69.674
436.63	69.644
436.98	69.015
437.34	71.294
437.69	70.770
438.04	69.767
438.39	70.638
438.75	70.198
439.10	70.072
439.45	70.247
439.81	71.205
440.16	70.074
440.51	70.824
440.86	70.850
441.22	71.255
441.57	71.842
441.92	70.332
442.27	70.076
442.63	70.815
442.98	69.977
443.33	72.158
443.68	72.277
444.03	71.464
444.39	71.464
444.74	72.467
445.09	71.656
445.44	71.694
445.79	72.208
446.15	71.796
446.50	70.550
446.85	70.703
447.20	71.706
447.55	70.552
447.91	71.645
448.26	70.559
448.61	71.251
448.96	71.485
449.31	72.379
449.66	72.009
450.02	70.914
450.37	72.116
450.72	72.881
451.07	72.282
451.42	71.314
451.77	71.215
452.12	72.467
452.47	71.725
452.83	71.870
453.18	71.727
453.53	72.388
453.88	72.488
454.23	71.644
454.58	74.580
454.93	73.363
455.28	72.594
455.63	71.376
455.98	73.795
456.34	72.363
456.69	72.170
457.04	72.833
457.39	72.010
457.74	72.829
458.09	71.346
458.44	72.055
458.79	72.141
459.14	70.394
459.49	72.765
459.84	72.456
460.19	71.659
460.54	72.293
460.89	72.253
461.24	70.978
461.59	71.688
461.94	72.693
462.29	72.365
462.64	72.332
462.99	72.490
463.34	70.966
463.69	73.919
464.04	69.244
464.39	71.207
464.74	70.745
465.09	70.295
465.44	72.363
465.79	71.066
466.14	72.497
466.49	72.654
466.84	71.909
467.19	72.818
467.54	71.266
467.89	72.873
468.24	72.506
468.59	71.518
468.94	72.347
469.29	71.540
469.64	70.620
469.99	73.666
470.34	71.142
470.68	72.384
471.03	71.920
471.38	72.292
471.73	74.266
472.08	72.691
472.43	70.206
472.78	72.533
473.13	71.571
473.48	71.921
473.83	71.464
474.17	71.720
474.52	71.867
474.87	71.037
475.22	71.150
475.57	70.389
475.92	71.436
476.27	69.543
476.61	73.070
476.96	72.051
477.31	72.067
477.66	72.607
478.01	71.529
478.36	70.456
478.70	72.824
479.05	71.552
479.40	71.762
479.75	70.897
480.10	69.990
480.45	70.309
480.79	71.520
481.14	73.006
481.49	71.200
481.84	70.689
482.19	71.494
482.53	72.301
482.88	71.618
483.23	70.751
483.58	71.924
483.92	70.712
484.27	69.561
484.62	71.145
484.97	69.564
485.31	69.472
485.66	68.776
486.01	68.787
486.36	70.509
486.70	72.453
487.05	70.640
487.40	71.127
487.75	69.708
488.09	69.704
488.44	69.621
488.79	68.270
489.13	68.733
489.48	70.147
489.83	71.179
490.17	69.090
490.52	71.739
490.87	69.792
491.22	70.808
491.56	70.880
491.91	70.849
492.26	70.613
492.60	69.886
492.95	70.252
493.30	70.081
493.64	68.876
493.99	71.511
494.34	72.190
494.68	72.051
495.03	70.076
495.37	71.780
495.72	70.530
496.07	71.140
496.41	69.940
496.76	71.324
497.11	70.655
497.45	70.690
497.80	71.836
498.14	71.120
498.49	72.225
498.84	69.806
499.18	71.394
499.53	70.969
499.87	71.573
500.22	71.422
500.56	71.086
500.91	70.197
501.26	70.451
501.60	70.631
501.95	72.222
502.29	70.477
502.64	70.250
502.98	71.107
503.33	70.066
503.67	69.732
504.02	70.546
504.36	71.029
504.71	71.986
505.06	70.095
505.40	70.958
505.75	70.833
506.09	71.183
506.44	72.180
506.78	69.594
507.13	70.237
507.47	72.666
507.82	71.502
508.16	71.606
508.51	70.015
508.85	70.342
509.19	71.638
509.54	72.357
509.88	70.585
510.23	70.912
510.57	70.847
510.92	72.234
511.26	70.920
511.61	69.384
511.95	71.552
512.30	72.183
512.64	69.449
512.98	70.902
513.33	72.158
513.67	73.032
514.02	70.638
514.36	71.302
514.70	69.440
515.05	71.355
515.39	71.626
515.74	71.495
516.08	72.046
516.42	71.331
516.77	72.559
517.11	71.396
517.46	73.445
517.80	71.721
518.14	72.162
518.49	71.668
518.83	71.217
519.17	71.403
519.52	71.197
519.86	71.147
520.20	73.961
520.55	72.985
520.89	72.448
521.23	71.917
521.58	73.480
521.92	72.514
522.26	71.175
522.61	72.117
522.95	71.793
523.29	72.100
523.64	72.205
523.98	73.011
524.32	72.344
524.66	71.366
525.01	73.410
525.35	73.711
525.69	73.585
526.04	74.608
526.38	73.138
526.72	71.328
527.06	72.070
527.41	73.135
527.75	72.541
528.09	72.336
528.43	71.672
528.78	71.231
529.12	73.944
529.46	71.070
529.80	72.498
530.15	72.634
530.49	72.574
530.83	73.150
531.17	72.997
531.51	72.472
531.86	72.548
532.20	71.862
532.54	73.195
532.88	73.781
533.22	73.529
533.57	74.151
533.91	70.037
534.25	72.219
534.59	70.518
534.93	70.006
535.27	74.135
535.62	73.977
535.96	71.881
536.30	71.073
536.64	71.514
536.98	74.576
537.32	71.942
537.66	71.894
538.01	72.165
538.35	72.905
538.69	72.794
539.03	72.715
539.37	73.586
539.71	71.181
540.05	74.777
540.39	73.961
540.73	73.255
541.07	74.795
541.42	72.991
541.76	70.764
542.10	71.978
542.44	72.285
542.78	71.845
543.12	72.641
543.46	71.233
543.80	70.903
544.14	72.532
544.48	72.572
544.82	73.342
545.16	71.630
545.50	71.063
545.84	71.697
546.18	72.746
546.52	73.898
546.86	74.074
547.20	73.629
547.54	71.350
547.88	72.064
548.22	69.987
548.56	73.347
548.90	71.968
549.24	73.441
549.58	73.677
549.92	73.428
550.26	73.988
550.60	71.408
550.94	72.482
551.28	74.041
551.62	72.969
551.96	72.938
552.30	70.244
552.64	74.103
552.98	74.982
553.32	74.315
553.66	74.621
554.00	74.058
554.34	72.491
554.68	72.222
555.02	72.287
555.36	71.675
555.69	71.562
556.03	72.351
556.37	74.538
556.71	74.016
557.05	72.579
557.39	72.383
557.73	73.377
558.07	74.906
558.41	72.700
558.75	73.992
559.08	72.685
559.42	72.282
559.76	72.546
560.10	73.975
560.44	73.627
560.78	72.512
561.12	72.671
561.45	73.767
561.79	74.007
562.13	73.492
562.47	72.549
562.81	72.489
563.15	71.938
563.48	73.531
563.82	73.158
564.16	72.008
564.50	72.379
564.84	72.950
565.17	73.077
565.51	73.598
565.85	75.118
566.19	72.727
566.52	74.168
566.86	73.198
567.20	74.031
567.54	73.125
567.88	72.362
568.21	73.098
568.55	70.997
568.89	71.769
569.23	72.189
569.56	69.777
569.90	70.732
570.24	72.830
570.57	70.721
570.91	70.622
571.25	70.525
571.59	71.901
571.92	70.238
572.26	69.652
572.60	69.159
572.93	68.194
573.27	69.085
573.61	68.655
573.95	69.478
574.28	68.462
574.62	69.268
574.96	68.694
575.29	69.157
575.63	69.392
575.97	68.447
576.30	69.005
576.64	69.060
576.98	68.301
577.31	68.915
577.65	69.470
577.98	69.068
578.32	68.807
578.66	68.937
578.99	69.071
579.33	69.405
579.67	69.313
580.00	68.775
580.34	68.860
580.67	69.821
581.01	68.076
581.35	69.388
581.68	68.588
582.02	69.561
582.35	69.122
582.69	70.417
583.02	70.513
583.36	69.590
583.70	69.176
584.03	69.801
584.37	69.526
584.70	69.548
585.04	69.696
585.37	69.021
585.71	69.448
586.04	68.921
586.38	69.206
586.72	68.828
587.05	71.170
587.39	69.817
587.72	70.082
588.06	69.986
588.39	70.151
588.73	69.644
589.06	70.492
589.40	70.113
589.73	69.582
590.07	69.592
590.40	69.114
590.73	70.572
591.07	70.410
591.40	70.884
591.74	69.288
592.07	71.081
592.41	70.701
592.74	70.907
593.08	70.477
593.41	70.625
593.75	69.799
594.08	71.567
594.41	70.610
594.75	70.819
595.08	71.504
595.42	70.448
595.75	70.158
596.09	71.595
596.42	70.458
596.75	70.375
597.09	70.882
597.42	69.664
597.75	70.372
598.09	69.544
598.42	70.791
598.76	69.311
599.09	69.061
599.42	71.242
599.76	70.668
600.09	71.870
600.42	70.566
600.76	71.073
601.09	69.730
601.42	69.846
601.76	70.055
602.09	71.084
602.42	70.412
602.76	70.337
603.09	70.282
603.42	72.401
603.76	71.879
604.09	71.125
604.42	71.274
604.76	71.348
605.09	70.524
605.42	70.301
605.75	71.065
606.09	69.905
606.42	71.596
606.75	70.975
607.09	70.754
607.42	70.775
607.75	70.949
608.08	71.532
608.42	70.956
608.75	71.402
609.08	70.628
609.41	72.048
609.75	70.551
610.08	71.716
610.41	71.518
610.74	70.648
611.07	71.400
611.41	71.004
611.74	71.620
612.07	72.879
612.40	70.842
612.73	71.029
613.07	72.152
613.40	72.906
613.73	71.771
614.06	70.950
614.39	72.492
614.72	70.894
615.06	70.652
615.39	71.188
615.72	73.493
616.05	69.740
616.38	72.606
616.71	71.532
617.05	72.316
617.38	72.384
617.71	72.113
618.04	72.360
618.37	71.950
618.70	72.751
619.03	72.241
619.36	73.221
619.69	72.649
620.03	71.970
620.36	73.277
620.69	73.223
621.02	74.658
621.35	72.903
621.68	74.262
622.01	75.405
622.34	74.612
622.67	73.906
623.00	74.139
623.33	73.731
623.66	71.344
623.99	73.233
624.32	73.735
624.65	72.774
624.99	75.056
625.32	74.251
625.65	75.291
625.98	71.831
626.31	75.041
626.64	71.883
626.97	73.545
627.30	74.553
627.63	73.316
627.96	72.933
628.29	74.816
628.62	74.308
628.95	74.803
629.28	74.060
629.61	74.190
629.94	74.197
630.26	77.932
630.59	76.382
630.92	74.575
631.25	74.294
631.58	77.143
