SpectraSuite Data File
++++++++++++++++++++++++++++++++++++
Date: Sat May 16 11:29:24 PDT 2015
User: schluterlab
Dark Spectrum Present: Yes
Reference Spectrum Present: Yes
Number of Sampled Component Spectra: 1
Spectrometers: USB2E3373
Integration Time (usec): 3000 (USB2E3373)
Spectra Averaged: 3 (USB2E3373)
Boxcar Smoothing: 0 (USB2E3373)
Correct for Electrical Dark: No (USB2E3373)
Strobe/Lamp Enabled: No (USB2E3373)
Correct for Detector Non-linearity: No (USB2E3373)
Correct for Stray Light: No (USB2E3373)
Number of Pixels in Processed Spectrum: 2048
>>>>>Begin Processed Spectral Data<<<<<
178.53	0.000
178.91	133.333
179.29	133.333
179.67	-500.000
180.04	-100.000
180.42	1300.000
180.80	200.000
181.18	350.000
181.56	-87.500
181.94	900.000
182.31	450.000
182.69	23.077
183.07	-500.000
183.45	1450.000
183.83	333.333
184.20	-185.714
184.58	-187.500
184.96	-150.000
185.34	143.750
185.72	-375.000
186.09	216.667
186.47	-187.500
186.85	-162.500
187.23	0.000
187.61	-150.000
187.98	-187.500
188.36	-150.000
188.74	-200.000
189.12	900.000
189.49	314.286
189.87	-58.333
190.25	575.000
190.63	-7.143
191.00	-144.444
191.38	420.000
191.76	-33.333
192.14	580.000
192.51	-500.000
192.89	-433.333
193.27	0.000
193.65	-66.667
194.02	-171.429
194.40	333.333
194.78	-200.000
195.15	-900.000
195.53	-145.455
195.91	-483.333
196.29	260.000
196.66	-933.333
197.04	2800.000
197.42	-150.000
197.79	-33.333
198.17	-400.000
198.55	-350.000
198.92	-1000.000
199.30	162.500
199.68	-550.000
200.05	-177.778
200.43	-255.556
200.81	-800.000
201.18	-141.667
201.56	228.571
201.94	-46.667
202.31	-27.273
202.69	-30.000
203.07	-100.000
203.44	666.667
203.82	-350.000
204.19	-425.000
204.57	-350.000
204.95	-1200.000
205.32	-100.000
205.70	300.000
206.08	-1500.000
206.45	5.556
206.83	-850.000
207.20	-200.000
207.58	-666.667
207.96	-300.000
208.33	-87.500
208.71	22.222
209.08	140.000
209.46	-257.143
209.84	1000.000
210.21	0.000
210.59	45.000
210.96	1300.000
211.34	-283.333
211.71	-266.667
212.09	225.000
212.46	1050.000
212.84	-2200.000
213.22	633.333
213.59	191.667
213.97	-88.889
214.34	100.000
214.72	-130.000
215.09	-400.000
215.47	0.000
215.84	-30.000
216.22	-160.000
216.59	-20.000
216.97	-250.000
217.34	550.000
217.72	-14.286
218.09	-366.667
218.47	-257.143
218.84	271.429
219.22	-85.714
219.59	0.000
219.97	214.286
220.34	500.000
220.72	312.500
221.09	-53.846
221.47	0.000
221.84	233.333
222.22	-350.000
222.59	1300.000
222.97	-175.000
223.34	-600.000
223.72	-466.667
224.09	-57.143
224.46	-625.000
224.84	-35.714
225.21	-128.571
225.59	-27.273
225.96	-87.500
226.34	0.000
226.71	-44.444
227.08	-30.000
227.46	2900.000
227.83	-142.857
228.21	-275.000
228.58	350.000
228.95	-56.250
229.33	-1000.000
229.70	-340.000
230.08	-1200.000
230.45	-125.000
230.82	-183.333
231.20	-1100.000
231.57	-800.000
231.95	400.000
232.32	-28.571
232.69	-111.111
233.07	-257.143
233.44	-850.000
233.81	-53.333
234.19	-133.333
234.56	-37.500
234.93	12.500
235.31	-214.286
235.68	-64.286
236.05	-35.294
236.43	-68.182
236.80	9.677
237.17	-29.167
237.55	-33.333
237.92	-50.000
238.29	-14.286
238.67	-5.882
239.04	16.667
239.41	-12.903
239.79	-12.821
240.16	7.143
240.53	-16.364
240.91	2.564
241.28	20.000
241.65	20.000
242.02	1.639
242.40	-19.672
242.77	6.061
243.14	-1.695
243.51	2.857
243.89	7.595
244.26	12.360
244.63	24.211
245.00	4.211
245.38	4.237
245.75	17.699
246.12	19.200
246.49	10.236
246.87	1.626
247.24	6.780
247.61	19.492
247.98	9.155
248.36	8.392
248.73	8.228
249.10	7.643
249.47	12.281
249.84	13.636
250.22	1.786
250.59	13.559
250.96	10.471
251.33	21.801
251.70	10.577
252.08	17.536
252.45	12.796
252.82	12.381
253.19	17.447
253.56	12.903
253.94	10.970
254.31	13.305
254.68	19.919
255.05	13.710
255.42	15.873
255.79	13.620
256.16	22.745
256.54	19.485
256.91	12.879
257.28	15.018
257.65	14.894
258.02	18.553
258.39	17.391
258.76	15.203
259.14	16.358
259.51	21.311
259.88	14.024
260.25	19.255
260.62	17.363
260.99	10.979
261.36	16.159
261.73	16.763
262.10	17.222
262.47	17.664
262.85	20.286
263.22	14.613
263.59	14.154
263.96	17.971
264.33	20.054
264.70	19.061
265.07	14.835
265.44	19.121
265.81	15.762
266.18	12.405
266.55	19.363
266.92	19.647
267.29	18.886
267.66	19.753
268.03	19.082
268.40	20.188
268.77	14.458
269.14	15.313
269.51	14.023
269.88	13.303
270.25	15.152
270.62	13.959
270.99	14.189
271.36	16.550
271.73	17.489
272.10	15.789
272.47	14.667
272.84	18.000
273.21	16.055
273.58	17.582
273.95	17.325
274.32	20.136
274.69	16.411
275.06	18.609
275.43	14.509
275.80	15.886
276.17	16.946
276.54	20.774
276.91	15.844
277.28	16.836
277.65	18.802
278.02	17.537
278.39	17.092
278.76	17.530
279.13	18.577
279.50	14.712
279.87	16.702
280.23	18.219
280.60	17.893
280.97	17.864
281.34	17.021
281.71	16.154
282.08	17.339
282.45	14.460
282.82	17.442
283.19	16.909
283.56	18.864
283.92	18.551
284.29	16.914
284.66	16.906
285.03	17.825
285.40	18.081
285.77	18.246
286.14	16.426
286.51	15.453
286.87	18.875
287.24	16.553
287.61	15.372
287.98	18.024
288.35	16.033
288.72	14.941
289.08	16.949
289.45	17.845
289.82	14.187
290.19	17.077
290.56	15.537
290.93	14.467
291.29	13.776
291.66	14.171
292.03	18.995
292.40	15.964
292.77	16.304
293.13	16.585
293.50	16.345
293.87	15.184
294.24	15.535
294.60	14.242
294.97	15.630
295.34	15.704
295.71	15.774
296.08	13.210
296.44	13.734
296.81	15.527
297.18	13.239
297.55	15.395
297.91	16.039
298.28	14.932
298.65	12.692
299.02	16.578
299.38	14.439
299.75	14.674
300.12	14.487
300.48	14.066
300.85	14.810
301.22	13.972
301.59	13.524
301.95	15.365
302.32	11.604
302.69	15.912
303.05	15.263
303.42	14.875
303.79	14.234
304.15	15.047
304.52	14.702
304.89	14.640
305.25	13.553
305.62	14.571
305.99	15.548
306.35	14.539
306.72	13.895
307.09	16.572
307.45	12.145
307.82	13.743
308.19	14.765
308.55	14.597
308.92	13.749
309.29	14.595
309.65	13.786
310.02	13.607
310.38	13.838
310.75	14.857
311.12	14.773
311.48	14.718
311.85	14.727
312.22	15.345
312.58	14.751
312.95	14.271
313.31	13.886
313.68	14.271
314.05	14.837
314.41	13.883
314.78	13.487
315.14	13.919
315.51	13.678
315.87	15.586
316.24	14.091
316.61	14.779
316.97	14.627
317.34	13.584
317.70	13.080
318.07	13.713
318.43	13.858
318.80	14.836
319.16	12.758
319.53	16.165
319.89	13.264
320.26	13.922
320.62	12.692
320.99	13.831
321.35	13.498
321.72	13.613
322.08	14.243
322.45	13.267
322.81	13.641
323.18	13.545
323.54	14.140
323.91	14.458
324.27	14.924
324.64	11.974
325.00	14.398
325.37	14.118
325.73	14.611
326.10	14.792
326.46	15.149
326.83	14.979
327.19	13.761
327.56	14.736
327.92	14.189
328.29	14.805
328.65	13.636
329.01	14.311
329.38	14.630
329.74	15.385
330.11	15.050
330.47	13.896
330.84	15.215
331.20	14.440
331.56	14.585
331.93	14.831
332.29	14.155
332.66	14.838
333.02	15.204
333.38	15.323
333.75	15.138
334.11	13.156
334.48	13.416
334.84	15.136
335.20	15.603
335.57	14.892
335.93	16.204
336.29	15.766
336.66	14.626
337.02	15.315
337.38	15.330
337.75	15.716
338.11	15.832
338.47	14.680
338.84	15.154
339.20	15.026
339.56	14.439
339.93	14.021
340.29	14.615
340.65	15.297
341.02	15.177
341.38	14.912
341.74	15.241
342.11	15.102
342.47	14.764
342.83	13.854
343.20	14.688
343.56	13.714
343.92	14.441
344.28	15.643
344.65	14.604
345.01	14.454
345.37	14.784
345.73	13.993
346.10	13.818
346.46	14.866
346.82	13.633
347.19	14.133
347.55	14.045
347.91	14.961
348.27	13.365
348.63	15.428
349.00	15.593
349.36	13.583
349.72	15.685
350.08	13.713
350.45	14.027
350.81	15.446
351.17	13.826
351.53	13.206
351.89	14.470
352.26	14.729
352.62	14.977
352.98	14.953
353.34	13.909
353.70	13.514
354.07	14.555
354.43	14.545
354.79	14.263
355.15	15.096
355.51	14.375
355.87	14.308
356.24	14.376
356.60	15.471
356.96	14.627
357.32	14.568
357.68	14.789
358.04	14.319
358.40	14.540
358.77	14.374
359.13	14.767
359.49	14.059
359.85	14.024
360.21	15.145
360.57	14.985
360.93	15.481
361.29	15.247
361.66	14.253
362.02	15.089
362.38	15.187
362.74	14.725
363.10	14.419
363.46	15.954
363.82	15.379
364.18	14.544
364.54	16.440
364.90	14.745
365.26	15.335
365.62	15.253
365.98	15.576
366.35	14.577
366.71	14.588
367.07	15.596
367.43	15.511
367.79	14.983
368.15	14.083
368.51	15.035
368.87	15.934
369.23	15.649
369.59	15.417
369.95	15.222
370.31	16.104
370.67	14.389
371.03	15.598
371.39	14.074
371.75	15.665
372.11	15.997
372.47	16.269
372.83	15.925
373.19	16.643
373.55	15.975
373.91	16.287
374.27	16.427
374.63	15.804
374.99	16.342
375.35	14.872
375.71	16.948
376.07	16.153
376.42	14.834
376.78	16.209
377.14	15.661
377.50	17.021
377.86	16.385
378.22	17.148
378.58	16.862
378.94	16.831
379.30	16.575
379.66	17.365
380.02	15.805
380.38	16.254
380.74	16.120
381.09	17.106
381.45	17.601
381.81	16.213
382.17	16.667
382.53	16.778
382.89	17.285
383.25	17.399
383.61	16.627
383.97	17.514
384.32	16.708
384.68	17.654
385.04	17.452
385.40	17.346
385.76	18.841
386.12	17.364
386.48	18.626
386.83	18.098
387.19	17.454
387.55	17.807
387.91	17.664
388.27	16.767
388.62	17.608
388.98	17.747
389.34	17.503
389.70	17.966
390.06	17.464
390.42	19.167
390.77	18.360
391.13	18.696
391.49	18.528
391.85	17.893
392.20	17.718
392.56	17.776
392.92	18.483
393.28	18.370
393.64	17.980
393.99	18.585
394.35	18.796
394.71	18.159
395.07	19.146
395.42	17.819
395.78	17.976
396.14	19.252
396.50	19.021
396.85	18.877
397.21	18.834
397.57	18.541
397.92	18.501
398.28	18.889
398.64	18.560
399.00	19.213
399.35	18.602
399.71	19.222
400.07	18.985
400.42	19.161
400.78	18.426
401.14	18.862
401.49	18.868
401.85	19.585
402.21	18.892
402.57	19.357
402.92	19.132
403.28	18.321
403.63	17.795
403.99	18.832
404.35	19.384
404.70	19.017
405.06	18.685
405.42	17.958
405.77	17.986
406.13	18.626
406.49	19.473
406.84	18.536
407.20	20.082
407.55	19.506
407.91	19.301
408.27	20.221
408.62	19.302
408.98	19.042
409.34	19.196
409.69	18.904
410.05	18.981
410.40	19.191
410.76	19.680
411.11	18.953
411.47	18.990
411.83	19.132
412.18	19.678
412.54	18.060
412.89	19.259
413.25	18.536
413.60	18.955
413.96	18.176
414.31	20.245
414.67	19.810
415.03	19.082
415.38	19.844
415.74	19.265
416.09	19.054
416.45	18.651
416.80	20.026
417.16	19.070
417.51	20.617
417.87	18.382
418.22	19.406
418.58	20.347
418.93	19.191
419.29	19.699
419.64	19.158
420.00	19.806
420.35	19.219
420.71	19.808
421.06	20.178
421.42	18.208
421.77	19.375
422.12	19.306
422.48	18.546
422.83	20.273
423.19	19.599
423.54	20.115
423.90	19.665
424.25	19.174
424.61	19.602
424.96	20.070
425.31	20.347
425.67	19.771
426.02	19.277
426.38	20.508
426.73	19.813
427.09	19.914
427.44	20.057
427.79	20.291
428.15	20.766
428.50	20.352
428.85	19.784
429.21	20.089
429.56	20.208
429.92	20.040
430.27	19.192
430.62	20.846
430.98	20.596
431.33	19.584
431.68	20.804
432.04	20.985
432.39	20.855
432.74	19.604
433.10	20.878
433.45	19.401
433.80	19.541
434.16	19.828
434.51	21.370
434.86	20.035
435.22	20.991
435.57	19.706
435.92	20.633
436.28	20.178
436.63	20.068
436.98	20.218
437.34	20.910
437.69	20.945
438.04	20.193
438.39	20.999
438.75	20.605
439.10	20.877
439.45	21.485
439.81	21.627
440.16	20.102
440.51	21.588
440.86	20.763
441.22	19.735
441.57	21.263
441.92	20.665
442.27	21.591
442.63	19.957
442.98	20.542
443.33	20.868
443.68	20.948
444.03	20.481
444.39	20.705
444.74	20.815
445.09	19.792
445.44	20.315
445.79	20.704
446.15	21.084
446.50	20.849
446.85	20.831
447.20	20.480
447.55	21.768
447.91	20.999
448.26	20.559
448.61	19.751
448.96	21.176
449.31	20.349
449.66	21.981
450.02	20.277
450.37	20.928
450.72	21.186
451.07	21.307
451.42	20.446
451.77	21.664
452.12	21.871
452.47	22.040
452.83	21.025
453.18	22.897
453.53	21.828
453.88	22.249
454.23	20.677
454.58	21.939
454.93	21.914
455.28	21.351
455.63	21.376
455.98	22.108
456.34	21.347
456.69	22.201
457.04	21.881
457.39	20.754
457.74	20.910
458.09	21.810
458.44	22.286
458.79	21.525
459.14	23.160
459.49	21.906
459.84	20.854
460.19	21.360
460.54	22.081
460.89	21.244
461.24	21.372
461.59	21.981
461.94	22.279
462.29	22.752
462.64	22.464
462.99	23.159
463.34	21.945
463.69	22.392
464.04	21.851
464.39	20.848
464.74	21.749
465.09	21.587
465.44	21.997
465.79	22.899
466.14	22.440
466.49	21.934
466.84	22.689
467.19	23.379
467.54	21.772
467.89	22.195
468.24	23.040
468.59	22.548
468.94	22.637
469.29	22.547
469.64	22.776
469.99	23.025
470.34	22.645
470.68	23.038
471.03	23.400
471.38	21.875
471.73	22.587
472.08	22.758
472.43	23.745
472.78	23.733
473.13	21.803
473.48	23.484
473.83	21.960
474.17	22.803
474.52	23.465
474.87	23.893
475.22	22.950
475.57	22.333
475.92	23.542
476.27	22.857
476.61	23.155
476.96	23.589
477.31	23.197
477.66	23.464
478.01	23.447
478.36	22.839
478.70	23.972
479.05	23.743
479.40	23.264
479.75	23.649
480.10	23.065
480.45	22.631
480.79	23.643
481.14	24.034
481.49	23.524
481.84	23.578
482.19	23.847
482.53	23.390
482.88	23.398
483.23	23.568
483.58	24.006
483.92	23.364
484.27	23.394
484.62	23.369
484.97	23.188
485.31	22.080
485.66	21.664
486.01	20.864
486.36	21.732
486.70	22.453
487.05	22.306
487.40	22.356
487.75	22.572
488.09	22.082
488.44	22.497
488.79	22.816
489.13	23.659
489.48	23.817
489.83	24.192
490.17	23.988
490.52	23.958
490.87	23.788
491.22	24.148
491.56	24.491
491.91	24.380
492.26	24.764
492.60	23.597
492.95	23.846
493.30	23.583
493.64	23.977
493.99	24.809
494.34	23.857
494.68	24.766
495.03	24.140
495.37	24.582
495.72	24.853
496.07	24.965
496.41	25.012
496.76	24.247
497.11	24.870
497.45	24.952
497.80	24.812
498.14	24.656
498.49	24.761
498.84	24.223
499.18	25.097
499.53	24.890
499.87	24.710
500.22	24.559
500.56	25.263
500.91	25.320
501.26	25.619
501.60	24.892
501.95	25.556
502.29	24.894
502.64	25.507
502.98	25.395
503.33	24.765
503.67	24.761
504.02	25.157
504.36	25.637
504.71	25.431
505.06	25.462
505.40	26.098
505.75	25.711
506.09	26.138
506.44	25.664
506.78	25.740
507.13	26.107
507.47	26.813
507.82	25.710
508.16	26.736
508.51	25.914
508.85	26.915
509.19	25.798
509.54	25.793
509.88	26.862
510.23	26.048
510.57	27.460
510.92	26.423
511.26	26.103
511.61	26.080
511.95	26.293
512.30	26.058
512.64	25.765
512.98	27.118
513.33	26.689
513.67	26.968
514.02	26.454
514.36	27.645
514.70	26.599
515.05	27.444
515.39	26.759
515.74	27.923
516.08	27.781
516.42	28.442
516.77	27.210
517.11	27.632
517.46	28.469
517.80	28.339
518.14	28.019
518.49	28.033
518.83	26.647
519.17	28.419
519.52	27.530
519.86	29.092
520.20	28.912
520.55	27.754
520.89	27.301
521.23	28.205
521.58	28.025
521.92	29.702
522.26	29.460
522.61	28.010
522.95	27.441
523.29	29.216
523.64	28.670
523.98	28.326
524.32	29.793
524.66	28.758
525.01	28.516
525.35	30.541
525.69	29.603
526.04	28.851
526.38	29.408
526.72	28.927
527.06	28.320
527.41	29.241
527.75	28.779
528.09	28.855
528.43	28.525
528.78	28.580
529.12	29.193
529.46	28.737
529.80	28.535
530.15	28.332
530.49	29.172
530.83	29.862
531.17	29.226
531.51	29.136
531.86	28.703
532.20	29.622
532.54	30.548
532.88	29.447
533.22	28.944
533.57	30.287
533.91	27.466
534.25	27.781
534.59	27.983
534.93	28.563
535.27	29.138
535.62	29.220
535.96	29.282
536.30	29.123
536.64	28.619
536.98	28.531
537.32	29.026
537.66	28.581
538.01	29.691
538.35	29.054
538.69	28.944
539.03	28.978
539.37	29.142
539.71	28.486
540.05	29.267
540.39	29.501
540.73	30.062
541.07	30.123
541.42	28.292
541.76	28.173
542.10	30.182
542.44	29.314
542.78	29.579
543.12	28.785
543.46	28.151
543.80	27.960
544.14	28.274
544.48	29.265
544.82	28.552
545.16	29.779
545.50	28.533
545.84	29.346
546.18	28.433
546.52	30.014
546.86	28.846
547.20	30.239
547.54	27.893
547.88	30.060
548.22	27.785
548.56	28.123
548.90	28.571
549.24	28.942
549.58	29.428
549.92	29.682
550.26	30.491
550.60	29.587
550.94	29.416
551.28	29.496
551.62	29.173
551.96	28.726
552.30	29.268
552.64	29.134
552.98	29.502
553.32	28.427
553.66	30.570
554.00	28.714
554.34	29.025
554.68	29.605
555.02	29.884
555.36	29.691
555.69	29.155
556.03	29.053
556.37	29.801
556.71	29.778
557.05	31.190
557.39	29.621
557.73	29.613
558.07	29.540
558.41	29.693
558.75	29.202
559.08	28.327
559.42	29.326
559.76	29.525
560.10	30.425
560.44	29.263
560.78	29.088
561.12	28.986
561.45	29.178
561.79	28.920
562.13	30.014
562.47	29.062
562.81	29.279
563.15	29.671
563.48	29.924
563.82	28.803
564.16	29.412
564.50	28.965
564.84	29.960
565.17	28.647
565.51	28.422
565.85	28.938
566.19	30.105
566.52	28.245
566.86	28.698
567.20	28.995
567.54	28.588
567.88	27.862
568.21	28.635
568.55	27.359
568.89	26.789
569.23	27.857
569.56	26.398
569.90	26.357
570.24	26.156
570.57	25.870
570.91	24.787
571.25	25.195
571.59	25.507
571.92	25.119
572.26	24.925
572.60	24.542
572.93	24.775
573.27	24.726
573.61	24.176
573.95	24.428
574.28	24.133
574.62	24.530
574.96	24.227
575.29	24.009
575.63	24.449
575.97	24.299
576.30	23.815
576.64	24.360
576.98	23.464
577.31	23.814
577.65	24.044
577.98	23.562
578.32	23.490
578.66	24.254
578.99	24.194
579.33	24.014
579.67	23.967
580.00	23.934
580.34	23.581
580.67	24.124
581.01	23.537
581.35	23.753
581.68	23.645
582.02	23.389
582.35	23.739
582.69	24.069
583.02	24.425
583.36	24.190
583.70	23.758
584.03	24.461
584.37	23.843
584.70	23.685
585.04	23.924
585.37	23.675
585.71	23.585
586.04	23.961
586.38	23.951
586.72	24.464
587.05	24.639
587.39	23.983
587.72	23.971
588.06	23.824
588.39	24.409
588.73	24.442
589.06	24.520
589.40	24.631
589.73	25.035
590.07	24.363
590.40	24.539
590.73	24.910
591.07	25.123
591.40	25.433
591.74	25.934
592.07	26.171
592.41	25.690
592.74	25.250
593.08	24.614
593.41	24.046
593.75	24.530
594.08	25.162
594.41	25.841
594.75	24.991
595.08	25.226
595.42	24.422
595.75	24.513
596.09	25.378
596.42	25.818
596.75	25.097
597.09	25.467
597.42	25.142
597.75	25.731
598.09	26.028
598.42	25.630
598.76	25.083
599.09	24.743
599.42	24.529
599.76	24.877
600.09	25.534
600.42	25.370
600.76	24.972
601.09	24.497
601.42	24.812
601.76	25.195
602.09	25.072
602.42	24.733
602.76	25.010
603.09	25.242
603.42	25.222
603.76	24.970
604.09	24.790
604.42	24.604
604.76	25.469
605.09	25.904
605.42	25.709
605.75	25.140
606.09	24.907
606.42	24.717
606.75	24.775
607.09	25.540
607.42	25.352
607.75	25.298
608.08	25.079
608.42	25.166
608.75	25.701
609.08	25.377
609.41	25.810
609.75	25.890
610.08	26.422
610.41	26.169
610.74	25.870
611.07	26.166
611.41	25.315
611.74	26.272
612.07	26.853
612.40	26.439
612.73	26.440
613.07	26.527
613.40	26.765
613.73	26.213
614.06	25.481
614.39	26.550
614.72	26.425
615.06	25.978
615.39	26.153
615.72	25.964
616.05	25.787
616.38	26.756
616.71	26.246
617.05	27.021
617.38	27.245
617.71	25.921
618.04	27.019
618.37	27.296
618.70	27.249
619.03	26.879
619.36	28.189
619.69	28.500
620.03	26.928
620.36	27.426
620.69	28.284
621.02	28.843
621.35	28.468
621.68	27.869
622.01	28.641
622.34	27.407
622.67	28.672
623.00	27.697
623.33	28.209
623.66	27.105
623.99	27.970
624.32	26.786
624.65	27.741
624.99	27.035
625.32	27.246
625.65	29.448
625.98	27.465
626.31	28.303
626.64	28.536
626.97	28.082
627.30	29.447
627.63	26.857
627.96	29.243
628.29	28.401
628.62	28.844
628.95	30.807
629.28	28.477
629.61	29.342
629.94	29.962
630.26	30.616
630.59	31.055
630.92	30.631
631.25	32.359
631.58	29.630
631.91	29.468
