SpectraSuite Data File
++++++++++++++++++++++++++++++++++++
Date: Sat May 16 11:12:00 PDT 2015
User: schluterlab
Dark Spectrum Present: Yes
Reference Spectrum Present: Yes
Number of Sampled Component Spectra: 1
Spectrometers: USB2E3373
Integration Time (usec): 3000 (USB2E3373)
Spectra Averaged: 3 (USB2E3373)
Boxcar Smoothing: 0 (USB2E3373)
Correct for Electrical Dark: No (USB2E3373)
Strobe/Lamp Enabled: No (USB2E3373)
Correct for Detector Non-linearity: No (USB2E3373)
Correct for Stray Light: No (USB2E3373)
Number of Pixels in Processed Spectrum: 2048
>>>>>Begin Processed Spectral Data<<<<<
178.53	0.000
178.91	106.667
179.29	333.333
179.67	-400.000
180.04	-30.769
180.42	-200.000
180.80	100.000
181.18	175.000
181.56	62.500
181.94	300.000
182.31	425.000
182.69	-61.538
183.07	-200.000
183.45	950.000
183.83	-133.333
184.20	-157.143
184.58	0.000
184.96	-150.000
185.34	31.250
185.72	-275.000
186.09	-0.000
186.47	-100.000
186.85	-62.500
187.23	12.500
187.61	-225.000
187.98	-237.500
188.36	12.500
188.74	-50.000
189.12	1700.000
189.49	257.143
189.87	16.667
190.25	175.000
190.63	0.000
191.00	0.000
191.38	20.000
191.76	33.333
192.14	540.000
192.51	-220.000
192.89	-300.000
193.27	0.000
193.65	-100.000
194.02	-14.286
194.40	500.000
194.78	50.000
195.15	-900.000
195.53	54.545
195.91	-166.667
196.29	180.000
196.66	-166.667
197.04	900.000
197.42	0.000
197.79	66.667
198.17	-400.000
198.55	-750.000
198.92	-1400.000
199.30	87.500
199.68	-150.000
200.05	-155.556
200.43	-77.778
200.81	-700.000
201.18	-50.000
201.56	85.714
201.94	-13.333
202.31	18.182
202.69	50.000
203.07	30.000
203.44	133.333
203.82	-183.333
204.19	-175.000
204.57	-75.000
204.95	-600.000
205.32	18.750
205.70	300.000
206.08	-700.000
206.45	11.111
206.83	-750.000
207.20	0.000
207.58	-566.667
207.96	-266.667
208.33	-87.500
208.71	0.000
209.08	120.000
209.46	-142.857
209.84	50.000
210.21	0.000
210.59	65.000
210.96	500.000
211.34	-83.333
211.71	133.333
212.09	200.000
212.46	550.000
212.84	-1000.000
213.22	333.333
213.59	41.667
213.97	11.111
214.34	120.000
214.72	-40.000
215.09	-66.667
215.47	66.667
215.84	130.000
216.22	-20.000
216.59	66.667
216.97	75.000
217.34	100.000
217.72	14.286
218.09	-66.667
218.47	-57.143
218.84	128.571
219.22	71.429
219.59	0.000
219.97	-0.000
220.34	375.000
220.72	150.000
221.09	-23.077
221.47	0.000
221.84	66.667
222.22	-300.000
222.59	-0.000
222.97	-125.000
223.34	-250.000
223.72	-100.000
224.09	-21.429
224.46	-25.000
224.84	14.286
225.21	-42.857
225.59	-45.455
225.96	-112.500
226.34	28.571
226.71	22.222
227.08	50.000
227.46	800.000
227.83	-85.714
228.21	-125.000
228.58	-300.000
228.95	18.750
229.33	-300.000
229.70	-100.000
230.08	-650.000
230.45	66.667
230.82	-16.667
231.20	-500.000
231.57	-50.000
231.95	900.000
232.32	76.190
232.69	-122.222
233.07	-57.143
233.44	-700.000
233.81	-13.333
234.19	11.111
234.56	-56.250
234.93	46.875
235.31	-185.714
235.68	-57.143
236.05	23.529
236.43	-22.727
236.80	0.000
237.17	8.333
237.55	-14.286
237.92	-22.727
238.29	-22.857
238.67	35.294
239.04	5.556
239.41	-32.258
239.79	-48.718
240.16	-9.524
240.53	0.000
240.91	-15.385
241.28	10.909
241.65	21.538
242.02	0.000
242.40	3.279
242.77	4.545
243.14	-11.864
243.51	-10.000
243.89	0.000
244.26	2.247
244.63	13.684
245.00	6.316
245.38	0.847
245.75	-0.885
246.12	10.400
246.49	2.362
246.87	6.504
247.24	2.542
247.61	-5.932
247.98	4.225
248.36	4.895
248.73	1.266
249.10	-4.459
249.47	4.094
249.84	5.682
250.22	-2.381
250.59	2.825
250.96	0.524
251.33	8.057
251.70	5.288
252.08	9.953
252.45	4.739
252.82	-1.905
253.19	0.000
253.56	4.435
253.94	1.688
254.31	6.867
254.68	6.504
255.05	3.226
255.42	7.143
255.79	-0.358
256.16	3.529
256.54	3.676
256.91	1.894
257.28	2.198
257.65	1.064
258.02	10.377
258.39	4.013
258.76	4.054
259.14	4.321
259.51	4.262
259.88	5.183
260.25	4.348
260.62	2.572
260.99	2.671
261.36	4.573
261.73	5.780
262.10	8.611
262.47	3.134
262.85	4.571
263.22	4.585
263.59	2.462
263.96	2.609
264.33	4.336
264.70	6.077
265.07	2.473
265.44	3.618
265.81	2.326
266.18	5.063
266.55	2.206
266.92	4.786
267.29	5.085
267.66	1.975
268.03	3.865
268.40	4.225
268.77	4.819
269.14	3.712
269.51	4.828
269.88	2.294
270.25	2.098
270.62	3.890
270.99	5.180
271.36	5.594
271.73	4.709
272.10	6.178
272.47	2.000
272.84	9.556
273.21	5.505
273.58	5.055
273.95	6.798
274.32	4.977
274.69	5.033
275.06	5.317
275.43	1.563
275.80	5.906
276.17	5.021
276.54	7.739
276.91	2.469
277.28	4.462
277.65	3.926
278.02	1.670
278.39	3.929
278.76	5.976
279.13	4.743
279.50	4.573
279.87	1.903
280.23	2.632
280.60	5.169
280.97	3.883
281.34	1.741
281.71	3.654
282.08	5.444
282.45	0.815
282.82	5.426
283.19	4.364
283.56	5.128
283.92	4.947
284.29	3.160
284.66	4.496
285.03	6.774
285.40	7.749
285.77	4.561
286.14	5.415
286.51	2.842
286.87	4.174
287.24	5.802
287.61	3.967
287.98	4.679
288.35	3.636
288.72	3.226
289.08	4.068
289.45	3.872
289.82	2.768
290.19	4.926
290.56	4.132
290.93	3.975
291.29	3.566
291.66	3.704
292.03	5.651
292.40	5.422
292.77	3.416
293.13	3.902
293.50	4.458
293.87	4.601
294.24	3.017
294.60	2.727
294.97	5.008
295.34	3.556
295.71	4.018
296.08	3.072
296.44	3.433
296.81	5.698
297.18	4.225
297.55	4.520
297.91	5.300
298.28	4.247
298.65	4.184
299.02	5.348
299.38	3.743
299.75	4.891
300.12	4.359
300.48	3.453
300.85	3.539
301.22	4.657
301.59	4.161
301.95	5.793
302.32	3.781
302.69	4.529
303.05	3.541
303.42	3.250
303.79	2.751
304.15	4.858
304.52	4.901
304.89	5.431
305.25	3.419
305.62	3.290
305.99	4.594
306.35	3.441
306.72	2.506
307.09	5.448
307.45	4.200
307.82	3.352
308.19	5.145
308.55	4.684
308.92	4.404
309.29	3.351
309.65	4.666
310.02	4.752
310.38	3.027
310.75	5.328
311.12	5.165
311.48	5.637
311.85	4.119
312.22	4.943
312.58	5.595
312.95	5.199
313.31	5.694
313.68	6.231
314.05	6.627
314.41	4.527
314.78	5.794
315.14	5.429
315.51	6.282
315.87	6.292
316.24	7.969
316.61	6.046
316.97	7.562
317.34	6.647
317.70	6.122
318.07	7.556
318.43	7.116
318.80	8.075
319.16	6.191
319.53	7.237
319.89	6.679
320.26	8.137
320.62	6.058
320.99	7.463
321.35	7.488
321.72	8.086
322.08	9.001
322.45	9.010
322.81	9.894
323.18	10.279
323.54	10.166
323.91	10.751
324.27	11.787
324.64	11.700
325.00	12.653
325.37	13.394
325.73	14.786
326.10	14.083
326.46	14.011
326.83	15.404
327.19	16.931
327.56	17.973
327.92	17.587
328.29	18.442
328.65	18.364
329.01	19.170
329.38	20.428
329.74	23.443
330.11	21.668
330.47	22.979
330.84	24.473
331.20	24.097
331.56	24.521
331.93	25.755
332.29	26.758
332.66	26.339
333.02	27.149
333.38	28.763
333.75	28.851
334.11	29.689
334.48	28.861
334.84	30.446
335.20	29.433
335.57	29.152
335.93	31.603
336.29	30.824
336.66	29.339
337.02	32.252
337.38	31.729
337.75	32.397
338.11	32.826
338.47	32.562
338.84	33.485
339.20	31.898
339.56	33.601
339.93	31.393
340.29	32.241
340.65	32.780
341.02	33.221
341.38	32.435
341.74	33.023
342.11	33.618
342.47	33.734
342.83	32.578
343.20	34.073
343.56	31.347
343.92	33.806
344.28	35.071
344.65	33.828
345.01	34.034
345.37	34.718
345.73	34.043
346.10	33.034
346.46	32.819
346.82	32.558
347.19	32.703
347.55	33.868
347.91	33.780
348.27	33.333
348.63	35.218
349.00	33.970
349.36	32.709
349.72	34.156
350.08	34.723
350.45	32.939
350.81	32.404
351.17	32.235
351.53	33.492
351.89	34.115
352.26	33.721
352.62	34.332
352.98	34.098
353.34	34.133
353.70	32.587
354.07	33.989
354.43	34.783
354.79	33.756
355.15	32.588
355.51	32.812
355.87	35.099
356.24	33.598
356.60	35.455
356.96	35.335
357.32	33.967
357.68	33.870
358.04	34.565
358.40	32.947
358.77	34.776
359.13	35.119
359.49	34.694
359.85	34.527
360.21	34.247
360.57	34.262
360.93	35.111
361.29	35.202
361.66	34.070
362.02	34.763
362.38	34.850
362.74	36.630
363.10	34.935
363.46	36.182
363.82	35.131
364.18	35.601
364.54	36.169
364.90	34.591
365.26	35.093
365.62	36.565
365.98	36.486
366.35	35.845
366.71	34.602
367.07	35.992
367.43	36.102
367.79	35.876
368.15	36.344
368.51	36.224
368.87	36.607
369.23	37.123
369.59	36.319
369.95	36.293
370.31	37.271
370.67	36.515
371.03	35.350
371.39	36.068
371.75	38.054
372.11	37.231
372.47	36.153
372.83	38.039
373.19	36.571
373.55	37.227
373.91	37.980
374.27	39.425
374.63	38.233
374.99	39.499
375.35	37.550
375.71	38.825
376.07	38.398
376.42	37.351
376.78	39.085
377.14	40.000
377.50	40.426
377.86	38.557
378.22	38.693
378.58	39.716
378.94	39.396
379.30	40.585
379.66	39.769
380.02	38.562
380.38	38.912
380.74	39.977
381.09	39.016
381.45	41.348
381.81	40.290
382.17	39.787
382.53	40.000
382.89	41.746
383.25	42.083
383.61	41.038
383.97	40.968
384.32	41.677
384.68	41.959
385.04	40.519
385.40	41.205
385.76	41.159
386.12	42.286
386.48	42.822
386.83	41.227
387.19	41.781
387.55	43.004
387.91	42.027
388.27	42.159
388.62	42.548
388.98	42.762
389.34	41.065
389.70	41.169
390.06	42.014
390.42	43.910
390.77	42.650
391.13	44.596
391.49	42.795
391.85	42.207
392.20	42.172
392.56	42.944
392.92	42.955
393.28	43.513
393.64	43.476
393.99	44.492
394.35	42.883
394.71	42.125
395.07	43.063
395.42	41.836
395.78	42.552
396.14	43.240
396.50	43.119
396.85	43.553
397.21	43.682
397.57	42.310
397.92	42.330
398.28	43.722
398.64	43.189
399.00	44.438
399.35	43.856
399.71	43.786
400.07	43.701
400.42	43.370
400.78	43.053
401.14	42.994
401.49	43.337
401.85	43.197
402.21	44.398
402.57	43.871
402.92	44.493
403.28	42.892
403.63	43.259
403.99	44.313
404.35	43.116
404.70	44.295
405.06	43.714
405.42	42.866
405.77	42.421
406.13	43.044
406.49	43.978
406.84	43.731
407.20	42.638
407.55	42.812
407.91	41.969
408.27	43.505
408.62	42.814
408.98	43.905
409.34	43.449
409.69	42.974
410.05	43.602
410.40	43.899
410.76	43.687
411.11	43.766
411.47	43.670
411.83	43.826
412.18	43.998
412.54	42.709
412.89	43.135
413.25	43.388
413.60	41.798
413.96	42.822
414.31	43.058
414.67	42.286
415.03	43.920
415.38	43.656
415.74	44.008
416.09	43.606
416.45	43.915
416.80	43.238
417.16	43.056
417.51	44.189
417.87	44.142
418.22	43.679
418.58	43.967
418.93	44.206
419.29	44.354
419.64	43.342
420.00	45.140
420.35	45.299
420.71	45.078
421.06	44.260
421.42	45.141
421.77	44.444
422.12	45.439
422.48	44.041
422.83	44.590
423.19	44.989
423.54	46.225
423.90	45.460
424.25	45.249
424.61	45.778
424.96	45.641
425.31	45.277
425.67	45.616
426.02	45.841
426.38	46.824
426.73	46.873
427.09	46.140
427.44	45.739
427.79	46.570
428.15	46.080
428.50	46.862
428.85	46.343
429.21	46.431
429.56	46.875
429.92	45.291
430.27	46.112
430.62	47.597
430.98	46.576
431.33	46.105
431.68	47.989
432.04	47.678
432.39	47.350
432.74	47.782
433.10	48.396
433.45	46.978
433.80	48.208
434.16	48.039
434.51	48.932
434.86	48.565
435.22	47.940
435.57	48.470
435.92	48.476
436.28	50.504
436.63	47.880
436.98	48.110
437.34	48.258
437.69	48.658
438.04	48.497
438.39	48.917
438.75	48.021
439.10	47.973
439.45	47.737
439.81	48.916
440.16	48.779
440.51	50.706
440.86	49.855
441.22	49.475
441.57	49.737
441.92	50.026
442.27	49.892
442.63	49.517
442.98	48.928
443.33	50.137
443.68	50.026
444.03	49.853
444.39	50.220
444.74	50.771
445.09	50.493
445.44	50.310
445.79	49.822
446.15	51.588
446.50	49.047
446.85	49.461
447.20	49.694
447.55	50.884
447.91	50.421
448.26	50.223
448.61	49.972
448.96	50.588
449.31	51.297
449.66	51.460
450.02	51.302
450.37	51.246
450.72	50.621
451.07	51.728
451.42	50.805
451.77	50.688
452.12	51.669
452.47	51.763
452.83	50.553
453.18	51.360
453.53	51.182
453.88	51.974
454.23	50.786
454.58	53.139
454.93	52.582
455.28	52.008
455.63	52.027
455.98	52.952
456.34	51.652
456.69	51.220
457.04	51.875
457.39	51.435
457.74	51.802
458.09	51.566
458.44	51.790
458.79	52.130
459.14	52.653
459.49	52.872
459.84	50.927
460.19	52.864
460.54	51.664
460.89	52.074
461.24	52.034
461.59	51.583
461.94	53.787
462.29	52.233
462.64	52.964
462.99	54.016
463.34	51.654
463.69	52.926
464.04	50.849
464.39	52.210
464.74	52.128
465.09	51.774
465.44	52.228
465.79	52.171
466.14	53.625
466.49	52.447
466.84	53.001
467.19	53.117
467.54	51.203
467.89	54.254
468.24	52.257
468.59	52.155
468.94	54.212
469.29	53.021
469.64	52.089
469.99	52.532
470.34	53.106
470.68	53.852
471.03	53.407
471.38	51.389
471.73	53.776
472.08	53.079
472.43	53.153
472.78	53.667
473.13	52.419
473.48	52.904
473.83	53.474
474.17	52.611
474.52	53.517
474.87	53.030
475.22	53.097
475.57	53.500
475.92	53.078
476.27	52.686
476.61	53.803
476.96	52.990
477.31	52.691
477.66	53.459
478.01	53.377
478.36	52.907
478.70	54.511
479.05	55.598
479.40	53.834
479.75	52.905
480.10	52.579
480.45	51.934
480.79	53.850
481.14	53.989
481.49	54.163
481.84	52.936
482.19	53.677
482.53	53.314
482.88	54.153
483.23	53.662
483.58	53.377
483.92	54.181
484.27	53.168
484.62	53.175
484.97	53.274
485.31	52.992
485.66	51.077
486.01	51.250
486.36	51.831
486.70	52.712
487.05	52.250
487.40	52.858
487.75	53.060
488.09	52.224
488.44	53.078
488.79	53.307
489.13	53.671
489.48	53.630
489.83	54.847
490.17	53.722
490.52	52.899
490.87	54.226
491.22	53.713
491.56	54.074
491.91	54.198
492.26	55.094
492.60	54.329
492.95	53.832
493.30	53.502
493.64	53.832
493.99	54.159
494.34	54.762
494.68	54.728
495.03	54.876
495.37	54.031
495.72	54.961
496.07	54.294
496.41	55.628
496.76	55.160
497.11	54.498
497.45	56.178
497.80	54.627
498.14	53.978
498.49	55.249
498.84	53.835
499.18	55.604
499.53	55.626
499.87	55.068
500.22	54.510
500.56	54.477
500.91	54.680
501.26	54.828
501.60	55.079
501.95	56.667
502.29	54.747
502.64	55.776
502.98	54.720
503.33	54.652
503.67	54.837
504.02	54.322
504.36	55.000
504.71	54.965
505.06	54.568
505.40	56.437
505.75	55.691
506.09	55.511
506.44	54.737
506.78	54.842
507.13	55.716
507.47	55.399
507.82	54.879
508.16	56.580
508.51	54.456
508.85	55.694
509.19	54.631
509.54	55.180
509.88	55.957
510.23	55.189
510.57	55.450
510.92	57.519
511.26	57.257
511.61	55.346
511.95	56.358
512.30	55.745
512.64	55.648
512.98	56.766
513.33	56.178
513.67	56.505
514.02	56.711
514.36	55.845
514.70	56.140
515.05	57.862
515.39	55.767
515.74	57.010
516.08	57.061
516.42	55.864
516.77	56.326
517.11	56.007
517.46	57.895
517.80	58.063
518.14	56.039
518.49	57.023
518.83	55.905
519.17	56.898
519.52	54.540
519.86	57.766
520.20	57.090
520.55	56.554
520.89	56.794
521.23	56.838
521.58	56.928
521.92	57.125
522.26	57.079
522.61	57.605
522.95	57.307
523.29	57.367
523.64	56.590
523.98	57.925
524.32	56.757
524.66	56.957
525.01	56.005
525.35	58.119
525.69	57.580
526.04	57.050
526.38	56.970
526.72	55.939
527.06	56.576
527.41	56.964
527.75	56.766
528.09	57.710
528.43	56.328
528.78	56.910
529.12	58.323
529.46	57.345
529.80	57.973
530.15	57.051
530.49	56.662
530.83	57.498
531.17	56.027
531.51	56.731
531.86	55.431
532.20	58.030
532.54	57.019
532.88	55.731
533.22	57.620
533.57	57.702
533.91	54.931
534.25	56.882
534.59	55.153
534.93	55.818
535.27	57.080
535.62	56.586
535.96	56.044
536.30	55.759
536.64	55.312
536.98	57.627
537.32	55.149
537.66	57.230
538.01	58.557
538.35	56.689
538.69	55.949
539.03	55.247
539.37	57.352
539.71	57.572
540.05	57.094
540.39	56.787
540.73	57.775
541.07	58.402
541.42	56.448
541.76	56.146
542.10	56.786
542.44	56.696
542.78	57.802
543.12	57.230
543.46	56.507
543.80	56.656
544.14	55.675
544.48	57.349
544.82	57.307
545.16	58.753
545.50	55.855
545.84	56.328
546.18	57.143
546.52	58.250
546.86	56.695
547.20	57.595
547.54	56.198
547.88	56.536
548.22	55.177
548.56	57.047
548.90	56.671
549.24	56.482
549.58	57.092
549.92	56.608
550.26	58.020
550.60	57.397
550.94	57.007
551.28	57.863
551.62	56.942
551.96	58.321
552.30	56.237
552.64	57.354
552.98	57.323
553.32	58.802
553.66	58.327
554.00	58.920
554.34	56.462
554.68	55.994
555.02	57.670
555.36	58.160
555.69	57.092
556.03	56.070
556.37	57.041
556.71	57.623
557.05	58.980
557.39	57.535
557.73	57.695
558.07	57.498
558.41	57.741
558.75	56.730
559.08	55.564
559.42	57.427
559.76	57.899
560.10	58.315
560.44	58.092
560.78	56.298
561.12	57.005
561.45	56.918
561.79	55.889
562.13	57.013
562.47	56.303
562.81	57.284
563.15	56.333
563.48	58.258
563.82	57.877
564.16	55.984
564.50	56.586
564.84	57.077
565.17	56.565
565.51	56.780
565.85	58.959
566.19	57.971
566.52	57.534
566.86	58.028
567.20	55.690
567.54	56.645
567.88	55.946
568.21	55.649
568.55	55.143
568.89	53.280
569.23	53.586
569.56	54.561
569.90	53.895
570.24	54.190
570.57	53.181
570.91	52.261
571.25	53.826
571.59	52.982
571.92	52.500
572.26	52.097
572.60	52.591
572.93	52.059
573.27	51.768
573.61	51.592
573.95	51.517
574.28	51.579
574.62	52.720
574.96	51.346
575.29	52.414
575.63	51.818
575.97	52.023
576.30	51.082
576.64	52.037
576.98	51.406
577.31	52.110
577.65	52.002
577.98	51.360
578.32	51.421
578.66	51.492
578.99	51.493
579.33	51.444
579.67	51.661
580.00	51.687
580.34	51.908
580.67	51.851
581.01	50.914
581.35	50.873
581.68	51.088
582.02	51.551
582.35	50.765
582.69	52.063
583.02	51.967
583.36	51.072
583.70	52.074
584.03	51.697
584.37	52.152
584.70	52.102
585.04	52.000
585.37	51.695
585.71	51.959
586.04	52.052
586.38	51.350
586.72	52.142
587.05	52.818
587.39	52.499
587.72	51.712
588.06	52.325
588.39	52.521
588.73	52.233
589.06	53.005
589.40	53.521
589.73	52.868
590.07	53.314
590.40	53.026
590.73	53.099
591.07	52.541
591.40	54.376
591.74	53.258
592.07	54.550
592.41	53.843
592.74	52.959
593.08	53.210
593.41	53.092
593.75	52.193
594.08	53.954
594.41	53.604
594.75	53.567
595.08	53.910
595.42	53.035
595.75	52.811
596.09	54.327
596.42	53.478
596.75	54.075
597.09	54.853
597.42	53.514
597.75	53.897
598.09	52.960
598.42	52.939
598.76	52.990
599.09	53.512
599.42	53.326
599.76	52.359
600.09	52.672
600.42	52.716
600.76	53.635
601.09	52.829
601.42	52.552
601.76	52.220
602.09	52.965
602.42	52.510
602.76	53.801
603.09	53.266
603.42	53.828
603.76	53.610
604.09	53.064
604.42	52.623
604.76	52.900
605.09	52.984
605.42	53.457
605.75	53.514
606.09	52.927
606.42	52.241
606.75	52.340
607.09	53.375
607.42	53.257
607.75	53.510
608.08	55.445
608.42	54.115
608.75	51.822
609.08	54.116
609.41	54.509
609.75	52.462
610.08	53.873
610.41	53.446
610.74	54.787
611.07	54.310
611.41	52.799
611.74	54.499
612.07	54.672
612.40	52.878
612.73	53.419
613.07	55.091
613.40	55.063
613.73	54.550
614.06	54.091
614.39	55.806
614.72	54.078
615.06	54.565
615.39	54.042
615.72	53.449
616.05	53.782
616.38	55.833
616.71	54.294
617.05	55.790
617.38	55.480
617.71	54.423
618.04	54.534
618.37	54.277
618.70	56.780
619.03	55.247
619.36	56.801
619.69	56.353
620.03	54.821
620.36	55.134
620.69	56.425
621.02	55.632
621.35	57.581
621.68	56.393
622.01	57.686
622.34	55.901
622.67	56.563
623.00	55.700
623.33	57.164
623.66	55.539
623.99	53.684
624.32	55.506
624.65	55.556
624.99	56.460
625.32	55.763
625.65	57.343
625.98	56.495
626.31	58.075
626.64	56.402
626.97	57.277
627.30	57.532
627.63	56.131
627.96	57.702
628.29	58.364
628.62	57.975
628.95	58.071
629.28	58.459
629.61	57.704
629.94	58.129
630.26	59.543
630.59	58.291
630.92	56.557
631.25	58.669
631.58	58.095
631.91	57.660
632.24	58.556
632.57	59.333
632.90	60.230
633.23	61.916
633.56	57.895
633.89	60.024
634.22	60.567
634.55	57.933
634.88	58.404
635.20	58.926
635.53	59.288
635.86	59.320
636.19	58.364
636.52	58.901
636.85	57.762
637.18	59.500
637.51	60.967
637.83	62.583
