SpectraSuite Data File
++++++++++++++++++++++++++++++++++++
Date: Sat May 16 11:10:38 PDT 2015
User: schluterlab
Dark Spectrum Present: Yes
Reference Spectrum Present: Yes
Number of Sampled Component Spectra: 1
Spectrometers: USB2E3373
Integration Time (usec): 3000 (USB2E3373)
Spectra Averaged: 3 (USB2E3373)
Boxcar Smoothing: 0 (USB2E3373)
Correct for Electrical Dark: No (USB2E3373)
Strobe/Lamp Enabled: No (USB2E3373)
Correct for Detector Non-linearity: No (USB2E3373)
Correct for Stray Light: No (USB2E3373)
Number of Pixels in Processed Spectrum: 2048
>>>>>Begin Processed Spectral Data<<<<<
178.53	0.000
178.91	26.667
179.29	-0.000
179.67	-700.000
180.04	-23.077
180.42	-600.000
180.80	-50.000
181.18	-25.000
181.56	-100.000
181.94	200.000
182.31	275.000
182.69	23.077
183.07	-200.000
183.45	600.000
183.83	566.667
184.20	-128.571
184.58	-50.000
184.96	-200.000
185.34	56.250
185.72	-350.000
186.09	-50.000
186.47	-25.000
186.85	-212.500
187.23	12.500
187.61	-50.000
187.98	-187.500
188.36	-137.500
188.74	0.000
189.12	-200.000
189.49	214.286
189.87	141.667
190.25	75.000
190.63	7.143
191.00	-33.333
191.38	320.000
191.76	53.333
192.14	320.000
192.51	-120.000
192.89	-100.000
193.27	0.000
193.65	-122.222
194.02	-157.143
194.40	66.667
194.78	-80.000
195.15	-400.000
195.53	-54.545
195.91	-150.000
196.29	60.000
196.66	-266.667
197.04	800.000
197.42	25.000
197.79	53.333
198.17	-300.000
198.55	-250.000
198.92	-200.000
199.30	175.000
199.68	-350.000
200.05	-33.333
200.43	-133.333
200.81	-800.000
201.18	25.000
201.56	85.714
201.94	-60.000
202.31	4.545
202.69	140.000
203.07	20.000
203.44	366.667
203.82	-350.000
204.19	-225.000
204.57	50.000
204.95	-800.000
205.32	25.000
205.70	400.000
206.08	-1500.000
206.45	-22.222
206.83	-550.000
207.20	500.000
207.58	-533.333
207.96	-366.667
208.33	12.500
208.71	-133.333
209.08	200.000
209.46	-85.714
209.84	250.000
210.21	0.000
210.59	105.000
210.96	-0.000
211.34	-116.667
211.71	100.000
212.09	-25.000
212.46	700.000
212.84	-1200.000
213.22	233.333
213.59	33.333
213.97	44.444
214.34	-0.000
214.72	-80.000
215.09	-233.333
215.47	-33.333
215.84	40.000
216.22	-50.000
216.59	60.000
216.97	-300.000
217.34	150.000
217.72	14.286
218.09	-283.333
218.47	-14.286
218.84	-28.571
219.22	142.857
219.59	0.000
219.97	157.143
220.34	250.000
220.72	162.500
221.09	7.692
221.47	0.000
221.84	100.000
222.22	50.000
222.59	200.000
222.97	-100.000
223.34	-600.000
223.72	-133.333
224.09	0.000
224.46	-50.000
224.84	14.286
225.21	-114.286
225.59	27.273
225.96	-50.000
226.34	-128.571
226.71	-33.333
227.08	25.000
227.46	1000.000
227.83	0.000
228.21	-125.000
228.58	-550.000
228.95	0.000
229.33	-500.000
229.70	-40.000
230.08	100.000
230.45	83.333
230.82	-150.000
231.20	-300.000
231.57	250.000
231.95	200.000
232.32	61.905
232.69	-77.778
233.07	-85.714
233.44	-400.000
233.81	33.333
234.19	0.000
234.56	62.500
234.93	18.750
235.31	-71.429
235.68	-35.714
236.05	-11.765
236.43	-22.727
236.80	9.677
237.17	20.833
237.55	14.286
237.92	9.091
238.29	-5.714
238.67	100.000
239.04	44.444
239.41	22.581
239.79	-10.256
240.16	2.381
240.53	21.818
240.91	64.103
241.28	14.545
241.65	41.538
242.02	34.426
242.40	24.590
242.77	25.758
243.14	25.424
243.51	27.143
243.89	34.177
244.26	22.472
244.63	48.421
245.00	22.105
245.38	30.508
245.75	31.858
246.12	35.200
246.49	25.984
246.87	22.764
247.24	29.661
247.61	29.661
247.98	31.690
248.36	32.867
248.73	28.481
249.10	25.478
249.47	28.070
249.84	35.227
250.22	14.881
250.59	25.989
250.96	27.749
251.33	33.175
251.70	29.327
252.08	28.436
252.45	32.701
252.82	31.429
253.19	31.915
253.56	32.258
253.94	28.692
254.31	24.893
254.68	32.927
255.05	26.613
255.42	33.730
255.79	29.391
256.16	35.686
256.54	35.294
256.91	30.682
257.28	28.571
257.65	30.496
258.02	33.019
258.39	34.448
258.76	28.378
259.14	30.556
259.51	32.131
259.88	30.488
260.25	33.230
260.62	28.617
260.99	30.267
261.36	32.012
261.73	32.370
262.10	31.389
262.47	31.624
262.85	36.857
263.22	32.951
263.59	31.077
263.96	30.725
264.33	33.875
264.70	32.320
265.07	30.769
265.44	33.850
265.81	31.783
266.18	31.646
266.55	32.598
266.92	36.272
267.29	33.414
267.66	30.123
268.03	34.058
268.40	28.873
268.77	31.807
269.14	29.930
269.51	32.644
269.88	32.798
270.25	29.138
270.62	31.808
270.99	30.856
271.36	30.536
271.73	31.390
272.10	30.892
272.47	31.556
272.84	34.000
273.21	35.321
273.58	34.725
273.95	33.772
274.32	33.032
274.69	35.667
275.06	34.356
275.43	30.357
275.80	33.401
276.17	33.682
276.54	33.401
276.91	33.745
277.28	34.280
277.65	34.504
278.02	32.777
278.39	32.024
278.76	33.068
279.13	32.806
279.50	34.195
279.87	29.598
280.23	34.008
280.60	32.008
280.97	31.068
281.34	33.462
281.71	30.962
282.08	32.863
282.45	33.401
282.82	33.333
283.19	31.636
283.56	31.502
283.92	31.272
284.29	33.457
284.66	30.216
285.03	33.512
285.40	34.133
285.77	32.105
286.14	31.227
286.51	30.906
286.87	30.309
287.24	29.863
287.61	29.091
287.98	29.289
288.35	27.769
288.72	30.560
289.08	27.288
289.45	29.461
289.82	28.028
290.19	29.885
290.56	29.256
290.93	28.299
291.29	27.066
291.66	28.019
292.03	28.728
292.40	28.916
292.77	28.416
293.13	27.967
293.50	27.192
293.87	26.994
294.24	27.149
294.60	25.000
294.97	26.555
295.34	25.778
295.71	26.488
296.08	26.267
296.44	25.322
296.81	26.353
297.18	26.761
297.55	26.554
297.91	26.220
298.28	24.247
298.65	25.244
299.02	26.471
299.38	23.797
299.75	25.000
300.12	24.872
300.48	23.529
300.85	23.329
301.22	24.968
301.59	24.967
301.95	25.315
302.32	21.904
302.69	24.235
303.05	22.711
303.42	22.625
303.79	25.837
304.15	22.986
304.52	22.987
304.89	23.731
305.25	24.908
305.62	23.267
305.99	22.615
306.35	24.084
306.72	22.210
307.09	22.815
307.45	23.156
307.82	20.559
308.19	22.595
308.55	22.331
308.92	20.623
309.29	21.081
309.65	22.587
310.02	21.706
310.38	19.676
310.75	21.209
311.12	22.004
311.48	20.981
311.85	21.730
312.22	23.687
312.58	22.787
312.95	20.693
313.31	21.678
313.68	23.015
314.05	22.354
314.41	21.227
314.78	21.179
315.14	21.224
315.51	21.378
315.87	21.104
316.24	20.505
316.61	22.649
316.97	21.393
317.34	20.617
317.70	21.429
318.07	21.735
318.43	20.693
318.80	23.005
319.16	19.794
319.53	19.925
319.89	20.038
320.26	21.765
320.62	19.808
320.99	21.493
321.35	21.281
321.72	19.652
322.08	20.079
322.45	20.594
322.81	22.382
323.18	20.557
323.54	21.257
323.91	19.926
324.27	21.578
324.64	20.567
325.00	20.506
325.37	19.729
325.73	21.085
326.10	18.866
326.46	21.016
326.83	21.447
327.19	20.434
327.56	20.954
327.92	21.410
328.29	21.212
328.65	19.727
329.01	19.876
329.38	20.607
329.74	20.788
330.11	20.762
330.47	19.800
330.84	20.532
331.20	19.585
331.56	19.508
331.93	20.071
332.29	20.365
332.66	20.544
333.02	18.914
333.38	19.355
333.75	19.412
334.11	19.467
334.48	19.506
334.84	19.685
335.20	19.770
335.57	20.487
335.93	21.128
336.29	19.663
336.66	19.383
337.02	19.820
337.38	19.519
337.75	20.018
338.11	19.857
338.47	18.238
338.84	18.875
339.20	18.717
339.56	20.410
339.93	19.400
340.29	19.043
340.65	19.231
341.02	19.815
341.38	19.208
341.74	19.475
342.11	18.686
342.47	19.313
342.83	19.144
343.20	18.275
343.56	17.551
343.92	18.698
344.28	19.933
344.65	18.152
345.01	18.319
345.37	20.598
345.73	18.412
346.10	17.989
346.46	19.171
346.82	18.765
347.19	17.584
347.55	18.860
347.91	18.583
348.27	18.298
348.63	19.548
349.00	20.127
349.36	17.721
349.72	19.427
350.08	18.685
350.45	19.464
350.81	18.631
351.17	18.006
351.53	16.786
351.89	18.270
352.26	19.225
352.62	18.664
352.98	18.513
353.34	18.625
353.70	17.606
354.07	19.512
354.43	18.498
354.79	17.987
355.15	18.131
355.51	18.047
355.87	18.656
356.24	18.348
356.60	19.500
356.96	18.091
357.32	18.211
357.68	18.238
358.04	17.706
358.40	18.097
358.77	18.161
359.13	18.210
359.49	18.216
359.85	19.741
360.21	17.656
360.57	17.771
360.93	17.481
361.29	18.311
361.66	17.302
362.02	16.198
362.38	18.562
362.74	18.022
363.10	17.504
363.46	17.735
363.82	17.857
364.18	18.596
364.54	19.014
364.90	17.959
365.26	18.402
365.62	18.389
365.98	17.994
366.35	18.028
366.71	18.041
367.07	17.996
367.43	18.463
367.79	18.213
368.15	17.781
368.51	18.741
368.87	19.505
369.23	18.526
369.59	17.917
369.95	18.111
370.31	18.495
370.67	16.703
371.03	17.857
371.39	16.761
371.75	18.312
372.11	18.293
372.47	18.149
372.83	18.985
373.19	18.429
373.55	18.015
373.91	17.852
374.27	17.522
374.63	17.529
374.99	17.594
375.35	17.429
375.71	18.636
376.07	17.933
376.42	18.013
376.78	18.431
377.14	18.102
377.50	17.924
377.86	17.815
378.22	18.781
378.58	17.418
378.94	17.571
379.30	17.855
379.66	18.397
380.02	17.469
380.38	17.523
380.74	17.761
381.09	18.161
381.45	18.258
381.81	17.181
382.17	17.481
382.53	16.717
382.89	17.584
383.25	18.122
383.61	18.101
383.97	17.636
384.32	18.398
384.68	18.501
385.04	17.995
385.40	16.738
385.76	17.500
386.12	17.364
386.48	18.069
386.83	17.546
387.19	17.454
387.55	17.141
387.91	17.487
388.27	17.189
388.62	17.788
388.98	17.989
389.34	18.115
389.70	17.661
390.06	17.029
390.42	18.526
390.77	17.981
391.13	18.509
391.49	18.341
391.85	17.768
392.20	17.779
392.56	17.715
392.92	18.825
393.28	17.509
393.64	17.198
393.99	19.077
394.35	18.370
394.71	17.665
395.07	19.021
395.42	17.163
395.78	17.536
396.14	18.941
396.50	17.676
396.85	18.260
397.21	17.983
397.57	18.298
397.92	18.091
398.28	18.444
398.64	17.965
399.00	18.315
399.35	17.813
399.71	18.699
400.07	18.567
400.42	19.282
400.78	18.843
401.14	18.743
401.49	18.219
401.85	18.243
402.21	18.594
402.57	18.629
402.92	18.376
403.28	18.566
403.63	17.675
403.99	18.148
404.35	18.056
404.70	17.788
405.06	18.685
405.42	17.774
405.77	17.704
406.13	17.490
406.49	18.394
406.84	18.236
407.20	18.375
407.55	18.303
407.91	18.005
408.27	18.934
408.62	18.761
408.98	18.739
409.34	17.550
409.69	18.273
410.05	18.314
410.40	18.148
410.76	18.020
411.11	18.579
411.47	19.246
411.83	18.643
412.18	18.007
412.54	18.060
412.89	19.137
413.25	17.887
413.60	17.922
413.96	17.991
414.31	18.593
414.67	18.349
415.03	18.758
415.38	18.673
415.74	19.588
416.09	18.542
416.45	18.122
416.80	19.246
417.16	18.272
417.51	18.976
417.87	18.382
418.22	18.331
418.58	18.999
418.93	18.639
419.29	18.507
419.64	17.776
420.00	18.894
420.35	18.273
420.71	18.547
421.06	18.876
421.42	18.208
421.77	18.928
422.12	18.858
422.48	18.279
422.83	19.761
423.19	18.318
423.54	18.790
423.90	18.739
424.25	18.100
424.61	19.119
424.96	19.075
425.31	18.390
425.67	19.255
426.02	18.015
426.38	19.359
426.73	18.703
427.09	17.831
427.44	18.920
427.79	18.547
428.15	18.851
428.50	19.238
428.85	19.484
429.21	18.152
429.56	17.760
429.92	19.339
430.27	18.096
430.62	19.227
430.98	17.407
431.33	18.677
431.68	18.767
432.04	18.635
432.39	18.177
432.74	19.424
433.10	19.077
433.45	19.286
433.80	19.093
434.16	19.291
434.51	18.575
434.86	19.098
435.22	18.987
435.57	18.360
435.92	18.816
436.28	19.110
436.63	18.259
436.98	17.583
437.34	19.610
437.69	18.845
438.04	18.264
438.39	18.773
438.75	18.335
439.10	19.045
439.45	19.131
439.81	19.398
440.16	18.626
440.51	19.647
440.86	18.971
441.22	18.242
441.57	19.368
441.92	18.772
442.27	18.994
442.63	18.938
442.98	18.454
443.33	19.220
443.68	18.395
444.03	19.204
444.39	18.943
444.74	18.612
445.09	18.640
445.44	19.752
445.79	19.480
446.15	19.441
446.50	19.271
446.85	19.446
447.20	19.305
447.55	19.171
447.91	19.820
448.26	18.939
448.61	18.676
448.96	20.280
449.31	18.884
449.66	19.977
450.02	19.557
450.37	18.783
450.72	18.588
451.07	19.485
451.42	18.959
451.77	19.569
452.12	19.130
452.47	19.395
452.83	18.462
453.18	19.987
453.53	19.216
453.88	20.215
454.23	18.622
454.58	19.826
454.93	19.395
455.28	20.204
455.63	19.902
455.98	19.518
456.34	18.742
456.69	19.512
457.04	20.836
457.39	19.199
457.74	19.551
458.09	19.664
458.44	20.092
458.79	19.002
459.14	19.509
459.49	20.604
459.84	19.056
460.19	20.227
460.54	19.722
460.89	19.563
461.24	19.854
461.59	19.695
461.94	19.478
462.29	20.250
462.64	20.487
462.99	21.017
463.34	18.974
463.69	20.611
464.04	18.688
464.39	19.355
464.74	19.681
465.09	19.423
465.44	20.192
465.79	19.515
466.14	20.368
466.49	20.380
466.84	20.408
467.19	20.574
467.54	19.177
467.89	20.592
468.24	19.596
468.59	19.550
468.94	20.257
469.29	18.778
469.64	20.081
469.99	20.729
470.34	20.908
470.68	20.567
471.03	20.578
471.38	19.653
471.73	20.280
472.08	20.013
472.43	20.528
472.78	20.600
473.13	19.748
473.48	19.847
473.83	20.037
474.17	20.318
474.52	21.739
474.87	20.047
475.22	20.354
475.57	19.111
475.92	20.680
476.27	20.286
476.61	19.944
476.96	20.011
477.31	20.022
477.66	20.310
478.01	20.475
478.36	20.325
478.70	20.876
479.05	21.092
479.40	20.674
479.75	19.929
480.10	19.742
480.45	19.101
480.79	21.372
481.14	20.472
481.49	20.668
481.84	19.186
482.19	20.786
482.53	20.691
482.88	20.598
483.23	20.469
483.58	20.907
483.92	20.879
484.27	19.716
484.62	20.259
484.97	20.304
485.31	20.096
485.66	19.578
486.01	19.724
486.36	20.101
486.70	20.666
487.05	19.849
487.40	19.899
487.75	20.045
488.09	19.642
488.44	20.433
488.79	20.481
489.13	20.616
489.48	21.615
489.83	21.572
490.17	21.376
490.52	21.558
490.87	20.185
491.22	20.645
491.56	21.250
491.91	20.754
492.26	20.896
492.60	21.123
492.95	20.419
493.30	21.486
493.64	20.827
493.99	20.554
494.34	20.952
494.68	21.582
495.03	20.602
495.37	20.747
495.72	20.874
496.07	21.398
496.41	21.862
496.76	21.416
497.11	21.385
497.45	21.695
497.80	20.960
498.14	20.481
498.49	20.944
498.84	20.825
499.18	20.760
499.53	20.750
499.87	20.029
500.22	21.029
500.56	20.960
500.91	21.527
501.26	21.980
501.60	20.992
501.95	22.319
502.29	21.398
502.64	21.452
502.98	21.466
503.33	21.523
503.67	20.785
504.02	21.246
504.36	21.765
504.71	21.175
505.06	22.067
505.40	22.305
505.75	21.900
506.09	21.790
506.44	21.955
506.78	21.726
507.13	21.782
507.47	22.222
507.82	22.922
508.16	22.591
508.51	21.432
508.85	21.584
509.19	22.240
509.54	22.516
509.88	21.968
510.23	22.432
510.57	22.540
510.92	23.631
511.26	22.169
511.61	22.894
511.95	22.360
512.30	22.485
512.64	22.593
512.98	22.442
513.33	22.460
513.67	22.836
514.02	22.483
514.36	22.715
514.70	22.807
515.05	23.042
515.39	22.664
515.74	23.735
516.08	22.363
516.42	23.796
516.77	23.455
517.11	22.998
517.46	23.565
517.80	23.045
518.14	22.041
518.49	23.551
518.83	23.501
519.17	23.268
519.52	23.482
519.86	24.014
520.20	23.227
520.55	23.877
520.89	21.916
521.23	23.199
521.58	23.072
521.92	23.306
522.26	23.810
522.61	23.131
522.95	23.676
523.29	23.448
523.64	23.923
523.98	24.125
524.32	23.821
524.66	23.106
525.01	22.479
525.35	23.969
525.69	23.292
526.04	23.956
526.38	24.316
526.72	23.308
527.06	23.242
527.41	23.300
527.75	22.970
528.09	23.825
528.43	23.541
528.78	23.995
529.12	25.096
529.46	22.745
529.80	23.434
530.15	23.760
530.49	22.962
530.83	25.213
531.17	23.973
531.51	23.711
531.86	22.844
532.20	23.954
532.54	24.398
532.88	23.386
533.22	23.930
533.57	24.543
533.91	23.845
534.25	23.633
534.59	22.673
534.93	23.398
535.27	24.355
535.62	24.425
535.96	24.176
536.30	23.560
536.64	24.104
536.98	24.294
537.32	24.188
537.66	24.168
538.01	24.055
538.35	24.324
538.69	23.262
539.03	23.087
539.37	23.752
539.71	23.616
540.05	23.920
540.39	24.584
540.73	24.464
541.07	24.658
541.42	22.687
541.76	23.389
542.10	24.240
542.44	24.517
542.78	24.288
543.12	24.168
543.46	22.740
543.80	23.010
544.14	23.774
544.48	24.016
544.82	24.087
545.16	24.614
545.50	24.092
545.84	24.757
546.18	24.133
546.52	23.755
546.86	23.006
547.20	23.980
547.54	22.727
547.88	23.955
548.22	22.739
548.56	23.714
548.90	23.922
549.24	23.266
549.58	23.430
549.92	24.452
550.26	25.145
550.60	23.542
550.94	23.796
551.28	23.627
551.62	23.117
551.96	24.096
552.30	24.181
552.64	24.279
552.98	24.527
553.32	24.026
553.66	24.009
554.00	25.160
554.34	23.321
554.68	23.904
555.02	24.313
555.36	22.861
555.69	23.854
556.03	23.860
556.37	23.898
556.71	25.340
557.05	24.390
557.39	23.014
557.73	24.799
558.07	24.717
558.41	23.710
558.75	23.878
559.08	23.346
559.42	24.579
559.76	24.540
560.10	23.565
560.44	25.145
560.78	22.269
561.12	24.845
561.45	24.589
561.79	24.530
562.13	23.843
562.47	24.160
562.81	23.975
563.15	24.353
563.48	24.326
563.82	23.732
564.16	23.529
564.50	24.126
564.84	23.611
565.17	23.143
565.51	24.250
565.85	24.273
566.19	24.111
566.52	24.266
566.86	23.515
567.20	24.637
567.54	24.631
567.88	23.618
568.21	23.490
568.55	23.860
568.89	23.260
569.23	23.600
569.56	23.287
569.90	23.289
570.24	22.924
570.57	22.566
570.91	22.849
571.25	23.054
571.59	22.978
571.92	23.095
572.26	22.828
572.60	22.557
572.93	22.422
573.27	22.622
573.61	22.025
573.95	22.352
574.28	22.631
574.62	22.928
574.96	22.458
575.29	22.205
575.63	22.724
575.97	21.953
576.30	22.143
576.64	22.637
576.98	21.821
577.31	22.026
577.65	22.411
577.98	22.088
578.32	21.806
578.66	22.065
578.99	22.116
579.33	22.030
579.67	21.938
580.00	21.850
580.34	21.820
580.67	21.966
581.01	21.755
581.35	22.133
581.68	22.176
582.02	22.343
582.35	22.210
582.69	22.318
583.02	22.657
583.36	22.283
583.70	21.710
584.03	22.441
584.37	22.463
584.70	21.914
585.04	22.304
585.37	21.551
585.71	22.013
586.04	22.568
586.38	21.652
586.72	22.097
587.05	22.430
587.39	22.207
587.72	22.007
588.06	22.393
588.39	22.130
588.73	22.480
589.06	22.219
589.40	22.844
589.73	22.415
590.07	22.651
590.40	23.137
590.73	22.911
591.07	22.377
591.40	23.267
591.74	22.459
592.07	22.883
592.41	23.015
592.74	23.059
593.08	22.794
593.41	22.796
593.75	22.222
594.08	22.502
594.41	22.884
594.75	23.103
595.08	22.895
595.42	22.760
595.75	22.639
596.09	22.313
596.42	22.954
596.75	22.337
597.09	22.796
597.42	22.698
597.75	22.321
598.09	22.775
598.42	22.448
598.76	22.841
599.09	22.770
599.42	22.760
599.76	22.801
600.09	23.244
600.42	22.902
600.76	22.674
601.09	22.522
601.42	23.150
601.76	22.975
602.09	22.577
602.42	22.922
602.76	22.684
603.09	22.903
603.42	23.691
603.76	22.696
604.09	23.028
604.42	21.982
604.76	22.896
605.09	22.966
605.42	23.094
605.75	22.812
606.09	22.084
606.42	22.078
606.75	22.714
607.09	22.497
607.42	22.491
607.75	22.428
608.08	22.729
608.42	22.375
608.75	22.009
609.08	22.504
609.41	22.521
609.75	22.184
610.08	23.137
610.41	22.265
610.74	23.308
611.07	22.312
611.41	21.936
611.74	23.085
612.07	23.416
612.40	22.601
612.73	22.994
613.07	22.895
613.40	24.247
613.73	22.997
614.06	22.515
614.39	22.492
614.72	21.285
615.06	22.989
615.39	22.301
615.72	22.488
616.05	21.756
616.38	23.564
616.71	23.003
617.05	22.557
617.38	23.034
617.71	22.604
618.04	22.174
618.37	23.396
618.70	23.598
619.03	22.884
619.36	23.115
619.69	23.044
620.03	23.209
620.36	22.644
620.69	23.259
621.02	22.222
621.35	22.339
621.68	22.705
622.01	23.948
622.34	22.671
622.67	21.953
623.00	22.494
623.33	23.358
623.66	22.378
623.99	23.083
624.32	21.503
624.65	22.737
624.99	23.301
625.32	22.006
625.65	22.378
625.98	23.005
626.31	23.573
626.64	22.929
626.97	23.288
627.30	21.191
627.63	22.193
627.96	23.673
628.29	22.426
628.62	22.636
628.95	23.130
629.28	22.368
629.61	24.926
629.94	23.251
630.26	23.559
630.59	24.322
630.92	23.423
631.25	22.883
631.58	21.693
631.91	21.809
632.24	22.889
632.57	22.556
632.90	25.057
633.23	23.131
