SpectraSuite Data File
++++++++++++++++++++++++++++++++++++
Date: Sat May 16 11:08:27 PDT 2015
User: schluterlab
Dark Spectrum Present: Yes
Reference Spectrum Present: Yes
Number of Sampled Component Spectra: 1
Spectrometers: USB2E3373
Integration Time (usec): 3000 (USB2E3373)
Spectra Averaged: 3 (USB2E3373)
Boxcar Smoothing: 0 (USB2E3373)
Correct for Electrical Dark: No (USB2E3373)
Strobe/Lamp Enabled: No (USB2E3373)
Correct for Detector Non-linearity: No (USB2E3373)
Correct for Stray Light: No (USB2E3373)
Number of Pixels in Processed Spectrum: 2048
>>>>>Begin Processed Spectral Data<<<<<
178.53	0.000
178.91	53.333
179.29	133.333
179.67	500.000
180.04	53.846
180.42	-1400.000
180.80	350.000
181.18	350.000
181.56	162.500
181.94	300.000
182.31	125.000
182.69	61.538
183.07	-200.000
183.45	600.000
183.83	66.667
184.20	-114.286
184.58	-37.500
184.96	-150.000
185.34	37.500
185.72	0.000
186.09	-66.667
186.47	25.000
186.85	112.500
187.23	162.500
187.61	225.000
187.98	-175.000
188.36	75.000
188.74	-162.500
189.12	400.000
189.49	114.286
189.87	-33.333
190.25	100.000
190.63	-57.143
191.00	-55.556
191.38	200.000
191.76	80.000
192.14	180.000
192.51	40.000
192.89	-166.667
193.27	0.000
193.65	44.444
194.02	71.429
194.40	-0.000
194.78	40.000
195.15	500.000
195.53	-127.273
195.91	-166.667
196.29	60.000
196.66	-233.333
197.04	1000.000
197.42	75.000
197.79	73.333
198.17	-200.000
198.55	350.000
198.92	700.000
199.30	25.000
199.68	250.000
200.05	-44.444
200.43	-44.444
200.81	-900.000
201.18	33.333
201.56	14.286
201.94	-13.333
202.31	4.545
202.69	110.000
203.07	50.000
203.44	-133.333
203.82	-66.667
204.19	-150.000
204.57	25.000
204.95	0.000
205.32	68.750
205.70	-300.000
206.08	-300.000
206.45	33.333
206.83	450.000
207.20	450.000
207.58	0.000
207.96	-133.333
208.33	-112.500
208.71	11.111
209.08	70.000
209.46	71.429
209.84	-400.000
210.21	0.000
210.59	80.000
210.96	400.000
211.34	0.000
211.71	200.000
212.09	200.000
212.46	100.000
212.84	-500.000
213.22	66.667
213.59	-16.667
213.97	100.000
214.34	-10.000
214.72	80.000
215.09	-33.333
215.47	66.667
215.84	0.000
216.22	-10.000
216.59	60.000
216.97	-25.000
217.34	250.000
217.72	185.714
218.09	-50.000
218.47	-85.714
218.84	-42.857
219.22	85.714
219.59	0.000
219.97	85.714
220.34	225.000
220.72	200.000
221.09	92.308
221.47	0.000
221.84	-133.333
222.22	50.000
222.59	-0.000
222.97	-12.500
223.34	50.000
223.72	333.333
224.09	21.429
224.46	75.000
224.84	57.143
225.21	100.000
225.59	-45.455
225.96	50.000
226.34	-57.143
226.71	44.444
227.08	45.000
227.46	-600.000
227.83	71.429
228.21	-100.000
228.58	50.000
228.95	-12.500
229.33	-1300.000
229.70	-20.000
230.08	50.000
230.45	58.333
230.82	116.667
231.20	500.000
231.57	150.000
231.95	700.000
232.32	85.714
232.69	111.111
233.07	-100.000
233.44	-350.000
233.81	-33.333
234.19	100.000
234.56	75.000
234.93	31.250
235.31	-28.571
235.68	-128.571
236.05	23.529
236.43	13.636
236.80	54.839
237.17	16.667
237.55	38.095
237.92	36.364
238.29	0.000
238.67	76.471
239.04	38.889
239.41	29.032
239.79	-12.821
240.16	33.333
240.53	36.364
240.91	82.051
241.28	30.909
241.65	40.000
242.02	47.541
242.40	40.984
242.77	31.818
243.14	38.983
243.51	40.000
243.89	48.101
244.26	48.315
244.63	46.316
245.00	48.421
245.38	38.983
245.75	33.628
246.12	42.400
246.49	37.008
246.87	36.585
247.24	44.068
247.61	45.763
247.98	38.732
248.36	34.965
248.73	31.013
249.10	35.669
249.47	44.444
249.84	43.182
250.22	33.333
250.59	46.893
250.96	43.455
251.33	42.654
251.70	39.423
252.08	41.706
252.45	39.810
252.82	43.333
253.19	36.170
253.56	34.677
253.94	42.616
254.31	42.060
254.68	45.122
255.05	41.532
255.42	40.079
255.79	37.634
256.16	44.706
256.54	42.647
256.91	43.561
257.28	40.659
257.65	41.135
258.02	41.195
258.39	43.478
258.76	37.500
259.14	37.037
259.51	43.934
259.88	37.805
260.25	44.410
260.62	40.514
260.99	35.312
261.36	39.634
261.73	39.306
262.10	39.722
262.47	37.037
262.85	42.286
263.22	38.395
263.59	39.692
263.96	40.000
264.33	37.127
264.70	40.055
265.07	40.934
265.44	38.501
265.81	36.951
266.18	37.975
266.55	36.029
266.92	42.065
267.29	38.257
267.66	41.481
268.03	39.855
268.40	38.263
268.77	40.723
269.14	38.747
269.51	37.701
269.88	36.468
270.25	36.830
270.62	37.757
270.99	38.739
271.36	37.995
271.73	39.686
272.10	38.444
272.47	37.556
272.84	41.333
273.21	38.532
273.58	38.242
273.95	38.377
274.32	38.009
274.69	39.168
275.06	37.014
275.43	40.402
275.80	40.326
276.17	37.029
276.54	40.530
276.91	37.860
277.28	37.120
277.65	36.364
278.02	37.996
278.39	36.346
278.76	36.255
279.13	38.142
279.50	35.984
279.87	35.518
280.23	38.057
280.60	39.165
280.97	35.728
281.34	38.298
281.71	37.308
282.08	40.121
282.45	39.511
282.82	37.984
283.19	36.727
283.56	39.011
283.92	37.279
284.29	37.732
284.66	35.072
285.03	38.681
285.40	38.930
285.77	37.719
286.14	37.545
286.51	36.057
286.87	38.657
287.24	35.324
287.61	34.545
287.98	35.875
288.35	34.050
288.72	36.333
289.08	35.424
289.45	35.017
289.82	35.813
290.19	36.782
290.56	32.562
290.93	35.453
291.29	35.818
291.66	34.461
292.03	35.479
292.40	34.940
292.77	35.404
293.13	36.260
293.50	34.324
293.87	35.276
294.24	34.540
294.60	31.818
294.97	33.991
295.34	33.481
295.71	32.589
296.08	30.108
296.44	31.903
296.81	34.188
297.18	30.845
297.55	33.898
297.91	35.007
298.28	29.726
298.65	31.660
299.02	31.684
299.38	32.353
299.75	32.473
300.12	32.051
300.48	31.586
300.85	31.193
301.22	30.530
301.59	30.949
301.95	30.227
302.32	30.248
302.69	29.131
303.05	30.037
303.42	30.750
303.79	31.100
304.15	29.384
304.52	28.821
304.89	29.280
305.25	29.182
305.62	29.612
305.99	31.449
306.35	28.968
306.72	28.018
307.09	30.647
307.45	28.490
307.82	27.486
308.19	29.530
308.55	29.303
308.92	27.390
309.29	30.054
309.65	28.208
310.02	29.698
310.38	28.432
310.75	28.074
311.12	28.306
311.48	28.079
311.85	27.394
312.22	28.424
312.58	28.891
312.95	26.606
313.31	26.973
313.68	28.040
314.05	29.278
314.41	28.672
314.78	28.072
315.14	26.950
315.51	28.267
315.87	28.945
316.24	27.308
316.61	28.599
316.97	27.761
317.34	27.842
317.70	28.015
318.07	27.425
318.43	27.154
318.80	28.451
319.16	27.955
319.53	27.350
319.89	28.598
320.26	27.255
320.62	26.731
320.99	28.458
321.35	26.207
321.72	29.069
322.08	29.476
322.45	27.129
322.81	28.915
323.18	29.299
323.54	29.760
323.91	28.360
324.27	29.658
324.64	27.788
325.00	27.923
325.37	28.869
325.73	29.134
326.10	27.192
326.46	27.846
326.83	28.000
327.19	27.189
327.56	30.153
327.92	28.632
328.29	29.957
328.65	28.455
329.01	29.859
329.38	28.457
329.74	29.762
330.11	27.833
330.47	29.609
330.84	31.164
331.20	29.332
331.56	28.532
331.93	29.840
332.29	31.142
332.66	29.851
333.02	29.231
333.38	30.556
333.75	29.386
334.11	29.600
334.48	30.803
334.84	29.484
335.20	29.965
335.57	30.144
335.93	33.124
336.29	29.318
336.66	29.780
337.02	30.721
337.38	29.055
337.75	30.202
338.11	29.875
338.47	30.249
338.84	30.218
339.20	29.789
339.56	31.462
339.93	30.511
340.29	28.875
340.65	29.458
341.02	29.595
341.38	29.907
341.74	29.297
342.11	29.352
342.47	29.099
342.83	30.479
343.20	30.145
343.56	28.980
343.92	30.217
344.28	29.605
344.65	29.868
345.01	29.748
345.37	30.066
345.73	28.969
346.10	29.681
346.46	28.920
346.82	29.431
347.19	29.088
347.55	29.695
347.91	29.291
348.27	29.356
348.63	30.048
349.00	30.231
349.36	29.430
349.72	30.494
350.08	29.511
350.45	30.024
350.81	30.812
351.17	29.100
351.53	28.799
351.89	28.698
352.26	29.922
352.62	30.261
352.98	28.718
353.34	30.376
353.70	28.031
354.07	29.426
354.43	30.119
354.79	29.002
355.15	29.153
355.51	28.359
355.87	29.170
356.24	29.627
356.60	30.620
356.96	30.485
357.32	30.166
357.68	29.119
358.04	29.561
358.40	29.776
358.77	29.289
359.13	29.610
359.49	28.118
359.85	30.259
360.21	30.213
360.57	30.798
360.93	29.630
361.29	29.073
361.66	29.040
362.02	28.772
362.38	29.714
362.74	29.451
363.10	27.905
363.46	30.912
363.82	29.956
364.18	29.233
364.54	29.736
364.90	29.839
365.26	29.957
365.62	31.005
365.98	31.010
366.35	29.930
366.71	29.387
367.07	29.287
367.43	30.885
367.79	29.072
368.15	29.303
368.51	29.860
368.87	30.220
369.23	29.754
369.59	28.472
369.95	30.021
370.31	31.013
370.67	28.561
371.03	30.539
371.39	29.137
371.75	30.114
372.11	30.488
372.47	30.152
372.83	30.598
373.19	30.571
373.55	29.697
373.91	30.583
374.27	28.884
374.63	30.918
374.99	30.529
375.35	30.081
375.71	31.060
376.07	30.938
376.42	29.338
376.78	31.569
377.14	30.644
377.50	30.496
377.86	30.754
378.22	31.219
378.58	30.266
378.94	29.778
379.30	30.408
379.66	31.330
380.02	30.303
380.38	30.091
380.74	28.898
381.09	30.170
381.45	30.728
381.81	29.643
382.17	29.574
382.53	30.821
382.89	30.443
383.25	31.186
383.61	30.366
383.97	30.741
384.32	30.914
384.68	30.593
385.04	29.952
385.40	30.554
385.76	29.817
386.12	30.294
386.48	31.374
386.83	30.920
387.19	30.544
387.55	30.648
387.91	29.876
388.27	29.976
388.62	30.709
388.98	30.709
389.34	31.212
389.70	30.451
390.06	29.956
390.42	30.705
390.77	31.167
391.13	31.304
391.49	31.129
391.85	30.112
392.20	30.643
392.56	30.360
392.92	30.633
393.28	30.482
393.64	30.607
393.99	30.954
394.35	31.083
394.71	30.451
395.07	31.890
395.42	30.215
395.78	30.610
396.14	30.530
396.50	31.193
396.85	31.585
397.21	30.316
397.57	31.429
397.92	31.206
398.28	30.778
398.64	31.053
399.00	30.730
399.35	31.285
399.71	30.546
400.07	31.224
400.42	31.448
400.78	29.696
401.14	31.377
401.49	31.014
401.85	30.079
402.21	30.453
402.57	31.311
402.92	31.907
403.28	29.350
403.63	30.138
403.99	30.640
404.35	30.072
404.70	31.129
405.06	31.373
405.42	30.935
405.77	30.882
406.13	30.608
406.49	30.377
406.84	29.934
407.20	31.920
407.55	31.286
407.91	29.987
408.27	30.944
408.62	30.607
408.98	30.382
409.34	30.347
409.69	31.254
410.05	30.200
410.40	31.024
410.76	31.002
411.11	31.858
411.47	31.777
411.83	31.663
412.18	31.002
412.54	30.445
412.89	31.106
413.25	29.870
413.60	30.923
413.96	29.390
414.31	31.193
414.67	29.778
415.03	29.819
415.38	30.709
415.74	31.443
416.09	31.777
416.45	30.026
416.80	30.364
417.16	30.033
417.51	30.991
417.87	31.521
418.22	31.226
418.58	30.488
418.93	31.330
419.29	30.489
419.64	30.339
420.00	30.923
420.35	31.342
420.71	31.032
421.06	30.947
421.42	29.859
421.77	30.765
422.12	31.785
422.48	30.037
422.83	30.866
423.19	30.958
423.54	31.988
423.90	30.943
424.25	31.561
424.61	31.484
424.96	32.007
425.31	31.191
425.67	31.633
426.02	29.891
426.38	31.821
426.73	30.859
427.09	31.556
427.44	30.966
427.79	30.174
428.15	31.418
428.50	30.909
428.85	31.715
429.21	31.157
429.56	32.083
429.92	30.711
430.27	31.206
430.62	31.191
430.98	30.998
431.33	31.430
431.68	31.475
432.04	32.065
432.39	32.080
432.74	31.655
433.10	31.908
433.45	31.721
433.80	32.083
434.16	31.220
434.51	31.178
434.86	32.455
435.22	31.292
435.57	31.457
435.92	32.532
436.28	31.810
436.63	31.713
436.98	31.501
437.34	32.191
437.69	33.081
438.04	31.651
438.39	33.694
438.75	31.374
439.10	32.704
439.45	31.442
439.81	32.410
440.16	32.368
440.51	33.353
440.86	32.736
441.22	31.564
441.57	31.947
441.92	31.867
442.27	32.143
442.63	32.457
442.98	32.111
443.33	31.686
443.68	31.944
444.03	32.269
444.39	31.522
444.74	32.269
445.09	31.524
445.44	33.258
445.79	32.534
446.15	31.544
446.50	31.410
446.85	31.811
447.20	32.840
447.55	32.044
447.91	32.734
448.26	31.899
448.61	32.371
448.96	32.325
449.31	32.244
449.66	32.341
450.02	32.022
450.37	32.696
450.72	32.203
451.07	32.998
451.42	31.413
451.77	32.555
452.12	31.883
452.47	31.864
452.83	32.848
453.18	33.966
453.53	33.458
453.88	33.672
454.23	32.769
454.58	34.245
454.93	33.438
455.28	33.270
455.63	33.047
455.98	33.675
456.34	31.258
456.69	33.208
457.04	33.559
457.39	32.476
457.74	33.196
458.09	33.759
458.44	33.834
458.79	32.679
459.14	33.314
459.49	33.570
459.84	33.446
460.19	33.353
460.54	33.212
460.89	33.800
461.24	32.908
461.59	32.649
461.94	33.736
462.29	32.877
462.64	34.321
462.99	34.739
463.34	33.491
463.69	34.669
464.04	31.693
464.39	32.437
464.74	33.747
465.09	32.411
465.44	33.728
465.79	33.785
466.14	34.120
466.49	32.527
466.84	33.854
467.19	33.728
467.54	32.595
467.89	34.525
468.24	33.314
468.59	35.041
468.94	33.698
469.29	33.853
469.64	34.434
469.99	34.774
470.34	34.937
470.68	34.593
471.03	34.687
471.38	34.167
471.73	35.944
472.08	33.869
472.43	33.912
472.78	33.933
473.13	33.598
473.48	33.950
473.83	34.119
474.17	33.758
474.52	35.230
474.87	34.848
475.22	34.808
475.57	33.722
475.92	35.421
476.27	33.486
476.61	34.310
476.96	35.215
477.31	34.822
477.66	35.086
478.01	34.630
478.36	34.730
478.70	34.917
479.05	35.208
479.40	35.285
479.75	33.894
480.10	33.333
480.45	33.752
480.79	34.501
481.14	34.320
481.49	34.802
481.84	33.749
482.19	34.262
482.53	35.133
482.88	34.124
483.23	33.803
483.58	35.384
483.92	34.783
484.27	34.293
484.62	34.298
484.97	34.489
485.31	33.344
485.66	32.875
486.01	31.930
486.36	32.824
486.70	33.402
487.05	32.766
487.40	33.681
487.75	33.324
488.09	33.292
488.44	34.134
488.79	34.312
489.13	34.804
489.48	35.237
489.83	35.284
490.17	34.697
490.52	35.598
490.87	34.827
491.22	34.750
491.56	35.509
491.91	35.544
492.26	34.292
492.60	35.728
492.95	34.507
493.30	34.778
493.64	34.744
493.99	34.178
494.34	35.476
494.68	35.440
495.03	34.417
495.37	35.005
495.72	35.167
496.07	35.852
496.41	35.572
496.76	35.434
497.11	35.139
497.45	35.297
497.80	35.968
498.14	35.904
498.49	34.957
498.84	34.515
499.18	36.111
499.53	36.191
499.87	35.569
500.22	36.078
500.56	35.618
500.91	35.025
501.26	36.002
501.60	35.532
501.95	36.280
502.29	35.286
502.64	36.162
502.98	35.410
503.33	36.278
503.67	35.297
504.02	35.780
504.36	36.471
504.71	36.525
505.06	35.097
505.40	36.876
505.75	36.992
506.09	36.249
506.44	35.689
506.78	35.675
507.13	35.685
507.47	37.246
507.82	36.087
508.16	36.995
508.51	37.094
508.85	36.387
509.19	36.787
509.54	36.575
509.88	36.968
510.23	37.212
510.57	36.825
510.92	37.057
511.26	37.161
511.61	37.257
511.95	37.231
512.30	37.768
512.64	36.728
512.98	37.679
513.33	37.672
513.67	37.968
514.02	37.248
514.36	36.842
514.70	37.974
515.05	38.193
515.39	38.408
515.74	39.325
516.08	38.444
516.42	37.507
516.77	38.244
517.11	38.844
517.46	39.055
517.80	38.628
518.14	38.164
518.49	39.390
518.83	39.110
519.17	38.307
519.52	38.404
519.86	39.606
520.20	39.303
520.55	39.815
520.89	38.698
521.23	39.683
521.58	39.498
521.92	40.215
522.26	39.683
522.61	40.304
522.95	39.949
523.29	39.373
523.64	39.663
523.98	40.102
524.32	38.655
524.66	39.317
525.01	39.371
525.35	40.657
525.69	39.753
526.04	40.535
526.38	39.911
526.72	39.719
527.06	40.365
527.41	40.462
527.75	39.472
528.09	41.628
528.43	41.508
528.78	40.327
529.12	40.845
529.46	39.497
529.80	40.930
530.15	40.116
530.49	40.168
530.83	40.930
531.17	40.741
531.51	40.388
531.86	41.738
532.20	41.768
532.54	41.444
532.88	40.448
533.22	41.110
533.57	41.384
533.91	39.139
534.25	40.101
534.59	40.162
534.93	39.577
535.27	40.151
535.62	41.368
535.96	39.948
536.30	39.725
536.64	40.770
536.98	42.020
537.32	40.843
537.66	41.548
538.01	41.856
538.35	40.946
538.69	40.241
539.03	40.420
539.37	41.051
539.71	40.827
540.05	41.330
540.39	41.551
540.73	42.018
541.07	41.189
541.42	40.783
541.76	40.930
542.10	41.931
542.44	40.173
542.78	41.791
543.12	41.955
543.46	39.247
543.80	40.936
544.14	41.572
544.48	41.667
544.82	41.001
545.16	41.985
545.50	40.040
545.84	40.821
546.18	40.777
546.52	42.603
546.86	41.952
547.20	41.842
547.54	41.116
547.88	40.478
548.22	40.105
548.56	40.481
548.90	40.364
549.24	41.065
549.58	41.426
549.92	41.413
550.26	42.269
550.60	41.181
550.94	41.387
551.28	42.287
551.62	41.802
551.96	42.764
552.30	41.672
552.64	41.731
552.98	41.205
553.32	42.929
553.66	42.538
554.00	43.213
554.34	42.455
554.68	41.594
555.02	42.258
555.36	41.409
555.69	41.834
556.03	40.982
556.37	42.034
556.71	42.591
557.05	41.981
557.39	42.316
557.73	42.451
558.07	41.372
558.41	42.184
558.75	42.281
559.08	40.934
559.42	41.577
559.76	42.331
560.10	42.506
560.44	41.402
560.78	42.171
561.12	40.994
561.45	41.575
561.79	41.812
562.13	41.585
562.47	43.137
562.81	41.726
563.15	41.707
563.48	41.811
563.82	40.703
564.16	41.515
564.50	40.457
564.84	41.402
565.17	40.782
565.51	41.069
565.85	41.244
566.19	42.885
566.52	40.965
566.86	40.961
567.20	41.586
567.54	42.233
567.88	39.698
568.21	40.157
568.55	40.297
568.89	39.612
569.23	39.426
569.56	37.747
569.90	38.985
570.24	38.031
570.57	37.293
570.91	37.640
571.25	38.067
571.59	38.152
571.92	37.351
572.26	37.238
572.60	36.798
572.93	36.854
573.27	36.646
573.61	36.536
573.95	36.562
574.28	36.872
574.62	36.528
574.96	36.815
575.29	36.408
575.63	37.351
575.97	36.219
576.30	36.832
576.64	37.389
576.98	36.327
577.31	36.663
577.65	37.083
577.98	36.413
578.32	36.498
578.66	36.524
578.99	36.995
579.33	36.624
579.67	36.520
580.00	36.334
580.34	36.815
580.67	36.700
581.01	36.357
581.35	36.545
581.68	36.107
582.02	36.020
582.35	36.223
582.69	36.164
583.02	36.715
583.36	35.939
583.70	36.201
584.03	36.422
584.37	37.240
584.70	37.536
585.04	36.759
585.37	36.205
585.71	36.575
586.04	36.803
586.38	36.782
586.72	36.950
587.05	36.958
587.39	36.739
587.72	37.218
588.06	37.056
588.39	37.112
588.73	37.598
589.06	38.107
589.40	38.063
589.73	37.712
590.07	38.055
590.40	37.269
590.73	38.065
591.07	38.033
591.40	39.645
591.74	38.358
592.07	39.009
592.41	38.344
592.74	38.624
593.08	38.277
593.41	37.829
593.75	37.356
594.08	37.850
594.41	38.336
594.75	37.826
595.08	37.895
595.42	37.861
595.75	37.155
596.09	37.796
596.42	38.871
596.75	38.637
597.09	38.958
597.42	38.411
597.75	39.061
598.09	39.765
598.42	38.842
598.76	37.957
599.09	37.569
599.42	37.486
599.76	37.524
600.09	38.092
600.42	37.676
600.76	38.079
601.09	37.600
601.42	37.871
601.76	38.863
602.09	38.405
602.42	38.148
602.76	38.471
603.09	38.629
603.42	38.678
603.76	38.971
604.09	38.446
604.42	38.010
604.76	38.509
605.09	39.195
605.42	38.830
605.75	38.853
606.09	38.522
606.42	38.039
606.75	38.042
607.09	38.862
607.42	37.720
607.75	39.558
608.08	38.726
608.42	40.208
608.75	38.178
609.08	38.529
609.41	38.615
609.75	38.518
610.08	39.167
610.41	39.952
610.74	39.507
611.07	38.945
611.41	39.183
611.74	39.589
612.07	40.172
612.40	39.552
612.73	38.880
613.07	39.571
613.40	40.449
613.73	40.109
614.06	39.923
614.39	39.628
614.72	39.609
615.06	38.261
615.39	38.958
615.72	39.978
616.05	38.487
616.38	40.104
616.71	40.120
617.05	40.169
617.38	41.486
617.71	40.479
618.04	40.621
618.37	40.943
618.70	40.874
619.03	40.623
619.36	42.495
619.69	41.924
620.03	40.496
620.36	40.717
620.69	42.211
621.02	41.857
621.35	41.694
621.68	42.541
622.01	41.262
622.34	42.391
622.67	42.656
623.00	42.005
623.33	41.642
623.66	41.285
623.99	41.805
624.32	42.336
624.65	41.428
624.99	42.046
625.32	41.617
625.65	43.046
625.98	41.471
626.31	42.088
626.64	42.678
626.97	42.123
627.30	42.809
627.63	41.969
627.96	42.211
628.29	43.934
628.62	42.216
628.95	44.587
629.28	43.327
629.61	43.278
629.94	43.384
630.26	45.030
630.59	45.729
630.92	43.544
631.25	46.169
631.58	45.608
631.91	43.511
632.24	45.000
632.57	45.889
632.90	44.828
633.23	44.393
633.56	45.263
633.89	46.698
