SpectraSuite Data File
++++++++++++++++++++++++++++++++++++
Date: Sat May 16 11:21:24 PDT 2015
User: schluterlab
Dark Spectrum Present: Yes
Reference Spectrum Present: Yes
Number of Sampled Component Spectra: 1
Spectrometers: USB2E3373
Integration Time (usec): 3000 (USB2E3373)
Spectra Averaged: 3 (USB2E3373)
Boxcar Smoothing: 0 (USB2E3373)
Correct for Electrical Dark: No (USB2E3373)
Strobe/Lamp Enabled: No (USB2E3373)
Correct for Detector Non-linearity: No (USB2E3373)
Correct for Stray Light: No (USB2E3373)
Number of Pixels in Processed Spectrum: 2048
>>>>>Begin Processed Spectral Data<<<<<
178.53	0.000
178.91	113.333
179.29	666.667
179.67	-800.000
180.04	-107.692
180.42	1600.000
180.80	350.000
181.18	300.000
181.56	0.000
181.94	700.000
182.31	300.000
182.69	-38.462
183.07	-666.667
183.45	1650.000
183.83	400.000
184.20	-200.000
184.58	-100.000
184.96	-100.000
185.34	100.000
185.72	-350.000
186.09	166.667
186.47	-137.500
186.85	-287.500
187.23	-12.500
187.61	-325.000
187.98	-162.500
188.36	-162.500
188.74	-175.000
189.12	1100.000
189.49	442.857
189.87	-108.333
190.25	175.000
190.63	-85.714
191.00	-88.889
191.38	540.000
191.76	33.333
192.14	580.000
192.51	-360.000
192.89	-600.000
193.27	0.000
193.65	-144.444
194.02	-185.714
194.40	766.667
194.78	-110.000
195.15	-1700.000
195.53	-200.000
195.91	-350.000
196.29	80.000
196.66	-566.667
197.04	2600.000
197.42	-200.000
197.79	-20.000
198.17	-400.000
198.55	-750.000
198.92	-1700.000
199.30	162.500
199.68	-750.000
200.05	-111.111
200.43	-200.000
200.81	-1600.000
201.18	-158.333
201.56	300.000
201.94	-73.333
202.31	54.545
202.69	100.000
203.07	-50.000
203.44	633.333
203.82	-466.667
204.19	-450.000
204.57	-50.000
204.95	-300.000
205.32	-56.250
205.70	1000.000
206.08	-2900.000
206.45	11.111
206.83	-1450.000
207.20	-150.000
207.58	-600.000
207.96	-700.000
208.33	-112.500
208.71	-155.556
209.08	260.000
209.46	-214.286
209.84	800.000
210.21	0.000
210.59	15.000
210.96	800.000
211.34	-266.667
211.71	-333.333
212.09	250.000
212.46	1200.000
212.84	-2100.000
213.22	500.000
213.59	166.667
213.97	-100.000
214.34	70.000
214.72	-110.000
215.09	-200.000
215.47	-100.000
215.84	-160.000
216.22	-80.000
216.59	53.333
216.97	-350.000
217.34	900.000
217.72	-100.000
218.09	-266.667
218.47	-271.429
218.84	28.571
219.22	85.714
219.59	0.000
219.97	257.143
220.34	275.000
220.72	237.500
221.09	-130.769
221.47	0.000
221.84	300.000
222.22	-200.000
222.59	500.000
222.97	-300.000
223.34	-700.000
223.72	-266.667
224.09	-92.857
224.46	-375.000
224.84	-42.857
225.21	-200.000
225.59	-9.091
225.96	-150.000
226.34	-171.429
226.71	-55.556
227.08	0.000
227.46	2300.000
227.83	-42.857
228.21	-262.500
228.58	850.000
228.95	-50.000
229.33	-1700.000
229.70	-420.000
230.08	-850.000
230.45	-41.667
230.82	-166.667
231.20	-1100.000
231.57	0.000
231.95	400.000
232.32	-28.571
232.69	-111.111
233.07	-242.857
233.44	-850.000
233.81	-153.333
234.19	55.556
234.56	43.750
234.93	37.500
235.31	-228.571
235.68	-35.714
236.05	11.765
236.43	-13.636
236.80	22.581
237.17	-8.333
237.55	-47.619
237.92	-45.455
238.29	25.714
238.67	5.882
239.04	-5.556
239.41	19.355
239.79	-23.077
240.16	42.857
240.53	14.545
240.91	46.154
241.28	23.636
241.65	33.846
242.02	42.623
242.40	24.590
242.77	34.848
243.14	38.983
243.51	20.000
243.89	30.380
244.26	46.067
244.63	45.263
245.00	46.316
245.38	31.356
245.75	38.938
246.12	40.000
246.49	37.008
246.87	34.959
247.24	44.068
247.61	37.288
247.98	45.070
248.36	40.559
248.73	42.405
249.10	38.217
249.47	40.351
249.84	42.614
250.22	32.143
250.59	40.113
250.96	38.220
251.33	42.654
251.70	45.192
252.08	41.232
252.45	38.389
252.82	41.429
253.19	44.681
253.56	37.500
253.94	37.975
254.31	44.206
254.68	43.902
255.05	43.548
255.42	44.048
255.79	41.219
256.16	45.490
256.54	41.912
256.91	46.970
257.28	41.026
257.65	42.553
258.02	44.025
258.39	43.813
258.76	39.189
259.14	44.444
259.51	47.869
259.88	42.988
260.25	43.168
260.62	43.408
260.99	40.950
261.36	44.817
261.73	45.665
262.10	44.444
262.47	44.729
262.85	48.000
263.22	43.266
263.59	46.769
263.96	46.957
264.33	41.734
264.70	47.514
265.07	45.604
265.44	43.152
265.81	42.894
266.18	40.506
266.55	40.931
266.92	44.584
267.29	44.552
267.66	43.704
268.03	45.411
268.40	46.244
268.77	43.133
269.14	41.995
269.51	42.069
269.88	40.367
270.25	40.326
270.62	43.249
270.99	43.468
271.36	42.424
271.73	39.238
272.10	44.394
272.47	45.333
272.84	41.556
273.21	46.330
273.58	43.516
273.95	42.982
274.32	43.891
274.69	45.514
275.06	45.603
275.43	42.857
275.80	43.788
276.17	44.561
276.54	44.807
276.91	43.621
277.28	45.639
277.65	44.008
278.02	45.720
278.39	41.257
278.76	43.227
279.13	44.664
279.50	45.328
279.87	41.438
280.23	43.725
280.60	43.738
280.97	41.942
281.34	43.327
281.71	43.654
282.08	45.565
282.45	42.566
282.82	42.829
283.19	42.909
283.56	45.604
283.92	45.936
284.29	43.123
284.66	40.108
285.03	42.781
285.40	42.804
285.77	43.333
286.14	43.141
286.51	41.385
286.87	40.109
287.24	41.468
287.61	39.835
287.98	41.941
288.35	39.669
288.72	40.238
289.08	39.492
289.45	39.899
289.82	38.927
290.19	41.215
290.56	37.190
290.93	38.633
291.29	37.925
291.66	37.520
292.03	38.462
292.40	37.199
292.77	38.199
293.13	36.423
293.50	34.175
293.87	37.117
294.24	36.652
294.60	34.545
294.97	35.053
295.34	33.630
295.71	35.417
296.08	34.255
296.44	36.481
296.81	35.185
297.18	35.352
297.55	36.299
297.91	33.054
298.28	32.329
298.65	32.218
299.02	34.091
299.38	33.422
299.75	33.832
300.12	31.538
300.48	31.330
300.85	31.455
301.22	32.600
301.59	32.120
301.95	32.746
302.32	31.421
302.69	32.069
303.05	31.990
303.42	29.625
303.79	31.220
304.15	31.517
304.52	30.105
304.89	30.460
305.25	30.891
305.62	32.315
305.99	31.449
306.35	30.522
306.72	30.638
307.09	31.328
307.45	29.625
307.82	29.944
308.19	29.866
308.55	30.065
308.92	29.538
309.29	29.730
309.65	28.738
310.02	30.022
310.38	28.973
310.75	29.508
311.12	29.029
311.48	28.914
311.85	29.351
312.22	28.939
312.58	29.400
312.95	27.115
313.31	28.172
313.68	28.643
314.05	30.069
314.41	27.968
314.78	27.672
315.14	28.825
315.51	28.166
315.87	29.138
316.24	27.794
316.61	29.079
316.97	29.154
317.34	28.227
317.70	27.273
318.07	28.078
318.43	28.558
318.80	28.638
319.16	27.955
319.53	28.289
319.89	27.187
320.26	27.941
320.62	26.538
320.99	28.259
321.35	25.320
321.72	27.636
322.08	29.476
322.45	27.525
322.81	27.666
323.18	27.858
323.54	26.617
323.91	26.321
324.27	26.996
324.64	27.057
325.00	26.963
325.37	28.235
325.73	29.571
326.10	26.484
326.46	27.758
326.83	27.489
327.19	26.022
327.56	26.576
327.92	26.338
328.29	25.887
328.65	26.000
329.01	27.208
329.38	26.583
329.74	27.930
330.11	26.111
330.47	26.158
330.84	26.856
331.20	25.451
331.56	26.800
331.93	26.732
332.29	26.941
332.66	25.724
333.02	25.158
333.38	26.254
333.75	26.892
334.11	26.400
334.48	25.596
334.84	25.197
335.20	25.798
335.57	26.173
335.93	27.395
336.29	24.889
336.66	26.256
337.02	26.126
337.38	24.777
337.75	25.022
338.11	25.760
338.47	25.356
338.84	25.408
339.20	25.395
339.56	26.203
339.93	25.838
340.29	23.738
340.65	24.126
341.02	25.295
341.38	25.105
341.74	25.148
342.11	24.403
342.47	24.378
342.83	24.769
343.20	25.278
343.56	24.327
343.92	25.876
344.28	25.736
344.65	23.680
345.01	24.202
345.37	25.249
345.73	23.895
346.10	23.712
346.46	24.289
346.82	25.020
347.19	23.993
347.55	23.596
347.91	25.118
348.27	24.980
348.63	25.283
349.00	24.582
349.36	22.482
349.72	24.443
350.08	24.539
350.45	23.168
350.81	24.682
351.17	22.990
351.53	22.991
351.89	23.848
352.26	24.496
352.62	24.270
352.98	24.842
353.34	24.061
353.70	22.780
354.07	23.839
354.43	24.664
354.79	22.345
355.15	23.083
355.51	23.125
355.87	23.557
356.24	23.908
356.60	24.335
356.96	23.095
357.32	22.882
357.68	23.985
358.04	24.018
358.40	23.047
358.77	24.034
359.13	23.183
359.49	23.583
359.85	23.399
360.21	23.364
360.57	23.720
360.93	22.963
361.29	22.795
361.66	23.323
362.02	22.929
362.38	23.184
362.74	24.762
363.10	22.310
363.46	24.858
363.82	23.834
364.18	24.602
364.54	24.303
364.90	22.292
365.26	23.538
365.62	24.590
365.98	23.684
366.35	23.592
366.71	21.846
367.07	23.077
367.43	24.434
367.79	23.162
368.15	22.475
368.51	22.308
368.87	23.764
369.23	23.158
369.59	22.639
369.95	22.974
370.31	24.473
370.67	22.054
371.03	24.052
371.39	22.631
371.75	23.247
372.11	22.884
372.47	22.487
372.83	23.435
373.19	23.571
373.55	24.349
373.91	23.471
374.27	22.930
374.63	23.602
374.99	22.740
375.35	23.419
375.71	24.308
376.07	22.313
376.42	22.980
376.78	23.856
377.14	23.458
377.50	23.146
377.86	22.822
378.22	23.618
378.58	23.162
378.94	23.181
379.30	24.254
379.66	23.801
380.02	23.232
380.38	22.659
380.74	23.095
381.09	22.847
381.45	24.403
381.81	22.505
382.17	22.180
382.53	22.675
382.89	23.266
383.25	22.697
383.61	23.349
383.97	23.821
384.32	24.155
384.68	23.277
385.04	23.430
385.40	23.311
385.76	23.232
386.12	22.798
386.48	23.267
386.83	23.313
387.19	24.029
387.55	23.804
387.91	22.703
388.27	21.713
388.62	23.137
388.98	23.319
389.34	23.929
389.70	22.899
390.06	23.617
390.42	23.013
390.77	22.965
391.13	23.106
391.49	23.331
391.85	23.317
392.20	23.180
392.56	22.236
392.92	22.647
393.28	23.823
393.64	23.512
393.99	23.569
394.35	23.175
394.71	22.607
395.07	23.352
395.42	22.706
395.78	23.130
396.14	23.178
396.50	23.547
396.85	23.874
397.21	22.539
397.57	23.647
397.92	24.356
398.28	23.333
398.64	23.795
399.00	24.663
399.35	24.183
399.71	23.287
400.07	23.701
400.42	24.453
400.78	22.361
401.14	23.713
401.49	23.762
401.85	23.551
402.21	24.315
402.57	23.180
402.92	23.851
403.28	23.652
403.63	23.667
403.99	23.679
404.35	23.128
404.70	23.464
405.06	24.048
405.42	23.247
405.77	22.229
406.13	22.885
406.49	23.307
406.84	22.735
407.20	23.498
407.55	23.243
407.91	22.863
408.27	24.632
408.62	23.692
408.98	23.529
409.34	24.132
409.69	23.314
410.05	24.015
410.40	24.402
410.76	23.592
411.11	24.377
411.47	23.529
411.83	23.411
412.18	22.277
412.54	24.100
412.89	23.694
413.25	22.609
413.60	23.572
413.96	22.921
414.31	23.486
414.67	23.429
415.03	23.351
415.38	24.138
415.74	24.549
416.09	24.361
416.45	23.347
416.80	23.992
417.16	23.920
417.51	23.441
417.87	23.495
418.22	23.704
418.58	24.583
418.93	23.728
419.29	23.965
419.64	23.995
420.00	24.484
420.35	22.827
420.71	24.010
421.06	23.787
421.42	23.126
421.77	24.679
422.12	23.783
422.48	23.731
422.83	25.000
423.19	24.220
423.54	24.207
423.90	24.349
424.25	23.020
424.61	24.367
424.96	24.751
425.31	23.533
425.67	24.069
426.02	23.752
426.38	25.045
426.73	24.489
427.09	24.203
427.44	23.864
427.79	24.012
428.15	24.596
428.50	24.223
428.85	24.041
429.21	24.405
429.56	24.167
429.92	23.998
430.27	23.579
430.62	24.556
430.98	24.098
431.33	24.013
431.68	24.504
432.04	23.895
432.39	24.843
432.74	25.180
433.10	24.367
433.45	24.007
433.80	24.804
434.16	24.449
434.51	24.110
434.86	25.718
435.22	23.942
435.57	24.663
435.92	23.388
436.28	24.985
436.63	24.081
436.98	23.654
437.34	25.103
437.69	24.387
438.04	23.766
438.39	24.910
438.75	24.622
439.10	24.486
439.45	24.562
439.81	24.518
440.16	24.077
440.51	25.294
440.86	24.812
441.22	24.102
441.57	24.789
441.92	24.655
442.27	25.162
442.63	24.249
442.98	24.492
443.33	24.986
443.68	24.179
444.03	24.214
444.39	24.523
444.74	25.000
445.09	24.561
445.44	24.198
445.79	24.579
446.15	25.192
446.50	24.061
446.85	24.833
447.20	24.566
447.55	25.028
447.91	25.491
448.26	24.190
448.61	23.939
448.96	25.826
449.31	24.408
449.66	25.529
450.02	24.100
450.37	24.348
450.72	25.141
451.07	25.267
451.42	24.164
451.77	25.194
452.12	25.030
452.47	24.307
452.83	25.568
453.18	26.376
453.53	25.311
453.88	25.538
454.23	25.333
454.58	26.476
454.93	25.063
455.28	24.857
455.63	25.921
455.98	25.000
456.34	24.587
456.69	25.141
457.04	26.122
457.39	24.940
457.74	25.694
458.09	25.986
458.44	25.635
458.79	25.561
459.14	26.070
459.49	25.814
459.84	25.913
460.19	25.835
460.54	25.650
460.89	26.121
461.24	25.379
461.59	26.084
461.94	26.671
462.29	25.610
462.64	26.153
462.99	27.510
463.34	25.591
463.69	25.254
464.04	25.776
464.39	26.105
464.74	25.591
465.09	25.316
465.44	26.001
465.79	25.494
466.14	26.352
466.49	26.022
466.84	25.930
467.19	26.683
467.54	25.253
467.89	26.141
468.24	25.950
468.59	26.483
468.94	26.045
469.29	26.446
469.64	27.358
469.99	26.806
470.34	27.054
470.68	27.834
471.03	26.841
471.38	26.528
471.73	27.273
472.08	26.640
472.43	25.804
472.78	26.867
473.13	26.243
473.48	26.292
473.83	26.365
474.17	27.070
474.52	27.877
474.87	26.399
475.22	26.313
475.57	26.889
475.92	26.350
476.27	26.914
476.61	26.197
476.96	26.887
477.31	27.287
477.66	27.338
478.01	27.120
478.36	26.611
478.70	26.749
479.05	26.825
479.40	27.565
479.75	27.166
480.10	28.026
480.45	26.306
480.79	28.184
481.14	26.994
481.49	28.316
481.84	27.416
482.19	27.181
482.53	28.030
482.88	27.385
483.23	26.338
483.58	28.261
483.92	27.950
484.27	27.071
484.62	27.300
484.97	26.968
485.31	25.856
485.66	24.461
486.01	24.228
486.36	24.596
486.70	25.822
487.05	25.712
487.40	25.881
487.75	25.042
488.09	25.386
488.44	26.150
488.79	25.999
489.13	26.284
489.48	26.631
489.83	27.904
490.17	28.254
490.52	28.080
490.87	28.406
491.22	27.417
491.56	28.519
491.91	28.197
492.26	29.009
492.60	28.449
492.95	28.320
493.30	27.537
493.64	28.021
493.99	28.155
494.34	29.000
494.68	29.167
495.03	28.776
495.37	28.515
495.72	28.536
496.07	28.813
496.41	29.041
496.76	28.767
497.11	28.827
497.45	28.927
497.80	28.514
498.14	28.585
498.49	28.629
498.84	29.029
499.18	28.899
499.53	28.203
499.87	28.813
500.22	28.775
500.56	29.065
500.91	28.177
501.26	28.869
501.60	28.743
501.95	29.952
502.29	28.153
502.64	28.524
502.98	28.654
503.33	29.088
503.67	28.544
504.02	28.778
504.36	29.363
504.71	28.774
505.06	28.857
505.40	29.790
505.75	29.370
506.09	30.738
506.44	29.875
506.78	29.704
507.13	29.506
507.47	29.838
507.82	29.272
508.16	29.585
508.51	29.985
508.85	29.348
509.19	29.252
509.54	30.391
509.88	30.053
510.23	30.189
510.57	30.053
510.92	29.968
511.26	29.825
511.61	30.076
511.95	29.795
512.30	30.951
512.64	31.163
512.98	32.013
513.33	31.521
513.67	31.379
514.02	31.264
514.36	30.914
514.70	30.900
515.05	31.275
515.39	31.142
515.74	31.879
516.08	31.297
516.42	30.992
516.77	32.293
517.11	31.007
517.46	31.998
517.80	31.949
518.14	31.220
518.49	32.038
518.83	31.395
519.17	31.735
519.52	31.695
519.86	32.437
520.20	32.763
520.55	31.877
520.89	32.999
521.23	32.662
521.58	32.790
521.92	32.742
522.26	32.952
522.61	32.446
522.95	32.482
523.29	32.978
523.64	33.229
523.98	31.381
524.32	33.438
524.66	31.863
525.01	33.141
525.35	32.925
525.69	32.596
526.04	34.204
526.38	33.800
526.72	31.992
527.06	32.943
527.41	33.993
527.75	33.135
528.09	33.686
528.43	33.049
528.78	32.915
529.12	33.675
529.46	32.990
529.80	33.247
530.15	33.226
530.49	33.182
530.83	33.006
531.17	33.333
531.51	32.820
531.86	31.863
532.20	33.198
532.54	33.356
532.88	33.531
533.22	32.888
533.57	34.726
533.91	32.335
534.25	31.992
534.59	32.042
534.93	31.549
535.27	33.354
535.62	33.440
535.96	32.579
536.30	32.330
536.64	32.736
536.98	33.333
537.32	33.103
537.66	33.198
538.01	34.089
538.35	34.257
538.69	32.353
539.03	32.701
539.37	32.335
539.71	32.955
540.05	33.585
540.39	34.072
540.73	33.449
541.07	33.948
541.42	33.018
541.76	32.957
542.10	33.828
542.44	33.045
542.78	34.125
543.12	33.469
543.46	32.740
543.80	31.773
544.14	32.639
544.48	33.005
544.82	33.018
545.16	32.797
545.50	32.369
545.84	33.797
546.18	33.981
546.52	32.432
546.86	33.761
547.20	34.318
547.54	32.231
547.88	32.847
548.22	31.651
548.56	32.398
548.90	34.232
549.24	33.006
549.58	33.239
549.92	33.428
550.26	34.971
550.60	33.001
550.94	34.015
551.28	34.086
551.62	33.309
551.96	33.502
552.30	32.474
552.64	33.779
552.98	33.567
553.32	33.478
553.66	33.453
554.00	34.755
554.34	33.069
554.68	32.749
555.02	34.226
555.36	33.070
555.69	32.951
556.03	33.404
556.37	33.997
556.71	34.216
557.05	33.629
557.39	33.630
557.73	33.990
558.07	33.911
558.41	34.405
558.75	33.308
559.08	33.152
559.42	34.763
559.76	34.049
560.10	34.004
560.44	34.538
560.78	33.751
561.12	33.195
561.45	33.699
561.79	33.031
562.13	33.170
562.47	33.754
562.81	32.673
563.15	34.150
563.48	33.172
563.82	33.739
564.16	33.333
564.50	33.938
564.84	33.069
565.17	32.493
565.51	33.051
565.85	32.928
566.19	33.267
566.52	33.855
566.86	32.491
567.20	32.748
567.54	32.959
567.88	31.379
568.21	31.320
568.55	31.442
568.89	30.865
569.23	29.708
569.56	29.929
569.90	29.583
570.24	29.575
570.57	28.084
570.91	28.358
571.25	27.886
571.59	28.161
571.92	27.530
572.26	27.831
572.60	27.676
572.93	27.408
573.27	27.957
573.61	27.387
573.95	26.876
574.28	26.825
574.62	26.411
574.96	26.844
575.29	26.220
575.63	26.546
575.97	26.025
576.30	27.103
576.64	26.893
576.98	26.126
577.31	25.888
577.65	25.967
577.98	25.452
578.32	26.016
578.66	26.244
578.99	26.630
579.33	26.124
579.67	25.869
580.00	26.414
580.34	25.905
580.67	26.134
581.01	25.503
581.35	25.836
581.68	25.897
582.02	25.959
582.35	25.439
582.69	26.021
583.02	25.950
583.36	25.858
583.70	25.653
584.03	26.589
584.37	25.819
584.70	26.011
585.04	26.127
585.37	25.585
585.71	25.907
586.04	26.165
586.38	26.517
586.72	26.888
587.05	26.593
587.39	26.577
587.72	26.148
588.06	26.410
588.39	26.830
588.73	27.127
589.06	27.302
589.40	27.619
589.73	27.868
590.07	27.422
590.40	27.786
590.73	27.509
591.07	27.951
591.40	28.683
591.74	28.931
592.07	28.333
592.41	28.323
592.74	27.825
593.08	27.566
593.41	27.566
593.75	26.080
594.08	27.930
594.41	28.466
594.75	27.482
595.08	27.632
595.42	27.818
595.75	27.527
596.09	27.396
596.42	28.232
596.75	28.202
597.09	29.252
597.42	27.935
597.75	28.344
598.09	28.513
598.42	27.707
598.76	28.364
599.09	27.348
599.42	27.220
599.76	27.218
600.09	27.939
600.42	27.535
600.76	27.646
601.09	27.421
601.42	26.791
601.76	28.154
602.09	27.117
602.42	28.066
602.76	27.669
603.09	28.387
603.42	28.767
603.76	28.839
604.09	27.954
604.42	28.018
604.76	27.388
605.09	28.526
605.42	28.856
605.75	27.900
606.09	28.352
606.42	27.608
606.75	27.608
607.09	28.628
607.42	27.817
607.75	28.168
608.08	28.920
608.42	28.335
608.75	28.551
609.08	28.397
609.41	28.251
609.75	27.889
610.08	29.020
610.41	28.723
610.74	28.868
611.07	28.651
611.41	28.845
611.74	30.077
612.07	30.236
612.40	28.465
612.73	29.456
613.07	28.949
613.40	29.721
613.73	29.264
614.06	29.050
614.39	29.820
614.72	29.106
615.06	28.587
615.39	28.974
615.72	29.332
616.05	29.376
616.38	30.296
616.71	29.249
617.05	30.458
617.38	30.898
617.71	29.115
618.04	29.503
618.37	29.874
618.70	30.900
619.03	29.790
619.36	31.994
619.69	31.802
620.03	31.198
620.36	31.013
620.69	31.012
621.02	32.496
621.35	31.774
621.68	32.131
622.01	31.958
622.34	31.444
622.67	31.406
623.00	31.446
623.33	32.388
623.66	30.576
623.99	31.654
624.32	31.548
624.65	30.684
624.99	32.188
625.32	32.260
625.65	33.100
625.98	32.394
626.31	32.626
626.64	31.715
626.97	33.476
627.30	32.511
627.63	31.347
627.96	32.115
628.29	34.559
628.62	33.715
628.95	33.858
629.28	33.835
629.61	32.090
629.94	34.121
630.26	33.400
630.59	36.181
630.92	33.634
631.25	34.577
631.58	35.873
