SpectraSuite Data File
++++++++++++++++++++++++++++++++++++
Date: Sat May 16 11:08:41 PDT 2015
User: schluterlab
Dark Spectrum Present: Yes
Reference Spectrum Present: Yes
Number of Sampled Component Spectra: 1
Spectrometers: USB2E3373
Integration Time (usec): 3000 (USB2E3373)
Spectra Averaged: 3 (USB2E3373)
Boxcar Smoothing: 0 (USB2E3373)
Correct for Electrical Dark: No (USB2E3373)
Strobe/Lamp Enabled: No (USB2E3373)
Correct for Detector Non-linearity: No (USB2E3373)
Correct for Stray Light: No (USB2E3373)
Number of Pixels in Processed Spectrum: 2048
>>>>>Begin Processed Spectral Data<<<<<
178.53	0.000
178.91	93.333
179.29	166.667
179.67	-700.000
180.04	61.538
180.42	-200.000
180.80	-100.000
181.18	150.000
181.56	87.500
181.94	-0.000
182.31	325.000
182.69	61.538
183.07	66.667
183.45	450.000
183.83	133.333
184.20	-42.857
184.58	0.000
184.96	-100.000
185.34	87.500
185.72	-425.000
186.09	-0.000
186.47	-37.500
186.85	50.000
187.23	100.000
187.61	125.000
187.98	0.000
188.36	62.500
188.74	-12.500
189.12	-300.000
189.49	200.000
189.87	16.667
190.25	-125.000
190.63	-64.286
191.00	-88.889
191.38	180.000
191.76	66.667
192.14	420.000
192.51	-100.000
192.89	-66.667
193.27	0.000
193.65	-66.667
194.02	42.857
194.40	133.333
194.78	120.000
195.15	0.000
195.53	-27.273
195.91	-383.333
196.29	-20.000
196.66	-366.667
197.04	700.000
197.42	25.000
197.79	120.000
198.17	266.667
198.55	-600.000
198.92	-600.000
199.30	-0.000
199.68	-400.000
200.05	0.000
200.43	-100.000
200.81	-100.000
201.18	33.333
201.56	114.286
201.94	33.333
202.31	59.091
202.69	50.000
203.07	50.000
203.44	66.667
203.82	-150.000
204.19	50.000
204.57	375.000
204.95	-400.000
205.32	56.250
205.70	100.000
206.08	-500.000
206.45	5.556
206.83	-250.000
207.20	350.000
207.58	-66.667
207.96	233.333
208.33	-50.000
208.71	0.000
209.08	170.000
209.46	-100.000
209.84	-0.000
210.21	0.000
210.59	90.000
210.96	-600.000
211.34	-100.000
211.71	-100.000
212.09	175.000
212.46	300.000
212.84	-1000.000
213.22	66.667
213.59	-16.667
213.97	88.889
214.34	30.000
214.72	10.000
215.09	-133.333
215.47	0.000
215.84	-70.000
216.22	150.000
216.59	140.000
216.97	225.000
217.34	250.000
217.72	28.571
218.09	-166.667
218.47	-85.714
218.84	100.000
219.22	157.143
219.59	0.000
219.97	157.143
220.34	200.000
220.72	-50.000
221.09	15.385
221.47	0.000
221.84	200.000
222.22	-150.000
222.59	-200.000
222.97	-25.000
223.34	250.000
223.72	33.333
224.09	50.000
224.46	-50.000
224.84	-28.571
225.21	-114.286
225.59	-18.182
225.96	-25.000
226.34	114.286
226.71	-100.000
227.08	30.000
227.46	800.000
227.83	-28.571
228.21	0.000
228.58	-150.000
228.95	18.750
229.33	-1100.000
229.70	60.000
230.08	-200.000
230.45	8.333
230.82	83.333
231.20	1100.000
231.57	0.000
231.95	800.000
232.32	9.524
232.69	44.444
233.07	-57.143
233.44	200.000
233.81	-13.333
234.19	44.444
234.56	25.000
234.93	34.375
235.31	-228.571
235.68	-42.857
236.05	0.000
236.43	-27.273
236.80	16.129
237.17	20.833
237.55	-4.762
237.92	-36.364
238.29	20.000
238.67	17.647
239.04	0.000
239.41	-22.581
239.79	-33.333
240.16	-4.762
240.53	16.364
240.91	17.949
241.28	23.636
241.65	16.923
242.02	6.557
242.40	9.836
242.77	10.606
243.14	5.085
243.51	1.429
243.89	3.797
244.26	13.483
244.63	17.895
245.00	9.474
245.38	9.322
245.75	4.425
246.12	11.200
246.49	7.087
246.87	1.626
247.24	3.390
247.61	5.932
247.98	10.563
248.36	5.594
248.73	7.595
249.10	6.369
249.47	8.187
249.84	9.659
250.22	-2.976
250.59	10.169
250.96	7.330
251.33	10.427
251.70	11.058
252.08	9.479
252.45	6.161
252.82	3.333
253.19	13.617
253.56	6.048
253.94	5.907
254.31	5.579
254.68	10.976
255.05	5.645
255.42	5.556
255.79	6.452
256.16	9.412
256.54	8.824
256.91	9.848
257.28	9.890
257.65	2.128
258.02	9.748
258.39	8.027
258.76	4.392
259.14	8.025
259.51	9.836
259.88	8.841
260.25	14.907
260.62	6.109
260.99	3.264
261.36	12.500
261.73	6.936
262.10	11.111
262.47	9.402
262.85	9.714
263.22	8.309
263.59	7.077
263.96	8.406
264.33	8.130
264.70	6.354
265.07	8.242
265.44	5.168
265.81	7.494
266.18	6.582
266.55	5.392
266.92	9.068
267.29	8.959
267.66	7.160
268.03	7.971
268.40	8.920
268.77	7.229
269.14	6.032
269.51	10.115
269.88	4.358
270.25	7.459
270.62	7.780
270.99	8.333
271.36	7.226
271.73	8.296
272.10	8.924
272.47	5.778
272.84	10.000
273.21	7.798
273.58	9.670
273.95	8.333
274.32	6.335
274.69	10.066
275.06	9.611
275.43	6.473
275.80	9.572
276.17	7.531
276.54	9.572
276.91	6.790
277.28	8.316
277.65	8.678
278.02	7.307
278.39	7.859
278.76	7.570
279.13	8.300
279.50	7.952
279.87	7.822
280.23	9.717
280.60	8.151
280.97	6.796
281.34	7.930
281.71	7.500
282.08	5.242
282.45	4.888
282.82	6.977
283.19	8.909
283.56	10.256
283.92	9.187
284.29	7.807
284.66	8.453
285.03	8.734
285.40	7.196
285.77	8.596
286.14	7.401
286.51	8.348
286.87	10.708
287.24	9.556
287.61	8.760
287.98	7.972
288.35	6.116
288.72	7.470
289.08	6.949
289.45	7.744
289.82	6.228
290.19	9.031
290.56	7.934
290.93	9.857
291.29	7.780
291.66	7.729
292.03	9.890
292.40	9.789
292.77	7.764
293.13	9.919
293.50	9.807
293.87	9.356
294.24	9.502
294.60	8.333
294.97	11.229
295.34	9.630
295.71	9.375
296.08	7.680
296.44	11.016
296.81	10.399
297.18	10.282
297.55	10.028
297.91	11.715
298.28	9.589
298.65	10.181
299.02	10.829
299.38	10.561
299.75	10.598
300.12	11.154
300.48	12.276
300.85	10.878
301.22	11.772
301.59	10.013
301.95	12.343
302.32	9.126
302.69	11.506
303.05	11.600
303.42	10.125
303.79	13.038
304.15	11.611
304.52	11.669
304.89	12.751
305.25	11.233
305.62	10.458
305.99	13.074
306.35	12.542
306.72	10.820
307.09	13.053
307.45	11.237
307.82	10.503
308.19	11.745
308.55	12.854
308.92	11.171
309.29	11.784
309.65	11.559
310.02	12.311
310.38	11.243
310.75	12.705
311.12	13.223
311.48	12.422
311.85	13.903
312.22	11.637
312.58	13.530
312.95	11.519
313.31	11.688
313.68	13.166
314.05	13.551
314.41	12.173
314.78	11.988
315.14	13.327
315.51	12.462
315.87	12.875
316.24	13.994
316.61	14.491
316.97	14.826
317.34	12.620
317.70	12.987
318.07	13.060
318.43	13.109
318.80	14.554
319.16	12.477
319.53	13.346
319.89	12.700
320.26	13.431
320.62	12.692
320.99	13.731
321.35	13.300
321.72	12.385
322.08	12.760
322.45	13.168
322.81	13.353
323.18	14.025
323.54	13.956
323.91	13.624
324.27	14.259
324.64	14.534
325.00	13.613
325.37	14.842
325.73	15.311
326.10	12.578
326.46	14.799
326.83	13.787
327.19	14.512
327.56	14.906
327.92	15.973
328.29	14.805
328.65	13.636
329.01	14.841
329.38	14.541
329.74	15.568
330.11	15.775
330.47	14.351
330.84	16.774
331.20	14.350
331.56	15.041
331.93	14.032
332.29	15.434
332.66	14.399
333.02	15.385
333.38	14.427
333.75	15.672
334.11	15.022
334.48	14.387
334.84	15.486
335.20	15.337
335.57	14.892
335.93	16.383
336.29	14.615
336.66	14.009
337.02	15.315
337.38	14.973
337.75	14.662
338.11	15.027
338.47	16.548
338.84	16.152
339.20	13.972
339.56	16.221
339.93	14.903
340.29	15.412
340.65	15.210
341.02	16.189
341.38	15.333
341.74	15.580
342.11	15.358
342.47	14.592
342.83	15.281
343.20	15.115
343.56	13.551
343.92	15.442
344.28	16.316
344.65	15.182
345.01	14.370
345.37	15.864
345.73	14.812
346.10	14.554
346.46	14.703
346.82	14.755
347.19	14.215
347.55	15.169
347.91	15.118
348.27	15.354
348.63	16.478
349.00	14.956
349.36	13.505
349.72	16.322
350.08	14.595
350.45	14.421
350.81	14.490
351.17	13.987
351.53	14.081
351.89	15.360
352.26	14.961
352.62	14.977
352.98	14.794
353.34	15.028
353.70	14.749
354.07	14.555
354.43	15.178
354.79	13.550
355.15	14.217
355.51	14.687
355.87	14.625
356.24	15.091
356.60	15.874
356.96	15.319
357.32	14.014
357.68	14.253
358.04	14.704
358.40	14.849
358.77	14.838
359.13	14.690
359.49	14.966
359.85	13.643
360.21	15.601
360.57	15.286
360.93	14.815
361.29	14.948
361.66	13.415
362.02	13.757
362.38	14.967
362.74	15.238
363.10	14.634
363.46	16.026
363.82	15.160
364.18	15.123
364.54	15.225
364.90	14.396
365.26	14.693
365.62	14.612
365.98	14.936
366.35	14.859
366.71	14.376
367.07	14.891
367.43	16.541
367.79	15.464
368.15	14.083
368.51	15.594
368.87	15.728
369.23	15.719
369.59	15.347
369.95	15.715
370.31	16.104
370.67	14.317
371.03	15.015
371.39	14.144
371.75	15.451
372.11	15.495
372.47	14.823
372.83	15.994
373.19	14.714
373.55	15.975
373.91	15.007
374.27	14.716
374.63	14.907
374.99	15.369
375.35	15.410
375.71	16.003
376.07	15.811
376.42	14.768
376.78	16.209
377.14	15.932
377.50	16.119
377.86	15.410
378.22	16.143
378.58	14.886
378.94	14.982
379.30	15.722
379.66	16.393
380.02	15.092
380.38	15.529
380.74	15.944
381.09	15.290
381.45	15.990
381.81	15.426
382.17	16.165
382.53	15.198
382.89	15.550
383.25	15.894
383.61	15.979
383.97	16.044
384.32	15.895
384.68	17.291
385.04	15.821
385.40	15.216
385.76	16.341
386.12	16.052
386.48	15.099
386.83	16.319
387.19	16.497
387.55	16.172
387.91	15.590
388.27	14.958
388.62	15.805
388.98	15.809
389.34	15.851
389.70	16.504
390.06	15.600
390.42	16.218
390.77	16.025
391.13	16.460
391.49	16.344
391.85	16.085
392.20	15.898
392.56	15.089
392.92	16.144
393.28	15.844
393.64	15.695
393.99	17.046
394.35	16.545
394.71	15.627
395.07	16.447
395.42	15.554
395.78	15.651
396.14	15.701
396.50	16.453
396.85	16.903
397.21	16.646
397.57	15.684
397.92	16.335
398.28	16.667
398.64	16.657
399.00	17.191
399.35	16.516
399.71	17.712
400.07	16.299
400.42	16.545
400.78	15.802
401.14	15.329
401.49	16.156
401.85	16.046
402.21	15.793
402.57	16.262
402.92	15.796
403.28	16.054
403.63	15.998
403.99	16.781
404.35	15.580
404.70	16.150
405.06	16.263
405.42	15.867
405.77	15.498
406.13	16.070
406.49	16.297
406.84	16.137
407.20	16.667
407.55	15.579
407.91	15.479
408.27	16.115
408.62	16.115
408.98	16.555
409.34	15.661
409.69	16.068
410.05	16.131
410.40	15.451
410.76	16.242
411.11	15.773
411.47	15.665
411.83	16.076
412.18	16.151
412.54	15.558
412.89	16.160
413.25	15.112
413.60	15.492
413.96	15.527
414.31	16.208
414.67	14.857
415.03	16.624
415.38	15.875
415.74	16.495
416.09	15.729
416.45	14.683
416.80	16.190
417.16	16.213
417.51	16.349
417.87	15.987
418.22	15.992
418.58	16.367
418.93	16.309
419.29	15.809
419.64	15.641
420.00	16.950
420.35	16.026
420.71	16.387
421.06	16.509
421.42	15.515
421.77	16.471
422.12	16.396
422.48	15.500
422.83	16.458
423.19	16.203
423.54	15.908
423.90	15.674
424.25	16.233
424.61	17.069
424.96	16.969
425.31	16.210
425.67	16.103
426.02	15.950
426.38	16.334
426.73	16.423
427.09	17.586
427.44	16.534
427.79	17.035
428.15	17.115
428.50	17.302
428.85	17.026
429.21	16.381
429.56	16.875
429.92	16.433
430.27	17.049
430.62	17.294
430.98	16.571
431.33	16.969
431.68	17.319
432.04	16.900
432.39	17.493
432.74	17.086
433.10	16.601
433.45	16.868
433.80	17.301
434.16	17.303
434.51	17.425
434.86	18.571
435.22	17.873
435.57	17.075
435.92	16.647
436.28	17.685
436.63	16.902
436.98	16.094
437.34	17.307
437.69	17.911
438.04	18.151
438.39	17.449
438.75	17.229
439.10	18.268
439.45	16.295
439.81	18.133
440.16	17.433
440.51	18.529
440.86	16.773
441.22	17.800
441.57	17.632
441.92	16.982
442.27	18.344
442.63	17.811
442.98	17.777
443.33	17.628
443.68	17.457
444.03	17.092
444.39	17.964
444.74	18.337
445.09	17.489
445.44	17.501
445.79	17.338
446.15	18.620
446.50	17.365
446.85	17.445
447.20	18.335
447.55	18.619
447.91	18.810
448.26	17.542
448.61	18.280
448.96	18.375
449.31	17.306
449.66	18.489
450.02	17.729
450.37	17.855
450.72	17.684
451.07	19.296
451.42	18.092
451.77	18.133
452.12	18.236
452.47	18.262
452.83	17.472
453.18	18.659
453.53	18.408
453.88	18.541
454.23	18.198
454.58	18.645
454.93	18.514
455.28	18.228
455.63	19.165
455.98	18.373
456.34	18.234
456.69	18.762
457.04	18.316
457.39	18.541
457.74	18.133
458.09	19.548
458.44	18.764
458.79	18.161
459.14	18.825
459.49	17.762
459.84	18.831
460.19	17.900
460.54	18.633
460.89	18.217
461.24	18.701
461.59	18.757
461.94	18.269
462.29	19.178
462.64	18.906
462.99	19.076
463.34	19.109
463.69	18.639
464.04	18.219
464.39	18.280
464.74	17.849
465.09	18.400
465.44	18.895
465.79	18.782
466.14	19.448
466.49	18.365
466.84	18.908
467.19	18.828
467.54	18.038
467.89	18.311
468.24	18.409
468.59	18.863
468.94	18.392
469.29	18.259
469.64	19.003
469.99	19.851
470.34	18.504
470.68	19.840
471.03	20.096
471.38	18.125
471.73	19.580
472.08	18.742
472.43	18.855
472.78	20.333
473.13	18.025
473.48	18.379
473.83	18.610
474.17	18.790
474.52	19.949
474.87	19.172
475.22	19.174
475.57	19.056
475.92	19.276
476.27	18.457
476.61	18.535
476.96	19.005
477.31	19.537
477.66	18.871
478.01	19.287
478.36	19.015
478.70	18.740
479.05	19.632
479.40	19.689
479.75	18.756
480.10	18.998
480.45	18.569
480.79	19.447
481.14	19.719
481.49	19.167
481.84	19.325
482.19	19.278
482.53	18.845
482.88	18.842
483.23	19.249
483.58	20.352
483.92	19.637
484.27	18.520
484.62	18.963
484.97	18.862
485.31	18.784
485.66	18.799
486.01	17.904
486.36	18.521
486.70	18.591
487.05	18.584
487.40	18.376
487.75	18.725
488.09	17.851
488.44	18.775
488.79	19.137
489.13	18.828
489.48	19.984
489.83	20.087
490.17	19.242
490.52	19.520
490.87	19.630
491.22	19.757
491.56	20.093
491.91	19.847
492.26	18.962
492.60	19.410
492.95	20.419
493.30	19.152
493.64	19.323
493.99	19.885
494.34	19.762
494.68	20.131
495.03	20.029
495.37	18.977
495.72	19.155
496.07	19.287
496.41	20.102
496.76	19.680
497.11	19.783
497.45	20.402
497.80	18.559
498.14	19.990
498.49	19.638
498.84	19.369
499.18	21.150
499.53	19.679
499.87	19.160
500.22	19.902
500.56	19.510
500.91	19.557
501.26	20.136
501.60	19.788
501.95	20.193
502.29	20.123
502.64	20.556
502.98	19.741
503.33	20.442
503.67	19.923
504.02	19.604
504.36	19.510
504.71	19.706
505.06	19.920
505.40	20.359
505.75	19.868
506.09	20.677
506.44	19.499
506.78	20.622
507.13	19.053
507.47	20.396
507.82	19.773
508.16	20.829
508.51	19.887
508.85	20.186
509.19	20.774
509.54	20.455
509.88	20.585
510.23	20.755
510.57	20.635
510.92	20.516
511.26	20.255
511.61	20.140
511.95	20.851
512.30	20.616
512.64	20.145
512.98	20.957
513.33	20.648
513.67	21.273
514.02	20.358
514.36	21.496
514.70	20.883
515.05	20.926
515.39	20.185
515.74	21.117
516.08	20.519
516.42	20.907
516.77	21.664
517.11	21.167
517.46	21.471
517.80	21.420
518.14	20.592
518.49	20.622
518.83	20.297
519.17	20.367
519.52	20.243
519.86	21.147
520.20	21.760
520.55	21.231
520.89	20.539
521.23	21.795
521.58	20.627
521.92	21.849
522.26	21.905
522.61	20.976
522.95	20.485
523.29	21.567
523.64	21.861
523.98	21.388
524.32	21.559
524.66	21.553
525.01	21.452
525.35	21.972
525.69	22.121
526.04	21.345
526.38	21.961
526.72	21.711
527.06	21.940
527.41	21.320
527.75	21.452
528.09	22.237
528.43	21.770
528.78	20.854
529.12	21.703
529.46	21.392
529.80	21.304
530.15	22.086
530.49	20.763
530.83	22.855
531.17	21.481
531.51	22.103
531.86	21.791
532.20	21.862
532.54	21.992
532.88	22.200
533.22	22.259
533.57	21.997
533.91	21.286
534.25	20.993
534.59	20.487
534.93	21.282
535.27	22.782
535.62	21.803
535.96	21.396
536.30	21.073
536.64	21.514
536.98	21.610
537.32	21.493
537.66	21.385
538.01	21.306
538.35	22.568
538.69	22.059
539.03	21.530
539.37	21.357
539.71	21.081
540.05	21.316
540.39	22.091
540.73	21.977
541.07	21.585
541.42	21.877
541.76	20.598
542.10	22.552
542.44	22.185
542.78	22.049
543.12	21.249
543.46	21.438
543.80	20.401
544.14	21.491
544.48	22.178
544.82	21.448
545.16	21.529
545.50	20.929
545.84	21.697
546.18	23.024
546.52	21.622
546.86	21.795
547.20	21.660
547.54	21.556
547.88	21.301
548.22	21.429
548.56	21.777
548.90	22.776
549.24	21.584
549.58	21.665
549.92	21.555
550.26	23.194
550.60	21.479
550.94	23.066
551.28	22.498
551.62	21.787
551.96	22.287
552.30	22.369
552.64	22.519
552.98	23.686
553.32	21.356
553.66	23.071
554.00	22.104
554.34	20.939
554.68	23.026
555.02	22.287
555.36	20.992
555.69	21.490
556.03	22.175
556.37	22.048
556.71	22.262
557.05	22.247
557.39	21.752
557.73	22.392
558.07	22.607
558.41	21.616
558.75	21.293
559.08	21.323
559.42	22.818
559.76	22.929
560.10	22.297
560.44	23.049
560.78	22.199
561.12	22.774
561.45	22.397
561.79	21.742
562.13	22.440
562.47	22.479
562.81	22.489
563.15	22.393
563.48	22.046
563.82	22.786
564.16	21.501
564.50	22.245
564.84	21.892
565.17	21.552
565.51	22.099
565.85	22.448
566.19	24.111
566.52	21.592
566.86	21.871
567.20	22.639
567.54	22.209
567.88	21.720
568.21	21.309
568.55	20.732
568.89	21.421
569.23	20.639
569.56	20.387
569.90	20.338
570.24	20.707
570.57	19.859
570.91	20.367
571.25	20.428
571.59	19.638
571.92	20.357
572.26	19.682
572.60	19.950
572.93	19.851
573.27	19.787
573.61	19.100
573.95	19.957
574.28	19.109
574.62	19.675
574.96	19.267
575.29	19.944
575.63	19.777
575.97	19.687
576.30	19.786
576.64	19.661
576.98	19.756
577.31	19.380
577.65	19.884
577.98	19.639
578.32	18.880
578.66	19.655
578.99	19.274
579.33	19.769
579.67	19.579
580.00	19.544
580.34	19.496
580.67	19.515
581.01	19.241
581.35	19.525
581.68	18.969
582.02	19.625
582.35	19.112
582.69	20.105
583.02	19.960
583.36	19.113
583.70	19.688
584.03	20.609
584.37	19.675
584.70	19.455
585.04	19.899
585.37	19.642
585.71	19.642
586.04	19.352
586.38	19.326
586.72	20.039
587.05	19.541
587.39	19.721
587.72	19.830
588.06	19.725
588.39	20.051
588.73	20.640
589.06	20.269
589.40	20.749
589.73	20.644
590.07	19.883
590.40	20.664
590.73	20.472
591.07	20.164
591.40	20.754
591.74	21.460
592.07	20.090
592.41	20.679
592.74	20.600
593.08	20.357
593.41	20.000
593.75	19.749
594.08	20.561
594.41	20.518
594.75	20.498
595.08	20.827
595.42	20.592
595.75	20.360
596.09	20.140
596.42	20.336
596.75	20.957
597.09	21.817
597.42	20.428
597.75	21.036
598.09	21.374
598.42	20.239
598.76	20.681
599.09	20.955
599.42	20.684
599.76	20.347
600.09	20.954
600.42	20.737
600.76	20.490
601.09	20.357
601.42	19.945
601.76	20.678
602.09	21.350
602.42	20.453
602.76	20.233
603.09	21.008
603.42	20.749
603.76	20.503
604.09	20.505
604.42	19.942
604.76	20.410
605.09	21.745
605.42	21.498
605.75	20.914
606.09	21.129
606.42	20.360
606.75	20.137
607.09	21.041
607.42	20.907
607.75	21.236
608.08	21.419
608.42	21.097
608.75	20.794
609.08	21.383
609.41	21.475
609.75	20.965
610.08	21.667
610.41	20.771
610.74	21.712
611.07	21.704
611.41	20.777
611.74	21.902
612.07	21.751
612.40	21.588
612.73	22.186
613.07	20.914
613.40	22.496
613.73	22.507
614.06	21.801
614.39	22.153
614.72	20.782
615.06	21.793
615.39	21.812
615.72	21.564
616.05	21.149
616.38	21.997
616.71	22.583
617.05	21.894
617.38	23.344
617.71	21.560
618.04	21.863
618.37	21.572
618.70	21.643
619.03	22.952
619.36	23.044
619.69	23.116
620.03	22.039
620.36	22.433
620.69	22.685
621.02	22.679
621.35	22.339
621.68	21.230
622.01	22.006
622.34	23.059
622.67	21.953
623.00	21.806
623.33	23.284
623.66	21.861
623.99	22.632
624.32	21.949
624.65	22.001
624.99	22.554
625.32	23.503
625.65	23.155
625.98	23.474
626.31	23.817
626.64	22.762
626.97	23.373
627.30	22.638
627.63	22.625
627.96	23.412
628.29	22.518
628.62	21.777
628.95	23.622
629.28	24.624
629.61	23.258
629.94	24.197
630.26	24.155
630.59	23.618
630.92	23.724
631.25	25.806
631.58	24.974
631.91	22.766
632.24	24.222
632.57	24.556
632.90	23.218
633.23	25.000
633.56	23.977
633.89	24.764
634.22	26.919
634.55	24.760
634.88	24.184
635.20	23.970
635.53	24.046
635.86	24.055
636.19	23.810
636.52	24.851
636.85	23.345
