SpectraSuite Data File
++++++++++++++++++++++++++++++++++++
Date: Sat May 16 11:28:24 PDT 2015
User: schluterlab
Dark Spectrum Present: Yes
Reference Spectrum Present: Yes
Number of Sampled Component Spectra: 1
Spectrometers: USB2E3373
Integration Time (usec): 3000 (USB2E3373)
Spectra Averaged: 3 (USB2E3373)
Boxcar Smoothing: 0 (USB2E3373)
Correct for Electrical Dark: No (USB2E3373)
Strobe/Lamp Enabled: No (USB2E3373)
Correct for Detector Non-linearity: No (USB2E3373)
Correct for Stray Light: No (USB2E3373)
Number of Pixels in Processed Spectrum: 2048
>>>>>Begin Processed Spectral Data<<<<<
178.53	0.000
178.91	46.667
179.29	366.667
179.67	-1900.000
180.04	-130.769
180.42	500.000
180.80	375.000
181.18	350.000
181.56	87.500
181.94	2600.000
182.31	475.000
182.69	-92.308
183.07	-466.667
183.45	1650.000
183.83	600.000
184.20	-271.429
184.58	0.000
184.96	-400.000
185.34	187.500
185.72	-500.000
186.09	233.333
186.47	-187.500
186.85	-100.000
187.23	-37.500
187.61	-200.000
187.98	-325.000
188.36	-175.000
188.74	-150.000
189.12	1200.000
189.49	157.143
189.87	-75.000
190.25	125.000
190.63	-57.143
191.00	-233.333
191.38	300.000
191.76	-26.667
192.14	640.000
192.51	-420.000
192.89	-433.333
193.27	0.000
193.65	-66.667
194.02	-128.571
194.40	433.333
194.78	-10.000
195.15	-800.000
195.53	-190.909
195.91	-400.000
196.29	180.000
196.66	-866.667
197.04	1100.000
197.42	-300.000
197.79	-20.000
198.17	-433.333
198.55	-350.000
198.92	-1600.000
199.30	200.000
199.68	-350.000
200.05	-88.889
200.43	-266.667
200.81	-1400.000
201.18	-125.000
201.56	400.000
201.94	-73.333
202.31	0.000
202.69	-60.000
203.07	-110.000
203.44	533.333
203.82	-350.000
204.19	-425.000
204.57	-325.000
204.95	-1000.000
205.32	-25.000
205.70	1300.000
206.08	-2200.000
206.45	-122.222
206.83	-900.000
207.20	100.000
207.58	-533.333
207.96	-500.000
208.33	-212.500
208.71	-55.556
209.08	230.000
209.46	-271.429
209.84	850.000
210.21	0.000
210.59	10.000
210.96	1500.000
211.34	-400.000
211.71	-200.000
212.09	400.000
212.46	1350.000
212.84	-1600.000
213.22	633.333
213.59	183.333
213.97	-100.000
214.34	190.000
214.72	-120.000
215.09	-433.333
215.47	-150.000
215.84	-120.000
216.22	-150.000
216.59	13.333
216.97	-575.000
217.34	850.000
217.72	-171.429
218.09	-83.333
218.47	-171.429
218.84	214.286
219.22	-71.429
219.59	0.000
219.97	114.286
220.34	425.000
220.72	200.000
221.09	-46.154
221.47	0.000
221.84	233.333
222.22	-500.000
222.59	1200.000
222.97	-237.500
223.34	-850.000
223.72	-366.667
224.09	-92.857
224.46	-350.000
224.84	-64.286
225.21	-57.143
225.59	-145.455
225.96	-200.000
226.34	-128.571
226.71	-188.889
227.08	-45.000
227.46	1500.000
227.83	-185.714
228.21	-87.500
228.58	100.000
228.95	-56.250
229.33	-1700.000
229.70	-240.000
230.08	-750.000
230.45	-100.000
230.82	-283.333
231.20	-1700.000
231.57	-1150.000
231.95	2200.000
232.32	-28.571
232.69	-211.111
233.07	-271.429
233.44	-900.000
233.81	-133.333
234.19	-77.778
234.56	-12.500
234.93	-15.625
235.31	-314.286
235.68	-121.429
236.05	-76.471
236.43	-118.182
236.80	-61.290
237.17	-37.500
237.55	-80.952
237.92	-86.364
238.29	-71.429
238.67	-2.941
239.04	-36.111
239.41	-38.710
239.79	-35.897
240.16	-33.333
240.53	-18.182
240.91	-41.026
241.28	-10.909
241.65	1.538
242.02	-3.279
242.40	-31.148
242.77	-18.182
243.14	-22.034
243.51	-35.714
243.89	-5.063
244.26	-22.472
244.63	-7.368
245.00	-12.632
245.38	0.847
245.75	1.770
246.12	-4.800
246.49	-7.087
246.87	-12.195
247.24	-25.424
247.61	-11.864
247.98	-7.746
248.36	-12.587
248.73	0.633
249.10	-11.465
249.47	-2.924
249.84	-9.091
250.22	-14.286
250.59	-3.390
250.96	-7.853
251.33	0.474
251.70	-3.365
252.08	-4.265
252.45	-7.109
252.82	-5.714
253.19	-0.851
253.56	-5.242
253.94	-5.063
254.31	-6.438
254.68	-6.504
255.05	-4.435
255.42	-0.794
255.79	-6.452
256.16	-3.529
256.54	-3.676
256.91	-3.788
257.28	-6.227
257.65	-4.965
258.02	1.258
258.39	-2.341
258.76	-5.068
259.14	-5.556
259.51	-2.623
259.88	-3.659
260.25	-1.863
260.62	-3.859
260.99	0.593
261.36	-4.268
261.73	-2.312
262.10	0.278
262.47	-1.425
262.85	0.857
263.22	-2.006
263.59	-4.308
263.96	-3.188
264.33	-3.523
264.70	-1.934
265.07	-1.923
265.44	-4.134
265.81	-4.134
266.18	-4.557
266.55	-0.490
266.92	-3.778
267.29	0.726
267.66	-4.198
268.03	0.725
268.40	-0.235
268.77	-1.928
269.14	-1.392
269.51	0.000
269.88	-3.440
270.25	-4.662
270.62	-0.915
270.99	-3.153
271.36	-3.263
271.73	-3.812
272.10	-2.517
272.47	-6.222
272.84	0.000
273.21	-3.211
273.58	-1.319
273.95	-2.193
274.32	-3.167
274.69	-1.969
275.06	-0.818
275.43	-3.125
275.80	-1.018
276.17	-1.674
276.54	0.000
276.91	-1.440
277.28	-0.811
277.65	-4.339
278.02	-2.088
278.39	0.393
278.76	-2.590
279.13	-1.779
279.50	-2.187
279.87	-0.211
280.23	-1.215
280.60	-0.398
280.97	-1.165
281.34	-0.580
281.71	-1.538
282.08	-2.419
282.45	-3.462
282.82	-2.132
283.19	-0.364
283.56	2.564
283.92	-0.353
284.29	-2.230
284.66	-1.259
285.03	1.604
285.40	-1.107
285.77	0.526
286.14	-1.264
286.51	-1.066
286.87	0.363
287.24	-0.853
287.61	-0.992
287.98	-0.693
288.35	-2.479
288.72	-1.698
289.08	-4.407
289.45	-1.178
289.82	-3.287
290.19	0.164
290.56	-1.488
290.93	0.159
291.29	-3.079
291.66	-1.449
292.03	1.256
292.40	0.753
292.77	0.466
293.13	-0.813
293.50	-0.446
293.87	-0.460
294.24	0.151
294.60	-1.364
294.97	0.152
295.34	-1.333
295.71	-0.298
296.08	-4.301
296.44	-2.575
296.81	-0.427
297.18	-1.549
297.55	-2.260
297.91	-1.534
298.28	-1.507
298.65	-0.558
299.02	-0.134
299.38	-0.802
299.75	-1.902
300.12	-0.385
300.48	-0.256
300.85	-2.490
301.22	0.000
301.59	-0.390
301.95	1.259
302.32	-1.825
302.69	-0.490
303.05	-1.221
303.42	-1.125
303.79	-0.359
304.15	-0.948
304.52	0.117
304.89	0.000
305.25	-0.733
305.62	-0.118
305.99	2.120
306.35	0.666
306.72	-0.342
307.09	-0.114
307.45	-0.795
307.82	-0.894
308.19	-0.559
308.55	0.218
308.92	-0.967
309.29	-0.541
309.65	0.000
310.02	-0.864
310.38	-0.108
310.75	0.820
311.12	0.620
311.48	0.104
311.85	0.721
312.22	1.030
312.58	2.035
312.95	1.223
313.31	0.300
313.68	2.111
314.05	0.989
314.41	-0.302
314.78	-0.400
315.14	1.185
315.51	1.114
315.87	1.452
316.24	1.166
316.61	0.960
316.97	0.299
317.34	1.060
317.70	1.484
318.07	1.772
318.43	1.779
318.80	3.474
319.16	1.032
319.53	2.632
319.89	2.728
320.26	1.863
320.62	2.692
320.99	2.189
321.35	2.069
321.72	1.535
322.08	4.550
322.45	2.079
322.81	4.227
323.18	4.131
323.54	4.344
323.91	4.727
324.27	3.897
324.64	4.662
325.00	5.672
325.37	5.520
325.73	7.174
326.10	4.694
326.46	6.918
326.83	6.383
327.19	7.089
327.56	7.666
327.92	7.816
328.29	9.784
328.65	6.636
329.01	9.187
329.38	8.475
329.74	9.799
330.11	9.248
330.47	8.810
330.84	9.991
331.20	7.942
331.56	9.116
331.93	9.414
332.29	9.406
332.66	9.833
333.02	9.864
333.38	9.588
333.75	10.240
334.11	10.756
334.48	9.620
334.84	10.936
335.20	9.929
335.57	10.379
335.93	11.101
336.29	10.452
336.66	10.044
337.02	10.721
337.38	10.339
337.75	9.833
338.11	8.766
338.47	9.520
338.84	9.710
339.20	10.281
339.56	10.606
339.93	10.670
340.29	8.592
340.65	9.965
341.02	10.455
341.38	11.542
341.74	11.092
342.11	9.898
342.47	9.957
342.83	10.411
343.20	9.821
343.56	9.796
343.92	11.269
344.28	11.606
344.65	10.314
345.01	9.832
345.37	10.880
345.73	9.902
346.10	8.749
346.46	10.236
346.82	10.024
347.19	9.121
347.55	9.872
347.91	10.551
348.27	9.626
348.63	10.905
349.00	10.660
349.36	9.836
349.72	11.306
350.08	10.666
350.45	9.062
350.81	10.510
351.17	10.772
351.53	8.751
351.89	10.267
352.26	10.543
352.62	10.906
352.98	10.206
353.34	10.072
353.70	9.961
354.07	11.487
354.43	12.095
354.79	9.905
355.15	9.425
355.51	9.687
355.87	10.435
356.24	9.452
356.60	11.120
356.96	10.085
357.32	10.055
357.68	10.192
358.04	11.008
358.40	10.518
358.77	9.428
359.13	10.329
359.49	10.204
359.85	9.832
360.21	11.111
360.57	11.069
360.93	10.963
361.29	11.211
361.66	10.442
362.02	11.169
362.38	11.445
362.74	10.549
363.10	10.617
363.46	11.111
363.82	12.245
364.18	10.999
364.54	11.794
364.90	11.530
365.26	11.198
365.62	11.475
365.98	12.376
366.35	11.056
366.71	10.782
367.07	10.727
367.43	13.246
367.79	12.165
368.15	10.740
368.51	12.168
368.87	12.431
369.23	11.368
369.59	12.778
369.95	12.262
370.31	12.940
370.67	11.714
371.03	12.099
371.39	12.518
371.75	12.589
372.11	12.841
372.47	12.871
372.83	13.213
373.19	13.071
373.55	14.215
373.91	12.589
374.27	13.621
374.63	14.217
374.99	13.004
375.35	12.853
375.71	14.787
376.07	13.621
376.42	12.715
376.78	14.052
377.14	14.712
377.50	14.249
377.86	14.304
378.22	14.636
378.58	14.083
378.94	14.550
379.30	15.539
379.66	15.422
380.02	15.330
380.38	15.529
380.74	15.064
381.09	15.290
381.45	15.632
381.81	15.366
382.17	16.103
382.53	16.049
382.89	16.507
383.25	16.315
383.61	15.861
383.97	16.595
384.32	16.896
384.68	16.868
385.04	16.425
385.40	16.433
385.76	16.646
386.12	16.989
386.48	18.007
386.83	17.546
387.19	16.856
387.55	18.534
387.91	17.605
388.27	16.104
388.62	17.969
388.98	17.868
389.34	17.013
389.70	17.661
390.06	18.459
390.42	18.782
390.77	18.360
391.13	18.509
391.49	18.465
391.85	18.454
392.20	18.265
392.56	19.731
392.92	18.254
393.28	19.460
393.64	18.400
393.99	18.708
394.35	18.431
394.71	18.406
395.07	19.209
395.42	18.296
395.78	18.793
396.14	19.688
396.50	18.532
396.85	19.741
397.21	19.137
397.57	18.967
397.92	19.672
398.28	19.056
398.64	19.393
399.00	19.438
399.35	19.673
399.71	20.383
400.07	19.821
400.42	20.255
400.78	19.380
401.14	19.401
401.49	19.988
401.85	20.073
402.21	20.441
402.57	20.267
402.92	20.013
403.28	20.098
403.63	19.113
403.99	20.945
404.35	20.048
404.70	20.421
405.06	20.415
405.42	19.742
405.77	19.287
406.13	19.705
406.49	19.473
406.84	20.156
407.20	20.612
407.55	19.506
407.91	20.596
408.27	20.772
408.62	19.363
408.98	19.770
409.34	20.597
409.69	20.920
410.05	20.861
410.40	20.601
410.76	20.747
411.11	20.075
411.47	20.780
411.83	20.355
412.18	20.978
412.54	20.500
412.89	21.081
413.25	20.189
413.60	19.866
413.96	20.579
414.31	20.489
414.67	20.571
415.03	20.052
415.38	20.755
415.74	21.263
416.09	20.652
416.45	18.386
416.80	20.091
417.16	19.934
417.51	21.405
417.87	20.777
418.22	20.291
418.58	20.603
418.93	20.662
419.29	20.891
419.64	20.917
420.00	21.021
420.35	20.875
420.71	20.468
421.06	21.716
421.42	20.726
421.77	21.831
422.12	21.377
422.48	21.486
422.83	21.811
423.19	20.824
423.54	21.787
423.90	21.631
424.25	20.928
424.61	21.592
424.96	22.703
425.31	21.968
425.67	21.891
426.02	21.801
426.38	22.021
426.73	21.975
427.09	22.059
427.44	22.330
427.79	21.802
428.15	22.023
428.50	22.639
428.85	23.082
429.21	22.357
429.56	22.708
429.92	22.445
430.27	21.785
430.62	23.145
430.98	22.478
431.33	22.412
431.68	23.646
432.04	22.384
432.39	22.792
432.74	22.362
433.10	22.622
433.45	22.050
433.80	22.788
434.16	24.127
434.51	23.945
434.86	24.546
435.22	23.163
435.57	23.133
435.92	23.212
436.28	23.561
436.63	22.894
436.98	23.826
437.34	23.449
437.69	23.454
438.04	23.539
438.39	23.406
438.75	22.817
439.10	23.265
439.45	24.261
439.81	23.976
440.16	24.077
440.51	24.059
440.86	23.424
441.22	24.323
441.57	23.895
441.92	23.836
442.27	23.593
442.63	23.873
442.98	23.138
443.33	23.943
443.68	24.231
444.03	24.263
444.39	23.299
444.74	24.615
445.09	25.164
445.44	24.029
445.79	24.732
446.15	24.370
446.50	23.734
446.85	24.320
447.20	23.851
447.55	24.972
447.91	25.435
448.26	24.804
448.61	24.901
448.96	25.154
449.31	24.183
449.66	24.499
450.02	24.488
450.37	23.710
450.72	24.802
451.07	24.387
451.42	24.164
451.77	24.417
452.12	24.374
452.47	24.685
452.83	24.752
453.18	25.174
453.53	24.378
453.88	25.179
454.23	24.305
454.58	25.295
454.93	25.000
455.28	24.283
455.63	24.447
455.98	24.096
456.34	23.634
456.69	24.265
457.04	25.200
457.39	24.821
457.74	24.690
458.09	25.058
458.44	25.520
458.79	24.047
459.14	24.643
459.49	24.808
459.84	24.845
460.19	25.179
460.54	24.561
460.89	24.664
461.24	24.347
461.59	24.443
461.94	25.271
462.29	25.908
462.64	24.308
462.99	25.033
463.34	24.646
463.69	24.873
464.04	23.492
464.39	23.536
464.74	25.709
465.09	23.692
465.44	25.212
465.79	24.817
466.14	26.295
466.49	24.640
466.84	25.450
467.19	24.127
467.54	23.861
467.89	24.476
468.24	24.881
468.59	24.735
468.94	24.566
469.29	24.172
469.64	23.787
469.99	24.443
470.34	24.649
470.68	25.145
471.03	25.465
471.38	23.889
471.73	25.804
472.08	23.829
472.43	23.423
472.78	25.200
473.13	23.393
473.48	23.995
473.83	24.069
474.17	23.885
474.52	25.320
474.87	24.242
475.22	23.599
475.57	24.000
475.92	25.648
476.27	24.229
476.61	24.845
476.96	24.595
477.31	24.596
477.66	24.792
478.01	25.068
478.36	24.044
478.70	24.880
479.05	25.311
479.40	24.093
479.75	24.669
480.10	23.661
480.45	23.549
480.79	25.025
481.14	24.235
481.49	24.105
481.84	23.994
482.19	24.075
482.53	24.148
482.88	24.158
483.23	23.944
483.58	24.191
483.92	24.367
484.27	24.058
484.62	24.579
484.97	23.811
485.31	23.520
485.66	23.269
486.01	23.897
486.36	24.839
486.70	25.021
487.05	24.495
487.40	24.145
487.75	24.031
488.09	23.317
488.44	24.526
488.79	24.301
489.13	23.849
489.48	24.225
489.83	24.105
490.17	24.554
490.52	23.913
490.87	23.279
491.22	23.774
491.56	23.472
491.91	23.092
492.26	24.387
492.60	23.930
492.95	23.941
493.30	23.773
493.64	23.742
493.99	23.948
494.34	24.286
494.68	23.174
495.03	23.279
495.37	22.616
495.72	22.986
496.07	23.651
496.41	23.946
496.76	23.699
497.11	24.117
497.45	23.851
497.80	24.062
498.14	23.527
498.49	23.004
498.84	23.107
499.18	23.782
499.53	23.234
499.87	23.214
500.22	23.922
500.56	24.362
500.91	23.300
501.26	23.872
501.60	22.773
501.95	23.575
502.29	23.760
502.64	24.328
502.98	24.245
503.33	22.838
503.67	23.036
504.02	24.191
504.36	23.529
504.71	23.100
505.06	23.315
505.40	23.204
505.75	23.780
506.09	23.407
506.44	23.058
506.78	23.633
507.13	22.606
507.47	22.953
507.82	22.922
508.16	22.746
508.51	22.205
508.85	22.826
509.19	22.292
509.54	23.732
509.88	23.351
510.23	22.746
510.57	23.598
510.92	23.469
511.26	23.020
511.61	23.002
511.95	22.683
512.30	23.090
512.64	22.538
512.98	22.882
513.33	23.064
513.67	23.004
514.02	22.371
514.36	22.881
514.70	23.147
515.05	23.613
515.39	22.722
515.74	23.502
516.08	23.516
516.42	23.059
516.77	23.917
517.11	23.684
517.46	23.744
517.80	22.984
518.14	22.524
518.49	23.252
518.83	21.899
519.17	23.150
519.52	21.689
519.86	23.238
520.20	21.638
520.55	22.338
520.89	21.791
521.23	22.650
521.58	22.947
521.92	23.053
522.26	22.794
522.61	22.624
522.95	22.655
523.29	22.884
523.64	22.049
523.98	22.724
524.32	22.250
524.66	22.050
525.01	21.580
525.35	22.745
525.69	21.535
526.04	22.715
526.38	23.043
526.72	21.839
527.06	22.721
527.41	22.706
527.75	22.310
528.09	22.634
528.43	22.885
528.78	21.796
529.12	23.175
529.46	22.680
529.80	22.272
530.15	22.151
530.49	22.057
530.83	23.641
531.17	22.088
531.51	21.902
531.86	23.041
532.20	23.009
532.54	22.794
532.88	22.134
533.22	21.992
533.57	22.063
533.91	21.848
534.25	21.936
534.59	22.361
534.93	21.469
535.27	21.397
535.62	22.762
535.96	21.719
536.30	21.270
536.64	22.377
536.98	22.458
537.32	21.285
537.66	21.656
538.01	21.512
538.35	22.162
538.69	21.791
539.03	21.666
539.37	21.956
539.71	21.548
540.05	22.892
540.39	22.022
540.73	21.907
541.07	22.199
541.42	21.472
541.76	22.326
542.10	23.025
542.44	22.252
542.78	21.845
543.12	21.589
543.46	20.616
543.80	20.669
544.14	21.289
544.48	21.719
544.82	22.530
545.16	21.865
545.50	21.198
545.84	22.045
546.18	22.053
546.52	22.262
546.86	21.581
547.20	22.293
547.54	21.488
547.88	22.031
548.22	22.346
548.56	20.775
548.90	21.833
549.24	21.514
549.58	22.089
549.92	22.686
550.26	22.760
550.60	21.764
550.94	21.168
551.28	21.896
551.62	21.492
551.96	22.504
552.30	21.882
552.64	21.323
552.98	21.654
553.32	21.501
553.66	21.485
554.00	22.601
554.34	21.011
554.68	20.833
555.02	22.721
555.36	21.639
555.69	21.418
556.03	21.754
556.37	21.977
556.71	22.262
557.05	23.060
557.39	21.232
557.73	21.663
558.07	22.080
558.41	22.438
558.75	21.749
559.08	20.156
559.42	21.746
559.76	21.396
560.10	22.446
560.44	22.471
560.78	21.573
561.12	22.222
561.45	21.849
561.79	21.254
562.13	21.599
562.47	21.779
562.81	22.560
563.15	21.484
563.48	21.631
563.82	21.433
564.16	21.839
564.50	21.640
564.84	21.759
565.17	21.883
565.51	22.295
565.85	22.177
566.19	22.530
566.52	22.309
566.86	21.049
567.20	23.366
567.54	22.150
567.88	21.887
568.21	22.427
568.55	21.792
568.89	21.720
569.23	21.842
569.56	21.984
569.90	22.384
570.24	22.585
570.57	21.793
570.91	21.285
571.25	21.660
571.59	21.886
571.92	21.667
572.26	22.199
572.60	22.246
572.93	21.648
573.27	21.341
573.61	21.623
573.95	22.006
574.28	21.362
574.62	22.191
574.96	21.062
575.29	22.027
575.63	21.343
575.97	21.386
576.30	21.951
576.64	22.115
576.98	21.573
577.31	22.145
577.65	22.120
577.98	22.213
578.32	21.553
578.66	21.954
578.99	21.591
579.33	21.603
579.67	22.369
580.00	21.553
580.34	22.065
580.67	21.868
581.01	21.458
581.35	21.986
581.68	21.794
582.02	22.141
582.35	21.964
582.69	22.379
583.02	22.436
583.36	22.235
583.70	21.787
584.03	21.794
584.37	22.192
584.70	21.887
585.04	21.949
585.37	21.432
585.71	22.206
586.04	22.366
586.38	21.625
586.72	21.984
587.05	21.920
587.39	22.589
587.72	22.325
588.06	22.779
588.39	22.415
588.73	21.907
589.06	22.602
589.40	22.810
589.73	22.734
590.07	22.178
590.40	22.288
590.73	21.991
591.07	22.295
591.40	22.487
591.74	22.242
592.07	22.072
592.41	22.166
592.74	22.444
593.08	22.657
593.41	22.599
593.75	22.156
594.08	22.574
594.41	22.957
594.75	22.424
595.08	22.519
595.42	22.760
595.75	22.675
596.09	22.934
596.42	22.791
596.75	21.906
597.09	23.508
597.42	22.392
597.75	23.074
598.09	22.549
598.42	22.139
598.76	21.678
599.09	23.007
599.42	22.376
599.76	22.688
600.09	22.557
600.42	23.243
600.76	22.674
601.09	22.218
601.42	22.042
601.76	22.586
602.09	22.658
602.42	21.852
602.76	22.435
603.09	22.258
603.42	22.925
603.76	23.175
604.09	22.307
604.42	21.732
604.76	23.201
605.09	22.920
605.42	23.271
605.75	22.553
606.09	23.827
606.42	22.245
606.75	22.671
607.09	22.629
607.42	22.975
607.75	22.384
608.08	22.458
608.42	22.848
608.75	22.430
609.08	23.234
609.41	22.372
609.75	21.843
610.08	23.284
610.41	22.265
610.74	22.776
611.07	23.276
611.41	21.634
611.74	23.702
612.07	23.577
612.40	21.855
612.73	22.348
613.07	22.895
613.40	23.262
613.73	22.398
614.06	22.570
614.39	23.112
614.72	22.793
615.06	23.315
615.39	22.735
615.72	22.488
616.05	22.639
616.38	23.738
616.71	22.583
617.05	23.462
617.38	23.591
617.71	23.096
618.04	23.416
618.37	23.836
618.70	23.207
619.03	22.952
619.36	23.326
619.69	23.403
620.03	22.727
620.36	23.066
620.69	23.762
621.02	24.353
621.35	22.581
621.68	22.213
622.01	23.544
622.34	22.981
622.67	23.984
623.00	23.718
623.33	23.209
623.66	21.640
623.99	23.459
624.32	22.917
624.65	23.988
624.99	24.122
625.32	23.278
625.65	24.165
625.98	23.631
626.31	23.817
626.64	22.678
626.97	23.801
627.30	23.489
627.63	21.589
627.96	23.673
628.29	22.886
628.62	24.069
628.95	23.327
629.28	23.590
629.61	23.258
629.94	23.251
630.26	24.155
630.59	23.518
630.92	22.623
631.25	24.395
631.58	23.704
631.91	24.255
632.24	24.222
632.57	24.667
632.90	24.828
633.23	23.598
633.56	22.222
