SpectraSuite Data File
++++++++++++++++++++++++++++++++++++
Date: Sat May 16 11:12:43 PDT 2015
User: schluterlab
Dark Spectrum Present: Yes
Reference Spectrum Present: Yes
Number of Sampled Component Spectra: 1
Spectrometers: USB2E3373
Integration Time (usec): 3000 (USB2E3373)
Spectra Averaged: 3 (USB2E3373)
Boxcar Smoothing: 0 (USB2E3373)
Correct for Electrical Dark: No (USB2E3373)
Strobe/Lamp Enabled: No (USB2E3373)
Correct for Detector Non-linearity: No (USB2E3373)
Correct for Stray Light: No (USB2E3373)
Number of Pixels in Processed Spectrum: 2048
>>>>>Begin Processed Spectral Data<<<<<
178.53	0.000
178.91	153.333
179.29	166.667
179.67	400.000
180.04	-46.154
180.42	-200.000
180.80	75.000
181.18	225.000
181.56	12.500
181.94	200.000
182.31	300.000
182.69	-53.846
183.07	-33.333
183.45	1050.000
183.83	100.000
184.20	-85.714
184.58	-62.500
184.96	25.000
185.34	118.750
185.72	-475.000
186.09	-0.000
186.47	-100.000
186.85	-162.500
187.23	25.000
187.61	-25.000
187.98	-187.500
188.36	-12.500
188.74	-112.500
189.12	1300.000
189.49	242.857
189.87	0.000
190.25	225.000
190.63	7.143
191.00	-111.111
191.38	200.000
191.76	-20.000
192.14	340.000
192.51	-120.000
192.89	-533.333
193.27	0.000
193.65	0.000
194.02	-57.143
194.40	266.667
194.78	50.000
195.15	-600.000
195.53	-181.818
195.91	-333.333
196.29	-80.000
196.66	-366.667
197.04	1400.000
197.42	25.000
197.79	46.667
198.17	-66.667
198.55	-350.000
198.92	-700.000
199.30	62.500
199.68	50.000
200.05	11.111
200.43	-55.556
200.81	-1600.000
201.18	-66.667
201.56	-42.857
201.94	-53.333
202.31	59.091
202.69	40.000
203.07	10.000
203.44	666.667
203.82	-350.000
204.19	-425.000
204.57	-100.000
204.95	-200.000
205.32	62.500
205.70	600.000
206.08	-1200.000
206.45	-11.111
206.83	-1100.000
207.20	100.000
207.58	0.000
207.96	-300.000
208.33	-125.000
208.71	-77.778
209.08	160.000
209.46	71.429
209.84	800.000
210.21	0.000
210.59	25.000
210.96	300.000
211.34	-200.000
211.71	-33.333
212.09	200.000
212.46	1050.000
212.84	-2400.000
213.22	700.000
213.59	158.333
213.97	-88.889
214.34	110.000
214.72	-80.000
215.09	-366.667
215.47	-150.000
215.84	-60.000
216.22	-10.000
216.59	6.667
216.97	-325.000
217.34	250.000
217.72	-114.286
218.09	-133.333
218.47	-157.143
218.84	100.000
219.22	-42.857
219.59	0.000
219.97	114.286
220.34	125.000
220.72	137.500
221.09	-7.692
221.47	0.000
221.84	300.000
222.22	-250.000
222.59	200.000
222.97	-62.500
223.34	-400.000
223.72	-100.000
224.09	-28.571
224.46	75.000
224.84	-21.429
225.21	-42.857
225.59	-63.636
225.96	-87.500
226.34	-128.571
226.71	-22.222
227.08	45.000
227.46	1200.000
227.83	-14.286
228.21	-87.500
228.58	650.000
228.95	-31.250
229.33	100.000
229.70	-180.000
230.08	-1000.000
230.45	8.333
230.82	33.333
231.20	-800.000
231.57	-150.000
231.95	900.000
232.32	33.333
232.69	-66.667
233.07	-14.286
233.44	-400.000
233.81	-100.000
234.19	-100.000
234.56	-12.500
234.93	12.500
235.31	-214.286
235.68	-7.143
236.05	-35.294
236.43	-59.091
236.80	3.226
237.17	-37.500
237.55	-28.571
237.92	-36.364
238.29	-17.143
238.67	-26.471
239.04	-16.667
239.41	-35.484
239.79	-43.590
240.16	-16.667
240.53	-9.091
240.91	-30.769
241.28	-5.455
241.65	-1.538
242.02	3.279
242.40	-18.033
242.77	6.061
243.14	-20.339
243.51	-21.429
243.89	-15.190
244.26	-5.618
244.63	-5.263
245.00	2.105
245.38	-3.390
245.75	-0.885
246.12	-8.800
246.49	-2.362
246.87	-1.626
247.24	-5.085
247.61	-9.322
247.98	-0.704
248.36	-5.594
248.73	2.532
249.10	-5.732
249.47	-5.263
249.84	3.409
250.22	-10.714
250.59	-7.345
250.96	0.524
251.33	2.844
251.70	-1.442
252.08	-2.370
252.45	-3.318
252.82	1.429
253.19	-5.532
253.56	-1.210
253.94	0.422
254.31	-6.009
254.68	0.407
255.05	-4.435
255.42	-0.794
255.79	-5.735
256.16	-0.392
256.54	1.103
256.91	-1.894
257.28	-4.762
257.65	-2.128
258.02	0.629
258.39	-2.341
258.76	-4.054
259.14	-1.852
259.51	1.311
259.88	-2.439
260.25	-1.242
260.62	-2.572
260.99	-4.154
261.36	-1.220
261.73	0.867
262.10	-0.556
262.47	0.000
262.85	-0.286
263.22	-2.579
263.59	-0.308
263.96	-4.348
264.33	-0.542
264.70	-2.210
265.07	-0.824
265.44	0.000
265.81	-1.292
266.18	-2.785
266.55	-1.471
266.92	1.763
267.29	-0.484
267.66	-2.716
268.03	1.449
268.40	0.939
268.77	-0.964
269.14	-1.392
269.51	0.230
269.88	-3.211
270.25	-2.331
270.62	-0.915
270.99	-1.802
271.36	-2.098
271.73	-2.466
272.10	-3.432
272.47	-2.889
272.84	-0.222
273.21	-0.459
273.58	-1.978
273.95	-0.877
274.32	-0.905
274.69	-0.656
275.06	1.431
275.43	-0.893
275.80	0.407
276.17	-1.464
276.54	1.018
276.91	1.440
277.28	0.000
277.65	0.000
278.02	-1.044
278.39	1.179
278.76	-1.594
279.13	-1.779
279.50	0.199
279.87	-1.268
280.23	-2.227
280.60	-1.590
280.97	-0.971
281.34	-3.288
281.71	1.923
282.08	-2.016
282.45	-4.073
282.82	-0.775
283.19	-1.636
283.56	1.465
283.92	1.237
284.29	-0.558
284.66	-0.360
285.03	0.178
285.40	-0.369
285.77	-0.526
286.14	-0.722
286.51	-2.487
286.87	-0.181
287.24	0.341
287.61	-0.826
287.98	-1.906
288.35	-1.653
288.72	-2.886
289.08	-2.373
289.45	-0.673
289.82	-3.633
290.19	-0.985
290.56	-2.810
290.93	-1.749
291.29	-0.972
291.66	-0.966
292.03	0.628
292.40	0.753
292.77	-0.621
293.13	0.976
293.50	0.446
293.87	-1.074
294.24	-0.302
294.60	-1.061
294.97	-0.759
295.34	-2.074
295.71	0.000
296.08	-2.919
296.44	-1.001
296.81	-0.712
297.18	-1.690
297.55	-0.141
297.91	1.395
298.28	-2.055
298.65	-1.116
299.02	0.535
299.38	0.134
299.75	-1.359
300.12	-0.385
300.48	0.256
300.85	-1.180
301.22	-0.517
301.59	-1.951
301.95	1.134
302.32	-2.738
302.69	-0.367
303.05	-1.221
303.42	0.125
303.79	-1.077
304.15	-0.711
304.52	0.467
304.89	-1.299
305.25	-1.099
305.62	-0.353
305.99	0.589
306.35	0.333
306.72	-2.050
307.09	-0.454
307.45	-1.703
307.82	-1.117
308.19	-0.112
308.55	-0.980
308.92	-0.859
309.29	-0.432
309.65	-0.530
310.02	-1.188
310.38	-1.730
310.75	0.717
311.12	0.103
311.48	0.104
311.85	-1.442
312.22	-1.030
312.58	0.916
312.95	-0.917
313.31	-1.798
313.68	0.302
314.05	0.396
314.41	-1.408
314.78	-1.399
315.14	0.197
315.51	-0.405
315.87	0.581
316.24	0.486
316.61	0.288
316.97	1.095
317.34	-1.156
317.70	-0.835
318.07	-0.466
318.43	-0.936
318.80	1.784
319.16	-0.750
319.53	-0.752
319.89	-0.847
320.26	0.392
320.62	-2.308
320.99	0.000
321.35	-1.084
321.72	-1.638
322.08	-0.495
322.45	-0.891
322.81	-0.961
323.18	-0.288
323.54	0.000
323.91	0.278
324.27	-0.760
324.64	-0.548
325.00	0.611
325.37	-0.452
325.73	0.787
326.10	-1.594
326.46	-0.175
326.83	-0.170
327.19	-0.500
327.56	0.426
327.92	0.170
328.29	0.606
328.65	-0.364
329.01	0.442
329.38	-0.714
329.74	0.000
330.11	0.181
330.47	0.000
330.84	0.550
331.20	0.181
331.56	0.182
331.93	-0.178
332.29	0.091
332.66	-0.702
333.02	-0.362
333.38	0.000
333.75	-0.267
334.11	-0.978
334.48	-0.353
334.84	0.350
335.20	0.266
335.57	-0.361
335.93	1.791
336.29	-0.709
336.66	-0.881
337.02	0.270
337.38	-1.426
337.75	0.176
338.11	-0.447
338.47	-1.157
338.84	-0.635
339.20	-0.439
339.56	0.267
339.93	-0.353
340.29	-0.089
340.65	-0.524
341.02	0.843
341.38	0.758
341.74	0.847
342.11	0.085
342.47	-0.687
342.83	-0.420
343.20	0.512
343.56	-0.245
343.92	0.584
344.28	0.589
344.65	-0.990
345.01	0.672
345.37	0.997
345.73	-0.900
346.10	-1.063
346.46	0.325
346.82	-0.722
347.19	0.000
347.55	0.080
347.91	0.945
348.27	-1.352
348.63	1.535
349.00	-0.159
349.36	-0.468
349.72	0.637
350.08	-0.401
350.45	-0.473
350.81	1.035
351.17	-0.241
351.53	-0.716
351.89	0.808
352.26	-0.233
352.62	0.922
352.98	-0.949
353.34	0.320
353.70	0.232
354.07	0.079
354.43	0.395
354.79	0.158
355.15	-0.319
355.51	-0.547
355.87	-1.344
356.24	-0.397
356.60	0.081
356.96	0.308
357.32	0.000
357.68	-0.383
358.04	0.077
358.40	-0.387
358.77	-0.077
359.13	0.000
359.49	0.227
359.85	-0.305
360.21	0.761
360.57	0.151
360.93	0.444
361.29	0.523
361.66	-1.601
362.02	-0.370
362.38	0.147
362.74	-0.586
363.10	-0.072
363.46	0.712
363.82	-0.292
364.18	0.724
364.54	1.215
364.90	-0.699
365.26	-0.214
365.62	0.428
365.98	0.569
366.35	0.211
366.71	-0.564
367.07	-0.706
367.43	0.892
367.79	0.412
368.15	-0.925
368.51	0.280
368.87	1.511
369.23	0.000
369.59	0.000
369.95	0.493
370.31	0.985
370.67	-0.217
371.03	0.437
371.39	-0.636
371.75	0.286
372.11	0.359
372.47	-0.578
372.83	0.556
373.19	-0.286
373.55	0.422
373.91	-0.284
374.27	0.068
374.63	-0.276
374.99	0.278
375.35	0.606
375.71	1.148
376.07	-0.274
376.42	-0.993
376.78	0.392
377.14	-0.068
377.50	-0.064
377.86	-0.260
378.22	0.377
378.58	-0.124
378.94	-0.678
379.30	0.488
379.66	0.486
380.02	-0.238
380.38	-0.544
380.74	0.117
381.09	0.293
381.45	0.358
381.81	0.060
382.17	0.125
382.53	0.304
382.89	0.000
383.25	0.120
383.61	0.059
383.97	0.245
384.32	-0.375
384.68	0.181
385.04	-0.121
385.40	-0.487
385.76	0.305
386.12	-0.312
386.48	0.186
386.83	0.368
387.19	0.299
387.55	-0.061
387.91	0.059
388.27	-0.422
388.62	0.120
388.98	-0.363
389.34	0.122
389.70	-0.122
390.06	-0.249
390.42	-0.256
390.77	-0.189
391.13	0.932
391.49	0.062
391.85	0.686
392.20	-0.546
392.56	-0.183
392.92	-0.228
393.28	0.115
393.64	0.601
393.99	0.554
394.35	-0.243
394.71	0.062
395.07	0.691
395.42	-0.536
395.78	-0.314
396.14	0.062
396.50	0.000
396.85	-0.185
397.21	0.000
397.57	0.243
397.92	0.117
398.28	0.056
398.64	0.059
399.00	0.562
399.35	-0.225
399.71	0.290
400.07	-0.179
400.42	0.000
400.78	0.239
401.14	0.479
401.49	-0.177
401.85	0.244
402.21	0.358
402.57	-0.243
402.92	0.315
403.28	-0.368
403.63	0.000
403.99	0.559
404.35	-0.181
404.70	0.761
405.06	0.577
405.42	0.123
405.77	0.000
406.13	0.227
406.49	0.060
406.84	-0.600
407.20	1.119
407.55	0.063
407.91	-0.130
408.27	0.735
408.62	0.481
408.98	0.424
409.34	-0.366
409.69	0.189
410.05	0.182
410.40	0.368
410.76	0.474
411.11	-0.125
411.47	-0.192
411.83	0.000
412.18	-0.186
412.54	0.183
412.89	0.000
413.25	-0.649
413.60	-1.154
413.96	-0.493
414.31	0.183
414.67	-0.254
415.03	0.129
415.38	0.195
415.74	0.387
416.09	0.384
416.45	-0.529
416.80	0.910
417.16	0.332
417.51	0.657
417.87	-0.259
418.22	-0.506
418.58	0.193
418.93	-0.123
419.29	-0.188
419.64	0.063
420.00	-0.061
420.35	-0.414
420.71	-0.360
421.06	0.178
421.42	-0.117
421.77	0.335
422.12	0.672
422.48	-0.267
422.83	0.114
423.19	-0.390
423.54	0.231
423.90	0.000
424.25	0.000
424.61	0.543
424.96	0.644
425.31	0.112
425.67	-0.057
426.02	-0.516
426.38	0.181
426.73	0.468
427.09	0.368
427.44	0.057
427.79	-0.174
428.15	0.718
428.50	0.762
428.85	0.240
429.21	-0.443
429.56	-0.156
429.92	0.050
430.27	0.349
430.62	0.052
430.98	0.680
431.33	0.640
431.68	0.107
432.04	0.448
432.39	0.513
432.74	-0.240
433.10	0.000
433.45	-0.173
433.80	-0.336
434.16	0.107
434.51	0.384
434.86	0.527
435.22	0.167
435.57	-0.367
435.92	-0.586
436.28	0.237
436.63	-0.509
436.98	0.057
437.34	0.354
437.69	0.233
438.04	-0.681
438.39	0.361
438.75	-0.116
439.10	0.000
439.45	0.121
439.81	0.422
440.16	0.227
440.51	0.353
440.86	-0.231
441.22	-0.166
441.57	0.316
441.92	0.153
442.27	0.162
442.63	0.322
442.98	-0.564
443.33	0.220
443.68	-0.261
444.03	0.540
444.39	0.098
444.74	0.275
445.09	-0.713
445.44	0.619
445.79	-0.459
446.15	0.821
446.50	0.000
446.85	0.205
447.20	0.409
447.55	0.442
447.91	0.337
448.26	-0.335
448.61	-0.340
448.96	0.672
449.31	-0.564
449.66	0.057
450.02	-0.443
450.37	-0.754
450.72	0.000
451.07	-0.189
451.42	-0.682
451.77	0.120
452.12	-0.060
452.47	0.945
452.83	-0.291
453.18	0.000
453.53	0.311
453.88	0.658
454.23	-0.423
454.58	0.746
454.93	0.315
455.28	0.191
455.63	0.184
455.98	0.120
456.34	-1.017
456.69	0.375
457.04	-0.184
457.39	0.000
457.74	0.059
458.09	0.290
458.44	-0.115
458.79	-0.504
459.14	0.799
459.49	0.296
459.84	0.281
460.19	-0.060
460.54	-0.060
460.89	0.168
461.24	0.486
461.59	0.352
461.94	0.127
462.29	-0.119
462.64	-0.856
462.99	0.669
463.34	-0.473
463.69	-0.064
464.04	-0.351
464.39	-0.538
464.74	0.827
465.09	-0.060
465.44	0.226
465.79	0.959
466.14	0.115
466.49	0.173
466.84	0.240
467.19	0.187
467.54	-0.443
467.89	0.062
468.24	0.416
468.59	0.375
468.94	-0.064
469.29	-0.195
469.64	0.270
469.99	1.148
470.34	-0.334
470.68	0.799
471.03	0.344
471.38	-0.972
471.73	0.000
472.08	0.535
472.43	0.515
472.78	1.133
473.13	-0.663
473.48	-0.511
473.83	-0.124
474.17	0.064
474.52	1.087
474.87	0.583
475.22	-0.590
475.57	-0.167
475.92	0.108
476.27	-0.057
476.61	0.000
476.96	-0.112
477.31	0.000
477.66	0.000
478.01	0.486
478.36	0.891
478.70	0.534
479.05	0.270
479.40	-0.207
479.75	0.051
480.10	0.347
480.45	-0.387
480.79	-0.049
481.14	0.803
481.49	0.484
481.84	0.509
482.19	0.685
482.53	0.568
482.88	-0.047
483.23	0.000
483.58	0.740
483.92	0.143
484.27	0.000
484.62	0.043
484.97	0.273
485.31	-0.064
485.66	0.504
486.01	0.331
486.36	0.434
486.70	0.390
487.05	0.170
487.40	0.107
487.75	0.140
488.09	-0.124
488.44	0.406
488.79	0.672
489.13	0.114
489.48	0.326
489.83	0.218
490.17	0.435
490.52	0.634
490.87	0.185
491.22	-0.467
491.56	0.231
491.91	0.095
492.26	0.283
492.60	-0.095
492.95	0.524
493.30	0.286
493.64	0.188
493.99	-0.382
494.34	0.571
494.68	1.311
495.03	-0.239
495.37	-0.344
495.72	0.393
496.07	0.563
496.41	0.741
496.76	0.228
497.11	0.330
497.45	0.527
497.80	-0.200
498.14	0.000
498.49	-0.703
498.84	0.388
499.18	0.536
499.53	-0.195
499.87	-0.724
500.22	0.441
500.56	0.450
500.91	0.049
501.26	0.388
501.60	0.385
501.95	0.580
502.29	0.331
502.64	0.990
502.98	-0.287
503.33	0.235
503.67	0.239
504.02	0.000
504.36	0.294
504.71	-0.203
505.06	-0.499
505.40	0.299
505.75	-0.305
506.09	0.809
506.44	0.251
506.78	0.401
507.13	0.051
507.47	0.209
507.82	0.516
508.16	0.104
508.51	-0.464
508.85	0.104
509.19	-0.837
509.54	0.053
509.88	0.585
510.23	0.105
510.57	0.635
510.92	0.430
511.26	0.053
511.61	0.162
511.95	-0.108
512.30	-0.055
512.64	-1.280
512.98	0.330
513.33	0.988
513.67	0.391
514.02	-0.671
514.36	0.388
514.70	0.509
515.05	0.343
515.39	0.346
515.74	0.814
516.08	0.807
516.42	0.510
516.77	0.289
517.11	-0.343
517.46	0.359
517.80	0.602
518.14	-0.785
518.49	0.179
518.83	0.000
519.17	0.947
519.52	-0.174
519.86	0.299
520.20	-0.061
520.55	0.185
520.89	-0.689
521.23	0.611
521.58	-0.063
521.92	0.697
522.26	0.952
522.61	-0.380
522.95	-0.383
523.29	0.376
523.64	-0.250
523.98	-0.064
524.32	-0.566
524.66	0.000
525.01	-0.257
525.35	0.193
525.69	0.000
526.04	-0.261
526.38	0.891
526.72	0.128
527.06	0.195
527.41	-0.528
527.75	-0.528
528.09	-0.265
528.43	0.066
528.78	0.251
529.12	-0.064
529.46	-0.387
529.80	-0.775
530.15	0.708
530.49	-0.259
530.83	1.310
531.17	-0.471
531.51	-0.536
531.86	-0.132
532.20	-0.135
532.54	0.334
532.88	0.527
533.22	-1.003
533.57	0.326
533.91	0.437
534.25	0.377
534.59	0.250
534.93	-0.436
535.27	0.503
535.62	0.192
535.96	0.129
536.30	0.000
536.64	0.133
536.98	-0.071
537.32	-0.276
537.66	0.204
538.01	-0.619
538.35	-0.068
538.69	-0.802
539.03	-0.068
539.37	0.399
539.71	0.267
540.05	0.069
540.39	-0.485
540.73	0.276
541.07	0.205
541.42	-0.675
541.76	-0.199
542.10	0.338
542.44	0.999
542.78	0.475
543.12	0.543
543.46	-0.685
543.80	0.000
544.14	-0.201
544.48	1.050
544.82	-0.135
545.16	0.537
545.50	-0.740
545.84	0.695
546.18	0.693
546.52	0.640
546.86	-0.570
547.20	0.281
547.54	-0.482
547.88	-0.066
548.22	-1.180
548.56	-0.067
548.90	-0.202
549.24	-0.631
549.58	0.494
549.92	0.919
550.26	0.795
550.60	0.284
550.94	-0.584
551.28	0.150
551.62	-0.443
551.96	0.217
552.30	0.070
552.64	0.633
552.98	0.210
553.32	-0.577
553.66	-0.433
554.00	-0.071
554.34	-0.433
554.68	0.146
555.02	0.868
555.36	0.144
555.69	-0.501
556.03	0.772
556.37	-0.071
556.71	-0.787
557.05	0.074
557.39	-0.148
557.73	1.240
558.07	-0.452
558.41	-0.299
558.75	-0.380
559.08	-1.556
559.42	0.153
559.76	-0.077
560.10	-0.671
560.44	1.084
560.78	0.278
561.12	0.207
561.45	0.411
561.79	-0.348
562.13	-1.192
562.47	-0.280
562.81	-0.071
563.15	-0.700
563.48	0.138
563.82	0.068
564.16	-0.811
564.50	-0.403
564.84	-0.198
565.17	-0.663
565.51	0.391
565.85	-0.068
566.19	0.593
566.52	0.065
566.86	-0.379
567.20	1.029
567.54	0.473
567.88	0.335
568.21	-0.559
568.55	-0.106
568.89	-0.447
569.23	0.185
569.56	0.000
569.90	0.157
570.24	0.301
570.57	0.281
570.91	0.170
571.25	0.357
571.59	0.375
571.92	0.744
572.26	0.270
572.60	0.465
572.93	0.526
573.27	0.488
573.61	-0.172
573.95	0.772
574.28	0.518
574.62	0.305
574.96	0.698
575.29	0.559
575.63	0.531
575.97	0.243
576.30	0.384
576.64	0.522
576.98	0.547
577.31	0.286
577.65	0.604
577.98	0.664
578.32	0.526
578.66	0.376
578.99	0.167
579.33	0.477
579.67	0.482
580.00	0.198
580.34	0.269
580.67	0.392
581.01	0.411
581.35	0.715
581.68	0.210
582.02	0.587
582.35	0.208
582.69	0.523
583.02	0.464
583.36	0.477
583.70	0.051
584.03	0.431
584.37	0.244
584.70	0.344
585.04	0.278
585.37	0.501
585.71	0.750
586.04	0.735
586.38	0.134
586.72	0.592
587.05	0.481
587.39	0.464
587.72	0.425
588.06	0.165
588.39	0.513
588.73	0.543
589.06	0.863
589.40	0.928
589.73	0.673
590.07	0.728
590.40	0.701
590.73	-0.120
591.07	0.451
591.40	0.563
591.74	0.869
592.07	-0.405
592.41	0.467
592.74	0.692
593.08	0.790
593.41	0.230
593.75	-0.132
594.08	0.252
594.41	0.370
594.75	0.415
595.08	0.376
595.42	0.361
595.75	0.110
596.09	0.310
596.42	0.450
596.75	0.604
597.09	0.890
597.42	0.175
597.75	0.709
598.09	0.407
598.42	0.486
598.76	0.332
599.09	0.276
599.42	0.000
599.76	0.642
600.09	0.229
600.42	0.912
600.76	0.264
601.09	-0.114
601.42	-0.317
601.76	1.168
602.09	0.491
602.42	0.576
602.76	-0.166
603.09	0.444
603.42	0.322
603.76	0.439
604.09	0.040
604.42	0.083
604.76	0.349
605.09	0.407
605.42	0.532
605.75	0.302
606.09	0.332
606.42	0.126
606.75	0.172
607.09	0.353
607.42	0.396
607.75	0.353
608.08	0.497
608.42	-0.237
608.75	-0.047
609.08	0.000
609.41	0.249
609.75	0.390
610.08	0.196
610.41	0.096
610.74	0.580
611.07	0.254
611.41	-0.555
611.74	1.183
612.07	0.591
612.40	0.533
612.73	0.592
613.07	0.275
613.40	0.055
613.73	0.545
614.06	0.275
614.39	0.113
614.72	0.000
615.06	-0.109
615.39	-0.326
615.72	0.326
616.05	-0.442
616.38	0.232
616.71	0.000
617.05	0.483
617.38	0.372
617.71	-0.246
618.04	-0.870
618.37	0.126
618.70	0.326
619.03	0.203
619.36	0.282
619.69	0.790
620.03	0.207
620.36	0.914
620.69	0.215
621.02	-0.152
621.35	-0.403
621.68	-0.246
622.01	0.162
622.34	0.466
622.67	-0.156
623.00	0.995
623.33	0.522
623.66	-0.148
623.99	0.150
624.32	-0.372
624.65	0.074
624.99	-1.344
625.32	-0.449
625.65	0.777
625.98	0.156
626.31	0.082
626.64	-0.837
626.97	-0.342
627.30	-0.255
627.63	-1.468
627.96	-0.174
628.29	-0.643
628.62	-0.478
628.95	-0.098
629.28	0.188
629.61	-1.766
629.94	0.095
630.26	-0.199
630.59	0.101
630.92	-0.501
631.25	0.806
631.58	-0.529
631.91	-2.447
632.24	-0.222
632.57	-0.111
632.90	-0.920
633.23	1.051
633.56	-0.351
633.89	1.061
634.22	-1.771
634.55	-1.563
634.88	0.121
635.20	-1.124
635.53	-0.509
635.86	-1.134
636.19	-0.733
636.52	0.000
636.85	-1.324
637.18	-2.750
637.51	-0.620
637.83	-1.065
638.16	0.526
638.49	-2.483
638.82	-0.257
639.15	0.778
639.48	-0.519
639.81	-0.830
640.13	-0.405
640.46	-0.997
640.79	-1.261
641.12	0.282
641.45	0.143
641.77	-1.497
642.10	-1.964
642.43	-0.303
642.76	-2.047
643.09	-1.429
643.41	-0.317
643.74	1.113
644.07	0.624
644.40	-0.486
644.73	-0.495
645.05	-2.504
645.38	0.828
645.71	-0.344
646.04	0.672
646.36	-2.269
646.69	-0.692
