SpectraSuite Data File
++++++++++++++++++++++++++++++++++++
Date: Sat May 16 11:43:18 PDT 2015
User: schluterlab
Dark Spectrum Present: Yes
Reference Spectrum Present: Yes
Number of Sampled Component Spectra: 1
Spectrometers: USB2E3373
Integration Time (usec): 3000 (USB2E3373)
Spectra Averaged: 3 (USB2E3373)
Boxcar Smoothing: 0 (USB2E3373)
Correct for Electrical Dark: No (USB2E3373)
Strobe/Lamp Enabled: No (USB2E3373)
Correct for Detector Non-linearity: No (USB2E3373)
Correct for Stray Light: No (USB2E3373)
Number of Pixels in Processed Spectrum: 2048
>>>>>Begin Processed Spectral Data<<<<<
178.53	0.000
178.91	113.333
179.29	833.333
179.67	-1700.000
180.04	61.538
180.42	1000.000
180.80	625.000
181.18	475.000
181.56	-75.000
181.94	1600.000
182.31	450.000
182.69	-23.077
183.07	-533.333
183.45	900.000
183.83	300.000
184.20	-300.000
184.58	-262.500
184.96	-550.000
185.34	131.250
185.72	-525.000
186.09	350.000
186.47	-237.500
186.85	-287.500
187.23	-62.500
187.61	-325.000
187.98	-250.000
188.36	-137.500
188.74	-137.500
189.12	2100.000
189.49	385.714
189.87	-83.333
190.25	400.000
190.63	21.429
191.00	-222.222
191.38	440.000
191.76	-13.333
192.14	580.000
192.51	-320.000
192.89	-300.000
193.27	0.000
193.65	-188.889
194.02	-100.000
194.40	400.000
194.78	-170.000
195.15	-1700.000
195.53	-190.909
195.91	-366.667
196.29	420.000
196.66	-633.333
197.04	2100.000
197.42	-300.000
197.79	-13.333
198.17	-400.000
198.55	-250.000
198.92	-1200.000
199.30	287.500
199.68	-650.000
200.05	-88.889
200.43	-166.667
200.81	-800.000
201.18	-83.333
201.56	300.000
201.94	-40.000
202.31	-36.364
202.69	-80.000
203.07	-50.000
203.44	900.000
203.82	-350.000
204.19	-200.000
204.57	-50.000
204.95	-1500.000
205.32	-81.250
205.70	700.000
206.08	-1900.000
206.45	-33.333
206.83	-700.000
207.20	-200.000
207.58	-833.333
207.96	-933.333
208.33	-100.000
208.71	-144.444
209.08	190.000
209.46	-114.286
209.84	1250.000
210.21	0.000
210.59	20.000
210.96	1300.000
211.34	-333.333
211.71	-533.333
212.09	300.000
212.46	700.000
212.84	-2600.000
213.22	633.333
213.59	133.333
213.97	-100.000
214.34	180.000
214.72	-90.000
215.09	-533.333
215.47	-216.667
215.84	-80.000
216.22	-160.000
216.59	-60.000
216.97	-625.000
217.34	950.000
217.72	-185.714
218.09	-266.667
218.47	-171.429
218.84	185.714
219.22	-171.429
219.59	0.000
219.97	257.143
220.34	300.000
220.72	212.500
221.09	-100.000
221.47	0.000
221.84	833.333
222.22	-200.000
222.59	1300.000
222.97	-275.000
223.34	-850.000
223.72	-666.667
224.09	-35.714
224.46	-550.000
224.84	-64.286
225.21	-228.571
225.59	0.000
225.96	-162.500
226.34	0.000
226.71	-166.667
227.08	15.000
227.46	1500.000
227.83	-214.286
228.21	-225.000
228.58	700.000
228.95	-62.500
229.33	-2500.000
229.70	-300.000
230.08	-1100.000
230.45	-33.333
230.82	-133.333
231.20	-700.000
231.57	-600.000
231.95	1400.000
232.32	33.333
232.69	-188.889
233.07	-285.714
233.44	-1000.000
233.81	-53.333
234.19	-111.111
234.56	-75.000
234.93	15.625
235.31	-271.429
235.68	-164.286
236.05	-35.294
236.43	-68.182
236.80	-25.806
237.17	-87.500
237.55	-42.857
237.92	-104.545
238.29	-25.714
238.67	11.765
239.04	-5.556
239.41	-64.516
239.79	-30.769
240.16	-38.095
240.53	-30.909
240.91	-38.462
241.28	-7.273
241.65	9.231
242.02	-21.311
242.40	-27.869
242.77	-16.667
243.14	-37.288
243.51	-30.000
243.89	-26.582
244.26	-16.854
244.63	-3.158
245.00	-17.895
245.38	4.237
245.75	-10.619
246.12	-1.600
246.49	2.362
246.87	-15.447
247.24	-13.559
247.61	-21.186
247.98	-7.746
248.36	-11.888
248.73	-12.025
249.10	-5.732
249.47	-4.678
249.84	-5.682
250.22	-16.667
250.59	-6.215
250.96	-2.618
251.33	-3.318
251.70	-1.923
252.08	1.422
252.45	-3.318
252.82	-10.476
253.19	-2.128
253.56	-7.258
253.94	-5.485
254.31	-7.296
254.68	-3.659
255.05	-0.403
255.42	-3.571
255.79	-7.885
256.16	-5.490
256.54	-2.206
256.91	-4.167
257.28	-4.396
257.65	-4.255
258.02	-2.516
258.39	-3.010
258.76	-3.716
259.14	-5.247
259.51	-1.639
259.88	-0.610
260.25	-2.484
260.62	-6.109
260.99	-5.341
261.36	-1.829
261.73	-5.780
262.10	-1.111
262.47	-1.709
262.85	-0.286
263.22	-6.304
263.59	-7.692
263.96	-3.188
264.33	-2.981
264.70	-0.829
265.07	0.549
265.44	-2.584
265.81	-2.584
266.18	-4.557
266.55	-4.412
266.92	-0.252
267.29	-0.242
267.66	-1.975
268.03	-1.449
268.40	-1.643
268.77	-3.373
269.14	-2.784
269.51	-1.609
269.88	-4.358
270.25	-4.662
270.62	-2.975
270.99	-2.027
271.36	-1.399
271.73	-3.363
272.10	-2.288
272.47	-5.111
272.84	0.667
273.21	-1.147
273.58	-4.396
273.95	-1.974
274.32	-1.131
274.69	0.438
275.06	-0.409
275.43	-4.688
275.80	-1.833
276.17	-0.209
276.54	-0.815
276.91	-2.675
277.28	-2.231
277.65	-3.099
278.02	-3.758
278.39	-0.589
278.76	-3.187
279.13	-0.791
279.50	-1.789
279.87	-2.114
280.23	-0.405
280.60	-1.988
280.97	-1.748
281.34	-2.901
281.71	0.000
282.08	-1.815
282.45	-5.703
282.82	-2.132
283.19	-0.364
283.56	2.015
283.92	0.177
284.29	-1.487
284.66	-0.180
285.03	1.604
285.40	-2.214
285.77	-1.053
286.14	-0.542
286.51	-3.375
286.87	0.544
287.24	-1.706
287.61	-1.653
287.98	-2.946
288.35	-1.983
288.72	-1.188
289.08	-3.729
289.45	-2.357
289.82	-2.249
290.19	0.657
290.56	-2.975
290.93	-2.385
291.29	-2.431
291.66	-2.415
292.03	0.628
292.40	0.452
292.77	-1.087
293.13	-1.789
293.50	0.149
293.87	-1.687
294.24	-0.302
294.60	-2.879
294.97	0.303
295.34	-1.185
295.71	-1.935
296.08	-2.611
296.44	-1.288
296.81	-0.997
297.18	-0.845
297.55	-0.424
297.91	-1.116
298.28	-0.274
298.65	-2.510
299.02	1.070
299.38	-1.738
299.75	0.951
300.12	0.385
300.48	-0.512
300.85	-1.966
301.22	0.259
301.59	-0.130
301.95	0.378
302.32	-2.086
302.69	-0.245
303.05	-0.977
303.42	-1.125
303.79	0.239
304.15	0.000
304.52	-1.167
304.89	-0.472
305.25	-1.099
305.62	-0.823
305.99	1.531
306.35	0.999
306.72	-1.595
307.09	0.341
307.45	-1.249
307.82	-0.670
308.19	-0.224
308.55	-0.545
308.92	-2.041
309.29	-0.865
309.65	0.106
310.02	-0.432
310.38	-1.081
310.75	-0.307
311.12	0.620
311.48	-0.209
311.85	0.000
312.22	-0.927
312.58	0.305
312.95	0.510
313.31	1.798
313.68	0.503
314.05	1.780
314.41	-1.610
314.78	-1.099
315.14	0.197
315.51	0.304
315.87	0.387
316.24	0.097
316.61	1.152
316.97	0.398
317.34	0.000
317.70	-0.093
318.07	1.213
318.43	-0.281
318.80	1.033
319.16	0.094
319.53	0.188
319.89	-0.188
320.26	0.000
320.62	-0.096
320.99	0.697
321.35	-1.281
321.72	-1.638
322.08	1.484
322.45	-0.891
322.81	0.961
323.18	-0.480
323.54	0.647
323.91	0.556
324.27	-0.285
324.64	-0.274
325.00	0.349
325.37	1.176
325.73	0.962
326.10	-0.886
326.46	0.263
326.83	-0.255
327.19	0.083
327.56	1.618
327.92	-0.085
328.29	0.952
328.65	-0.727
329.01	0.177
329.38	0.178
329.74	0.824
330.11	0.363
330.47	0.182
330.84	1.467
331.20	-0.090
331.56	-0.365
331.93	0.266
332.29	0.457
332.66	0.790
333.02	1.267
333.38	0.358
333.75	0.980
334.11	-0.267
334.48	0.000
334.84	1.137
335.20	0.532
335.57	0.632
335.93	0.806
336.29	0.177
336.66	-0.441
337.02	0.360
337.38	0.178
337.75	0.351
338.11	0.358
338.47	0.623
338.84	-0.635
339.20	0.176
339.56	0.713
339.93	0.088
340.29	-0.354
340.65	0.350
341.02	0.675
341.38	1.011
341.74	0.762
342.11	0.512
342.47	0.086
342.83	0.420
343.20	-0.085
343.56	-0.408
343.92	1.753
344.28	1.093
344.65	-0.330
345.01	1.008
345.37	1.080
345.73	0.327
346.10	-0.164
346.46	-0.650
346.82	1.283
347.19	0.000
347.55	-0.401
347.91	1.024
348.27	0.000
348.63	1.050
349.00	1.273
349.36	-0.078
349.72	0.637
350.08	0.160
350.45	0.946
350.81	0.876
351.17	-0.161
351.53	-0.398
351.89	0.485
352.26	0.465
352.62	1.459
352.98	0.237
353.34	0.799
353.70	-0.541
354.07	0.236
354.43	1.186
354.79	0.555
355.15	0.399
355.51	0.078
355.87	-0.791
356.24	0.000
356.60	0.161
356.96	0.385
357.32	0.000
357.68	0.536
358.04	1.078
358.40	0.155
358.77	0.000
359.13	0.153
359.49	0.302
359.85	0.229
360.21	0.761
360.57	0.904
360.93	0.667
361.29	0.075
361.66	-0.076
362.02	0.000
362.38	0.880
362.74	0.220
363.10	-0.143
363.46	1.638
363.82	0.802
364.18	1.085
364.54	1.501
364.90	-0.070
365.26	0.000
365.62	0.428
365.98	1.351
366.35	0.775
366.71	0.423
367.07	1.129
367.43	1.167
367.79	1.375
368.15	-0.213
368.51	0.909
368.87	1.923
369.23	0.842
369.59	1.597
369.95	1.128
370.31	1.125
370.67	-0.506
371.03	0.583
371.39	1.273
371.75	1.359
372.11	0.574
372.47	0.578
372.83	1.669
373.19	1.071
373.55	1.126
373.91	0.142
374.27	0.274
374.63	1.173
374.99	1.043
375.35	0.538
375.71	1.621
376.07	0.411
376.42	-0.199
376.78	1.111
377.14	0.339
377.50	0.967
377.86	1.560
378.22	0.440
378.58	0.618
378.94	0.740
379.30	0.731
379.66	1.396
380.02	1.664
380.38	1.148
380.74	0.821
381.09	1.699
381.45	0.776
381.81	1.210
382.17	1.441
382.53	1.398
382.89	1.555
383.25	1.505
383.61	1.415
383.97	2.327
384.32	1.252
384.68	1.572
385.04	1.329
385.40	1.035
385.76	1.585
386.12	1.874
386.48	2.290
386.83	1.656
387.19	1.614
387.55	2.302
387.91	1.423
388.27	1.086
388.62	1.142
388.98	1.393
389.34	1.591
389.70	1.583
390.06	1.243
390.42	1.859
390.77	1.199
391.13	1.491
391.49	1.185
391.85	1.995
392.20	1.456
392.56	1.405
392.92	1.426
393.28	2.009
393.64	1.383
393.99	2.400
394.35	2.129
394.71	1.729
395.07	1.569
395.42	1.430
395.78	1.320
396.14	2.243
396.50	1.223
396.85	1.912
397.21	1.458
397.57	1.824
397.92	2.342
398.28	2.333
398.64	1.844
399.00	1.798
399.35	1.466
399.71	2.149
400.07	2.149
400.42	1.825
400.78	1.491
401.14	1.796
401.49	1.061
401.85	1.159
402.21	1.609
402.57	2.245
402.92	2.517
403.28	2.022
403.63	1.318
403.99	1.740
404.35	0.906
404.70	2.048
405.06	2.134
405.42	0.984
405.77	1.357
406.13	1.533
406.49	1.618
406.84	1.200
407.20	1.885
407.55	1.837
407.91	1.036
408.27	2.083
408.62	1.563
408.98	1.637
409.34	1.402
409.69	2.457
410.05	1.698
410.40	1.533
410.76	1.956
411.11	1.122
411.47	1.598
411.83	2.384
412.18	0.928
412.54	1.647
412.89	1.762
413.25	0.826
413.60	1.276
413.96	0.863
414.31	1.223
414.67	0.889
415.03	1.294
415.38	1.171
415.74	1.611
416.09	0.831
416.45	0.397
416.80	1.625
417.16	0.664
417.51	2.101
417.87	0.971
418.22	1.454
418.58	1.926
418.93	2.330
419.29	0.941
419.64	1.382
420.00	2.673
420.35	1.124
420.71	1.741
421.06	2.130
421.42	1.112
421.77	2.233
422.12	1.903
422.48	1.764
422.83	2.563
423.19	1.559
423.54	1.902
423.90	2.082
424.25	1.867
424.61	2.533
424.96	1.814
425.31	2.180
425.67	1.777
426.02	1.492
426.38	2.178
426.73	1.987
427.09	1.900
427.44	2.045
427.79	1.221
428.15	2.454
428.50	2.815
428.85	2.398
429.21	1.992
429.56	2.396
429.92	2.605
430.27	2.542
430.62	2.194
430.98	2.405
431.33	2.028
431.68	2.627
432.04	2.518
432.39	2.393
432.74	2.518
433.10	1.745
433.45	1.900
433.80	1.680
434.16	2.633
434.51	2.301
434.86	2.929
435.22	2.227
435.57	1.958
435.92	2.286
436.28	2.789
436.63	1.752
436.98	1.604
437.34	3.190
437.69	2.275
438.04	2.326
438.39	3.129
438.75	2.154
439.10	3.109
439.45	1.931
439.81	2.771
440.16	2.669
440.51	1.941
440.86	2.082
441.22	1.824
441.57	2.684
441.92	2.251
442.27	3.030
442.63	2.682
442.98	1.524
443.33	2.361
443.68	2.501
444.03	2.701
444.39	3.084
444.74	2.258
445.09	2.412
445.44	2.420
445.79	2.244
446.15	2.519
446.50	1.905
446.85	2.360
447.20	2.758
447.55	2.873
447.91	2.190
448.26	2.346
448.61	2.547
448.96	2.969
449.31	1.747
449.66	2.748
450.02	2.161
450.37	2.145
450.72	2.712
451.07	2.200
451.42	2.478
451.77	2.813
452.12	2.384
452.47	2.582
452.83	2.271
453.18	2.404
453.53	3.420
453.88	2.811
454.23	2.237
454.58	3.045
454.93	2.519
455.28	2.549
455.63	2.518
455.98	3.133
456.34	2.351
456.69	2.814
457.04	3.012
457.39	2.333
457.74	2.481
458.09	2.784
458.44	3.118
458.79	2.635
459.14	2.681
459.49	2.191
459.84	2.642
460.19	2.566
460.54	3.146
460.89	3.027
461.24	2.914
461.59	3.283
461.94	2.355
462.29	2.978
462.64	2.569
462.99	3.146
463.34	2.566
463.69	2.226
464.04	2.460
464.39	2.688
464.74	3.191
465.09	2.766
465.44	2.876
465.79	3.215
466.14	2.589
466.49	3.109
466.84	2.881
467.19	2.930
467.54	2.215
467.89	2.713
468.24	2.850
468.59	2.186
468.94	2.444
469.29	2.599
469.64	2.898
469.99	2.768
470.34	2.472
470.68	3.561
471.03	3.372
471.38	2.222
471.73	2.517
472.08	3.079
472.43	2.059
472.78	2.467
473.13	1.590
473.48	3.957
473.83	2.481
474.17	2.611
474.52	3.069
474.87	3.263
475.22	2.596
475.57	3.111
475.92	3.078
476.27	2.400
476.61	2.704
476.96	2.851
477.31	2.583
477.66	2.490
478.01	2.917
478.36	3.457
478.70	2.349
479.05	3.624
479.40	3.161
479.75	2.752
480.10	3.075
480.45	2.515
480.79	3.159
481.14	3.161
481.49	3.388
481.84	2.913
482.19	3.655
482.53	3.125
482.88	2.895
483.23	3.146
483.58	3.099
483.92	3.392
484.27	2.437
484.62	2.765
484.97	2.962
485.31	3.040
485.66	2.889
486.01	3.346
486.36	3.229
486.70	3.431
487.05	3.114
487.40	3.125
487.75	3.200
488.09	2.532
488.44	3.011
488.79	3.042
489.13	3.119
489.48	3.385
489.83	3.100
490.17	3.178
490.52	3.351
490.87	2.587
491.22	2.849
491.56	3.704
491.91	2.910
492.26	3.113
492.60	3.140
492.95	2.999
493.30	3.525
493.64	2.774
493.99	2.390
494.34	2.619
494.68	3.792
495.03	2.677
495.37	2.606
495.72	3.291
496.07	4.036
496.41	3.242
496.76	3.607
497.11	2.873
497.45	3.161
497.80	2.401
498.14	2.849
498.49	2.461
498.84	2.864
499.18	3.119
499.53	2.825
499.87	2.606
500.22	3.137
500.56	3.452
500.91	3.005
501.26	3.688
501.60	2.648
501.95	3.527
502.29	3.543
502.64	4.149
502.98	2.875
503.33	3.242
503.67	2.874
504.02	2.656
504.36	3.186
504.71	2.736
505.06	2.396
505.40	3.743
505.75	2.744
506.09	3.640
506.44	3.158
506.78	3.462
507.13	3.193
507.47	3.912
507.82	2.943
508.16	3.523
508.51	3.040
508.85	3.106
509.19	2.355
509.54	3.330
509.88	3.830
510.23	3.302
510.57	3.862
510.92	3.545
511.26	2.871
511.61	3.834
511.95	3.502
512.30	3.683
512.64	2.782
512.98	2.915
513.33	2.856
513.67	3.350
514.02	3.300
514.36	3.324
514.70	2.773
515.05	3.545
515.39	3.172
515.74	4.130
516.08	2.997
516.42	3.853
516.77	3.293
517.11	3.432
517.46	3.409
517.80	3.430
518.14	2.899
518.49	2.989
518.83	3.442
519.17	3.316
519.52	3.586
519.86	3.883
520.20	3.667
520.55	3.077
520.89	2.693
521.23	4.029
521.58	2.571
521.92	3.103
522.26	3.238
522.61	3.295
522.95	2.808
523.29	3.636
523.64	3.873
523.98	3.310
524.32	3.583
524.66	2.795
525.01	3.083
525.35	3.157
525.69	3.448
526.04	3.590
526.38	3.692
526.72	3.001
527.06	3.125
527.41	2.772
527.75	3.036
528.09	3.177
528.43	3.475
528.78	3.706
529.12	3.905
529.46	3.351
529.80	3.357
530.15	3.799
530.49	3.558
530.83	3.536
531.17	2.761
531.51	2.947
531.86	3.687
532.20	3.104
532.54	3.610
532.88	3.096
533.22	3.075
533.57	3.329
533.91	3.745
534.25	3.457
534.59	2.686
534.93	2.302
535.27	3.839
535.62	4.348
535.96	3.814
536.30	2.291
536.64	4.050
536.98	4.025
537.32	2.903
537.66	3.666
538.01	3.093
538.35	3.784
538.69	3.075
539.03	3.318
539.37	3.393
539.71	3.402
540.05	3.084
540.39	3.393
540.73	3.455
541.07	3.415
541.42	2.633
541.76	2.392
542.10	4.119
542.44	3.398
542.78	3.935
543.12	3.802
543.46	2.603
543.80	3.010
544.14	2.351
544.48	3.740
544.82	3.180
545.16	3.555
545.50	2.490
545.84	2.990
546.18	3.606
546.52	3.343
546.86	2.849
547.20	2.813
547.54	3.306
547.88	3.318
548.22	2.425
548.56	2.939
548.90	3.032
549.24	2.242
549.58	2.470
549.92	2.473
550.26	3.757
550.60	2.987
550.94	3.431
551.28	3.085
551.62	2.585
551.96	2.822
552.30	3.066
552.64	4.082
552.98	2.663
553.32	2.453
553.66	3.100
554.00	3.198
554.34	2.383
554.68	3.436
555.02	4.124
555.36	2.876
555.69	1.862
556.03	3.439
556.37	2.774
556.71	3.651
557.05	2.143
557.39	2.895
557.73	3.720
558.07	3.466
558.41	1.945
558.75	2.205
559.08	1.634
559.42	3.905
559.76	2.454
560.10	2.759
560.44	3.829
560.78	3.897
561.12	2.622
561.45	3.630
561.79	3.484
562.13	3.226
562.47	3.221
562.81	2.405
563.15	2.869
563.48	2.557
563.82	2.434
564.16	3.381
564.50	2.419
564.84	3.373
565.17	2.918
565.51	3.390
565.85	3.448
566.19	3.426
566.52	2.544
566.86	2.402
567.20	3.814
567.54	4.194
567.88	3.183
568.21	2.852
568.55	3.075
568.89	2.982
569.23	2.962
569.56	3.741
569.90	3.777
570.24	2.969
570.57	2.953
570.91	3.298
571.25	3.372
571.59	3.466
571.92	3.274
572.26	3.295
572.60	3.506
572.93	2.973
573.27	3.354
573.61	3.069
573.95	3.353
574.28	3.211
574.62	3.279
574.96	3.141
575.29	3.201
575.63	3.292
575.97	3.101
576.30	3.289
576.64	3.368
576.98	3.085
577.31	3.194
577.65	3.623
577.98	3.197
578.32	3.305
578.66	3.316
578.99	3.033
579.33	3.165
579.67	3.069
580.00	3.373
580.34	3.131
580.67	3.383
581.01	2.994
581.35	3.324
581.68	3.244
582.02	3.562
582.35	3.211
582.69	3.280
583.02	3.625
583.36	3.480
583.70	3.226
584.03	3.610
584.37	2.923
584.70	3.013
585.04	3.544
585.37	3.174
585.71	3.556
586.04	3.495
586.38	3.261
586.72	3.608
587.05	3.682
587.39	3.606
587.72	3.770
588.06	3.466
588.39	3.218
588.73	3.591
589.06	3.165
589.40	3.882
589.73	3.506
590.07	3.350
590.40	3.764
590.73	3.239
591.07	3.115
591.40	3.033
591.74	3.519
592.07	3.243
592.41	3.439
592.74	3.766
593.08	3.913
593.41	3.257
593.75	2.934
594.08	3.235
594.41	3.253
594.75	3.473
595.08	3.083
595.42	3.613
595.75	3.197
596.09	3.066
596.42	3.273
596.75	3.062
597.09	3.473
597.42	3.186
597.75	3.499
598.09	3.254
598.42	3.005
598.76	3.613
599.09	3.078
599.42	2.807
599.76	3.398
600.09	3.626
600.42	3.684
600.76	3.126
601.09	3.076
601.42	3.047
601.76	3.972
602.09	3.027
602.42	3.374
602.76	2.784
603.09	2.782
603.42	3.465
603.76	3.391
604.09	3.524
604.42	3.455
604.76	3.402
605.09	3.345
605.42	3.901
605.75	3.019
606.09	3.362
606.42	3.310
606.75	3.821
607.09	3.044
607.42	3.521
607.75	2.914
608.08	3.254
608.42	3.264
608.75	3.037
609.08	2.582
609.41	2.790
609.75	2.779
610.08	3.382
610.41	3.373
610.74	3.530
611.07	2.941
611.41	3.379
611.74	3.753
612.07	3.491
612.40	3.358
612.73	3.231
613.07	3.027
613.40	3.612
613.73	2.997
614.06	2.910
614.39	2.537
614.72	2.793
615.06	3.098
615.39	2.387
615.72	2.933
616.05	2.209
616.38	2.902
616.71	2.943
617.05	3.559
617.38	3.406
617.71	2.334
618.04	2.795
618.37	2.767
618.70	3.129
619.03	2.844
619.36	3.594
619.69	3.661
620.03	3.512
620.36	2.391
620.69	2.441
621.02	2.740
621.35	2.097
621.68	2.951
622.01	1.699
622.34	3.261
622.67	1.953
623.00	2.448
623.33	2.910
623.66	2.363
623.99	3.158
624.32	2.827
624.65	2.649
624.99	2.315
625.32	2.620
625.65	2.642
625.98	2.426
626.31	3.100
626.64	2.678
626.97	2.397
627.30	2.809
627.63	1.727
627.96	2.785
628.29	1.195
628.62	1.910
628.95	3.150
629.28	2.256
629.61	2.061
629.94	2.552
630.26	1.690
630.59	2.412
630.92	2.503
631.25	4.335
631.58	2.011
631.91	1.383
632.24	1.556
632.57	2.556
632.90	1.724
633.23	1.519
633.56	1.170
633.89	2.005
634.22	2.007
634.55	1.442
634.88	1.814
635.20	1.248
635.53	3.181
635.86	1.259
636.19	2.198
636.52	2.867
636.85	0.963
637.18	0.000
637.51	3.098
637.83	0.533
638.16	1.711
638.49	0.138
638.82	2.059
639.15	2.205
639.48	1.167
639.81	2.075
640.13	0.946
640.46	3.704
640.79	0.980
641.12	2.257
641.45	1.578
641.77	0.000
642.10	2.266
642.43	3.035
642.76	1.417
643.09	0.794
643.41	0.476
643.74	2.544
644.07	1.872
644.40	1.621
644.73	1.485
645.05	1.002
645.38	1.987
645.71	1.546
646.04	1.513
646.36	-0.349
646.69	0.865
647.02	0.000
647.35	0.722
647.67	0.000
648.00	2.460
648.33	3.204
648.66	0.161
648.98	1.592
649.31	2.154
649.64	-0.312
649.96	2.198
650.29	-1.148
650.62	0.172
650.94	2.361
651.27	1.386
651.60	1.384
651.92	1.712
