SpectraSuite Data File
++++++++++++++++++++++++++++++++++++
Date: Sat May 16 11:27:58 PDT 2015
User: schluterlab
Dark Spectrum Present: Yes
Reference Spectrum Present: Yes
Number of Sampled Component Spectra: 1
Spectrometers: USB2E3373
Integration Time (usec): 3000 (USB2E3373)
Spectra Averaged: 3 (USB2E3373)
Boxcar Smoothing: 0 (USB2E3373)
Correct for Electrical Dark: No (USB2E3373)
Strobe/Lamp Enabled: No (USB2E3373)
Correct for Detector Non-linearity: No (USB2E3373)
Correct for Stray Light: No (USB2E3373)
Number of Pixels in Processed Spectrum: 2048
>>>>>Begin Processed Spectral Data<<<<<
178.53	0.000
178.91	113.333
179.29	500.000
179.67	-1300.000
180.04	7.692
180.42	500.000
180.80	325.000
181.18	200.000
181.56	-125.000
181.94	1600.000
182.31	475.000
182.69	-53.846
183.07	-300.000
183.45	1050.000
183.83	166.667
184.20	-228.571
184.58	-187.500
184.96	-125.000
185.34	162.500
185.72	-450.000
186.09	83.333
186.47	-237.500
186.85	-187.500
187.23	0.000
187.61	-225.000
187.98	-212.500
188.36	-50.000
188.74	-162.500
189.12	1800.000
189.49	300.000
189.87	-75.000
190.25	400.000
190.63	-85.714
191.00	-122.222
191.38	480.000
191.76	-53.333
192.14	460.000
192.51	-340.000
192.89	-533.333
193.27	0.000
193.65	44.444
194.02	-142.857
194.40	300.000
194.78	-210.000
195.15	-1400.000
195.53	-172.727
195.91	-450.000
196.29	300.000
196.66	-866.667
197.04	1700.000
197.42	-200.000
197.79	40.000
198.17	-200.000
198.55	-350.000
198.92	-1500.000
199.30	262.500
199.68	-650.000
200.05	-200.000
200.43	-277.778
200.81	-1700.000
201.18	-158.333
201.56	185.714
201.94	-80.000
202.31	0.000
202.69	-40.000
203.07	20.000
203.44	433.333
203.82	-216.667
204.19	-300.000
204.57	-600.000
204.95	-1100.000
205.32	-37.500
205.70	1800.000
206.08	-2600.000
206.45	-16.667
206.83	-850.000
207.20	400.000
207.58	-600.000
207.96	133.333
208.33	-225.000
208.71	-33.333
209.08	260.000
209.46	-271.429
209.84	700.000
210.21	0.000
210.59	10.000
210.96	600.000
211.34	-333.333
211.71	-66.667
212.09	450.000
212.46	750.000
212.84	-2700.000
213.22	400.000
213.59	141.667
213.97	-100.000
214.34	140.000
214.72	-40.000
215.09	-633.333
215.47	-366.667
215.84	-60.000
216.22	-180.000
216.59	13.333
216.97	-450.000
217.34	750.000
217.72	-128.571
218.09	-400.000
218.47	-214.286
218.84	171.429
219.22	-200.000
219.59	0.000
219.97	171.429
220.34	375.000
220.72	200.000
221.09	-53.846
221.47	0.000
221.84	366.667
222.22	-650.000
222.59	1500.000
222.97	-287.500
223.34	-700.000
223.72	-600.000
224.09	-78.571
224.46	-350.000
224.84	-114.286
225.21	-314.286
225.59	-36.364
225.96	-175.000
226.34	-128.571
226.71	-122.222
227.08	5.000
227.46	1500.000
227.83	-142.857
228.21	-262.500
228.58	150.000
228.95	-56.250
229.33	-1400.000
229.70	-240.000
230.08	-1050.000
230.45	-75.000
230.82	-316.667
231.20	-800.000
231.57	-650.000
231.95	1300.000
232.32	33.333
232.69	-188.889
233.07	-185.714
233.44	-700.000
233.81	-46.667
234.19	-211.111
234.56	25.000
234.93	-12.500
235.31	-142.857
235.68	-114.286
236.05	-64.706
236.43	-86.364
236.80	-6.452
237.17	-20.833
237.55	-47.619
237.92	-90.909
238.29	-17.143
238.67	-11.765
239.04	-16.667
239.41	3.226
239.79	-56.410
240.16	-19.048
240.53	-25.455
240.91	-7.692
241.28	1.818
241.65	18.462
242.02	11.475
242.40	-16.393
242.77	-4.545
243.14	-18.644
243.51	-18.571
243.89	-8.861
244.26	5.618
244.63	3.158
245.00	0.000
245.38	6.780
245.75	9.735
246.12	4.800
246.49	3.937
246.87	-3.252
247.24	3.390
247.61	0.847
247.98	-5.634
248.36	2.098
248.73	7.595
249.10	5.096
249.47	8.772
249.84	8.523
250.22	0.595
250.59	6.780
250.96	7.853
251.33	9.479
251.70	9.135
252.08	11.848
252.45	1.896
252.82	8.571
253.19	7.234
253.56	3.226
253.94	1.688
254.31	9.871
254.68	6.098
255.05	5.645
255.42	9.127
255.79	10.394
256.16	10.588
256.54	11.397
256.91	8.712
257.28	8.791
257.65	10.284
258.02	9.748
258.39	6.689
258.76	7.770
259.14	5.556
259.51	9.180
259.88	10.366
260.25	8.385
260.62	7.395
260.99	7.418
261.36	10.671
261.73	12.428
262.10	11.389
262.47	7.977
262.85	14.571
263.22	9.169
263.59	8.308
263.96	11.014
264.33	10.840
264.70	9.392
265.07	10.165
265.44	11.628
265.81	11.370
266.18	7.595
266.55	10.784
266.92	10.831
267.29	10.169
267.66	10.864
268.03	12.077
268.40	10.094
268.77	11.325
269.14	8.121
269.51	11.954
269.88	9.404
270.25	10.723
270.62	10.526
270.99	9.009
271.36	10.956
271.73	7.623
272.10	11.670
272.47	8.222
272.84	14.000
273.21	11.927
273.58	10.110
273.95	9.868
274.32	8.145
274.69	14.223
275.06	11.452
275.43	11.830
275.80	12.424
276.17	10.669
276.54	13.035
276.91	10.905
277.28	9.736
277.65	8.884
278.02	12.109
278.39	9.430
278.76	10.757
279.13	10.079
279.50	10.537
279.87	10.359
280.23	10.931
280.60	10.934
280.97	10.874
281.34	8.897
281.71	11.731
282.08	10.282
282.45	9.369
282.82	8.140
283.19	10.909
283.56	13.187
283.92	12.544
284.29	12.639
284.66	8.813
285.03	10.517
285.40	9.963
285.77	12.281
286.14	9.206
286.51	10.657
286.87	10.889
287.24	13.481
287.61	11.736
287.98	10.399
288.35	9.752
288.72	9.168
289.08	7.627
289.45	9.596
289.82	8.651
290.19	11.002
290.56	8.264
290.93	8.903
291.29	9.400
291.66	10.789
292.03	10.832
292.40	10.693
292.77	9.938
293.13	10.244
293.50	11.144
293.87	9.969
294.24	9.201
294.60	9.242
294.97	8.953
295.34	7.852
295.71	9.524
296.08	8.909
296.44	7.868
296.81	9.972
297.18	9.014
297.55	8.898
297.91	10.460
298.28	7.260
298.65	7.950
299.02	10.294
299.38	8.824
299.75	6.522
300.12	9.231
300.48	8.184
300.85	7.339
301.22	8.797
301.59	6.762
301.95	10.327
302.32	7.171
302.69	8.690
303.05	8.791
303.42	7.125
303.79	8.254
304.15	8.649
304.52	8.518
304.89	7.674
305.25	8.425
305.62	7.168
305.99	9.423
306.35	7.769
306.72	7.745
307.09	10.556
307.45	8.740
307.82	7.374
308.19	7.159
308.55	8.388
308.92	6.982
309.29	8.541
309.65	6.787
310.02	8.747
310.38	8.649
310.75	8.914
311.12	8.471
311.48	7.933
311.85	7.518
312.22	8.033
312.58	8.037
312.95	6.830
313.31	8.092
313.68	8.543
314.05	8.704
314.41	7.344
314.78	6.993
315.14	7.996
315.51	7.903
315.87	8.325
316.24	8.746
316.61	8.637
316.97	8.259
317.34	7.900
317.70	7.607
318.07	7.649
318.43	7.584
318.80	8.075
319.16	7.223
319.53	7.895
319.89	7.526
320.26	7.647
320.62	7.019
320.99	8.358
321.35	6.897
321.72	6.858
322.08	7.715
322.45	7.525
322.81	6.916
323.18	6.436
323.54	7.671
323.91	7.136
324.27	8.270
324.64	7.038
325.00	8.464
325.37	8.416
325.73	8.224
326.10	6.643
326.46	7.180
326.83	8.170
327.19	7.673
327.56	8.092
327.92	7.732
328.29	7.359
328.65	6.909
329.01	8.216
329.38	7.850
329.74	8.791
330.11	7.978
330.47	6.994
330.84	7.699
331.20	7.401
331.56	7.566
331.93	7.815
332.29	8.676
332.66	7.726
333.02	7.059
333.38	7.079
333.75	7.480
334.11	7.911
334.48	6.531
334.84	8.399
335.20	8.067
335.57	6.227
335.93	8.863
336.29	7.617
336.66	7.225
337.02	7.207
337.38	7.041
337.75	8.077
338.11	7.424
338.47	8.007
338.84	7.350
339.20	7.293
339.56	8.289
339.93	6.790
340.29	6.554
340.65	7.255
341.02	7.336
341.38	6.403
341.74	6.943
342.11	6.911
342.47	6.352
342.83	5.961
343.20	7.942
343.56	6.367
343.92	8.514
344.28	8.663
344.65	6.023
345.01	6.639
345.37	8.970
345.73	6.137
346.10	6.378
346.46	5.768
346.82	8.180
347.19	7.149
347.55	6.501
347.91	6.772
348.27	6.523
348.63	7.916
349.00	7.717
349.36	6.557
349.72	7.325
350.08	6.816
350.45	6.147
350.81	7.484
351.17	6.029
351.53	5.330
351.89	7.114
352.26	6.977
352.62	8.141
352.98	7.120
353.34	7.274
353.70	7.027
354.07	7.710
354.43	7.431
354.79	6.894
355.15	5.990
355.51	7.031
355.87	7.194
356.24	6.037
356.60	7.333
356.96	7.852
357.32	6.492
357.68	6.897
358.04	8.006
358.40	6.961
358.77	7.573
359.13	6.733
359.49	6.803
359.85	6.402
360.21	7.002
360.57	7.605
360.93	6.667
361.29	6.353
361.66	5.564
362.02	6.361
362.38	7.924
362.74	6.593
363.10	6.241
363.46	8.262
363.82	6.560
364.18	7.091
364.54	7.362
364.90	6.429
365.26	6.705
365.62	6.771
365.98	6.543
366.35	7.465
366.71	5.990
367.07	6.916
367.43	7.756
367.79	7.285
368.15	6.188
368.51	7.972
368.87	7.486
369.23	7.298
369.59	6.319
369.95	6.836
370.31	7.314
370.67	5.785
371.03	7.362
371.39	6.648
371.75	7.439
372.11	6.671
372.47	6.001
372.83	6.885
373.19	7.786
373.55	7.389
373.91	7.255
374.27	6.366
374.63	6.694
374.99	7.580
375.35	6.326
375.71	7.968
376.07	5.818
376.42	5.894
376.78	7.647
377.14	6.847
377.50	7.544
377.86	7.152
378.22	6.219
378.58	6.980
378.94	6.165
379.30	6.947
379.66	7.286
380.02	6.477
380.38	6.465
380.74	6.682
381.09	7.264
381.45	7.041
381.81	6.534
382.17	6.955
382.53	6.869
382.89	7.117
383.25	7.646
383.61	7.075
383.97	6.859
384.32	7.447
384.68	7.437
385.04	6.643
385.40	6.391
385.76	7.134
386.12	8.120
386.48	7.735
386.83	7.117
387.19	7.830
387.55	7.268
387.91	6.817
388.27	6.393
388.62	7.091
388.98	7.147
389.34	7.038
389.70	7.065
390.06	7.334
390.42	6.667
390.77	7.129
391.13	7.205
391.49	7.486
391.85	7.419
392.20	7.160
392.56	6.720
392.92	7.815
393.28	7.233
393.64	6.554
393.99	7.138
394.35	7.421
394.71	7.103
395.07	7.407
395.42	6.794
395.78	7.668
396.14	7.290
396.50	7.278
396.85	7.033
397.21	6.926
397.57	7.234
397.92	6.967
398.28	7.333
398.64	7.436
399.00	7.416
399.35	6.483
399.71	7.724
400.07	7.045
400.42	7.178
400.78	7.812
401.14	6.826
401.49	6.722
401.85	7.505
402.21	7.330
402.57	6.978
402.92	7.300
403.28	6.495
403.63	7.010
403.99	7.023
404.35	6.884
404.70	6.963
405.06	7.728
405.42	6.396
405.77	7.183
406.13	7.212
406.49	6.830
406.84	7.139
407.20	6.832
407.55	7.030
407.91	7.060
408.27	7.659
408.62	7.697
408.98	8.187
409.34	7.191
409.69	6.805
410.05	7.216
410.40	7.480
410.76	7.825
411.11	8.229
411.47	7.609
411.83	8.557
412.18	6.621
412.54	6.711
412.89	7.351
413.25	6.671
413.60	6.744
413.96	6.716
414.31	7.951
414.67	6.286
415.03	7.309
415.38	6.766
415.74	7.990
416.09	7.353
416.45	6.812
416.80	7.867
417.16	6.711
417.51	8.339
417.87	7.314
418.22	6.953
418.58	6.868
418.93	7.480
419.29	7.779
419.64	7.412
420.00	7.473
420.35	7.569
420.71	7.323
421.06	7.692
421.42	7.553
421.77	7.817
422.12	7.890
422.48	7.643
422.83	7.574
423.19	7.461
423.54	7.205
423.90	7.519
424.25	7.636
424.61	7.660
424.96	7.958
425.31	8.105
425.67	8.023
426.02	6.540
426.38	8.106
426.73	8.007
427.09	7.169
427.44	7.670
427.79	6.977
428.15	7.540
428.50	7.918
428.85	8.153
429.21	7.360
429.56	8.125
429.92	8.667
430.27	7.577
430.62	7.576
430.98	7.580
431.33	8.004
431.68	8.257
432.04	8.226
432.39	7.635
432.74	7.734
433.10	7.541
433.45	7.657
433.80	7.783
434.16	8.490
434.51	7.507
434.86	7.733
435.22	7.906
435.57	7.834
435.92	7.386
436.28	7.715
436.63	7.236
436.98	7.388
437.34	8.033
437.69	7.176
438.04	7.714
438.39	8.002
438.75	7.858
439.10	7.274
439.45	7.363
439.81	8.072
440.16	8.120
440.51	8.471
440.86	7.692
441.22	6.744
441.57	8.158
441.92	8.031
442.27	7.359
442.63	8.155
442.98	7.449
443.33	8.182
443.68	7.712
444.03	8.055
444.39	7.734
444.74	8.150
445.09	6.963
445.44	7.878
445.79	7.496
446.15	8.981
446.50	7.948
446.85	7.799
447.20	8.427
447.55	7.514
447.91	8.535
448.26	7.207
448.61	8.149
448.96	8.179
449.31	7.328
449.66	8.243
450.02	7.479
450.37	7.420
450.72	7.006
451.07	7.982
451.42	7.559
451.77	7.481
452.12	8.343
452.47	8.375
452.83	8.096
453.18	8.665
453.53	7.960
453.88	7.955
454.23	7.134
454.58	9.012
454.93	8.438
455.28	8.158
455.63	8.600
455.98	8.253
456.34	7.433
456.69	9.131
457.04	8.236
457.39	7.656
457.74	7.797
458.09	8.817
458.44	8.718
458.79	8.184
459.14	8.386
459.49	7.934
459.84	8.263
460.19	7.936
460.54	7.985
460.89	7.735
461.24	7.832
461.59	8.675
461.94	8.211
462.29	8.815
462.64	8.103
462.99	8.166
463.34	8.305
463.69	7.888
464.04	7.909
464.39	8.303
464.74	8.452
465.09	7.937
465.44	8.460
465.79	8.629
466.14	7.940
466.49	8.060
466.84	8.944
467.19	8.229
467.54	7.722
467.89	8.015
468.24	8.551
468.59	7.995
468.94	8.296
469.29	7.927
469.64	8.895
469.99	9.115
470.34	8.283
470.68	9.012
471.03	8.809
471.38	7.847
471.73	8.322
472.08	8.032
472.43	7.786
472.78	9.133
473.13	7.422
473.48	8.934
473.83	8.809
474.17	8.726
474.52	9.399
474.87	8.217
475.22	8.260
475.57	7.722
475.92	8.909
476.27	8.400
476.61	8.620
476.96	8.608
477.31	8.288
477.66	8.246
478.01	9.022
478.36	9.377
478.70	8.916
479.05	8.383
479.40	8.342
479.75	8.818
480.10	8.631
480.45	8.366
480.79	8.638
481.14	8.279
481.49	8.083
481.84	8.460
482.19	9.091
482.53	8.286
482.88	8.875
483.23	8.592
483.58	9.482
483.92	8.743
484.27	8.728
484.62	8.726
484.97	8.769
485.31	7.776
485.66	8.070
486.01	8.033
486.36	8.297
486.70	8.546
487.05	8.562
487.40	8.600
487.75	8.450
488.09	7.906
488.44	8.457
488.79	8.666
489.13	8.558
489.48	9.217
489.83	9.039
490.17	9.099
490.52	9.103
490.87	8.868
491.22	8.547
491.56	9.028
491.91	9.399
492.26	8.726
492.60	8.991
492.95	8.805
493.30	9.290
493.64	8.557
493.99	8.891
494.34	8.810
494.68	9.410
495.03	8.461
495.37	8.653
495.72	8.694
496.07	9.151
496.41	9.449
496.76	9.132
497.11	9.326
497.45	9.483
497.80	8.304
498.14	8.792
498.49	8.187
498.84	8.592
499.18	9.454
499.53	8.622
499.87	8.494
500.22	8.824
500.56	8.604
500.91	8.571
501.26	9.219
501.60	8.618
501.95	9.517
502.29	8.928
502.64	9.241
502.98	9.152
503.33	8.741
503.67	8.477
504.02	8.595
504.36	9.216
504.71	8.663
505.06	8.387
505.40	9.930
505.75	9.146
506.09	9.909
506.44	8.872
506.78	8.931
507.13	8.857
507.47	9.390
507.82	9.602
508.16	9.275
508.51	8.707
508.85	8.489
509.19	8.896
509.54	9.249
509.88	9.521
510.23	9.277
510.57	9.101
510.92	9.506
511.26	8.931
511.61	8.909
511.95	9.267
512.30	9.511
512.64	8.625
512.98	9.241
513.33	9.940
513.67	9.436
514.02	7.942
514.36	9.252
514.70	9.847
515.05	9.548
515.39	9.689
515.74	10.413
516.08	9.856
516.42	9.915
516.77	9.590
517.11	9.611
517.46	9.868
517.80	9.085
518.14	8.998
518.49	9.205
518.83	9.377
519.17	9.710
519.52	8.618
519.86	9.916
520.20	10.086
520.55	9.723
520.89	8.516
521.23	10.195
521.58	9.216
521.92	9.246
522.26	9.587
522.61	9.886
522.95	8.679
523.29	9.154
523.64	9.494
523.98	9.548
524.32	9.428
524.66	8.944
525.01	9.762
525.35	9.665
525.69	9.759
526.04	9.530
526.38	9.994
526.72	8.621
527.06	9.049
527.41	9.307
527.75	8.515
528.09	9.596
528.43	10.426
528.78	9.736
529.12	10.179
529.46	9.407
529.80	9.684
530.15	9.144
530.49	10.155
530.83	10.609
531.17	8.754
531.51	8.841
531.86	9.480
532.20	8.637
532.54	10.361
532.88	9.025
533.22	9.960
533.57	9.726
533.91	9.301
534.25	9.679
534.59	8.557
534.93	9.583
535.27	9.125
535.62	9.591
535.96	9.890
536.30	9.620
536.64	10.691
536.98	9.675
537.32	9.053
537.66	8.961
538.01	9.003
538.35	10.338
538.69	10.027
539.03	9.682
539.37	10.113
539.71	9.807
540.05	8.979
540.39	10.111
540.73	9.191
541.07	9.358
541.42	9.453
541.76	8.638
542.10	10.398
542.44	10.127
542.78	10.109
543.12	9.097
543.46	8.219
543.80	9.298
544.14	9.268
544.48	9.318
544.82	8.728
545.16	8.920
545.50	8.816
545.84	9.040
546.18	9.501
546.52	9.744
546.86	9.473
547.20	9.283
547.54	8.815
547.88	9.025
548.22	8.453
548.56	7.615
548.90	9.636
549.24	9.250
549.58	9.245
549.92	9.753
550.26	10.043
550.60	10.313
550.94	9.343
551.28	9.105
551.62	8.198
551.96	10.058
552.30	9.617
552.64	9.078
552.98	9.811
553.32	7.720
553.66	10.094
554.00	9.311
554.34	8.953
554.68	9.284
555.02	9.986
555.36	10.065
555.69	9.097
556.03	9.965
556.37	9.104
556.71	9.306
557.05	9.460
557.39	8.760
557.73	9.847
558.07	10.625
558.41	8.901
558.75	9.278
559.08	8.405
559.42	9.035
559.76	9.356
560.10	9.769
560.44	10.549
560.78	8.907
561.12	10.007
561.45	9.726
561.79	9.338
562.13	8.976
562.47	8.964
562.81	8.557
563.15	8.817
563.48	8.984
563.82	8.722
564.16	8.722
564.50	9.274
564.84	9.127
565.17	8.687
565.51	9.192
565.85	9.398
566.19	9.684
566.52	9.198
566.86	8.723
567.20	10.230
567.54	9.451
567.88	9.492
568.21	9.060
568.55	8.908
568.89	8.598
569.23	8.792
569.56	8.743
569.90	8.969
570.24	8.831
570.57	8.366
570.91	8.603
571.25	8.917
571.59	8.367
571.92	8.571
572.26	8.778
572.60	8.812
572.93	8.888
573.27	8.476
573.61	8.259
573.95	8.914
574.28	8.364
574.62	8.439
574.96	8.375
575.29	8.664
575.63	8.521
575.97	8.333
576.30	8.249
576.64	8.120
576.98	8.360
577.31	8.296
577.65	8.432
577.98	8.595
578.32	8.440
578.66	8.424
578.99	8.574
579.33	8.013
579.67	8.217
580.00	8.036
580.34	8.341
580.67	8.286
581.01	8.250
581.35	8.437
581.68	8.187
582.02	8.537
582.35	8.045
582.69	8.372
583.02	8.753
583.36	8.675
583.70	8.705
584.03	8.755
584.37	8.498
584.70	8.300
585.04	8.228
585.37	8.138
585.71	8.829
586.04	8.283
586.38	8.099
586.72	8.343
587.05	8.185
587.39	8.249
587.72	8.654
588.06	8.473
588.39	8.516
588.73	8.781
589.06	8.728
589.40	8.794
589.73	8.746
590.07	8.667
590.40	8.782
590.73	8.477
591.07	8.525
591.40	8.969
591.74	9.470
592.07	8.694
592.41	8.323
592.74	9.032
593.08	8.788
593.41	8.388
593.75	8.408
594.08	8.375
594.41	8.946
594.75	8.683
595.08	8.346
595.42	8.923
595.75	8.085
596.09	8.731
596.42	8.592
596.75	8.711
597.09	8.682
597.42	8.686
597.75	8.105
598.09	8.586
598.42	8.440
598.76	8.389
599.09	8.445
599.42	8.727
599.76	8.267
600.09	9.008
600.42	8.507
600.76	9.077
601.09	8.318
601.42	8.271
601.76	8.917
602.09	7.935
602.42	8.683
602.76	8.101
603.09	8.629
603.42	9.025
603.76	8.656
604.09	8.851
604.42	8.535
604.76	8.068
605.09	8.906
605.42	9.220
605.75	7.848
606.09	8.842
606.42	8.044
606.75	8.502
607.09	8.690
607.42	8.363
607.75	8.168
608.08	9.535
608.42	8.420
608.75	8.925
609.08	8.573
609.41	9.068
609.75	8.435
610.08	9.216
610.41	8.627
610.74	8.946
611.07	9.229
611.41	7.766
611.74	9.100
612.07	9.452
612.40	8.262
612.73	8.993
613.07	8.035
613.40	8.484
613.73	8.665
614.06	8.677
614.39	9.076
614.72	7.654
615.06	8.587
615.39	8.736
615.72	8.311
616.05	8.504
616.38	8.532
616.71	8.348
617.05	8.926
617.38	8.916
617.71	8.170
618.04	7.888
618.37	8.428
618.70	9.583
619.03	9.682
619.36	9.514
619.69	9.261
620.03	8.196
620.36	8.228
620.69	8.256
621.02	7.839
621.35	7.823
621.68	9.590
622.01	8.738
622.34	9.084
622.67	9.141
623.00	9.181
623.33	8.657
623.66	8.124
623.99	8.571
624.32	9.077
624.65	8.977
624.99	9.485
625.32	9.656
625.65	8.625
625.98	8.764
626.31	9.217
626.64	7.782
626.97	9.247
627.30	9.362
627.63	8.204
627.96	9.225
628.29	8.548
628.62	9.456
628.95	8.563
629.28	8.271
629.61	8.145
629.94	9.452
630.26	9.642
630.59	8.643
630.92	9.510
631.25	9.980
631.58	8.254
631.91	7.553
632.24	8.778
632.57	7.556
632.90	8.621
633.23	9.930
633.56	8.421
633.89	9.198
634.22	7.910
634.55	9.615
634.88	9.311
635.20	9.238
635.53	8.015
635.86	7.053
636.19	8.303
636.52	8.722
636.85	8.183
637.18	7.250
637.51	9.418
637.83	6.791
638.16	8.553
638.49	7.724
638.82	10.039
639.15	9.468
639.48	6.485
639.81	9.820
640.13	8.108
640.46	7.835
640.79	7.843
641.12	10.437
641.45	10.043
641.77	8.832
642.10	8.912
642.43	8.498
642.76	8.504
643.09	8.889
643.41	10.476
643.74	9.221
644.07	9.984
644.40	8.428
644.73	10.396
645.05	5.509
645.38	10.596
645.71	9.107
646.04	11.261
646.36	8.726
646.69	8.304
647.02	8.303
647.35	7.581
647.67	7.664
648.00	7.909
648.33	10.287
648.66	8.065
648.98	8.917
649.31	9.846
649.64	10.312
649.96	8.006
650.29	8.852
650.62	8.950
650.94	7.251
651.27	8.666
651.60	7.266
651.92	8.390
652.25	9.349
652.58	6.303
652.90	8.507
653.23	8.548
653.56	8.027
653.88	8.361
654.21	8.389
654.54	8.970
654.86	8.507
