SpectraSuite Data File
++++++++++++++++++++++++++++++++++++
Date: Sat May 16 11:34:35 PDT 2015
User: schluterlab
Dark Spectrum Present: Yes
Reference Spectrum Present: Yes
Number of Sampled Component Spectra: 1
Spectrometers: USB2E3373
Integration Time (usec): 3000 (USB2E3373)
Spectra Averaged: 3 (USB2E3373)
Boxcar Smoothing: 0 (USB2E3373)
Correct for Electrical Dark: No (USB2E3373)
Strobe/Lamp Enabled: No (USB2E3373)
Correct for Detector Non-linearity: No (USB2E3373)
Correct for Stray Light: No (USB2E3373)
Number of Pixels in Processed Spectrum: 2048
>>>>>Begin Processed Spectral Data<<<<<
178.53	0.000
178.91	86.667
179.29	466.667
179.67	-900.000
180.04	-100.000
180.42	1400.000
180.80	200.000
181.18	500.000
181.56	-162.500
181.94	1300.000
182.31	400.000
182.69	-15.385
183.07	-900.000
183.45	1200.000
183.83	366.667
184.20	-242.857
184.58	-100.000
184.96	-350.000
185.34	162.500
185.72	-425.000
186.09	400.000
186.47	-200.000
186.85	-287.500
187.23	-162.500
187.61	-175.000
187.98	-250.000
188.36	-150.000
188.74	-212.500
189.12	1400.000
189.49	385.714
189.87	-50.000
190.25	450.000
190.63	-35.714
191.00	-222.222
191.38	400.000
191.76	-66.667
192.14	620.000
192.51	-340.000
192.89	-300.000
193.27	0.000
193.65	-155.556
194.02	-385.714
194.40	733.333
194.78	-220.000
195.15	-700.000
195.53	-109.091
195.91	-433.333
196.29	40.000
196.66	-766.667
197.04	1800.000
197.42	-275.000
197.79	0.000
198.17	-133.333
198.55	-700.000
198.92	-1400.000
199.30	275.000
199.68	-950.000
200.05	-144.444
200.43	-266.667
200.81	-2600.000
201.18	-100.000
201.56	428.571
201.94	-93.333
202.31	-27.273
202.69	-120.000
203.07	-150.000
203.44	566.667
203.82	-433.333
204.19	-375.000
204.57	-300.000
204.95	-600.000
205.32	-43.750
205.70	900.000
206.08	-2100.000
206.45	-72.222
206.83	-800.000
207.20	-150.000
207.58	-833.333
207.96	-666.667
208.33	-137.500
208.71	-111.111
209.08	210.000
209.46	-257.143
209.84	900.000
210.21	0.000
210.59	40.000
210.96	1200.000
211.34	-366.667
211.71	-166.667
212.09	275.000
212.46	1400.000
212.84	-2200.000
213.22	566.667
213.59	100.000
213.97	44.444
214.34	100.000
214.72	-150.000
215.09	-266.667
215.47	-150.000
215.84	-150.000
216.22	-130.000
216.59	33.333
216.97	-500.000
217.34	800.000
217.72	-100.000
218.09	-300.000
218.47	-171.429
218.84	228.571
219.22	-128.571
219.59	0.000
219.97	257.143
220.34	525.000
220.72	162.500
221.09	-69.231
221.47	0.000
221.84	366.667
222.22	-400.000
222.59	1900.000
222.97	-325.000
223.34	-600.000
223.72	-100.000
224.09	-78.571
224.46	-150.000
224.84	-100.000
225.21	-142.857
225.59	-63.636
225.96	-162.500
226.34	14.286
226.71	-88.889
227.08	-30.000
227.46	1300.000
227.83	-128.571
228.21	-287.500
228.58	200.000
228.95	-25.000
229.33	-2400.000
229.70	-320.000
230.08	-1000.000
230.45	-91.667
230.82	-266.667
231.20	-700.000
231.57	-650.000
231.95	600.000
232.32	-47.619
232.69	-88.889
233.07	-357.143
233.44	-1100.000
233.81	-20.000
234.19	-166.667
234.56	-75.000
234.93	-31.250
235.31	-328.571
235.68	-164.286
236.05	-58.824
236.43	-104.545
236.80	-9.677
237.17	-8.333
237.55	-104.762
237.92	-63.636
238.29	-42.857
238.67	-14.706
239.04	8.333
239.41	-58.065
239.79	-64.103
240.16	-42.857
240.53	-49.091
240.91	-38.462
241.28	-3.636
241.65	-24.615
242.02	-13.115
242.40	-11.475
242.77	-24.242
243.14	-28.814
243.51	-22.857
243.89	-7.595
244.26	-12.360
244.63	-17.895
245.00	-7.368
245.38	-8.475
245.75	-12.389
246.12	-4.000
246.49	-2.362
246.87	-4.065
247.24	-14.407
247.61	0.000
247.98	-4.225
248.36	-2.098
248.73	0.000
249.10	-2.548
249.47	-2.339
249.84	-2.273
250.22	-12.500
250.59	-2.825
250.96	0.524
251.33	0.000
251.70	-8.654
252.08	-2.370
252.45	-5.213
252.82	-2.857
253.19	-5.106
253.56	2.016
253.94	-0.844
254.31	-2.575
254.68	0.407
255.05	-8.468
255.42	0.794
255.79	-3.226
256.16	-1.569
256.54	-2.206
256.91	-3.788
257.28	-7.692
257.65	-1.064
258.02	2.830
258.39	-2.676
258.76	-3.716
259.14	-1.852
259.51	0.656
259.88	-1.524
260.25	1.553
260.62	-1.929
260.99	-2.374
261.36	-1.220
261.73	1.445
262.10	-1.111
262.47	0.855
262.85	1.429
263.22	-2.579
263.59	-1.538
263.96	0.580
264.33	-2.710
264.70	2.762
265.07	-0.275
265.44	-2.067
265.81	-2.067
266.18	-0.506
266.55	-2.206
266.92	2.267
267.29	0.484
267.66	1.235
268.03	0.966
268.40	-1.643
268.77	2.169
269.14	0.928
269.51	-2.759
269.88	-1.376
270.25	0.699
270.62	-2.746
270.99	-0.225
271.36	-0.466
271.73	-1.345
272.10	-0.458
272.47	0.222
272.84	4.000
273.21	0.000
273.58	0.000
273.95	-0.658
274.32	0.679
274.69	0.438
275.06	0.204
275.43	-3.348
275.80	2.037
276.17	0.000
276.54	2.648
276.91	-2.058
277.28	0.811
277.65	0.826
278.02	3.132
278.39	1.179
278.76	-0.797
279.13	0.988
279.50	1.193
279.87	0.634
280.23	1.822
280.60	-0.596
280.97	-0.388
281.34	1.161
281.71	0.385
282.08	1.613
282.45	-2.240
282.82	0.969
283.19	1.091
283.56	3.297
283.92	1.590
284.29	1.673
284.66	0.899
285.03	2.674
285.40	0.923
285.77	3.158
286.14	-0.181
286.51	-0.178
286.87	1.633
287.24	1.024
287.61	1.818
287.98	0.520
288.35	0.661
288.72	-0.170
289.08	-1.186
289.45	0.505
289.82	-2.249
290.19	1.642
290.56	-1.157
290.93	1.908
291.29	0.162
291.66	-1.449
292.03	0.471
292.40	3.163
292.77	2.640
293.13	0.325
293.50	0.594
293.87	-0.307
294.24	1.508
294.60	-0.303
294.97	2.276
295.34	-0.593
295.71	2.530
296.08	-2.304
296.44	0.429
296.81	0.285
297.18	1.268
297.55	0.424
297.91	3.208
298.28	-0.959
298.65	1.116
299.02	3.209
299.38	0.267
299.75	2.174
300.12	1.667
300.48	1.151
300.85	0.262
301.22	2.070
301.59	2.081
301.95	2.393
302.32	0.000
302.69	2.938
303.05	0.733
303.42	1.000
303.79	0.957
304.15	1.540
304.52	1.984
304.89	1.181
305.25	1.099
305.62	0.940
305.99	3.298
306.35	2.664
306.72	0.797
307.09	3.405
307.45	3.178
307.82	0.894
308.19	2.013
308.55	1.307
308.92	1.074
309.29	1.838
309.65	3.393
310.02	2.700
310.38	2.378
310.75	3.791
311.12	2.376
311.48	3.340
311.85	2.678
312.22	3.913
312.58	4.273
312.95	3.874
313.31	3.397
313.68	5.427
314.05	4.649
314.41	2.213
314.78	4.196
315.14	4.837
315.51	4.154
315.87	6.680
316.24	4.568
316.61	6.622
316.97	7.065
317.34	7.129
317.70	5.473
318.07	8.116
318.43	6.742
318.80	8.169
319.16	7.223
319.53	8.177
319.89	8.373
320.26	8.333
320.62	8.173
320.99	9.055
321.35	8.374
321.72	8.291
322.08	12.166
322.45	10.396
322.81	12.392
323.18	11.623
323.54	12.107
323.91	13.253
324.27	14.068
324.64	14.534
325.00	15.445
325.37	15.928
325.73	17.498
326.10	16.209
326.46	17.776
326.83	19.064
327.19	19.349
327.56	22.061
327.92	19.881
328.29	20.606
328.65	20.182
329.01	22.350
329.38	23.640
329.74	24.267
330.11	24.116
330.47	24.614
330.84	26.306
331.20	25.181
331.56	26.527
331.93	25.577
332.29	28.402
332.66	27.129
333.02	28.326
333.38	27.867
333.75	28.228
334.11	28.000
334.48	27.979
334.84	30.271
335.20	27.571
335.57	29.242
335.93	30.976
336.29	30.292
336.66	29.692
337.02	30.450
337.38	29.590
337.75	29.587
338.11	30.411
338.47	31.495
338.84	31.307
339.20	30.756
339.56	32.620
339.93	31.922
340.29	32.418
340.65	31.906
341.02	32.040
341.38	31.424
341.74	32.430
342.11	32.765
342.47	32.189
342.83	31.570
343.20	32.963
343.56	30.857
343.92	32.972
344.28	33.978
344.65	33.663
345.01	32.773
345.37	34.385
345.73	32.324
346.10	32.788
346.46	32.900
346.82	33.601
347.19	33.689
347.55	33.467
347.91	35.039
348.27	33.333
348.63	34.410
349.00	35.402
349.36	32.787
349.72	35.510
350.08	35.204
350.45	34.515
350.81	35.987
351.17	33.842
351.53	34.288
351.89	35.085
352.26	36.124
352.62	36.713
352.98	35.047
353.34	35.811
353.70	35.058
354.07	36.743
354.43	37.075
354.79	37.084
355.15	36.182
355.51	35.625
355.87	36.601
356.24	36.219
356.60	38.920
356.96	37.644
357.32	37.846
357.68	38.084
358.04	37.798
358.40	37.510
358.77	38.022
359.13	37.108
359.49	38.927
359.85	39.787
360.21	38.584
360.57	38.404
360.93	38.222
361.29	39.163
361.66	36.738
362.02	38.979
362.38	39.032
362.74	38.974
363.10	39.670
363.46	40.883
363.82	39.723
364.18	41.679
364.54	41.315
364.90	40.671
365.26	40.728
365.62	42.053
365.98	41.963
366.35	41.690
366.71	40.733
367.07	42.484
367.43	43.514
367.79	41.443
368.15	42.461
368.51	43.217
368.87	43.063
369.23	43.088
369.59	42.500
369.95	43.411
370.31	43.952
370.67	43.095
371.03	42.930
371.39	43.352
371.75	44.707
372.11	44.548
372.47	44.469
372.83	45.828
373.19	45.214
373.55	46.024
373.91	46.230
374.27	46.064
374.63	45.756
374.99	46.662
375.35	44.482
375.71	46.658
376.07	46.201
376.42	44.305
376.78	45.425
377.14	48.136
377.50	46.228
377.86	47.009
378.22	48.681
378.58	48.116
378.94	48.335
379.30	47.166
379.66	47.905
380.02	46.643
380.38	48.097
380.74	48.710
381.09	48.565
381.45	49.105
381.81	48.457
382.17	49.185
382.53	48.693
382.89	50.120
383.25	49.910
383.61	48.821
383.97	50.214
384.32	49.875
384.68	50.363
385.04	50.121
385.40	50.517
385.76	50.732
386.12	49.532
386.48	51.485
386.83	51.411
387.19	51.285
387.55	52.090
387.91	51.215
388.27	51.327
388.62	50.481
388.98	50.757
389.34	50.612
389.70	52.132
390.06	51.523
390.42	53.141
390.77	51.735
391.13	52.857
391.49	53.525
391.85	51.870
392.20	51.638
392.56	52.169
392.92	53.166
393.28	52.067
393.64	52.435
393.99	54.523
394.35	52.616
394.71	52.254
395.07	53.484
395.42	51.967
395.78	53.551
396.14	53.956
396.50	52.722
396.85	54.596
397.21	53.827
397.57	53.739
397.92	53.103
398.28	53.889
398.64	52.588
399.00	54.326
399.35	53.890
399.71	53.775
400.07	54.328
400.42	54.805
400.78	53.309
401.14	54.012
401.49	53.479
401.85	53.874
402.21	53.516
402.57	53.155
402.92	55.129
403.28	53.554
403.63	53.086
403.99	54.257
404.35	52.597
404.70	54.125
405.06	52.884
405.42	52.337
405.77	53.790
406.13	54.458
406.49	54.464
406.84	52.729
407.20	53.769
407.55	54.402
407.91	53.303
408.27	53.493
408.62	53.337
408.98	53.669
409.34	52.895
409.69	53.434
410.05	53.184
410.40	54.690
410.76	54.179
411.11	53.865
411.47	53.836
411.83	53.484
412.18	53.403
412.54	52.471
412.89	55.103
413.25	53.542
413.60	53.038
413.96	52.742
414.31	54.862
414.67	53.333
415.03	52.846
415.38	54.587
415.74	54.059
416.09	52.877
416.45	52.910
416.80	53.706
417.16	54.286
417.51	53.513
417.87	53.333
418.22	53.729
418.58	54.685
418.93	53.771
419.29	53.011
419.64	54.585
420.00	53.827
420.35	55.174
420.71	55.102
421.06	55.089
421.42	54.918
421.77	55.165
422.12	55.344
422.48	53.447
422.83	54.784
423.19	53.341
423.54	55.965
423.90	55.870
424.25	55.090
424.61	55.549
424.96	56.700
425.31	55.115
425.67	55.530
426.02	54.848
426.38	55.717
426.73	55.815
427.09	56.250
427.44	56.023
427.79	56.744
428.15	56.912
428.50	56.481
428.85	56.235
429.21	55.672
429.56	56.719
429.92	56.363
430.27	55.783
430.62	56.949
430.98	55.672
431.33	56.190
431.68	56.836
432.04	57.303
432.39	56.866
432.74	55.995
433.10	57.569
433.45	57.225
433.80	57.055
434.16	56.690
434.51	57.973
434.86	58.465
435.22	57.350
435.57	57.772
435.92	57.796
436.28	57.507
436.63	57.490
436.98	57.102
437.34	56.586
437.69	57.118
438.04	58.934
438.39	57.641
438.75	58.789
439.10	57.190
439.45	59.324
439.81	58.072
440.16	58.433
440.51	59.824
440.86	57.432
441.22	58.320
441.57	57.789
441.92	59.335
442.27	59.253
442.63	58.745
442.98	58.521
443.33	57.935
443.68	57.947
444.03	58.644
444.39	58.346
444.74	58.976
445.09	58.388
445.44	59.932
445.79	58.899
446.15	59.967
446.50	58.519
446.85	57.568
447.20	58.784
447.55	58.508
447.91	59.966
448.26	59.106
448.61	58.065
448.96	58.936
449.31	58.794
449.66	58.901
450.02	57.008
450.37	59.362
450.72	58.701
451.07	59.585
451.42	58.612
451.77	59.725
452.12	58.820
452.47	59.131
452.83	58.649
453.18	60.531
453.53	58.769
453.88	60.347
454.23	58.041
454.58	60.597
454.93	59.635
455.28	59.783
455.63	59.398
455.98	59.759
456.34	59.657
456.69	59.912
457.04	58.943
457.39	58.074
457.74	59.244
458.09	58.063
458.44	60.508
458.79	58.408
459.14	59.384
459.49	59.503
459.84	58.516
460.19	58.831
460.54	58.318
460.89	59.249
461.24	58.774
461.59	59.730
461.94	59.516
462.29	59.202
462.64	59.750
462.99	59.304
463.34	59.824
463.69	60.051
464.04	57.293
464.39	58.423
464.74	57.979
465.09	57.186
465.44	60.068
465.79	58.150
466.14	58.170
466.49	57.283
466.84	58.103
467.19	59.850
467.54	59.177
467.89	59.063
468.24	57.423
468.59	59.650
468.94	59.614
469.29	59.389
469.64	59.636
469.99	59.487
470.34	57.582
470.68	60.683
471.03	60.633
471.38	59.028
471.73	60.490
472.08	59.304
472.43	59.524
472.78	58.800
473.13	57.919
473.48	60.370
473.83	60.174
474.17	60.382
474.52	58.951
474.87	58.741
475.22	57.522
475.57	58.611
475.92	58.099
476.27	57.086
476.61	57.915
476.96	58.692
477.31	59.042
477.66	57.499
478.01	58.617
478.36	58.093
478.70	59.744
479.05	58.734
479.40	58.083
479.75	57.187
480.10	57.341
480.45	57.108
480.79	58.885
481.14	58.806
481.49	58.955
481.84	56.958
482.19	57.012
482.53	59.422
482.88	57.380
483.23	58.263
483.58	58.649
483.92	58.337
484.27	57.023
484.62	57.927
484.97	55.768
485.31	54.976
485.66	52.659
486.01	53.934
486.36	54.747
486.70	56.409
487.05	55.753
487.40	56.330
487.75	55.250
488.09	56.053
488.44	56.597
488.79	56.809
489.13	57.779
489.48	57.545
489.83	57.205
490.17	58.468
490.52	58.877
490.87	58.152
491.22	57.870
491.56	58.333
491.91	58.397
492.26	57.453
492.60	57.088
492.95	57.258
493.30	57.313
493.64	58.439
493.99	57.648
494.34	57.857
494.68	58.287
495.03	57.027
495.37	58.456
495.72	58.399
496.07	57.954
496.41	59.148
496.76	57.352
497.11	58.502
497.45	57.615
497.80	59.980
498.14	58.153
498.49	59.267
498.84	57.573
499.18	58.528
499.53	58.305
499.87	57.770
500.22	58.775
500.56	58.629
500.91	57.833
501.26	57.787
501.60	57.342
501.95	58.696
502.29	56.401
502.64	58.180
502.98	57.930
503.33	56.532
503.67	56.370
504.02	57.943
504.36	57.647
504.71	57.649
505.06	57.414
505.40	57.236
505.75	57.724
506.09	57.988
506.44	57.544
506.78	57.903
507.13	56.900
507.47	57.694
507.82	58.183
508.16	59.119
508.51	57.496
508.85	57.453
509.19	58.085
509.54	57.188
509.88	58.245
510.23	56.342
510.57	57.831
510.92	58.378
511.26	57.416
511.61	57.937
511.95	57.435
512.30	57.614
512.64	57.040
512.98	57.976
513.33	57.551
513.67	57.175
514.02	58.725
514.36	58.227
514.70	57.385
515.05	59.348
515.39	57.785
515.74	58.348
516.08	58.559
516.42	58.754
516.77	58.463
517.11	57.494
517.46	60.347
517.80	58.785
518.14	58.998
518.49	58.159
518.83	58.457
519.17	57.608
519.52	57.201
519.86	59.498
520.20	59.841
520.55	59.077
520.89	59.487
521.23	59.463
521.58	59.373
521.92	59.088
522.26	58.476
522.61	58.238
522.95	58.711
523.29	59.498
523.64	57.776
523.98	58.816
524.32	58.580
524.66	57.081
525.01	58.703
525.35	59.987
525.69	58.751
526.04	59.465
526.38	59.835
526.72	56.960
527.06	59.115
527.41	59.472
527.75	57.228
528.09	59.431
528.43	57.902
528.78	57.852
529.12	58.003
529.46	58.376
529.80	58.296
530.15	57.437
530.49	56.533
530.83	58.153
531.17	57.374
531.51	58.607
531.86	57.406
532.20	57.895
532.54	58.422
532.88	57.049
533.22	58.489
533.57	58.290
533.91	55.743
534.25	56.694
534.59	55.840
534.93	54.760
535.27	55.444
535.62	57.609
535.96	56.690
536.30	56.872
536.64	57.238
536.98	58.828
537.32	56.807
537.66	57.162
538.01	57.869
538.35	57.635
538.69	57.353
539.03	56.398
539.37	55.822
539.71	55.637
540.05	57.642
540.39	57.825
540.73	58.120
541.07	56.967
541.42	55.841
541.76	54.884
542.10	57.191
542.44	56.229
542.78	57.191
543.12	55.737
543.46	56.233
543.80	55.050
544.14	55.675
544.48	56.562
544.82	54.601
545.16	56.204
545.50	55.114
545.84	56.398
546.18	56.519
546.52	56.472
546.86	56.125
547.20	56.470
547.54	53.719
547.88	55.143
548.22	54.128
548.56	56.112
548.90	56.132
549.24	56.762
549.58	55.328
549.92	56.113
550.26	56.503
550.60	54.339
550.94	56.277
551.28	56.057
551.62	57.312
551.96	55.861
552.30	55.749
552.64	54.539
552.98	56.622
553.32	54.978
553.66	56.525
554.00	56.361
554.34	55.235
554.68	56.944
555.02	56.078
555.36	56.075
555.69	54.871
556.03	56.281
556.37	55.761
556.71	55.691
557.05	57.354
557.39	56.050
557.73	56.236
558.07	56.971
558.41	56.021
558.75	54.981
559.08	54.553
559.42	57.274
559.76	56.748
560.10	56.078
560.44	55.636
560.78	55.115
561.12	55.280
561.45	54.384
561.79	54.355
562.13	54.839
562.47	54.902
562.81	55.446
563.15	53.464
563.48	55.218
563.82	54.767
564.16	54.023
564.50	55.511
564.84	54.233
565.17	53.979
565.51	53.911
565.85	55.646
566.19	54.743
566.52	54.077
566.86	53.793
567.20	55.327
567.54	53.692
567.88	51.815
568.21	53.244
568.55	51.856
568.89	51.044
569.23	51.273
569.56	50.567
569.90	49.882
570.24	49.981
570.57	48.049
570.91	48.147
571.25	48.444
571.59	48.142
571.92	48.065
572.26	47.903
572.60	48.154
572.93	47.600
573.27	47.043
573.61	46.229
573.95	46.860
574.28	46.556
574.62	46.797
574.96	46.261
575.29	46.545
575.63	47.014
575.97	46.332
576.30	46.287
576.64	46.188
576.98	45.509
577.31	46.103
577.65	45.784
577.98	45.941
578.32	46.264
578.66	45.545
578.99	46.358
579.33	45.893
579.67	46.183
580.00	46.131
580.34	45.793
580.67	46.114
581.01	45.064
581.35	45.613
581.68	44.981
582.02	45.585
582.35	45.288
582.69	46.166
583.02	46.198
583.36	45.925
583.70	45.622
584.03	47.091
584.37	46.089
584.70	46.154
585.04	46.177
585.37	45.489
585.71	45.090
586.04	45.973
586.38	46.137
586.72	45.970
587.05	46.134
587.39	45.315
587.72	46.483
588.06	46.960
588.39	46.511
588.73	47.043
589.06	46.739
589.40	47.819
589.73	47.167
590.07	47.487
590.40	47.122
590.73	48.021
591.07	46.844
591.40	48.873
591.74	47.567
592.07	48.468
592.41	48.238
592.74	47.925
593.08	46.378
593.41	46.645
593.75	46.357
594.08	47.412
594.41	48.022
594.75	47.263
595.08	47.594
595.42	47.146
595.75	46.711
596.09	47.148
596.42	49.386
596.75	46.831
597.09	48.842
597.42	47.665
597.75	47.697
598.09	48.215
598.42	47.813
598.76	46.719
599.09	46.369
599.42	46.943
599.76	46.244
600.09	47.366
600.42	46.297
600.76	47.269
601.09	46.677
601.42	46.854
601.76	46.379
602.09	48.016
602.42	47.078
602.76	46.946
603.09	48.105
603.42	47.099
603.76	47.268
604.09	47.137
604.42	46.545
604.76	47.013
605.09	47.830
605.42	47.784
605.75	46.744
606.09	46.534
606.42	45.915
606.75	45.942
607.09	47.243
607.42	46.611
607.75	47.241
608.08	48.305
608.42	48.108
608.75	46.636
609.08	48.320
609.41	48.032
609.75	47.489
610.08	47.794
610.41	47.373
610.74	47.389
611.07	49.138
611.41	47.302
611.74	47.918
612.07	49.033
612.40	48.294
612.73	46.904
613.07	47.771
613.40	49.589
613.73	47.629
614.06	47.886
614.39	49.324
614.72	47.374
615.06	47.826
615.39	46.609
615.72	48.072
616.05	47.046
616.38	48.114
616.71	48.649
617.05	48.914
617.38	49.412
617.71	49.693
618.04	49.317
618.37	49.686
618.70	51.173
619.03	49.492
619.36	51.515
619.69	49.533
620.03	48.691
620.36	50.774
620.69	49.605
621.02	49.924
621.35	51.613
621.68	50.574
622.01	51.861
622.34	49.845
622.67	51.016
623.00	51.568
623.33	50.896
623.66	50.222
623.99	50.075
624.32	50.298
624.65	49.595
624.99	50.709
625.32	50.150
625.65	50.505
625.98	49.061
626.31	51.876
626.64	51.715
626.97	52.483
627.30	52.426
627.63	51.900
627.96	52.742
628.29	51.838
628.62	53.964
628.95	54.134
629.28	53.102
629.61	53.484
629.94	52.268
630.26	53.280
630.59	55.276
630.92	53.353
631.25	54.738
631.58	52.487
631.91	53.936
632.24	54.778
632.57	54.333
632.90	54.598
633.23	55.257
633.56	54.503
633.89	55.189
