SpectraSuite Data File
++++++++++++++++++++++++++++++++++++
Date: Sat May 16 11:33:12 PDT 2015
User: schluterlab
Dark Spectrum Present: Yes
Reference Spectrum Present: Yes
Number of Sampled Component Spectra: 1
Spectrometers: USB2E3373
Integration Time (usec): 3000 (USB2E3373)
Spectra Averaged: 3 (USB2E3373)
Boxcar Smoothing: 0 (USB2E3373)
Correct for Electrical Dark: No (USB2E3373)
Strobe/Lamp Enabled: No (USB2E3373)
Correct for Detector Non-linearity: No (USB2E3373)
Correct for Stray Light: No (USB2E3373)
Number of Pixels in Processed Spectrum: 2048
>>>>>Begin Processed Spectral Data<<<<<
178.53	0.000
178.91	146.667
179.29	633.333
179.67	-500.000
180.04	-84.615
180.42	1200.000
180.80	525.000
181.18	550.000
181.56	0.000
181.94	1000.000
182.31	350.000
182.69	-23.077
183.07	-700.000
183.45	1650.000
183.83	733.333
184.20	-171.429
184.58	-62.500
184.96	-525.000
185.34	118.750
185.72	-625.000
186.09	266.667
186.47	-175.000
186.85	-150.000
187.23	-112.500
187.61	-200.000
187.98	-450.000
188.36	-200.000
188.74	-175.000
189.12	1200.000
189.49	385.714
189.87	-41.667
190.25	150.000
190.63	-71.429
191.00	-133.333
191.38	500.000
191.76	-93.333
192.14	540.000
192.51	-340.000
192.89	-800.000
193.27	0.000
193.65	-111.111
194.02	-228.571
194.40	466.667
194.78	-180.000
195.15	-600.000
195.53	-118.182
195.91	-450.000
196.29	240.000
196.66	-433.333
197.04	1300.000
197.42	-225.000
197.79	33.333
198.17	-666.667
198.55	-450.000
198.92	-1300.000
199.30	225.000
199.68	-1250.000
200.05	-200.000
200.43	-277.778
200.81	-900.000
201.18	-158.333
201.56	300.000
201.94	-60.000
202.31	-9.091
202.69	-30.000
203.07	-50.000
203.44	466.667
203.82	-150.000
204.19	-525.000
204.57	-150.000
204.95	-1100.000
205.32	-31.250
205.70	2800.000
206.08	-2100.000
206.45	-61.111
206.83	-1200.000
207.20	0.000
207.58	-1000.000
207.96	-500.000
208.33	-287.500
208.71	-211.111
209.08	200.000
209.46	-142.857
209.84	600.000
210.21	0.000
210.59	-40.000
210.96	-100.000
211.34	-33.333
211.71	-500.000
212.09	325.000
212.46	1150.000
212.84	-2200.000
213.22	700.000
213.59	216.667
213.97	-55.556
214.34	160.000
214.72	-140.000
215.09	-200.000
215.47	-133.333
215.84	-70.000
216.22	-70.000
216.59	-26.667
216.97	-475.000
217.34	1000.000
217.72	-300.000
218.09	-300.000
218.47	-257.143
218.84	228.571
219.22	-85.714
219.59	0.000
219.97	328.571
220.34	575.000
220.72	287.500
221.09	-76.923
221.47	0.000
221.84	300.000
222.22	-350.000
222.59	1100.000
222.97	-12.500
223.34	-650.000
223.72	-533.333
224.09	-35.714
224.46	-250.000
224.84	-78.571
225.21	-142.857
225.59	-63.636
225.96	-100.000
226.34	-128.571
226.71	-188.889
227.08	0.000
227.46	700.000
227.83	-28.571
228.21	-250.000
228.58	1000.000
228.95	-93.750
229.33	-1500.000
229.70	-140.000
230.08	-1150.000
230.45	-41.667
230.82	-266.667
231.20	-1000.000
231.57	-250.000
231.95	2000.000
232.32	9.524
232.69	-211.111
233.07	-257.143
233.44	-1050.000
233.81	-26.667
234.19	-66.667
234.56	-50.000
234.93	6.250
235.31	-257.143
235.68	-57.143
236.05	-58.824
236.43	-45.455
236.80	-3.226
237.17	-8.333
237.55	-90.476
237.92	-63.636
238.29	-60.000
238.67	0.000
239.04	-36.111
239.41	-9.677
239.79	-61.538
240.16	-7.143
240.53	-16.364
240.91	-17.949
241.28	0.000
241.65	-3.077
242.02	-1.639
242.40	-13.115
242.77	-4.545
243.14	-28.814
243.51	-25.714
243.89	2.532
244.26	-5.618
244.63	-1.053
245.00	-1.053
245.38	-1.695
245.75	4.425
246.12	-4.000
246.49	0.787
246.87	-12.195
247.24	-9.322
247.61	-11.017
247.98	-3.521
248.36	-10.490
248.73	3.797
249.10	-1.274
249.47	0.000
249.84	-0.568
250.22	-8.333
250.59	6.215
250.96	-1.047
251.33	5.213
251.70	0.481
252.08	2.370
252.45	-2.844
252.82	3.333
253.19	0.851
253.56	0.806
253.94	2.954
254.31	-0.858
254.68	0.813
255.05	-1.210
255.42	4.365
255.79	-0.358
256.16	0.784
256.54	-2.574
256.91	3.788
257.28	-3.663
257.65	1.773
258.02	8.176
258.39	2.007
258.76	-1.351
259.14	2.160
259.51	3.279
259.88	1.220
260.25	1.863
260.62	0.000
260.99	2.374
261.36	4.878
261.73	2.890
262.10	5.556
262.47	1.425
262.85	5.714
263.22	-1.433
263.59	-0.308
263.96	1.739
264.33	4.336
264.70	3.591
265.07	2.747
265.44	2.842
265.81	1.550
266.18	2.278
266.55	1.716
266.92	4.282
267.29	2.663
267.66	1.481
268.03	5.314
268.40	3.052
268.77	5.542
269.14	5.800
269.51	4.828
269.88	2.752
270.25	1.865
270.62	2.517
270.99	4.955
271.36	3.730
271.73	1.121
272.10	5.034
272.47	-0.667
272.84	5.333
273.21	4.358
273.58	3.516
273.95	3.728
274.32	4.299
274.69	4.814
275.06	6.544
275.43	2.232
275.80	7.128
276.17	4.393
276.54	4.481
276.91	2.675
277.28	3.651
277.65	3.719
278.02	3.549
278.39	5.305
278.76	3.187
279.13	4.545
279.50	5.169
279.87	1.480
280.23	4.251
280.60	4.771
280.97	2.330
281.34	4.836
281.71	5.192
282.08	4.234
282.45	0.815
282.82	2.326
283.19	4.545
283.56	6.227
283.92	5.300
284.29	2.045
284.66	4.496
285.03	5.882
285.40	2.214
285.77	5.614
286.14	2.708
286.51	4.440
286.87	5.445
287.24	5.631
287.61	4.463
287.98	2.426
288.35	0.992
288.72	3.565
289.08	1.525
289.45	2.189
289.82	2.941
290.19	4.269
290.56	3.967
290.93	4.293
291.29	2.593
291.66	2.576
292.03	5.024
292.40	4.669
292.77	3.727
293.13	3.902
293.50	3.418
293.87	3.988
294.24	3.922
294.60	3.182
294.97	4.097
295.34	2.519
295.71	4.613
296.08	2.458
296.44	5.150
296.81	3.846
297.18	4.648
297.55	3.531
297.91	5.160
298.28	3.425
298.65	3.905
299.02	6.551
299.38	3.610
299.75	4.348
300.12	4.231
300.48	5.499
300.85	4.456
301.22	5.045
301.59	5.462
301.95	6.297
302.32	2.999
302.69	4.896
303.05	3.297
303.42	2.625
303.79	5.263
304.15	4.265
304.52	4.667
304.89	5.313
305.25	5.128
305.62	2.938
305.99	6.243
306.35	5.660
306.72	3.189
307.09	5.448
307.45	6.016
307.82	4.134
308.19	4.698
308.55	5.229
308.92	5.156
309.29	5.297
309.65	5.726
310.02	4.320
310.38	5.189
310.75	6.557
311.12	6.612
311.48	5.950
311.85	6.282
312.22	5.561
312.58	7.528
312.95	6.320
313.31	6.693
313.68	8.241
314.05	7.814
314.41	6.740
314.78	6.993
315.14	8.095
315.51	7.700
315.87	7.744
316.24	8.746
316.61	9.501
316.97	8.657
317.34	8.863
317.70	7.514
318.07	10.821
318.43	8.614
318.80	9.577
319.16	8.630
319.53	9.868
319.89	8.278
320.26	10.588
320.62	9.135
320.99	9.851
321.35	9.360
321.72	11.259
322.08	11.869
322.45	10.297
322.81	11.623
323.18	11.816
323.54	12.569
323.91	12.234
324.27	13.023
324.64	12.888
325.00	12.129
325.37	13.213
325.73	13.911
326.10	12.666
326.46	14.711
326.83	13.447
327.19	14.178
327.56	14.566
327.92	14.444
328.29	14.199
328.65	13.364
329.01	14.929
329.38	14.362
329.74	14.835
330.11	13.962
330.47	14.805
330.84	16.132
331.20	14.711
331.56	15.406
331.93	15.631
332.29	16.347
332.66	14.662
333.02	15.656
333.38	16.487
333.75	16.385
334.11	15.644
334.48	15.357
334.84	18.023
335.20	16.046
335.57	16.065
335.93	16.741
336.29	16.298
336.66	14.802
337.02	16.577
337.38	15.775
337.75	17.120
338.11	15.474
338.47	15.747
338.84	16.425
339.20	15.641
339.56	16.488
339.93	16.314
340.29	16.032
340.65	15.559
341.02	16.273
341.38	15.417
341.74	17.019
342.11	15.102
342.47	15.880
342.83	15.701
343.20	14.432
343.56	14.449
343.92	16.277
344.28	16.232
344.65	13.944
345.01	16.218
345.37	15.449
345.73	14.648
346.10	15.209
346.46	13.972
346.82	14.595
347.19	14.544
347.55	14.928
347.91	15.433
348.27	14.877
348.63	15.832
349.00	15.036
349.36	14.130
349.72	15.446
350.08	15.397
350.45	15.366
350.81	14.889
351.17	15.273
351.53	13.842
351.89	15.198
352.26	14.341
352.62	15.054
352.98	14.241
353.34	15.268
353.70	13.359
354.07	14.555
354.43	15.415
354.79	14.897
355.15	13.898
355.51	14.219
355.87	14.941
356.24	14.774
356.60	15.310
356.96	14.627
357.32	14.727
357.68	14.636
358.04	14.473
358.40	14.230
358.77	14.142
359.13	14.308
359.49	14.512
359.85	13.872
360.21	14.155
360.57	14.684
360.93	14.370
361.29	14.574
361.66	13.720
362.02	13.831
362.38	14.894
362.74	14.432
363.10	14.634
363.46	15.456
363.82	13.338
364.18	14.038
364.54	15.368
364.90	13.976
365.26	13.481
365.62	14.398
365.98	14.936
366.35	14.366
366.71	12.826
367.07	14.185
367.43	14.619
367.79	14.158
368.15	13.869
368.51	14.336
368.87	15.247
369.23	13.895
369.59	14.097
369.95	15.081
370.31	14.346
370.67	13.087
371.03	14.067
371.39	13.861
371.75	14.020
372.11	14.634
372.47	13.883
372.83	15.229
373.19	13.786
373.55	15.482
373.91	12.518
374.27	14.853
374.63	14.907
374.99	14.812
375.35	14.536
375.71	15.260
376.07	14.442
376.42	13.179
376.78	14.248
377.14	14.034
377.50	14.894
377.86	14.044
378.22	14.133
378.58	14.145
378.94	13.564
379.30	14.625
379.66	13.418
380.02	13.844
380.38	14.018
380.74	13.365
381.09	14.704
381.45	14.021
381.81	13.370
382.17	14.286
382.53	13.860
382.89	14.055
383.25	13.365
383.61	13.325
383.97	13.595
384.32	13.204
384.68	14.631
385.04	13.527
385.40	13.755
385.76	12.988
386.12	13.741
386.48	13.738
386.83	14.110
387.19	13.329
387.55	13.507
387.91	13.693
388.27	13.148
388.62	13.161
388.98	13.446
389.34	13.097
389.70	12.789
390.06	13.362
390.42	13.590
390.77	12.934
391.13	13.540
391.49	13.100
391.85	12.905
392.20	12.925
392.56	12.401
392.92	12.436
393.28	12.400
393.64	12.508
393.99	13.477
394.35	13.078
394.71	12.909
395.07	13.183
395.42	12.634
395.78	12.131
396.14	12.523
396.50	12.416
396.85	12.585
397.21	13.062
397.57	12.948
397.92	13.115
398.28	12.833
398.64	12.790
399.00	12.247
399.35	11.725
399.71	13.066
400.07	12.716
400.42	12.895
400.78	11.926
401.14	12.455
401.49	11.851
401.85	12.203
402.21	12.396
402.57	12.682
402.92	12.838
403.28	12.316
403.63	12.582
403.99	12.306
404.35	12.077
404.70	12.229
405.06	12.630
405.42	10.947
405.77	12.104
406.13	11.300
406.49	11.684
406.84	11.818
407.20	13.015
407.55	11.716
407.91	11.399
408.27	11.887
408.62	11.365
408.98	11.583
409.34	12.066
409.69	11.657
410.05	11.340
410.40	11.588
410.76	11.737
411.11	12.469
411.47	11.317
411.83	11.491
412.18	11.386
412.54	10.921
412.89	11.179
413.25	10.508
413.60	10.996
413.96	10.967
414.31	11.743
414.67	11.175
415.03	11.578
415.38	11.256
415.74	11.405
416.09	11.893
416.45	11.111
416.80	11.769
417.16	11.429
417.51	12.607
417.87	11.715
418.22	11.631
418.58	11.810
418.93	12.078
419.29	12.045
419.64	11.495
420.00	11.725
420.35	11.059
420.71	12.005
421.06	12.367
421.42	11.827
421.77	12.116
422.12	12.311
422.48	12.293
422.83	12.301
423.19	12.639
423.54	12.565
423.90	12.666
424.25	13.009
424.61	12.364
424.96	12.990
425.31	13.918
425.67	12.206
426.02	11.589
426.38	12.946
426.73	13.326
427.09	13.113
427.44	12.443
427.79	12.791
428.15	13.585
428.50	14.487
428.85	13.549
429.21	12.950
429.56	13.594
429.92	13.727
430.27	13.410
430.62	13.636
430.98	13.016
431.33	13.127
431.68	13.298
432.04	14.158
432.39	14.074
432.74	13.549
433.10	14.350
433.45	14.105
433.80	14.054
434.16	14.078
434.51	13.479
434.86	14.763
435.22	14.922
435.57	14.443
435.92	13.658
436.28	14.837
436.63	14.924
436.98	14.089
437.34	14.589
437.69	14.586
438.04	15.031
438.39	15.403
438.75	15.250
439.10	14.659
439.45	14.303
439.81	14.639
440.16	15.219
440.51	15.059
440.86	15.211
441.22	15.091
441.57	15.105
441.92	15.652
442.27	15.260
442.63	15.719
442.98	15.519
443.33	15.047
443.68	15.842
444.03	15.668
444.39	15.908
444.74	16.024
445.09	15.625
445.44	16.095
445.79	15.961
446.15	16.977
446.50	15.297
446.85	15.444
447.20	15.679
447.55	16.906
447.91	15.834
448.26	15.866
448.61	16.072
448.96	16.919
449.31	16.460
449.66	16.485
450.02	14.737
450.37	15.246
450.72	16.667
451.07	16.028
451.42	16.047
451.77	16.697
452.12	16.687
452.47	16.247
452.83	15.725
453.18	17.015
453.53	16.045
453.88	16.687
454.23	15.115
454.58	16.470
454.93	17.191
455.28	16.444
455.63	16.769
455.98	17.470
456.34	15.438
456.69	17.011
457.04	16.595
457.39	16.986
457.74	17.484
458.09	16.705
458.44	16.859
458.79	16.984
459.14	16.942
459.49	17.584
459.84	16.358
460.19	17.661
460.54	16.757
460.89	17.040
461.24	17.486
461.59	17.233
461.94	16.805
462.29	18.106
462.64	17.457
462.99	17.604
463.34	16.813
463.69	17.176
464.04	16.462
464.39	16.547
464.74	17.849
465.09	16.176
465.44	16.920
465.79	17.992
466.14	17.434
466.49	17.214
466.84	17.707
467.19	17.456
467.54	17.025
467.89	17.633
468.24	17.162
468.59	17.489
468.94	16.013
469.29	16.244
469.64	16.981
469.99	17.286
470.34	16.900
470.68	17.733
471.03	18.032
471.38	16.458
471.73	17.343
472.08	18.005
472.43	16.602
472.78	17.733
473.13	15.971
473.48	17.039
473.83	16.811
474.17	16.497
474.52	17.327
474.87	17.133
475.22	16.873
475.57	16.500
475.92	17.819
476.27	16.857
476.61	16.056
476.96	16.825
477.31	16.685
477.66	17.266
478.01	17.720
478.36	17.444
478.70	16.925
479.05	17.307
479.40	16.891
479.75	16.871
480.10	16.915
480.45	16.683
480.79	17.670
481.14	16.809
481.49	16.796
481.84	17.106
482.19	18.319
482.53	16.809
482.88	17.181
483.23	16.808
483.58	17.068
483.92	16.579
484.27	16.837
484.62	16.760
484.97	16.524
485.31	15.872
485.66	15.910
486.01	15.809
486.36	16.299
486.70	16.763
487.05	16.857
487.40	16.213
487.75	17.153
488.09	16.739
488.44	16.779
488.79	17.156
489.13	17.003
489.48	17.129
489.83	17.511
490.17	17.196
490.52	16.712
490.87	16.028
491.22	15.880
491.56	16.574
491.91	16.603
492.26	15.802
492.60	16.223
492.95	15.992
493.30	16.293
493.64	15.844
493.99	16.109
494.34	16.381
494.68	16.854
495.03	16.348
495.37	16.077
495.72	16.699
496.07	16.659
496.41	16.582
496.76	16.164
497.11	16.439
497.45	16.379
497.80	16.008
498.14	16.012
498.49	15.671
498.84	16.262
499.18	16.179
499.53	16.269
499.87	15.251
500.22	16.373
500.56	16.208
500.91	15.616
501.26	16.788
501.60	16.370
501.95	16.763
502.29	15.777
502.64	15.842
502.98	16.723
503.33	15.648
503.67	16.236
504.02	15.983
504.36	16.373
504.71	15.552
505.06	15.726
505.40	16.168
505.75	15.498
506.09	15.824
506.44	15.338
506.78	16.207
507.13	15.448
507.47	16.693
507.82	15.798
508.16	15.699
508.51	14.992
508.85	16.304
509.19	14.914
509.54	15.063
509.88	15.160
510.23	15.566
510.57	15.608
510.92	15.682
511.26	15.524
511.61	15.659
511.95	15.733
512.30	15.503
512.64	14.246
512.98	15.072
513.33	15.596
513.67	15.466
514.02	15.213
514.36	14.349
514.70	15.280
515.05	15.323
515.39	14.994
515.74	15.474
516.08	14.582
516.42	15.354
516.77	14.789
517.11	14.874
517.46	14.892
517.80	14.741
518.14	14.795
518.49	15.063
518.83	14.896
519.17	15.157
519.52	14.228
519.86	15.233
520.20	15.587
520.55	14.154
520.89	14.465
521.23	14.530
521.58	13.918
521.92	15.326
522.26	14.794
522.61	13.942
522.95	14.422
523.29	14.608
523.64	14.054
523.98	14.831
524.32	14.896
524.66	14.037
525.01	12.909
525.35	14.046
525.69	13.598
526.04	14.426
526.38	13.877
526.72	12.963
527.06	13.607
527.41	13.531
527.75	13.267
528.09	14.163
528.43	13.639
528.78	13.191
529.12	14.917
529.46	14.626
529.80	13.880
530.15	13.780
530.49	13.325
530.83	14.669
531.17	12.795
531.51	13.999
531.86	14.483
532.20	12.821
532.54	14.104
532.88	12.451
533.22	13.971
533.57	13.185
533.91	12.921
534.25	13.011
534.59	12.992
534.93	12.570
535.27	12.838
535.62	12.788
535.96	13.575
536.30	11.976
536.64	13.479
536.98	12.359
537.32	13.131
537.66	12.763
538.01	12.509
538.35	12.905
538.69	11.965
539.03	13.406
539.37	11.976
539.71	13.142
540.05	11.309
540.39	12.673
540.73	12.094
541.07	13.320
541.42	11.816
541.76	11.761
542.10	14.045
542.44	13.125
542.78	11.601
543.12	12.288
543.46	11.301
543.80	11.572
544.14	11.954
544.48	12.992
544.82	11.367
545.16	12.475
545.50	10.834
545.84	11.474
546.18	12.136
546.52	10.882
546.86	10.826
547.20	11.533
547.54	10.813
547.88	12.276
548.22	11.337
548.56	10.822
548.90	11.590
549.24	11.212
549.58	11.785
549.92	10.883
550.26	12.139
550.60	11.024
550.94	11.095
551.28	11.889
551.62	11.004
551.96	11.505
552.30	11.429
552.64	10.556
552.98	11.493
553.32	11.039
553.66	10.743
554.00	11.372
554.34	10.903
554.68	10.526
555.02	11.505
555.36	10.712
555.69	10.244
556.03	10.807
556.37	11.095
556.71	11.739
557.05	9.978
557.39	10.765
557.73	11.233
558.07	11.605
558.41	11.070
558.75	10.646
559.08	10.117
559.42	10.720
559.76	10.123
560.10	11.335
560.44	10.910
560.78	11.204
561.12	10.076
561.45	10.822
561.79	10.383
562.13	10.028
562.47	11.064
562.81	10.396
563.15	10.287
563.48	10.366
563.82	10.277
564.16	10.210
564.50	10.215
564.84	10.780
565.17	9.682
565.51	11.278
565.85	9.872
566.19	10.540
566.52	9.850
566.86	9.861
567.20	10.533
567.54	10.278
567.88	9.883
568.21	10.067
568.55	10.180
568.89	9.791
569.23	9.764
569.56	9.458
569.90	9.953
570.24	9.921
570.57	9.631
570.91	9.589
571.25	10.052
571.59	9.460
571.92	9.643
572.26	9.856
572.60	9.898
572.93	9.477
573.27	9.695
573.61	8.976
573.95	9.313
574.28	9.089
574.62	9.456
574.96	9.322
575.29	9.375
575.63	9.318
575.97	9.088
576.30	8.934
576.64	9.504
576.98	9.132
577.31	9.654
577.65	9.215
577.98	9.155
578.32	8.819
578.66	9.308
578.99	9.004
579.33	8.968
579.67	9.105
580.00	8.904
580.34	9.418
580.67	8.997
581.01	9.072
581.35	8.984
581.68	8.760
582.02	9.124
582.35	8.914
582.69	8.956
583.02	8.952
583.36	9.152
583.70	8.961
584.03	9.537
584.37	9.283
584.70	8.644
585.04	8.911
585.37	8.640
585.71	9.240
586.04	9.043
586.38	8.821
586.72	9.470
587.05	8.723
587.39	8.850
587.72	9.212
588.06	8.996
588.39	9.342
588.73	9.475
589.06	9.303
589.40	9.550
589.73	9.136
590.07	8.849
590.40	9.188
590.73	8.597
591.07	8.648
591.40	8.839
591.74	9.123
592.07	8.964
592.41	9.469
592.74	8.878
593.08	9.509
593.41	7.993
593.75	8.408
594.08	8.735
594.41	8.872
594.75	9.173
595.08	8.120
595.42	8.887
595.75	8.710
596.09	8.304
596.42	9.165
596.75	8.021
597.09	8.949
597.42	8.861
597.75	8.592
598.09	8.812
598.42	8.838
598.76	8.389
599.09	8.524
599.42	8.420
599.76	8.494
600.09	9.351
600.42	8.811
600.76	8.889
601.09	8.621
601.42	7.915
601.76	8.840
602.09	8.834
602.42	8.642
602.76	8.725
603.09	8.871
603.42	8.662
603.76	8.416
604.09	8.290
604.42	8.368
604.76	8.984
605.09	9.132
605.42	8.599
605.75	7.719
606.09	8.219
606.42	8.504
606.75	8.931
607.09	8.955
607.42	8.407
607.75	8.300
608.08	8.766
608.42	8.231
608.75	7.477
609.08	8.768
609.41	8.271
609.75	8.191
610.08	8.873
610.41	8.096
610.74	8.801
611.07	8.773
611.41	8.926
611.74	8.997
612.07	8.002
612.40	8.316
612.73	8.293
613.07	7.815
613.40	8.867
613.73	8.283
614.06	8.677
614.39	8.343
614.72	7.933
615.06	7.772
615.39	8.302
615.72	7.930
616.05	7.454
616.38	7.255
616.71	8.829
617.05	8.504
617.38	8.731
617.71	7.862
618.04	7.888
618.37	7.484
618.70	8.540
619.03	7.448
619.36	7.822
619.69	8.902
620.03	8.333
620.36	7.806
620.69	7.968
621.02	8.219
621.35	7.742
621.68	7.295
622.01	8.819
622.34	7.997
622.67	7.656
623.00	7.881
623.33	9.030
623.66	8.346
623.99	7.744
624.32	7.961
624.65	8.168
624.99	8.140
625.32	8.159
625.65	8.081
625.98	7.903
626.31	7.993
626.64	8.870
626.97	8.134
627.30	8.255
627.63	7.081
627.96	6.876
628.29	7.261
628.62	7.832
628.95	8.858
629.28	7.613
629.61	7.164
629.94	8.223
630.26	8.151
630.59	7.337
630.92	8.208
631.25	8.770
631.58	7.090
631.91	6.170
632.24	7.444
632.57	7.000
632.90	8.046
633.23	6.893
633.56	6.082
633.89	7.783
634.22	5.785
634.55	7.692
634.88	8.102
635.20	6.367
635.53	7.506
635.86	7.431
636.19	8.425
636.52	7.527
636.85	8.063
637.18	5.250
637.51	8.798
637.83	6.391
638.16	6.316
638.49	7.034
638.82	7.079
639.15	7.393
639.48	5.707
639.81	7.192
640.13	7.973
