SpectraSuite Data File
++++++++++++++++++++++++++++++++++++
Date: Sat May 16 11:46:03 PDT 2015
User: schluterlab
Dark Spectrum Present: Yes
Reference Spectrum Present: Yes
Number of Sampled Component Spectra: 1
Spectrometers: USB2E3373
Integration Time (usec): 3000 (USB2E3373)
Spectra Averaged: 3 (USB2E3373)
Boxcar Smoothing: 0 (USB2E3373)
Correct for Electrical Dark: No (USB2E3373)
Strobe/Lamp Enabled: No (USB2E3373)
Correct for Detector Non-linearity: No (USB2E3373)
Correct for Stray Light: No (USB2E3373)
Number of Pixels in Processed Spectrum: 2048
>>>>>Begin Processed Spectral Data<<<<<
178.53	0.000
178.91	140.000
179.29	533.333
179.67	-1600.000
180.04	15.385
180.42	1200.000
180.80	175.000
181.18	475.000
181.56	-162.500
181.94	1600.000
182.31	350.000
182.69	-38.462
183.07	-766.667
183.45	950.000
183.83	466.667
184.20	-200.000
184.58	-100.000
184.96	-250.000
185.34	118.750
185.72	-375.000
186.09	300.000
186.47	-187.500
186.85	-137.500
187.23	-12.500
187.61	-50.000
187.98	-225.000
188.36	-150.000
188.74	-125.000
189.12	1800.000
189.49	400.000
189.87	-83.333
190.25	175.000
190.63	-28.571
191.00	-255.556
191.38	200.000
191.76	-20.000
192.14	340.000
192.51	-160.000
192.89	-633.333
193.27	0.000
193.65	-111.111
194.02	-257.143
194.40	700.000
194.78	-80.000
195.15	-800.000
195.53	-190.909
195.91	-366.667
196.29	60.000
196.66	-500.000
197.04	1800.000
197.42	-200.000
197.79	60.000
198.17	-100.000
198.55	-100.000
198.92	-1300.000
199.30	75.000
199.68	-700.000
200.05	-133.333
200.43	-133.333
200.81	-1300.000
201.18	-91.667
201.56	242.857
201.94	-60.000
202.31	31.818
202.69	70.000
203.07	-20.000
203.44	433.333
203.82	-216.667
204.19	-350.000
204.57	-425.000
204.95	-500.000
205.32	-93.750
205.70	1000.000
206.08	-1800.000
206.45	-33.333
206.83	-750.000
207.20	-100.000
207.58	-533.333
207.96	-266.667
208.33	-12.500
208.71	-144.444
209.08	230.000
209.46	-100.000
209.84	750.000
210.21	0.000
210.59	-10.000
210.96	1300.000
211.34	-216.667
211.71	-66.667
212.09	300.000
212.46	650.000
212.84	-2300.000
213.22	566.667
213.59	141.667
213.97	-77.778
214.34	120.000
214.72	-20.000
215.09	-633.333
215.47	-183.333
215.84	-10.000
216.22	-90.000
216.59	-40.000
216.97	-375.000
217.34	950.000
217.72	-85.714
218.09	-283.333
218.47	-371.429
218.84	85.714
219.22	-200.000
219.59	0.000
219.97	328.571
220.34	350.000
220.72	212.500
221.09	-23.077
221.47	0.000
221.84	466.667
222.22	-300.000
222.59	500.000
222.97	-287.500
223.34	-900.000
223.72	-266.667
224.09	-100.000
224.46	-150.000
224.84	-14.286
225.21	-142.857
225.59	-45.455
225.96	-87.500
226.34	-128.571
226.71	-122.222
227.08	-20.000
227.46	2200.000
227.83	-171.429
228.21	-200.000
228.58	700.000
228.95	-93.750
229.33	-2400.000
229.70	-200.000
230.08	-400.000
230.45	25.000
230.82	33.333
231.20	-400.000
231.57	-800.000
231.95	500.000
232.32	0.000
232.69	-133.333
233.07	-242.857
233.44	-900.000
233.81	-93.333
234.19	-66.667
234.56	-50.000
234.93	-3.125
235.31	-57.143
235.68	-121.429
236.05	-47.059
236.43	4.545
236.80	0.000
237.17	-29.167
237.55	-52.381
237.92	-31.818
238.29	-20.000
238.67	2.941
239.04	-11.111
239.41	6.452
239.79	-23.077
240.16	-16.667
240.53	-9.091
240.91	15.385
241.28	12.727
241.65	24.615
242.02	22.951
242.40	4.918
242.77	22.727
243.14	15.254
243.51	0.000
243.89	26.582
244.26	20.225
244.63	21.053
245.00	21.053
245.38	17.797
245.75	15.929
246.12	23.200
246.49	24.409
246.87	21.138
247.24	20.339
247.61	24.576
247.98	28.873
248.36	16.783
248.73	20.886
249.10	29.936
249.47	25.146
249.84	26.136
250.22	13.690
250.59	19.209
250.96	19.895
251.33	21.801
251.70	22.596
252.08	24.171
252.45	21.801
252.82	25.714
253.19	23.404
253.56	25.000
253.94	18.143
254.31	25.751
254.68	25.203
255.05	27.419
255.42	26.190
255.79	21.505
256.16	23.529
256.54	24.632
256.91	25.758
257.28	25.641
257.65	26.241
258.02	27.987
258.39	22.742
258.76	22.297
259.14	23.148
259.51	28.197
259.88	25.915
260.25	31.056
260.62	22.186
260.99	22.849
261.36	25.000
261.73	29.480
262.10	27.222
262.47	24.786
262.85	26.000
263.22	24.642
263.59	22.462
263.96	23.478
264.33	25.203
264.70	26.796
265.07	25.275
265.44	26.098
265.81	25.323
266.18	24.557
266.55	27.206
266.92	27.204
267.29	24.939
267.66	27.654
268.03	27.053
268.40	27.934
268.77	27.952
269.14	24.362
269.51	25.287
269.88	24.312
270.25	21.911
270.62	25.400
270.99	25.450
271.36	25.874
271.73	26.906
272.10	27.689
272.47	25.556
272.84	28.444
273.21	26.147
273.58	25.275
273.95	23.465
274.32	25.113
274.69	27.352
275.06	26.789
275.43	24.107
275.80	26.884
276.17	25.105
276.54	25.866
276.91	23.868
277.28	26.775
277.65	25.207
278.02	22.547
278.39	26.130
278.76	26.494
279.13	24.506
279.50	27.237
279.87	26.427
280.23	26.316
280.60	27.237
280.97	24.660
281.34	24.952
281.71	26.923
282.08	23.589
282.45	24.236
282.82	23.837
283.19	25.818
283.56	27.289
283.92	23.852
284.29	26.022
284.66	24.460
285.03	26.025
285.40	26.753
285.77	24.561
286.14	24.729
286.51	23.091
286.87	25.771
287.24	25.256
287.61	26.116
287.98	23.917
288.35	23.471
288.72	23.599
289.08	20.339
289.45	23.737
289.82	23.875
290.19	24.795
290.56	20.000
290.93	21.304
291.29	23.339
291.66	21.739
292.03	23.077
292.40	21.084
292.77	23.292
293.13	23.902
293.50	20.654
293.87	22.546
294.24	23.077
294.60	19.697
294.97	22.307
295.34	21.185
295.71	21.429
296.08	20.891
296.44	19.599
296.81	20.655
297.18	22.958
297.55	23.305
297.91	22.176
298.28	22.192
298.65	20.363
299.02	20.053
299.38	19.920
299.75	20.380
300.12	21.026
300.48	19.693
300.85	19.004
301.22	19.276
301.59	21.326
301.95	21.285
302.32	18.644
302.69	19.951
303.05	17.827
303.42	19.125
303.79	19.976
304.15	19.550
304.52	19.253
304.89	17.710
305.25	20.879
305.62	19.506
305.99	21.790
306.35	20.200
306.72	19.818
307.09	21.453
307.45	18.048
307.82	18.212
308.19	18.345
308.55	19.063
308.92	19.334
309.29	18.486
309.65	19.618
310.02	19.438
310.38	19.027
310.75	18.852
311.12	21.384
311.48	20.668
311.85	20.803
312.22	20.597
312.58	20.855
312.95	19.266
313.31	20.180
313.68	21.709
314.05	21.662
314.41	21.529
314.78	20.280
315.14	22.705
315.51	22.594
315.87	21.684
316.24	21.963
316.61	23.800
316.97	22.886
317.34	22.929
317.70	22.913
318.07	25.933
318.43	24.438
318.80	26.009
319.16	24.390
319.53	24.530
319.89	24.835
320.26	25.098
320.62	25.769
320.99	28.358
321.35	26.995
321.72	27.738
322.08	27.498
322.45	27.723
322.81	28.722
323.18	30.163
323.54	29.390
323.91	31.511
324.27	31.274
324.64	32.450
325.00	32.897
325.37	33.484
325.73	36.920
326.10	33.924
326.46	35.201
326.83	36.596
327.19	36.197
327.56	38.075
327.92	38.573
328.29	40.173
328.65	38.636
329.01	41.166
329.38	40.410
329.74	41.758
330.11	41.976
330.47	42.961
330.84	43.630
331.20	45.036
331.56	45.123
331.93	45.115
332.29	46.575
332.66	44.688
333.02	47.421
333.38	47.939
333.75	48.442
334.11	47.111
334.48	48.544
334.84	47.594
335.20	48.227
335.57	49.278
335.93	51.119
336.29	47.741
336.66	49.251
337.02	51.351
337.38	49.020
337.75	49.166
338.11	50.805
338.47	51.957
338.84	51.089
339.20	50.615
339.56	53.654
339.93	49.647
340.29	52.613
340.65	52.010
341.02	51.012
341.38	51.896
341.74	51.143
342.11	50.853
342.47	51.931
342.83	50.462
343.20	52.690
343.56	50.857
343.92	52.421
344.28	52.986
344.65	51.485
345.01	53.445
345.37	52.243
345.73	50.655
346.10	52.249
346.46	51.990
346.82	51.724
347.19	53.492
347.55	51.685
347.91	51.890
348.27	52.586
348.63	52.827
349.00	52.347
349.36	49.727
349.72	54.538
350.08	54.451
350.45	53.901
350.81	53.264
351.17	53.698
351.53	52.586
351.89	53.436
352.26	53.488
352.62	53.533
352.98	53.402
353.34	54.916
353.70	51.892
354.07	53.265
354.43	53.992
354.79	53.645
355.15	55.112
355.51	54.688
355.87	54.071
356.24	54.567
356.60	55.520
356.96	53.041
357.32	55.265
357.68	55.096
358.04	53.349
358.40	54.602
358.77	54.791
359.13	55.318
359.49	55.253
359.85	54.421
360.21	55.175
360.57	56.099
360.93	55.630
361.29	57.474
361.66	56.250
362.02	55.473
362.38	56.200
362.74	56.996
363.10	56.313
363.46	57.906
363.82	56.706
364.18	56.585
364.54	57.398
364.90	57.792
365.26	57.275
365.62	58.232
365.98	57.112
366.35	56.408
366.71	56.589
367.07	58.998
367.43	58.065
367.79	57.526
368.15	57.966
368.51	58.182
368.87	58.104
369.23	58.596
369.59	57.986
369.95	58.140
370.31	59.142
370.67	58.568
371.03	59.548
371.39	58.345
371.75	59.299
372.11	59.971
372.47	59.798
372.83	60.292
373.19	60.429
373.55	59.747
373.91	61.166
374.27	60.096
374.63	60.041
374.99	60.223
375.35	59.825
375.71	61.985
376.07	62.286
376.42	60.000
376.78	63.268
377.14	63.322
377.50	61.509
377.86	61.964
378.22	62.626
378.58	61.519
378.94	61.776
379.30	61.913
379.66	61.991
380.02	61.973
380.38	63.202
380.74	62.134
381.09	61.453
381.45	63.365
381.81	63.521
382.17	62.907
382.53	62.432
382.89	63.935
383.25	63.937
383.61	63.738
383.97	63.258
384.32	63.705
384.68	64.873
385.04	63.164
385.40	63.238
385.76	64.573
386.12	63.148
386.48	66.708
386.83	64.724
387.19	64.854
387.55	63.961
387.91	64.671
388.27	64.113
388.62	65.745
388.98	64.749
389.34	64.198
389.70	65.347
390.06	64.388
390.42	66.474
390.77	64.164
391.13	66.957
391.49	65.876
391.85	66.771
392.20	64.867
392.56	65.241
392.92	65.545
393.28	66.475
393.64	65.725
393.99	67.508
394.35	65.328
394.71	65.967
395.07	67.608
395.42	65.912
395.78	66.310
396.14	66.044
396.50	66.606
396.85	65.392
397.21	66.160
397.57	65.836
397.92	66.569
398.28	67.111
398.64	66.092
399.00	67.416
399.35	65.727
399.71	67.305
400.07	66.448
400.42	67.153
400.78	66.190
401.14	66.287
401.49	66.863
401.85	68.212
402.21	66.091
402.57	65.959
402.92	67.716
403.28	66.667
403.63	64.350
403.99	65.942
404.35	65.942
404.70	65.067
405.06	67.013
405.42	65.621
405.77	64.819
406.13	65.985
406.49	66.866
406.84	65.627
407.20	66.726
407.55	65.358
407.91	64.961
408.27	66.544
408.62	65.664
408.98	65.858
409.34	65.143
409.69	65.784
410.05	65.009
410.40	66.156
410.76	65.857
411.11	67.519
411.47	66.880
411.83	66.443
412.18	66.584
412.54	65.894
412.89	65.735
413.25	65.643
413.60	65.006
413.96	64.941
414.31	66.789
414.67	65.841
415.03	64.748
415.38	67.404
415.74	66.946
416.09	66.304
416.45	66.601
416.80	65.605
417.16	66.844
417.51	67.039
417.87	66.408
418.22	67.193
418.58	67.587
418.93	67.750
419.29	67.001
419.64	66.080
420.00	69.259
420.35	68.303
420.71	68.307
421.06	66.923
421.42	67.272
421.77	68.230
422.12	68.159
422.48	68.733
422.83	68.280
423.19	67.038
423.54	69.510
423.90	68.190
424.25	67.421
424.61	70.265
424.96	70.685
425.31	69.201
425.67	69.799
426.02	68.503
426.38	69.873
426.73	71.303
427.09	71.078
427.44	69.602
427.79	69.651
428.15	71.275
428.50	71.202
428.85	71.583
429.21	71.555
429.56	71.250
429.92	71.192
430.27	70.638
430.62	72.414
430.98	71.458
431.33	71.932
431.68	73.405
432.04	73.979
432.39	73.618
432.74	73.261
433.10	72.257
433.45	71.733
433.80	74.356
434.16	73.348
434.51	73.918
434.86	74.634
435.22	74.555
435.57	74.357
435.92	75.029
436.28	74.362
436.63	73.375
436.98	73.310
437.34	75.605
437.69	73.746
438.04	75.893
438.39	75.572
438.75	74.913
439.10	75.236
439.45	73.989
439.81	75.542
440.16	75.639
440.51	77.765
440.86	76.113
441.22	75.180
441.57	75.053
441.92	75.703
442.27	77.327
442.63	76.073
442.98	77.370
443.33	75.618
443.68	76.759
444.03	77.210
444.39	77.533
444.74	77.753
445.09	78.125
445.44	78.278
445.79	78.021
446.15	77.601
446.50	77.681
446.85	77.424
447.20	77.988
447.55	78.950
447.91	79.394
448.26	77.765
448.61	77.646
448.96	78.151
449.31	78.523
449.66	79.737
450.02	78.006
450.37	79.304
450.72	78.927
451.07	80.893
451.42	78.563
451.77	80.431
452.12	79.678
452.47	80.416
452.83	79.849
453.18	80.202
453.53	78.918
453.88	80.383
454.23	79.988
454.58	81.603
454.93	79.786
455.28	80.115
455.63	79.423
455.98	81.446
456.34	80.051
456.69	81.051
457.04	80.332
457.39	81.041
457.74	80.508
458.09	80.336
458.44	81.755
458.79	82.007
459.14	81.517
459.49	82.238
459.84	80.438
460.19	81.205
460.54	80.520
460.89	81.726
461.24	79.660
461.59	81.301
461.94	82.113
462.29	80.762
462.64	81.555
462.99	82.396
463.34	81.431
463.69	82.761
464.04	81.312
464.39	80.526
464.74	79.905
465.09	80.758
465.44	81.105
465.79	81.049
466.14	83.372
466.49	82.268
466.84	83.013
467.19	81.546
467.54	81.646
467.89	82.737
468.24	81.888
468.59	83.698
468.94	84.502
469.29	81.871
469.64	82.749
469.99	82.174
470.34	82.365
470.68	84.738
471.03	83.070
471.38	82.778
471.73	86.014
472.08	84.605
472.43	83.784
472.78	82.667
473.13	83.433
473.48	83.599
473.83	83.437
474.17	83.949
474.52	86.317
474.87	83.100
475.22	82.773
475.57	84.722
475.92	83.639
476.27	83.086
476.61	83.324
476.96	84.125
477.31	85.630
477.66	85.113
478.01	84.441
478.36	82.085
478.70	84.517
479.05	83.559
479.40	84.715
479.75	84.913
480.10	83.383
480.45	82.737
480.79	84.847
481.14	84.797
481.49	84.463
481.84	84.004
482.19	82.960
482.53	85.133
482.88	83.958
483.23	83.474
483.58	85.476
483.92	85.619
484.27	82.986
484.62	84.017
484.97	83.242
485.31	81.088
485.66	78.381
486.01	78.805
486.36	80.854
486.70	82.416
487.05	82.413
487.40	82.399
487.75	82.510
488.09	82.613
488.44	81.563
488.79	83.233
489.13	83.720
489.48	84.502
489.83	84.716
490.17	83.674
490.52	86.685
490.87	85.219
491.22	85.848
491.56	84.630
491.91	86.212
492.26	86.274
492.60	86.632
492.95	85.816
493.30	83.945
493.64	84.485
493.99	86.329
494.34	86.000
494.68	86.423
495.03	85.373
495.37	87.856
495.72	85.904
496.07	86.673
496.41	87.216
496.76	86.347
497.11	86.717
497.45	86.303
497.80	87.644
498.14	86.395
498.49	87.042
498.84	84.757
499.18	86.842
499.53	86.118
499.87	86.486
500.22	87.549
500.56	87.194
500.91	86.059
501.26	86.948
501.60	86.230
501.95	88.454
502.29	85.498
502.64	87.129
502.98	86.775
503.33	85.338
503.67	86.925
504.02	85.514
504.36	86.569
504.71	87.437
505.06	87.968
505.40	88.373
505.75	88.008
506.09	89.080
506.44	88.321
506.78	87.908
507.13	89.032
507.47	88.941
507.82	87.455
508.16	89.275
508.51	87.687
508.85	88.509
509.19	89.691
509.54	87.368
509.88	89.096
510.23	88.889
510.57	90.106
510.92	90.333
511.26	88.464
511.61	89.363
511.95	89.547
512.30	90.269
512.64	90.262
512.98	90.374
513.33	89.621
513.67	90.341
514.02	88.758
514.36	91.080
514.70	90.889
515.05	91.995
515.39	90.715
515.74	92.728
516.08	89.971
516.42	91.105
516.77	90.237
517.11	90.847
517.46	94.378
517.80	94.043
518.14	92.331
518.49	92.648
518.83	90.920
519.17	91.474
519.52	91.209
519.86	92.772
520.20	93.215
520.55	93.108
520.89	92.736
521.23	92.125
521.58	94.044
521.92	93.414
522.26	92.698
522.61	93.283
522.95	92.597
523.29	93.730
523.64	93.567
523.98	94.017
524.32	92.772
524.66	91.491
525.01	91.972
525.35	93.428
525.69	93.299
526.04	93.864
526.38	95.608
526.72	92.209
527.06	93.555
527.41	93.399
527.75	93.465
528.09	93.911
528.43	94.033
528.78	91.960
529.12	93.406
529.46	92.719
529.80	92.705
530.15	93.110
530.49	93.014
530.83	92.862
531.17	94.276
531.51	93.168
531.86	93.483
532.20	93.995
532.54	94.652
532.88	92.556
533.22	94.920
533.57	94.386
533.91	90.824
534.25	92.709
534.59	91.255
534.93	90.604
535.27	92.637
535.62	92.263
535.96	91.726
536.30	91.492
536.64	92.098
536.98	96.893
537.32	94.610
537.66	91.174
538.01	93.540
538.35	91.689
538.69	92.513
539.03	91.875
539.37	92.548
539.71	91.461
540.05	92.872
540.39	93.006
540.73	94.057
541.07	93.648
541.42	93.045
541.76	91.030
542.10	94.328
542.44	92.205
542.78	92.741
543.12	93.211
543.46	90.479
543.80	90.903
544.14	91.739
544.48	91.798
544.82	94.587
545.16	91.818
545.50	91.992
545.84	91.933
546.18	94.660
546.52	92.603
546.86	92.877
547.20	93.812
547.54	89.118
547.88	92.104
548.22	91.743
548.56	92.385
548.90	93.598
549.24	91.731
549.58	93.155
549.92	94.488
550.26	94.798
550.60	92.532
550.94	95.036
551.28	92.777
551.62	94.092
551.96	93.198
552.30	92.544
552.64	92.540
552.98	93.623
553.32	94.156
553.66	95.025
554.00	93.532
554.34	93.069
554.68	93.202
555.02	92.909
555.36	93.889
555.69	92.765
556.03	93.404
556.37	95.590
556.71	94.202
557.05	94.383
557.39	93.690
557.73	94.748
558.07	96.534
558.41	94.316
558.75	95.665
559.08	96.187
559.42	95.942
559.76	94.402
560.10	94.333
560.44	94.364
560.78	94.781
561.12	94.755
561.45	94.110
561.79	94.286
562.13	94.250
562.47	93.207
562.81	94.059
563.15	95.381
563.48	93.504
563.82	94.320
564.16	94.050
564.50	93.078
564.84	91.997
565.17	94.032
565.51	92.047
565.85	95.876
566.19	94.071
566.52	92.172
566.86	92.668
567.20	92.615
567.54	92.558
567.88	88.777
568.21	92.002
568.55	89.608
568.89	87.227
569.23	88.478
569.56	86.591
569.90	86.861
570.24	86.509
570.57	84.499
570.91	84.597
571.25	84.987
571.59	85.795
571.92	83.125
572.26	84.362
572.60	83.152
572.93	82.936
573.27	83.537
573.61	82.420
573.95	82.491
574.28	81.460
574.62	82.435
574.96	80.907
575.29	82.317
575.63	82.665
575.97	81.338
576.30	80.789
576.64	81.671
576.98	81.214
577.31	80.882
577.65	81.212
577.98	81.918
578.32	80.846
578.66	81.119
578.99	80.416
579.33	81.537
579.67	81.156
580.00	80.977
580.34	81.336
580.67	82.422
581.01	79.730
581.35	80.896
581.68	79.523
582.02	80.246
582.35	80.132
582.69	81.968
583.02	81.742
583.36	81.292
583.70	82.232
584.03	82.705
584.37	82.869
584.70	83.029
585.04	81.570
585.37	80.644
585.71	80.697
586.04	82.497
586.38	82.358
586.72	82.751
587.05	82.696
587.39	82.327
587.72	82.320
588.06	82.146
588.39	83.338
588.73	83.675
589.06	84.847
589.40	85.847
589.73	84.632
590.07	84.559
590.40	85.793
590.73	86.246
591.07	85.984
591.40	87.175
591.74	86.099
592.07	86.667
592.41	85.987
592.74	84.743
593.08	85.307
593.41	84.507
593.75	82.559
594.08	86.628
594.41	85.989
594.75	84.636
595.08	86.541
595.42	85.730
595.75	86.035
596.09	85.409
596.42	86.457
596.75	85.683
597.09	86.643
597.42	85.247
597.75	87.245
598.09	86.941
598.42	86.920
598.76	86.337
599.09	84.886
599.42	85.121
599.76	84.334
600.09	84.885
600.42	84.884
600.76	84.783
601.09	85.568
601.42	85.635
601.76	84.930
602.09	86.667
602.42	85.062
602.76	84.919
603.09	85.968
603.42	86.825
603.76	85.600
604.09	86.704
604.42	85.429
604.76	86.699
605.09	86.438
605.42	86.037
605.75	86.848
606.09	85.015
606.42	87.390
606.75	84.972
607.09	85.929
607.42	86.224
607.75	85.960
608.08	86.715
608.42	86.613
608.75	86.589
609.08	88.115
609.41	87.245
609.75	86.641
610.08	88.235
610.41	86.554
610.74	87.186
611.07	88.032
611.41	87.191
611.74	86.735
612.07	89.742
612.40	86.834
612.73	87.614
613.07	86.516
613.40	88.998
613.73	88.937
614.06	87.644
614.39	89.459
614.72	87.151
615.06	86.141
615.39	88.117
615.72	89.191
616.05	87.410
616.38	89.205
616.71	88.529
617.05	88.359
617.38	90.402
617.71	88.698
618.04	90.807
618.37	92.013
618.70	92.243
619.03	89.844
619.36	90.698
619.69	91.385
620.03	88.705
620.36	90.999
620.69	93.467
621.02	93.303
621.35	93.306
621.68	95.164
622.01	92.880
622.34	91.460
622.67	92.344
623.00	92.043
623.33	91.343
623.66	92.393
623.99	92.105
624.32	90.476
624.65	91.096
624.99	93.727
625.32	91.692
625.65	93.240
625.98	92.488
626.31	93.393
626.64	93.808
626.97	94.521
627.30	95.064
627.63	94.387
627.96	95.126
628.29	96.783
628.62	96.944
628.95	98.622
629.28	95.395
629.61	98.332
629.94	97.164
630.26	100.795
630.59	99.497
630.92	96.697
631.25	95.565
631.58	98.307
631.91	97.766
