SpectraSuite Data File
++++++++++++++++++++++++++++++++++++
Date: Sat May 16 11:10:47 PDT 2015
User: schluterlab
Dark Spectrum Present: Yes
Reference Spectrum Present: Yes
Number of Sampled Component Spectra: 1
Spectrometers: USB2E3373
Integration Time (usec): 3000 (USB2E3373)
Spectra Averaged: 3 (USB2E3373)
Boxcar Smoothing: 0 (USB2E3373)
Correct for Electrical Dark: No (USB2E3373)
Strobe/Lamp Enabled: No (USB2E3373)
Correct for Detector Non-linearity: No (USB2E3373)
Correct for Stray Light: No (USB2E3373)
Number of Pixels in Processed Spectrum: 2048
>>>>>Begin Processed Spectral Data<<<<<
178.53	0.000
178.91	106.667
179.29	33.333
179.67	-500.000
180.04	-23.077
180.42	-200.000
180.80	50.000
181.18	375.000
181.56	-12.500
181.94	200.000
182.31	250.000
182.69	53.846
183.07	-200.000
183.45	850.000
183.83	-33.333
184.20	0.000
184.58	12.500
184.96	-300.000
185.34	50.000
185.72	-150.000
186.09	183.333
186.47	-12.500
186.85	37.500
187.23	87.500
187.61	100.000
187.98	-175.000
188.36	-50.000
188.74	-150.000
189.12	100.000
189.49	242.857
189.87	0.000
190.25	100.000
190.63	-14.286
191.00	-222.222
191.38	160.000
191.76	53.333
192.14	420.000
192.51	-240.000
192.89	-100.000
193.27	0.000
193.65	-11.111
194.02	28.571
194.40	66.667
194.78	-80.000
195.15	-300.000
195.53	-63.636
195.91	-266.667
196.29	-60.000
196.66	-166.667
197.04	1200.000
197.42	-100.000
197.79	80.000
198.17	-166.667
198.55	200.000
198.92	-200.000
199.30	50.000
199.68	-550.000
200.05	55.556
200.43	-22.222
200.81	-1100.000
201.18	-41.667
201.56	14.286
201.94	-6.667
202.31	0.000
202.69	50.000
203.07	40.000
203.44	633.333
203.82	-83.333
204.19	-300.000
204.57	-50.000
204.95	-800.000
205.32	-43.750
205.70	-200.000
206.08	-900.000
206.45	27.778
206.83	-300.000
207.20	-50.000
207.58	-400.000
207.96	66.667
208.33	12.500
208.71	77.778
209.08	160.000
209.46	-28.571
209.84	300.000
210.21	0.000
210.59	60.000
210.96	1000.000
211.34	-83.333
211.71	-66.667
212.09	150.000
212.46	750.000
212.84	-500.000
213.22	33.333
213.59	141.667
213.97	66.667
214.34	60.000
214.72	0.000
215.09	33.333
215.47	-50.000
215.84	60.000
216.22	-80.000
216.59	26.667
216.97	-125.000
217.34	300.000
217.72	-71.429
218.09	-16.667
218.47	-200.000
218.84	171.429
219.22	42.857
219.59	0.000
219.97	185.714
220.34	250.000
220.72	112.500
221.09	53.846
221.47	0.000
221.84	600.000
222.22	0.000
222.59	700.000
222.97	-125.000
223.34	-450.000
223.72	-366.667
224.09	35.714
224.46	-175.000
224.84	-42.857
225.21	-114.286
225.59	-54.545
225.96	-112.500
226.34	28.571
226.71	-11.111
227.08	30.000
227.46	200.000
227.83	-128.571
228.21	0.000
228.58	-250.000
228.95	37.500
229.33	-200.000
229.70	-60.000
230.08	100.000
230.45	91.667
230.82	-33.333
231.20	-200.000
231.57	-100.000
231.95	-200.000
232.32	57.143
232.69	-100.000
233.07	-142.857
233.44	-350.000
233.81	0.000
234.19	-122.222
234.56	-56.250
234.93	46.875
235.31	-71.429
235.68	-57.143
236.05	-35.294
236.43	-45.455
236.80	32.258
237.17	-25.000
237.55	-23.810
237.92	-36.364
238.29	-2.857
238.67	38.235
239.04	-8.333
239.41	0.000
239.79	-15.385
240.16	-14.286
240.53	-12.727
240.91	51.282
241.28	3.636
241.65	4.615
242.02	11.475
242.40	-16.393
242.77	-6.061
243.14	-10.169
243.51	-17.143
243.89	-13.924
244.26	-1.124
244.63	-2.105
245.00	-1.053
245.38	4.237
245.75	-2.655
246.12	-3.200
246.49	7.874
246.87	0.000
247.24	-1.695
247.61	-1.695
247.98	-0.704
248.36	-4.895
248.73	1.899
249.10	0.637
249.47	2.924
249.84	2.273
250.22	-7.738
250.59	7.345
250.96	-1.571
251.33	5.213
251.70	-1.923
252.08	4.739
252.45	-2.370
252.82	-1.429
253.19	2.979
253.56	2.016
253.94	1.688
254.31	1.288
254.68	1.626
255.05	2.419
255.42	4.762
255.79	1.792
256.16	4.706
256.54	4.779
256.91	-1.136
257.28	-0.366
257.65	0.000
258.02	3.774
258.39	0.669
258.76	0.338
259.14	0.926
259.51	4.590
259.88	5.488
260.25	3.416
260.62	-1.608
260.99	1.780
261.36	2.134
261.73	2.023
262.10	5.000
262.47	3.989
262.85	5.714
263.22	2.579
263.59	-3.692
263.96	1.449
264.33	4.607
264.70	2.210
265.07	4.670
265.44	2.326
265.81	0.258
266.18	0.253
266.55	2.206
266.92	4.534
267.29	1.211
267.66	1.975
268.03	7.005
268.40	3.991
268.77	3.133
269.14	1.856
269.51	4.138
269.88	1.606
270.25	1.399
270.62	2.517
270.99	1.126
271.36	3.730
271.73	3.363
272.10	2.288
272.47	2.222
272.84	3.778
273.21	3.440
273.58	3.956
273.95	2.632
274.32	3.167
274.69	4.158
275.06	4.499
275.43	-0.223
275.80	3.055
276.17	2.929
276.54	5.499
276.91	1.440
277.28	4.057
277.65	2.273
278.02	1.461
278.39	4.322
278.76	2.390
279.13	3.557
279.50	2.982
279.87	3.171
280.23	2.429
280.60	3.976
280.97	0.583
281.34	1.354
281.71	4.423
282.08	3.226
282.45	0.815
282.82	1.550
283.19	4.727
283.56	7.509
283.92	4.064
284.29	0.558
284.66	3.777
285.03	3.387
285.40	3.690
285.77	4.035
286.14	4.513
286.51	2.131
286.87	3.811
287.24	2.901
287.61	3.140
287.98	0.173
288.35	0.496
288.72	3.056
289.08	2.712
289.45	4.714
289.82	0.692
290.19	3.612
290.56	0.331
290.93	1.749
291.29	1.135
291.66	1.127
292.03	3.611
292.40	4.066
292.77	3.106
293.13	2.439
293.50	3.120
293.87	3.067
294.24	3.922
294.60	1.515
294.97	3.642
295.34	2.963
295.71	3.571
296.08	0.000
296.44	2.003
296.81	3.989
297.18	2.817
297.55	4.096
297.91	4.881
298.28	2.055
298.65	2.371
299.02	4.545
299.38	2.941
299.75	4.076
300.12	3.205
300.48	3.325
300.85	3.539
301.22	4.010
301.59	3.381
301.95	4.156
302.32	2.216
302.69	3.550
303.05	3.297
303.42	2.875
303.79	3.469
304.15	3.555
304.52	5.951
304.89	3.070
305.25	3.297
305.62	3.290
305.99	4.711
306.35	3.441
306.72	3.075
307.09	4.540
307.45	3.519
307.82	2.905
308.19	3.803
308.55	3.704
308.92	2.470
309.29	3.459
309.65	4.030
310.02	4.104
310.38	1.622
310.75	5.020
311.12	4.855
311.48	4.697
311.85	3.502
312.22	4.016
312.58	4.883
312.95	5.403
313.31	4.496
313.68	5.930
314.05	5.539
314.41	3.320
314.78	3.197
315.14	6.022
315.51	5.370
315.87	4.356
316.24	4.762
316.61	5.086
316.97	4.975
317.34	5.010
317.70	5.009
318.07	5.037
318.43	4.494
318.80	6.009
319.16	4.315
319.53	4.323
319.89	4.327
320.26	5.980
320.62	4.808
320.99	5.672
321.35	4.433
321.72	3.480
322.08	5.638
322.45	4.950
322.81	6.628
323.18	6.724
323.54	6.192
323.91	6.024
324.27	5.323
324.64	6.307
325.00	6.108
325.37	5.973
325.73	7.699
326.10	5.580
326.46	7.618
326.83	6.979
327.19	7.840
327.56	8.177
327.92	7.901
328.29	7.273
328.65	6.273
329.01	7.862
329.38	7.493
329.74	8.150
330.11	7.888
330.47	8.174
330.84	9.716
331.20	7.220
331.56	8.204
331.93	8.259
332.29	9.041
332.66	7.199
333.02	8.145
333.38	9.498
333.75	8.459
334.11	8.622
334.48	8.297
334.84	9.711
335.20	9.309
335.57	8.032
335.93	9.669
336.29	8.503
336.66	7.841
337.02	9.009
337.38	8.378
337.75	9.570
338.11	8.318
338.47	9.075
338.84	9.256
339.20	9.402
339.56	9.447
339.93	8.025
340.29	8.857
340.65	8.916
341.02	9.022
341.38	9.520
341.74	9.568
342.11	9.471
342.47	9.013
342.83	8.564
343.20	9.821
343.56	8.082
343.92	10.184
344.28	10.008
344.65	8.003
345.01	9.412
345.37	10.714
345.73	9.656
346.10	8.667
346.46	10.073
346.82	9.543
347.19	8.874
347.55	8.507
347.91	8.976
348.27	8.353
348.63	9.855
349.00	9.467
349.36	6.948
349.72	9.634
350.08	9.543
350.45	8.747
350.81	10.430
351.17	8.039
351.53	8.671
351.89	8.569
352.26	9.845
352.62	9.985
352.98	8.782
353.34	9.592
353.70	9.344
354.07	9.520
354.43	9.486
354.79	9.033
355.15	8.067
355.51	8.984
355.87	10.119
356.24	8.578
356.60	10.153
356.96	9.931
357.32	9.422
357.68	9.349
358.04	9.854
358.40	9.126
358.77	9.583
359.13	9.640
359.49	8.541
359.85	8.155
360.21	10.350
360.57	10.467
360.93	10.148
361.29	10.015
361.66	8.689
362.02	9.393
362.38	9.024
362.74	10.037
363.10	8.321
363.46	10.541
363.82	9.329
364.18	10.492
364.54	10.436
364.90	9.434
365.26	9.130
365.62	9.694
365.98	10.171
366.35	10.070
366.71	8.879
367.07	8.680
367.43	11.462
367.79	10.172
368.15	9.602
368.51	10.559
368.87	11.126
369.23	10.667
369.59	9.306
369.95	9.866
370.31	10.549
370.67	8.604
371.03	10.496
371.39	9.547
371.75	10.587
372.11	10.330
372.47	10.412
372.83	11.335
373.19	10.214
373.55	11.049
373.91	10.526
374.27	10.198
374.63	10.076
374.99	11.335
375.35	10.498
375.71	10.601
376.07	10.404
376.42	9.868
376.78	11.503
377.14	10.983
377.50	10.832
377.86	10.533
378.22	10.678
378.58	10.871
378.94	10.851
379.30	11.274
379.66	11.961
380.02	11.349
380.38	11.360
380.74	10.434
381.09	12.068
381.45	11.337
381.81	10.708
382.17	11.717
382.53	10.456
382.89	11.962
383.25	12.282
383.61	11.792
383.97	11.941
384.32	11.452
384.68	12.334
385.04	11.534
385.40	11.869
385.76	12.317
386.12	11.805
386.48	12.191
386.83	12.822
387.19	12.313
387.55	12.114
387.91	11.737
388.27	11.158
388.62	11.899
388.98	11.872
389.34	12.668
389.70	11.510
390.06	11.809
390.42	13.205
390.77	12.871
391.13	12.609
391.49	12.414
391.85	12.469
392.20	12.682
392.56	11.790
392.92	12.208
393.28	12.572
393.64	12.447
393.99	13.477
394.35	12.165
394.71	12.292
395.07	13.245
395.42	11.383
395.78	12.256
396.14	13.396
396.50	12.966
396.85	13.017
397.21	13.001
397.57	13.313
397.92	13.290
398.28	13.167
398.64	13.266
399.00	13.876
399.35	12.852
399.71	13.705
400.07	13.612
400.42	13.443
400.78	12.642
401.14	12.335
401.49	12.500
401.85	13.606
402.21	13.886
402.57	13.410
402.92	13.531
403.28	13.542
403.63	12.463
403.99	12.927
404.35	12.440
404.70	13.224
405.06	14.072
405.42	12.362
405.77	12.274
406.13	12.890
406.49	13.421
406.84	12.597
407.20	14.193
407.55	12.476
407.91	11.982
408.27	13.848
408.62	13.349
408.98	13.099
409.34	12.858
409.69	12.791
410.05	12.674
410.40	12.937
410.76	13.159
411.11	12.656
411.47	13.683
411.83	14.059
412.18	12.809
412.54	12.630
412.89	12.637
413.25	12.338
413.60	12.029
413.96	12.076
414.31	14.190
414.67	13.143
415.03	13.260
415.38	13.858
415.74	13.015
416.09	13.683
416.45	12.302
416.80	12.809
417.16	12.558
417.51	14.576
417.87	13.010
418.22	13.843
418.58	13.992
418.93	14.102
419.29	14.178
419.64	13.254
420.00	13.852
420.35	13.601
420.71	13.025
421.06	13.254
421.42	13.525
421.77	13.680
422.12	13.822
422.48	13.148
422.83	13.895
423.19	13.307
423.54	13.718
423.90	13.187
424.25	13.631
424.61	14.596
424.96	14.570
425.31	13.248
425.67	13.582
426.02	13.540
426.38	14.096
426.73	13.793
427.09	14.338
427.44	14.375
427.79	13.663
428.15	14.482
428.50	14.663
428.85	13.729
429.21	13.890
429.56	13.542
429.92	13.677
430.27	13.958
430.62	14.629
430.98	14.480
431.33	14.514
431.68	13.995
432.04	14.270
432.39	15.043
432.74	13.729
433.10	14.012
433.45	14.162
433.80	14.278
434.16	14.884
434.51	14.466
434.86	15.114
435.22	14.644
435.57	14.749
435.92	15.064
436.28	15.312
436.63	14.189
436.98	14.147
437.34	14.471
437.69	15.053
438.04	14.748
438.39	15.102
438.75	14.959
439.10	14.103
439.45	14.544
439.81	15.602
440.16	14.537
440.51	14.765
440.86	15.095
441.22	14.704
441.57	15.158
441.92	14.783
442.27	14.989
442.63	15.129
442.98	14.278
443.33	14.937
443.68	15.164
444.03	14.980
444.39	15.321
444.74	14.923
445.09	15.954
445.44	14.800
445.79	14.635
446.15	15.663
446.50	14.698
446.85	15.341
447.20	15.271
447.55	14.530
447.91	15.385
448.26	15.140
448.61	14.941
448.96	15.518
449.31	14.994
449.66	15.455
450.02	15.512
450.37	14.899
450.72	15.537
451.07	14.771
451.42	14.746
451.77	15.081
452.12	14.720
452.47	16.373
452.83	15.434
453.18	15.244
453.53	15.858
453.88	15.849
454.23	14.389
454.58	15.911
454.93	15.743
455.28	15.233
455.63	15.848
455.98	15.482
456.34	14.930
456.69	15.885
457.04	15.857
457.39	13.935
457.74	15.712
458.09	15.661
458.44	16.513
458.79	15.527
459.14	15.573
459.49	16.696
459.84	15.233
460.19	16.050
460.54	15.971
460.89	15.191
461.24	15.483
461.59	16.530
461.94	16.614
462.29	16.200
462.64	16.733
462.99	15.930
463.34	16.408
463.69	16.221
464.04	14.938
464.39	16.129
464.74	16.312
465.09	14.973
465.44	15.510
465.79	16.300
466.14	15.708
466.49	15.602
466.84	15.426
467.19	15.586
467.54	15.443
467.89	16.030
468.24	16.449
468.59	15.928
468.94	15.691
469.29	15.400
469.64	16.375
469.99	16.408
470.34	15.631
470.68	15.698
471.03	16.724
471.38	15.764
471.73	16.224
472.08	14.726
472.43	16.023
472.78	16.467
473.13	15.242
473.48	16.082
473.83	15.943
474.17	15.732
474.52	17.455
474.87	16.142
475.22	14.926
475.57	16.222
475.92	16.253
476.27	16.286
476.61	16.282
476.96	15.539
477.31	15.985
477.66	16.602
478.01	16.370
478.36	16.606
478.70	16.391
479.05	16.279
479.40	16.166
479.75	16.310
480.10	16.667
480.45	15.861
480.79	15.992
481.14	16.407
481.49	16.602
481.84	16.459
482.19	17.497
482.53	16.193
482.88	15.662
483.23	16.338
483.58	16.883
483.92	16.340
484.27	15.906
484.62	16.156
484.97	15.666
485.31	16.320
485.66	15.497
486.01	15.515
486.36	15.692
486.70	15.633
487.05	15.592
487.40	16.159
487.75	16.199
488.09	15.720
488.44	16.171
488.79	17.085
489.13	16.356
489.48	17.088
489.83	16.463
490.17	16.935
490.52	16.938
490.87	16.212
491.22	16.861
491.56	16.481
491.91	16.794
492.26	17.075
492.60	15.890
492.95	16.611
493.30	16.532
493.64	16.079
493.99	17.113
494.34	16.381
494.68	17.182
495.03	16.683
495.37	16.421
495.72	17.043
496.07	16.847
496.41	17.091
496.76	17.078
497.11	16.533
497.45	16.906
497.80	16.458
498.14	16.945
498.49	16.675
498.84	16.456
499.18	17.446
499.53	16.951
499.87	16.458
500.22	16.618
500.56	15.958
500.91	16.502
501.26	17.031
501.60	16.322
501.95	16.618
502.29	16.344
502.64	17.162
502.98	16.387
503.33	16.917
503.67	16.236
504.02	16.562
504.36	16.863
504.71	15.653
505.06	16.375
505.40	17.166
505.75	16.006
506.09	17.088
506.44	17.193
506.78	16.508
507.13	16.426
507.47	16.849
507.82	16.882
508.16	17.047
508.51	17.208
508.85	17.029
509.19	16.431
509.54	17.653
509.88	16.809
510.23	17.191
510.57	18.042
510.92	17.401
511.26	17.278
511.61	16.577
511.95	17.295
512.30	16.767
512.64	16.528
512.98	16.777
513.33	17.408
513.67	17.588
514.02	16.219
514.36	16.953
514.70	16.638
515.05	17.439
515.39	17.301
515.74	17.685
516.08	17.406
516.42	17.110
516.77	17.331
517.11	17.105
517.46	18.481
517.80	16.185
518.14	16.606
518.49	16.736
518.83	16.499
519.17	17.999
519.52	17.120
519.86	17.682
520.20	18.276
520.55	17.292
520.89	17.220
521.23	16.728
521.58	17.492
521.92	16.973
522.26	17.333
522.61	16.730
522.95	16.847
523.29	17.241
523.64	16.240
523.98	17.696
524.32	17.473
524.66	16.522
525.01	16.699
525.35	16.881
525.69	17.762
526.04	17.428
526.38	17.314
526.72	16.986
527.06	18.490
527.41	16.238
527.75	16.700
528.09	17.141
528.43	17.770
528.78	18.279
529.12	17.862
529.46	16.173
529.80	17.108
530.15	17.514
530.49	16.688
530.83	18.075
531.17	16.768
531.51	18.419
531.86	17.972
532.20	18.016
532.54	16.912
532.88	17.655
533.22	17.380
533.57	17.624
533.91	15.918
534.25	16.782
534.59	16.427
534.93	16.179
535.27	17.369
535.62	17.775
535.96	17.324
536.30	16.688
536.64	17.928
536.98	17.514
537.32	17.001
537.66	17.515
538.01	16.838
538.35	17.500
538.69	17.714
539.03	16.858
539.37	16.500
539.71	17.078
540.05	17.341
540.39	18.213
540.73	17.139
541.07	18.238
541.42	16.745
541.76	16.744
542.10	17.286
542.44	17.455
542.78	17.028
543.12	17.515
543.46	16.027
543.80	16.388
544.14	16.118
544.48	17.913
544.82	16.982
545.16	17.505
545.50	16.016
545.84	17.455
546.18	17.545
546.52	17.283
546.86	16.809
547.20	17.440
547.54	16.185
547.88	16.589
548.22	16.579
548.56	17.101
548.90	16.846
549.24	16.678
549.58	16.584
549.92	17.951
550.26	17.486
550.60	16.572
550.94	16.861
551.28	17.682
551.62	17.356
551.96	17.366
552.30	16.864
552.64	18.015
552.98	17.029
553.32	17.532
553.66	16.943
554.00	17.413
554.34	16.173
554.68	17.398
555.02	17.728
555.36	17.541
555.69	16.332
556.03	16.632
556.37	16.927
556.71	17.609
557.05	16.630
557.39	16.407
557.73	17.651
558.07	15.976
558.41	17.053
558.75	17.490
559.08	16.187
559.42	16.616
559.76	17.561
560.10	17.673
560.44	17.413
560.78	16.354
561.12	17.046
561.45	17.123
561.79	17.213
562.13	16.900
562.47	17.087
562.81	16.478
563.15	17.425
563.48	16.586
563.82	17.647
564.16	16.430
564.50	17.608
564.84	17.460
565.17	16.578
565.51	17.862
565.85	17.174
566.19	17.325
566.52	16.765
566.86	16.877
567.20	17.554
567.54	16.775
567.88	16.471
568.21	16.723
568.55	16.808
568.89	15.905
569.23	17.075
569.56	16.141
569.90	16.326
570.24	15.971
570.57	15.712
570.91	16.491
571.25	16.115
571.59	15.923
571.92	15.833
572.26	15.518
572.60	16.165
572.93	15.980
573.27	15.152
573.61	15.486
573.95	16.019
574.28	15.640
574.62	15.887
574.96	15.553
575.29	15.422
575.63	16.034
575.97	15.642
576.30	15.703
576.64	15.796
576.98	14.830
577.31	15.328
577.65	15.791
577.98	15.196
578.32	15.218
578.66	15.123
578.99	15.859
579.33	15.323
579.67	15.521
580.00	15.427
580.34	15.533
580.67	14.881
581.01	15.356
581.35	15.548
581.68	15.019
582.02	15.330
582.35	15.411
582.69	15.617
583.02	15.584
583.36	15.991
583.70	15.745
584.03	16.218
584.37	15.372
584.70	15.940
585.04	15.646
585.37	15.274
585.71	15.675
586.04	15.299
586.38	15.611
586.72	15.643
587.05	16.369
587.39	15.597
587.72	15.450
588.06	15.571
588.39	15.950
588.73	15.691
589.06	16.176
589.40	16.695
589.73	15.829
590.07	15.659
590.40	16.531
590.73	15.674
591.07	15.943
591.40	16.378
591.74	16.290
592.07	15.766
592.41	15.754
592.74	16.218
593.08	16.272
593.41	15.625
593.75	15.265
594.08	15.636
594.41	16.192
594.75	16.497
595.08	15.902
595.42	16.402
595.75	15.472
596.09	15.638
596.42	16.448
596.75	16.214
597.09	16.652
597.42	16.150
597.75	15.899
598.09	16.132
598.42	15.555
598.76	15.864
599.09	15.667
599.42	15.725
599.76	16.157
600.09	16.107
600.42	16.369
600.76	15.518
601.09	15.761
601.42	15.908
601.76	15.966
602.09	15.787
602.42	15.926
602.76	15.206
603.09	16.008
603.42	15.874
603.76	15.716
604.09	15.539
604.42	16.153
604.76	16.267
605.09	16.591
605.42	16.223
605.75	15.653
606.09	15.982
606.42	15.501
606.75	16.015
607.09	15.659
607.42	15.933
607.75	15.673
608.08	16.222
608.42	16.367
608.75	15.981
609.08	16.123
609.41	16.193
609.75	16.285
610.08	16.814
610.41	16.241
610.74	16.586
611.07	16.836
611.41	15.683
611.74	17.172
612.07	17.293
612.40	16.098
612.73	16.155
613.07	15.410
613.40	16.530
613.73	15.967
614.06	16.584
614.39	16.967
614.72	16.089
615.06	15.978
615.39	16.332
615.72	16.513
616.05	15.627
616.38	17.005
616.71	16.036
617.05	17.189
617.38	17.709
617.71	16.708
618.04	16.398
618.37	17.296
618.70	17.014
619.03	15.978
619.36	16.772
619.69	17.229
620.03	16.736
620.36	17.159
620.69	17.732
621.02	17.123
621.35	16.613
621.68	16.967
622.01	17.233
622.34	17.391
622.67	17.734
623.00	16.909
623.33	18.209
623.66	16.617
623.99	17.143
624.32	15.997
624.65	17.071
624.99	16.505
625.32	16.692
625.65	17.949
625.98	16.588
626.31	17.210
626.64	16.904
626.97	18.236
627.30	17.191
627.63	16.062
627.96	17.145
628.29	17.096
628.62	18.338
628.95	17.717
629.28	17.199
629.61	17.664
629.94	17.864
630.26	18.091
630.59	18.492
630.92	17.417
631.25	18.145
631.58	18.836
631.91	16.702
632.24	17.111
632.57	18.778
632.90	18.161
633.23	17.523
633.56	17.778
633.89	19.222
634.22	16.883
634.55	18.630
634.88	18.863
635.20	17.728
635.53	18.193
635.86	17.884
636.19	17.582
636.52	18.399
636.85	18.051
637.18	16.125
637.51	18.092
637.83	18.375
638.16	17.237
638.49	17.379
638.82	18.662
639.15	19.196
639.48	18.158
639.81	19.502
