SpectraSuite Data File
++++++++++++++++++++++++++++++++++++
Date: Sat May 16 11:22:08 PDT 2015
User: schluterlab
Dark Spectrum Present: Yes
Reference Spectrum Present: Yes
Number of Sampled Component Spectra: 1
Spectrometers: USB2E3373
Integration Time (usec): 3000 (USB2E3373)
Spectra Averaged: 3 (USB2E3373)
Boxcar Smoothing: 0 (USB2E3373)
Correct for Electrical Dark: No (USB2E3373)
Strobe/Lamp Enabled: No (USB2E3373)
Correct for Detector Non-linearity: No (USB2E3373)
Correct for Stray Light: No (USB2E3373)
Number of Pixels in Processed Spectrum: 2048
>>>>>Begin Processed Spectral Data<<<<<
178.53	0.000
178.91	113.333
179.29	266.667
179.67	-1400.000
180.04	-61.538
180.42	800.000
180.80	375.000
181.18	725.000
181.56	-175.000
181.94	700.000
182.31	700.000
182.69	-23.077
183.07	-400.000
183.45	1550.000
183.83	233.333
184.20	-242.857
184.58	-250.000
184.96	-175.000
185.34	137.500
185.72	-625.000
186.09	316.667
186.47	-62.500
186.85	-137.500
187.23	-25.000
187.61	-100.000
187.98	-362.500
188.36	-137.500
188.74	-112.500
189.12	1600.000
189.49	285.714
189.87	-133.333
190.25	300.000
190.63	7.143
191.00	-233.333
191.38	640.000
191.76	26.667
192.14	500.000
192.51	-260.000
192.89	-833.333
193.27	0.000
193.65	-44.444
194.02	-185.714
194.40	666.667
194.78	-90.000
195.15	-700.000
195.53	-72.727
195.91	-383.333
196.29	240.000
196.66	-766.667
197.04	1500.000
197.42	-150.000
197.79	26.667
198.17	-33.333
198.55	-250.000
198.92	-1100.000
199.30	162.500
199.68	-750.000
200.05	-166.667
200.43	-211.111
200.81	-1100.000
201.18	-100.000
201.56	85.714
201.94	-66.667
202.31	9.091
202.69	-40.000
203.07	-120.000
203.44	566.667
203.82	-250.000
204.19	-475.000
204.57	25.000
204.95	-900.000
205.32	-25.000
205.70	1200.000
206.08	-1900.000
206.45	-11.111
206.83	-700.000
207.20	200.000
207.58	-633.333
207.96	-300.000
208.33	-175.000
208.71	-188.889
209.08	210.000
209.46	-200.000
209.84	550.000
210.21	0.000
210.59	40.000
210.96	600.000
211.34	-250.000
211.71	-266.667
212.09	525.000
212.46	1100.000
212.84	-2700.000
213.22	900.000
213.59	66.667
213.97	-22.222
214.34	160.000
214.72	-90.000
215.09	-366.667
215.47	-116.667
215.84	-30.000
216.22	-30.000
216.59	-60.000
216.97	-475.000
217.34	850.000
217.72	-128.571
218.09	-350.000
218.47	-228.571
218.84	114.286
219.22	14.286
219.59	0.000
219.97	242.857
220.34	325.000
220.72	312.500
221.09	-15.385
221.47	0.000
221.84	333.333
222.22	-400.000
222.59	1000.000
222.97	-75.000
223.34	-650.000
223.72	-500.000
224.09	-35.714
224.46	-400.000
224.84	-78.571
225.21	-400.000
225.59	-127.273
225.96	-212.500
226.34	-57.143
226.71	-144.444
227.08	-45.000
227.46	1600.000
227.83	-242.857
228.21	-175.000
228.58	150.000
228.95	-75.000
229.33	-1500.000
229.70	-300.000
230.08	-500.000
230.45	0.000
230.82	-200.000
231.20	-1400.000
231.57	-300.000
231.95	1800.000
232.32	-33.333
232.69	-188.889
233.07	-228.571
233.44	-550.000
233.81	-113.333
234.19	-100.000
234.56	-37.500
234.93	-21.875
235.31	-271.429
235.68	-128.571
236.05	-76.471
236.43	-118.182
236.80	-12.903
237.17	-20.833
237.55	-61.905
237.92	-109.091
238.29	-25.714
238.67	8.824
239.04	-22.222
239.41	-64.516
239.79	-46.154
240.16	-11.905
240.53	-34.545
240.91	-5.128
241.28	-12.727
241.65	-12.308
242.02	-11.475
242.40	-19.672
242.77	-7.576
243.14	-15.254
243.51	-28.571
243.89	-16.456
244.26	-16.854
244.63	-12.632
245.00	-13.684
245.38	-0.847
245.75	-7.965
246.12	-5.600
246.49	-4.724
246.87	-11.382
247.24	-21.186
247.61	-20.339
247.98	-4.225
248.36	-16.783
248.73	0.000
249.10	-12.739
249.47	-3.509
249.84	-2.273
250.22	-7.738
250.59	-3.955
250.96	-10.995
251.33	0.948
251.70	-2.885
252.08	-2.844
252.45	-9.005
252.82	-6.667
253.19	-3.830
253.56	-6.452
253.94	-7.173
254.31	-3.004
254.68	-2.033
255.05	-4.839
255.42	-2.381
255.79	-2.867
256.16	-6.667
256.54	-4.779
256.91	-4.167
257.28	-5.495
257.65	-3.191
258.02	3.774
258.39	-4.013
258.76	-5.068
259.14	-4.630
259.51	-1.639
259.88	-2.744
260.25	0.932
260.62	-5.145
260.99	-2.967
261.36	-1.220
261.73	-2.312
262.10	-3.333
262.47	-2.849
262.85	2.000
263.22	-3.152
263.59	-3.077
263.96	-1.449
264.33	-1.084
264.70	-1.657
265.07	-2.198
265.44	-2.584
265.81	-3.359
266.18	-5.063
266.55	-1.225
266.92	-3.023
267.29	-1.211
267.66	-2.963
268.03	-1.691
268.40	0.939
268.77	-0.964
269.14	-0.928
269.51	-0.460
269.88	-5.046
270.25	-3.497
270.62	-3.890
270.99	-1.577
271.36	-1.865
271.73	-1.570
272.10	-2.746
272.47	-3.111
272.84	1.111
273.21	-1.606
273.58	-1.319
273.95	-2.632
274.32	-1.810
274.69	-1.313
275.06	-0.204
275.43	-3.125
275.80	1.629
276.17	-1.046
276.54	1.426
276.91	-2.675
277.28	-3.043
277.65	-0.826
278.02	-0.835
278.39	-1.768
278.76	-2.988
279.13	-0.198
279.50	-0.596
279.87	-1.903
280.23	0.000
280.60	-2.584
280.97	-0.388
281.34	-2.708
281.71	-0.192
282.08	-1.613
282.45	-4.684
282.82	-0.388
283.19	-1.455
283.56	-0.733
283.92	0.177
284.29	-0.558
284.66	0.000
285.03	-0.535
285.40	0.369
285.77	0.526
286.14	-1.264
286.51	-1.599
286.87	-0.363
287.24	-1.536
287.61	0.496
287.98	-1.560
288.35	-0.826
288.72	-1.698
289.08	-3.898
289.45	-0.673
289.82	-3.114
290.19	0.000
290.56	-2.645
290.93	-1.113
291.29	-2.431
291.66	-0.483
292.03	-0.157
292.40	-0.452
292.77	-1.708
293.13	-0.650
293.50	-0.446
293.87	0.920
294.24	-1.207
294.60	-3.182
294.97	-0.303
295.34	-1.778
295.71	-0.893
296.08	-2.304
296.44	-1.288
296.81	-0.427
297.18	-1.831
297.55	0.989
297.91	0.558
298.28	-0.137
298.65	-0.558
299.02	0.802
299.38	-1.337
299.75	-2.310
300.12	-0.385
300.48	-0.256
300.85	-0.393
301.22	0.129
301.59	1.300
301.95	0.126
302.32	-2.477
302.69	0.490
303.05	-0.855
303.42	-1.500
303.79	-1.196
304.15	-0.118
304.52	-0.583
304.89	-0.590
305.25	-1.221
305.62	-0.353
305.99	0.589
306.35	0.000
306.72	-0.911
307.09	1.249
307.45	0.114
307.82	-0.670
308.19	-0.112
308.55	0.109
308.92	0.322
309.29	0.216
309.65	0.530
310.02	0.648
310.38	-0.757
310.75	0.102
311.12	0.723
311.48	0.835
311.85	0.824
312.22	0.412
312.58	2.442
312.95	0.815
313.31	1.399
313.68	1.407
314.05	1.583
314.41	0.905
314.78	0.300
315.14	2.468
315.51	2.128
315.87	2.517
316.24	1.166
316.61	1.727
316.97	2.090
317.34	2.216
317.70	1.206
318.07	3.825
318.43	2.528
318.80	4.695
319.16	2.627
319.53	3.102
319.89	2.540
320.26	3.235
320.62	2.981
320.99	4.179
321.35	2.857
321.72	2.764
322.08	4.451
322.45	2.871
322.81	4.995
323.18	4.419
323.54	4.251
323.91	6.209
324.27	5.608
324.64	5.393
325.00	6.195
325.37	7.240
325.73	7.787
326.10	6.643
326.46	6.743
326.83	9.021
327.19	7.756
327.56	7.836
327.92	8.836
328.29	9.697
328.65	8.273
329.01	10.071
329.38	9.188
329.74	11.447
330.11	10.970
330.47	11.717
330.84	12.832
331.20	11.372
331.56	12.215
331.93	13.588
332.29	13.607
332.66	13.257
333.02	13.303
333.38	14.516
333.75	14.693
334.11	13.689
334.48	14.916
334.84	15.748
335.20	15.337
335.57	14.531
335.93	17.278
336.29	14.969
336.66	15.595
337.02	16.847
337.38	16.132
337.75	17.208
338.11	16.726
338.47	16.637
338.84	16.788
339.20	15.466
339.56	17.112
339.93	16.490
340.29	16.475
340.65	16.346
341.02	17.116
341.38	17.186
341.74	17.782
342.11	16.468
342.47	16.567
342.83	16.121
343.20	16.652
343.56	15.592
343.92	17.446
344.28	18.082
344.65	16.254
345.01	17.815
345.37	17.857
345.73	16.530
346.10	15.781
346.46	16.409
346.82	17.241
347.19	17.256
347.55	16.212
347.91	16.693
348.27	16.150
348.63	17.367
349.00	16.627
349.36	16.003
349.72	18.949
350.08	17.322
350.45	16.233
350.81	17.436
351.17	16.238
351.53	16.070
351.89	17.462
352.26	16.822
352.62	17.665
352.98	17.168
353.34	17.186
353.70	17.297
354.07	17.152
354.43	17.154
354.79	16.957
355.15	16.773
355.51	16.562
355.87	16.522
356.24	16.521
356.60	17.647
356.96	17.321
357.32	16.548
357.68	16.475
358.04	17.167
358.40	17.015
358.77	17.002
359.13	17.215
359.49	16.931
359.85	16.387
360.21	17.504
360.57	17.545
360.93	17.926
361.29	17.190
361.66	16.845
362.02	17.234
362.38	18.195
362.74	18.022
363.10	16.643
363.46	18.732
363.82	17.638
364.18	17.945
364.54	18.656
364.90	17.191
365.26	17.332
365.62	17.676
365.98	17.852
366.35	17.535
366.71	16.913
367.07	17.855
367.43	18.668
367.79	17.595
368.15	16.785
368.51	18.881
368.87	18.613
369.23	17.895
369.59	17.986
369.95	18.675
370.31	19.409
370.67	18.004
371.03	18.878
371.39	18.388
371.75	19.957
372.11	18.508
372.47	18.077
372.83	18.498
373.19	18.214
373.55	18.719
373.91	18.492
374.27	18.549
374.63	18.841
374.99	18.985
375.35	18.775
375.71	19.379
376.07	18.754
376.42	17.748
376.78	19.477
377.14	18.712
377.50	18.698
377.86	19.051
378.22	19.410
378.58	18.901
378.94	19.482
379.30	19.317
379.66	19.672
380.02	19.311
380.38	19.517
380.74	19.461
381.09	19.566
381.45	20.227
381.81	19.419
382.17	19.987
382.53	19.149
382.89	19.557
383.25	20.048
383.61	19.870
383.97	20.269
384.32	20.401
384.68	20.617
385.04	20.229
385.40	20.207
385.76	20.671
386.12	20.300
386.48	20.792
386.83	20.491
387.19	20.263
387.55	20.048
387.91	20.391
388.27	19.180
388.62	20.313
388.98	19.927
389.34	19.829
389.70	20.280
390.06	19.515
390.42	20.321
390.77	20.000
391.13	20.621
391.49	20.774
391.85	20.449
392.20	20.085
392.56	20.586
392.92	19.852
393.28	20.149
393.64	20.746
393.99	20.985
394.35	21.229
394.71	20.074
395.07	21.030
395.42	19.547
395.78	20.490
396.14	20.997
396.50	20.000
396.85	20.605
397.21	20.535
397.57	20.729
397.92	20.492
398.28	20.444
398.64	21.178
399.00	20.955
399.35	20.631
399.71	21.719
400.07	20.119
400.42	21.350
400.78	19.618
401.14	20.539
401.49	19.988
401.85	19.951
402.21	19.547
402.57	20.328
402.92	20.957
403.28	19.914
403.63	19.892
403.99	21.193
404.35	20.229
404.70	20.304
405.06	20.473
405.42	20.049
405.77	18.722
406.13	19.534
406.49	20.911
406.84	20.216
407.20	20.318
407.55	20.013
407.91	19.689
408.27	20.221
408.62	21.106
408.98	20.133
409.34	20.414
409.69	20.605
410.05	20.497
410.40	20.478
410.76	19.739
411.11	21.010
411.47	19.949
411.83	20.416
412.18	19.802
412.54	19.524
412.89	20.778
413.25	18.890
413.60	19.927
413.96	19.470
414.31	20.428
414.67	19.429
415.03	19.793
415.38	20.169
415.74	21.070
416.09	21.292
416.45	20.304
416.80	21.586
417.16	20.199
417.51	22.127
417.87	20.324
418.22	20.733
418.58	22.272
418.93	20.969
419.29	20.954
419.64	20.729
420.00	21.324
420.35	21.526
420.71	21.789
421.06	20.888
421.42	21.897
421.77	21.943
422.12	22.384
422.48	22.181
422.83	21.811
423.19	21.771
423.54	21.902
423.90	22.556
424.25	22.342
424.61	22.678
424.96	22.411
425.31	22.862
425.67	22.579
426.02	21.859
426.38	23.291
426.73	23.378
427.09	23.162
427.44	23.409
427.79	22.616
428.15	23.639
428.50	24.633
428.85	23.921
429.21	23.796
429.56	23.333
429.92	23.798
430.27	23.878
430.62	24.033
430.98	24.360
431.33	23.693
431.68	24.933
432.04	24.678
432.39	24.843
432.74	24.101
433.10	24.873
433.45	24.237
433.80	24.636
434.16	25.900
434.51	25.425
434.86	25.835
435.22	25.835
435.57	24.847
435.92	25.264
436.28	26.350
436.63	26.173
436.98	25.830
437.34	26.580
437.69	26.313
438.04	25.922
438.39	26.715
438.75	26.251
439.10	26.152
439.45	26.252
439.81	26.446
440.16	26.349
440.51	26.588
440.86	27.010
441.22	26.755
441.57	27.263
441.92	27.673
442.27	27.597
442.63	27.468
442.98	26.411
443.33	26.908
443.68	26.785
444.03	28.143
444.39	27.460
444.74	27.588
445.09	27.412
445.44	27.349
445.79	28.659
446.15	27.985
446.50	27.872
446.85	27.655
447.20	27.477
447.55	28.785
447.91	29.197
448.26	28.547
448.61	28.183
448.96	29.188
449.31	28.636
449.66	29.307
450.02	28.975
450.37	28.406
450.72	28.983
451.07	29.290
451.42	28.748
451.77	29.084
452.12	30.036
452.47	30.164
452.83	29.470
453.18	30.044
453.53	29.789
453.88	30.801
454.23	27.872
454.58	30.081
454.93	30.730
455.28	29.509
455.63	30.590
455.98	29.458
456.34	28.399
456.69	30.582
457.04	30.055
457.39	29.725
457.74	31.305
458.09	30.626
458.44	31.293
458.79	29.260
459.14	29.720
459.49	30.965
459.84	31.254
460.19	30.967
460.54	30.369
460.89	30.998
461.24	30.419
461.59	29.836
461.94	29.917
462.29	30.375
462.64	30.698
462.99	31.191
463.34	30.858
463.69	31.107
464.04	30.580
464.39	30.227
464.74	30.851
465.09	30.487
465.44	31.303
465.79	31.246
466.14	31.300
466.49	31.606
466.84	31.032
467.19	31.421
467.54	30.823
467.89	31.443
468.24	31.176
468.59	31.355
468.94	32.026
469.29	30.929
469.64	31.739
469.99	32.140
470.34	31.663
470.68	32.849
471.03	31.246
471.38	31.250
471.73	32.727
472.08	31.191
472.43	30.888
472.78	32.667
473.13	31.146
473.48	31.334
473.83	32.382
474.17	32.229
474.52	33.887
474.87	32.110
475.22	31.209
475.57	32.056
475.92	32.397
476.27	31.486
476.61	31.493
476.96	31.694
477.31	33.369
477.66	32.540
478.01	32.091
478.36	31.221
478.70	32.461
479.05	32.125
479.40	32.073
479.75	32.161
480.10	32.639
480.45	31.770
480.79	32.823
481.14	33.216
481.49	33.059
481.84	33.148
482.19	32.206
482.53	32.860
482.88	32.795
483.23	32.207
483.58	33.580
483.92	33.540
484.27	32.344
484.62	31.965
484.97	32.112
485.31	31.424
485.66	31.110
486.01	31.140
486.36	31.835
486.70	32.888
487.05	32.474
487.40	32.372
487.75	32.426
488.09	31.717
488.44	31.867
488.79	31.411
489.13	31.875
489.48	32.871
489.83	32.620
490.17	32.651
490.52	33.197
490.87	33.903
491.22	32.882
491.56	33.148
491.91	33.302
492.26	32.264
492.60	32.493
492.95	33.317
493.30	32.158
493.64	32.722
493.99	32.983
494.34	33.476
494.68	33.755
495.03	33.031
495.37	33.727
495.72	33.890
496.07	33.177
496.41	33.534
496.76	32.511
497.11	33.914
497.45	34.243
497.80	32.666
498.14	33.743
498.49	33.752
498.84	32.670
499.18	34.211
499.53	33.268
499.87	33.398
500.22	33.137
500.56	33.717
500.91	32.808
501.26	34.546
501.60	33.510
501.95	34.010
502.29	33.160
502.64	34.135
502.98	33.876
503.33	32.989
503.67	33.669
504.02	32.690
504.36	33.725
504.71	33.840
505.06	33.400
505.40	33.583
505.75	33.130
506.09	34.479
506.44	33.333
506.78	34.772
507.13	33.059
507.47	33.959
507.82	34.435
508.16	34.922
508.51	33.797
508.85	33.903
509.19	34.642
509.54	35.254
509.88	34.309
510.23	34.644
510.57	34.021
510.92	35.553
511.26	33.971
511.61	32.991
511.95	33.890
512.30	34.524
512.64	33.166
512.98	34.873
513.33	34.651
513.67	34.059
514.02	33.110
514.36	34.017
514.70	34.861
515.05	34.305
515.39	34.775
515.74	35.311
516.08	34.582
516.42	34.901
516.77	34.893
517.11	34.668
517.46	35.825
517.80	35.138
518.14	34.722
518.49	34.907
518.83	35.549
519.17	34.932
519.52	35.223
519.86	34.827
520.20	35.330
520.55	34.031
520.89	35.066
521.23	35.165
521.58	34.357
521.92	35.212
522.26	35.429
522.61	33.904
522.95	34.142
523.29	34.859
523.64	34.041
523.98	34.182
524.32	33.564
524.66	34.286
525.01	34.232
525.35	34.923
525.69	34.743
526.04	35.052
526.38	34.182
526.72	33.716
527.06	34.245
527.41	33.531
527.75	33.201
528.09	35.275
528.43	35.016
528.78	34.611
529.12	36.108
529.46	34.729
529.80	33.764
530.15	34.900
530.49	34.541
530.83	35.232
531.17	34.747
531.51	33.958
531.86	34.826
532.20	33.941
532.54	34.693
532.88	34.453
533.22	34.158
533.57	34.269
533.91	34.020
534.25	34.129
534.59	34.291
534.93	32.483
535.27	33.795
535.62	34.143
535.96	33.937
536.30	32.395
536.64	33.732
536.98	35.169
537.32	33.379
537.66	33.537
538.01	33.471
538.35	34.189
538.69	33.623
539.03	33.175
539.37	33.533
539.71	33.556
540.05	33.859
540.39	34.418
540.73	35.522
541.07	34.085
541.42	32.816
541.76	33.488
542.10	34.166
542.44	33.111
542.78	34.057
543.12	33.876
543.46	32.740
543.80	32.709
544.14	32.774
544.48	33.268
544.82	33.965
545.16	34.474
545.50	33.580
545.84	34.006
546.18	33.773
546.52	34.068
546.86	34.188
547.20	34.810
547.54	32.094
547.88	33.311
548.22	32.700
548.56	32.866
548.90	32.480
549.24	33.287
549.58	32.816
549.92	33.286
550.26	35.116
550.60	32.717
550.94	33.577
551.28	33.559
551.62	33.161
551.96	34.805
552.30	32.544
552.64	33.638
552.98	33.777
553.32	33.045
553.66	33.886
554.00	33.191
554.34	33.213
554.68	33.406
555.02	31.838
555.36	33.357
555.69	32.665
556.03	32.702
556.37	34.282
556.71	33.787
557.05	32.964
557.39	32.442
557.73	33.260
558.07	34.665
558.41	32.536
558.75	33.460
559.08	31.829
559.42	33.461
559.76	34.356
560.10	33.184
560.44	33.671
560.78	32.846
561.12	33.057
561.45	33.014
561.79	32.683
562.13	33.240
562.47	33.193
562.81	33.168
563.15	32.960
563.48	33.379
563.82	32.387
564.16	32.725
564.50	33.401
564.84	32.275
565.17	33.355
565.51	32.399
565.85	34.212
566.19	34.124
566.52	32.681
566.86	34.134
567.20	32.990
567.54	33.727
567.88	32.049
568.21	32.271
568.55	31.654
568.89	31.859
569.23	32.115
569.56	30.811
569.90	31.511
570.24	31.154
570.57	31.424
570.91	30.976
571.25	30.869
571.59	31.283
571.92	30.387
572.26	31.096
572.60	31.275
572.93	30.691
573.27	30.183
573.61	30.399
573.95	30.814
574.28	29.933
574.62	30.656
574.96	29.761
575.29	29.827
575.63	30.502
575.97	29.720
576.30	30.337
576.64	30.183
576.98	29.933
577.31	30.441
577.65	29.881
577.98	30.019
578.32	30.078
578.66	29.892
578.99	30.356
579.33	30.269
579.67	29.952
580.00	30.084
580.34	30.235
580.67	30.081
581.01	29.753
581.35	30.128
581.68	29.866
582.02	31.045
582.35	30.142
582.69	30.811
583.02	30.393
583.36	30.052
583.70	29.980
584.03	30.199
584.37	30.176
584.70	29.976
585.04	29.696
585.37	29.833
585.71	30.213
586.04	30.902
586.38	29.885
586.72	30.693
587.05	30.813
587.39	30.074
587.72	30.369
588.06	30.619
588.39	30.447
588.73	30.416
589.06	31.234
589.40	30.814
589.73	30.772
590.07	31.063
590.40	31.513
590.73	31.188
591.07	31.148
591.40	31.846
591.74	30.843
592.07	31.486
592.41	31.507
592.74	31.360
593.08	30.862
593.41	30.888
593.75	30.135
594.08	31.344
594.41	31.645
594.75	30.804
595.08	31.805
595.42	31.250
595.75	31.202
596.09	31.083
596.42	31.506
596.75	31.048
597.09	31.612
597.42	30.642
597.75	31.178
598.09	31.767
598.42	30.977
598.76	30.606
599.09	30.742
599.42	30.988
599.76	31.144
600.09	31.260
600.42	30.725
600.76	31.563
601.09	30.460
601.42	30.352
601.76	30.802
602.09	31.166
602.42	30.494
602.76	30.162
603.09	30.685
603.42	30.902
603.76	32.230
604.09	31.358
604.42	32.015
604.76	31.269
605.09	30.696
605.42	31.339
605.75	30.315
606.09	31.258
606.42	30.624
606.75	31.258
607.09	31.319
607.42	30.678
607.75	31.700
608.08	30.863
608.42	31.599
608.75	31.402
609.08	30.833
609.41	30.643
609.75	31.399
610.08	31.373
610.41	32.048
610.74	32.157
611.07	31.288
611.41	31.417
611.74	31.774
612.07	32.331
612.40	31.663
612.73	30.372
613.07	30.875
613.40	32.786
613.73	32.098
614.06	31.082
614.39	31.736
614.72	31.061
615.06	30.326
615.39	30.819
615.72	31.776
616.05	31.143
616.38	32.211
616.71	31.471
617.05	32.268
617.38	32.322
617.71	31.695
618.04	31.553
618.37	31.887
618.70	31.877
619.03	32.498
619.36	31.783
619.69	32.663
620.03	30.716
620.36	31.716
620.69	31.228
621.02	32.040
621.35	31.694
621.68	32.623
622.01	31.877
622.34	32.764
622.67	33.047
623.00	32.288
623.33	32.985
623.66	31.315
623.99	32.782
624.32	30.357
624.65	32.009
624.99	31.591
625.32	32.635
625.65	31.857
625.98	32.160
626.31	34.095
626.64	32.469
626.97	32.449
627.30	32.085
627.63	30.656
627.96	32.811
628.29	32.445
628.62	32.378
628.95	32.185
629.28	31.203
629.61	32.090
629.94	32.703
630.26	32.704
630.59	33.769
630.92	31.932
631.25	33.065
631.58	31.111
631.91	31.596
632.24	34.111
632.57	34.556
632.90	33.218
