SpectraSuite Data File
++++++++++++++++++++++++++++++++++++
Date: Sat May 16 11:34:46 PDT 2015
User: schluterlab
Dark Spectrum Present: Yes
Reference Spectrum Present: Yes
Number of Sampled Component Spectra: 1
Spectrometers: USB2E3373
Integration Time (usec): 3000 (USB2E3373)
Spectra Averaged: 3 (USB2E3373)
Boxcar Smoothing: 0 (USB2E3373)
Correct for Electrical Dark: No (USB2E3373)
Strobe/Lamp Enabled: No (USB2E3373)
Correct for Detector Non-linearity: No (USB2E3373)
Correct for Stray Light: No (USB2E3373)
Number of Pixels in Processed Spectrum: 2048
>>>>>Begin Processed Spectral Data<<<<<
178.53	0.000
178.91	120.000
179.29	666.667
179.67	-1700.000
180.04	-107.692
180.42	300.000
180.80	325.000
181.18	550.000
181.56	-75.000
181.94	1100.000
182.31	425.000
182.69	-53.846
183.07	-533.333
183.45	1650.000
183.83	433.333
184.20	-185.714
184.58	-212.500
184.96	-200.000
185.34	162.500
185.72	-450.000
186.09	383.333
186.47	-200.000
186.85	-212.500
187.23	-25.000
187.61	-175.000
187.98	-250.000
188.36	-75.000
188.74	-112.500
189.12	3400.000
189.49	357.143
189.87	-100.000
190.25	425.000
190.63	-35.714
191.00	-122.222
191.38	380.000
191.76	0.000
192.14	400.000
192.51	-280.000
192.89	-800.000
193.27	0.000
193.65	-155.556
194.02	-314.286
194.40	833.333
194.78	-200.000
195.15	-500.000
195.53	-109.091
195.91	-616.667
196.29	120.000
196.66	-300.000
197.04	2300.000
197.42	-175.000
197.79	26.667
198.17	-666.667
198.55	-700.000
198.92	-1400.000
199.30	225.000
199.68	-650.000
200.05	-222.222
200.43	-200.000
200.81	-700.000
201.18	-108.333
201.56	257.143
201.94	-53.333
202.31	22.727
202.69	10.000
203.07	-160.000
203.44	833.333
203.82	-350.000
204.19	-275.000
204.57	-150.000
204.95	-1800.000
205.32	-100.000
205.70	500.000
206.08	-2200.000
206.45	-16.667
206.83	-1300.000
207.20	-600.000
207.58	-633.333
207.96	-433.333
208.33	-125.000
208.71	-155.556
209.08	140.000
209.46	-171.429
209.84	600.000
210.21	0.000
210.59	65.000
210.96	1300.000
211.34	-250.000
211.71	-433.333
212.09	200.000
212.46	900.000
212.84	-2200.000
213.22	466.667
213.59	216.667
213.97	-88.889
214.34	90.000
214.72	-70.000
215.09	-366.667
215.47	-350.000
215.84	-90.000
216.22	-200.000
216.59	-6.667
216.97	-375.000
217.34	800.000
217.72	-142.857
218.09	-300.000
218.47	-257.143
218.84	128.571
219.22	-128.571
219.59	0.000
219.97	357.143
220.34	250.000
220.72	125.000
221.09	-38.462
221.47	0.000
221.84	533.333
222.22	-400.000
222.59	2000.000
222.97	-225.000
223.34	-900.000
223.72	-800.000
224.09	-121.429
224.46	-300.000
224.84	28.571
225.21	-57.143
225.59	-63.636
225.96	-225.000
226.34	-57.143
226.71	-55.556
227.08	-35.000
227.46	500.000
227.83	-128.571
228.21	-300.000
228.58	400.000
228.95	-68.750
229.33	-2100.000
229.70	-340.000
230.08	-1250.000
230.45	-150.000
230.82	-50.000
231.20	-700.000
231.57	-650.000
231.95	1400.000
232.32	19.048
232.69	-222.222
233.07	-71.429
233.44	-850.000
233.81	-120.000
234.19	-133.333
234.56	-75.000
234.93	0.000
235.31	-257.143
235.68	-171.429
236.05	-64.706
236.43	-72.727
236.80	-9.677
237.17	-45.833
237.55	-23.810
237.92	-136.364
238.29	-20.000
238.67	-44.118
239.04	8.333
239.41	-48.387
239.79	-61.538
240.16	-14.286
240.53	-40.000
240.91	-17.949
241.28	-14.545
241.65	-13.846
242.02	-18.033
242.40	-21.311
242.77	4.545
243.14	-28.814
243.51	-37.143
243.89	-20.253
244.26	-13.483
244.63	-9.474
245.00	-12.632
245.38	-2.542
245.75	-7.080
246.12	-8.000
246.49	-4.724
246.87	-13.821
247.24	-15.254
247.61	-11.017
247.98	-4.225
248.36	-10.490
248.73	-1.899
249.10	-5.096
249.47	-4.678
249.84	-1.136
250.22	-6.548
250.59	-6.780
250.96	-3.665
251.33	2.370
251.70	-1.923
252.08	3.318
252.45	-6.161
252.82	-6.190
253.19	-0.851
253.56	-4.435
253.94	-4.219
254.31	-1.717
254.68	-0.407
255.05	-3.629
255.42	-5.556
255.79	-1.075
256.16	0.392
256.54	-4.044
256.91	-7.197
257.28	-6.593
257.65	-4.610
258.02	2.201
258.39	-0.669
258.76	-4.730
259.14	0.000
259.51	-3.934
259.88	-3.049
260.25	-1.242
260.62	-3.215
260.99	-1.780
261.36	-1.524
261.73	-0.867
262.10	0.833
262.47	-0.570
262.85	0.571
263.22	-4.011
263.59	-2.769
263.96	-0.290
264.33	0.271
264.70	-0.829
265.07	-4.396
265.44	-1.809
265.81	-3.359
266.18	-3.291
266.55	-2.206
266.92	0.504
267.29	0.969
267.66	-2.222
268.03	-0.483
268.40	-1.174
268.77	-1.446
269.14	-1.160
269.51	0.000
269.88	-1.147
270.25	-4.196
270.62	-1.831
270.99	-0.450
271.36	-1.166
271.73	-2.018
272.10	-1.602
272.47	-0.889
272.84	-0.444
273.21	-1.147
273.58	-1.099
273.95	-1.754
274.32	-2.036
274.69	0.656
275.06	2.249
275.43	-3.125
275.80	1.018
276.17	-2.301
276.54	1.629
276.91	-2.675
277.28	-0.811
277.65	-1.653
278.02	-0.835
278.39	-0.393
278.76	-1.992
279.13	-0.988
279.50	-0.398
279.87	-1.903
280.23	-0.607
280.60	-0.994
280.97	-0.388
281.34	-1.547
281.71	0.000
282.08	1.815
282.45	-1.426
282.82	-0.775
283.19	0.000
283.56	1.832
283.92	-0.707
284.29	-1.301
284.66	-1.439
285.03	2.139
285.40	-0.923
285.77	0.526
286.14	-1.444
286.51	0.000
286.87	1.270
287.24	0.341
287.61	0.165
287.98	-0.520
288.35	-0.165
288.72	-2.207
289.08	-0.508
289.45	0.000
289.82	-2.249
290.19	0.493
290.56	-1.157
290.93	-0.636
291.29	-0.324
291.66	-1.449
292.03	0.471
292.40	0.753
292.77	2.019
293.13	-0.650
293.50	1.337
293.87	0.307
294.24	1.357
294.60	-1.061
294.97	0.455
295.34	0.148
295.71	1.042
296.08	-1.843
296.44	-2.718
296.81	1.282
297.18	1.690
297.55	1.130
297.91	1.674
298.28	0.411
298.65	1.255
299.02	2.540
299.38	2.273
299.75	0.951
300.12	1.667
300.48	1.535
300.85	1.835
301.22	1.682
301.59	2.081
301.95	1.763
302.32	-1.173
302.69	3.060
303.05	2.686
303.42	2.500
303.79	1.555
304.15	2.251
304.52	2.100
304.89	2.125
305.25	2.442
305.62	1.175
305.99	3.416
306.35	4.218
306.72	2.506
307.09	3.065
307.45	2.611
307.82	2.123
308.19	3.132
308.55	2.941
308.92	2.793
309.29	2.811
309.65	3.818
310.02	4.212
310.38	2.919
310.75	4.508
311.12	4.752
311.48	4.280
311.85	4.531
312.22	5.252
312.58	4.680
312.95	5.607
313.31	5.694
313.68	6.633
314.05	5.440
314.41	5.030
314.78	4.496
315.14	7.404
315.51	5.775
315.87	7.454
316.24	8.552
316.61	7.774
316.97	7.363
317.34	6.262
317.70	6.957
318.07	8.022
318.43	7.303
318.80	9.014
319.16	8.443
319.53	8.835
319.89	7.902
320.26	8.627
320.62	9.519
320.99	9.453
321.35	7.488
321.72	9.110
322.08	9.990
322.45	8.614
322.81	11.047
323.18	9.990
323.54	10.998
323.91	12.048
324.27	11.122
324.64	12.797
325.00	13.525
325.37	12.489
325.73	14.523
326.10	12.755
326.46	13.485
326.83	14.298
327.19	16.180
327.56	17.121
327.92	17.247
328.29	18.442
328.65	16.182
329.01	18.993
329.38	18.109
329.74	19.231
330.11	19.311
330.47	20.163
330.84	19.707
331.20	19.314
331.56	20.055
331.93	20.337
332.29	21.735
332.66	20.193
333.02	21.176
333.38	21.505
333.75	21.015
334.11	20.711
334.48	21.536
334.84	21.435
335.20	21.543
335.57	20.758
335.93	23.008
336.29	22.321
336.66	20.529
337.02	22.252
337.38	20.588
337.75	21.335
338.11	21.467
338.47	21.619
338.84	22.505
339.20	22.671
339.56	21.569
339.93	22.575
340.29	20.372
340.65	21.241
341.02	21.669
341.38	21.988
341.74	22.100
342.11	21.587
342.47	22.403
342.83	21.327
343.20	21.776
343.56	20.327
343.92	21.202
344.28	22.624
344.65	21.700
345.01	22.017
345.37	22.259
345.73	21.686
346.10	20.932
346.46	21.608
346.82	20.690
347.19	21.693
347.55	21.589
347.91	21.732
348.27	19.809
348.63	22.213
349.00	20.923
349.36	20.297
349.72	21.576
350.08	20.690
350.45	20.804
350.81	20.939
351.17	21.785
351.53	20.764
351.89	20.372
352.26	21.240
352.62	22.120
352.98	21.203
353.34	21.423
353.70	19.768
354.07	20.614
354.43	21.976
354.79	21.870
355.15	21.006
355.51	21.250
355.87	20.553
356.24	21.366
356.60	23.368
356.96	21.940
357.32	21.061
357.68	21.226
358.04	21.324
358.40	21.732
358.77	20.866
359.13	21.270
359.49	22.222
359.85	21.265
360.21	22.755
360.57	22.515
360.93	22.963
361.29	22.795
361.66	21.418
362.02	21.450
362.38	22.744
362.74	22.564
363.10	21.951
363.46	22.934
363.82	21.939
364.18	22.793
364.54	23.159
364.90	22.432
365.26	22.183
365.62	23.022
365.98	22.546
366.35	21.901
366.71	22.128
367.07	23.006
367.43	24.571
367.79	23.986
368.15	23.684
368.51	25.175
368.87	25.275
369.23	24.912
369.59	23.403
369.95	23.679
370.31	24.613
370.67	22.560
371.03	23.907
371.39	23.267
371.75	25.036
372.11	25.681
372.47	24.223
372.83	25.522
373.19	24.857
373.55	26.319
373.91	26.529
374.27	25.257
374.63	25.052
374.99	25.730
375.35	25.370
375.71	26.334
376.07	26.146
376.42	25.894
376.78	26.732
377.14	26.847
377.50	26.499
377.86	26.268
378.22	26.947
378.58	26.498
378.94	25.894
379.30	27.300
379.66	27.322
380.02	26.738
380.38	27.311
380.74	27.843
381.09	28.822
381.45	29.117
381.81	28.433
382.17	28.133
382.53	28.207
382.89	28.230
383.25	29.259
383.61	28.420
383.97	29.822
384.32	30.538
384.68	30.774
385.04	30.193
385.40	30.676
385.76	30.122
386.12	30.106
386.48	30.879
386.83	30.000
387.19	30.663
387.55	31.012
387.91	31.891
388.27	30.338
388.62	31.731
388.98	31.193
389.34	31.579
389.70	31.730
390.06	31.572
390.42	32.628
390.77	32.050
391.13	32.360
391.49	32.689
391.85	32.606
392.20	31.735
392.56	31.460
392.92	33.257
393.28	33.639
393.64	32.832
393.99	33.785
394.35	33.698
394.71	33.786
395.07	34.275
395.42	32.658
395.78	32.684
396.14	34.579
396.50	33.884
396.85	34.053
397.21	33.657
397.57	33.617
397.92	34.192
398.28	34.722
398.64	34.146
399.00	34.775
399.35	33.935
399.71	36.063
400.07	34.149
400.42	34.124
400.78	34.049
401.14	34.431
401.49	35.318
401.85	35.509
402.21	33.671
402.57	35.073
402.92	36.375
403.28	35.723
403.63	33.853
403.99	36.109
404.35	34.118
404.70	35.459
405.06	35.813
405.42	35.670
405.77	36.765
406.13	34.355
406.49	36.309
406.84	36.413
407.20	35.571
407.55	36.352
407.91	35.298
408.27	35.907
408.62	36.140
408.98	36.689
409.34	36.502
409.69	37.177
410.05	35.840
410.40	36.665
410.76	37.344
411.11	37.905
411.47	36.637
411.83	37.714
412.18	36.139
412.54	35.754
412.89	36.817
413.25	36.068
413.60	35.966
413.96	36.168
414.31	36.942
414.67	37.460
415.03	36.223
415.38	36.825
415.74	38.144
416.09	37.468
416.45	38.095
416.80	37.451
417.16	38.272
417.51	38.739
417.87	38.382
418.22	37.863
418.58	39.024
418.93	38.197
419.29	38.080
419.64	38.756
420.00	39.125
420.35	38.321
420.71	39.556
421.06	38.047
421.42	38.934
421.77	38.526
422.12	39.228
422.48	38.963
422.83	40.205
423.19	40.590
423.54	39.135
423.90	39.676
424.25	39.706
424.61	40.410
424.96	41.369
425.31	40.973
425.67	39.140
426.02	39.874
426.38	40.956
426.73	41.146
427.09	40.993
427.44	41.136
427.79	40.872
428.15	40.993
428.50	40.762
428.85	41.847
429.21	41.505
429.56	41.615
429.92	41.333
430.27	41.525
430.62	42.215
430.98	41.453
431.33	42.263
431.68	43.646
432.04	44.152
432.39	43.020
432.74	42.386
433.10	42.375
433.45	42.372
433.80	43.113
434.16	42.450
434.51	44.274
434.86	43.937
435.22	43.151
435.57	43.696
435.92	42.790
436.28	44.095
436.63	43.923
436.98	43.013
437.34	43.591
437.69	44.049
438.04	44.186
438.39	45.367
438.75	43.539
439.10	44.253
439.45	43.874
439.81	44.940
440.16	44.350
440.51	45.118
440.86	45.171
441.22	43.726
441.57	44.421
441.92	44.297
442.27	45.292
442.63	45.118
442.98	44.695
443.33	44.756
443.68	45.336
444.03	45.236
444.39	45.326
444.74	46.586
445.09	45.450
445.44	47.271
445.79	46.966
446.15	44.524
446.50	46.053
446.85	45.459
447.20	47.038
447.55	45.470
447.91	47.221
448.26	46.257
448.61	45.840
448.96	46.835
449.31	46.223
449.66	46.823
450.02	44.986
450.37	46.783
450.72	45.254
451.07	46.197
451.42	45.849
451.77	47.157
452.12	47.855
452.47	46.725
452.83	47.699
453.18	47.059
453.53	47.699
453.88	47.069
454.23	47.703
454.58	48.415
454.93	48.866
455.28	47.546
455.63	47.666
455.98	49.940
456.34	48.158
456.69	47.842
457.04	47.265
457.39	47.608
457.74	48.139
458.09	47.796
458.44	48.730
458.79	47.085
459.14	48.260
459.49	48.549
459.84	47.442
460.19	49.045
460.54	46.884
460.89	48.599
461.24	46.812
461.59	48.535
461.94	50.286
462.29	49.375
462.64	49.407
462.99	49.465
463.34	49.156
463.69	49.364
464.04	47.393
464.39	49.044
464.74	47.991
465.09	47.625
465.44	47.772
465.79	48.167
466.14	49.655
466.49	49.165
466.84	48.379
467.19	49.314
467.54	48.418
467.89	49.075
468.24	48.931
468.59	49.157
468.94	49.582
469.29	48.928
469.64	48.989
469.99	49.831
470.34	49.499
470.68	50.436
471.03	50.929
471.38	50.000
471.73	51.888
472.08	50.201
472.43	49.936
472.78	50.133
473.13	49.768
473.48	50.670
473.83	49.752
474.17	50.382
474.52	51.023
474.87	49.184
475.22	50.029
475.57	49.222
475.92	48.974
476.27	50.229
476.61	48.958
476.96	50.084
477.31	49.408
477.66	50.415
478.01	50.189
478.36	49.188
478.70	50.240
479.05	49.703
479.40	49.793
479.75	49.541
480.10	48.810
480.45	48.549
480.79	50.197
481.14	50.527
481.49	49.710
481.84	49.145
482.19	49.246
482.53	49.953
482.88	49.739
483.23	49.437
483.58	49.445
483.92	50.884
484.27	48.383
484.62	48.294
484.97	48.558
485.31	46.848
485.66	46.447
486.01	46.397
486.36	47.075
486.70	48.706
487.05	47.920
487.40	48.424
487.75	47.894
488.09	47.468
488.44	48.512
488.79	47.895
489.13	47.661
489.48	48.491
489.83	49.127
490.17	48.672
490.52	50.317
490.87	49.885
491.22	50.023
491.56	49.907
491.91	50.429
492.26	49.528
492.60	49.144
492.95	49.738
493.30	49.595
493.64	48.613
493.99	50.382
494.34	50.381
494.68	50.000
495.03	50.287
495.37	50.147
495.72	50.246
496.07	50.023
496.41	50.672
496.76	49.224
497.11	49.411
497.45	50.862
497.80	50.375
498.14	50.442
498.49	50.025
498.84	48.447
499.18	50.731
499.53	50.073
499.87	50.434
500.22	49.657
500.56	50.275
500.91	49.064
501.26	50.315
501.60	49.109
501.95	50.483
502.29	49.268
502.64	49.788
502.98	49.018
503.33	49.154
503.67	50.239
504.02	48.720
504.36	49.314
504.71	49.899
505.06	49.825
505.40	49.451
505.75	50.559
506.09	50.253
506.44	49.774
506.78	49.824
507.13	49.073
507.47	50.600
507.82	50.749
508.16	50.207
508.51	48.480
508.85	50.725
509.19	49.765
509.54	49.841
509.88	50.319
510.23	50.367
510.57	50.423
510.92	50.752
511.26	49.070
511.61	50.648
511.95	50.539
512.30	51.072
512.64	50.083
512.98	50.550
513.33	50.302
513.67	51.647
514.02	50.112
514.36	50.582
514.70	50.085
515.05	50.886
515.39	50.519
515.74	50.262
516.08	50.951
516.42	50.028
516.77	50.664
517.11	51.831
517.46	52.691
517.80	51.685
518.14	50.362
518.49	51.106
518.83	50.267
519.17	51.095
519.52	51.301
519.86	52.210
520.20	51.589
520.55	52.492
520.89	51.972
521.23	51.282
521.58	52.163
521.92	52.375
522.26	50.540
522.61	50.253
522.95	52.138
523.29	51.536
523.64	50.531
523.98	51.750
524.32	51.666
524.66	50.994
525.01	52.730
525.35	51.869
525.69	52.049
526.04	52.023
526.38	52.069
526.72	50.702
527.06	52.799
527.41	52.211
527.75	50.957
528.09	51.026
528.43	52.787
528.78	50.565
529.12	52.625
529.46	51.482
529.80	51.323
530.15	51.578
530.49	51.100
530.83	51.015
531.17	51.717
531.51	51.306
531.86	50.362
532.20	52.901
532.54	52.406
532.88	50.922
533.22	51.805
533.57	51.567
533.91	51.061
534.25	50.911
534.59	50.718
534.93	49.098
535.27	51.038
535.62	49.616
535.96	50.420
536.30	51.113
536.64	50.664
536.98	51.836
537.32	50.242
537.66	50.849
538.01	51.890
538.35	51.284
538.69	51.203
539.03	50.846
539.37	50.699
539.71	51.501
540.05	51.337
540.39	51.524
540.73	52.039
541.07	51.298
541.42	50.574
541.76	49.701
542.10	50.371
542.44	50.833
542.78	51.018
543.12	50.849
543.46	49.315
543.80	48.896
544.14	50.369
544.48	49.803
544.82	50.135
545.16	50.101
545.50	49.798
545.84	50.417
546.18	50.832
546.52	52.418
546.86	51.211
547.20	53.094
547.54	47.865
547.88	50.962
548.22	48.427
548.56	49.900
548.90	51.348
549.24	50.946
549.58	50.812
549.92	50.389
550.26	51.590
550.60	49.858
550.94	50.438
551.28	50.489
551.62	50.886
551.96	51.664
552.30	50.244
552.64	51.020
552.98	51.226
553.32	50.289
553.66	51.190
554.00	50.462
554.34	50.325
554.68	50.585
555.02	51.085
555.36	49.676
555.69	50.860
556.03	50.526
556.37	49.929
556.71	51.038
557.05	50.850
557.39	51.448
557.73	51.058
558.07	51.545
558.41	50.711
558.75	49.125
559.08	50.661
559.42	51.455
559.76	51.150
560.10	51.902
560.44	50.434
560.78	50.383
561.12	50.242
561.45	50.616
561.79	50.244
562.13	50.140
562.47	50.560
562.81	50.000
563.15	50.175
563.48	50.035
563.82	49.899
564.16	49.155
564.50	50.000
564.84	50.463
565.17	49.934
565.51	50.000
565.85	51.386
566.19	50.066
566.52	49.250
566.86	49.937
567.20	49.455
567.54	49.557
567.88	48.130
568.21	48.322
568.55	47.826
568.89	47.018
569.23	47.524
569.56	46.995
569.90	46.814
570.24	46.937
570.57	45.483
570.91	45.291
571.25	44.812
571.59	46.082
571.92	44.315
572.26	44.997
572.60	44.586
572.93	44.379
573.27	43.659
573.61	43.877
573.95	44.439
574.28	44.096
574.62	44.789
574.96	43.395
575.29	44.029
575.63	43.908
575.97	43.366
576.30	44.012
576.64	44.047
576.98	42.797
577.31	43.719
577.65	43.480
577.98	43.118
578.32	43.170
578.66	43.246
578.99	43.444
579.33	44.235
579.67	43.267
580.00	43.378
580.34	43.518
580.67	43.883
581.01	42.710
581.35	43.173
581.68	43.282
582.02	43.345
582.35	43.305
582.69	44.114
583.02	44.319
583.36	43.470
583.70	43.779
584.03	43.615
584.37	44.032
584.70	42.850
585.04	43.241
585.37	42.625
585.71	43.880
586.04	43.668
586.38	43.357
586.72	43.602
587.05	44.180
587.39	43.895
587.72	44.173
588.06	44.374
588.39	44.005
588.73	44.568
589.06	45.332
589.40	45.861
589.73	44.830
590.07	44.465
590.40	45.166
590.73	45.222
591.07	44.385
591.40	45.407
591.74	44.874
592.07	46.081
592.41	44.246
592.74	44.581
593.08	44.387
593.41	44.178
593.75	43.554
594.08	45.723
594.41	45.656
594.75	44.658
595.08	44.925
595.42	44.906
595.75	44.248
596.09	45.052
596.42	46.399
596.75	44.890
597.09	44.613
597.42	45.570
597.75	46.058
598.09	45.323
598.42	44.631
598.76	44.518
599.09	44.633
599.42	44.944
599.76	44.734
600.09	45.229
600.42	45.196
600.76	44.407
601.09	44.208
601.42	44.361
601.76	44.899
602.09	44.990
602.42	44.527
602.76	44.703
603.09	44.476
603.42	45.286
603.76	45.313
604.09	44.614
604.42	44.713
604.76	45.137
605.09	45.524
605.42	46.011
605.75	44.157
606.09	44.832
606.42	44.868
606.75	44.611
607.09	45.346
607.42	44.762
607.75	44.901
608.08	45.549
608.42	45.648
608.75	44.533
609.08	44.666
609.41	45.840
609.75	43.784
610.08	46.275
610.41	45.060
610.74	46.325
611.07	46.400
611.41	45.386
611.74	46.272
612.07	47.154
612.40	45.682
612.73	46.150
613.07	45.460
613.40	46.360
613.73	45.777
614.06	46.842
614.39	47.745
614.72	44.525
615.06	45.652
615.39	45.741
615.72	46.659
616.05	45.389
616.38	47.069
616.71	47.207
617.05	47.346
617.38	46.625
617.71	47.482
618.04	47.702
618.37	47.296
618.70	47.653
619.03	46.852
619.36	47.921
619.69	48.744
620.03	47.107
620.36	48.172
620.69	48.241
621.02	46.880
621.35	48.548
621.68	48.934
622.01	48.706
622.34	48.758
622.67	48.750
623.00	48.661
623.33	48.134
623.66	46.529
623.99	48.722
624.32	48.437
624.65	47.829
624.99	49.589
625.32	48.428
625.65	47.630
625.98	48.592
626.31	49.592
626.64	48.536
626.97	48.801
627.30	49.447
627.63	48.705
627.96	50.044
628.29	49.081
628.62	49.761
628.95	49.016
629.28	48.026
629.61	50.442
629.94	50.473
630.26	51.392
630.59	50.854
630.92	50.350
631.25	51.008
631.58	50.899
631.91	50.426
632.24	52.778
632.57	53.556
632.90	53.793
633.23	51.051
