SpectraSuite Data File
++++++++++++++++++++++++++++++++++++
Date: Sat May 16 11:43:33 PDT 2015
User: schluterlab
Dark Spectrum Present: Yes
Reference Spectrum Present: Yes
Number of Sampled Component Spectra: 1
Spectrometers: USB2E3373
Integration Time (usec): 3000 (USB2E3373)
Spectra Averaged: 3 (USB2E3373)
Boxcar Smoothing: 0 (USB2E3373)
Correct for Electrical Dark: No (USB2E3373)
Strobe/Lamp Enabled: No (USB2E3373)
Correct for Detector Non-linearity: No (USB2E3373)
Correct for Stray Light: No (USB2E3373)
Number of Pixels in Processed Spectrum: 2048
>>>>>Begin Processed Spectral Data<<<<<
178.53	0.000
178.91	120.000
179.29	633.333
179.67	-900.000
180.04	-61.538
180.42	1400.000
180.80	475.000
181.18	700.000
181.56	-187.500
181.94	1200.000
182.31	675.000
182.69	-53.846
183.07	-900.000
183.45	1600.000
183.83	400.000
184.20	-357.143
184.58	-262.500
184.96	-250.000
185.34	100.000
185.72	-550.000
186.09	200.000
186.47	-225.000
186.85	-100.000
187.23	37.500
187.61	-150.000
187.98	-325.000
188.36	-112.500
188.74	-37.500
189.12	1600.000
189.49	214.286
189.87	-58.333
190.25	400.000
190.63	-14.286
191.00	-144.444
191.38	300.000
191.76	-6.667
192.14	340.000
192.51	-240.000
192.89	-400.000
193.27	0.000
193.65	-11.111
194.02	-157.143
194.40	566.667
194.78	-100.000
195.15	-600.000
195.53	-136.364
195.91	-333.333
196.29	60.000
196.66	-500.000
197.04	3000.000
197.42	-275.000
197.79	-20.000
198.17	-633.333
198.55	-250.000
198.92	-1000.000
199.30	250.000
199.68	-850.000
200.05	-211.111
200.43	-100.000
200.81	0.000
201.18	-83.333
201.56	142.857
201.94	20.000
202.31	13.636
202.69	0.000
203.07	-100.000
203.44	600.000
203.82	-366.667
204.19	-325.000
204.57	0.000
204.95	-1900.000
205.32	0.000
205.70	800.000
206.08	-1900.000
206.45	-61.111
206.83	-1250.000
207.20	-400.000
207.58	-500.000
207.96	-366.667
208.33	-175.000
208.71	-100.000
209.08	250.000
209.46	-242.857
209.84	650.000
210.21	0.000
210.59	50.000
210.96	1100.000
211.34	-183.333
211.71	-200.000
212.09	475.000
212.46	950.000
212.84	-2400.000
213.22	633.333
213.59	233.333
213.97	-55.556
214.34	130.000
214.72	-140.000
215.09	-400.000
215.47	-116.667
215.84	-20.000
216.22	-180.000
216.59	-13.333
216.97	-350.000
217.34	850.000
217.72	-171.429
218.09	-250.000
218.47	-128.571
218.84	228.571
219.22	-200.000
219.59	0.000
219.97	385.714
220.34	425.000
220.72	162.500
221.09	7.692
221.47	0.000
221.84	300.000
222.22	-600.000
222.59	1500.000
222.97	-212.500
223.34	-1150.000
223.72	-633.333
224.09	-7.143
224.46	-25.000
224.84	-21.429
225.21	-285.714
225.59	-136.364
225.96	-212.500
226.34	-228.571
226.71	-88.889
227.08	-65.000
227.46	1300.000
227.83	-300.000
228.21	-187.500
228.58	50.000
228.95	-68.750
229.33	-1000.000
229.70	-300.000
230.08	-850.000
230.45	-125.000
230.82	-100.000
231.20	-1700.000
231.57	-800.000
231.95	700.000
232.32	-4.762
232.69	-100.000
233.07	-157.143
233.44	-1000.000
233.81	-46.667
234.19	-66.667
234.56	-25.000
234.93	6.250
235.31	-142.857
235.68	-121.429
236.05	-11.765
236.43	-100.000
236.80	-35.484
237.17	-25.000
237.55	-47.619
237.92	-59.091
238.29	-45.714
238.67	-8.824
239.04	-13.889
239.41	-61.290
239.79	-38.462
240.16	-33.333
240.53	-9.091
240.91	7.692
241.28	7.273
241.65	7.692
242.02	0.000
242.40	-3.279
242.77	-10.606
243.14	0.000
243.51	-14.286
243.89	-7.595
244.26	-6.742
244.63	6.316
245.00	7.368
245.38	-5.932
245.75	9.735
246.12	12.800
246.49	11.024
246.87	5.691
247.24	5.932
247.61	5.932
247.98	6.338
248.36	7.692
248.73	12.658
249.10	7.643
249.47	15.205
249.84	11.932
250.22	-1.190
250.59	16.384
250.96	8.901
251.33	18.483
251.70	11.058
252.08	11.848
252.45	8.057
252.82	7.619
253.19	12.766
253.56	10.887
253.94	13.924
254.31	9.871
254.68	11.789
255.05	7.661
255.42	12.698
255.79	6.810
256.16	9.412
256.54	11.397
256.91	13.258
257.28	7.692
257.65	9.574
258.02	12.579
258.39	12.709
258.76	9.797
259.14	10.802
259.51	15.082
259.88	11.890
260.25	12.733
260.62	13.505
260.99	11.869
261.36	14.024
261.73	13.295
262.10	15.278
262.47	8.547
262.85	15.429
263.22	12.894
263.59	13.538
263.96	12.754
264.33	13.008
264.70	13.536
265.07	14.835
265.44	12.145
265.81	10.336
266.18	9.873
266.55	13.725
266.92	15.869
267.29	14.770
267.66	13.827
268.03	13.527
268.40	14.085
268.77	12.771
269.14	13.921
269.51	12.874
269.88	12.615
270.25	13.520
270.62	14.416
270.99	13.739
271.36	13.054
271.73	12.780
272.10	15.103
272.47	12.889
272.84	14.444
273.21	15.826
273.58	14.066
273.95	12.281
274.32	15.158
274.69	15.098
275.06	14.519
275.43	12.723
275.80	16.293
276.17	14.854
276.54	15.479
276.91	12.346
277.28	11.359
277.65	14.256
278.02	12.317
278.39	13.752
278.76	14.143
279.13	15.415
279.50	13.121
279.87	13.531
280.23	13.968
280.60	13.320
280.97	13.010
281.34	13.540
281.71	12.692
282.08	12.500
282.45	14.460
282.82	12.984
283.19	13.455
283.56	15.385
283.92	15.548
284.29	14.684
284.66	14.748
285.03	13.904
285.40	15.867
285.77	15.263
286.14	15.343
286.51	11.901
286.87	14.519
287.24	15.188
287.61	15.041
287.98	11.958
288.35	11.901
288.72	14.431
289.08	13.390
289.45	13.300
289.82	10.900
290.19	15.107
290.56	15.537
290.93	14.308
291.29	11.669
291.66	15.942
292.03	15.699
292.40	14.608
292.77	15.373
293.13	15.610
293.50	13.967
293.87	15.798
294.24	13.725
294.60	14.697
294.97	16.844
295.34	15.407
295.71	14.435
296.08	12.750
296.44	14.163
296.81	18.234
297.18	15.211
297.55	16.384
297.91	17.992
298.28	14.384
298.65	15.063
299.02	17.781
299.38	16.176
299.75	13.587
300.12	16.538
300.48	16.880
300.85	15.596
301.22	15.524
301.59	15.605
301.95	17.380
302.32	14.863
302.69	16.769
303.05	14.530
303.42	15.500
303.79	16.029
304.15	15.995
304.52	15.403
304.89	15.821
305.25	16.484
305.62	15.511
305.99	17.550
306.35	15.649
306.72	15.604
307.09	17.140
307.45	16.232
307.82	15.307
308.19	15.436
308.55	15.577
308.92	15.575
309.29	16.649
309.65	16.331
310.02	17.063
310.38	16.000
310.75	18.238
311.12	16.529
311.48	18.580
311.85	18.641
312.22	17.714
312.58	17.599
312.95	17.533
313.31	17.083
313.68	18.090
314.05	18.694
314.41	17.002
314.78	16.683
315.14	18.559
315.51	17.528
315.87	17.231
316.24	19.825
316.61	18.618
316.97	19.701
317.34	18.401
317.70	18.646
318.07	19.496
318.43	17.603
318.80	20.751
319.16	19.231
319.53	18.515
319.89	19.003
320.26	20.490
320.62	18.846
320.99	19.900
321.35	19.409
321.72	19.447
322.08	21.167
322.45	21.386
322.81	20.845
323.18	21.998
323.54	20.795
323.91	22.057
324.27	23.289
324.64	23.218
325.00	23.386
325.37	24.887
325.73	24.497
326.10	22.764
326.46	26.270
326.83	24.936
327.19	25.521
327.56	26.576
327.92	27.952
328.29	27.792
328.65	27.636
329.01	28.357
329.38	28.189
329.74	31.502
330.11	29.374
330.47	29.973
330.84	31.164
331.20	29.783
331.56	31.723
331.93	32.504
332.29	32.694
332.66	31.431
333.02	32.036
333.38	32.527
333.75	33.037
334.11	32.533
334.48	32.921
334.84	34.383
335.20	34.397
335.57	33.394
335.93	35.273
336.29	34.544
336.66	34.273
337.02	35.135
337.38	35.829
337.75	35.382
338.11	35.599
338.47	35.765
338.84	36.207
339.20	36.555
339.56	37.433
339.93	35.097
340.29	36.227
340.65	36.713
341.02	35.413
341.38	36.057
341.74	36.494
342.11	35.154
342.47	35.708
342.83	36.440
343.20	37.575
343.56	36.082
343.92	36.394
344.28	38.183
344.65	35.066
345.01	37.227
345.37	37.375
345.73	35.843
346.10	35.405
346.46	36.556
346.82	36.889
347.19	35.990
347.55	36.356
347.91	36.850
348.27	36.118
348.63	36.187
349.00	36.754
349.36	35.831
349.72	37.102
350.08	36.728
350.45	37.589
350.81	37.182
351.17	36.334
351.53	37.072
351.89	37.268
352.26	36.124
352.62	38.018
352.98	37.658
353.34	37.490
353.70	36.602
354.07	37.057
354.43	37.866
354.79	37.876
355.15	37.700
355.51	37.891
355.87	36.364
356.24	37.808
356.60	39.162
356.96	37.413
357.32	37.846
357.68	37.701
358.04	38.876
358.40	37.200
358.77	37.172
359.13	38.103
359.49	36.961
359.85	36.890
360.21	37.519
360.57	36.822
360.93	38.074
361.29	38.864
361.66	38.262
362.02	37.648
362.38	37.711
362.74	38.974
363.10	38.235
363.46	39.103
363.82	38.120
364.18	39.291
364.54	39.099
364.90	38.225
365.26	39.444
365.62	38.917
365.98	38.834
366.35	38.592
366.71	38.478
367.07	39.520
367.43	39.602
367.79	39.244
368.15	39.758
368.51	38.392
368.87	38.118
369.23	38.316
369.59	38.542
369.95	39.042
370.31	39.100
370.67	38.684
371.03	38.557
371.39	38.402
371.75	39.628
372.11	39.742
372.47	40.058
372.83	39.569
373.19	39.143
373.55	40.394
373.91	39.260
374.27	39.699
374.63	38.785
374.99	39.917
375.35	39.637
375.71	40.378
376.07	40.315
376.42	38.874
376.78	39.804
377.14	39.322
377.50	39.652
377.86	39.402
378.22	40.201
378.58	40.272
378.94	39.457
379.30	40.280
379.66	39.709
380.02	39.394
380.38	40.060
380.74	39.273
381.09	37.434
381.45	40.155
381.81	40.109
382.17	39.599
382.53	39.027
382.89	38.756
383.25	40.337
383.61	39.564
383.97	40.171
384.32	40.926
384.68	39.420
385.04	39.674
385.40	40.962
385.76	40.183
386.12	40.037
386.48	40.656
386.83	39.877
387.19	40.347
387.55	41.005
387.91	39.893
388.27	38.842
388.62	39.784
388.98	39.370
389.34	39.351
389.70	38.855
390.06	39.217
390.42	40.962
390.77	40.379
391.13	41.553
391.49	40.674
391.85	39.589
392.20	39.502
392.56	39.707
392.92	39.932
393.28	40.011
393.64	39.447
393.99	40.862
394.35	40.024
394.71	39.345
395.07	40.678
395.42	37.664
395.78	39.535
396.14	38.879
396.50	39.021
396.85	39.173
397.21	39.793
397.57	39.635
397.92	39.169
398.28	39.778
398.64	39.024
399.00	40.056
399.35	39.402
399.71	39.837
400.07	39.701
400.42	39.538
400.78	38.640
401.14	39.102
401.49	38.797
401.85	39.658
402.21	39.571
402.57	39.684
402.92	39.207
403.28	39.093
403.63	38.346
403.99	38.409
404.35	38.466
404.70	38.619
405.06	39.158
405.42	38.376
405.77	37.952
406.13	38.274
406.49	38.107
406.84	39.052
407.20	39.164
407.55	39.392
407.91	38.925
408.27	39.032
408.62	39.146
408.98	37.902
409.34	38.087
409.69	37.744
410.05	38.205
410.40	38.811
410.76	39.123
411.11	39.526
411.47	37.660
411.83	38.142
412.18	38.366
412.54	38.438
412.89	38.943
413.25	36.659
413.60	37.181
413.96	38.016
414.31	39.083
414.67	38.222
415.03	38.486
415.38	38.256
415.74	39.304
416.09	38.619
416.45	38.095
416.80	38.752
417.16	37.940
417.51	39.724
417.87	38.188
418.22	37.863
418.58	38.575
418.93	38.811
419.29	38.770
419.64	38.317
420.00	38.761
420.35	38.321
420.71	39.256
421.06	38.876
421.42	38.232
421.77	39.419
422.12	38.668
422.48	38.589
422.83	38.724
423.19	38.586
423.54	39.135
423.90	38.288
424.25	39.140
424.61	39.385
424.96	40.140
425.31	39.575
425.67	40.000
426.02	38.095
426.38	40.774
426.73	39.977
427.09	39.828
427.44	40.000
427.79	39.128
428.15	39.677
428.50	40.176
428.85	39.928
429.21	40.066
429.56	40.156
429.92	39.429
430.27	39.831
430.62	40.700
430.98	39.937
431.33	41.089
431.68	40.322
432.04	41.018
432.39	40.114
432.74	40.767
433.10	41.418
433.45	40.472
433.80	41.545
434.16	40.946
434.51	41.589
434.86	41.652
435.22	41.537
435.57	40.820
435.92	40.973
436.28	42.077
436.63	40.927
436.98	40.034
437.34	41.701
437.69	41.190
438.04	41.520
438.39	42.298
438.75	41.967
439.10	41.033
439.45	42.667
439.81	42.590
440.16	42.476
440.51	42.529
440.86	41.816
441.22	41.625
441.57	42.263
441.92	41.688
442.27	41.991
442.63	42.758
442.98	42.381
443.33	42.669
443.68	42.626
444.03	42.191
444.39	43.270
444.74	43.282
445.09	42.270
445.44	42.712
445.79	42.733
446.15	42.442
446.50	41.807
446.85	43.202
447.20	42.441
447.55	42.928
447.91	41.999
448.26	42.346
448.61	42.558
448.96	43.137
449.31	44.025
449.66	43.274
450.02	42.438
450.37	42.145
450.72	43.333
451.07	44.312
451.42	42.813
451.77	44.524
452.12	44.696
452.47	43.892
452.83	44.496
453.18	44.213
453.53	44.216
453.88	44.797
454.23	43.652
454.58	44.810
454.93	44.584
455.28	42.894
455.63	44.902
455.98	44.277
456.34	43.964
456.69	43.652
457.04	44.130
457.39	43.361
457.74	45.068
458.09	43.910
458.44	45.554
458.79	42.433
459.14	45.465
459.49	45.352
459.84	44.576
460.19	43.914
460.54	44.041
460.89	44.843
461.24	45.052
461.59	44.842
461.94	46.022
462.29	45.503
462.64	46.706
462.99	44.511
463.34	44.767
463.69	45.547
464.04	45.460
464.39	45.579
464.74	45.154
465.09	45.039
465.44	44.952
465.79	44.444
466.14	45.397
466.49	44.560
466.84	45.858
467.19	46.010
467.54	44.873
467.89	45.746
468.24	45.546
468.59	45.347
468.94	47.395
469.29	45.744
469.64	46.159
469.99	46.995
470.34	47.295
470.68	47.384
471.03	46.937
471.38	46.250
471.73	47.133
472.08	46.519
472.43	46.718
472.78	46.333
473.13	46.123
473.48	46.139
473.83	46.960
474.17	47.898
474.52	47.890
474.87	46.737
475.22	46.608
475.57	45.944
475.92	46.490
476.27	46.914
476.61	47.775
476.96	46.003
477.31	47.632
477.66	46.652
478.01	48.730
478.36	46.726
478.70	47.944
479.05	48.026
479.40	48.031
479.75	47.401
480.10	46.726
480.45	46.615
480.79	47.730
481.14	48.570
481.49	47.144
481.84	46.833
482.19	47.693
482.53	48.390
482.88	48.410
483.23	48.216
483.58	47.549
483.92	48.017
484.27	47.054
484.62	46.566
484.97	47.935
485.31	45.888
485.66	44.108
486.01	44.265
486.36	45.600
486.70	46.302
487.05	46.363
487.40	46.421
487.75	46.687
488.09	46.479
488.44	48.038
488.79	48.532
489.13	48.421
489.48	48.654
489.83	50.262
490.17	49.151
490.52	49.411
490.87	49.746
491.22	49.089
491.56	48.519
491.91	50.048
492.26	49.104
492.60	49.239
492.95	49.310
493.30	48.785
493.64	49.036
493.99	49.904
494.34	50.095
494.68	49.766
495.03	49.474
495.37	49.754
495.72	50.344
496.07	48.850
496.41	51.598
496.76	50.548
497.11	50.919
497.45	51.054
497.80	51.476
498.14	50.589
498.49	50.829
498.84	50.437
499.18	50.877
499.53	50.755
499.87	50.434
500.22	50.735
500.56	51.176
500.91	50.936
501.26	51.722
501.60	50.361
501.95	51.643
502.29	50.071
502.64	50.872
502.98	50.839
503.33	51.128
503.67	51.341
504.02	51.714
504.36	52.255
504.71	51.570
505.06	50.374
505.40	52.345
505.75	52.287
506.09	52.882
506.44	52.581
506.78	53.036
507.13	51.905
507.47	52.947
507.82	51.936
508.16	52.073
508.51	51.829
508.85	53.313
509.19	52.800
509.54	53.594
509.88	52.766
510.23	53.145
510.57	53.228
510.92	54.135
511.26	52.738
511.61	52.646
511.95	52.532
512.30	52.721
512.64	53.088
512.98	53.740
513.33	53.103
513.67	53.155
514.02	52.405
514.36	54.072
514.70	53.254
515.05	54.031
515.39	54.325
515.74	54.683
516.08	54.006
516.42	53.994
516.77	54.304
517.11	54.462
517.46	56.160
517.80	55.114
518.14	54.952
518.49	55.111
518.83	53.650
519.17	53.937
519.52	53.673
519.86	54.600
520.20	55.501
520.55	56.062
520.89	56.230
521.23	55.006
521.58	55.925
521.92	56.491
522.26	54.667
522.61	56.654
522.95	54.946
523.29	56.426
523.64	55.091
523.98	57.288
524.32	56.317
524.66	54.224
525.01	54.207
525.35	56.508
525.69	56.604
526.04	56.136
526.38	56.461
526.72	55.172
527.06	56.510
527.41	55.512
527.75	55.776
528.09	57.512
528.43	55.672
528.78	54.585
529.12	57.362
529.46	56.314
529.80	55.972
530.15	56.407
530.49	56.145
530.83	56.647
531.17	56.431
531.51	55.861
531.86	55.826
532.20	56.680
532.54	56.150
532.88	55.797
533.22	56.618
533.57	55.940
533.91	54.994
534.25	54.808
534.59	53.592
534.93	54.014
535.27	54.877
535.62	55.115
535.96	54.816
536.30	55.497
536.64	55.312
536.98	56.144
537.32	55.632
537.66	55.465
538.01	56.426
538.35	55.878
538.69	56.818
539.03	54.909
539.37	55.156
539.71	55.037
540.05	55.792
540.39	55.125
540.73	55.701
541.07	56.216
541.42	56.313
541.76	54.286
542.10	55.503
542.44	55.430
542.78	56.038
543.12	56.483
543.46	54.041
543.80	54.381
544.14	55.944
544.48	55.052
544.82	55.548
545.16	55.466
545.50	54.643
545.84	56.189
546.18	53.883
546.52	55.548
546.86	56.980
547.20	55.767
547.54	54.545
547.88	53.882
548.22	53.932
548.56	55.177
548.90	55.256
549.24	55.571
549.58	55.540
549.92	55.124
550.26	57.153
550.60	55.690
550.94	56.715
551.28	56.960
551.62	56.425
551.96	54.776
552.30	55.052
552.64	55.947
552.98	57.043
553.32	56.349
553.66	56.453
554.00	56.432
554.34	54.440
554.68	55.629
555.02	55.789
555.36	55.787
555.69	55.587
556.03	55.719
556.37	53.912
556.71	55.977
557.05	55.728
557.39	55.828
557.73	56.018
558.07	57.423
558.41	55.797
558.75	57.795
559.08	55.564
559.42	56.049
559.76	57.669
560.10	56.376
560.44	57.081
560.78	55.393
561.12	54.934
561.45	55.616
561.79	53.240
562.13	54.137
562.47	54.062
562.81	54.314
563.15	52.764
563.48	55.632
563.82	55.240
564.16	54.767
564.50	55.309
564.84	54.299
565.17	54.973
565.51	55.215
565.85	55.037
566.19	53.953
566.52	52.642
566.86	54.298
567.20	54.661
567.54	54.282
567.88	52.987
568.21	53.412
568.55	52.863
568.89	51.193
569.23	49.931
569.56	50.609
569.90	49.725
570.24	49.681
570.57	48.225
570.91	48.011
571.25	48.411
571.59	47.643
571.92	47.351
572.26	47.573
572.60	48.247
572.93	46.950
573.27	46.921
573.61	46.401
573.95	46.860
574.28	45.883
574.62	47.051
574.96	46.386
575.29	46.341
575.63	46.244
575.97	45.631
576.30	46.013
576.64	46.031
576.98	45.061
577.31	45.816
577.65	45.359
577.98	45.381
578.32	45.506
578.66	45.589
578.99	45.832
579.33	46.094
579.67	46.082
580.00	45.412
580.34	45.768
580.67	46.041
581.01	44.401
581.35	45.319
581.68	44.084
582.02	45.107
582.35	44.759
582.69	45.422
583.02	45.668
583.36	45.186
583.70	45.264
584.03	46.686
584.37	46.414
584.70	46.101
585.04	46.025
585.37	44.821
585.71	45.114
586.04	45.441
586.38	45.870
586.72	45.998
587.05	45.653
587.39	45.753
587.72	45.368
588.06	46.547
588.39	46.454
588.73	46.741
589.06	46.707
589.40	47.922
589.73	46.884
590.07	47.742
590.40	47.159
590.73	48.301
591.07	47.951
591.40	49.133
591.74	48.089
592.07	48.423
592.41	46.879
592.74	46.964
593.08	46.241
593.41	46.546
593.75	46.357
594.08	46.945
594.41	46.950
594.75	47.943
595.08	47.105
595.42	47.074
595.75	46.931
596.09	47.769
596.42	47.791
596.75	47.520
597.09	48.931
597.42	47.490
597.75	47.830
598.09	48.170
598.42	47.901
598.76	47.135
599.09	46.764
599.42	46.559
599.76	46.168
600.09	46.260
600.42	45.841
600.76	46.629
601.09	45.613
601.42	46.102
601.76	46.379
602.09	46.830
602.42	47.202
602.76	46.157
603.09	46.411
603.42	46.978
603.76	46.550
604.09	46.296
604.42	45.920
604.76	47.013
605.09	47.061
605.42	46.809
605.75	46.442
606.09	45.870
606.42	46.837
606.75	45.857
607.09	48.169
607.42	46.171
607.75	47.064
608.08	47.131
608.42	47.256
608.75	46.869
609.08	47.540
609.41	47.633
609.75	46.270
610.08	48.382
610.41	47.904
610.74	47.824
611.07	47.769
611.41	45.890
611.74	46.941
612.07	47.852
612.40	46.695
612.73	47.011
613.07	47.166
613.40	48.987
613.73	47.684
614.06	46.623
614.39	48.083
614.72	45.922
615.06	47.174
615.39	46.283
615.72	46.714
616.05	47.764
616.38	47.998
616.71	48.048
617.05	48.914
617.38	48.607
617.71	47.420
618.04	48.944
618.37	48.616
618.70	49.478
619.03	49.289
619.36	50.529
619.69	50.036
620.03	47.314
620.36	49.437
620.69	50.395
621.02	50.685
621.35	50.000
621.68	50.656
622.01	51.537
622.34	50.854
622.67	50.625
623.00	50.497
623.33	49.701
623.66	48.744
623.99	50.977
624.32	47.991
624.65	49.375
624.99	49.291
625.32	48.952
625.65	50.971
625.98	49.452
626.31	50.163
626.64	49.874
626.97	50.086
627.30	50.723
627.63	50.691
627.96	50.914
628.29	51.103
628.62	51.671
628.95	53.150
629.28	52.068
629.61	52.012
629.94	51.796
630.26	53.877
630.59	52.663
630.92	52.452
631.25	53.226
631.58	52.698
631.91	51.702
