SpectraSuite Data File
++++++++++++++++++++++++++++++++++++
Date: Sat May 16 11:28:13 PDT 2015
User: schluterlab
Dark Spectrum Present: Yes
Reference Spectrum Present: Yes
Number of Sampled Component Spectra: 1
Spectrometers: USB2E3373
Integration Time (usec): 3000 (USB2E3373)
Spectra Averaged: 3 (USB2E3373)
Boxcar Smoothing: 0 (USB2E3373)
Correct for Electrical Dark: No (USB2E3373)
Strobe/Lamp Enabled: No (USB2E3373)
Correct for Detector Non-linearity: No (USB2E3373)
Correct for Stray Light: No (USB2E3373)
Number of Pixels in Processed Spectrum: 2048
>>>>>Begin Processed Spectral Data<<<<<
178.53	0.000
178.91	106.667
179.29	766.667
179.67	-1400.000
180.04	-30.769
180.42	800.000
180.80	400.000
181.18	475.000
181.56	-150.000
181.94	700.000
182.31	300.000
182.69	-53.846
183.07	-500.000
183.45	1250.000
183.83	400.000
184.20	-242.857
184.58	-175.000
184.96	-275.000
185.34	37.500
185.72	-500.000
186.09	350.000
186.47	-175.000
186.85	-150.000
187.23	-37.500
187.61	-175.000
187.98	-300.000
188.36	-137.500
188.74	-225.000
189.12	900.000
189.49	314.286
189.87	-41.667
190.25	600.000
190.63	-57.143
191.00	-211.111
191.38	220.000
191.76	33.333
192.14	340.000
192.51	-260.000
192.89	-633.333
193.27	0.000
193.65	-133.333
194.02	-114.286
194.40	266.667
194.78	-190.000
195.15	-1600.000
195.53	-45.455
195.91	-366.667
196.29	-80.000
196.66	-700.000
197.04	2400.000
197.42	-25.000
197.79	6.667
198.17	-233.333
198.55	-1000.000
198.92	-500.000
199.30	287.500
199.68	-500.000
200.05	-55.556
200.43	-133.333
200.81	-1200.000
201.18	-75.000
201.56	57.143
201.94	-93.333
202.31	13.636
202.69	-20.000
203.07	-60.000
203.44	466.667
203.82	-216.667
204.19	-300.000
204.57	-225.000
204.95	-1400.000
205.32	-31.250
205.70	500.000
206.08	-2200.000
206.45	-22.222
206.83	-1100.000
207.20	100.000
207.58	-433.333
207.96	-300.000
208.33	-150.000
208.71	-133.333
209.08	170.000
209.46	-257.143
209.84	550.000
210.21	0.000
210.59	15.000
210.96	800.000
211.34	-250.000
211.71	-200.000
212.09	375.000
212.46	800.000
212.84	-1900.000
213.22	666.667
213.59	141.667
213.97	-133.333
214.34	150.000
214.72	-80.000
215.09	-366.667
215.47	-116.667
215.84	-50.000
216.22	-60.000
216.59	-20.000
216.97	-275.000
217.34	1100.000
217.72	-57.143
218.09	-216.667
218.47	-157.143
218.84	228.571
219.22	-142.857
219.59	0.000
219.97	285.714
220.34	350.000
220.72	250.000
221.09	-76.923
221.47	0.000
221.84	266.667
222.22	-250.000
222.59	1400.000
222.97	-112.500
223.34	-400.000
223.72	-500.000
224.09	-78.571
224.46	-125.000
224.84	-50.000
225.21	-185.714
225.59	-45.455
225.96	-237.500
226.34	85.714
226.71	-177.778
227.08	-20.000
227.46	1600.000
227.83	-200.000
228.21	-337.500
228.58	350.000
228.95	-6.250
229.33	-2100.000
229.70	-280.000
230.08	-700.000
230.45	25.000
230.82	-83.333
231.20	-900.000
231.57	-850.000
231.95	1500.000
232.32	52.381
232.69	-111.111
233.07	-200.000
233.44	-600.000
233.81	-93.333
234.19	-211.111
234.56	-6.250
234.93	18.750
235.31	-57.143
235.68	-178.571
236.05	-88.235
236.43	-77.273
236.80	-25.806
237.17	-58.333
237.55	-42.857
237.92	-95.455
238.29	-22.857
238.67	-29.412
239.04	-30.556
239.41	-61.290
239.79	-56.410
240.16	-11.905
240.53	-29.091
240.91	-12.821
241.28	-5.455
241.65	9.231
242.02	1.639
242.40	-1.639
242.77	-4.545
243.14	-10.169
243.51	-20.000
243.89	-13.924
244.26	-7.865
244.63	-4.211
245.00	-10.526
245.38	3.390
245.75	-13.274
246.12	-0.800
246.49	-9.449
246.87	-4.065
247.24	-11.864
247.61	-15.254
247.98	-7.042
248.36	-2.797
248.73	1.266
249.10	-7.006
249.47	0.585
249.84	-3.409
250.22	-11.310
250.59	2.825
250.96	-3.141
251.33	1.896
251.70	0.481
252.08	-2.844
252.45	0.948
252.82	0.952
253.19	0.426
253.56	7.258
253.94	-0.422
254.31	0.858
254.68	-0.407
255.05	-3.629
255.42	5.556
255.79	-1.434
256.16	-0.784
256.54	0.735
256.91	-1.136
257.28	-1.832
257.65	-3.191
258.02	1.258
258.39	-2.007
258.76	2.365
259.14	0.309
259.51	3.934
259.88	1.220
260.25	1.863
260.62	-1.929
260.99	0.593
261.36	6.707
261.73	2.890
262.10	2.222
262.47	0.855
262.85	4.286
263.22	1.719
263.59	-3.385
263.96	0.290
264.33	2.710
264.70	2.486
265.07	0.275
265.44	1.809
265.81	-0.517
266.18	0.506
266.55	1.225
266.92	2.519
267.29	-1.211
267.66	0.494
268.03	2.899
268.40	1.878
268.77	0.000
269.14	0.000
269.51	2.989
269.88	-1.606
270.25	2.098
270.62	4.119
270.99	2.027
271.36	1.399
271.73	0.673
272.10	1.831
272.47	1.556
272.84	3.333
273.21	2.752
273.58	2.198
273.95	0.219
274.32	-0.452
274.69	3.063
275.06	2.658
275.43	-0.670
275.80	4.684
276.17	4.184
276.54	3.870
276.91	0.206
277.28	2.434
277.65	0.826
278.02	2.505
278.39	2.947
278.76	2.988
279.13	3.162
279.50	3.579
279.87	1.480
280.23	2.429
280.60	1.193
280.97	2.330
281.34	1.741
281.71	0.192
282.08	3.024
282.45	0.815
282.82	3.101
283.19	2.000
283.56	5.311
283.92	3.710
284.29	0.372
284.66	3.058
285.03	2.496
285.40	1.661
285.77	3.860
286.14	1.264
286.51	0.710
286.87	2.178
287.24	4.608
287.61	4.132
287.98	0.173
288.35	0.165
288.72	2.377
289.08	1.017
289.45	2.525
289.82	0.346
290.19	3.612
290.56	0.992
290.93	1.113
291.29	0.000
291.66	1.449
292.03	2.983
292.40	4.217
292.77	0.932
293.13	0.325
293.50	1.932
293.87	3.681
294.24	4.525
294.60	2.121
294.97	4.704
295.34	1.630
295.71	2.232
296.08	0.000
296.44	1.144
296.81	2.707
297.18	1.408
297.55	1.695
297.91	4.463
298.28	1.918
298.65	3.347
299.02	4.813
299.38	2.807
299.75	2.717
300.12	1.538
300.48	2.558
300.85	2.359
301.22	2.975
301.59	1.821
301.95	4.912
302.32	1.043
302.69	2.938
303.05	2.198
303.42	1.625
303.79	1.794
304.15	2.962
304.52	1.750
304.89	2.834
305.25	2.808
305.62	2.938
305.99	3.534
306.35	1.776
306.72	3.189
307.09	3.746
307.45	2.838
307.82	2.346
308.19	3.691
308.55	2.614
308.92	2.470
309.29	3.135
309.65	2.969
310.02	4.104
310.38	1.946
310.75	3.996
311.12	4.752
311.48	4.593
311.85	4.737
312.22	4.531
312.58	4.883
312.95	3.568
313.31	5.195
313.68	5.327
314.05	6.034
314.41	4.225
314.78	3.197
315.14	5.726
315.51	4.863
315.87	6.292
316.24	6.025
316.61	6.526
316.97	6.269
317.34	5.010
317.70	4.360
318.07	7.369
318.43	5.993
318.80	7.606
319.16	5.629
319.53	6.673
319.89	6.491
320.26	7.549
320.62	6.731
320.99	6.766
321.35	7.094
321.72	7.369
322.08	7.517
322.45	7.228
322.81	8.261
323.18	8.357
323.54	9.797
323.91	8.897
324.27	9.316
324.64	8.410
325.00	9.773
325.37	10.407
325.73	11.199
326.10	9.389
326.46	10.858
326.83	9.702
327.19	12.344
327.56	13.458
327.92	11.895
328.29	12.641
328.65	11.000
329.01	12.898
329.38	12.667
329.74	14.835
330.11	14.778
330.47	13.442
330.84	15.857
331.20	15.072
331.56	14.494
331.93	14.654
332.29	15.342
332.66	15.540
333.02	16.109
333.38	15.591
333.75	14.693
334.11	15.200
334.48	15.887
334.84	16.010
335.20	17.465
335.57	15.884
335.93	17.189
336.29	15.943
336.66	15.947
337.02	17.207
337.38	17.201
337.75	16.330
338.11	17.710
338.47	17.082
338.84	17.786
339.20	16.872
339.56	19.430
339.93	16.314
340.29	16.829
340.65	17.483
341.02	17.538
341.38	17.270
341.74	17.189
342.11	17.918
342.47	16.652
342.83	17.464
343.20	17.677
343.56	16.735
343.92	17.696
344.28	19.260
344.65	17.492
345.01	16.723
345.37	18.189
345.73	16.939
346.10	16.762
346.46	17.141
346.82	17.081
347.19	16.352
347.55	17.576
347.91	17.402
348.27	18.059
348.63	17.690
349.00	18.457
349.36	16.159
349.72	18.790
350.08	17.642
350.45	17.258
350.81	19.347
351.17	17.042
351.53	15.990
351.89	17.381
352.26	17.674
352.62	18.510
352.98	17.563
353.34	18.145
353.70	16.988
354.07	18.253
354.43	18.182
354.79	18.146
355.15	17.971
355.51	17.969
355.87	17.549
356.24	17.712
356.60	18.936
356.96	18.091
357.32	18.606
357.68	17.931
358.04	17.552
358.40	18.252
358.77	18.702
359.13	18.057
359.49	18.216
359.85	17.530
360.21	18.798
360.57	18.825
360.93	19.481
361.29	18.535
361.66	18.521
362.02	18.269
362.38	19.296
362.74	19.780
363.10	18.795
363.46	19.373
363.82	18.805
364.18	19.609
364.54	20.300
364.90	19.078
365.26	18.616
365.62	19.815
365.98	19.701
366.35	19.648
366.71	19.309
367.07	20.325
367.43	20.522
367.79	20.550
368.15	18.919
368.51	20.490
368.87	21.360
369.23	20.211
369.59	20.208
369.95	20.437
370.31	21.378
370.67	20.246
371.03	21.137
371.39	20.085
371.75	20.672
372.11	20.301
372.47	20.246
372.83	20.723
373.19	21.571
373.55	21.182
373.91	21.266
374.27	21.766
374.63	21.739
374.99	22.045
375.35	20.861
375.71	22.890
376.07	21.492
376.42	21.656
376.78	21.634
377.14	22.441
377.50	23.920
377.86	22.562
378.22	22.864
378.58	22.668
378.94	21.455
379.30	22.486
379.66	24.044
380.02	22.341
380.38	22.900
380.74	23.154
381.09	24.077
381.45	24.344
381.81	22.686
382.17	23.997
382.53	23.465
382.89	22.907
383.25	23.901
383.61	23.998
383.97	24.617
384.32	24.280
384.68	24.728
385.04	23.853
385.40	23.981
385.76	24.634
386.12	24.672
386.48	25.248
386.83	25.337
387.19	25.762
387.55	25.863
387.91	25.252
388.27	23.884
388.62	25.060
388.98	24.955
389.34	24.541
389.70	25.396
390.06	24.736
390.42	25.513
390.77	25.489
391.13	26.211
391.49	25.328
391.85	25.374
392.20	25.425
392.56	25.535
392.92	25.727
393.28	26.521
393.64	26.699
393.99	25.785
394.35	25.912
394.71	26.436
395.07	26.177
395.42	25.030
395.78	25.707
396.14	26.542
396.50	26.239
396.85	26.959
397.21	26.245
397.57	27.538
397.92	26.932
398.28	26.333
398.64	26.413
399.00	26.742
399.35	26.832
399.71	26.423
400.07	28.060
400.42	26.825
400.78	26.058
401.14	25.988
401.49	26.946
401.85	26.663
402.21	26.996
402.57	26.274
402.92	27.124
403.28	25.919
403.63	25.345
403.99	27.408
404.35	26.630
404.70	25.453
405.06	27.509
405.42	26.814
405.77	25.452
406.13	26.462
406.49	26.423
406.84	26.755
407.20	26.561
407.55	27.169
407.91	25.777
408.27	26.900
408.62	27.901
408.98	27.714
409.34	26.386
409.69	26.465
410.05	26.683
410.40	27.100
410.76	27.030
411.11	26.309
411.47	26.023
411.83	27.078
412.18	26.547
412.54	25.808
412.89	26.792
413.25	26.033
413.60	26.488
413.96	25.693
414.31	27.095
414.67	27.048
415.03	26.520
415.38	27.716
415.74	27.255
416.09	27.877
416.45	26.918
416.80	27.958
417.16	27.043
417.51	27.774
417.87	26.796
418.22	28.129
418.58	28.113
418.93	28.817
419.29	26.662
419.64	26.759
420.00	28.372
420.35	28.740
420.71	28.872
421.06	28.935
421.42	28.747
421.77	28.364
422.12	28.483
422.48	27.686
422.83	28.132
423.19	28.174
423.54	28.703
423.90	28.167
424.25	28.959
424.61	29.976
424.96	30.193
425.31	29.122
425.67	29.685
426.02	29.088
426.38	29.704
426.73	29.982
427.09	30.270
427.44	29.318
427.79	29.302
428.15	31.179
428.50	31.320
428.85	30.276
429.21	29.662
429.56	31.198
429.92	30.160
430.27	31.107
430.62	30.564
430.98	31.051
431.33	31.590
431.68	32.172
432.04	31.841
432.39	32.137
432.74	31.715
433.10	31.232
433.45	32.412
433.80	32.139
434.16	32.294
434.51	33.479
434.86	33.978
435.22	32.405
435.57	32.252
435.92	32.649
436.28	33.412
436.63	32.504
436.98	32.589
437.34	33.314
437.69	33.022
438.04	33.466
438.39	33.394
438.75	33.353
439.10	33.981
439.45	34.460
439.81	33.434
440.16	33.844
440.51	35.000
440.86	34.066
441.22	33.720
441.57	34.474
441.92	35.038
442.27	35.065
442.63	34.335
442.98	32.957
443.33	34.871
443.68	34.393
444.03	35.069
444.39	34.949
444.74	34.912
445.09	34.485
445.44	35.509
445.79	34.574
446.15	35.323
446.50	34.295
446.85	35.095
447.20	34.270
447.55	35.359
447.91	34.868
448.26	34.637
448.61	34.012
448.96	36.583
449.31	35.344
449.66	35.203
450.02	34.238
450.37	35.246
450.72	35.311
451.07	35.512
451.42	34.758
451.77	36.445
452.12	36.114
452.47	35.957
452.83	35.644
453.18	36.180
453.53	34.888
453.88	36.005
454.23	36.215
454.58	37.290
454.93	36.398
455.28	36.138
455.63	36.609
455.98	37.048
456.34	35.769
456.69	37.023
457.04	37.001
457.39	36.304
457.74	36.267
458.09	37.355
458.44	37.471
458.79	36.155
459.14	37.136
459.49	36.708
459.84	37.493
460.19	36.098
460.54	35.935
460.89	36.547
461.24	36.430
461.59	36.811
461.94	36.856
462.29	37.165
462.64	37.813
462.99	36.412
463.34	37.947
463.69	37.659
464.04	36.145
464.39	36.858
464.74	37.234
465.09	36.320
465.44	36.266
465.79	36.887
466.14	37.399
466.49	35.982
466.84	38.055
467.19	36.347
467.54	37.278
467.89	36.868
468.24	36.876
468.59	37.601
468.94	37.814
469.29	37.622
469.64	37.062
469.99	37.475
470.34	37.609
470.68	38.735
471.03	38.679
471.38	36.944
471.73	38.531
472.08	37.684
472.43	38.417
472.78	37.600
473.13	37.707
473.48	38.290
473.83	38.027
474.17	38.153
474.52	38.491
474.87	38.170
475.22	38.230
475.57	37.389
475.92	39.039
476.27	36.971
476.61	38.028
476.96	37.283
477.31	37.944
477.66	37.687
478.01	39.276
478.36	37.402
478.70	38.441
479.05	38.021
479.40	37.772
479.75	37.920
480.10	37.996
480.45	37.186
480.79	38.500
481.14	38.133
481.49	38.771
481.84	37.772
482.19	38.922
482.53	38.447
482.88	37.731
483.23	37.793
483.58	38.622
483.92	38.318
484.27	37.173
484.62	37.019
484.97	36.984
485.31	35.776
485.66	35.122
486.01	35.515
486.36	35.931
486.70	36.791
487.05	36.342
487.40	36.218
487.75	35.991
488.09	36.813
488.44	37.009
488.79	37.213
489.13	38.037
489.48	38.458
489.83	38.035
490.17	38.224
490.52	38.995
490.87	38.753
491.22	39.608
491.56	38.472
491.91	37.882
492.26	37.642
492.60	39.153
492.95	38.267
493.30	37.256
493.64	37.894
493.99	38.193
494.34	38.571
494.68	38.670
495.03	37.954
495.37	38.889
495.72	38.949
496.07	38.667
496.41	38.907
496.76	38.630
497.11	38.672
497.45	39.416
497.80	37.919
498.14	38.261
498.49	39.227
498.84	38.544
499.18	38.353
499.53	38.919
499.87	37.983
500.22	38.186
500.56	38.819
500.91	39.409
501.26	38.671
501.60	38.180
501.95	39.372
502.29	38.214
502.64	38.850
502.98	38.285
503.33	38.534
503.67	38.889
504.02	38.387
504.36	38.873
504.71	39.666
505.06	39.541
505.40	39.870
505.75	39.482
506.09	39.636
506.44	38.797
506.78	39.940
507.13	38.826
507.47	39.071
507.82	39.081
508.16	39.326
508.51	39.825
508.85	39.700
509.19	39.508
509.54	39.746
509.88	39.362
510.23	39.990
510.57	40.370
510.92	40.011
511.26	39.713
511.61	39.255
511.95	40.787
512.30	40.297
512.64	39.399
512.98	40.374
513.33	39.649
513.67	40.536
514.02	39.821
514.36	41.607
514.70	40.464
515.05	40.652
515.39	40.138
515.74	41.070
516.08	40.634
516.42	41.190
516.77	41.537
517.11	41.590
517.46	41.029
517.80	41.877
518.14	42.271
518.49	41.303
518.83	41.009
519.17	41.504
519.52	40.544
519.86	42.593
520.20	41.932
520.55	41.538
520.89	42.267
521.23	41.270
521.58	41.442
521.92	42.242
522.26	42.032
522.61	42.332
522.95	41.353
523.29	42.821
523.64	42.411
523.98	42.966
524.32	42.238
524.66	41.925
525.01	41.490
525.35	42.655
525.69	41.640
526.04	42.950
526.38	42.903
526.72	41.699
527.06	42.253
527.41	42.508
527.75	41.452
528.09	43.283
528.43	43.607
528.78	42.274
529.12	43.214
529.46	42.655
529.80	42.221
530.15	42.627
530.49	41.915
530.83	42.436
531.17	42.559
531.51	41.862
531.86	40.882
532.20	42.443
532.54	42.981
532.88	41.765
533.22	43.115
533.57	42.559
533.91	41.885
534.25	41.672
534.59	41.786
534.93	41.444
535.27	42.354
535.62	41.944
535.96	42.211
536.30	41.885
536.64	42.829
536.98	43.432
537.32	42.156
537.66	42.363
538.01	42.749
538.35	43.176
538.69	42.313
539.03	43.331
539.37	43.313
539.71	41.361
540.05	42.495
540.39	42.105
540.73	42.502
541.07	43.443
541.42	42.201
541.76	38.738
542.10	44.024
542.44	41.506
542.78	42.198
543.12	43.720
543.46	41.164
543.80	41.739
544.14	42.512
544.48	41.667
544.82	41.610
545.16	41.784
545.50	40.915
545.84	41.446
546.18	42.510
546.52	42.105
546.86	42.308
547.20	42.475
547.54	41.116
547.88	41.274
548.22	40.367
548.56	42.418
548.90	41.307
549.24	42.537
549.58	42.837
549.92	42.686
550.26	42.052
550.60	42.034
550.94	42.847
551.28	43.266
551.62	41.950
551.96	42.475
552.30	41.394
552.64	42.153
552.98	43.027
553.32	42.424
553.66	42.322
554.00	42.786
554.34	41.949
554.68	43.129
555.02	43.198
555.36	41.553
555.69	41.117
556.03	42.526
556.37	42.959
556.71	43.021
557.05	42.720
557.39	43.207
557.73	44.274
558.07	44.687
558.41	41.511
558.75	42.966
559.08	41.556
559.42	43.109
559.76	43.328
560.10	43.550
560.44	42.775
560.78	43.285
561.12	42.788
561.45	42.123
561.79	42.509
562.13	42.146
562.47	42.297
562.81	42.433
563.15	41.777
563.48	41.189
563.82	41.853
564.16	41.785
564.50	41.398
564.84	41.468
565.17	41.114
565.51	42.503
565.85	43.205
566.19	43.017
566.52	41.422
566.86	41.277
567.20	42.070
567.54	41.583
567.88	40.089
568.21	41.443
568.55	40.615
568.89	39.761
569.23	40.213
569.56	37.999
569.90	38.592
570.24	38.482
570.57	37.996
570.91	37.368
571.25	37.743
571.59	37.184
571.92	37.054
572.26	37.088
572.60	36.674
572.93	36.575
573.27	36.982
573.61	36.306
573.95	36.110
574.28	36.069
574.62	35.841
574.96	35.494
575.29	35.950
575.63	36.130
575.97	35.761
576.30	35.845
576.64	36.345
576.98	35.357
577.31	35.542
577.65	36.547
577.98	35.479
578.32	35.508
578.66	35.463
578.99	35.921
579.33	36.624
579.67	36.368
580.00	35.392
580.34	36.081
580.67	35.793
581.01	35.283
581.35	35.641
581.68	35.305
582.02	35.634
582.35	35.694
582.69	36.406
583.02	36.936
583.36	36.797
583.70	35.970
584.03	37.096
584.37	36.861
584.70	36.875
585.04	36.633
585.37	35.609
585.71	35.728
586.04	36.803
586.38	36.568
586.72	36.697
587.05	37.468
587.39	36.657
587.72	36.767
588.06	37.139
588.39	37.226
588.73	37.568
589.06	38.779
589.40	38.337
589.73	38.314
590.07	38.310
590.40	38.561
590.73	38.665
591.07	37.992
591.40	38.995
591.74	39.314
592.07	39.685
592.41	39.236
592.74	38.970
593.08	38.174
593.41	38.355
593.75	37.224
594.08	38.713
594.41	39.224
594.75	38.279
595.08	39.398
595.42	38.403
595.75	38.699
596.09	38.106
596.42	40.303
596.75	39.845
597.09	39.626
597.42	38.629
597.75	39.283
598.09	40.624
598.42	38.886
598.76	39.327
599.09	38.043
599.42	38.485
599.76	38.505
600.09	39.122
600.42	38.815
600.76	38.983
601.09	38.739
601.42	38.346
601.76	38.785
602.09	39.264
602.42	38.642
602.76	38.720
603.09	39.435
603.42	38.920
603.76	39.649
604.09	38.646
604.42	38.968
604.76	39.468
605.09	39.150
605.42	38.741
605.75	39.112
606.09	38.813
606.42	39.631
606.75	38.429
607.09	39.921
607.42	39.305
607.75	39.205
608.08	39.765
608.42	39.735
608.75	39.019
609.08	40.088
609.41	40.807
609.75	38.908
610.08	40.490
610.41	39.518
610.74	40.087
611.07	40.314
611.41	39.687
611.74	40.103
612.07	41.246
612.40	40.565
612.73	40.388
613.07	40.506
613.40	41.817
613.73	40.981
614.06	39.209
614.39	42.446
614.72	40.391
615.06	40.217
615.39	41.183
615.72	40.630
616.05	41.193
616.38	41.149
616.71	40.961
617.05	42.400
617.38	41.548
617.71	41.032
618.04	42.422
618.37	42.264
618.70	42.503
619.03	42.248
619.36	43.481
619.69	43.431
620.03	42.631
620.36	42.194
620.69	43.431
621.02	44.521
621.35	43.387
621.68	44.836
622.01	43.528
622.34	43.866
622.67	43.125
623.00	44.759
623.33	43.060
623.66	43.501
623.99	43.308
624.32	42.857
624.65	44.077
624.99	43.540
625.32	43.338
625.65	44.678
625.98	42.175
626.31	44.046
626.64	43.264
626.97	45.377
627.30	44.766
627.63	42.919
627.96	43.603
628.29	46.599
628.62	46.132
628.95	46.850
629.28	45.865
629.61	45.240
629.94	45.369
630.26	47.416
630.59	46.231
630.92	46.046
631.25	46.371
631.58	45.714
631.91	46.489
632.24	49.444
632.57	47.222
632.90	48.506
633.23	48.364
633.56	47.836
633.89	49.410
634.22	47.816
634.55	48.437
634.88	48.126
635.20	48.315
635.53	50.891
