SpectraSuite Data File
++++++++++++++++++++++++++++++++++++
Date: Sat May 16 11:24:30 PDT 2015
User: schluterlab
Dark Spectrum Present: Yes
Reference Spectrum Present: Yes
Number of Sampled Component Spectra: 1
Spectrometers: USB2E3373
Integration Time (usec): 3000 (USB2E3373)
Spectra Averaged: 3 (USB2E3373)
Boxcar Smoothing: 0 (USB2E3373)
Correct for Electrical Dark: No (USB2E3373)
Strobe/Lamp Enabled: No (USB2E3373)
Correct for Detector Non-linearity: No (USB2E3373)
Correct for Stray Light: No (USB2E3373)
Number of Pixels in Processed Spectrum: 2048
>>>>>Begin Processed Spectral Data<<<<<
178.53	0.000
178.91	80.000
179.29	366.667
179.67	-1000.000
180.04	-138.462
180.42	1100.000
180.80	350.000
181.18	600.000
181.56	-137.500
181.94	600.000
182.31	350.000
182.69	-146.154
183.07	-533.333
183.45	1300.000
183.83	300.000
184.20	-185.714
184.58	-150.000
184.96	-475.000
185.34	87.500
185.72	-250.000
186.09	233.333
186.47	-125.000
186.85	-125.000
187.23	-137.500
187.61	-150.000
187.98	-262.500
188.36	-87.500
188.74	-137.500
189.12	1400.000
189.49	228.571
189.87	-125.000
190.25	325.000
190.63	-57.143
191.00	-111.111
191.38	320.000
191.76	-40.000
192.14	540.000
192.51	-120.000
192.89	-300.000
193.27	0.000
193.65	-55.556
194.02	-285.714
194.40	866.667
194.78	-120.000
195.15	-1000.000
195.53	-163.636
195.91	-383.333
196.29	100.000
196.66	-300.000
197.04	2200.000
197.42	-200.000
197.79	-33.333
198.17	-400.000
198.55	-650.000
198.92	-2200.000
199.30	200.000
199.68	-1150.000
200.05	-122.222
200.43	-133.333
200.81	-1000.000
201.18	-66.667
201.56	157.143
201.94	-40.000
202.31	-45.455
202.69	10.000
203.07	-60.000
203.44	433.333
203.82	-200.000
204.19	-275.000
204.57	-325.000
204.95	-1000.000
205.32	-75.000
205.70	2500.000
206.08	-1700.000
206.45	-38.889
206.83	-500.000
207.20	150.000
207.58	-966.667
207.96	-766.667
208.33	-162.500
208.71	-55.556
209.08	220.000
209.46	-142.857
209.84	950.000
210.21	0.000
210.59	20.000
210.96	100.000
211.34	-283.333
211.71	-333.333
212.09	450.000
212.46	1400.000
212.84	-2600.000
213.22	866.667
213.59	150.000
213.97	-66.667
214.34	100.000
214.72	-140.000
215.09	-766.667
215.47	-33.333
215.84	-110.000
216.22	-70.000
216.59	-33.333
216.97	-175.000
217.34	1050.000
217.72	-257.143
218.09	-250.000
218.47	-200.000
218.84	257.143
219.22	-42.857
219.59	0.000
219.97	285.714
220.34	275.000
220.72	187.500
221.09	0.000
221.47	0.000
221.84	400.000
222.22	-350.000
222.59	800.000
222.97	-187.500
223.34	-850.000
223.72	-666.667
224.09	-7.143
224.46	-300.000
224.84	-42.857
225.21	-185.714
225.59	-63.636
225.96	-212.500
226.34	-257.143
226.71	-22.222
227.08	-20.000
227.46	1800.000
227.83	-200.000
228.21	-162.500
228.58	100.000
228.95	-12.500
229.33	-1900.000
229.70	-120.000
230.08	-800.000
230.45	-66.667
230.82	-266.667
231.20	-1200.000
231.57	-700.000
231.95	800.000
232.32	4.762
232.69	-66.667
233.07	-228.571
233.44	-1200.000
233.81	-153.333
234.19	-111.111
234.56	-56.250
234.93	-3.125
235.31	-257.143
235.68	-107.143
236.05	-176.471
236.43	-95.455
236.80	-38.710
237.17	0.000
237.55	-71.429
237.92	-50.000
238.29	-48.571
238.67	-29.412
239.04	-19.444
239.41	-70.968
239.79	-61.538
240.16	-21.429
240.53	-47.273
240.91	-33.333
241.28	-18.182
241.65	12.308
242.02	-16.393
242.40	-29.508
242.77	-12.121
243.14	-18.644
243.51	-7.143
243.89	-16.456
244.26	-12.360
244.63	1.053
245.00	-9.474
245.38	-4.237
245.75	-9.735
246.12	-6.400
246.49	-7.874
246.87	-11.382
247.24	-11.864
247.61	-6.780
247.98	-5.634
248.36	-8.392
248.73	-5.063
249.10	-12.739
249.47	0.585
249.84	-7.386
250.22	-13.690
250.59	-6.780
250.96	-3.141
251.33	-0.948
251.70	-3.846
252.08	-3.318
252.45	-8.531
252.82	-9.048
253.19	-2.553
253.56	-4.435
253.94	-3.376
254.31	-0.429
254.68	-1.626
255.05	-3.629
255.42	2.778
255.79	-3.584
256.16	1.961
256.54	-2.206
256.91	2.652
257.28	-1.099
257.65	-5.674
258.02	1.887
258.39	0.000
258.76	-6.081
259.14	-1.235
259.51	0.984
259.88	-2.134
260.25	1.863
260.62	-1.608
260.99	-5.341
261.36	3.354
261.73	-2.312
262.10	0.000
262.47	-2.564
262.85	1.143
263.22	-1.146
263.59	-5.846
263.96	0.870
264.33	0.271
264.70	1.105
265.07	-3.571
265.44	0.000
265.81	-1.809
266.18	-1.266
266.55	-1.225
266.92	3.526
267.29	1.211
267.66	0.494
268.03	0.725
268.40	1.878
268.77	-0.964
269.14	-3.016
269.51	2.299
269.88	-2.982
270.25	-0.699
270.62	-0.458
270.99	1.126
271.36	0.000
271.73	-0.448
272.10	-0.915
272.47	-1.778
272.84	1.778
273.21	0.000
273.58	-1.099
273.95	0.877
274.32	-2.715
274.69	1.532
275.06	1.431
275.43	1.116
275.80	1.629
276.17	0.837
276.54	4.277
276.91	-2.058
277.28	0.000
277.65	-0.620
278.02	1.044
278.39	2.554
278.76	-0.398
279.13	1.383
279.50	1.392
279.87	-0.211
280.23	0.607
280.60	0.199
280.97	-1.748
281.34	0.193
281.71	2.500
282.08	0.806
282.45	-3.055
282.82	-2.519
283.19	0.727
283.56	1.832
283.92	-0.530
284.29	1.673
284.66	0.899
285.03	1.248
285.40	0.554
285.77	2.105
286.14	0.000
286.51	-0.710
286.87	0.726
287.24	-1.195
287.61	2.149
287.98	0.693
288.35	-0.165
288.72	-0.170
289.08	-2.712
289.45	2.189
289.82	-0.865
290.19	3.120
290.56	0.000
290.93	-1.113
291.29	-0.324
291.66	0.000
292.03	1.413
292.40	1.657
292.77	2.019
293.13	0.813
293.50	2.972
293.87	0.920
294.24	3.620
294.60	-0.303
294.97	3.490
295.34	1.037
295.71	2.083
296.08	0.614
296.44	0.000
296.81	2.137
297.18	0.704
297.55	1.836
297.91	3.626
298.28	0.822
298.65	1.116
299.02	2.139
299.38	2.674
299.75	2.174
300.12	2.692
300.48	2.174
300.85	0.786
301.22	2.329
301.59	1.560
301.95	4.282
302.32	1.434
302.69	2.815
303.05	1.343
303.42	1.750
303.79	2.512
304.15	3.436
304.52	2.917
304.89	2.597
305.25	2.442
305.62	2.233
305.99	4.829
306.35	3.552
306.72	1.822
307.09	3.973
307.45	3.519
307.82	2.682
308.19	2.685
308.55	3.486
308.92	1.826
309.29	3.027
309.65	3.499
310.02	3.996
310.38	2.162
310.75	4.201
311.12	4.959
311.48	3.445
311.85	5.252
312.22	3.605
312.58	4.476
312.95	4.077
313.31	5.295
313.68	5.327
314.05	5.143
314.41	4.326
314.78	3.696
315.14	5.923
315.51	4.357
315.87	6.196
316.24	4.762
316.61	5.854
316.97	6.169
317.34	5.299
317.70	5.288
318.07	6.063
318.43	5.899
318.80	7.887
319.16	6.285
319.53	6.673
319.89	5.550
320.26	6.176
320.62	5.481
320.99	6.269
321.35	4.729
321.72	6.960
322.08	7.221
322.45	6.931
322.81	7.205
323.18	6.916
323.54	8.133
323.91	7.692
324.27	8.270
324.64	7.495
325.00	8.988
325.37	9.502
325.73	9.624
326.10	7.795
326.46	7.618
326.83	9.447
327.19	10.092
327.56	10.221
327.92	9.176
328.29	10.043
328.65	8.727
329.01	9.629
329.38	10.616
329.74	10.897
330.11	8.976
330.47	10.263
330.84	12.374
331.20	11.462
331.56	11.304
331.93	11.723
332.29	12.237
332.66	11.589
333.02	11.674
333.38	12.097
333.75	11.398
334.11	10.756
334.48	11.297
334.84	12.161
335.20	11.968
335.57	11.011
335.93	12.355
336.29	11.426
336.66	11.542
337.02	13.514
337.38	11.319
337.75	11.940
338.11	11.717
338.47	12.367
338.84	11.525
339.20	11.775
339.56	12.567
339.93	11.905
340.29	12.223
340.65	12.150
341.02	11.973
341.38	11.879
341.74	12.193
342.11	11.945
342.47	12.876
342.83	11.419
343.20	11.187
343.56	11.837
343.92	11.770
344.28	11.690
344.65	11.716
345.01	11.765
345.37	13.289
345.73	10.884
346.10	10.875
346.46	12.185
346.82	12.029
347.19	11.422
347.55	12.199
347.91	12.283
348.27	12.013
348.63	12.763
349.00	12.172
349.36	11.007
349.72	12.739
350.08	12.751
350.45	12.451
350.81	12.500
351.17	11.174
351.53	11.535
351.89	11.964
352.26	12.248
352.62	12.826
352.98	12.421
353.34	12.550
353.70	11.660
354.07	12.195
354.43	12.332
354.79	11.965
355.15	11.741
355.51	11.562
355.87	12.332
356.24	11.041
356.60	12.812
356.96	12.779
357.32	11.876
357.68	12.184
358.04	12.779
358.40	12.606
358.77	12.287
359.13	12.777
359.49	12.320
359.85	12.957
360.21	12.633
360.57	13.253
360.93	12.963
361.29	12.855
361.66	12.119
362.02	11.760
362.38	12.913
362.74	12.454
363.10	12.267
363.46	13.889
363.82	12.755
364.18	13.821
364.54	13.939
364.90	12.509
365.26	13.195
365.62	13.970
365.98	14.438
366.35	14.085
366.71	11.980
367.07	13.338
367.43	14.001
367.79	13.127
368.15	12.802
368.51	13.706
368.87	14.835
369.23	13.965
369.59	14.028
369.95	13.672
370.31	14.627
370.67	13.087
371.03	14.796
371.39	13.083
371.75	14.735
372.11	13.486
372.47	14.751
372.83	14.812
373.19	14.714
373.55	15.271
373.91	14.367
374.27	14.100
374.63	14.562
374.99	15.299
375.35	14.939
375.71	15.057
376.07	15.948
376.42	14.570
376.78	14.510
377.14	14.644
377.50	15.603
377.86	15.735
378.22	15.955
378.58	14.947
378.94	15.475
379.30	15.356
379.66	15.786
380.02	14.973
380.38	15.408
380.74	16.061
381.09	16.462
381.45	16.408
381.81	15.729
382.17	15.789
382.53	15.866
382.89	15.191
383.25	16.677
383.61	15.920
383.97	17.636
384.32	17.021
384.68	17.231
385.04	15.821
385.40	15.520
385.76	17.073
386.12	17.427
386.48	16.832
386.83	15.828
387.19	17.334
387.55	17.686
387.91	16.953
388.27	16.345
388.62	16.947
388.98	17.202
389.34	17.564
389.70	17.235
390.06	17.278
390.42	18.269
390.77	17.035
391.13	18.323
391.49	17.155
391.85	17.082
392.20	17.051
392.56	16.677
392.92	17.741
393.28	17.910
393.64	17.919
393.99	17.538
394.35	17.457
394.71	17.603
395.07	18.330
395.42	16.567
395.78	16.782
396.14	18.069
396.50	17.859
396.85	17.890
397.21	17.679
397.57	17.021
397.92	16.920
398.28	17.611
398.64	17.787
399.00	18.146
399.35	16.967
399.71	18.060
400.07	17.313
400.42	17.336
400.78	17.591
401.14	17.305
401.49	16.863
401.85	17.572
402.21	17.402
402.57	17.476
402.92	18.313
403.28	17.770
403.63	17.256
403.99	18.086
404.35	16.606
404.70	17.671
405.06	17.878
405.42	17.097
405.77	16.403
406.13	16.525
406.49	17.076
406.84	17.097
407.20	17.668
407.55	16.909
407.91	16.127
408.27	18.015
408.62	16.837
408.98	16.677
409.34	17.367
409.69	16.950
410.05	17.162
410.40	16.983
410.76	17.605
411.11	17.394
411.47	17.327
411.83	18.154
412.18	17.760
412.54	16.656
412.89	17.497
413.25	16.293
413.60	16.768
413.96	16.697
414.31	17.554
414.67	18.032
415.03	18.111
415.38	17.437
415.74	17.655
416.09	17.263
416.45	17.063
416.80	17.945
417.16	17.276
417.51	18.385
417.87	18.706
418.22	17.826
418.58	17.779
418.93	18.455
419.29	18.193
419.64	16.834
420.00	19.137
420.35	17.386
420.71	17.587
421.06	18.107
421.42	17.916
421.77	18.760
422.12	18.970
422.48	18.172
422.83	18.964
423.19	18.430
423.54	18.674
423.90	18.334
424.25	18.948
424.61	19.723
424.96	19.661
425.31	19.676
425.67	19.255
426.02	18.876
426.38	20.145
426.73	19.813
427.09	19.792
427.44	20.114
427.79	19.942
428.15	21.065
428.50	20.117
428.85	19.365
429.21	20.089
429.56	20.365
429.92	21.042
430.27	20.688
430.62	21.421
430.98	20.700
431.33	21.185
431.68	22.091
432.04	22.104
432.39	20.456
432.74	21.882
433.10	21.778
433.45	20.841
433.80	21.277
434.16	22.192
434.51	22.521
434.86	22.496
435.22	21.826
435.57	22.583
435.92	22.274
436.28	22.374
436.63	22.612
436.98	22.279
437.34	23.154
437.69	22.812
438.04	22.348
438.39	23.285
438.75	23.341
439.10	23.487
439.45	22.209
439.81	23.373
440.16	22.885
440.51	23.059
440.86	23.424
441.22	22.112
441.57	23.737
441.92	23.069
442.27	23.701
442.63	23.659
442.98	23.646
443.33	24.108
443.68	22.981
444.03	23.674
444.39	24.180
444.74	24.504
445.09	22.752
445.44	24.311
445.79	23.916
446.15	23.768
446.50	23.680
446.85	23.704
447.20	24.259
447.55	24.530
447.91	24.705
448.26	23.966
448.61	24.505
448.96	25.266
449.31	23.901
449.66	24.499
450.02	24.377
450.37	24.058
450.72	24.068
451.07	25.141
451.42	23.358
451.77	25.075
452.12	25.328
452.47	24.685
452.83	25.568
453.18	24.352
453.53	25.062
453.88	24.821
454.23	24.970
454.58	25.730
454.93	24.937
455.28	25.303
455.63	25.123
455.98	24.819
456.34	24.333
456.69	25.578
457.04	24.954
457.39	24.462
457.74	25.103
458.09	26.508
458.44	25.866
458.79	25.224
459.14	25.214
459.49	25.933
459.84	25.913
460.19	25.895
460.54	25.590
460.89	25.168
461.24	25.865
461.59	24.795
461.94	24.825
462.29	25.730
462.64	24.901
462.99	26.372
463.34	25.793
463.69	25.509
464.04	24.780
464.39	24.731
464.74	25.414
465.09	25.797
465.44	24.873
465.79	25.494
466.14	26.640
466.49	25.273
466.84	27.011
467.19	26.309
467.54	25.696
467.89	25.771
468.24	25.831
468.59	25.484
468.94	26.431
469.29	25.731
469.64	26.415
469.99	25.928
470.34	26.921
470.68	26.308
471.03	27.392
471.38	25.764
471.73	26.993
472.08	26.305
472.43	26.126
472.78	25.533
473.13	25.845
473.48	26.739
473.83	26.241
474.17	26.178
474.52	27.813
474.87	26.748
475.22	26.136
475.57	26.500
475.92	26.566
476.27	24.743
476.61	26.704
476.96	27.110
477.31	25.565
477.66	26.342
478.01	26.472
478.36	26.139
478.70	26.215
479.05	27.420
479.40	26.943
479.75	26.707
480.10	26.389
480.45	25.967
480.79	26.752
481.14	27.195
481.49	26.621
481.84	25.798
482.19	26.907
482.53	26.847
482.88	26.815
483.23	26.995
483.58	27.012
483.92	25.991
484.27	25.343
484.62	26.998
484.97	26.461
485.31	25.696
485.66	25.195
486.01	25.441
486.36	26.454
486.70	27.260
487.05	26.271
487.40	26.683
487.75	26.783
488.09	25.973
488.44	26.488
488.79	26.318
489.13	26.968
489.48	26.631
489.83	25.677
490.17	27.122
490.52	27.310
490.87	26.282
491.22	26.623
491.56	26.713
491.91	26.622
492.26	26.745
492.60	26.641
492.95	27.273
493.30	27.203
493.64	26.140
493.99	26.721
494.34	26.619
494.68	27.715
495.03	26.195
495.37	26.745
495.72	27.259
496.07	27.170
496.41	27.837
496.76	26.758
497.11	27.791
497.45	27.874
497.80	26.963
498.14	26.866
498.49	26.570
498.84	26.796
499.18	27.729
499.53	27.034
499.87	26.786
500.22	26.912
500.56	27.314
500.91	26.552
501.26	27.365
501.60	27.395
501.95	27.101
502.29	26.641
502.64	27.251
502.98	25.922
503.33	26.034
503.67	27.155
504.02	26.702
504.36	26.373
504.71	26.596
505.06	26.910
505.40	26.946
505.75	27.033
506.09	27.452
506.44	28.070
506.78	27.145
507.13	26.519
507.47	27.074
507.82	27.052
508.16	27.979
508.51	26.842
508.85	27.536
509.19	26.845
509.54	27.801
509.88	27.340
510.23	26.834
510.57	27.249
510.92	28.303
511.26	27.804
511.61	26.890
511.95	27.209
512.30	26.773
512.64	26.878
512.98	27.448
513.33	26.744
513.67	27.471
514.02	26.790
514.36	27.036
514.70	27.051
515.05	27.730
515.39	26.528
515.74	27.051
516.08	27.205
516.42	27.875
516.77	28.250
517.11	28.032
517.46	28.170
517.80	26.594
518.14	26.147
518.49	27.496
518.83	27.953
519.17	28.538
519.52	26.778
519.86	28.853
520.20	27.567
520.55	28.185
520.89	26.988
521.23	27.778
521.58	27.273
521.92	28.752
522.26	27.619
522.61	27.947
522.95	27.505
523.29	28.777
523.64	27.795
523.98	28.199
524.32	27.530
524.66	26.957
525.01	26.718
525.35	27.964
525.69	26.871
526.04	27.480
526.38	28.008
526.72	27.075
527.06	29.102
527.41	27.525
527.75	26.601
528.09	27.664
528.43	27.541
528.78	28.643
529.12	27.785
529.46	26.546
529.80	26.985
530.15	26.916
530.49	26.843
530.83	28.029
531.17	26.599
531.51	26.591
531.86	27.913
532.20	27.530
532.54	27.139
532.88	27.075
533.22	27.674
533.57	27.480
533.91	26.529
534.25	26.776
534.59	26.421
534.93	26.571
535.27	27.250
535.62	26.918
535.96	27.666
536.30	26.636
536.64	27.623
536.98	26.977
537.32	26.538
537.66	27.699
538.01	27.560
538.35	26.622
538.69	27.005
539.03	26.743
539.37	26.347
539.71	26.684
540.05	27.005
540.39	27.147
540.73	26.123
541.07	26.776
541.42	25.793
541.76	26.312
542.10	26.401
542.44	27.582
542.78	26.526
543.12	25.594
543.46	25.274
543.80	26.288
544.14	25.856
544.48	26.969
544.82	26.455
545.16	27.163
545.50	27.187
545.84	26.634
546.18	27.462
546.52	27.098
546.86	26.425
547.20	28.129
547.54	27.135
547.88	26.609
548.22	26.343
548.56	25.985
548.90	26.887
549.24	26.629
549.58	27.100
549.92	27.067
550.26	26.806
550.60	27.525
550.94	26.496
551.28	27.840
551.62	27.400
551.96	26.049
552.30	27.038
552.64	27.375
552.98	26.769
553.32	27.417
553.66	28.262
554.00	26.866
554.34	26.643
554.68	27.120
555.02	26.990
555.36	27.103
555.69	26.648
556.03	26.947
556.37	26.316
556.71	26.986
557.05	26.903
557.39	26.503
557.73	28.155
558.07	27.958
558.41	28.197
558.75	26.768
559.08	25.525
559.42	27.489
559.76	27.454
560.10	27.069
560.44	27.095
560.78	26.931
561.12	27.398
561.45	26.986
561.79	27.038
562.13	26.718
562.47	26.891
562.81	27.016
563.15	27.432
563.48	27.160
563.82	27.789
564.16	27.181
564.50	27.621
564.84	26.918
565.17	26.790
565.51	27.119
565.85	27.654
566.19	27.141
566.52	26.223
566.86	26.422
567.20	28.148
567.54	27.525
567.88	26.801
568.21	25.727
568.55	26.034
568.89	25.944
569.23	26.192
569.56	26.187
569.90	25.924
570.24	25.629
570.57	25.659
570.91	25.672
571.25	25.843
571.59	26.038
571.92	25.417
572.26	25.704
572.60	25.132
572.93	24.342
573.27	24.787
573.61	24.319
573.95	25.492
574.28	24.883
574.62	24.682
574.96	24.551
575.29	24.619
575.63	24.927
575.97	24.622
576.30	24.144
576.64	24.752
576.98	24.409
577.31	24.553
577.65	25.117
577.98	24.517
578.32	24.521
578.66	24.497
578.99	24.767
579.33	24.943
579.67	25.032
580.00	24.430
580.34	24.535
580.67	24.589
581.01	24.314
581.35	24.890
581.68	24.275
582.02	25.243
582.35	24.835
582.69	25.337
583.02	25.022
583.36	24.976
583.70	24.808
584.03	25.027
584.37	25.792
584.70	24.689
585.04	25.443
585.37	24.630
585.71	25.496
586.04	25.152
586.38	25.287
586.72	25.874
587.05	25.658
587.39	25.184
587.72	25.803
588.06	25.695
588.39	25.748
588.73	25.679
589.06	25.831
589.40	25.970
589.73	25.283
590.07	25.637
590.40	26.089
590.73	26.230
591.07	25.779
591.40	26.040
591.74	26.325
592.07	26.441
592.41	26.242
592.74	26.134
593.08	26.124
593.41	25.724
593.75	25.651
594.08	26.528
594.41	26.913
594.75	26.236
595.08	25.188
595.42	26.662
595.75	25.873
596.09	26.465
596.42	26.637
596.75	26.520
597.09	26.981
597.42	26.189
597.75	26.616
598.09	26.615
598.42	26.779
598.76	26.246
599.09	26.046
599.42	26.067
599.76	25.897
600.09	26.908
600.42	26.510
600.76	27.232
601.09	25.750
601.42	25.406
601.76	27.181
602.09	26.748
602.42	26.914
602.76	26.215
603.09	26.613
603.42	27.196
603.76	26.286
604.09	26.752
604.42	26.353
604.76	25.992
605.09	27.396
605.42	26.729
605.75	26.304
606.09	26.318
606.42	26.477
606.75	27.179
607.09	26.687
607.42	26.629
607.75	26.623
608.08	27.022
608.42	26.632
608.75	25.841
609.08	26.887
609.41	27.354
609.75	26.134
610.08	26.667
610.41	26.506
610.74	26.886
611.07	26.978
611.41	26.172
611.74	27.147
612.07	28.034
612.40	26.439
612.73	27.248
613.07	26.527
613.40	27.750
613.73	27.411
614.06	26.249
614.39	27.959
614.72	27.318
615.06	27.174
615.39	26.913
615.72	27.322
616.05	27.223
616.38	27.220
616.71	27.688
617.05	27.563
617.38	26.316
617.71	27.396
618.04	28.634
618.37	27.296
618.70	28.096
619.03	26.743
619.36	27.907
619.69	28.212
620.03	27.686
620.36	27.215
620.69	28.356
621.02	28.387
621.35	28.387
621.68	27.787
622.01	27.913
622.34	27.795
622.67	27.344
623.00	28.539
623.33	27.910
623.66	26.809
623.99	28.271
624.32	27.604
624.65	28.698
624.99	27.931
625.32	27.844
625.65	27.273
625.98	27.621
626.31	28.874
626.64	28.117
626.97	28.425
627.30	28.426
627.63	27.720
627.96	27.676
628.29	29.228
628.62	29.417
628.95	29.232
629.28	27.444
629.61	28.950
629.94	29.490
630.26	29.026
630.59	29.146
630.92	28.629
631.25	28.931
631.58	29.524
631.91	27.660
632.24	28.000
632.57	28.444
632.90	28.851
633.23	29.322
633.56	29.123
633.89	29.363
634.22	29.752
634.55	29.207
