SpectraSuite Data File
++++++++++++++++++++++++++++++++++++
Date: Sat May 16 11:12:07 PDT 2015
User: schluterlab
Dark Spectrum Present: Yes
Reference Spectrum Present: Yes
Number of Sampled Component Spectra: 1
Spectrometers: USB2E3373
Integration Time (usec): 3000 (USB2E3373)
Spectra Averaged: 3 (USB2E3373)
Boxcar Smoothing: 0 (USB2E3373)
Correct for Electrical Dark: No (USB2E3373)
Strobe/Lamp Enabled: No (USB2E3373)
Correct for Detector Non-linearity: No (USB2E3373)
Correct for Stray Light: No (USB2E3373)
Number of Pixels in Processed Spectrum: 2048
>>>>>Begin Processed Spectral Data<<<<<
178.53	0.000
178.91	26.667
179.29	333.333
179.67	-1000.000
180.04	23.077
180.42	-100.000
180.80	75.000
181.18	175.000
181.56	37.500
181.94	400.000
182.31	350.000
182.69	7.692
183.07	-200.000
183.45	550.000
183.83	233.333
184.20	-142.857
184.58	-12.500
184.96	-100.000
185.34	75.000
185.72	-375.000
186.09	100.000
186.47	0.000
186.85	-175.000
187.23	-162.500
187.61	100.000
187.98	-337.500
188.36	112.500
188.74	-37.500
189.12	1100.000
189.49	200.000
189.87	-16.667
190.25	25.000
190.63	-14.286
191.00	-155.556
191.38	140.000
191.76	113.333
192.14	280.000
192.51	-80.000
192.89	-200.000
193.27	0.000
193.65	0.000
194.02	-114.286
194.40	133.333
194.78	60.000
195.15	400.000
195.53	-81.818
195.91	-300.000
196.29	280.000
196.66	-266.667
197.04	1100.000
197.42	100.000
197.79	46.667
198.17	-33.333
198.55	-300.000
198.92	-900.000
199.30	37.500
199.68	-150.000
200.05	22.222
200.43	-77.778
200.81	300.000
201.18	-83.333
201.56	100.000
201.94	26.667
202.31	40.909
202.69	130.000
203.07	0.000
203.44	166.667
203.82	-33.333
204.19	-25.000
204.57	-200.000
204.95	-900.000
205.32	0.000
205.70	800.000
206.08	-1000.000
206.45	50.000
206.83	-400.000
207.20	300.000
207.58	-400.000
207.96	-533.333
208.33	-62.500
208.71	0.000
209.08	170.000
209.46	100.000
209.84	50.000
210.21	0.000
210.59	50.000
210.96	700.000
211.34	83.333
211.71	-200.000
212.09	375.000
212.46	1300.000
212.84	-500.000
213.22	266.667
213.59	108.333
213.97	66.667
214.34	110.000
214.72	20.000
215.09	-400.000
215.47	-33.333
215.84	50.000
216.22	100.000
216.59	46.667
216.97	-225.000
217.34	400.000
217.72	-142.857
218.09	-133.333
218.47	-85.714
218.84	-0.000
219.22	57.143
219.59	0.000
219.97	71.429
220.34	425.000
220.72	175.000
221.09	-23.077
221.47	0.000
221.84	300.000
222.22	-400.000
222.59	-400.000
222.97	-137.500
223.34	-100.000
223.72	-166.667
224.09	0.000
224.46	-150.000
224.84	-28.571
225.21	-28.571
225.59	-27.273
225.96	-75.000
226.34	42.857
226.71	-88.889
227.08	30.000
227.46	100.000
227.83	0.000
228.21	-175.000
228.58	150.000
228.95	-25.000
229.33	-1700.000
229.70	40.000
230.08	-850.000
230.45	91.667
230.82	83.333
231.20	100.000
231.57	-150.000
231.95	-0.000
232.32	71.429
232.69	-88.889
233.07	-171.429
233.44	-500.000
233.81	46.667
234.19	-11.111
234.56	-68.750
234.93	34.375
235.31	-228.571
235.68	-78.571
236.05	-17.647
236.43	-36.364
236.80	29.032
237.17	4.167
237.55	42.857
237.92	-36.364
238.29	-14.286
238.67	26.471
239.04	38.889
239.41	6.452
239.79	-25.641
240.16	0.000
240.53	-5.455
240.91	30.769
241.28	12.727
241.65	23.077
242.02	21.311
242.40	11.475
242.77	19.697
243.14	23.729
243.51	15.714
243.89	21.519
244.26	14.607
244.63	25.263
245.00	27.368
245.38	23.729
245.75	29.204
246.12	16.000
246.49	14.961
246.87	16.260
247.24	12.712
247.61	16.102
247.98	14.085
248.36	13.287
248.73	19.620
249.10	14.650
249.47	16.959
249.84	22.159
250.22	11.905
250.59	20.339
250.96	14.660
251.33	22.275
251.70	14.904
252.08	14.218
252.45	15.166
252.82	12.381
253.19	22.553
253.56	20.968
253.94	11.392
254.31	18.455
254.68	23.171
255.05	17.742
255.42	20.238
255.79	20.072
256.16	20.392
256.54	22.794
256.91	21.970
257.28	13.187
257.65	20.213
258.02	23.585
258.39	20.736
258.76	13.176
259.14	22.840
259.51	21.639
259.88	17.988
260.25	23.602
260.62	21.543
260.99	16.914
261.36	18.902
261.73	19.075
262.10	22.500
262.47	17.094
262.85	17.714
263.22	16.619
263.59	19.692
263.96	19.130
264.33	20.325
264.70	21.271
265.07	17.033
265.44	15.245
265.81	17.829
266.18	15.696
266.55	16.912
266.92	20.151
267.29	20.823
267.66	20.988
268.03	18.116
268.40	20.188
268.77	18.072
269.14	18.329
269.51	19.080
269.88	13.303
270.25	17.249
270.62	17.620
270.99	19.144
271.36	15.385
271.73	16.368
272.10	16.705
272.47	15.111
272.84	21.111
273.21	19.037
273.58	16.703
273.95	18.640
274.32	16.063
274.69	19.475
275.06	17.178
275.43	18.750
275.80	18.941
276.17	19.665
276.54	18.126
276.91	16.255
277.28	18.864
277.65	17.975
278.02	19.207
278.39	18.468
278.76	15.936
279.13	18.182
279.50	17.694
279.87	16.702
280.23	18.826
280.60	14.712
280.97	16.699
281.34	15.667
281.71	18.077
282.08	17.540
282.45	18.737
282.82	16.085
283.19	16.727
283.56	17.399
283.92	18.021
284.29	17.472
284.66	16.367
285.03	19.786
285.40	18.266
285.77	17.544
286.14	16.426
286.51	16.696
286.87	18.875
287.24	18.430
287.61	17.190
287.98	16.118
288.35	15.868
288.72	15.450
289.08	15.254
289.45	15.152
289.82	16.263
290.19	19.212
290.56	14.545
290.93	14.944
291.29	16.370
291.66	16.264
292.03	17.425
292.40	17.319
292.77	16.615
293.13	17.073
293.50	16.196
293.87	15.491
294.24	15.535
294.60	14.697
294.97	16.388
295.34	14.963
295.71	16.071
296.08	13.057
296.44	13.448
296.81	16.952
297.18	14.789
297.55	16.384
297.91	18.131
298.28	14.932
298.65	14.644
299.02	16.711
299.38	15.241
299.75	15.217
300.12	15.641
300.48	15.729
300.85	14.679
301.22	15.912
301.59	14.564
301.95	17.632
302.32	16.428
302.69	14.933
303.05	15.140
303.42	14.000
303.79	14.833
304.15	16.706
304.52	16.919
304.89	15.821
305.25	15.995
305.62	15.746
305.99	16.843
306.35	15.649
306.72	15.376
307.09	16.913
307.45	16.572
307.82	15.866
308.19	17.897
308.55	16.667
308.92	14.393
309.29	15.568
309.65	16.967
310.02	16.199
310.38	16.324
310.75	16.803
311.12	18.802
311.48	17.119
311.85	17.508
312.22	19.053
312.58	20.346
312.95	18.756
313.31	20.280
313.68	20.302
314.05	20.969
314.41	20.020
314.78	20.080
315.14	20.039
315.51	21.682
315.87	21.297
316.24	22.157
316.61	22.265
316.97	23.682
317.34	23.121
317.70	22.820
318.07	24.534
318.43	23.783
318.80	25.164
319.16	24.578
319.53	25.000
319.89	25.588
320.26	26.569
320.62	25.673
320.99	26.567
321.35	26.305
321.72	26.305
322.08	27.300
322.45	26.931
322.81	28.338
323.18	28.338
323.54	28.928
323.91	29.564
324.27	30.894
324.64	32.084
325.00	31.414
325.37	33.575
325.73	34.121
326.10	34.544
326.46	35.727
326.83	37.191
327.19	36.030
327.56	37.649
327.92	39.082
328.29	38.874
328.65	39.545
329.01	40.636
329.38	42.373
329.74	43.773
330.11	43.064
330.47	44.051
330.84	43.905
331.20	43.412
331.56	44.667
331.93	45.560
332.29	47.489
332.66	45.566
333.02	47.511
333.38	48.029
333.75	47.551
334.11	47.644
334.48	46.425
334.84	48.469
335.20	48.759
335.57	49.819
335.93	51.209
336.29	49.424
336.66	49.163
337.02	50.541
337.38	48.841
337.75	48.551
338.11	50.805
338.47	50.534
338.84	51.180
339.20	49.736
339.56	52.941
339.93	50.088
340.29	51.461
340.65	49.563
341.02	49.494
341.38	49.705
341.74	49.534
342.11	50.256
342.47	50.558
342.83	49.118
343.20	51.067
343.56	49.143
343.92	51.252
344.28	51.808
344.65	49.917
345.01	51.008
345.37	50.831
345.73	49.836
346.10	49.632
346.46	48.903
346.82	50.601
347.19	50.534
347.55	49.759
347.91	50.709
348.27	50.915
348.63	50.969
349.00	51.074
349.36	47.853
349.72	51.194
350.08	50.040
350.45	50.827
350.81	49.841
351.17	50.482
351.53	50.438
351.89	49.555
352.26	49.302
352.62	50.154
352.98	49.604
353.34	49.800
353.70	48.185
354.07	50.511
354.43	51.542
354.79	50.634
355.15	49.281
355.51	50.703
355.87	49.565
356.24	49.087
356.60	52.297
356.96	50.731
357.32	50.040
357.68	50.268
358.04	50.808
358.40	48.183
358.77	50.000
359.13	49.732
359.49	51.247
359.85	48.857
360.21	50.533
360.57	50.904
360.93	50.593
361.29	51.644
361.66	48.704
362.02	50.518
362.38	50.037
362.74	50.623
363.10	49.785
363.46	50.499
363.82	51.385
364.18	49.783
364.54	51.036
364.90	49.825
365.26	50.428
365.62	50.321
365.98	51.280
366.35	49.507
366.71	49.753
367.07	51.447
367.43	51.476
367.79	49.622
368.15	50.284
368.51	51.259
368.87	51.374
369.23	50.947
369.59	51.458
369.95	50.035
370.31	51.617
370.67	50.615
371.03	51.603
371.39	50.424
371.75	51.144
372.11	52.726
372.47	52.856
372.83	52.225
373.19	51.000
373.55	51.795
373.91	51.636
374.27	51.677
374.63	50.587
374.99	51.252
375.35	50.673
375.71	52.532
376.07	52.361
376.42	51.788
376.78	52.418
377.14	53.559
377.50	52.676
377.86	51.560
378.22	53.329
378.58	53.366
378.94	53.144
379.30	53.382
379.66	52.338
380.02	51.931
380.38	53.051
380.74	53.693
381.09	53.486
381.45	53.819
381.81	52.934
382.17	53.634
382.53	52.948
382.89	54.486
383.25	52.980
383.61	52.948
383.97	53.705
384.32	54.380
384.68	54.776
385.04	54.106
385.40	54.352
385.76	54.939
386.12	52.655
386.48	54.084
386.83	53.988
387.19	54.752
387.55	54.876
387.91	54.475
388.27	54.584
388.62	54.868
388.98	54.997
389.34	54.590
389.70	54.629
390.06	54.444
390.42	55.577
390.77	55.773
391.13	55.217
391.49	54.024
391.85	54.988
392.20	54.915
392.56	54.551
392.92	54.820
393.28	55.166
393.64	56.224
393.99	55.569
394.35	55.109
394.71	55.899
395.07	56.372
395.42	53.218
395.78	54.431
396.14	56.324
396.50	55.963
396.85	54.596
397.21	54.496
397.57	55.745
397.92	55.796
398.28	56.444
398.64	55.860
399.00	56.236
399.35	54.961
399.71	55.168
400.07	56.657
400.42	56.569
400.78	55.218
401.14	56.168
401.49	54.894
401.85	57.901
402.21	56.257
402.57	56.250
402.92	56.765
403.28	54.841
403.63	55.962
403.99	56.060
404.35	55.737
404.70	55.237
405.06	55.479
405.42	54.428
405.77	54.129
406.13	55.593
406.49	55.482
406.84	55.309
407.20	56.184
407.55	54.908
407.91	55.052
408.27	54.473
408.62	54.660
408.98	54.882
409.34	54.906
409.69	55.009
410.05	55.428
410.40	55.917
410.76	55.305
411.11	56.047
411.47	55.563
411.83	56.112
412.18	55.507
412.54	54.667
412.89	55.954
413.25	55.903
413.60	56.379
413.96	54.529
414.31	56.147
414.67	55.619
415.03	55.951
415.38	56.864
415.74	56.637
416.09	56.522
416.45	54.365
416.80	55.592
417.16	56.811
417.51	58.503
417.87	57.476
418.22	56.637
418.58	56.354
418.93	57.879
419.29	58.469
419.64	56.972
420.00	58.080
420.35	58.250
420.71	57.923
421.06	58.994
421.42	57.319
421.77	58.626
422.12	60.101
422.48	59.594
422.83	59.738
423.19	59.354
423.54	59.424
423.90	59.572
424.25	59.163
424.61	61.098
424.96	61.147
425.31	61.096
425.67	60.802
426.02	60.298
426.38	61.887
426.73	61.601
427.09	61.397
427.44	61.648
427.79	62.500
428.15	62.717
428.50	61.525
428.85	62.050
429.21	62.645
429.56	63.438
429.92	62.675
430.27	62.064
430.62	63.427
430.98	63.356
431.33	62.327
431.68	63.753
432.04	65.081
432.39	64.330
432.74	64.508
433.10	63.872
433.45	63.328
433.80	65.454
434.16	64.320
434.51	66.192
434.86	65.788
435.22	64.644
435.57	65.667
435.92	65.651
436.28	66.825
436.63	66.874
436.98	65.120
437.34	65.446
437.69	65.753
438.04	66.875
438.39	66.787
438.75	66.298
439.10	66.185
439.45	67.230
439.81	67.289
440.16	67.632
440.51	67.765
440.86	67.033
441.22	67.219
441.57	67.474
441.92	67.980
442.27	68.074
442.63	68.723
442.98	68.792
443.33	69.303
443.68	68.838
444.03	68.320
444.39	68.625
444.74	71.145
445.09	69.627
445.44	69.668
445.79	70.627
446.15	69.332
446.50	70.005
446.85	69.010
447.20	68.948
447.55	70.055
447.91	69.792
448.26	69.832
448.61	69.949
448.96	70.980
449.31	70.180
449.66	70.750
450.02	69.695
450.37	72.174
450.72	70.113
451.07	72.030
451.42	70.446
451.77	71.155
452.12	71.573
452.47	71.977
452.83	71.462
453.18	72.423
453.53	71.704
453.88	73.206
454.23	71.463
454.58	74.021
454.93	72.922
455.28	72.148
455.63	73.710
455.98	74.940
456.34	71.665
456.69	73.796
457.04	72.772
457.39	72.428
457.74	72.829
458.09	73.202
458.44	74.769
458.79	72.926
459.14	73.645
459.49	74.600
459.84	74.087
460.19	74.105
460.54	73.382
460.89	74.608
461.24	74.621
461.59	75.029
461.94	75.621
462.29	73.437
462.64	75.099
462.99	74.096
463.34	75.017
463.69	74.936
464.04	73.579
464.39	74.253
464.74	73.995
465.09	74.263
465.44	74.450
465.79	73.999
466.14	76.755
466.49	74.957
466.84	76.351
467.19	76.122
467.54	74.937
467.89	75.709
468.24	75.534
468.59	75.390
468.94	77.878
469.29	76.348
469.64	76.348
469.99	75.219
470.34	76.152
470.68	77.253
471.03	76.531
471.38	75.903
471.73	77.972
472.08	76.573
472.43	77.542
472.78	78.600
473.13	77.005
473.48	77.601
473.83	77.171
474.17	78.089
474.52	79.220
474.87	76.515
475.22	75.457
475.57	77.056
475.92	76.188
476.27	76.286
476.61	77.803
476.96	77.809
477.31	77.341
477.66	78.971
478.01	77.472
478.36	76.323
478.70	79.445
479.05	78.042
479.40	78.187
479.75	76.860
480.10	79.018
480.45	76.934
480.79	78.924
481.14	79.177
481.49	79.042
481.84	76.422
482.19	77.570
482.53	78.409
482.88	77.456
483.23	78.732
483.58	78.908
483.92	78.643
484.27	76.473
484.62	77.883
484.97	76.734
485.31	76.448
485.66	75.837
486.01	75.423
486.36	76.028
486.70	77.753
487.05	76.794
487.40	77.110
487.75	76.193
488.09	76.560
488.44	75.744
488.79	76.406
489.13	76.341
489.48	77.814
489.83	78.996
490.17	78.407
490.52	79.574
490.87	78.753
491.22	78.375
491.56	77.361
491.91	79.914
492.26	78.491
492.60	78.782
492.95	78.248
493.30	79.038
493.64	78.655
493.99	79.780
494.34	77.952
494.68	79.728
495.03	78.537
495.37	79.253
495.72	78.978
496.07	79.446
496.41	79.944
496.76	78.767
497.11	79.180
497.45	79.837
497.80	80.390
498.14	79.862
498.49	79.608
498.84	79.126
499.18	79.825
499.53	78.909
499.87	78.378
500.22	78.775
500.56	79.190
500.91	79.557
501.26	79.282
501.60	79.442
501.95	81.014
502.29	78.602
502.64	79.679
502.98	79.828
503.33	77.068
503.67	78.831
504.02	79.430
504.36	79.951
504.71	79.585
505.06	78.932
505.40	80.090
505.75	80.996
506.09	80.384
506.44	79.449
506.78	80.181
507.13	78.733
507.47	79.760
507.82	79.350
508.16	81.347
508.51	80.216
508.85	79.503
509.19	79.278
509.54	79.810
509.88	80.160
510.23	79.717
510.57	79.048
510.92	81.310
511.26	79.904
511.61	80.292
511.95	79.256
512.30	79.989
512.64	79.021
512.98	80.308
513.33	78.693
513.67	80.346
514.02	79.754
514.36	79.003
514.70	80.023
515.05	79.646
515.39	79.988
515.74	81.617
516.08	79.769
516.42	80.227
516.77	80.994
517.11	80.320
517.46	82.356
517.80	81.167
518.14	80.012
518.49	80.813
518.83	80.059
519.17	80.521
519.52	77.733
519.86	80.585
520.20	81.907
520.55	79.446
520.89	79.837
521.23	79.731
521.58	80.878
521.92	80.874
522.26	79.429
522.61	79.658
522.95	80.408
523.29	80.313
523.64	78.763
523.98	81.540
524.32	79.195
524.66	77.826
525.01	80.283
525.35	81.057
525.69	79.375
526.04	80.614
526.38	79.376
526.72	77.267
527.06	79.102
527.41	80.264
527.75	78.746
528.09	80.874
528.43	78.689
528.78	78.957
529.12	79.321
529.46	80.090
529.80	79.600
530.15	78.364
530.49	76.908
530.83	79.568
531.17	78.788
531.51	78.969
531.86	77.354
532.20	77.868
532.54	78.877
532.88	77.602
533.22	81.885
533.57	78.198
533.91	76.654
534.25	77.813
534.59	76.515
534.93	77.100
535.27	78.855
535.62	78.133
535.96	75.307
536.30	76.440
536.64	77.424
536.98	80.438
537.32	77.609
537.66	76.578
538.01	78.625
538.35	77.432
538.69	77.340
539.03	76.506
539.37	76.114
539.71	76.318
540.05	76.971
540.39	77.008
540.73	79.475
541.07	77.117
541.42	77.380
541.76	75.880
542.10	76.300
542.44	75.483
542.78	77.205
543.12	76.714
543.46	76.096
543.80	76.722
544.14	77.435
544.48	77.690
544.82	77.740
545.16	76.526
545.50	76.110
545.84	76.982
546.18	76.699
546.52	78.023
546.86	77.137
547.20	77.215
547.54	75.275
547.88	77.040
548.22	74.705
548.56	77.288
548.90	76.617
549.24	76.104
549.58	76.006
549.92	75.477
550.26	78.829
550.60	74.182
550.94	76.058
551.28	76.599
551.62	77.548
551.96	74.747
552.30	74.843
552.64	75.651
552.98	75.193
553.32	76.263
553.66	76.784
554.00	76.119
554.34	74.224
554.68	74.708
555.02	73.878
555.36	75.054
555.69	75.501
556.03	76.491
556.37	75.107
556.71	76.306
557.05	77.162
557.39	74.981
557.73	75.346
558.07	75.885
558.41	75.318
558.75	75.361
559.08	74.319
559.42	76.187
559.76	75.690
560.10	76.659
560.44	76.445
560.78	74.600
561.12	74.741
561.45	74.521
561.79	75.331
562.13	75.175
562.47	74.650
562.81	74.399
563.15	75.437
563.48	74.775
563.82	74.915
564.16	73.428
564.50	75.134
564.84	73.214
565.17	72.944
565.51	73.403
565.85	74.713
566.19	74.704
566.52	73.451
566.86	73.198
567.20	72.760
567.54	74.601
567.88	71.915
568.21	73.602
568.55	71.686
568.89	70.527
569.23	71.032
569.56	70.198
569.90	70.850
570.24	71.214
570.57	69.315
570.91	69.500
571.25	69.942
571.59	69.622
571.92	69.048
572.26	68.574
572.60	67.608
572.93	67.761
573.27	67.561
573.61	67.479
573.95	67.882
574.28	67.115
574.62	68.556
574.96	66.849
575.29	68.140
575.63	67.587
575.97	66.882
576.30	66.840
576.64	67.520
576.98	66.658
577.31	67.318
577.65	67.457
577.98	66.847
578.32	67.502
578.66	67.367
578.99	67.375
579.33	67.094
579.67	66.345
580.00	67.063
580.34	67.343
580.67	66.977
581.01	65.699
581.35	67.200
581.68	66.660
582.02	66.844
582.35	66.931
582.69	67.398
583.02	67.219
583.36	66.802
583.70	66.923
584.03	67.107
584.37	66.982
584.70	66.905
585.04	66.658
585.37	66.181
585.71	66.642
586.04	66.717
586.38	66.480
586.72	66.657
587.05	67.658
587.39	67.441
587.72	66.684
588.06	66.575
588.39	67.531
588.73	66.747
589.06	68.095
589.40	68.018
589.73	67.528
590.07	67.553
590.40	66.753
590.73	67.613
591.07	67.500
591.40	68.154
591.74	68.853
592.07	68.378
592.41	68.662
592.74	67.948
593.08	68.074
593.41	68.026
593.75	66.601
594.08	68.224
594.41	68.281
594.75	67.724
595.08	68.308
595.42	67.847
595.75	68.026
596.09	67.831
596.42	68.535
596.75	67.486
597.09	68.833
597.42	68.616
597.75	68.246
598.09	68.595
598.42	67.875
598.76	68.605
599.09	67.285
599.42	68.589
599.76	67.006
600.09	67.901
600.42	67.831
600.76	68.814
601.09	68.173
601.42	67.036
601.76	67.445
602.09	68.466
602.42	67.984
602.76	68.799
603.09	68.790
603.42	67.647
603.76	67.810
604.09	68.002
604.42	66.278
604.76	67.641
605.09	68.083
605.42	68.883
605.75	68.995
606.09	68.410
606.42	68.496
606.75	66.509
607.09	67.843
607.42	67.650
607.75	68.300
608.08	68.911
608.42	68.448
608.75	67.336
609.08	68.095
609.41	68.510
609.75	66.114
610.08	68.284
610.41	68.675
610.74	68.520
611.07	67.698
611.41	68.432
611.74	70.488
612.07	69.549
612.40	68.870
612.73	67.367
613.07	68.244
613.40	70.881
613.73	68.774
614.06	68.040
614.39	70.688
614.72	68.771
615.06	68.370
615.39	68.584
615.72	69.908
616.05	68.636
616.38	68.659
616.71	70.390
617.05	69.361
617.38	69.536
617.71	69.533
618.04	70.062
618.37	69.874
618.70	71.186
619.03	68.314
619.36	70.190
619.69	70.065
620.03	67.769
620.36	70.956
620.69	70.782
621.02	70.700
621.35	70.161
621.68	71.885
622.01	71.602
622.34	71.506
622.67	71.484
623.00	69.855
623.33	70.672
623.66	69.498
623.99	70.075
624.32	69.420
624.65	69.242
624.99	71.546
625.32	70.883
625.65	71.484
625.98	70.423
626.31	69.984
626.64	69.874
626.97	71.918
627.30	71.489
627.63	72.366
627.96	70.322
628.29	72.243
628.62	71.156
628.95	73.228
629.28	71.805
629.61	73.111
629.94	73.157
630.26	74.950
630.59	73.970
630.92	72.072
631.25	74.194
631.58	72.487
631.91	72.660
632.24	75.222
632.57	75.444
632.90	74.943
633.23	74.650
