SpectraSuite Data File
++++++++++++++++++++++++++++++++++++
Date: Sat May 16 11:26:51 PDT 2015
User: schluterlab
Dark Spectrum Present: Yes
Reference Spectrum Present: Yes
Number of Sampled Component Spectra: 1
Spectrometers: USB2E3373
Integration Time (usec): 3000 (USB2E3373)
Spectra Averaged: 3 (USB2E3373)
Boxcar Smoothing: 0 (USB2E3373)
Correct for Electrical Dark: No (USB2E3373)
Strobe/Lamp Enabled: No (USB2E3373)
Correct for Detector Non-linearity: No (USB2E3373)
Correct for Stray Light: No (USB2E3373)
Number of Pixels in Processed Spectrum: 2048
>>>>>Begin Processed Spectral Data<<<<<
178.53	0.000
178.91	100.000
179.29	633.333
179.67	-100.000
180.04	-30.769
180.42	800.000
180.80	200.000
181.18	550.000
181.56	-75.000
181.94	800.000
182.31	600.000
182.69	-30.769
183.07	-766.667
183.45	1200.000
183.83	433.333
184.20	-71.429
184.58	-150.000
184.96	-400.000
185.34	187.500
185.72	-575.000
186.09	50.000
186.47	-137.500
186.85	-300.000
187.23	25.000
187.61	-275.000
187.98	-250.000
188.36	-100.000
188.74	-162.500
189.12	800.000
189.49	285.714
189.87	-75.000
190.25	400.000
190.63	-57.143
191.00	-166.667
191.38	460.000
191.76	-40.000
192.14	380.000
192.51	-160.000
192.89	-533.333
193.27	0.000
193.65	-166.667
194.02	-185.714
194.40	433.333
194.78	-180.000
195.15	-1500.000
195.53	-81.818
195.91	-316.667
196.29	340.000
196.66	-300.000
197.04	1900.000
197.42	-150.000
197.79	-33.333
198.17	-400.000
198.55	-700.000
198.92	-1100.000
199.30	175.000
199.68	-350.000
200.05	-122.222
200.43	-100.000
200.81	-1600.000
201.18	-133.333
201.56	128.571
201.94	-66.667
202.31	4.545
202.69	30.000
203.07	-170.000
203.44	533.333
203.82	-166.667
204.19	-450.000
204.57	-175.000
204.95	-1300.000
205.32	-43.750
205.70	1000.000
206.08	-2800.000
206.45	-38.889
206.83	-750.000
207.20	-100.000
207.58	-533.333
207.96	-400.000
208.33	-100.000
208.71	-211.111
209.08	190.000
209.46	-114.286
209.84	1050.000
210.21	0.000
210.59	45.000
210.96	1500.000
211.34	-183.333
211.71	-566.667
212.09	400.000
212.46	1050.000
212.84	-2300.000
213.22	500.000
213.59	141.667
213.97	-44.444
214.34	170.000
214.72	-90.000
215.09	-300.000
215.47	-250.000
215.84	-80.000
216.22	-80.000
216.59	-80.000
216.97	-275.000
217.34	750.000
217.72	-214.286
218.09	-216.667
218.47	-214.286
218.84	185.714
219.22	-171.429
219.59	0.000
219.97	314.286
220.34	325.000
220.72	112.500
221.09	-69.231
221.47	0.000
221.84	300.000
222.22	-850.000
222.59	400.000
222.97	-237.500
223.34	-700.000
223.72	-600.000
224.09	-100.000
224.46	-350.000
224.84	-35.714
225.21	-257.143
225.59	-90.909
225.96	-187.500
226.34	-142.857
226.71	-133.333
227.08	-20.000
227.46	1300.000
227.83	-100.000
228.21	-175.000
228.58	200.000
228.95	-12.500
229.33	-1500.000
229.70	-240.000
230.08	-1050.000
230.45	-16.667
230.82	-116.667
231.20	-800.000
231.57	-600.000
231.95	400.000
232.32	14.286
232.69	-44.444
233.07	-142.857
233.44	-800.000
233.81	-60.000
234.19	55.556
234.56	0.000
234.93	15.625
235.31	-200.000
235.68	-128.571
236.05	11.765
236.43	-68.182
236.80	6.452
237.17	-33.333
237.55	-47.619
237.92	-50.000
238.29	22.857
238.67	20.588
239.04	27.778
239.41	22.581
239.79	5.128
240.16	30.952
240.53	-1.818
240.91	23.077
241.28	34.545
241.65	43.077
242.02	47.541
242.40	22.951
242.77	22.727
243.14	18.644
243.51	21.429
243.89	34.177
244.26	29.213
244.63	35.789
245.00	34.737
245.38	36.441
245.75	29.204
246.12	34.400
246.49	34.646
246.87	30.081
247.24	28.814
247.61	41.525
247.98	35.915
248.36	36.364
248.73	39.873
249.10	34.395
249.47	39.181
249.84	35.795
250.22	28.571
250.59	42.938
250.96	37.696
251.33	39.810
251.70	36.538
252.08	42.180
252.45	37.915
252.82	38.571
253.19	39.574
253.56	40.323
253.94	39.241
254.31	36.481
254.68	44.309
255.05	37.500
255.42	44.444
255.79	35.125
256.16	39.608
256.54	40.809
256.91	38.636
257.28	41.758
257.65	38.652
258.02	42.138
258.39	43.144
258.76	39.865
259.14	40.432
259.51	43.934
259.88	42.988
260.25	40.994
260.62	41.158
260.99	38.279
261.36	39.939
261.73	41.618
262.10	40.556
262.47	42.165
262.85	44.857
263.22	40.401
263.59	41.538
263.96	43.768
264.33	39.837
264.70	43.923
265.07	39.560
265.44	40.568
265.81	40.310
266.18	36.203
266.55	39.216
266.92	41.058
267.29	42.131
267.66	38.025
268.03	43.237
268.40	37.559
268.77	40.000
269.14	38.283
269.51	41.379
269.88	36.009
270.25	39.627
270.62	36.613
270.99	38.288
271.36	40.793
271.73	38.789
272.10	41.419
272.47	38.889
272.84	39.333
273.21	42.431
273.58	42.198
273.95	39.474
274.32	39.819
274.69	41.575
275.06	40.286
275.43	40.625
275.80	41.955
276.17	37.029
276.54	40.122
276.91	39.506
277.28	39.351
277.65	39.463
278.02	39.248
278.39	38.703
278.76	39.641
279.13	40.119
279.50	39.364
279.87	39.958
280.23	39.879
280.60	37.972
280.97	39.223
281.34	39.845
281.71	40.769
282.08	40.927
282.45	39.919
282.82	39.922
283.19	40.000
283.56	40.659
283.92	40.106
284.29	40.149
284.66	36.151
285.03	38.681
285.40	41.513
285.77	41.053
286.14	40.794
286.51	38.366
286.87	41.016
287.24	40.614
287.61	37.686
287.98	36.742
288.35	34.545
288.72	37.351
289.08	36.271
289.45	35.690
289.82	35.467
290.19	38.588
290.56	34.711
290.93	34.022
291.29	35.332
291.66	37.681
292.03	33.909
292.40	34.187
292.77	33.696
293.13	34.634
293.50	34.770
293.87	34.816
294.24	34.238
294.60	31.667
294.97	34.143
295.34	33.037
295.71	33.482
296.08	33.026
296.44	31.330
296.81	33.333
297.18	32.817
297.55	32.910
297.91	35.425
298.28	32.740
298.65	32.078
299.02	32.487
299.38	29.947
299.75	31.658
300.12	30.385
300.48	30.946
300.85	31.979
301.22	30.272
301.59	31.339
301.95	31.738
302.32	28.944
302.69	29.376
303.05	28.938
303.42	30.375
303.79	30.622
304.15	31.517
304.52	28.471
304.89	30.106
305.25	29.670
305.62	27.145
305.99	30.271
306.35	28.968
306.72	28.815
307.09	31.215
307.45	28.263
307.82	27.486
308.19	28.971
308.55	30.065
308.92	28.786
309.29	28.108
309.65	27.996
310.02	28.510
310.38	26.703
310.75	27.049
311.12	28.616
311.48	29.123
311.85	28.630
312.22	28.630
312.58	30.010
312.95	27.625
313.31	29.371
313.68	29.648
314.05	28.586
314.41	27.465
314.78	28.272
315.14	27.937
315.51	28.166
315.87	28.654
316.24	29.252
316.61	29.175
316.97	28.657
317.34	27.457
317.70	28.850
318.07	27.425
318.43	27.622
318.80	29.577
319.16	28.518
319.53	28.383
319.89	27.093
320.26	28.235
320.62	27.596
320.99	30.448
321.35	27.882
321.72	28.557
322.08	28.882
322.45	29.307
322.81	28.915
323.18	28.915
323.54	29.298
323.91	28.823
324.27	30.133
324.64	27.697
325.00	27.138
325.37	29.502
325.73	29.746
326.10	27.458
326.46	29.510
326.83	27.745
327.19	29.274
327.56	30.579
327.92	29.652
328.29	29.351
328.65	28.909
329.01	29.859
329.38	29.349
329.74	30.769
330.11	31.097
330.47	29.246
330.84	31.531
331.20	29.513
331.56	30.356
331.93	28.863
332.29	31.416
332.66	29.851
333.02	30.679
333.38	30.556
333.75	31.523
334.11	30.222
334.48	29.303
334.84	30.971
335.20	30.053
335.57	29.693
335.93	32.408
336.29	30.647
336.66	30.485
337.02	31.712
337.38	29.501
337.75	30.202
338.11	31.038
338.47	31.406
338.84	31.034
339.20	29.877
339.56	31.016
339.93	30.776
340.29	29.584
340.65	31.119
341.02	31.282
341.38	30.666
341.74	30.059
342.11	30.802
342.47	30.043
342.83	29.723
343.20	30.316
343.56	30.122
343.92	30.217
344.28	30.362
344.65	29.208
345.01	31.008
345.37	32.392
345.73	29.869
346.10	29.436
346.46	30.950
346.82	30.954
347.19	30.813
347.55	29.053
347.91	31.024
348.27	29.435
348.63	30.937
349.00	31.265
349.36	28.649
349.72	32.166
350.08	30.072
350.45	29.866
350.81	30.573
351.17	30.788
351.53	29.674
351.89	30.315
352.26	31.163
352.62	31.029
352.98	29.984
353.34	30.056
353.70	29.575
354.07	30.842
354.43	29.881
354.79	30.269
355.15	29.952
355.51	30.391
355.87	30.119
356.24	30.262
356.60	30.701
356.96	29.561
357.32	30.879
357.68	29.885
358.04	30.716
358.40	30.240
358.77	30.835
359.13	30.604
359.49	29.781
359.85	30.107
360.21	30.289
360.57	31.325
360.93	31.185
361.29	29.447
361.66	29.497
362.02	30.843
362.38	31.108
362.74	29.817
363.10	29.197
363.46	30.627
363.82	29.883
364.18	30.463
364.54	30.808
364.90	29.839
365.26	29.957
365.62	31.932
365.98	31.223
366.35	30.775
366.71	30.655
367.07	31.052
367.43	30.885
367.79	29.897
368.15	30.156
368.51	31.259
368.87	31.113
369.23	31.579
369.59	30.417
369.95	31.078
370.31	31.224
370.67	31.020
371.03	31.487
371.39	29.703
371.75	31.545
372.11	32.425
372.47	31.309
372.83	32.197
373.19	31.714
373.55	30.683
373.91	31.650
374.27	30.116
374.63	31.332
374.99	31.919
375.35	30.888
375.71	32.275
376.07	31.348
376.42	30.728
376.78	31.438
377.14	32.068
377.50	31.270
377.86	31.404
378.22	32.098
378.58	31.686
378.94	31.813
379.30	31.140
379.66	32.058
380.02	31.254
380.38	31.299
380.74	31.419
381.09	30.873
381.45	31.742
381.81	31.579
382.17	32.456
382.53	30.942
382.89	31.280
383.25	31.487
383.61	31.368
383.97	32.456
384.32	31.915
384.68	32.164
385.04	31.341
385.40	31.163
385.76	31.768
386.12	32.605
386.48	32.364
386.83	33.190
387.19	32.337
387.55	31.981
387.91	32.424
388.27	32.811
388.62	31.190
388.98	31.496
389.34	32.681
389.70	31.669
390.06	31.945
390.42	32.500
390.77	31.924
391.13	32.112
391.49	32.002
391.85	32.544
392.20	31.675
392.56	31.277
392.92	31.888
393.28	32.204
393.64	32.652
393.99	31.692
394.35	31.752
394.71	31.933
395.07	32.580
395.42	31.585
395.78	32.118
396.14	33.458
396.50	32.171
396.85	32.326
397.21	32.382
397.57	31.976
397.92	32.436
398.28	32.778
398.64	32.540
399.00	33.090
399.35	33.202
399.71	32.288
400.07	32.299
400.42	32.178
400.78	32.320
401.14	32.216
401.49	32.901
401.85	31.971
402.21	32.956
402.57	33.252
402.92	33.732
403.28	33.578
403.63	31.696
403.99	32.194
404.35	32.307
404.70	32.066
405.06	32.699
405.42	32.226
405.77	31.844
406.13	32.141
406.49	32.954
406.84	32.214
407.20	33.569
407.55	33.756
407.91	31.865
408.27	32.169
408.62	32.532
408.98	32.080
409.34	32.785
409.69	32.577
410.05	32.080
410.40	31.514
410.76	31.832
411.11	33.292
411.47	33.760
411.83	32.702
412.18	32.735
412.54	32.886
412.89	33.111
413.25	32.231
413.60	31.409
413.96	31.793
414.31	33.028
414.67	31.556
415.03	32.600
415.38	32.401
415.74	33.376
416.09	32.801
416.45	32.341
416.80	31.990
417.16	31.163
417.51	33.749
417.87	32.298
418.22	31.922
418.58	32.028
418.93	32.250
419.29	32.873
419.64	31.910
420.00	32.503
420.35	32.111
420.71	33.433
421.06	32.663
421.42	32.026
421.77	33.110
422.12	32.457
422.48	32.817
422.83	32.403
423.19	33.296
423.54	32.622
423.90	32.851
424.25	31.787
424.61	32.871
424.96	32.534
425.31	33.147
425.67	32.665
426.02	32.243
426.38	33.394
426.73	33.489
427.09	32.537
427.44	33.011
427.79	32.849
428.15	32.735
428.50	32.493
428.85	33.573
429.21	32.651
429.56	33.021
429.92	33.367
430.27	32.652
430.62	32.968
430.98	32.096
431.33	32.711
431.68	33.083
432.04	33.184
432.39	33.903
432.74	32.314
433.10	32.527
433.45	32.124
433.80	32.699
434.16	32.832
434.51	33.753
434.86	33.685
435.22	33.018
435.57	31.457
435.92	33.236
436.28	33.056
436.63	32.335
436.98	32.474
437.34	32.959
437.69	32.847
438.04	32.728
438.39	33.514
438.75	33.353
439.10	34.148
439.45	33.011
439.81	32.410
440.16	33.049
440.51	34.176
440.86	34.008
441.22	33.057
441.57	33.211
441.92	32.788
442.27	33.874
442.63	33.691
442.98	32.844
443.33	33.553
443.68	32.934
444.03	33.448
444.39	33.480
444.74	33.866
445.09	33.059
445.44	33.765
445.79	33.707
446.15	34.392
446.50	32.118
446.85	34.017
447.20	34.065
447.55	33.702
447.91	32.734
448.26	33.464
448.61	32.767
448.96	33.838
449.31	33.033
449.66	33.944
450.02	33.573
450.37	34.029
450.72	32.147
451.07	33.815
451.42	31.908
451.77	32.555
452.12	33.611
452.47	33.942
452.83	32.790
453.18	33.839
453.53	33.396
453.88	34.270
454.23	32.830
454.58	33.934
454.93	33.249
455.28	34.481
455.63	33.784
455.98	33.855
456.34	33.227
456.69	34.647
457.04	33.559
457.39	33.792
457.74	32.723
458.09	33.469
458.44	34.296
458.79	32.455
459.14	32.915
459.49	34.399
459.84	35.076
460.19	33.413
460.54	32.728
460.89	33.969
461.24	32.908
461.59	34.291
461.94	34.882
462.29	34.961
462.64	33.992
462.99	34.873
463.34	33.018
463.69	33.524
464.04	33.685
464.39	33.871
464.74	32.979
465.09	34.035
465.44	33.108
465.79	34.969
466.14	34.465
466.49	34.197
466.84	33.733
467.19	34.352
467.54	33.165
467.89	35.203
468.24	34.264
468.59	33.916
468.94	34.920
469.29	34.113
469.64	33.558
469.99	33.964
470.34	33.534
470.68	33.721
471.03	34.067
471.38	33.750
471.73	33.007
472.08	33.601
472.43	33.462
472.78	32.867
473.13	32.737
473.48	32.929
473.83	33.623
474.17	33.631
474.52	34.974
474.87	33.566
475.22	33.274
475.57	34.278
475.92	33.855
476.27	33.429
476.61	33.127
476.96	33.371
477.31	34.392
477.66	34.588
478.01	34.468
478.36	33.683
478.70	35.665
479.05	34.613
479.40	34.663
479.75	34.200
480.10	34.325
480.45	33.269
480.79	34.403
481.14	34.471
481.49	34.608
481.84	34.212
482.19	34.902
482.53	34.233
482.88	34.314
483.23	33.568
483.58	34.736
483.92	34.735
484.27	33.717
484.62	34.125
484.97	34.918
485.31	33.696
485.66	33.265
486.01	34.614
486.36	35.497
486.70	36.154
487.05	35.320
487.40	35.123
487.75	34.700
488.09	34.651
488.44	35.690
488.79	34.418
489.13	34.234
489.48	35.237
489.83	35.109
490.17	34.523
490.52	34.239
490.87	33.811
491.22	34.657
491.56	33.935
491.91	34.876
492.26	34.340
492.60	34.491
492.95	34.317
493.30	34.016
493.64	33.756
493.99	34.273
494.34	35.429
494.68	34.691
495.03	34.751
495.37	34.956
495.72	34.430
496.07	34.397
496.41	34.553
496.76	34.292
497.11	34.903
497.45	34.866
497.80	34.267
498.14	34.627
498.49	33.250
498.84	34.223
499.18	34.795
499.53	35.168
499.87	34.942
500.22	34.608
500.56	35.468
500.91	34.483
501.26	35.856
501.60	34.232
501.95	35.652
502.29	34.908
502.64	35.832
502.98	33.924
503.33	35.150
503.67	35.536
504.02	35.683
504.36	35.147
504.71	34.448
505.06	34.448
505.40	35.080
505.75	35.569
506.09	35.844
506.44	35.238
506.78	34.772
507.13	35.376
507.47	35.576
507.82	34.899
508.16	35.337
508.51	35.188
508.85	35.248
509.19	35.583
509.54	35.148
509.88	35.585
510.23	35.535
510.57	35.873
510.92	36.950
511.26	35.566
511.61	34.341
511.95	35.830
512.30	35.569
512.64	35.225
512.98	35.754
513.33	35.475
513.67	35.567
514.02	35.962
514.36	35.679
514.70	35.597
515.05	35.963
515.39	36.101
515.74	36.533
516.08	35.735
516.42	36.771
516.77	36.973
517.11	36.041
517.46	36.603
517.80	36.342
518.14	35.628
518.49	36.641
518.83	35.371
519.17	36.294
519.52	35.570
519.86	35.723
520.20	36.002
520.55	37.046
520.89	36.255
521.23	36.203
521.58	36.176
521.92	37.049
522.26	36.571
522.61	36.629
522.95	36.567
523.29	35.361
523.64	35.540
523.98	36.792
524.32	37.209
524.66	36.335
525.01	36.480
525.35	36.082
525.69	37.476
526.04	37.010
526.38	36.919
526.72	36.335
527.06	36.523
527.41	36.832
527.75	35.776
528.09	37.062
528.43	37.180
528.78	36.118
529.12	36.748
529.46	36.856
529.80	36.927
530.15	37.411
530.49	36.546
530.83	37.787
531.17	36.633
531.51	37.374
531.86	37.261
532.20	36.302
532.54	37.968
532.88	36.759
533.22	36.965
533.57	37.467
533.91	37.016
534.25	36.204
534.59	35.790
534.93	36.403
535.27	37.571
535.62	37.276
535.96	37.815
536.30	38.154
536.64	38.313
536.98	36.864
537.32	37.111
537.66	38.425
538.01	37.388
538.35	37.703
538.69	36.898
539.03	37.644
539.37	36.660
539.71	36.958
540.05	37.697
540.39	38.435
540.73	38.286
541.07	37.295
541.42	37.205
541.76	37.409
542.10	37.542
542.44	37.175
542.78	38.195
543.12	37.814
543.46	36.507
543.80	36.923
544.14	37.273
544.48	37.598
544.82	37.821
545.16	37.290
545.50	37.752
545.84	37.552
546.18	38.003
546.52	38.122
546.86	37.963
547.20	37.764
547.54	36.501
547.88	36.629
548.22	36.173
548.56	38.611
548.90	37.466
549.24	37.561
549.58	37.826
549.92	37.456
550.26	37.283
550.60	36.913
550.94	37.518
551.28	37.773
551.62	37.223
551.96	38.061
552.30	37.003
552.64	37.861
552.98	37.631
553.32	37.085
553.66	37.130
554.00	37.527
554.34	37.545
554.68	37.646
555.02	37.771
555.36	36.592
555.69	36.963
556.03	37.474
556.37	37.624
556.71	37.581
557.05	38.581
557.39	37.639
557.73	38.366
558.07	38.508
558.41	37.696
558.75	38.023
559.08	35.642
559.42	36.983
559.76	36.963
560.10	37.882
560.44	37.572
560.78	37.509
561.12	37.267
561.45	38.356
561.79	37.422
562.13	36.957
562.47	37.815
562.81	36.704
563.15	37.649
563.48	38.079
563.82	38.675
564.16	37.525
564.50	37.634
564.84	37.434
565.17	37.732
565.51	37.419
565.85	38.066
566.19	38.603
566.52	37.769
566.86	37.547
567.20	38.257
567.54	39.516
567.88	38.414
568.21	38.143
568.55	37.964
568.89	38.121
569.23	38.454
569.56	37.789
569.90	38.592
570.24	38.444
570.57	37.118
570.91	37.844
571.25	38.197
571.59	39.026
571.92	37.798
572.26	37.987
572.60	37.946
572.93	37.628
573.27	37.866
573.61	37.597
573.95	38.212
574.28	37.494
574.62	38.612
574.96	38.385
575.29	37.983
575.63	37.696
575.97	37.163
576.30	38.175
576.64	37.911
576.98	37.348
577.31	38.093
577.65	38.448
577.98	37.866
578.32	37.950
578.66	38.337
578.99	38.548
579.33	37.679
579.67	38.499
580.00	37.872
580.34	38.209
580.67	38.147
581.01	37.043
581.35	38.334
581.68	37.672
582.02	38.498
582.35	38.168
582.69	38.519
583.02	38.329
583.36	38.680
583.70	38.249
584.03	38.362
584.37	38.024
584.70	37.748
585.04	38.076
585.37	37.852
585.71	38.026
586.04	38.197
586.38	37.797
586.72	37.796
587.05	37.440
587.39	37.777
587.72	37.457
588.06	38.184
588.39	38.023
588.73	37.930
589.06	38.012
589.40	38.509
589.73	38.562
590.07	37.800
590.40	38.081
590.73	38.385
591.07	38.115
591.40	38.518
591.74	38.010
592.07	37.883
592.41	38.089
592.74	37.625
593.08	37.968
593.41	37.829
593.75	37.059
594.08	37.886
594.41	38.299
594.75	38.467
595.08	37.519
595.42	38.728
595.75	37.082
596.09	37.757
596.42	38.625
596.75	37.516
597.09	38.023
597.42	37.189
597.75	37.422
598.09	37.099
598.42	37.340
598.76	36.628
599.09	38.003
599.42	37.216
599.76	37.637
600.09	38.206
600.42	37.220
600.76	37.928
601.09	38.397
601.42	37.357
601.76	37.539
602.09	37.751
602.42	38.107
602.76	37.474
603.09	38.145
603.42	38.114
603.76	37.415
604.09	37.966
604.42	37.469
604.76	37.462
605.09	37.477
605.42	38.431
605.75	37.732
606.09	36.862
606.42	37.160
606.75	37.140
607.09	37.186
607.42	37.984
607.75	37.130
608.08	37.732
608.42	37.654
608.75	36.963
609.08	38.042
609.41	37.768
609.75	37.445
610.08	38.088
610.41	37.157
610.74	37.379
611.07	37.221
611.41	35.754
611.74	38.201
612.07	38.561
612.40	36.834
612.73	37.211
613.07	38.250
613.40	38.916
613.73	37.657
614.06	37.452
614.39	38.275
614.72	36.927
615.06	37.446
615.39	36.082
615.72	37.588
616.05	37.604
616.38	38.189
616.71	36.817
617.05	37.575
617.38	37.214
617.71	36.794
618.04	37.578
618.37	37.673
618.70	36.506
619.03	36.561
619.36	37.844
619.69	36.683
620.03	37.190
620.36	37.482
620.69	38.047
621.02	37.367
621.35	37.742
621.68	37.131
622.01	38.269
622.34	37.034
622.67	36.094
623.00	35.884
623.33	36.866
623.66	36.189
623.99	36.165
624.32	36.905
624.65	36.497
624.99	37.640
625.32	36.377
625.65	35.742
625.98	35.603
626.31	36.786
626.64	36.151
626.97	36.387
627.30	36.851
627.63	35.665
627.96	36.815
628.29	35.846
628.62	36.963
628.95	37.402
629.28	36.842
629.61	35.623
629.94	36.484
630.26	36.481
630.59	36.080
630.92	37.137
631.25	37.500
631.58	37.037
