SpectraSuite Data File
++++++++++++++++++++++++++++++++++++
Date: Sat May 16 11:32:53 PDT 2015
User: schluterlab
Dark Spectrum Present: Yes
Reference Spectrum Present: Yes
Number of Sampled Component Spectra: 1
Spectrometers: USB2E3373
Integration Time (usec): 3000 (USB2E3373)
Spectra Averaged: 3 (USB2E3373)
Boxcar Smoothing: 0 (USB2E3373)
Correct for Electrical Dark: No (USB2E3373)
Strobe/Lamp Enabled: No (USB2E3373)
Correct for Detector Non-linearity: No (USB2E3373)
Correct for Stray Light: No (USB2E3373)
Number of Pixels in Processed Spectrum: 2048
>>>>>Begin Processed Spectral Data<<<<<
178.53	0.000
178.91	80.000
179.29	500.000
179.67	-1300.000
180.04	-92.308
180.42	1000.000
180.80	475.000
181.18	425.000
181.56	-137.500
181.94	1100.000
182.31	225.000
182.69	-30.769
183.07	-700.000
183.45	1550.000
183.83	500.000
184.20	-300.000
184.58	-237.500
184.96	-175.000
185.34	131.250
185.72	-575.000
186.09	283.333
186.47	-187.500
186.85	-250.000
187.23	112.500
187.61	-350.000
187.98	-150.000
188.36	-112.500
188.74	-137.500
189.12	800.000
189.49	342.857
189.87	0.000
190.25	525.000
190.63	-50.000
191.00	-144.444
191.38	400.000
191.76	-20.000
192.14	620.000
192.51	-280.000
192.89	-300.000
193.27	0.000
193.65	-233.333
194.02	-257.143
194.40	533.333
194.78	-80.000
195.15	-500.000
195.53	-127.273
195.91	-466.667
196.29	160.000
196.66	-633.333
197.04	3000.000
197.42	-525.000
197.79	-20.000
198.17	-166.667
198.55	-700.000
198.92	-1200.000
199.30	225.000
199.68	-300.000
200.05	-144.444
200.43	-155.556
200.81	-1600.000
201.18	-50.000
201.56	142.857
201.94	-13.333
202.31	-27.273
202.69	-40.000
203.07	-170.000
203.44	700.000
203.82	-283.333
204.19	-450.000
204.57	-350.000
204.95	-300.000
205.32	-6.250
205.70	1200.000
206.08	-1100.000
206.45	-88.889
206.83	-1100.000
207.20	-50.000
207.58	-500.000
207.96	-1066.667
208.33	-237.500
208.71	-211.111
209.08	210.000
209.46	-142.857
209.84	750.000
210.21	0.000
210.59	15.000
210.96	1600.000
211.34	-333.333
211.71	-666.667
212.09	250.000
212.46	1150.000
212.84	-1400.000
213.22	866.667
213.59	166.667
213.97	0.000
214.34	120.000
214.72	-80.000
215.09	-233.333
215.47	-133.333
215.84	-220.000
216.22	-120.000
216.59	-33.333
216.97	-450.000
217.34	1100.000
217.72	-14.286
218.09	-233.333
218.47	-242.857
218.84	328.571
219.22	-71.429
219.59	0.000
219.97	342.857
220.34	475.000
220.72	175.000
221.09	15.385
221.47	0.000
221.84	333.333
222.22	-700.000
222.59	1100.000
222.97	-312.500
223.34	-50.000
223.72	-600.000
224.09	-92.857
224.46	-400.000
224.84	-35.714
225.21	-100.000
225.59	-63.636
225.96	-112.500
226.34	-257.143
226.71	-166.667
227.08	-30.000
227.46	2400.000
227.83	-85.714
228.21	-237.500
228.58	450.000
228.95	-62.500
229.33	-2000.000
229.70	-200.000
230.08	-850.000
230.45	25.000
230.82	-133.333
231.20	-700.000
231.57	-400.000
231.95	1800.000
232.32	4.762
232.69	-100.000
233.07	-100.000
233.44	-250.000
233.81	-100.000
234.19	-33.333
234.56	-62.500
234.93	-3.125
235.31	-128.571
235.68	-142.857
236.05	-70.588
236.43	-81.818
236.80	-3.226
237.17	41.667
237.55	-28.571
237.92	-31.818
238.29	-8.571
238.67	38.235
239.04	-2.778
239.41	25.806
239.79	-10.256
240.16	4.762
240.53	18.182
240.91	48.718
241.28	20.000
241.65	43.077
242.02	22.951
242.40	24.590
242.77	13.636
243.14	30.508
243.51	17.143
243.89	15.190
244.26	25.843
244.63	36.842
245.00	29.474
245.38	23.729
245.75	30.088
246.12	32.800
246.49	32.283
246.87	26.016
247.24	27.119
247.61	29.661
247.98	38.028
248.36	30.070
248.73	31.013
249.10	33.121
249.47	39.181
249.84	35.795
250.22	27.381
250.59	33.898
250.96	38.743
251.33	37.915
251.70	31.250
252.08	39.810
252.45	26.540
252.82	39.524
253.19	35.745
253.56	36.694
253.94	36.709
254.31	36.052
254.68	38.618
255.05	36.290
255.42	34.921
255.79	35.125
256.16	41.569
256.54	36.765
256.91	39.394
257.28	33.700
257.65	43.262
258.02	38.679
258.39	37.458
258.76	38.176
259.14	37.346
259.51	43.934
259.88	36.890
260.25	41.925
260.62	40.193
260.99	35.608
261.36	39.024
261.73	36.994
262.10	40.000
262.47	38.462
262.85	40.571
263.22	37.249
263.59	36.615
263.96	37.971
264.33	39.566
264.70	40.884
265.07	36.538
265.44	38.243
265.81	39.276
266.18	39.747
266.55	39.461
266.92	38.791
267.29	37.772
267.66	37.037
268.03	38.647
268.40	37.793
268.77	39.518
269.14	39.443
269.51	37.241
269.88	35.780
270.25	37.529
270.62	39.130
270.99	39.414
271.36	38.928
271.73	39.013
272.10	40.046
272.47	37.111
272.84	40.000
273.21	42.890
273.58	35.824
273.95	37.719
274.32	40.498
274.69	40.263
275.06	38.241
275.43	38.393
275.80	40.326
276.17	38.494
276.54	40.122
276.91	38.889
277.28	37.931
277.65	40.083
278.02	34.864
278.39	36.739
278.76	36.853
279.13	38.142
279.50	38.370
279.87	37.421
280.23	38.866
280.60	38.966
280.97	37.087
281.34	40.039
281.71	40.577
282.08	40.726
282.45	37.271
282.82	39.729
283.19	37.636
283.56	39.927
283.92	38.516
284.29	36.803
284.66	36.151
285.03	37.433
285.40	38.376
285.77	37.895
286.14	38.087
286.51	39.076
286.87	38.475
287.24	37.201
287.61	35.702
287.98	37.435
288.35	35.372
288.72	35.654
289.08	32.881
289.45	37.205
289.82	33.045
290.19	35.140
290.56	34.545
290.93	33.068
291.29	34.684
291.66	34.461
292.03	34.851
292.40	29.367
292.77	32.298
293.13	33.659
293.50	32.689
293.87	32.362
294.24	33.032
294.60	29.697
294.97	33.080
295.34	30.222
295.71	32.440
296.08	30.415
296.44	29.614
296.81	32.764
297.18	29.859
297.55	30.367
297.91	32.218
298.28	29.041
298.65	28.731
299.02	30.481
299.38	29.278
299.75	29.212
300.12	28.974
300.48	29.028
300.85	29.358
301.22	28.849
301.59	29.389
301.95	26.574
302.32	26.988
302.69	29.253
303.05	27.350
303.42	27.375
303.79	28.947
304.15	28.555
304.52	27.071
304.89	27.155
305.25	27.717
305.62	26.439
305.99	28.504
306.35	27.525
306.72	25.626
307.09	26.901
307.45	25.539
307.82	26.145
308.19	27.293
308.55	26.471
308.92	25.242
309.29	26.486
309.65	26.723
310.02	25.486
310.38	26.162
310.75	24.693
311.12	24.793
311.48	25.574
311.85	25.850
312.22	25.747
312.58	26.450
312.95	23.853
313.31	26.474
313.68	24.824
314.05	24.926
314.41	24.648
314.78	24.376
315.14	24.877
315.51	23.506
315.87	25.073
316.24	23.810
316.61	24.952
316.97	26.169
317.34	25.048
317.70	24.119
318.07	26.213
318.43	24.813
318.80	26.197
319.16	24.203
319.53	25.752
319.89	24.647
320.26	25.098
320.62	23.750
320.99	24.776
321.35	24.039
321.72	24.258
322.08	25.519
322.45	23.267
322.81	24.207
323.18	25.072
323.54	24.492
323.91	24.745
324.27	24.810
324.64	23.766
325.00	25.218
325.37	24.796
325.73	24.847
326.10	23.118
326.46	26.007
326.83	23.915
327.19	23.603
327.56	25.724
327.92	24.639
328.29	24.935
328.65	23.545
329.01	24.735
329.38	24.532
329.74	23.901
330.11	24.297
330.47	23.433
330.84	24.381
331.20	23.556
331.56	23.063
331.93	23.535
332.29	25.023
332.66	24.056
333.02	23.439
333.38	23.656
333.75	24.755
334.11	22.489
334.48	22.418
334.84	24.059
335.20	24.823
335.57	23.014
335.93	24.620
336.29	21.966
336.66	23.789
337.02	23.423
337.38	23.440
337.75	22.827
338.11	24.508
338.47	22.954
338.84	23.775
339.20	23.199
339.56	24.421
339.93	23.104
340.29	22.586
340.65	23.427
341.02	23.440
341.38	22.072
341.74	24.640
342.11	22.782
342.47	23.348
342.83	22.502
343.20	23.057
343.56	21.796
343.92	23.372
344.28	23.129
344.65	22.690
345.01	23.613
345.37	23.090
345.73	22.259
346.10	22.404
346.46	22.583
346.82	21.812
347.19	21.693
347.55	22.071
347.91	21.811
348.27	22.753
348.63	23.102
349.00	22.593
349.36	21.390
349.72	22.611
350.08	22.374
350.45	21.749
350.81	22.213
351.17	22.106
351.53	20.525
351.89	21.504
352.26	21.938
352.62	22.504
352.98	20.649
353.34	22.062
353.70	21.622
354.07	21.479
354.43	22.055
354.79	22.187
355.15	21.006
355.51	21.719
355.87	21.739
356.24	22.637
356.60	22.562
356.96	21.478
357.32	21.457
357.68	21.149
358.04	22.402
358.40	21.191
358.77	21.020
359.13	20.428
359.49	21.466
359.85	21.418
360.21	21.842
360.57	21.235
360.93	22.000
361.29	21.674
361.66	20.960
362.02	20.858
362.38	21.056
362.74	21.392
363.10	21.234
363.46	22.365
363.82	20.845
364.18	21.274
364.54	21.873
364.90	21.244
365.26	20.899
365.62	21.240
365.98	21.550
366.35	21.620
366.71	20.014
367.07	21.595
367.43	22.237
367.79	21.512
368.15	20.839
368.51	21.818
368.87	20.467
369.23	20.561
369.59	20.208
369.95	21.142
370.31	21.378
370.67	20.463
371.03	20.408
371.39	20.863
371.75	20.815
372.11	20.947
372.47	20.246
372.83	21.697
373.19	20.714
373.55	21.605
373.91	19.630
374.27	21.013
374.63	20.980
374.99	20.376
375.35	20.323
375.71	21.472
376.07	19.781
376.42	19.801
376.78	21.176
377.14	19.797
377.50	19.923
377.86	20.416
378.22	20.854
378.58	20.754
378.94	19.790
379.30	20.536
379.66	20.644
380.02	19.727
380.38	20.967
380.74	20.574
381.09	19.449
381.45	20.406
381.81	19.722
382.17	20.489
382.53	20.365
382.89	20.395
383.25	20.831
383.61	20.991
383.97	20.392
384.32	19.962
384.68	21.282
385.04	19.928
385.40	19.842
385.76	20.244
386.12	20.425
386.48	20.978
386.83	20.491
387.19	19.845
387.55	20.170
387.91	20.925
388.27	19.119
388.62	19.892
388.98	19.685
389.34	19.829
389.70	20.280
390.06	19.764
390.42	20.641
390.77	20.000
391.13	20.807
391.49	19.651
391.85	19.514
392.20	20.328
392.56	19.853
392.92	19.795
393.28	20.321
393.64	20.385
393.99	20.615
394.35	20.255
394.71	19.333
395.07	20.778
395.42	19.190
395.78	20.490
396.14	20.187
396.50	20.061
396.85	19.864
397.21	20.292
397.57	20.304
397.92	20.785
398.28	20.500
398.64	19.929
399.00	20.787
399.35	20.011
399.71	19.919
400.07	20.776
400.42	20.316
400.78	20.274
401.14	19.880
401.49	19.693
401.85	20.500
402.21	20.620
402.57	20.024
402.92	20.705
403.28	19.547
403.63	19.593
403.99	20.447
404.35	19.626
404.70	20.480
405.06	20.531
405.42	19.434
405.77	19.174
406.13	20.443
406.49	19.952
406.84	19.016
407.20	20.966
407.55	20.709
407.91	19.495
408.27	20.037
408.62	20.505
408.98	20.619
409.34	20.232
409.69	19.975
410.05	19.709
410.40	20.049
410.76	20.451
411.11	20.636
411.47	20.780
411.83	19.499
412.18	19.369
412.54	18.670
412.89	20.535
413.25	19.185
413.60	19.320
413.96	19.963
414.31	19.633
414.67	19.556
415.03	19.534
415.38	19.584
415.74	20.103
416.09	19.757
416.45	18.981
416.80	20.351
417.16	19.468
417.51	20.223
417.87	19.482
418.22	19.153
418.58	20.154
418.93	20.049
419.29	19.511
419.64	19.598
420.00	20.595
420.35	20.225
420.71	18.547
421.06	20.000
421.42	18.911
421.77	20.156
422.12	20.369
422.48	19.081
422.83	20.330
423.19	20.267
423.54	19.712
423.90	20.012
424.25	19.740
424.61	20.446
424.96	20.363
425.31	19.508
425.67	20.000
426.02	19.277
426.38	19.601
426.73	19.521
427.09	19.240
427.44	19.830
427.79	18.895
428.15	19.928
428.50	20.235
428.85	20.084
429.21	19.701
429.56	20.469
429.92	18.637
430.27	20.339
430.62	20.794
430.98	19.498
431.33	20.331
431.68	19.571
432.04	20.257
432.39	19.829
432.74	19.844
433.10	19.190
433.45	19.459
433.80	20.101
434.16	19.667
434.51	19.726
434.86	20.269
435.22	19.209
435.57	18.237
435.92	19.343
436.28	19.110
436.63	19.276
436.98	19.530
437.34	20.496
437.69	19.078
438.04	19.058
438.39	20.156
438.75	18.976
439.10	19.323
439.45	18.165
439.81	18.795
440.16	19.364
440.51	20.294
440.86	19.549
441.22	18.850
441.57	20.000
441.92	19.488
442.27	19.805
442.63	19.582
442.98	19.074
443.33	19.714
443.68	19.541
444.03	19.401
444.39	19.677
444.74	19.053
445.09	19.298
445.44	19.021
445.79	18.919
446.15	19.715
446.50	19.216
446.85	18.984
447.20	19.612
447.55	18.785
447.91	18.922
448.26	18.659
448.61	19.185
448.96	19.104
449.31	18.658
449.66	18.546
450.02	19.003
450.37	19.246
450.72	18.870
451.07	19.233
451.42	19.331
451.77	19.928
452.12	19.011
452.47	19.018
452.83	18.404
453.18	19.292
453.53	19.652
453.88	19.438
454.23	18.863
454.58	19.888
454.93	18.703
455.28	19.184
455.63	19.410
455.98	19.699
456.34	19.123
456.69	20.013
457.04	18.623
457.39	18.421
457.74	18.370
458.09	18.677
458.44	19.919
458.79	18.217
459.14	18.768
459.49	18.946
459.84	18.550
460.19	18.914
460.54	18.572
460.89	18.330
461.24	19.551
461.59	19.343
461.94	18.842
462.29	19.119
462.64	18.841
462.99	18.474
463.34	18.636
463.69	19.084
464.04	17.458
464.39	19.116
464.74	19.917
465.09	18.942
465.44	19.007
465.79	19.346
466.14	19.850
466.49	19.344
466.84	19.088
467.19	19.077
467.54	17.975
467.89	18.496
468.24	18.646
468.59	17.676
468.94	18.457
469.29	18.194
469.64	18.194
469.99	18.501
470.34	17.368
470.68	18.968
471.03	18.307
471.38	18.125
471.73	18.042
472.08	17.470
472.43	17.568
472.78	18.133
473.13	17.362
473.48	18.507
473.83	18.486
474.17	18.217
474.52	19.246
474.87	18.357
475.22	17.404
475.57	18.167
475.92	18.844
476.27	18.057
476.61	18.535
476.96	17.887
477.31	17.277
477.66	17.543
478.01	19.125
478.36	17.968
478.70	19.274
479.05	18.334
479.40	18.031
479.75	18.094
480.10	18.353
480.45	17.892
480.79	18.756
481.14	18.414
481.49	19.071
481.84	18.400
482.19	18.684
482.53	19.034
482.88	18.272
483.23	18.357
483.58	18.871
483.92	18.681
484.27	18.299
484.62	17.581
484.97	17.771
485.31	18.464
485.66	19.166
486.01	19.651
486.36	20.257
486.70	20.111
487.05	19.338
487.40	19.631
487.75	18.922
488.09	17.912
488.44	17.422
488.79	17.899
489.13	17.687
489.48	17.333
489.83	18.122
490.17	18.067
490.52	18.388
490.87	17.090
491.22	16.768
491.56	17.963
491.91	17.939
492.26	17.123
492.60	17.364
492.95	17.468
493.30	17.485
493.64	17.489
493.99	17.208
494.34	17.952
494.68	18.071
495.03	17.352
495.37	17.601
495.72	18.075
496.07	17.879
496.41	18.018
496.76	17.854
497.11	18.276
497.45	18.295
497.80	17.759
498.14	17.583
498.49	17.780
498.84	18.155
499.18	18.275
499.53	17.633
499.87	17.085
500.22	17.255
500.56	17.109
500.91	17.537
501.26	17.516
501.60	17.477
501.95	18.502
502.29	17.714
502.64	18.718
502.98	17.393
503.33	18.421
503.67	17.864
504.02	17.721
504.36	17.696
504.71	16.869
505.06	17.124
505.40	17.415
505.75	17.785
506.09	17.037
506.44	17.193
506.78	17.511
507.13	17.147
507.47	17.319
507.82	16.882
508.16	17.098
508.51	17.259
508.85	17.857
509.19	16.065
509.54	16.913
509.88	17.766
510.23	16.509
510.57	17.513
510.92	17.723
511.26	17.012
511.61	17.063
511.95	16.864
512.30	16.603
512.64	15.693
512.98	16.392
513.33	16.694
513.67	17.030
514.02	15.996
514.36	16.898
514.70	16.808
515.05	16.638
515.39	16.148
515.74	18.092
516.08	16.311
516.42	16.941
516.77	16.638
517.11	16.876
517.46	16.388
517.80	16.968
518.14	15.882
518.49	16.139
518.83	15.846
519.17	16.815
519.52	16.136
519.86	16.607
520.20	16.687
520.55	15.938
520.89	15.529
521.23	17.277
521.58	15.925
521.92	16.213
522.26	16.317
522.61	16.096
522.95	15.699
523.29	15.925
523.64	15.615
523.98	16.232
524.32	15.965
524.66	15.280
525.01	15.543
525.35	16.624
525.69	16.396
526.04	16.841
526.38	16.677
526.72	15.517
527.06	15.299
527.41	16.238
527.75	15.710
528.09	15.420
528.43	15.410
528.78	16.332
529.12	16.261
529.46	15.851
529.80	16.527
530.15	16.162
530.49	15.524
530.83	16.765
531.17	16.229
531.51	15.338
531.86	16.129
532.20	15.992
532.54	15.374
532.88	16.864
533.22	15.040
533.57	17.428
533.91	16.167
534.25	16.405
534.59	15.990
534.93	15.681
535.27	15.985
535.62	17.199
535.96	16.290
536.30	15.772
536.64	16.534
536.98	16.596
537.32	15.480
537.66	15.954
538.01	16.220
538.35	17.230
538.69	15.775
539.03	15.708
539.37	16.500
539.71	16.211
540.05	16.107
540.39	16.413
540.73	16.448
541.07	16.735
541.42	16.003
541.76	15.083
542.10	17.016
542.44	16.056
542.78	16.418
543.12	16.429
543.46	14.863
543.80	15.719
544.14	16.185
544.48	16.404
544.82	15.426
545.16	17.170
545.50	15.612
545.84	16.412
546.18	15.395
546.52	16.501
546.86	16.382
547.20	15.752
547.54	15.358
547.88	16.257
548.22	14.286
548.56	16.032
548.90	16.038
549.24	15.347
549.58	15.808
549.92	16.537
550.26	16.546
550.60	15.363
550.94	14.818
551.28	15.651
551.62	15.288
551.96	16.064
552.30	16.098
552.64	15.412
552.98	16.118
553.32	15.873
553.66	15.789
554.00	16.063
554.34	14.801
554.68	15.497
555.02	15.847
555.36	15.385
555.69	15.043
556.03	15.298
556.37	15.789
556.71	16.392
557.05	15.743
557.39	14.625
557.73	15.974
558.07	16.579
558.41	15.183
558.75	14.601
559.08	14.475
559.42	14.931
559.76	16.028
560.10	14.840
560.44	16.113
560.78	16.214
561.12	15.459
561.45	16.438
561.79	15.261
562.13	16.199
562.47	16.317
562.81	14.922
563.15	15.605
563.48	15.273
563.82	16.700
564.16	15.348
564.50	15.323
564.84	14.881
565.17	15.517
565.51	16.558
565.85	16.362
566.19	16.733
566.52	16.177
566.86	15.803
567.20	16.465
567.54	17.897
567.88	16.806
568.21	17.002
568.55	17.232
568.89	16.948
569.23	17.353
569.56	17.612
569.90	18.450
570.24	18.189
570.57	17.856
570.91	18.055
571.25	18.709
571.59	19.045
571.92	18.036
572.26	18.634
572.60	18.709
572.93	18.303
573.27	17.957
573.61	18.096
573.95	18.866
574.28	18.643
574.62	19.141
574.96	18.295
575.29	18.267
575.63	18.370
575.97	18.069
576.30	18.772
576.64	18.851
576.98	18.213
577.31	18.999
577.65	19.325
577.98	19.244
578.32	18.985
578.66	19.147
578.99	18.629
579.33	18.287
579.67	18.742
580.00	18.130
580.34	18.420
580.67	18.657
581.01	17.984
581.35	18.914
581.68	19.198
582.02	19.534
582.35	19.358
582.69	19.380
583.02	19.209
583.36	18.661
583.70	18.024
584.03	18.750
584.37	18.187
584.70	18.451
585.04	18.127
585.37	18.091
585.71	18.916
586.04	18.541
586.38	18.391
586.72	18.433
587.05	19.116
587.39	18.601
587.72	18.609
588.06	18.569
588.39	18.485
588.73	18.316
589.06	18.798
589.40	18.241
589.73	17.635
590.07	17.407
590.40	17.638
590.73	17.273
591.07	17.418
591.40	17.721
591.74	17.724
592.07	17.207
592.41	17.367
592.74	18.217
593.08	18.744
593.41	18.059
593.75	18.134
594.08	18.224
594.41	18.189
594.75	18.120
595.08	18.308
595.42	18.064
595.75	17.898
596.09	17.540
596.42	17.390
596.75	17.163
597.09	18.388
597.42	17.940
597.75	17.892
598.09	17.352
598.42	17.587
598.76	16.944
599.09	17.522
599.42	17.839
599.76	18.271
600.09	18.511
600.42	18.496
600.76	18.418
601.09	18.078
601.42	17.214
601.76	18.185
602.09	17.710
602.42	17.531
602.76	17.241
603.09	17.782
603.42	18.372
603.76	18.628
604.09	18.422
604.42	17.694
604.76	16.965
605.09	18.309
605.42	18.262
605.75	17.335
606.09	17.559
606.42	17.512
606.75	18.033
607.09	17.733
607.42	17.342
607.75	17.483
608.08	17.985
608.42	17.266
608.75	16.869
609.08	17.097
609.41	17.240
609.75	16.967
610.08	18.039
610.41	18.024
610.74	17.795
611.07	17.039
611.41	16.591
611.74	16.915
612.07	17.830
612.40	17.217
612.73	17.124
613.07	15.685
613.40	17.022
613.73	17.166
614.06	16.529
614.39	17.024
614.72	16.816
615.06	17.065
615.39	17.037
615.72	17.056
616.05	15.737
616.38	17.702
616.71	16.577
617.05	16.948
617.38	16.718
617.71	15.479
618.04	15.839
618.37	16.792
618.70	16.819
619.03	16.385
619.36	15.715
619.69	16.583
620.03	15.702
620.36	16.526
620.69	15.865
621.02	15.297
621.35	15.726
621.68	14.508
622.01	14.968
622.34	15.217
622.67	14.375
623.00	15.914
623.33	16.493
623.66	15.657
623.99	15.489
624.32	15.327
624.65	15.820
624.99	15.161
625.32	16.093
625.65	15.929
625.98	15.102
626.31	15.987
626.64	14.895
626.97	15.325
627.30	14.809
627.63	12.608
627.96	14.273
628.29	13.511
628.62	13.658
628.95	15.157
629.28	14.380
629.61	14.524
629.94	15.312
630.26	15.507
630.59	14.774
630.92	13.413
631.25	12.903
631.58	14.709
