SpectraSuite Data File
++++++++++++++++++++++++++++++++++++
Date: Sat May 16 11:34:28 PDT 2015
User: schluterlab
Dark Spectrum Present: Yes
Reference Spectrum Present: Yes
Number of Sampled Component Spectra: 1
Spectrometers: USB2E3373
Integration Time (usec): 3000 (USB2E3373)
Spectra Averaged: 3 (USB2E3373)
Boxcar Smoothing: 0 (USB2E3373)
Correct for Electrical Dark: No (USB2E3373)
Strobe/Lamp Enabled: No (USB2E3373)
Correct for Detector Non-linearity: No (USB2E3373)
Correct for Stray Light: No (USB2E3373)
Number of Pixels in Processed Spectrum: 2048
>>>>>Begin Processed Spectral Data<<<<<
178.53	0.000
178.91	140.000
179.29	633.333
179.67	-1800.000
180.04	-100.000
180.42	300.000
180.80	300.000
181.18	275.000
181.56	-50.000
181.94	1400.000
182.31	50.000
182.69	-84.615
183.07	-400.000
183.45	1550.000
183.83	533.333
184.20	-271.429
184.58	-137.500
184.96	-375.000
185.34	125.000
185.72	-450.000
186.09	350.000
186.47	-187.500
186.85	-87.500
187.23	-162.500
187.61	-200.000
187.98	-250.000
188.36	-300.000
188.74	-150.000
189.12	700.000
189.49	300.000
189.87	-83.333
190.25	375.000
190.63	-100.000
191.00	-144.444
191.38	640.000
191.76	40.000
192.14	660.000
192.51	-100.000
192.89	-500.000
193.27	0.000
193.65	-155.556
194.02	-257.143
194.40	433.333
194.78	-70.000
195.15	-500.000
195.53	-81.818
195.91	-483.333
196.29	160.000
196.66	-400.000
197.04	2800.000
197.42	-400.000
197.79	-13.333
198.17	-333.333
198.55	-450.000
198.92	-1800.000
199.30	125.000
199.68	-850.000
200.05	-33.333
200.43	-277.778
200.81	-1100.000
201.18	-66.667
201.56	128.571
201.94	-66.667
202.31	13.636
202.69	-40.000
203.07	-110.000
203.44	766.667
203.82	-350.000
204.19	-325.000
204.57	-425.000
204.95	-1000.000
205.32	-37.500
205.70	1900.000
206.08	-1200.000
206.45	-55.556
206.83	-850.000
207.20	50.000
207.58	-700.000
207.96	-500.000
208.33	-175.000
208.71	-122.222
209.08	180.000
209.46	-228.571
209.84	700.000
210.21	0.000
210.59	-10.000
210.96	1300.000
211.34	-350.000
211.71	-300.000
212.09	475.000
212.46	600.000
212.84	-2000.000
213.22	600.000
213.59	158.333
213.97	-33.333
214.34	170.000
214.72	-90.000
215.09	-500.000
215.47	-266.667
215.84	-110.000
216.22	-140.000
216.59	-53.333
216.97	-500.000
217.34	1100.000
217.72	-271.429
218.09	-233.333
218.47	-242.857
218.84	200.000
219.22	-85.714
219.59	0.000
219.97	142.857
220.34	500.000
220.72	137.500
221.09	-153.846
221.47	0.000
221.84	666.667
222.22	-700.000
222.59	900.000
222.97	-150.000
223.34	-400.000
223.72	-566.667
224.09	-114.286
224.46	-425.000
224.84	-64.286
225.21	-185.714
225.59	-154.545
225.96	-87.500
226.34	-185.714
226.71	-133.333
227.08	-20.000
227.46	1700.000
227.83	-185.714
228.21	-137.500
228.58	250.000
228.95	-25.000
229.33	-2500.000
229.70	-320.000
230.08	-900.000
230.45	0.000
230.82	-200.000
231.20	-1400.000
231.57	-750.000
231.95	1700.000
232.32	-23.810
232.69	-122.222
233.07	-185.714
233.44	-850.000
233.81	-80.000
234.19	-111.111
234.56	-106.250
234.93	6.250
235.31	-328.571
235.68	-128.571
236.05	-76.471
236.43	-86.364
236.80	-6.452
237.17	-41.667
237.55	-85.714
237.92	-104.545
238.29	-11.429
238.67	-20.588
239.04	-8.333
239.41	-93.548
239.79	-56.410
240.16	-38.095
240.53	-30.909
240.91	-51.282
241.28	-10.909
241.65	-6.154
242.02	-13.115
242.40	-26.230
242.77	-7.576
243.14	-20.339
243.51	-35.714
243.89	-25.316
244.26	-12.360
244.63	-2.105
245.00	-4.211
245.38	-4.237
245.75	-12.389
246.12	-4.800
246.49	-7.874
246.87	-8.130
247.24	-9.322
247.61	-15.254
247.98	-14.789
248.36	-12.587
248.73	-6.329
249.10	-15.924
249.47	-9.357
249.84	-3.977
250.22	-10.119
250.59	-6.780
250.96	-9.424
251.33	2.844
251.70	-4.808
252.08	-5.687
252.45	-2.370
252.82	-10.000
253.19	-2.979
253.56	-6.452
253.94	-3.797
254.31	-5.150
254.68	-2.846
255.05	-7.258
255.42	-2.778
255.79	-5.018
256.16	-1.961
256.54	-3.676
256.91	-7.576
257.28	-4.762
257.65	-6.028
258.02	3.145
258.39	1.003
258.76	-3.716
259.14	-5.556
259.51	-5.902
259.88	-1.829
260.25	1.553
260.62	-2.251
260.99	-3.858
261.36	0.610
261.73	-2.601
262.10	0.000
262.47	-2.849
262.85	2.571
263.22	-4.585
263.59	-3.077
263.96	-1.739
264.33	-2.439
264.70	-1.934
265.07	-5.495
265.44	-2.326
265.81	-3.876
266.18	-2.278
266.55	-1.225
266.92	-2.015
267.29	-3.148
267.66	-2.963
268.03	0.000
268.40	0.704
268.77	-2.410
269.14	-2.088
269.51	-0.230
269.88	-4.128
270.25	-5.128
270.62	-3.661
270.99	-4.505
271.36	-2.098
271.73	-2.018
272.10	-2.059
272.47	-1.556
272.84	1.556
273.21	-1.147
273.58	1.099
273.95	-2.412
274.32	-2.941
274.69	-0.219
275.06	-0.613
275.43	-4.464
275.80	-0.815
276.17	-0.837
276.54	0.204
276.91	-2.675
277.28	-0.203
277.65	-0.207
278.02	0.209
278.39	-0.786
278.76	-0.598
279.13	0.198
279.50	-0.795
279.87	-2.960
280.23	-1.417
280.60	-0.994
280.97	-2.330
281.34	-1.934
281.71	0.385
282.08	1.008
282.45	-3.870
282.82	-2.326
283.19	-0.364
283.56	0.549
283.92	-1.060
284.29	-3.717
284.66	0.899
285.03	0.891
285.40	-1.107
285.77	0.175
286.14	-1.083
286.51	-2.664
286.87	-1.089
287.24	1.195
287.61	0.165
287.98	-1.213
288.35	-1.983
288.72	-0.679
289.08	-1.356
289.45	-0.673
289.82	-1.557
290.19	-0.328
290.56	-0.661
290.93	-0.318
291.29	-2.269
291.66	-0.161
292.03	1.884
292.40	-0.301
292.77	-1.242
293.13	0.325
293.50	1.189
293.87	0.153
294.24	0.302
294.60	-1.818
294.97	-0.152
295.34	-1.630
295.71	0.000
296.08	-3.226
296.44	-2.146
296.81	1.709
297.18	-0.986
297.55	-0.282
297.91	1.255
298.28	-0.959
298.65	-0.976
299.02	0.936
299.38	0.401
299.75	-0.272
300.12	0.256
300.48	0.384
300.85	-0.524
301.22	-0.259
301.59	1.040
301.95	2.393
302.32	-0.522
302.69	0.857
303.05	-0.611
303.42	-1.375
303.79	1.196
304.15	0.948
304.52	0.817
304.89	1.535
305.25	0.122
305.62	0.118
305.99	2.002
306.35	1.776
306.72	0.911
307.09	1.703
307.45	1.135
307.82	0.782
308.19	1.119
308.55	1.307
308.92	-0.967
309.29	0.649
309.65	1.166
310.02	1.296
310.38	0.216
310.75	1.947
311.12	1.343
311.48	1.253
311.85	1.133
312.22	1.545
312.58	2.645
312.95	1.529
313.31	1.099
313.68	1.910
314.05	2.572
314.41	0.805
314.78	1.598
315.14	3.258
315.51	0.912
315.87	3.679
316.24	1.749
316.61	2.879
316.97	3.085
317.34	1.927
317.70	2.226
318.07	2.612
318.43	2.715
318.80	3.568
319.16	2.533
319.53	2.350
319.89	1.693
320.26	3.039
320.62	2.115
320.99	2.886
321.35	1.182
321.72	1.740
322.08	1.879
322.45	1.782
322.81	4.515
323.18	2.882
323.54	4.621
323.91	4.263
324.27	3.232
324.64	3.199
325.00	4.363
325.37	3.439
325.73	5.687
326.10	3.632
326.46	3.152
326.83	4.851
327.19	4.587
327.56	5.111
327.92	4.843
328.29	4.416
328.65	3.727
329.01	5.742
329.38	4.996
329.74	5.861
330.11	5.440
330.47	5.177
330.84	6.508
331.20	4.332
331.56	4.740
331.93	5.417
332.29	5.297
332.66	5.531
333.02	4.525
333.38	5.018
333.75	6.322
334.11	5.956
334.48	5.296
334.84	5.949
335.20	5.408
335.57	6.137
335.93	6.983
336.29	6.820
336.66	5.727
337.02	7.117
337.38	5.704
337.75	6.058
338.11	5.635
338.47	6.495
338.84	6.080
339.20	5.624
339.56	7.308
339.93	5.644
340.29	5.403
340.65	5.944
341.02	7.757
341.38	5.729
341.74	6.097
342.11	6.655
342.47	6.438
342.83	6.633
343.20	7.003
343.56	5.633
343.92	6.845
344.28	7.906
344.65	6.023
345.01	5.714
345.37	7.641
345.73	6.956
346.10	5.478
346.46	6.093
346.82	6.977
347.19	6.574
347.55	5.859
347.91	7.008
348.27	5.012
348.63	7.431
349.00	6.762
349.36	6.011
349.72	7.484
350.08	7.298
350.45	6.304
350.81	6.529
351.17	5.064
351.53	6.126
351.89	6.548
352.26	5.891
352.62	7.757
352.98	7.832
353.34	6.635
353.70	5.714
354.07	8.812
354.43	6.482
354.79	6.339
355.15	5.990
355.51	6.016
355.87	6.561
356.24	6.672
356.60	7.655
356.96	7.621
357.32	6.334
357.68	6.360
358.04	7.544
358.40	7.115
358.77	6.491
359.13	7.039
359.49	7.181
359.85	7.622
360.21	7.382
360.57	7.380
360.93	7.259
361.29	6.876
361.66	6.250
362.02	6.731
362.38	6.530
362.74	7.546
363.10	6.098
363.46	7.835
363.82	7.653
364.18	7.091
364.54	8.578
364.90	7.687
365.26	7.347
365.62	8.197
365.98	8.037
366.35	7.887
366.71	7.118
367.07	8.116
367.43	8.373
367.79	7.079
368.15	7.112
368.51	7.762
368.87	8.173
369.23	8.702
369.59	7.639
369.95	7.822
370.31	8.368
370.67	7.158
371.03	7.507
371.39	7.072
371.75	8.369
372.11	7.317
372.47	7.448
372.83	8.901
373.19	7.786
373.55	8.726
373.91	8.179
374.27	7.529
374.63	8.213
374.99	8.693
375.35	7.672
375.71	9.318
376.07	8.077
376.42	7.086
376.78	8.301
377.14	8.203
377.50	8.769
377.86	9.103
378.22	8.606
378.58	8.400
378.94	8.200
379.30	8.653
379.66	8.682
380.02	9.210
380.38	8.399
380.74	8.499
381.09	9.080
381.45	8.711
381.81	8.409
382.17	9.023
382.53	8.389
382.89	9.629
383.25	9.392
383.61	9.552
383.97	9.063
384.32	8.698
384.68	9.311
385.04	8.998
385.40	9.069
385.76	9.512
386.12	8.745
386.48	10.458
386.83	8.896
387.19	9.205
387.55	9.328
387.91	8.951
388.27	8.745
388.62	9.195
388.98	9.449
389.34	9.241
389.70	9.196
390.06	9.758
390.42	9.872
390.77	9.464
391.13	10.311
391.49	10.044
391.85	8.978
392.20	9.587
392.56	8.735
392.92	9.926
393.28	10.103
393.64	9.561
393.99	9.600
394.35	10.280
394.71	9.327
395.07	10.169
395.42	9.118
395.78	9.679
396.14	10.218
396.50	9.052
396.85	10.487
397.21	9.842
397.57	9.301
397.92	9.953
398.28	10.222
398.64	9.875
399.00	10.787
399.35	9.865
399.71	10.279
400.07	9.134
400.42	10.036
400.78	9.422
401.14	8.862
401.49	9.021
401.85	9.823
402.21	10.250
402.57	10.133
402.92	10.006
403.28	10.662
403.63	9.886
403.99	10.068
404.35	10.085
404.70	11.469
405.06	10.265
405.42	9.225
405.77	10.011
406.13	10.335
406.49	10.425
406.84	9.538
407.20	10.306
407.55	9.246
407.91	9.715
408.27	10.907
408.62	10.643
408.98	9.763
409.34	10.786
409.69	10.838
410.05	9.945
410.40	10.362
410.76	10.314
411.11	10.723
411.47	9.847
411.83	10.147
412.18	10.644
412.54	10.555
412.89	9.964
413.25	9.563
413.60	9.478
413.96	9.057
414.31	10.581
414.67	9.778
415.03	11.125
415.38	10.735
415.74	10.825
416.09	10.678
416.45	9.656
416.80	10.013
417.16	10.831
417.51	11.031
417.87	10.291
418.22	10.936
418.58	10.205
418.93	11.649
419.29	10.790
419.64	9.611
420.00	11.786
420.35	10.467
420.71	10.324
421.06	10.947
421.42	10.714
421.77	10.609
422.12	11.080
422.48	11.064
422.83	11.446
423.19	10.857
423.54	10.778
423.90	10.700
424.25	10.351
424.61	11.339
424.96	11.352
425.31	10.676
425.67	10.888
426.02	10.442
426.38	11.313
426.73	11.514
427.09	11.397
427.44	12.330
427.79	11.512
428.15	12.208
428.50	12.434
428.85	11.930
429.21	11.566
429.56	11.771
429.92	12.024
430.27	11.416
430.62	11.964
430.98	11.030
431.33	11.633
431.68	12.332
432.04	11.696
432.39	12.023
432.74	11.571
433.10	11.536
433.45	11.572
433.80	12.318
434.16	11.875
434.51	11.781
434.86	12.302
435.22	11.748
435.57	12.179
435.92	12.427
436.28	12.404
436.63	11.249
436.98	11.512
437.34	13.054
437.69	11.494
438.04	12.082
438.39	12.816
438.75	12.340
439.10	12.604
439.45	12.130
439.81	11.867
440.16	12.777
440.51	13.059
440.86	12.493
441.22	12.051
441.57	11.947
441.92	12.430
442.27	12.121
442.63	13.305
442.98	11.738
443.33	12.411
443.68	12.298
444.03	12.967
444.39	12.677
444.74	13.271
445.09	12.500
445.44	12.887
445.79	12.239
446.15	13.253
446.50	11.377
446.85	13.443
447.20	12.768
447.55	12.541
447.91	13.644
448.26	12.961
448.61	13.016
448.96	13.053
449.31	13.021
449.66	13.738
450.02	12.188
450.37	12.812
450.72	12.825
451.07	13.451
451.42	12.763
451.77	12.867
452.12	12.634
452.47	13.161
452.83	12.988
453.18	13.978
453.53	13.868
453.88	13.098
454.23	12.817
454.58	13.984
454.93	13.980
455.28	12.938
455.63	13.882
455.98	13.976
456.34	13.278
456.69	13.634
457.04	13.583
457.39	12.679
457.74	13.054
458.09	13.573
458.44	14.607
458.79	13.173
459.14	14.718
459.49	13.321
459.84	13.997
460.19	13.186
460.54	13.491
460.89	13.117
461.24	14.693
461.59	14.478
461.94	14.131
462.29	14.711
462.64	13.834
462.99	15.663
463.34	14.652
463.69	13.931
464.04	13.240
464.39	12.963
464.74	13.830
465.09	12.628
465.44	14.608
465.79	14.495
466.14	14.902
466.49	13.932
466.84	14.826
467.19	14.776
467.54	14.241
467.89	15.351
468.24	14.846
468.59	13.866
468.94	14.405
469.29	14.035
469.64	14.892
469.99	15.327
470.34	14.162
470.68	15.189
471.03	15.348
471.38	14.375
471.73	13.846
472.08	14.793
472.43	15.380
472.78	15.133
473.13	13.188
473.48	14.678
473.83	14.392
474.17	14.713
474.52	16.049
474.87	14.918
475.22	14.041
475.57	14.667
475.92	14.525
476.27	14.686
476.61	14.423
476.96	14.310
477.31	15.070
477.66	15.661
478.01	15.451
478.36	15.610
478.70	14.789
479.05	15.468
479.40	15.233
479.75	15.189
480.10	14.980
480.45	14.749
480.79	15.350
481.14	15.404
481.49	15.247
481.84	15.118
482.19	14.984
482.53	15.767
482.88	14.855
483.23	14.977
483.58	15.495
483.92	15.194
484.27	14.843
484.62	15.421
484.97	14.926
485.31	13.856
485.66	14.374
486.01	14.228
486.36	15.518
486.70	16.044
487.05	15.690
487.40	15.625
487.75	15.357
488.09	14.917
488.44	16.069
488.79	16.625
489.13	15.785
489.48	16.191
489.83	15.633
490.17	15.716
490.52	15.534
490.87	14.965
491.22	15.273
491.56	16.019
491.91	16.078
492.26	15.472
492.60	15.557
492.95	15.850
493.30	16.151
493.64	15.374
493.99	15.488
494.34	16.048
494.68	16.479
495.03	15.918
495.37	15.143
495.72	15.766
496.07	15.814
496.41	16.165
496.76	16.256
497.11	15.685
497.45	16.236
497.80	15.758
498.14	16.012
498.49	15.771
498.84	15.534
499.18	16.423
499.53	16.171
499.87	15.492
500.22	16.275
500.56	15.658
500.91	15.567
501.26	16.351
501.60	15.648
501.95	15.894
502.29	16.675
502.64	16.596
502.98	15.093
503.33	16.165
503.67	15.900
504.02	15.693
504.36	15.980
504.71	15.299
505.06	16.076
505.40	16.717
505.75	16.463
506.09	16.936
506.44	16.792
506.78	16.859
507.13	16.478
507.47	16.849
507.82	16.211
508.16	16.477
508.51	16.795
508.85	16.563
509.19	16.693
509.54	16.808
509.88	17.340
510.23	16.929
510.57	17.037
510.92	16.864
511.26	16.481
511.61	17.171
511.95	17.187
512.30	16.877
512.64	16.639
512.98	17.877
513.33	17.628
513.67	16.974
514.02	16.443
514.36	17.729
514.70	17.374
515.05	18.125
515.39	17.589
515.74	17.917
516.08	17.118
516.42	17.224
516.77	18.198
517.11	18.249
517.46	18.600
517.80	17.629
518.14	17.754
518.49	17.573
518.83	16.499
519.17	18.058
519.52	17.929
519.86	19.116
520.20	18.949
520.55	17.908
520.89	16.844
521.23	17.949
521.58	18.433
521.92	18.113
522.26	18.286
522.61	18.251
522.95	18.507
523.29	17.994
523.64	18.364
523.98	18.714
524.32	19.547
524.66	18.509
525.01	18.882
525.35	18.363
525.69	18.412
526.04	19.125
526.38	18.842
526.72	19.285
527.06	19.141
527.41	18.350
527.75	17.690
528.09	18.398
528.43	19.148
528.78	19.284
529.12	19.398
529.46	19.330
529.80	18.399
530.15	18.867
530.49	19.211
530.83	19.384
531.17	18.316
531.51	18.754
531.86	19.750
532.20	19.163
532.54	19.385
532.88	18.314
533.22	18.449
533.57	19.256
533.91	18.539
534.25	19.296
534.59	18.114
534.93	18.979
535.27	19.257
535.62	19.501
535.96	18.875
536.30	19.372
536.64	19.721
536.98	20.198
537.32	18.314
537.66	18.466
538.01	19.313
538.35	19.257
538.69	18.650
539.03	19.296
539.37	18.762
539.71	19.146
540.05	18.300
540.39	19.668
540.73	19.005
541.07	19.604
541.42	18.096
541.76	17.608
542.10	19.581
542.44	19.920
542.78	19.946
543.12	19.212
543.46	17.877
543.80	18.930
544.14	17.663
544.48	19.226
544.82	18.945
545.16	19.115
545.50	18.170
545.84	18.985
546.18	19.140
546.52	18.990
546.86	19.729
547.20	18.917
547.54	18.457
547.88	19.177
548.22	18.021
548.56	17.969
548.90	19.542
549.24	18.220
549.58	19.195
549.92	19.011
550.26	18.786
550.60	18.279
550.94	18.978
551.28	18.736
551.62	19.350
551.96	19.465
552.30	18.606
552.64	18.860
552.98	19.832
553.32	17.749
553.66	19.250
554.00	18.550
554.34	18.195
554.68	18.860
555.02	18.452
555.36	18.404
555.69	17.622
556.03	18.526
556.37	18.563
556.71	19.470
557.05	18.551
557.39	17.669
557.73	19.475
558.07	19.668
558.41	18.773
558.75	19.392
559.08	17.198
559.42	19.296
559.76	18.175
560.10	18.941
560.44	19.509
560.78	18.024
561.12	18.772
561.45	18.904
561.79	18.188
562.13	17.602
562.47	17.857
562.81	18.529
563.15	17.425
563.48	18.867
563.82	18.120
564.16	17.715
564.50	17.944
564.84	18.452
565.17	18.634
565.51	18.383
565.85	18.256
566.19	17.655
566.52	17.678
566.86	18.458
567.20	18.947
567.54	18.606
567.88	18.425
568.21	18.177
568.55	17.497
568.89	16.799
569.23	17.677
569.56	17.402
569.90	16.876
570.24	16.761
570.57	16.696
570.91	16.729
571.25	17.348
571.59	16.328
571.92	16.339
572.26	16.926
572.60	17.437
572.93	16.940
573.27	16.829
573.61	16.289
573.95	16.817
574.28	16.727
574.62	16.828
574.96	16.874
575.29	16.032
575.63	16.671
575.97	16.667
576.30	16.717
576.64	16.710
576.98	16.671
577.31	16.901
577.65	16.439
577.98	16.463
578.32	16.144
578.66	16.228
578.99	16.456
579.33	16.679
579.67	16.282
580.00	16.518
580.34	16.610
580.67	16.573
581.01	16.453
581.35	16.642
581.68	16.221
582.02	15.972
582.35	15.996
582.69	16.623
583.02	16.379
583.36	16.754
583.70	16.718
584.03	16.945
584.37	16.671
584.70	16.204
585.04	16.759
585.37	15.632
585.71	16.473
586.04	16.464
586.38	16.600
586.72	16.826
587.05	16.313
587.39	16.553
587.72	16.777
588.06	16.341
588.39	16.890
588.73	16.777
589.06	17.327
589.40	16.970
589.73	17.174
590.07	16.315
590.40	17.159
590.73	16.953
591.07	16.803
591.40	16.854
591.74	16.811
592.07	16.441
592.41	16.645
592.74	16.987
593.08	16.752
593.41	16.283
593.75	15.496
594.08	16.643
594.41	16.673
594.75	16.648
595.08	16.316
595.42	16.727
595.75	16.171
596.09	16.997
596.42	16.858
596.75	17.163
597.09	17.142
597.42	16.412
597.75	16.962
598.09	16.765
598.42	17.013
598.76	16.653
599.09	16.338
599.42	16.186
599.76	16.119
600.09	16.679
600.42	16.407
600.76	16.384
601.09	16.901
601.42	16.066
601.76	16.783
602.09	16.319
602.42	16.667
602.76	16.327
603.09	16.774
603.42	17.365
603.76	16.873
604.09	16.980
604.42	16.445
604.76	16.965
605.09	16.817
605.42	17.110
605.75	16.171
606.09	16.355
606.42	16.380
606.75	16.660
607.09	16.365
607.42	16.637
607.75	17.263
608.08	17.262
608.42	16.840
608.75	16.402
609.08	16.902
609.41	16.343
609.75	16.480
610.08	16.667
610.41	16.723
610.74	17.070
611.07	17.241
611.41	16.339
611.74	17.841
612.07	17.025
612.40	16.151
612.73	17.071
613.07	16.070
613.40	17.460
613.73	17.166
614.06	16.749
614.39	16.516
614.72	15.866
615.06	16.522
615.39	16.332
615.72	16.839
616.05	16.676
616.38	17.760
616.71	16.637
617.05	18.154
617.38	17.523
617.71	16.953
618.04	17.019
618.37	17.736
618.70	18.253
619.03	17.332
619.36	17.900
619.69	17.803
620.03	16.598
620.36	17.089
620.69	17.947
621.02	18.037
621.35	17.661
621.68	16.557
622.01	18.447
622.34	17.780
622.67	16.953
623.00	17.904
623.33	18.060
623.66	15.657
623.99	16.917
624.32	16.295
624.65	16.998
624.99	17.924
625.32	17.814
625.65	17.949
625.98	17.606
626.31	17.945
626.64	16.987
626.97	17.466
627.30	16.851
627.63	17.789
627.96	17.755
628.29	17.279
628.62	18.052
628.95	17.126
629.28	18.045
629.61	17.174
629.94	18.526
630.26	17.197
630.59	17.387
630.92	17.918
631.25	18.952
631.58	16.825
631.91	17.021
632.24	17.889
632.57	17.778
632.90	17.356
633.23	16.355
633.56	17.661
633.89	18.986
634.22	18.300
634.55	18.870
634.88	17.533
635.20	17.978
635.53	17.812
635.86	16.877
636.19	17.705
636.52	17.921
636.85	16.727
637.18	18.125
637.51	19.455
637.83	16.112
