SpectraSuite Data File
++++++++++++++++++++++++++++++++++++
Date: Sat May 16 11:26:53 PDT 2015
User: schluterlab
Dark Spectrum Present: Yes
Reference Spectrum Present: Yes
Number of Sampled Component Spectra: 1
Spectrometers: USB2E3373
Integration Time (usec): 3000 (USB2E3373)
Spectra Averaged: 3 (USB2E3373)
Boxcar Smoothing: 0 (USB2E3373)
Correct for Electrical Dark: No (USB2E3373)
Strobe/Lamp Enabled: No (USB2E3373)
Correct for Detector Non-linearity: No (USB2E3373)
Correct for Stray Light: No (USB2E3373)
Number of Pixels in Processed Spectrum: 2048
>>>>>Begin Processed Spectral Data<<<<<
178.53	0.000
178.91	120.000
179.29	633.333
179.67	-1600.000
180.04	-61.538
180.42	400.000
180.80	425.000
181.18	375.000
181.56	-37.500
181.94	1200.000
182.31	300.000
182.69	-61.538
183.07	-600.000
183.45	1900.000
183.83	300.000
184.20	-200.000
184.58	-150.000
184.96	-450.000
185.34	137.500
185.72	-325.000
186.09	433.333
186.47	-237.500
186.85	-100.000
187.23	-50.000
187.61	-250.000
187.98	-300.000
188.36	-75.000
188.74	-112.500
189.12	100.000
189.49	257.143
189.87	8.333
190.25	375.000
190.63	-107.143
191.00	-188.889
191.38	340.000
191.76	13.333
192.14	500.000
192.51	-80.000
192.89	-500.000
193.27	0.000
193.65	-111.111
194.02	-328.571
194.40	600.000
194.78	-140.000
195.15	-1600.000
195.53	-100.000
195.91	-500.000
196.29	320.000
196.66	-800.000
197.04	2100.000
197.42	-300.000
197.79	6.667
198.17	-433.333
198.55	-650.000
198.92	-2000.000
199.30	75.000
199.68	-750.000
200.05	-44.444
200.43	-255.556
200.81	-1000.000
201.18	-91.667
201.56	271.429
201.94	-86.667
202.31	-9.091
202.69	-60.000
203.07	-80.000
203.44	533.333
203.82	-116.667
204.19	-450.000
204.57	-350.000
204.95	-1400.000
205.32	12.500
205.70	600.000
206.08	-2400.000
206.45	-38.889
206.83	-800.000
207.20	50.000
207.58	-833.333
207.96	-366.667
208.33	-37.500
208.71	-66.667
209.08	210.000
209.46	-128.571
209.84	400.000
210.21	0.000
210.59	25.000
210.96	1700.000
211.34	-216.667
211.71	-233.333
212.09	275.000
212.46	850.000
212.84	-1700.000
213.22	533.333
213.59	108.333
213.97	-88.889
214.34	100.000
214.72	-130.000
215.09	-233.333
215.47	-116.667
215.84	-100.000
216.22	-70.000
216.59	26.667
216.97	-500.000
217.34	550.000
217.72	-128.571
218.09	-300.000
218.47	-342.857
218.84	171.429
219.22	14.286
219.59	0.000
219.97	214.286
220.34	200.000
220.72	137.500
221.09	-92.308
221.47	0.000
221.84	266.667
222.22	-650.000
222.59	500.000
222.97	-125.000
223.34	-750.000
223.72	-566.667
224.09	-28.571
224.46	-275.000
224.84	-42.857
225.21	-271.429
225.59	-36.364
225.96	-212.500
226.34	-100.000
226.71	-111.111
227.08	-25.000
227.46	1200.000
227.83	-185.714
228.21	-262.500
228.58	900.000
228.95	31.250
229.33	-2400.000
229.70	-120.000
230.08	-1050.000
230.45	-41.667
230.82	-150.000
231.20	-600.000
231.57	-200.000
231.95	800.000
232.32	33.333
232.69	-166.667
233.07	-100.000
233.44	-600.000
233.81	-26.667
234.19	-11.111
234.56	-12.500
234.93	18.750
235.31	-285.714
235.68	-135.714
236.05	-11.765
236.43	9.091
236.80	32.258
237.17	-29.167
237.55	14.286
237.92	-36.364
238.29	11.429
238.67	35.294
239.04	47.222
239.41	9.677
239.79	0.000
240.16	4.762
240.53	7.273
240.91	46.154
241.28	16.364
241.65	29.231
242.02	36.066
242.40	26.230
242.77	18.182
243.14	35.593
243.51	5.714
243.89	27.848
244.26	24.719
244.63	38.947
245.00	28.421
245.38	39.831
245.75	44.248
246.12	37.600
246.49	33.071
246.87	29.268
247.24	22.881
247.61	26.271
247.98	28.873
248.36	28.671
248.73	38.608
249.10	35.032
249.47	38.596
249.84	36.932
250.22	24.405
250.59	35.593
250.96	36.126
251.33	36.967
251.70	39.423
252.08	39.810
252.45	31.754
252.82	30.952
253.19	35.319
253.56	39.113
253.94	33.333
254.31	40.773
254.68	35.772
255.05	33.871
255.42	37.698
255.79	36.201
256.16	42.353
256.54	42.279
256.91	33.333
257.28	38.462
257.65	38.298
258.02	37.107
258.39	35.452
258.76	34.459
259.14	34.877
259.51	38.689
259.88	35.976
260.25	40.683
260.62	36.334
260.99	39.466
261.36	38.415
261.73	42.197
262.10	38.056
262.47	39.886
262.85	36.571
263.22	40.115
263.59	39.385
263.96	39.420
264.33	40.108
264.70	34.807
265.07	37.363
265.44	39.276
265.81	36.693
266.18	37.215
266.55	38.235
266.92	41.310
267.29	37.772
267.66	38.519
268.03	39.614
268.40	36.854
268.77	41.205
269.14	36.195
269.51	35.862
269.88	31.651
270.25	33.100
270.62	37.071
270.99	33.108
271.36	37.995
271.73	35.426
272.10	36.613
272.47	35.333
272.84	35.778
273.21	39.908
273.58	36.703
273.95	35.088
274.32	39.593
274.69	38.293
275.06	39.468
275.43	37.277
275.80	40.530
276.17	40.167
276.54	38.086
276.91	39.918
277.28	39.148
277.65	37.810
278.02	39.666
278.39	37.132
278.76	37.649
279.13	37.945
279.50	36.382
279.87	37.632
280.23	38.259
280.60	39.761
280.97	35.534
281.34	37.331
281.71	36.154
282.08	39.718
282.45	36.253
282.82	39.729
283.19	37.091
283.56	39.194
283.92	39.399
284.29	35.874
284.66	35.072
285.03	37.077
285.40	37.085
285.77	38.246
286.14	36.462
286.51	36.767
286.87	38.657
287.24	36.519
287.61	34.876
287.98	35.529
288.35	35.041
288.72	37.521
289.08	36.102
289.45	34.680
289.82	34.948
290.19	36.617
290.56	33.719
290.93	33.545
291.29	32.901
291.66	34.300
292.03	36.107
292.40	34.337
292.77	34.161
293.13	34.472
293.50	30.461
293.87	32.975
294.24	32.428
294.60	31.061
294.97	33.384
295.34	30.963
295.71	32.292
296.08	31.490
296.44	30.758
296.81	31.624
297.18	32.113
297.55	32.627
297.91	32.775
298.28	31.781
298.65	28.731
299.02	32.754
299.38	31.150
299.75	30.027
300.12	30.256
300.48	31.586
300.85	30.013
301.22	28.978
301.59	29.519
301.95	29.975
302.32	27.640
302.69	29.253
303.05	30.037
303.42	29.250
303.79	29.904
304.15	29.621
304.52	29.055
304.89	28.335
305.25	29.670
305.62	27.380
305.99	30.271
306.35	28.302
306.72	30.524
307.09	28.604
307.45	29.625
307.82	27.933
308.19	28.076
308.55	29.521
308.92	28.679
309.29	28.649
309.65	27.253
310.02	28.942
310.38	27.243
310.75	27.971
311.12	28.822
311.48	27.453
311.85	28.321
312.22	27.806
312.58	28.179
312.95	26.911
313.31	28.571
313.68	28.945
314.05	28.289
314.41	27.565
314.78	29.371
315.14	28.332
315.51	26.849
315.87	28.751
316.24	27.988
316.61	29.079
316.97	29.751
317.34	27.168
317.70	26.438
318.07	30.037
318.43	28.558
318.80	29.108
319.16	27.392
319.53	28.008
319.89	27.563
320.26	28.922
320.62	27.500
320.99	29.154
321.35	27.586
321.72	28.352
322.08	29.575
322.45	28.317
322.81	30.163
323.18	30.932
323.54	28.651
323.91	28.545
324.27	29.753
324.64	29.433
325.00	28.883
325.37	29.321
325.73	31.846
326.10	29.141
326.46	30.298
326.83	28.340
327.19	29.441
327.56	30.835
327.92	30.501
328.29	30.649
328.65	30.455
329.01	31.184
329.38	30.598
329.74	30.495
330.11	31.006
330.47	30.336
330.84	31.439
331.20	31.859
331.56	33.090
331.93	32.416
332.29	33.059
332.66	31.694
333.02	31.946
333.38	31.810
333.75	33.126
334.11	31.822
334.48	32.304
334.84	32.283
335.20	32.181
335.57	32.671
335.93	34.378
336.29	32.152
336.66	31.894
337.02	32.703
337.38	31.640
337.75	32.572
338.11	31.843
338.47	33.274
338.84	31.216
339.20	31.722
339.56	34.135
339.93	32.628
340.29	32.507
340.65	32.430
341.02	32.293
341.38	32.940
341.74	32.176
342.11	33.020
342.47	31.674
342.83	31.318
343.20	32.963
343.56	31.184
343.92	32.220
344.28	34.315
344.65	32.096
345.01	32.185
345.37	31.977
345.73	32.242
346.10	30.662
346.46	31.032
346.82	31.676
347.19	32.621
347.55	31.782
347.91	33.150
348.27	30.867
348.63	32.149
349.00	33.652
349.36	31.304
349.72	33.041
350.08	32.398
350.45	32.545
350.81	33.280
351.17	33.199
351.53	31.106
351.89	32.175
352.26	33.721
352.62	33.180
352.98	31.646
353.34	33.014
353.70	31.042
354.07	33.753
354.43	32.332
354.79	33.835
355.15	32.748
355.51	32.578
355.87	33.439
356.24	32.089
356.60	34.085
356.96	32.640
357.32	32.304
357.68	32.644
358.04	33.410
358.40	32.328
358.77	32.071
359.13	32.823
359.49	32.955
359.85	32.546
360.21	33.638
360.57	33.584
360.93	32.593
361.29	33.558
361.66	31.631
362.02	33.062
362.38	33.015
362.74	33.846
363.10	33.070
363.46	33.333
363.82	33.965
364.18	32.562
364.54	34.167
364.90	33.823
365.26	32.882
365.62	33.999
365.98	34.637
366.35	33.521
366.71	32.699
367.07	33.239
367.43	34.523
367.79	32.784
368.15	32.077
368.51	32.867
368.87	33.997
369.23	33.333
369.59	32.986
369.95	33.051
370.31	34.669
370.67	33.767
371.03	33.528
371.39	32.603
371.75	33.763
372.11	34.290
372.47	34.129
372.83	33.866
373.19	33.857
373.55	34.201
373.91	34.851
374.27	33.539
374.63	33.333
374.99	34.631
375.35	33.580
375.71	35.517
376.07	34.976
376.42	33.245
376.78	35.425
377.14	33.898
377.50	35.010
377.86	33.875
378.22	34.234
378.58	35.083
378.94	34.032
379.30	35.283
379.66	33.880
380.02	33.928
380.38	35.650
380.74	34.877
381.09	34.856
381.45	35.263
381.81	33.636
382.17	36.216
382.53	35.380
382.89	36.184
383.25	35.762
383.61	34.198
383.97	35.640
384.32	35.106
384.68	35.913
385.04	36.292
385.40	35.971
385.76	36.280
386.12	35.166
386.48	36.139
386.83	36.196
387.19	36.163
387.55	36.099
387.91	36.159
388.27	34.801
388.62	36.478
388.98	35.494
389.34	35.679
389.70	34.957
390.06	36.544
390.42	36.090
390.77	34.448
391.13	36.708
391.49	35.683
391.85	35.661
392.20	35.376
392.56	35.736
392.92	36.452
393.28	36.108
393.64	35.899
393.99	35.754
394.35	35.158
394.71	37.060
395.07	36.911
395.42	36.234
395.78	35.009
396.14	35.888
396.50	36.086
396.85	36.644
397.21	36.634
397.57	36.900
397.92	36.593
398.28	36.667
398.64	37.002
399.00	36.685
399.35	37.260
399.71	37.515
400.07	36.239
400.42	36.618
400.78	36.136
401.14	35.808
401.49	36.557
401.85	36.242
402.21	36.651
402.57	35.983
402.92	37.697
403.28	36.336
403.63	36.189
403.99	36.482
404.35	37.077
404.70	37.741
405.06	36.967
405.42	36.285
405.77	36.708
406.13	37.195
406.49	37.388
406.84	36.953
407.20	37.161
407.55	37.682
407.91	35.687
408.27	36.520
408.62	36.621
408.98	37.356
409.34	36.076
409.69	37.366
410.05	36.143
410.40	37.155
410.76	37.463
411.11	37.718
411.47	36.829
411.83	36.553
412.18	38.181
412.54	36.242
412.89	37.120
413.25	36.423
413.60	36.695
413.96	36.969
414.31	37.309
414.67	37.524
415.03	37.646
415.38	37.606
415.74	37.307
416.09	37.148
416.45	37.235
416.80	37.776
417.16	36.811
417.51	37.426
417.87	36.570
418.22	37.231
418.58	37.805
418.93	37.155
419.29	37.704
419.64	37.060
420.00	38.335
420.35	37.020
420.71	38.956
421.06	38.462
421.42	37.295
421.77	37.688
422.12	37.381
422.48	37.413
422.83	37.016
423.19	37.528
423.54	38.732
423.90	37.478
424.25	37.104
424.61	38.540
424.96	38.853
425.31	38.290
425.67	37.708
426.02	37.522
426.38	38.415
426.73	38.106
427.09	38.419
427.44	37.557
427.79	37.674
428.15	38.241
428.50	38.358
428.85	37.230
429.21	37.133
429.56	37.083
429.92	37.675
430.27	37.836
430.62	38.662
430.98	37.480
431.33	37.727
431.68	39.839
432.04	38.724
432.39	38.462
432.74	38.129
433.10	38.154
433.45	37.997
433.80	39.250
434.16	38.635
434.51	39.342
434.86	38.371
435.22	37.584
435.57	38.617
435.92	39.273
436.28	39.050
436.63	38.553
436.98	37.572
437.34	38.157
437.69	38.448
438.04	38.627
438.39	39.350
438.75	38.591
439.10	38.923
439.45	38.926
439.81	38.976
440.16	38.501
440.51	39.412
440.86	38.577
441.22	38.364
441.57	38.895
441.92	39.182
442.27	38.582
442.63	39.485
442.98	37.810
443.33	39.429
443.68	39.031
444.03	39.145
444.39	38.424
444.74	40.253
445.09	39.090
445.44	39.449
445.79	40.541
446.15	39.485
446.50	39.194
446.85	39.559
447.20	39.837
447.55	39.171
447.91	40.090
448.26	38.659
448.61	37.578
448.96	39.384
449.31	38.895
449.66	39.954
450.02	39.391
450.37	38.609
450.72	39.040
451.07	40.352
451.42	39.219
451.77	40.156
452.12	39.869
452.47	39.358
452.83	39.779
453.18	40.101
453.53	38.744
453.88	39.713
454.23	40.145
454.58	40.957
454.93	40.365
455.28	39.707
455.63	40.541
455.98	39.940
456.34	39.581
456.69	40.213
457.04	39.582
457.39	38.636
457.74	40.165
458.09	39.327
458.44	41.051
458.79	40.919
459.14	40.160
459.49	41.267
459.84	40.641
460.19	40.632
460.54	39.988
460.89	39.182
461.24	39.466
461.59	40.387
461.94	39.975
462.29	39.488
462.64	40.711
462.99	40.830
463.34	40.851
463.69	40.967
464.04	39.543
464.39	39.486
464.74	40.957
465.09	39.206
465.44	40.440
465.79	40.214
466.14	41.024
466.49	41.278
466.84	40.636
467.19	39.713
467.54	39.873
467.89	39.951
468.24	40.439
468.59	39.975
468.94	40.322
469.29	41.326
469.64	39.960
469.99	41.864
470.34	40.615
470.68	41.206
471.03	41.087
471.38	40.347
471.73	42.238
472.08	40.562
472.43	40.669
472.78	41.067
473.13	39.496
473.48	41.225
473.83	40.323
474.17	41.083
474.52	42.647
474.87	40.967
475.22	41.298
475.57	40.556
475.92	40.659
476.27	40.000
476.61	40.225
476.96	39.687
477.31	40.958
477.66	40.952
478.01	41.869
478.36	40.702
478.70	41.377
479.05	41.969
479.40	41.451
479.75	41.437
480.10	40.327
480.45	41.296
480.79	41.313
481.14	41.646
481.49	41.578
481.84	41.100
482.19	41.343
482.53	42.140
482.88	42.383
483.23	41.174
483.58	42.738
483.92	42.809
484.27	40.673
484.62	41.555
484.97	41.504
485.31	39.776
485.66	39.454
486.01	40.110
486.36	42.388
486.70	43.406
487.05	41.571
487.40	41.880
487.75	41.690
488.09	41.384
488.44	42.388
488.79	41.882
489.13	41.955
489.48	41.721
489.83	43.057
490.17	41.620
490.52	42.029
490.87	41.801
491.22	42.083
491.56	41.250
491.91	41.651
492.26	41.415
492.60	41.151
492.95	40.790
493.30	41.115
493.64	42.313
493.99	42.256
494.34	41.762
494.68	42.884
495.03	40.870
495.37	42.085
495.72	42.043
496.07	42.234
496.41	42.751
496.76	42.968
497.11	42.534
497.45	42.337
497.80	42.721
498.14	41.110
498.49	41.989
498.84	41.845
499.18	42.300
499.53	42.621
499.87	41.602
500.22	43.137
500.56	42.471
500.91	41.773
501.26	42.552
501.60	41.791
501.95	42.995
502.29	42.182
502.64	43.140
502.98	42.118
503.33	42.763
503.67	41.762
504.02	42.636
504.36	42.402
504.71	42.857
505.06	42.436
505.40	42.715
505.75	42.988
506.09	43.074
506.44	42.857
506.78	43.051
507.13	42.482
507.47	43.192
507.82	42.179
508.16	42.280
508.51	42.298
508.85	43.064
509.19	42.752
509.54	43.446
509.88	44.043
510.23	43.344
510.57	43.175
510.92	43.931
511.26	43.753
511.61	42.333
511.95	42.619
512.30	43.980
512.64	42.126
512.98	43.234
513.33	44.371
513.67	43.216
514.02	42.617
514.36	44.100
514.70	43.350
515.05	44.368
515.39	43.080
515.74	43.863
516.08	42.133
516.42	43.059
516.77	43.963
517.11	43.764
517.46	44.797
517.80	45.066
518.14	43.418
518.49	44.650
518.83	43.798
519.17	44.523
519.52	42.973
519.86	44.564
520.20	44.866
520.55	44.062
520.89	43.832
521.23	44.200
521.58	44.389
521.92	44.079
522.26	44.317
522.61	43.726
522.95	43.523
523.29	44.451
523.64	44.285
523.98	44.621
524.32	44.500
524.66	43.540
525.01	44.059
525.35	45.490
525.69	44.632
526.04	44.321
526.38	44.558
526.72	43.742
527.06	45.052
527.41	44.950
527.75	43.630
528.09	44.937
528.43	44.000
528.78	43.781
529.12	45.903
529.46	44.201
529.80	44.609
530.15	43.593
530.49	44.049
530.83	45.645
531.17	44.040
531.51	44.876
531.86	45.556
532.20	45.614
532.54	44.452
532.88	43.874
533.22	45.588
533.57	46.410
533.91	43.446
534.25	44.752
534.59	44.160
534.93	43.311
535.27	44.934
535.62	44.693
535.96	44.021
536.30	45.419
536.64	45.883
536.98	46.257
537.32	45.750
537.66	45.553
538.01	45.361
538.35	45.000
538.69	45.321
539.03	44.617
539.37	44.178
539.71	44.963
540.05	46.059
540.39	45.360
540.73	45.888
541.07	46.311
541.42	44.970
541.76	44.452
542.10	46.995
542.44	45.037
542.78	45.047
543.12	45.282
543.46	43.014
543.80	43.545
544.14	45.870
544.48	45.735
544.82	44.926
545.16	46.211
545.50	44.011
545.84	45.480
546.18	46.047
546.52	45.733
546.86	45.299
547.20	46.203
547.54	44.284
547.88	45.985
548.22	44.561
548.56	44.957
548.90	44.407
549.24	45.340
549.58	45.236
549.92	44.311
550.26	43.858
550.60	44.097
550.94	46.350
551.28	45.372
551.62	44.682
551.96	45.948
552.30	46.341
552.64	44.335
552.98	45.130
553.32	44.661
553.66	46.647
554.00	47.122
554.34	44.477
554.68	44.371
555.02	45.224
555.36	45.219
555.69	44.842
556.03	44.140
556.37	45.946
556.71	46.027
557.05	46.194
557.39	45.212
557.73	45.879
558.07	45.441
558.41	44.652
558.75	45.019
559.08	44.825
559.42	46.095
559.76	45.859
560.10	45.190
560.44	46.243
560.78	45.094
561.12	44.720
561.45	46.644
561.79	46.481
562.13	46.634
562.47	46.359
562.81	44.908
563.15	44.787
563.48	45.266
563.82	46.788
564.16	45.842
564.50	44.758
564.84	46.164
565.17	45.159
565.51	45.763
565.85	46.112
566.19	47.101
566.52	45.662
566.86	46.207
567.20	45.763
567.54	46.722
567.88	45.617
568.21	45.973
568.55	45.864
568.89	44.781
569.23	45.118
569.56	44.010
569.90	46.066
570.24	44.908
570.57	44.359
570.91	44.305
571.25	44.358
571.59	44.864
571.92	44.613
572.26	44.697
572.60	44.431
572.93	44.162
573.27	44.787
573.61	43.820
573.95	44.572
574.28	43.915
574.62	44.891
574.96	43.918
575.29	44.461
575.63	44.545
575.97	43.554
576.30	44.368
576.64	44.308
576.98	44.165
577.31	44.148
577.65	44.800
577.98	44.052
578.32	44.075
578.66	44.285
578.99	44.949
579.33	44.562
579.67	44.738
580.00	43.874
580.34	44.545
580.67	44.545
581.01	43.601
581.35	44.561
581.68	43.664
582.02	44.795
582.35	45.024
582.69	45.120
583.02	45.137
583.36	44.662
583.70	44.956
584.03	44.397
584.37	44.601
584.70	44.674
585.04	44.329
585.37	43.389
585.71	43.638
586.04	45.086
586.38	44.266
586.72	44.053
587.05	44.577
587.39	43.950
587.72	44.492
588.06	44.484
588.39	44.660
588.73	44.267
589.06	44.981
589.40	44.899
589.73	44.547
590.07	45.193
590.40	44.280
590.73	44.502
591.07	43.975
591.40	45.321
591.74	44.440
592.07	44.009
592.41	44.671
592.74	44.543
593.08	43.872
593.41	44.605
593.75	44.049
594.08	44.536
594.41	44.769
594.75	44.356
595.08	44.850
595.42	44.509
595.75	44.983
596.09	43.888
596.42	45.172
596.75	44.459
597.09	45.370
597.42	44.304
597.75	44.243
598.09	46.091
598.42	43.482
598.76	44.228
599.09	43.331
599.42	44.137
599.76	43.752
600.09	43.893
600.42	43.562
600.76	44.557
601.09	44.018
601.42	43.886
601.76	44.509
602.09	44.254
602.42	44.403
602.76	43.914
603.09	44.234
603.42	44.641
603.76	44.874
604.09	44.053
604.42	44.296
604.76	45.050
605.09	44.711
605.42	44.326
605.75	43.683
606.09	44.541
606.42	44.449
606.75	44.955
607.09	44.464
607.42	44.586
607.75	44.062
608.08	45.368
608.42	44.229
608.75	42.897
609.08	44.764
609.41	44.096
609.75	44.174
610.08	45.931
610.41	44.386
610.74	44.826
611.07	46.146
611.41	43.520
611.74	43.907
612.07	45.220
612.40	44.776
612.73	43.619
613.07	44.634
613.40	44.828
613.73	44.469
614.06	44.591
614.39	45.490
614.72	44.749
615.06	43.533
615.39	43.516
615.72	44.867
616.05	43.954
616.38	45.386
616.71	44.264
617.05	45.175
617.38	44.334
617.71	43.980
618.04	44.224
618.37	45.849
618.70	45.502
619.03	43.873
619.36	45.032
619.69	45.872
620.03	44.077
620.36	44.937
620.69	45.083
621.02	44.977
621.35	45.242
621.68	46.311
622.01	45.146
622.34	45.264
622.67	44.688
623.00	45.295
623.33	45.672
623.66	44.461
623.99	44.436
624.32	44.717
624.65	45.327
624.99	43.913
625.32	44.985
625.65	45.688
625.98	44.601
626.31	45.514
626.64	44.100
626.97	44.606
627.30	46.213
627.63	43.869
627.96	45.170
628.29	44.577
628.62	45.750
628.95	46.260
629.28	43.515
629.61	44.652
629.94	44.612
630.26	45.825
630.59	46.935
630.92	45.946
631.25	44.254
631.58	45.291
631.91	43.617
