SpectraSuite Data File
++++++++++++++++++++++++++++++++++++
Date: Sat May 16 11:13:00 PDT 2015
User: schluterlab
Dark Spectrum Present: Yes
Reference Spectrum Present: Yes
Number of Sampled Component Spectra: 1
Spectrometers: USB2E3373
Integration Time (usec): 3000 (USB2E3373)
Spectra Averaged: 3 (USB2E3373)
Boxcar Smoothing: 0 (USB2E3373)
Correct for Electrical Dark: No (USB2E3373)
Strobe/Lamp Enabled: No (USB2E3373)
Correct for Detector Non-linearity: No (USB2E3373)
Correct for Stray Light: No (USB2E3373)
Number of Pixels in Processed Spectrum: 2048
>>>>>Begin Processed Spectral Data<<<<<
178.53	0.000
178.91	120.000
179.29	666.667
179.67	-800.000
180.04	-38.462
180.42	-0.000
180.80	-75.000
181.18	275.000
181.56	-37.500
181.94	1200.000
182.31	400.000
182.69	-61.538
183.07	-633.333
183.45	1050.000
183.83	366.667
184.20	14.286
184.58	-50.000
184.96	-200.000
185.34	56.250
185.72	-175.000
186.09	100.000
186.47	-250.000
186.85	-175.000
187.23	-50.000
187.61	100.000
187.98	-50.000
188.36	50.000
188.74	112.500
189.12	-100.000
189.49	228.571
189.87	16.667
190.25	325.000
190.63	-50.000
191.00	-266.667
191.38	80.000
191.76	60.000
192.14	420.000
192.51	-160.000
192.89	-366.667
193.27	0.000
193.65	-66.667
194.02	-157.143
194.40	366.667
194.78	-40.000
195.15	-500.000
195.53	-36.364
195.91	-333.333
196.29	300.000
196.66	-33.333
197.04	1500.000
197.42	-125.000
197.79	20.000
198.17	-266.667
198.55	-100.000
198.92	-900.000
199.30	137.500
199.68	-250.000
200.05	-55.556
200.43	-166.667
200.81	-800.000
201.18	-41.667
201.56	257.143
201.94	-33.333
202.31	22.727
202.69	80.000
203.07	-60.000
203.44	666.667
203.82	-200.000
204.19	-225.000
204.57	0.000
204.95	0.000
205.32	0.000
205.70	700.000
206.08	-900.000
206.45	-5.556
206.83	-500.000
207.20	150.000
207.58	-600.000
207.96	-100.000
208.33	-50.000
208.71	-77.778
209.08	220.000
209.46	-85.714
209.84	150.000
210.21	0.000
210.59	15.000
210.96	200.000
211.34	-150.000
211.71	0.000
212.09	175.000
212.46	750.000
212.84	-1200.000
213.22	333.333
213.59	158.333
213.97	44.444
214.34	40.000
214.72	0.000
215.09	-33.333
215.47	-116.667
215.84	-70.000
216.22	10.000
216.59	53.333
216.97	-450.000
217.34	750.000
217.72	-100.000
218.09	-250.000
218.47	-100.000
218.84	228.571
219.22	28.571
219.59	0.000
219.97	157.143
220.34	325.000
220.72	12.500
221.09	-46.154
221.47	0.000
221.84	133.333
222.22	-200.000
222.59	1100.000
222.97	-50.000
223.34	-500.000
223.72	-133.333
224.09	42.857
224.46	-100.000
224.84	-42.857
225.21	-128.571
225.59	-109.091
225.96	-100.000
226.34	-71.429
226.71	-22.222
227.08	20.000
227.46	800.000
227.83	-128.571
228.21	-150.000
228.58	-200.000
228.95	25.000
229.33	-800.000
229.70	-200.000
230.08	-950.000
230.45	16.667
230.82	-100.000
231.20	0.000
231.57	-400.000
231.95	-0.000
232.32	52.381
232.69	-66.667
233.07	-71.429
233.44	-250.000
233.81	26.667
234.19	-133.333
234.56	-12.500
234.93	53.125
235.31	-142.857
235.68	-85.714
236.05	-70.588
236.43	-40.909
236.80	0.000
237.17	-16.667
237.55	-9.524
237.92	-59.091
238.29	-37.143
238.67	-14.706
239.04	5.556
239.41	-16.129
239.79	-28.205
240.16	-33.333
240.53	-14.545
240.91	-5.128
241.28	-1.818
241.65	20.000
242.02	3.279
242.40	-16.393
242.77	-3.030
243.14	-11.864
243.51	-15.714
243.89	-13.924
244.26	-6.742
244.63	11.579
245.00	-7.368
245.38	13.559
245.75	-0.885
246.12	0.800
246.49	-3.150
246.87	-2.439
247.24	-11.864
247.61	-6.780
247.98	-7.042
248.36	-6.993
248.73	5.063
249.10	-10.191
249.47	8.187
249.84	1.705
250.22	-12.500
250.59	2.825
250.96	-1.571
251.33	-0.474
251.70	-4.327
252.08	2.844
252.45	0.474
252.82	-1.429
253.19	4.255
253.56	0.000
253.94	0.844
254.31	-1.717
254.68	4.065
255.05	0.000
255.42	5.556
255.79	-1.075
256.16	2.353
256.54	1.471
256.91	1.515
257.28	1.832
257.65	-2.128
258.02	4.717
258.39	2.007
258.76	-1.351
259.14	2.469
259.51	3.607
259.88	3.963
260.25	4.037
260.62	-1.608
260.99	1.187
261.36	0.610
261.73	5.491
262.10	2.500
262.47	3.419
262.85	4.000
263.22	4.011
263.59	1.231
263.96	5.507
264.33	4.065
264.70	3.591
265.07	1.648
265.44	1.034
265.81	3.101
266.18	1.772
266.55	1.961
266.92	2.015
267.29	3.390
267.66	1.975
268.03	5.072
268.40	3.286
268.77	4.337
269.14	3.016
269.51	5.057
269.88	0.917
270.25	1.166
270.62	2.059
270.99	-0.676
271.36	1.865
271.73	1.121
272.10	2.975
272.47	0.222
272.84	4.444
273.21	4.587
273.58	3.736
273.95	4.825
274.32	3.167
274.69	6.565
275.06	5.112
275.43	1.563
275.80	4.684
276.17	3.347
276.54	6.517
276.91	2.675
277.28	2.637
277.65	3.099
278.02	4.593
278.39	2.750
278.76	2.590
279.13	3.557
279.50	2.584
279.87	2.748
280.23	4.453
280.60	1.789
280.97	1.942
281.34	1.161
281.71	5.577
282.08	2.218
282.45	-0.407
282.82	2.326
283.19	2.182
283.56	4.945
283.92	3.887
284.29	1.859
284.66	3.058
285.03	2.674
285.40	2.214
285.77	3.860
286.14	3.971
286.51	1.243
286.87	3.267
287.24	3.754
287.61	2.975
287.98	2.426
288.35	0.165
288.72	1.698
289.08	1.695
289.45	3.704
289.82	2.422
290.19	5.583
290.56	1.983
290.93	2.226
291.29	1.459
291.66	2.576
292.03	2.355
292.40	3.614
292.77	3.106
293.13	2.602
293.50	3.566
293.87	1.840
294.24	4.223
294.60	0.909
294.97	3.945
295.34	3.407
295.71	1.637
296.08	0.000
296.44	2.289
296.81	3.846
297.18	1.549
297.55	1.695
297.91	4.184
298.28	2.192
298.65	2.371
299.02	4.144
299.38	2.674
299.75	2.038
300.12	2.821
300.48	4.604
300.85	2.490
301.22	3.881
301.59	3.251
301.95	2.897
302.32	0.913
302.69	3.917
303.05	2.076
303.42	3.000
303.79	3.947
304.15	2.844
304.52	3.501
304.89	3.660
305.25	2.442
305.62	3.173
305.99	5.300
306.35	3.330
306.72	1.936
307.09	4.540
307.45	1.930
307.82	2.235
308.19	2.908
308.55	3.813
308.92	2.470
309.29	2.054
309.65	2.969
310.02	2.916
310.38	1.514
310.75	3.279
311.12	4.545
311.48	4.280
311.85	2.369
312.22	3.913
312.58	4.374
312.95	3.466
313.31	3.696
313.68	4.322
314.05	4.946
314.41	3.119
314.78	2.897
315.14	3.751
315.51	3.141
315.87	4.163
316.24	5.345
316.61	4.894
316.97	5.075
317.34	3.083
317.70	4.545
318.07	4.944
318.43	3.933
318.80	4.977
319.16	4.690
319.53	4.511
319.89	3.951
320.26	4.706
320.62	3.750
320.99	6.368
321.35	3.448
321.72	3.889
322.08	5.638
322.45	4.653
322.81	3.939
323.18	4.611
323.54	6.100
323.91	5.283
324.27	5.228
324.64	5.393
325.00	5.934
325.37	5.701
325.73	6.387
326.10	4.340
326.46	4.816
326.83	5.617
327.19	5.171
327.56	5.877
327.92	5.947
328.29	6.580
328.65	5.182
329.01	6.184
329.38	5.442
329.74	7.051
330.11	5.984
330.47	5.813
330.84	5.958
331.20	5.054
331.56	6.563
331.93	6.483
332.29	5.662
332.66	6.234
333.02	4.796
333.38	6.541
333.75	6.233
334.11	5.956
334.48	5.649
334.84	7.437
335.20	6.649
335.57	5.686
335.93	7.252
336.29	6.023
336.66	6.344
337.02	6.036
337.38	5.793
337.75	6.409
338.11	5.993
338.47	6.495
338.84	6.443
339.20	5.800
339.56	6.863
339.93	5.732
340.29	6.377
340.65	5.157
341.02	5.481
341.38	6.318
341.74	6.181
342.11	5.802
342.47	5.579
342.83	5.542
343.20	5.551
343.56	5.388
343.92	6.845
344.28	6.560
344.65	5.363
345.01	5.714
345.37	6.645
345.73	6.219
346.10	5.070
346.46	5.768
346.82	5.293
347.19	5.752
347.55	5.939
347.91	6.378
348.27	5.569
348.63	6.704
349.00	6.126
349.36	5.230
349.72	6.369
350.08	6.496
350.45	5.280
350.81	5.812
351.17	5.466
351.53	4.057
351.89	5.416
352.26	5.504
352.62	6.605
352.98	5.222
353.34	6.155
353.70	5.405
354.07	6.216
354.43	6.245
354.79	5.388
355.15	4.633
355.51	5.000
355.87	5.692
356.24	5.401
356.60	7.333
356.96	5.851
357.32	4.988
357.68	6.207
358.04	6.390
358.40	5.800
358.77	5.719
359.13	5.738
359.49	5.593
359.85	5.030
360.21	5.403
360.57	5.346
360.93	7.037
361.29	6.577
361.66	5.488
362.02	5.104
362.38	6.310
362.74	6.227
363.10	6.385
363.46	6.624
363.82	6.414
364.18	6.440
364.54	7.648
364.90	5.870
365.26	5.278
365.62	6.058
365.98	6.401
366.35	5.915
366.71	5.920
367.07	5.857
367.43	6.589
367.79	6.460
368.15	5.405
368.51	6.294
368.87	6.662
369.23	6.246
369.59	5.625
369.95	5.215
370.31	7.103
370.67	4.917
371.03	6.122
371.39	4.738
371.75	6.938
372.11	6.743
372.47	6.508
372.83	5.772
373.19	6.571
373.55	6.193
373.91	6.401
374.27	6.639
374.63	5.797
374.99	6.537
375.35	6.460
375.71	6.415
376.07	5.955
376.42	5.430
376.78	6.928
377.14	6.576
377.50	5.867
377.86	6.567
378.22	6.407
378.58	5.806
378.94	5.980
379.30	6.277
379.66	6.557
380.02	5.882
380.38	5.438
380.74	6.096
381.09	6.620
381.45	6.384
381.81	5.868
382.17	6.704
382.53	5.410
382.89	6.818
383.25	6.562
383.61	6.191
383.97	6.430
384.32	6.508
384.68	5.985
385.04	6.220
385.40	6.452
385.76	6.402
386.12	6.496
386.48	7.054
386.83	5.644
387.19	6.575
387.55	6.118
387.91	6.343
388.27	5.549
388.62	5.469
388.98	5.815
389.34	5.875
389.70	6.334
390.06	5.469
390.42	5.641
390.77	5.363
391.13	5.963
391.49	6.425
391.85	6.234
392.20	5.400
392.56	6.048
392.92	6.389
393.28	6.315
393.64	6.013
393.99	5.723
394.35	5.718
394.71	5.806
395.07	6.340
395.42	5.423
395.78	5.468
396.14	6.106
396.50	5.933
396.85	6.169
397.21	6.622
397.57	6.505
397.92	5.913
398.28	5.444
398.64	6.127
399.00	6.067
399.35	5.693
399.71	6.156
400.07	6.388
400.42	6.022
400.78	5.486
401.14	5.329
401.49	5.778
401.85	5.003
402.21	5.364
402.57	5.461
402.92	6.356
403.28	5.944
403.63	5.213
403.99	5.034
404.35	5.072
404.70	5.559
405.06	6.632
405.42	5.535
405.77	5.147
406.13	5.168
406.49	4.673
406.84	5.219
407.20	5.948
407.55	5.510
407.91	4.987
408.27	5.882
408.62	5.773
408.98	4.791
409.34	5.545
409.69	5.482
410.05	5.518
410.40	5.395
410.76	5.394
411.11	5.736
411.47	5.818
411.83	5.501
412.18	5.322
412.54	4.942
412.89	5.772
413.25	4.900
413.60	4.253
413.96	4.683
414.31	4.954
414.67	5.016
415.03	5.498
415.38	5.595
415.74	5.090
416.09	5.627
416.45	4.365
416.80	5.852
417.16	5.050
417.51	5.581
417.87	4.337
418.22	5.183
418.58	5.327
418.93	5.886
419.29	4.642
419.64	4.523
420.00	5.711
420.35	5.204
420.71	5.282
421.06	6.095
421.42	4.859
421.77	5.695
422.12	5.540
422.48	5.665
422.83	5.866
423.19	5.234
423.54	5.303
423.90	4.743
424.25	5.147
424.61	5.428
424.96	4.974
425.31	5.590
425.67	4.871
426.02	4.819
426.38	5.384
426.73	5.435
427.09	5.331
427.44	4.545
427.79	4.767
428.15	5.925
428.50	5.455
428.85	5.276
429.21	4.925
429.56	5.625
429.92	6.062
430.27	4.985
430.62	5.277
430.98	5.175
431.33	4.749
431.68	5.523
432.04	5.428
432.39	5.413
432.74	5.875
433.10	4.952
433.45	4.721
433.80	5.095
434.16	5.212
434.51	5.808
434.86	5.741
435.22	5.457
435.57	4.835
435.92	5.100
436.28	4.748
436.63	5.031
436.98	4.696
437.34	6.025
437.69	5.543
438.04	5.956
438.39	5.535
438.75	5.471
439.10	5.830
439.45	5.733
439.81	5.783
440.16	5.565
440.51	6.118
440.86	5.552
441.22	4.533
441.57	5.474
441.92	5.934
442.27	5.574
442.63	5.204
442.98	4.740
443.33	5.327
443.68	4.898
444.03	5.108
444.39	5.384
444.74	5.782
445.09	5.537
445.44	5.627
445.79	4.997
446.15	5.750
446.50	4.954
446.85	5.644
447.20	5.720
447.55	6.022
447.91	5.390
448.26	5.698
448.61	5.150
448.96	5.882
449.31	5.242
449.66	5.610
450.02	5.540
450.37	4.464
450.72	4.802
451.07	5.468
451.42	4.771
451.77	5.625
452.12	4.648
452.47	6.171
452.83	5.416
453.18	6.009
453.53	5.659
453.88	5.921
454.23	4.776
454.58	5.966
454.93	5.353
455.28	5.290
455.63	5.467
455.98	5.783
456.34	4.892
456.69	6.504
457.04	5.163
457.39	4.904
457.74	5.434
458.09	5.510
458.44	6.005
458.79	4.652
459.14	6.047
459.49	6.098
459.84	6.071
460.19	5.310
460.54	5.203
460.89	4.877
461.24	5.100
461.59	5.744
461.94	6.111
462.29	6.611
462.64	5.534
462.99	6.024
463.34	6.212
463.69	4.644
464.04	5.507
464.39	5.197
464.74	5.674
465.09	5.171
465.44	5.640
465.79	6.655
466.14	5.696
466.49	5.584
466.84	6.182
467.19	6.297
467.54	5.570
467.89	5.302
468.24	5.998
468.59	4.934
468.94	4.823
469.29	5.133
469.64	5.863
469.99	6.955
470.34	6.012
470.68	5.451
471.03	6.125
471.38	6.111
471.73	4.895
472.08	5.221
472.43	5.470
472.78	5.867
473.13	4.639
473.48	6.318
473.83	5.893
474.17	5.605
474.52	7.161
474.87	5.478
475.22	5.369
475.57	5.722
475.92	5.562
476.27	5.429
476.61	5.690
476.96	5.869
477.31	5.867
477.66	5.091
478.01	5.781
478.36	5.291
478.70	5.659
479.05	6.544
479.40	5.959
479.75	5.708
480.10	6.151
480.45	4.691
480.79	6.071
481.14	6.021
481.49	6.050
481.84	6.103
482.19	6.350
482.53	6.013
482.88	5.126
483.23	6.150
483.58	6.938
483.92	5.447
484.27	5.583
484.62	5.702
484.97	5.729
485.31	5.664
485.66	5.754
486.01	5.662
486.36	5.884
486.70	5.855
487.05	5.838
487.40	5.769
487.75	5.446
488.09	5.806
488.44	6.022
488.79	6.049
489.13	6.086
489.48	6.688
489.83	6.376
490.17	6.138
490.52	6.250
490.87	5.589
491.22	6.072
491.56	5.880
491.91	5.630
492.26	5.283
492.60	5.994
492.95	5.664
493.30	6.575
493.64	5.689
493.99	5.975
494.34	5.524
494.68	6.227
495.03	5.688
495.37	4.818
495.72	6.287
496.07	5.631
496.41	6.299
496.76	6.164
497.11	5.417
497.45	6.322
497.80	5.653
498.14	6.238
498.49	5.776
498.84	6.214
499.18	6.530
499.53	6.040
499.87	4.875
500.22	5.833
500.56	5.653
500.91	5.862
501.26	6.114
501.60	5.344
501.95	6.763
502.29	5.668
502.64	6.601
502.98	5.750
503.33	6.579
503.67	6.082
504.02	5.456
504.36	7.010
504.71	5.420
505.06	5.841
505.40	7.236
505.75	6.250
506.09	7.230
506.44	6.767
506.78	6.222
507.13	5.716
507.47	6.208
507.82	6.557
508.16	6.528
508.51	6.285
508.85	5.849
509.19	5.808
509.54	6.607
509.88	6.596
510.23	7.023
510.57	7.937
510.92	6.928
511.26	6.114
511.61	6.749
511.95	6.466
512.30	6.597
512.64	5.954
512.98	6.766
513.33	7.523
513.67	6.588
514.02	6.655
514.36	6.870
514.70	6.621
515.05	7.261
515.39	7.324
515.74	7.621
516.08	6.974
516.42	7.819
516.77	7.221
517.11	7.208
517.46	6.758
517.80	7.160
518.14	7.005
518.49	7.472
518.83	7.003
519.17	7.815
519.52	7.403
519.86	8.363
520.20	7.641
520.55	8.062
520.89	7.201
521.23	8.181
521.58	7.586
521.92	8.423
522.26	8.254
522.61	8.048
522.95	6.828
523.29	8.339
523.64	7.870
523.98	8.148
524.32	8.485
524.66	7.516
525.01	7.322
525.35	7.732
525.69	8.393
526.04	7.702
526.38	8.657
526.72	8.493
527.06	8.659
527.41	8.515
527.75	7.459
528.09	9.001
528.43	8.262
528.78	8.480
529.12	8.579
529.46	8.570
529.80	8.005
530.15	8.500
530.49	9.379
530.83	9.299
531.17	7.609
531.51	8.171
531.86	9.282
532.20	9.244
532.54	9.158
532.88	9.618
533.22	8.356
533.57	9.008
533.91	8.240
534.25	8.674
534.59	8.432
534.93	8.339
535.27	8.433
535.62	9.207
535.96	9.114
536.30	7.723
536.64	9.562
536.98	9.675
537.32	8.431
537.66	9.437
538.01	9.210
538.35	9.257
538.69	8.890
539.03	9.546
539.37	8.916
539.71	9.273
540.05	8.499
540.39	9.557
540.73	9.952
541.07	10.246
541.42	8.170
541.76	8.571
542.10	9.048
542.44	9.194
542.78	9.023
543.12	9.165
543.46	8.699
543.80	9.298
544.14	9.268
544.48	8.661
544.82	9.269
545.16	8.920
545.50	8.210
545.84	9.805
546.18	9.431
546.52	9.531
546.86	8.476
547.20	10.127
547.54	8.747
547.88	9.489
548.22	8.519
548.56	8.150
548.90	9.434
549.24	9.250
549.58	8.963
549.92	9.823
550.26	9.971
550.60	8.606
550.94	9.270
551.28	9.782
551.62	9.897
551.96	10.130
552.30	9.477
552.64	9.148
552.98	9.741
553.32	9.091
553.66	8.796
554.00	9.240
554.34	9.747
554.68	9.649
555.02	9.696
555.36	9.346
555.69	8.596
556.03	9.544
556.37	8.962
556.71	10.021
557.05	9.534
557.39	9.651
557.73	10.576
558.07	9.721
558.41	10.770
558.75	9.278
559.08	8.638
559.42	9.495
559.76	9.202
560.10	9.471
560.44	9.682
560.78	10.090
561.12	9.455
561.45	9.863
561.79	9.059
562.13	9.467
562.47	8.964
562.81	8.487
563.15	9.307
563.48	9.744
563.82	9.939
564.16	9.331
564.50	9.341
564.84	10.251
565.17	9.947
565.51	9.518
565.85	9.466
566.19	9.750
566.52	9.263
566.86	9.987
567.20	9.685
567.54	10.041
567.88	9.771
568.21	9.564
568.55	9.491
568.89	9.095
569.23	9.533
569.56	8.701
569.90	9.599
570.24	9.545
570.57	9.420
570.91	9.113
571.25	9.436
571.59	9.678
571.92	9.226
572.26	9.587
572.60	9.556
572.93	9.477
573.27	9.146
573.61	8.948
573.95	9.792
574.28	9.089
574.62	9.558
574.96	9.048
575.29	9.578
575.63	9.610
575.97	9.196
576.30	9.235
576.64	9.530
576.98	9.356
577.31	9.631
577.65	9.349
577.98	9.321
578.32	9.072
578.66	9.441
578.99	9.553
579.33	9.545
579.67	9.460
580.00	9.623
580.34	9.491
580.67	9.488
581.01	9.095
581.35	9.341
581.68	9.237
582.02	9.510
582.35	9.122
582.69	9.278
583.02	9.637
583.36	9.747
583.70	9.626
584.03	9.752
584.37	9.499
584.70	9.543
585.04	9.392
585.37	9.284
585.71	10.111
586.04	9.600
586.38	9.409
586.72	9.949
587.05	9.544
587.39	9.369
587.72	9.875
588.06	9.601
588.39	9.655
588.73	9.656
589.06	9.879
589.40	10.168
589.73	9.525
590.07	9.650
590.40	10.185
590.73	9.436
591.07	10.164
591.40	10.269
591.74	10.382
592.07	10.045
592.41	9.299
592.74	10.069
593.08	10.299
593.41	9.803
593.75	9.232
594.08	9.957
594.41	10.536
594.75	10.344
595.08	10.188
595.42	10.079
595.75	9.408
596.09	9.585
596.42	10.516
596.75	10.047
597.09	10.508
597.42	10.388
597.75	10.142
598.09	10.258
598.42	9.501
598.76	9.427
599.09	9.708
599.42	9.650
599.76	10.004
600.09	10.191
600.42	10.254
600.76	10.546
601.09	9.761
601.42	9.537
601.76	10.008
602.09	9.816
602.42	10.165
602.76	10.179
603.09	10.565
603.42	9.952
603.76	10.012
604.09	10.453
604.42	10.033
604.76	9.725
605.09	10.307
605.42	9.885
605.75	9.659
606.09	10.087
606.42	10.013
606.75	10.090
607.09	11.116
607.42	10.255
607.75	10.022
608.08	10.664
608.42	10.170
608.75	10.327
609.08	10.083
609.41	10.463
609.75	10.044
610.08	10.784
610.41	10.458
610.74	10.832
611.07	11.359
611.41	10.691
611.74	11.465
612.07	10.580
612.40	10.981
612.73	11.362
613.07	10.677
613.40	11.221
613.73	10.790
614.06	10.269
614.39	11.048
614.72	9.777
615.06	10.272
615.39	9.984
615.72	10.755
616.05	10.215
616.38	11.085
616.71	10.991
617.05	10.796
617.38	10.341
617.71	9.767
618.04	10.062
618.37	10.692
618.70	11.213
619.03	10.156
619.36	11.276
619.69	11.701
620.03	9.986
620.36	10.267
620.69	10.122
621.02	11.339
621.35	10.403
621.68	10.574
622.01	9.790
622.34	11.025
622.67	10.000
623.00	11.247
623.33	11.418
623.66	10.857
623.99	11.955
624.32	11.235
624.65	10.522
624.99	10.978
625.32	11.302
625.65	11.033
625.98	11.346
626.31	11.827
626.64	10.711
626.97	10.531
627.30	10.809
627.63	9.499
627.96	11.575
628.29	11.857
628.62	12.703
628.95	10.925
629.28	11.372
629.61	10.010
629.94	10.586
630.26	11.630
630.59	12.161
630.92	12.312
631.25	11.794
631.58	11.746
631.91	10.106
632.24	11.778
632.57	10.778
632.90	11.839
633.23	10.164
633.56	9.942
633.89	10.967
634.22	10.980
634.55	11.298
634.88	9.794
635.20	10.737
635.53	12.214
635.86	10.327
636.19	11.355
636.52	10.872
636.85	10.951
637.18	11.000
637.51	11.772
637.83	11.052
638.16	9.868
638.49	9.517
638.82	12.484
639.15	11.673
639.48	10.246
639.81	12.586
640.13	11.081
640.46	11.823
640.79	10.924
641.12	12.835
641.45	13.056
641.77	10.030
642.10	10.423
642.43	9.863
642.76	11.024
643.09	11.587
643.41	10.635
643.74	11.447
644.07	13.417
644.40	11.345
644.73	12.211
645.05	9.850
645.38	12.748
645.71	13.058
646.04	14.454
646.36	8.726
646.69	12.284
647.02	12.635
647.35	12.455
647.67	11.496
648.00	14.060
648.33	13.322
648.66	11.613
648.98	12.102
649.31	11.846
649.64	12.656
649.96	12.873
650.29	10.656
650.62	12.220
650.94	11.636
651.27	12.132
651.60	11.073
651.92	13.014
652.25	12.187
652.58	9.881
652.90	10.915
653.23	10.323
653.56	9.699
653.88	12.131
