SpectraSuite Data File
++++++++++++++++++++++++++++++++++++
Date: Sat May 16 11:33:15 PDT 2015
User: schluterlab
Dark Spectrum Present: Yes
Reference Spectrum Present: Yes
Number of Sampled Component Spectra: 1
Spectrometers: USB2E3373
Integration Time (usec): 3000 (USB2E3373)
Spectra Averaged: 3 (USB2E3373)
Boxcar Smoothing: 0 (USB2E3373)
Correct for Electrical Dark: No (USB2E3373)
Strobe/Lamp Enabled: No (USB2E3373)
Correct for Detector Non-linearity: No (USB2E3373)
Correct for Stray Light: No (USB2E3373)
Number of Pixels in Processed Spectrum: 2048
>>>>>Begin Processed Spectral Data<<<<<
178.53	0.000
178.91	86.667
179.29	733.333
179.67	-700.000
180.04	-53.846
180.42	400.000
180.80	400.000
181.18	175.000
181.56	-62.500
181.94	1200.000
182.31	400.000
182.69	-84.615
183.07	-733.333
183.45	1450.000
183.83	266.667
184.20	-228.571
184.58	-225.000
184.96	-225.000
185.34	143.750
185.72	-650.000
186.09	233.333
186.47	-212.500
186.85	-175.000
187.23	-12.500
187.61	-250.000
187.98	-375.000
188.36	-100.000
188.74	-350.000
189.12	800.000
189.49	314.286
189.87	-75.000
190.25	250.000
190.63	-50.000
191.00	-144.444
191.38	360.000
191.76	-33.333
192.14	500.000
192.51	-440.000
192.89	-500.000
193.27	0.000
193.65	-88.889
194.02	-200.000
194.40	700.000
194.78	-60.000
195.15	-2000.000
195.53	-127.273
195.91	-500.000
196.29	260.000
196.66	-600.000
197.04	2300.000
197.42	-50.000
197.79	60.000
198.17	-400.000
198.55	-550.000
198.92	-1400.000
199.30	300.000
199.68	-450.000
200.05	-122.222
200.43	-233.333
200.81	0.000
201.18	-100.000
201.56	171.429
201.94	-100.000
202.31	4.545
202.69	-10.000
203.07	-90.000
203.44	600.000
203.82	-350.000
204.19	-575.000
204.57	-425.000
204.95	-1300.000
205.32	-6.250
205.70	1100.000
206.08	-1900.000
206.45	-33.333
206.83	-850.000
207.20	-350.000
207.58	-700.000
207.96	-333.333
208.33	-212.500
208.71	-133.333
209.08	210.000
209.46	-228.571
209.84	400.000
210.21	0.000
210.59	50.000
210.96	1000.000
211.34	-283.333
211.71	66.667
212.09	275.000
212.46	650.000
212.84	-2300.000
213.22	333.333
213.59	83.333
213.97	-88.889
214.34	270.000
214.72	-130.000
215.09	-600.000
215.47	-216.667
215.84	-10.000
216.22	-90.000
216.59	-33.333
216.97	-400.000
217.34	650.000
217.72	-157.143
218.09	-266.667
218.47	-357.143
218.84	357.143
219.22	-71.429
219.59	0.000
219.97	171.429
220.34	250.000
220.72	262.500
221.09	-61.538
221.47	0.000
221.84	633.333
222.22	-150.000
222.59	1700.000
222.97	-237.500
223.34	-1200.000
223.72	-466.667
224.09	0.000
224.46	-600.000
224.84	-57.143
225.21	-242.857
225.59	-45.455
225.96	-175.000
226.34	-85.714
226.71	-77.778
227.08	-55.000
227.46	2100.000
227.83	-42.857
228.21	-162.500
228.58	200.000
228.95	18.750
229.33	-2200.000
229.70	-280.000
230.08	-900.000
230.45	16.667
230.82	-116.667
231.20	-1800.000
231.57	-950.000
231.95	1700.000
232.32	23.810
232.69	-200.000
233.07	-128.571
233.44	-850.000
233.81	-100.000
234.19	-111.111
234.56	12.500
234.93	3.125
235.31	-285.714
235.68	-92.857
236.05	-76.471
236.43	-18.182
236.80	-6.452
237.17	-8.333
237.55	-61.905
237.92	-27.273
238.29	-2.857
238.67	0.000
239.04	-8.333
239.41	-29.032
239.79	-15.385
240.16	-16.667
240.53	-9.091
240.91	-17.949
241.28	18.182
241.65	9.231
242.02	3.279
242.40	8.197
242.77	1.515
243.14	-11.864
243.51	-4.286
243.89	-2.532
244.26	3.371
244.63	18.947
245.00	12.632
245.38	9.322
245.75	6.195
246.12	12.800
246.49	11.024
246.87	3.252
247.24	0.000
247.61	14.407
247.98	9.155
248.36	14.685
248.73	12.025
249.10	8.917
249.47	16.959
249.84	11.932
250.22	1.786
250.59	17.514
250.96	13.613
251.33	18.483
251.70	13.462
252.08	12.796
252.45	10.900
252.82	14.762
253.19	14.043
253.56	16.532
253.94	13.502
254.31	18.026
254.68	17.480
255.05	14.113
255.42	16.270
255.79	16.129
256.16	17.255
256.54	17.647
256.91	14.773
257.28	13.919
257.65	13.121
258.02	18.553
258.39	14.381
258.76	14.527
259.14	16.975
259.51	14.426
259.88	16.463
260.25	19.876
260.62	11.254
260.99	13.650
261.36	15.854
261.73	18.786
262.10	14.444
262.47	17.664
262.85	18.286
263.22	12.607
263.59	15.077
263.96	15.942
264.33	15.718
264.70	19.613
265.07	15.934
265.44	18.346
265.81	14.729
266.18	14.430
266.55	18.382
266.92	15.869
267.29	15.496
267.66	16.543
268.03	20.290
268.40	17.136
268.77	18.554
269.14	17.401
269.51	15.632
269.88	14.679
270.25	14.918
270.62	16.247
270.99	15.991
271.36	15.618
271.73	14.798
272.10	17.620
272.47	14.444
272.84	21.111
273.21	16.743
273.58	16.044
273.95	16.667
274.32	18.326
274.69	19.694
275.06	19.427
275.43	16.518
275.80	19.145
276.17	18.619
276.54	17.719
276.91	17.490
277.28	17.444
277.65	15.289
278.02	18.998
278.39	16.699
278.76	16.335
279.13	15.810
279.50	18.887
279.87	16.913
280.23	18.421
280.60	17.296
280.97	17.670
281.34	17.215
281.71	18.462
282.08	20.161
282.45	14.257
282.82	18.411
283.19	15.091
283.56	18.681
283.92	17.491
284.29	17.472
284.66	16.547
285.03	18.360
285.40	17.528
285.77	17.895
286.14	17.870
286.51	16.696
286.87	17.241
287.24	16.382
287.61	18.017
287.98	17.158
288.35	15.207
288.72	15.450
289.08	15.593
289.45	17.845
289.82	15.398
290.19	16.092
290.56	14.380
290.93	13.672
291.29	14.263
291.66	14.815
292.03	16.641
292.40	16.717
292.77	15.062
293.13	16.098
293.50	15.602
293.87	15.184
294.24	15.535
294.60	12.727
294.97	15.933
295.34	14.074
295.71	16.071
296.08	13.825
296.44	14.020
296.81	14.387
297.18	14.366
297.55	13.701
297.91	14.784
298.28	14.932
298.65	15.202
299.02	16.176
299.38	13.904
299.75	14.810
300.12	13.590
300.48	13.683
300.85	12.189
301.22	14.101
301.59	14.564
301.95	15.869
302.32	13.820
302.69	14.565
303.05	14.042
303.42	14.875
303.79	14.234
304.15	13.507
304.52	14.469
304.89	14.758
305.25	13.553
305.62	13.866
305.99	15.665
306.35	14.539
306.72	13.554
307.09	14.869
307.45	13.394
307.82	14.190
308.19	16.107
308.55	13.834
308.92	13.963
309.29	14.595
309.65	14.422
310.02	13.715
310.38	13.622
310.75	14.652
311.12	15.393
311.48	15.240
311.85	14.212
312.22	14.521
312.58	17.192
312.95	14.883
313.31	15.285
313.68	16.683
314.05	16.419
314.41	16.197
314.78	15.085
315.14	17.374
315.51	18.338
315.87	16.844
316.24	16.618
316.61	17.274
316.97	17.811
317.34	17.341
317.70	17.161
318.07	18.190
318.43	16.105
318.80	18.404
319.16	16.698
319.53	17.763
319.89	16.745
320.26	16.961
320.62	17.596
320.99	17.910
321.35	16.749
321.72	18.936
322.08	19.881
322.45	19.802
322.81	20.461
323.18	22.190
323.54	20.795
323.91	19.370
324.27	21.008
324.64	20.201
325.00	20.157
325.37	21.086
325.73	22.047
326.10	19.929
326.46	21.891
326.83	21.787
327.19	21.101
327.56	21.721
327.92	22.260
328.29	22.597
328.65	21.182
329.01	22.261
329.38	21.945
329.74	23.718
330.11	23.481
330.47	22.707
330.84	22.823
331.20	22.744
331.56	23.883
331.93	23.890
332.29	24.292
332.66	23.529
333.02	22.262
333.38	22.312
333.75	22.618
334.11	24.089
334.48	22.948
334.84	23.535
335.20	23.227
335.57	23.827
335.93	24.261
336.29	22.764
336.66	23.700
337.02	24.414
337.38	21.480
337.75	22.827
338.11	24.329
338.47	23.132
338.84	23.775
339.20	23.111
339.56	23.173
339.93	23.280
340.29	22.498
340.65	22.465
341.02	22.681
341.38	22.915
341.74	23.709
342.11	22.611
342.47	22.833
342.83	22.502
343.20	23.143
343.56	21.551
343.92	23.289
344.28	23.802
344.65	21.617
345.01	22.101
345.37	24.419
345.73	21.113
346.10	20.687
346.46	21.852
346.82	22.053
347.19	20.789
347.55	22.071
347.91	22.441
348.27	21.957
348.63	22.456
349.00	23.150
349.36	20.609
349.72	22.930
350.08	21.331
350.45	20.883
350.81	21.417
351.17	21.543
351.53	19.570
351.89	21.665
352.26	22.868
352.62	22.043
352.98	21.203
353.34	22.222
353.70	20.463
354.07	21.794
354.43	21.344
354.79	21.553
355.15	21.645
355.51	20.938
355.87	20.711
356.24	20.810
356.60	22.321
356.96	20.708
357.32	21.457
357.68	20.536
358.04	21.093
358.40	20.418
358.77	20.325
359.13	20.735
359.49	20.711
359.85	20.655
360.21	20.928
360.57	21.988
360.93	20.370
361.29	21.001
361.66	19.512
362.02	21.080
362.38	21.203
362.74	21.685
363.10	19.799
363.46	20.513
363.82	21.064
364.18	20.622
364.54	21.587
364.90	20.685
365.26	19.829
365.62	20.955
365.98	21.764
366.35	20.775
366.71	20.648
367.07	20.536
367.43	21.620
367.79	20.619
368.15	18.919
368.51	21.399
368.87	20.948
369.23	20.561
369.59	21.181
369.95	21.283
370.31	21.238
370.67	20.029
371.03	20.481
371.39	19.590
371.75	19.957
372.11	20.732
372.47	20.463
372.83	20.654
373.19	20.500
373.55	21.464
373.91	19.986
374.27	20.123
374.63	19.186
374.99	20.862
375.35	20.727
375.71	20.729
376.07	20.329
376.42	19.934
376.78	20.196
377.14	20.203
377.50	20.954
377.86	20.546
378.22	20.226
378.58	19.951
378.94	20.407
379.30	20.232
379.66	20.583
380.02	20.559
380.38	20.423
380.74	20.223
381.09	20.269
381.45	20.585
381.81	20.629
382.17	19.862
382.53	19.392
382.89	20.694
383.25	20.409
383.61	20.165
383.97	20.882
384.32	20.025
384.68	20.677
385.04	19.746
385.40	20.024
385.76	19.451
386.12	20.362
386.48	20.297
386.83	20.061
387.19	20.502
387.55	19.261
387.91	20.510
388.27	18.697
388.62	19.471
388.98	19.322
389.34	20.012
389.70	19.245
390.06	18.894
390.42	19.295
390.77	19.685
391.13	20.124
391.49	20.150
391.85	19.389
392.20	19.478
392.56	18.815
392.92	18.882
393.28	19.747
393.64	19.784
393.99	19.569
394.35	19.708
394.71	18.406
395.07	19.962
395.42	18.296
395.78	18.856
396.14	19.252
396.50	19.572
396.85	19.803
397.21	18.773
397.57	20.122
397.92	19.087
398.28	19.556
398.64	18.203
399.00	19.326
399.35	18.771
399.71	20.151
400.07	18.925
400.42	18.917
400.78	18.545
401.14	18.802
401.49	18.632
401.85	18.914
402.21	19.011
402.57	19.053
402.92	19.761
403.28	18.750
403.63	18.694
403.99	18.769
404.35	18.478
404.70	18.783
405.06	19.146
405.42	18.758
405.77	18.891
406.13	18.683
406.49	18.993
406.84	18.416
407.20	19.611
407.55	18.809
407.91	18.135
408.27	19.424
408.62	18.821
408.98	18.557
409.34	18.160
409.69	19.219
410.05	18.799
410.40	18.210
410.76	19.206
411.11	19.514
411.47	19.182
411.83	19.377
412.18	18.874
412.54	19.097
412.89	18.469
413.25	18.300
413.60	18.165
413.96	18.176
414.31	19.083
414.67	17.778
415.03	18.305
415.38	19.649
415.74	18.557
416.09	18.542
416.45	18.452
416.80	18.010
417.16	17.874
417.51	18.976
417.87	18.770
418.22	19.216
418.58	18.742
418.93	19.313
419.29	18.507
419.64	17.902
420.00	19.259
420.35	19.219
420.71	18.547
421.06	19.645
421.42	17.681
421.77	19.040
422.12	19.810
422.48	18.279
422.83	19.191
423.19	18.708
423.54	19.539
423.90	18.797
424.25	18.156
424.61	20.326
424.96	19.953
425.31	19.061
425.67	20.458
426.02	18.531
426.38	18.572
426.73	18.936
427.09	18.873
427.44	19.375
427.79	19.360
428.15	19.629
428.50	19.883
428.85	19.544
429.21	19.258
429.56	19.896
429.92	19.589
430.27	19.043
430.62	19.645
430.98	19.446
431.33	19.797
431.68	20.429
432.04	20.313
432.39	19.829
432.74	19.604
433.10	20.146
433.45	19.344
433.80	20.549
434.16	20.097
434.51	20.384
434.86	20.738
435.22	20.546
435.57	19.767
435.92	21.043
436.28	21.365
436.63	19.785
436.98	20.619
437.34	21.323
437.69	21.237
438.04	20.023
438.39	20.277
438.75	20.023
439.10	21.377
439.45	19.916
439.81	21.265
440.16	20.897
440.51	20.941
440.86	20.474
441.22	20.343
441.57	21.105
441.92	21.483
442.27	20.509
442.63	20.279
442.98	20.260
443.33	20.977
443.68	21.522
444.03	21.857
444.39	20.901
444.74	21.641
445.09	20.340
445.44	22.003
445.79	20.704
446.15	21.961
446.50	20.849
446.85	20.523
447.20	21.042
447.55	21.657
447.91	21.336
448.26	21.397
448.61	20.034
448.96	21.232
449.31	21.308
449.66	21.179
450.02	20.776
450.37	20.870
450.72	21.073
451.07	22.062
451.42	20.756
451.77	21.604
452.12	21.931
452.47	21.411
452.83	21.782
453.18	22.075
453.53	22.077
453.88	21.471
454.23	20.919
454.58	22.063
454.93	21.285
455.28	21.287
455.63	20.946
455.98	21.265
456.34	21.601
456.69	21.639
457.04	21.266
457.39	20.813
457.74	21.028
458.09	21.868
458.44	22.691
458.79	22.141
459.14	21.620
459.49	21.670
459.84	21.304
460.19	21.718
460.54	20.871
460.89	21.581
461.24	21.979
461.59	21.512
461.94	23.043
462.29	21.918
462.64	22.069
462.99	23.092
463.34	22.215
463.69	22.328
464.04	21.500
464.39	20.789
464.74	20.804
465.09	21.587
465.44	21.489
465.79	22.448
466.14	22.152
466.49	21.531
466.84	21.789
467.19	21.446
467.54	21.266
467.89	22.010
468.24	21.675
468.59	21.424
468.94	21.350
469.29	21.118
469.64	21.765
469.99	22.822
470.34	22.712
470.68	22.529
471.03	21.886
471.38	21.181
471.73	21.958
472.08	20.482
472.43	20.721
472.78	21.800
473.13	21.074
473.48	20.996
473.83	21.526
474.17	21.656
474.52	22.187
474.87	21.212
475.22	21.180
475.57	21.222
475.92	21.220
476.27	21.543
476.61	21.296
476.96	21.241
477.31	22.228
477.66	21.749
478.01	21.880
478.36	21.111
478.70	22.050
479.05	22.661
479.40	21.658
479.75	21.764
480.10	21.677
480.45	20.019
480.79	21.915
481.14	22.027
481.49	21.684
481.84	21.544
482.19	21.197
482.53	21.544
482.88	21.357
483.23	20.892
483.58	21.092
483.92	21.261
484.27	21.179
484.62	21.425
484.97	20.850
485.31	20.224
485.66	19.532
486.01	20.349
486.36	21.125
486.70	21.590
487.05	21.357
487.40	20.940
487.75	21.477
488.09	21.557
488.44	21.583
488.79	21.436
489.13	21.567
489.48	21.330
489.83	21.004
490.17	20.679
490.52	21.241
490.87	20.462
491.22	20.458
491.56	21.111
491.91	20.945
492.26	21.132
492.60	20.552
492.95	21.371
493.30	21.153
493.64	20.263
493.99	20.698
494.34	21.143
494.68	21.910
495.03	20.793
495.37	20.600
495.72	20.923
496.07	20.976
496.41	20.750
496.76	21.416
497.11	21.573
497.45	21.887
497.80	20.310
498.14	20.923
498.49	20.743
498.84	20.583
499.18	20.419
499.53	19.825
499.87	19.402
500.22	19.902
500.56	20.660
500.91	20.640
501.26	20.767
501.60	19.740
501.95	20.531
502.29	19.556
502.64	20.462
502.98	19.981
503.33	20.066
503.67	20.594
504.02	20.087
504.36	20.049
504.71	19.605
505.06	19.770
505.40	20.259
505.75	20.224
506.09	20.273
506.44	19.549
506.78	20.070
507.13	19.258
507.47	19.510
507.82	19.515
508.16	19.896
508.51	19.681
508.85	19.358
509.19	19.414
509.54	19.926
509.88	19.787
510.23	19.392
510.57	20.476
510.92	19.388
511.26	20.362
511.61	18.790
511.95	19.828
512.30	18.692
512.64	18.531
512.98	19.197
513.33	19.934
513.67	19.151
514.02	19.016
514.36	19.280
514.70	19.015
515.05	19.726
515.39	19.089
515.74	19.895
516.08	18.790
516.42	19.207
516.77	19.180
517.11	18.707
517.46	19.976
517.80	19.134
518.14	18.418
518.49	18.888
518.83	17.982
519.17	18.887
519.52	18.276
519.86	18.638
520.20	18.643
520.55	18.769
520.89	17.721
521.23	18.376
521.58	18.809
521.92	18.936
522.26	17.841
522.61	17.934
522.95	16.911
523.29	18.433
523.64	17.676
523.98	17.759
524.32	17.976
524.66	18.323
525.01	17.726
525.35	17.590
525.69	18.412
526.04	18.081
526.38	17.123
526.72	16.731
527.06	18.099
527.41	17.558
527.75	16.898
528.09	17.604
528.43	16.525
528.78	18.090
529.12	17.734
529.46	17.010
529.80	17.108
530.15	16.935
530.49	17.335
530.83	18.009
531.17	17.441
531.51	16.678
531.86	16.853
532.20	16.734
532.54	17.179
532.88	16.996
533.22	17.179
533.57	16.449
533.91	17.104
534.25	16.656
534.59	17.177
534.93	16.304
535.27	15.733
535.62	16.688
535.96	17.324
536.30	16.296
536.64	16.866
536.98	16.314
537.32	16.102
537.66	16.633
538.01	15.808
538.35	17.162
538.69	16.176
539.03	16.181
539.37	16.301
539.71	15.811
540.05	15.696
540.39	16.551
540.73	16.379
541.07	15.915
541.42	15.598
541.76	15.282
542.10	16.880
542.44	16.056
542.78	16.147
543.12	15.750
543.46	15.753
543.80	15.318
544.14	14.909
544.48	16.207
544.82	15.832
545.16	16.432
545.50	15.478
545.84	15.508
546.18	15.742
546.52	16.287
546.86	15.456
547.20	16.456
547.54	15.083
547.88	16.125
548.22	14.351
548.56	14.696
548.90	15.499
549.24	15.347
549.58	14.961
549.92	15.406
550.26	15.824
550.60	14.509
550.94	15.182
551.28	14.146
551.62	14.993
551.96	15.485
552.30	15.331
552.64	14.567
552.98	14.506
553.32	14.286
553.66	15.141
554.00	15.068
554.34	13.935
554.68	14.474
555.02	14.616
555.36	14.450
555.69	13.968
556.03	13.825
556.37	15.007
556.71	14.889
557.05	14.782
557.39	14.031
557.73	15.536
558.07	13.564
558.41	14.734
558.75	14.981
559.08	14.163
559.42	14.472
559.76	14.801
560.10	15.511
560.44	14.957
560.78	15.101
561.12	13.872
561.45	14.041
561.79	15.331
562.13	13.675
562.47	13.725
562.81	12.871
563.15	14.416
563.48	15.204
563.82	14.199
564.16	14.604
564.50	14.180
564.84	13.955
565.17	13.395
565.51	15.059
565.85	13.793
566.19	14.361
566.52	14.808
566.86	14.223
567.20	14.467
567.54	15.062
567.88	13.791
568.21	13.535
568.55	13.998
568.89	13.668
569.23	13.836
569.56	13.703
569.90	13.808
570.24	14.356
570.57	13.849
570.91	13.839
571.25	14.105
571.59	13.768
571.92	14.018
572.26	14.020
572.60	14.459
572.93	13.657
573.27	13.841
573.61	13.249
573.95	14.130
574.28	13.982
574.62	14.845
574.96	13.485
575.29	13.770
575.63	13.698
575.97	13.808
576.30	13.894
576.64	13.525
576.98	13.585
577.31	13.850
577.65	14.068
577.98	13.535
578.32	13.808
578.66	13.907
578.99	14.115
579.33	14.092
579.67	13.822
580.00	13.864
580.34	13.919
580.67	13.949
581.01	13.528
581.35	13.612
581.68	13.721
582.02	13.365
582.35	13.447
582.69	14.027
583.02	14.302
583.36	13.775
583.70	13.774
584.03	14.278
584.37	13.965
584.70	13.799
585.04	13.823
585.37	13.532
585.71	13.740
586.04	13.501
586.38	13.633
586.72	13.895
587.05	13.679
587.39	13.603
587.72	13.831
588.06	14.360
588.39	13.244
588.73	13.488
589.06	14.290
589.40	14.428
589.73	13.527
590.07	13.074
590.40	14.133
590.73	13.395
591.07	13.607
591.40	13.735
591.74	13.727
592.07	13.198
592.41	13.503
592.74	13.221
593.08	13.182
593.41	13.618
593.75	12.859
594.08	13.084
594.41	14.344
594.75	13.477
595.08	12.820
595.42	13.620
595.75	12.826
596.09	13.853
596.42	13.953
596.75	13.411
597.09	13.624
597.42	12.789
597.75	13.508
598.09	13.873
598.42	12.771
598.76	12.542
599.09	12.747
599.42	13.110
599.76	12.835
600.09	13.550
600.42	13.673
600.76	13.183
601.09	12.761
601.42	13.257
601.76	13.590
602.09	13.661
602.42	12.675
602.76	13.004
603.09	13.105
603.42	13.054
603.76	13.402
604.09	13.376
604.42	12.781
604.76	13.301
605.09	13.065
605.42	13.564
605.75	12.764
606.09	13.533
606.42	12.945
606.75	13.225
607.09	12.439
607.42	13.160
607.75	12.715
608.08	13.692
608.42	12.819
608.75	12.944
609.08	12.762
609.41	12.755
609.75	12.823
610.08	13.529
610.41	12.771
610.74	13.298
611.07	13.083
611.41	12.355
611.74	13.470
612.07	14.017
612.40	13.539
612.73	12.924
613.07	12.658
613.40	13.903
613.73	12.970
614.06	13.015
614.39	13.021
614.72	12.011
615.06	12.554
615.39	12.263
615.72	13.580
616.05	12.976
616.38	13.001
616.71	12.372
617.05	13.269
617.38	12.941
617.71	11.855
618.04	12.236
618.37	12.390
618.70	13.820
619.03	13.135
619.36	13.742
619.69	13.065
620.03	12.534
620.36	12.518
620.69	13.424
621.02	13.318
621.35	12.016
621.68	12.705
622.01	12.621
622.34	12.578
622.67	12.422
623.00	12.318
623.33	13.657
623.66	11.152
623.99	12.707
624.32	11.607
624.65	11.258
624.99	12.397
625.32	11.527
625.65	11.966
625.98	11.894
626.31	12.887
626.64	12.887
626.97	12.586
627.30	12.426
627.63	11.572
627.96	13.490
628.29	11.489
628.62	11.843
628.95	12.795
629.28	12.030
629.61	11.187
629.94	12.760
630.26	12.127
630.59	12.362
630.92	11.912
631.25	12.198
631.58	11.958
631.91	9.149
