SpectraSuite Data File
++++++++++++++++++++++++++++++++++++
Date: Sat May 16 11:27:54 PDT 2015
User: schluterlab
Dark Spectrum Present: Yes
Reference Spectrum Present: Yes
Number of Sampled Component Spectra: 1
Spectrometers: USB2E3373
Integration Time (usec): 3000 (USB2E3373)
Spectra Averaged: 3 (USB2E3373)
Boxcar Smoothing: 0 (USB2E3373)
Correct for Electrical Dark: No (USB2E3373)
Strobe/Lamp Enabled: No (USB2E3373)
Correct for Detector Non-linearity: No (USB2E3373)
Correct for Stray Light: No (USB2E3373)
Number of Pixels in Processed Spectrum: 2048
>>>>>Begin Processed Spectral Data<<<<<
178.53	0.000
178.91	133.333
179.29	366.667
179.67	-900.000
180.04	-115.385
180.42	300.000
180.80	150.000
181.18	325.000
181.56	-125.000
181.94	1100.000
182.31	525.000
182.69	-115.385
183.07	-433.333
183.45	1150.000
183.83	233.333
184.20	-157.143
184.58	-225.000
184.96	-475.000
185.34	162.500
185.72	-525.000
186.09	250.000
186.47	-62.500
186.85	-112.500
187.23	-162.500
187.61	-400.000
187.98	-250.000
188.36	-62.500
188.74	-162.500
189.12	2600.000
189.49	271.429
189.87	-16.667
190.25	350.000
190.63	-100.000
191.00	-277.778
191.38	260.000
191.76	-40.000
192.14	640.000
192.51	-300.000
192.89	-233.333
193.27	0.000
193.65	-166.667
194.02	-100.000
194.40	833.333
194.78	-130.000
195.15	-1500.000
195.53	-236.364
195.91	-483.333
196.29	400.000
196.66	-966.667
197.04	1900.000
197.42	-75.000
197.79	-33.333
198.17	-133.333
198.55	-800.000
198.92	-500.000
199.30	175.000
199.68	-550.000
200.05	-133.333
200.43	-200.000
200.81	-1800.000
201.18	-75.000
201.56	142.857
201.94	-6.667
202.31	-4.545
202.69	-10.000
203.07	-80.000
203.44	466.667
203.82	-250.000
204.19	-525.000
204.57	-425.000
204.95	-1400.000
205.32	-106.250
205.70	500.000
206.08	-2400.000
206.45	-33.333
206.83	-950.000
207.20	50.000
207.58	-700.000
207.96	-566.667
208.33	-87.500
208.71	-122.222
209.08	170.000
209.46	-242.857
209.84	1200.000
210.21	0.000
210.59	-40.000
210.96	1500.000
211.34	-316.667
211.71	-533.333
212.09	225.000
212.46	1050.000
212.84	-1500.000
213.22	633.333
213.59	175.000
213.97	-22.222
214.34	70.000
214.72	-70.000
215.09	-633.333
215.47	-250.000
215.84	-100.000
216.22	-40.000
216.59	-40.000
216.97	-375.000
217.34	400.000
217.72	-128.571
218.09	-250.000
218.47	-242.857
218.84	228.571
219.22	-100.000
219.59	0.000
219.97	200.000
220.34	550.000
220.72	225.000
221.09	-46.154
221.47	0.000
221.84	466.667
222.22	-550.000
222.59	1600.000
222.97	-187.500
223.34	-600.000
223.72	-700.000
224.09	-14.286
224.46	-475.000
224.84	-100.000
225.21	-171.429
225.59	-145.455
225.96	-112.500
226.34	-142.857
226.71	-122.222
227.08	10.000
227.46	1600.000
227.83	0.000
228.21	-162.500
228.58	550.000
228.95	-12.500
229.33	-2800.000
229.70	-460.000
230.08	-1000.000
230.45	-50.000
230.82	-250.000
231.20	-1400.000
231.57	-850.000
231.95	900.000
232.32	-61.905
232.69	-166.667
233.07	-242.857
233.44	-550.000
233.81	-80.000
234.19	-22.222
234.56	-62.500
234.93	12.500
235.31	-242.857
235.68	-100.000
236.05	-94.118
236.43	-54.545
236.80	-19.355
237.17	-45.833
237.55	-85.714
237.92	-100.000
238.29	-31.429
238.67	-11.765
239.04	-11.111
239.41	-70.968
239.79	-69.231
240.16	-40.476
240.53	-30.909
240.91	-25.641
241.28	-23.636
241.65	10.769
242.02	-11.475
242.40	-31.148
242.77	-7.576
243.14	-18.644
243.51	-34.286
243.89	-20.253
244.26	-15.730
244.63	-10.526
245.00	-5.263
245.38	-1.695
245.75	-0.885
246.12	-9.600
246.49	0.787
246.87	-7.317
247.24	-11.017
247.61	-11.017
247.98	-7.042
248.36	-8.392
248.73	-2.532
249.10	-12.739
249.47	-0.585
249.84	-3.409
250.22	-6.548
250.59	-5.650
250.96	-0.524
251.33	-1.896
251.70	-3.846
252.08	-2.370
252.45	-7.109
252.82	-6.190
253.19	-2.553
253.56	-2.016
253.94	-2.532
254.31	-4.721
254.68	-0.813
255.05	-6.452
255.42	-4.365
255.79	-3.943
256.16	-1.176
256.54	-1.838
256.91	-3.788
257.28	-5.495
257.65	0.355
258.02	0.314
258.39	0.669
258.76	-5.743
259.14	-2.160
259.51	1.639
259.88	-1.524
260.25	3.106
260.62	-3.537
260.99	-3.561
261.36	-1.220
261.73	-0.289
262.10	-0.833
262.47	1.709
262.85	-2.286
263.22	-1.146
263.59	-1.538
263.96	0.290
264.33	-1.626
264.70	0.829
265.07	-0.549
265.44	2.326
265.81	0.258
266.18	-2.532
266.55	-0.980
266.92	1.259
267.29	1.695
267.66	-1.481
268.03	1.208
268.40	0.939
268.77	0.241
269.14	0.464
269.51	-1.149
269.88	-2.064
270.25	-1.166
270.62	0.229
270.99	0.000
271.36	1.399
271.73	1.794
272.10	-1.144
272.47	-2.444
272.84	2.000
273.21	1.147
273.58	-1.319
273.95	-0.877
274.32	-0.679
274.69	1.313
275.06	1.227
275.43	-2.455
275.80	3.666
276.17	-0.209
276.54	1.426
276.91	2.675
277.28	1.217
277.65	-0.413
278.02	0.626
278.39	3.143
278.76	0.000
279.13	0.791
279.50	-0.994
279.87	1.691
280.23	0.607
280.60	0.000
280.97	0.777
281.34	1.934
281.71	0.577
282.08	1.210
282.45	-3.870
282.82	0.581
283.19	-1.091
283.56	3.114
283.92	0.530
284.29	0.000
284.66	1.619
285.03	1.783
285.40	2.952
285.77	1.228
286.14	1.264
286.51	1.243
286.87	0.544
287.24	3.242
287.61	1.983
287.98	0.173
288.35	-0.661
288.72	-0.679
289.08	-1.525
289.45	0.337
289.82	-0.865
290.19	0.328
290.56	-1.322
290.93	0.795
291.29	0.000
291.66	0.161
292.03	1.884
292.40	2.259
292.77	1.242
293.13	0.325
293.50	2.972
293.87	2.301
294.24	0.603
294.60	-1.970
294.97	2.276
295.34	0.000
295.71	0.446
296.08	-0.922
296.44	-0.858
296.81	0.000
297.18	0.845
297.55	1.554
297.91	1.255
298.28	-0.685
298.65	-0.279
299.02	2.005
299.38	1.471
299.75	1.087
300.12	1.282
300.48	0.639
300.85	0.655
301.22	1.940
301.59	-0.130
301.95	1.763
302.32	-0.522
302.69	-0.122
303.05	0.977
303.42	-0.125
303.79	-0.120
304.15	1.540
304.52	0.467
304.89	0.826
305.25	1.099
305.62	0.353
305.99	1.767
306.35	1.110
306.72	0.228
307.09	1.249
307.45	1.589
307.82	0.670
308.19	0.783
308.55	1.416
308.92	-0.322
309.29	0.757
309.65	2.015
310.02	0.432
310.38	-0.108
310.75	2.152
311.12	0.826
311.48	1.775
311.85	0.206
312.22	2.060
312.58	1.831
312.95	1.019
313.31	1.598
313.68	2.211
314.05	0.297
314.41	0.503
314.78	-0.200
315.14	1.382
315.51	-0.608
315.87	0.968
316.24	0.875
316.61	1.727
316.97	1.493
317.34	1.156
317.70	1.670
318.07	2.146
318.43	1.498
318.80	2.911
319.16	0.188
319.53	1.128
319.89	0.282
320.26	1.373
320.62	1.154
320.99	3.284
321.35	0.296
321.72	0.102
322.08	1.484
322.45	0.297
322.81	1.441
323.18	0.961
323.54	1.294
323.91	1.946
324.27	0.665
324.64	1.188
325.00	1.571
325.37	1.538
325.73	2.712
326.10	0.089
326.46	1.664
326.83	0.340
327.19	2.168
327.56	2.129
327.92	1.784
328.29	1.558
328.65	0.909
329.01	1.943
329.38	1.338
329.74	2.198
330.11	1.541
330.47	1.635
330.84	1.558
331.20	1.715
331.56	1.459
331.93	1.155
332.29	0.822
332.66	1.580
333.02	1.900
333.38	0.986
333.75	1.870
334.11	1.511
334.48	0.177
334.84	2.100
335.20	1.418
335.57	0.903
335.93	1.701
336.29	2.746
336.66	1.586
337.02	1.712
337.38	1.070
337.75	1.493
338.11	0.268
338.47	1.957
338.84	1.361
339.20	1.406
339.56	2.050
339.93	1.411
340.29	1.063
340.65	1.311
341.02	2.445
341.38	1.853
341.74	1.524
342.11	1.365
342.47	1.202
342.83	1.092
343.20	1.366
343.56	0.163
343.92	1.836
344.28	1.850
344.65	0.825
345.01	1.681
345.37	1.993
345.73	1.146
346.10	0.491
346.46	1.543
346.82	0.642
347.19	0.822
347.55	0.883
347.91	1.181
348.27	0.875
348.63	2.666
349.00	2.148
349.36	0.468
349.72	2.389
350.08	1.844
350.45	0.394
350.81	1.592
351.17	0.482
351.53	-0.318
351.89	0.808
352.26	1.473
352.62	2.458
352.98	1.187
353.34	2.158
353.70	1.622
354.07	1.180
354.43	0.553
354.79	1.981
355.15	0.160
355.51	1.094
355.87	1.107
356.24	0.238
356.60	2.337
356.96	2.463
357.32	0.475
357.68	1.303
358.04	1.617
358.40	1.624
358.77	0.541
359.13	2.372
359.49	2.192
359.85	1.143
360.21	0.533
360.57	1.807
360.93	3.185
361.29	1.420
361.66	1.220
362.02	1.183
362.38	1.687
362.74	1.245
363.10	1.148
363.46	2.350
363.82	1.239
364.18	2.026
364.54	1.930
364.90	0.839
365.26	0.571
365.62	2.210
365.98	2.063
366.35	1.338
366.71	0.705
367.07	1.270
367.43	2.539
367.79	1.512
368.15	0.284
368.51	2.448
368.87	2.129
369.23	1.895
369.59	1.736
369.95	1.973
370.31	2.391
370.67	0.578
371.03	1.822
371.39	1.556
371.75	1.645
372.11	1.865
372.47	1.157
372.83	1.669
373.19	0.929
373.55	1.970
373.91	1.138
374.27	0.958
374.63	1.311
374.99	0.695
375.35	2.019
375.71	2.903
376.07	1.506
376.42	0.464
376.78	1.373
377.14	1.220
377.50	1.676
377.86	1.495
378.22	1.570
378.58	1.174
378.94	0.986
379.30	2.498
379.66	2.732
380.02	1.545
380.38	1.390
380.74	1.465
381.09	2.636
381.45	1.969
381.81	1.452
382.17	1.190
382.53	1.459
382.89	2.033
383.25	1.626
383.61	1.769
383.97	1.960
384.32	1.439
384.68	2.418
385.04	1.147
385.40	2.009
385.76	1.402
386.12	1.874
386.48	1.918
386.83	2.209
387.19	1.674
387.55	1.878
387.91	1.838
388.27	1.327
388.62	1.863
388.98	1.514
389.34	1.897
389.70	1.523
390.06	1.802
390.42	1.603
390.77	2.397
391.13	2.484
391.49	1.996
391.85	1.746
392.20	1.335
392.56	0.855
392.92	1.825
393.28	2.928
393.64	2.044
393.99	2.400
394.35	1.825
394.71	1.977
395.07	2.197
395.42	0.894
395.78	2.011
396.14	1.994
396.50	1.713
396.85	1.974
397.21	2.430
397.57	2.128
397.92	2.225
398.28	2.111
398.64	2.380
399.00	2.528
399.35	1.860
399.71	2.265
400.07	1.910
400.42	2.372
400.78	1.849
401.14	1.916
401.49	1.002
401.85	1.525
402.21	2.503
402.57	2.731
402.92	2.014
403.28	1.961
403.63	1.797
403.99	2.362
404.35	1.570
404.70	2.048
405.06	2.422
405.42	1.722
405.77	1.471
406.13	1.704
406.49	1.797
406.84	1.620
407.20	2.415
407.55	1.963
407.91	1.749
408.27	2.819
408.62	2.105
408.98	1.698
409.34	2.925
409.69	2.394
410.05	2.183
410.40	0.674
410.76	2.905
411.11	1.746
411.47	1.854
411.83	1.834
412.18	2.351
412.54	1.891
412.89	2.248
413.25	1.299
413.60	1.883
413.96	1.848
414.31	2.630
414.67	1.206
415.03	2.393
415.38	1.952
415.74	2.126
416.09	1.982
416.45	1.521
416.80	2.016
417.16	1.794
417.51	2.626
417.87	1.877
418.22	2.212
418.58	2.182
418.93	1.533
419.29	2.133
419.64	1.570
420.00	2.248
420.35	2.306
420.71	1.441
421.06	2.367
421.42	1.288
421.77	2.233
422.12	3.022
422.48	1.924
422.83	2.847
423.19	1.782
423.54	2.190
423.90	2.198
424.25	1.527
424.61	1.689
424.96	2.516
425.31	2.459
425.67	2.464
426.02	1.721
426.38	2.299
426.73	1.929
427.09	1.961
427.44	2.670
427.79	1.628
428.15	2.873
428.50	2.463
428.85	1.199
429.21	2.269
429.56	2.656
429.92	2.806
430.27	2.642
430.62	2.717
430.98	2.352
431.33	2.721
431.68	1.984
432.04	3.246
432.39	3.134
432.74	2.158
433.10	2.589
433.45	1.842
433.80	2.128
434.16	2.364
434.51	2.082
434.86	2.929
435.22	2.004
435.57	2.264
435.92	1.817
436.28	2.433
436.63	1.752
436.98	1.546
437.34	2.422
437.69	2.684
438.04	2.552
438.39	2.828
438.75	1.688
439.10	2.443
439.45	2.052
439.81	3.133
440.16	2.783
440.51	2.706
440.86	2.140
441.22	2.432
441.57	2.526
441.92	2.148
442.27	2.435
442.63	2.039
442.98	1.637
443.33	2.471
443.68	2.137
444.03	2.701
444.39	2.349
444.74	2.533
445.09	2.193
445.44	2.589
445.79	2.142
446.15	2.793
446.50	2.177
446.85	2.360
447.20	2.554
447.55	2.928
447.91	2.471
448.26	1.844
448.61	2.320
448.96	2.801
449.31	1.804
449.66	2.519
450.02	2.438
450.37	1.623
450.72	1.356
451.07	2.954
451.42	2.416
451.77	2.274
452.12	2.443
452.47	2.582
452.83	1.805
453.18	3.036
453.53	2.114
453.88	2.931
454.23	2.237
454.58	3.045
454.93	2.456
455.28	1.657
455.63	2.457
455.98	1.867
456.34	2.160
456.69	2.376
457.04	3.012
457.39	1.914
457.74	2.363
458.09	2.378
458.44	2.829
458.79	1.906
459.14	2.567
459.49	3.256
459.84	2.417
460.19	2.566
460.54	2.601
460.89	2.242
461.24	2.914
461.59	2.579
461.94	2.292
462.29	3.216
462.64	2.108
462.99	2.744
463.34	2.161
463.69	1.845
464.04	2.226
464.39	2.210
464.74	2.541
465.09	2.285
465.44	2.200
465.79	2.764
466.14	2.762
466.49	2.130
466.84	2.221
467.19	2.244
467.54	1.772
467.89	3.453
468.24	3.029
468.59	2.186
468.94	2.315
469.29	2.014
469.64	2.291
469.99	2.836
470.34	2.338
470.68	3.052
471.03	2.822
471.38	2.708
471.73	2.797
472.08	2.008
472.43	1.995
472.78	2.533
473.13	2.054
473.48	2.999
473.83	2.605
474.17	2.866
474.52	3.069
474.87	2.448
475.22	2.596
475.57	2.556
475.92	2.700
476.27	2.400
476.61	2.592
476.96	1.956
477.31	2.476
477.66	2.269
478.01	2.647
478.36	2.357
478.70	1.815
479.05	2.596
479.40	2.798
479.75	2.650
480.10	2.976
480.45	1.789
480.79	2.764
481.14	2.609
481.49	2.614
481.84	2.219
482.19	3.061
482.53	3.030
482.88	2.658
483.23	2.723
483.58	3.145
483.92	2.341
484.27	2.304
484.62	2.851
484.97	2.767
485.31	2.528
485.66	2.797
486.01	2.849
486.36	2.760
486.70	2.835
487.05	2.968
487.40	2.724
487.75	3.032
488.09	2.224
488.44	2.639
488.79	2.971
489.13	2.587
489.48	3.222
489.83	2.358
490.17	2.917
490.52	2.763
490.87	2.725
491.22	2.709
491.56	3.009
491.91	2.815
492.26	3.019
492.60	2.331
492.95	2.713
493.30	3.287
493.64	2.821
493.99	2.581
494.34	2.952
494.68	2.715
495.03	2.199
495.37	2.262
495.72	2.554
496.07	3.519
496.41	2.779
496.76	2.740
497.11	3.062
497.45	3.305
497.80	3.052
498.14	3.242
498.49	2.310
498.84	2.816
499.18	3.704
499.53	3.117
499.87	2.317
500.22	2.941
500.56	2.251
500.91	2.906
501.26	2.377
501.60	2.359
501.95	2.995
502.29	2.976
502.64	2.782
502.98	2.204
503.33	2.632
503.67	2.682
504.02	2.704
504.36	2.402
504.71	1.976
505.06	2.346
505.40	3.743
505.75	2.439
506.09	3.286
506.44	2.607
506.78	2.459
507.13	2.884
507.47	2.817
507.82	2.375
508.16	3.057
508.51	2.937
508.85	3.054
509.19	2.041
509.54	2.696
509.88	2.926
510.23	3.092
510.57	2.646
510.92	3.545
511.26	2.605
511.61	2.322
511.95	2.694
512.30	2.529
512.64	1.558
512.98	2.640
513.33	3.130
513.67	2.848
514.02	3.020
514.36	2.770
514.70	2.490
515.05	3.030
515.39	2.595
515.74	3.607
516.08	3.228
516.42	3.286
516.77	3.755
517.11	2.574
517.46	3.110
517.80	2.948
518.14	1.932
518.49	2.869
518.83	3.086
519.17	3.493
519.52	1.966
519.86	2.569
520.20	3.056
520.55	2.954
520.89	2.505
521.23	3.114
521.58	2.633
521.92	3.293
522.26	3.746
522.61	2.408
522.95	2.234
523.29	3.636
523.64	2.623
523.98	2.546
524.32	2.828
524.66	2.360
525.01	2.505
525.35	3.351
525.69	2.668
526.04	2.611
526.38	3.628
526.72	2.171
527.06	2.539
527.41	2.508
527.75	1.782
528.09	3.044
528.43	2.295
528.78	2.638
529.12	2.945
529.46	1.740
529.80	2.518
530.15	2.898
530.49	2.652
530.83	3.667
531.17	2.492
531.51	2.545
531.86	3.489
532.20	2.699
532.54	3.877
532.88	3.294
533.22	2.473
533.57	3.003
533.91	2.372
534.25	2.263
534.59	2.936
534.93	1.867
535.27	2.769
535.62	2.877
535.96	3.232
536.30	2.356
536.64	3.851
536.98	2.542
537.32	2.695
537.66	3.598
538.01	2.818
538.35	2.838
538.69	2.807
539.03	3.385
539.37	2.462
539.71	3.536
540.05	3.016
540.39	2.562
540.73	2.764
541.07	2.869
541.42	1.553
541.76	2.259
542.10	4.051
542.44	2.998
542.78	3.256
543.12	1.969
543.46	1.849
543.80	1.338
544.14	2.216
544.48	2.690
544.82	2.368
545.16	2.884
545.50	2.221
545.84	3.338
546.18	2.774
546.52	3.414
546.86	3.490
547.20	2.391
547.54	2.135
547.88	2.721
548.22	2.294
548.56	2.071
548.90	2.898
549.24	2.663
549.58	3.529
549.92	3.110
550.26	2.890
550.60	3.770
550.94	2.628
551.28	3.085
551.62	2.733
551.96	3.039
552.30	2.578
552.64	1.970
552.98	4.064
553.32	1.659
553.66	3.172
554.00	2.772
554.34	2.166
554.68	2.047
555.02	3.039
555.36	2.732
555.69	2.364
556.03	2.947
556.37	2.205
556.71	2.577
557.05	3.400
557.39	2.376
557.73	3.939
558.07	3.090
558.41	1.945
558.75	2.510
559.08	1.634
559.42	2.680
559.76	2.837
560.10	4.251
560.44	3.468
560.78	2.784
561.12	2.830
561.45	2.671
561.79	2.648
562.13	2.805
562.47	2.381
562.81	2.405
563.15	2.239
563.48	2.833
563.82	3.313
564.16	2.028
564.50	3.159
564.84	3.042
565.17	2.321
565.51	3.390
565.85	2.975
566.19	3.623
566.52	2.870
566.86	2.465
567.20	3.511
567.54	3.721
567.88	2.680
568.21	3.132
568.55	2.651
568.89	2.187
569.23	2.730
569.56	2.564
569.90	3.068
570.24	3.307
570.57	3.234
570.91	2.890
571.25	3.113
571.59	3.091
571.92	3.036
572.26	3.026
572.60	2.761
572.93	2.756
573.27	3.018
573.61	2.868
573.95	3.193
574.28	3.081
574.62	3.228
574.96	2.866
575.29	2.973
575.63	3.053
575.97	3.128
576.30	3.015
576.64	3.238
576.98	3.185
577.31	2.813
577.65	3.019
577.98	3.322
578.32	2.820
578.66	2.985
578.99	3.153
579.33	3.115
579.67	2.993
580.00	2.455
580.34	2.740
580.67	2.868
581.01	2.788
581.35	3.093
581.68	2.786
582.02	3.139
582.35	2.682
582.69	3.039
583.02	3.117
583.36	3.170
583.70	2.970
584.03	2.990
584.37	2.598
584.70	2.802
585.04	2.785
585.37	2.649
585.71	3.024
586.04	3.318
586.38	2.807
586.72	3.072
587.05	3.172
587.39	3.332
587.72	3.318
588.06	3.054
588.39	2.791
588.73	3.289
589.06	3.069
589.40	3.367
589.73	3.187
590.07	2.804
590.40	3.358
590.73	2.799
591.07	2.910
591.40	3.120
591.74	3.171
592.07	2.748
592.41	2.463
592.74	3.075
593.08	3.433
593.41	3.026
593.75	2.737
594.08	2.480
594.41	3.290
594.75	3.209
595.08	2.556
595.42	2.746
595.75	2.609
596.09	2.678
596.42	3.519
596.75	2.803
597.09	2.894
597.42	3.536
597.75	2.702
598.09	2.847
598.42	3.447
598.76	2.907
599.09	2.802
599.42	3.037
599.76	2.869
600.09	3.321
600.42	3.304
600.76	3.126
601.09	3.038
601.42	2.612
601.76	3.154
602.09	2.536
602.42	3.251
602.76	2.451
603.09	2.581
603.42	3.223
603.76	3.151
604.09	3.244
604.42	3.039
604.76	2.747
605.09	2.984
605.42	3.280
605.75	2.372
606.09	3.279
606.42	2.723
606.75	2.963
607.09	3.264
607.42	2.729
607.75	2.649
608.08	3.389
608.42	2.696
608.75	2.383
609.08	3.361
609.41	2.740
609.75	2.974
610.08	3.627
610.41	2.602
610.74	3.240
611.07	3.296
611.41	3.076
611.74	3.753
612.07	3.598
612.40	2.665
612.73	3.016
613.07	3.027
613.40	3.339
613.73	2.670
614.06	2.581
614.39	2.931
614.72	2.793
615.06	3.043
615.39	2.930
615.72	2.825
616.05	2.595
616.38	3.076
616.71	2.462
617.05	3.136
617.38	2.724
617.71	2.641
618.04	2.981
618.37	2.390
618.70	3.325
619.03	3.859
619.36	3.171
619.69	2.297
620.03	3.237
620.36	2.743
620.69	3.230
621.02	2.511
621.35	2.742
621.68	2.377
622.01	1.780
622.34	3.183
622.67	1.562
623.00	3.213
623.33	3.433
623.66	1.846
623.99	2.556
624.32	2.827
624.65	3.091
624.99	3.137
625.32	2.320
625.65	2.875
625.98	2.660
626.31	3.589
626.64	2.594
626.97	2.825
627.30	2.043
627.63	1.123
627.96	2.350
628.29	2.114
628.62	2.006
628.95	2.461
629.28	3.102
629.61	2.944
629.94	3.497
630.26	1.988
630.59	3.116
630.92	2.703
631.25	3.730
631.58	2.857
631.91	0.532
632.24	1.667
632.57	2.556
632.90	1.494
633.23	1.986
633.56	1.404
633.89	3.656
634.22	1.417
634.55	2.524
634.88	1.693
635.20	1.124
635.53	2.036
635.86	0.882
636.19	1.954
636.52	3.465
636.85	0.963
637.18	-0.375
637.51	2.850
637.83	2.530
638.16	1.711
638.49	1.517
638.82	2.703
639.15	2.724
639.48	1.686
639.81	3.458
640.13	1.757
640.46	2.707
640.79	2.521
641.12	2.680
641.45	2.296
641.77	0.898
642.10	0.604
642.43	2.580
642.76	1.260
643.09	1.905
643.41	3.333
643.74	2.544
644.07	2.808
644.40	0.972
644.73	3.630
645.05	0.668
645.38	4.305
645.71	3.952
646.04	4.202
646.36	1.396
646.69	0.519
647.02	1.805
647.35	2.347
647.67	0.912
648.00	3.691
648.33	3.373
648.66	0.161
648.98	1.911
649.31	2.308
649.64	2.031
649.96	1.727
650.29	0.328
650.62	3.098
650.94	1.180
651.27	1.386
651.60	2.422
651.92	4.110
652.25	1.669
652.58	-1.533
652.90	2.247
653.23	2.097
653.56	0.669
653.88	1.148
654.21	1.846
654.54	3.322
