SpectraSuite Data File
++++++++++++++++++++++++++++++++++++
Date: Sat May 16 11:09:40 PDT 2015
User: schluterlab
Dark Spectrum Present: Yes
Reference Spectrum Present: Yes
Number of Sampled Component Spectra: 1
Spectrometers: USB2E3373
Integration Time (usec): 3000 (USB2E3373)
Spectra Averaged: 3 (USB2E3373)
Boxcar Smoothing: 0 (USB2E3373)
Correct for Electrical Dark: No (USB2E3373)
Strobe/Lamp Enabled: No (USB2E3373)
Correct for Detector Non-linearity: No (USB2E3373)
Correct for Stray Light: No (USB2E3373)
Number of Pixels in Processed Spectrum: 2048
>>>>>Begin Processed Spectral Data<<<<<
178.53	0.000
178.91	6.667
179.29	166.667
179.67	-200.000
180.04	-46.154
180.42	200.000
180.80	-100.000
181.18	450.000
181.56	112.500
181.94	-300.000
182.31	-100.000
182.69	23.077
183.07	-266.667
183.45	450.000
183.83	133.333
184.20	114.286
184.58	-62.500
184.96	-50.000
185.34	43.750
185.72	-350.000
186.09	116.667
186.47	-62.500
186.85	-25.000
187.23	-25.000
187.61	175.000
187.98	0.000
188.36	37.500
188.74	-25.000
189.12	1000.000
189.49	71.429
189.87	58.333
190.25	150.000
190.63	-35.714
191.00	-77.778
191.38	-20.000
191.76	53.333
192.14	520.000
192.51	-100.000
192.89	100.000
193.27	0.000
193.65	0.000
194.02	-28.571
194.40	-166.667
194.78	-60.000
195.15	500.000
195.53	-90.909
195.91	-116.667
196.29	80.000
196.66	-333.333
197.04	900.000
197.42	-175.000
197.79	66.667
198.17	-433.333
198.55	-50.000
198.92	100.000
199.30	25.000
199.68	-150.000
200.05	33.333
200.43	-22.222
200.81	-300.000
201.18	-58.333
201.56	-57.143
201.94	-13.333
202.31	18.182
202.69	90.000
203.07	0.000
203.44	266.667
203.82	-133.333
204.19	-225.000
204.57	-150.000
204.95	-600.000
205.32	81.250
205.70	700.000
206.08	-500.000
206.45	0.000
206.83	-150.000
207.20	450.000
207.58	-366.667
207.96	-166.667
208.33	-50.000
208.71	-100.000
209.08	90.000
209.46	57.143
209.84	350.000
210.21	0.000
210.59	45.000
210.96	-600.000
211.34	-200.000
211.71	200.000
212.09	-75.000
212.46	-0.000
212.84	-900.000
213.22	400.000
213.59	-8.333
213.97	66.667
214.34	160.000
214.72	40.000
215.09	-200.000
215.47	183.333
215.84	-20.000
216.22	20.000
216.59	53.333
216.97	-200.000
217.34	-0.000
217.72	-28.571
218.09	-66.667
218.47	-142.857
218.84	42.857
219.22	28.571
219.59	0.000
219.97	171.429
220.34	175.000
220.72	137.500
221.09	30.769
221.47	0.000
221.84	66.667
222.22	400.000
222.59	200.000
222.97	-37.500
223.34	-250.000
223.72	-200.000
224.09	50.000
224.46	50.000
224.84	-42.857
225.21	-142.857
225.59	45.455
225.96	12.500
226.34	-71.429
226.71	-22.222
227.08	45.000
227.46	300.000
227.83	-28.571
228.21	-150.000
228.58	-100.000
228.95	18.750
229.33	-200.000
229.70	-100.000
230.08	-50.000
230.45	8.333
230.82	-100.000
231.20	-900.000
231.57	-500.000
231.95	-400.000
232.32	42.857
232.69	-22.222
233.07	-71.429
233.44	-750.000
233.81	-33.333
234.19	-33.333
234.56	56.250
234.93	40.625
235.31	-100.000
235.68	-78.571
236.05	11.765
236.43	0.000
236.80	35.484
237.17	66.667
237.55	14.286
237.92	-50.000
238.29	8.571
238.67	38.235
239.04	27.778
239.41	-12.903
239.79	17.949
240.16	-4.762
240.53	9.091
240.91	41.026
241.28	20.000
241.65	30.769
242.02	3.279
242.40	14.754
242.77	31.818
243.14	10.169
243.51	7.143
243.89	11.392
244.26	19.101
244.63	17.895
245.00	21.053
245.38	22.034
245.75	19.469
246.12	19.200
246.49	18.898
246.87	22.764
247.24	7.627
247.61	16.949
247.98	14.085
248.36	16.783
248.73	18.354
249.10	17.834
249.47	21.053
249.84	25.000
250.22	8.929
250.59	17.514
250.96	21.466
251.33	15.640
251.70	18.269
252.08	23.223
252.45	15.640
252.82	16.667
253.19	20.426
253.56	21.371
253.94	17.722
254.31	22.747
254.68	18.699
255.05	18.145
255.42	17.063
255.79	17.204
256.16	19.608
256.54	20.221
256.91	17.045
257.28	17.216
257.65	18.794
258.02	21.069
258.39	17.726
258.76	17.230
259.14	20.988
259.51	16.393
259.88	17.378
260.25	20.807
260.62	18.971
260.99	16.914
261.36	23.171
261.73	22.543
262.10	20.556
262.47	16.239
262.85	21.714
263.22	17.192
263.59	17.538
263.96	17.971
264.33	19.783
264.70	21.823
265.07	22.527
265.44	18.346
265.81	19.121
266.18	15.949
266.55	17.892
266.92	19.647
267.29	21.550
267.66	21.728
268.03	20.290
268.40	19.718
268.77	20.000
269.14	18.097
269.51	20.230
269.88	15.826
270.25	16.084
270.62	18.535
270.99	20.495
271.36	18.648
271.73	16.368
272.10	19.451
272.47	17.778
272.84	19.556
273.21	23.165
273.58	16.923
273.95	15.789
274.32	19.005
274.69	19.912
275.06	22.699
275.43	16.295
275.80	20.978
276.17	19.456
276.54	20.570
276.91	19.753
277.28	18.864
277.65	17.149
278.02	19.624
278.39	16.306
278.76	19.522
279.13	19.565
279.50	18.688
279.87	18.816
280.23	20.040
280.60	20.278
280.97	17.476
281.34	19.536
281.71	20.000
282.08	19.153
282.45	16.293
282.82	19.961
283.19	19.091
283.56	18.681
283.92	19.788
284.29	19.331
284.66	17.446
285.03	19.964
285.40	17.528
285.77	18.947
286.14	16.606
286.51	16.341
286.87	20.690
287.24	18.259
287.61	18.182
287.98	17.678
288.35	17.025
288.72	16.129
289.08	16.441
289.45	14.310
289.82	16.436
290.19	19.869
290.56	15.868
290.93	15.898
291.29	15.559
291.66	16.103
292.03	18.367
292.40	17.169
292.77	17.391
293.13	16.585
293.50	17.385
293.87	17.638
294.24	17.647
294.60	15.606
294.97	17.299
295.34	14.222
295.71	16.369
296.08	13.671
296.44	14.735
296.81	16.667
297.18	16.056
297.55	16.808
297.91	17.573
298.28	14.110
298.65	16.457
299.02	16.310
299.38	16.444
299.75	15.217
300.12	15.769
300.48	16.368
300.85	16.121
301.22	16.041
301.59	14.824
301.95	16.499
302.32	14.863
302.69	14.933
303.05	15.263
303.42	15.875
303.79	15.789
304.15	15.640
304.52	15.869
304.89	15.702
305.25	15.018
305.62	13.631
305.99	17.432
306.35	16.315
306.72	14.920
307.09	15.323
307.45	15.323
307.82	14.972
308.19	14.318
308.55	15.468
308.92	13.749
309.29	14.595
309.65	15.483
310.02	14.903
310.38	14.054
310.75	15.574
311.12	16.426
311.48	15.031
311.85	15.139
312.22	15.139
312.58	15.972
312.95	14.373
313.31	15.784
313.68	15.678
314.05	16.419
314.41	15.392
314.78	15.485
315.14	15.202
315.51	13.880
315.87	15.973
316.24	14.772
316.61	15.451
316.97	15.423
317.34	14.740
317.70	15.213
318.07	15.858
318.43	15.543
318.80	15.869
319.16	14.728
319.53	13.064
319.89	14.393
320.26	14.804
320.62	15.000
320.99	14.428
321.35	13.892
321.72	14.944
322.08	16.123
322.45	14.950
322.81	16.523
323.18	15.082
323.54	15.712
323.91	16.682
324.27	15.779
324.64	15.996
325.00	14.921
325.37	15.475
325.73	16.010
326.10	14.260
326.46	15.236
326.83	15.404
327.19	15.847
327.56	16.695
327.92	16.058
328.29	16.017
328.65	14.273
329.01	16.696
329.38	16.503
329.74	16.941
330.11	16.228
330.47	15.713
330.84	17.140
331.20	15.884
331.56	16.864
331.93	16.874
332.29	16.164
332.66	17.384
333.02	16.199
333.38	16.935
333.75	16.919
334.11	16.267
334.48	15.711
334.84	17.410
335.20	16.489
335.57	15.884
335.93	18.263
336.29	16.475
336.66	15.507
337.02	17.838
337.38	15.775
337.75	16.155
338.11	15.206
338.47	16.548
338.84	17.332
339.20	16.081
339.56	17.023
339.93	16.755
340.29	15.323
340.65	15.035
341.02	17.116
341.38	16.849
341.74	17.189
342.11	16.297
342.47	16.567
342.83	15.701
343.20	15.969
343.56	16.082
343.92	17.362
344.28	17.325
344.65	15.842
345.01	16.807
345.37	17.525
345.73	16.203
346.10	15.045
346.46	17.384
346.82	16.359
347.19	16.434
347.55	16.453
347.91	16.535
348.27	15.831
348.63	16.478
349.00	16.070
349.36	15.301
349.72	16.083
350.08	16.199
350.45	15.839
350.81	16.401
351.17	15.756
351.53	15.274
351.89	15.926
352.26	16.124
352.62	17.051
352.98	16.614
353.34	16.547
353.70	16.448
354.07	17.073
354.43	17.075
354.79	15.769
355.15	16.214
355.51	17.422
355.87	16.364
356.24	15.965
356.60	17.647
356.96	16.782
357.32	15.519
357.68	16.398
358.04	15.935
358.40	15.700
358.77	15.611
359.13	17.215
359.49	16.478
359.85	16.616
360.21	15.449
360.57	17.319
360.93	16.222
361.29	16.741
361.66	15.625
362.02	16.050
362.38	17.095
362.74	17.070
363.10	15.280
363.46	16.168
363.82	16.837
364.18	15.847
364.54	17.584
364.90	16.562
365.26	16.405
365.62	17.676
365.98	17.212
366.35	17.113
366.71	16.702
367.07	17.572
367.43	18.394
367.79	17.113
368.15	16.572
368.51	17.203
368.87	17.376
369.23	16.842
369.59	16.667
369.95	16.984
370.31	17.229
370.67	15.763
371.03	16.618
371.39	16.690
371.75	17.525
372.11	16.571
372.47	16.486
372.83	17.316
373.19	16.643
373.55	17.452
373.91	17.070
374.27	18.549
374.63	17.805
374.99	17.524
375.35	17.429
375.71	18.163
376.07	18.344
376.42	16.424
376.78	18.039
377.14	17.492
377.50	18.311
377.86	17.360
378.22	17.902
378.58	16.677
378.94	17.201
379.30	17.733
379.66	17.547
380.02	17.825
380.38	17.825
380.74	17.116
381.09	18.278
381.45	18.735
381.81	17.181
382.17	18.170
382.53	17.204
382.89	17.285
383.25	17.760
383.61	17.512
383.97	17.330
384.32	17.084
384.68	18.440
385.04	17.814
385.40	17.894
385.76	18.110
386.12	17.926
386.48	18.441
386.83	18.589
387.19	18.231
387.55	17.747
387.91	18.317
388.27	17.008
388.62	17.728
388.98	17.020
389.34	18.666
389.70	18.575
390.06	17.402
390.42	18.397
390.77	17.350
391.13	19.068
391.49	17.904
391.85	18.142
392.20	18.629
392.56	17.349
392.92	17.969
393.28	18.255
393.64	18.160
393.99	18.154
394.35	18.613
394.71	18.530
395.07	18.895
395.42	17.163
395.78	17.599
396.14	18.816
396.50	18.654
396.85	17.582
397.21	18.408
397.57	18.663
397.92	17.681
398.28	18.778
398.64	17.965
399.00	18.427
399.35	18.095
399.71	18.002
400.07	18.209
400.42	18.796
400.78	17.412
401.14	17.485
401.49	17.925
401.85	18.731
402.21	18.594
402.57	18.143
402.92	18.439
403.28	18.076
403.63	17.136
403.99	17.961
404.35	17.512
404.70	17.964
405.06	18.281
405.42	17.835
405.77	17.534
406.13	17.604
406.49	18.035
406.84	17.516
407.20	18.375
407.55	17.543
407.91	17.746
408.27	17.953
408.62	17.980
408.98	17.465
409.34	17.428
409.69	17.769
410.05	17.465
410.40	16.861
410.76	18.435
411.11	18.142
411.47	17.711
411.83	18.154
412.18	17.636
412.54	17.328
412.89	18.287
413.25	17.001
413.60	17.740
413.96	17.067
414.31	17.737
414.67	17.460
415.03	17.982
415.38	17.697
415.74	18.041
416.09	17.327
416.45	17.989
416.80	18.010
417.16	17.010
417.51	18.647
417.87	17.735
418.22	18.268
418.58	17.266
418.93	18.945
419.29	18.319
419.64	18.844
420.00	18.712
420.35	18.391
420.71	17.767
421.06	18.462
421.42	17.506
421.77	18.090
422.12	17.571
422.48	18.012
422.83	18.907
423.19	18.040
423.54	18.098
423.90	18.219
424.25	18.665
424.61	19.300
424.96	20.070
425.31	19.229
425.67	18.968
426.02	18.130
426.38	19.177
426.73	19.170
427.09	19.056
427.44	19.773
427.79	18.372
428.15	20.168
428.50	18.827
428.85	20.084
429.21	18.871
429.56	19.740
429.92	19.339
430.27	19.641
430.62	19.540
430.98	19.028
431.33	19.957
431.68	19.893
432.04	19.754
432.39	19.715
432.74	19.484
433.10	19.921
433.45	20.035
433.80	19.261
434.16	19.721
434.51	19.671
434.86	19.801
435.22	20.434
435.57	20.073
435.92	19.988
436.28	20.831
436.63	19.729
436.98	20.103
437.34	20.673
437.69	20.070
438.04	20.306
438.39	19.735
438.75	19.849
439.10	20.822
439.45	20.036
439.81	20.301
440.16	20.670
440.51	20.471
440.86	19.665
441.22	20.951
441.57	20.947
441.92	20.102
442.27	20.346
442.63	20.440
442.98	20.034
443.33	21.746
443.68	20.532
444.03	20.874
444.39	20.656
444.74	21.751
445.09	20.559
445.44	20.878
445.79	21.520
446.15	20.920
446.50	19.978
446.85	20.472
447.20	21.042
447.55	20.387
447.91	21.954
448.26	20.670
448.61	20.883
448.96	21.737
449.31	20.180
449.66	21.065
450.02	20.609
450.37	20.696
450.72	20.960
451.07	21.433
451.42	20.570
451.77	21.843
452.12	20.620
452.47	21.474
452.83	21.374
453.18	21.316
453.53	20.771
453.88	22.309
454.23	21.100
454.58	22.063
454.93	21.977
455.28	20.778
455.63	21.744
455.98	21.145
456.34	21.410
456.69	22.201
457.04	21.881
457.39	20.754
457.74	21.618
458.09	21.868
458.44	22.229
458.79	20.572
459.14	22.362
459.49	22.617
459.84	21.529
460.19	21.062
460.54	21.839
460.89	21.132
461.24	21.129
461.59	20.926
461.94	22.470
462.29	22.335
462.64	22.003
462.99	22.289
463.34	21.810
463.69	22.010
464.04	20.797
464.39	21.446
464.74	21.572
465.09	21.708
465.44	21.602
465.79	22.786
466.14	21.807
466.49	21.762
466.84	22.029
467.19	22.506
467.54	20.886
467.89	21.517
468.24	22.150
468.59	22.673
468.94	21.929
469.29	21.572
469.64	22.305
469.99	21.945
470.34	21.443
470.68	22.674
471.03	22.092
471.38	20.833
471.73	21.399
472.08	22.289
472.43	21.557
472.78	22.133
473.13	20.610
473.48	21.251
473.83	22.146
474.17	21.847
474.52	23.274
474.87	21.562
475.22	21.121
475.57	21.833
475.92	21.706
476.27	21.714
476.61	21.352
476.96	22.303
477.31	22.443
477.66	21.527
478.01	21.880
478.36	21.477
478.70	22.691
479.05	22.661
479.40	21.710
479.75	21.713
480.10	21.528
480.45	21.180
480.79	22.458
481.14	22.228
481.49	22.798
481.84	21.590
482.19	22.704
482.53	22.112
482.88	22.449
483.23	22.300
483.58	23.080
483.92	22.074
484.27	21.356
484.62	21.555
484.97	21.590
485.31	21.216
485.66	21.000
486.01	21.011
486.36	21.403
486.70	21.980
487.05	21.333
487.40	22.035
487.75	22.263
488.09	21.989
488.44	22.835
488.79	22.816
489.13	23.203
489.48	22.879
489.83	22.576
490.17	22.987
490.52	22.328
490.87	23.233
491.22	21.719
491.56	21.759
491.91	22.185
492.26	22.028
492.60	22.312
492.95	22.370
493.30	22.296
493.64	22.708
493.99	21.845
494.34	22.619
494.68	23.081
495.03	21.989
495.37	21.878
495.72	22.839
496.07	22.243
496.41	22.788
496.76	22.329
497.11	22.562
497.45	23.132
497.80	22.711
498.14	22.299
498.49	21.748
498.84	21.748
499.18	23.051
499.53	22.114
499.87	21.332
500.22	22.941
500.56	22.561
500.91	22.759
501.26	23.387
501.60	22.244
501.95	22.319
502.29	22.012
502.64	23.244
502.98	21.802
503.33	22.603
503.67	22.174
504.02	22.163
504.36	22.696
504.71	21.986
505.06	22.167
505.40	23.453
505.75	22.917
506.09	23.357
506.44	22.807
506.78	22.579
507.13	22.400
507.47	23.213
507.82	23.232
508.16	23.005
508.51	22.205
508.85	22.205
509.19	22.501
509.54	22.199
509.88	23.511
510.23	22.642
510.57	22.963
510.92	23.738
511.26	22.435
511.61	22.246
511.95	22.198
512.30	22.485
512.64	22.482
512.98	23.157
513.33	23.833
513.67	23.339
514.02	22.427
514.36	23.435
514.70	22.920
515.05	22.927
515.39	22.491
515.74	23.386
516.08	22.709
516.42	22.606
516.77	22.473
517.11	22.826
517.46	23.684
517.80	22.262
518.14	22.162
518.49	23.431
518.83	23.739
519.17	23.327
519.52	22.325
519.86	24.194
520.20	23.716
520.55	23.692
520.89	21.979
521.23	23.443
521.58	23.135
521.92	22.989
522.26	23.492
522.61	22.370
522.95	22.591
523.29	22.884
523.64	23.048
523.98	22.724
524.32	23.444
524.66	22.112
525.01	23.378
525.35	23.067
525.69	23.748
526.04	22.977
526.38	22.597
526.72	22.478
527.06	23.633
527.41	23.300
527.75	22.640
528.09	23.163
528.43	22.689
528.78	23.618
529.12	23.688
529.46	24.098
529.80	22.918
530.15	22.859
530.49	24.062
530.83	23.969
531.17	22.694
531.51	22.706
531.86	23.502
532.20	23.347
532.54	24.064
532.88	23.518
533.22	22.259
533.57	23.172
533.91	21.598
534.25	22.313
534.59	22.548
534.93	22.153
535.27	23.096
535.62	23.210
535.96	22.883
536.30	22.644
536.64	22.510
536.98	23.164
537.32	23.704
537.66	23.082
538.01	23.024
538.35	23.243
538.69	22.995
539.03	23.561
539.37	23.420
539.71	23.149
540.05	23.167
540.39	23.130
540.73	23.497
541.07	23.224
541.42	22.687
541.76	21.528
542.10	24.105
542.44	23.451
542.78	22.727
543.12	22.539
543.46	21.849
543.80	21.806
544.14	22.431
544.48	22.638
544.82	22.598
545.16	23.273
545.50	22.948
545.84	22.949
546.18	22.954
546.52	23.329
546.86	23.647
547.20	23.699
547.54	22.796
547.88	22.163
548.22	22.543
548.56	22.912
548.90	23.113
549.24	22.915
549.58	23.218
549.92	23.039
550.26	24.928
550.60	22.617
550.94	23.139
551.28	23.175
551.62	23.412
551.96	23.155
552.30	22.648
552.64	22.590
552.98	23.826
553.32	21.789
553.66	23.504
554.00	22.957
554.34	22.383
554.68	22.442
555.02	23.517
555.36	22.430
555.69	22.206
556.03	23.018
556.37	23.898
556.71	24.123
557.05	23.947
557.39	21.752
557.73	23.049
558.07	22.532
558.41	22.588
558.75	23.346
559.08	21.790
559.42	22.741
559.76	23.006
560.10	23.565
560.44	23.916
560.78	23.312
561.12	23.119
561.45	22.740
561.79	23.275
562.13	22.721
562.47	22.339
562.81	22.489
563.15	22.883
563.48	24.119
563.82	22.786
564.16	23.056
564.50	23.118
564.84	23.413
565.17	23.143
565.51	23.012
565.85	22.921
566.19	23.254
566.52	23.157
566.86	23.578
567.20	23.729
567.54	23.804
567.88	22.390
568.21	22.987
568.55	22.534
568.89	22.266
569.23	22.490
569.56	21.900
569.90	22.777
570.24	22.135
570.57	21.687
570.91	23.019
571.25	22.503
571.59	22.947
571.92	22.202
572.26	22.528
572.60	22.681
572.93	22.267
573.27	21.982
573.61	21.709
573.95	21.980
574.28	22.009
574.62	22.420
574.96	21.984
575.29	22.205
575.63	22.405
575.97	21.791
576.30	22.527
576.64	21.880
576.98	21.971
577.31	21.907
577.65	22.277
577.98	22.068
578.32	22.101
578.66	21.512
578.99	22.164
579.33	22.205
579.67	22.064
580.00	22.396
580.34	22.432
580.67	22.555
581.01	22.144
581.35	22.365
581.68	21.851
582.02	22.214
582.35	22.304
582.69	22.580
583.02	22.259
583.36	22.664
583.70	22.581
584.03	23.087
584.37	22.896
584.70	22.575
585.04	22.709
585.37	22.673
585.71	22.448
586.04	22.138
586.38	22.454
586.72	22.914
587.05	22.741
587.39	22.671
587.72	22.511
588.06	22.834
588.39	22.444
588.73	23.295
589.06	22.794
589.40	23.806
589.73	23.548
590.07	22.797
590.40	22.878
590.73	22.551
591.07	23.033
591.40	23.397
591.74	23.110
592.07	22.928
592.41	23.312
592.74	22.944
593.08	22.966
593.41	22.270
593.75	22.288
594.08	22.502
594.41	23.290
594.75	23.481
595.08	22.932
595.42	22.327
595.75	22.639
596.09	22.584
596.42	23.077
596.75	23.717
597.09	23.642
597.42	22.916
597.75	23.384
598.09	23.181
598.42	23.199
598.76	22.176
599.09	22.415
599.42	22.645
599.76	22.537
600.09	22.443
600.42	22.902
600.76	22.335
601.09	22.788
601.42	22.833
601.76	23.248
602.09	23.108
602.42	23.210
602.76	22.933
603.09	22.742
603.42	23.529
603.76	23.055
604.09	22.747
604.42	22.856
604.76	22.372
605.09	23.146
605.42	23.493
605.75	22.941
606.09	22.914
606.42	22.916
606.75	23.315
607.09	23.158
607.42	23.019
607.75	22.693
608.08	23.452
608.42	23.179
608.75	22.617
609.08	22.991
609.41	22.870
609.75	22.379
610.08	23.676
610.41	23.325
610.74	23.791
611.07	24.189
611.41	22.189
611.74	24.010
612.07	23.953
612.40	23.188
612.73	22.994
613.07	23.005
613.40	22.989
613.73	22.943
614.06	24.108
614.39	23.337
614.72	22.737
615.06	23.587
615.39	23.006
615.72	23.954
616.05	22.584
616.38	23.738
616.71	22.943
617.05	24.005
617.38	23.839
617.71	22.727
618.04	23.789
618.37	22.893
618.70	23.859
619.03	23.697
619.36	23.820
619.69	23.546
620.03	22.796
620.36	22.785
620.69	23.618
621.02	24.962
621.35	23.871
621.68	22.787
622.01	23.706
622.34	23.214
622.67	23.047
623.00	23.183
623.33	23.507
623.66	22.895
623.99	23.383
624.32	23.140
624.65	23.547
624.99	23.824
625.32	23.952
625.65	23.621
625.98	23.944
626.31	24.144
626.64	24.519
626.97	24.144
627.30	23.660
627.63	22.366
627.96	23.847
628.29	25.276
628.62	24.737
628.95	23.720
629.28	23.872
629.61	23.749
629.94	24.386
630.26	23.956
630.59	24.322
630.92	23.123
631.25	24.294
631.58	25.820
631.91	22.021
632.24	24.889
632.57	24.333
632.90	24.253
633.23	23.364
633.56	23.509
