SpectraSuite Data File
++++++++++++++++++++++++++++++++++++
Date: Sat May 16 11:31:01 PDT 2015
User: schluterlab
Dark Spectrum Present: Yes
Reference Spectrum Present: Yes
Number of Sampled Component Spectra: 1
Spectrometers: USB2E3373
Integration Time (usec): 3000 (USB2E3373)
Spectra Averaged: 3 (USB2E3373)
Boxcar Smoothing: 0 (USB2E3373)
Correct for Electrical Dark: No (USB2E3373)
Strobe/Lamp Enabled: No (USB2E3373)
Correct for Detector Non-linearity: No (USB2E3373)
Correct for Stray Light: No (USB2E3373)
Number of Pixels in Processed Spectrum: 2048
>>>>>Begin Processed Spectral Data<<<<<
178.53	0.000
178.91	80.000
179.29	200.000
179.67	-600.000
180.04	-61.538
180.42	700.000
180.80	400.000
181.18	375.000
181.56	-200.000
181.94	600.000
182.31	525.000
182.69	-123.077
183.07	-400.000
183.45	1000.000
183.83	366.667
184.20	-157.143
184.58	-125.000
184.96	-100.000
185.34	125.000
185.72	-375.000
186.09	266.667
186.47	-137.500
186.85	-212.500
187.23	-200.000
187.61	-200.000
187.98	-275.000
188.36	-25.000
188.74	-237.500
189.12	1600.000
189.49	228.571
189.87	-8.333
190.25	200.000
190.63	-92.857
191.00	-266.667
191.38	500.000
191.76	-46.667
192.14	480.000
192.51	-140.000
192.89	-466.667
193.27	0.000
193.65	-166.667
194.02	-157.143
194.40	733.333
194.78	-100.000
195.15	-900.000
195.53	-200.000
195.91	-366.667
196.29	240.000
196.66	-366.667
197.04	1300.000
197.42	-200.000
197.79	13.333
198.17	-800.000
198.55	-850.000
198.92	-1500.000
199.30	287.500
199.68	-200.000
200.05	-166.667
200.43	-177.778
200.81	-1700.000
201.18	-91.667
201.56	200.000
201.94	46.667
202.31	-9.091
202.69	90.000
203.07	-30.000
203.44	566.667
203.82	-350.000
204.19	-150.000
204.57	-100.000
204.95	-2000.000
205.32	-43.750
205.70	500.000
206.08	-2100.000
206.45	-94.444
206.83	-850.000
207.20	-100.000
207.58	-500.000
207.96	-533.333
208.33	-162.500
208.71	-222.222
209.08	260.000
209.46	-314.286
209.84	1050.000
210.21	0.000
210.59	50.000
210.96	1800.000
211.34	-350.000
211.71	-266.667
212.09	325.000
212.46	1100.000
212.84	-2400.000
213.22	633.333
213.59	75.000
213.97	-33.333
214.34	220.000
214.72	-190.000
215.09	-133.333
215.47	-233.333
215.84	-50.000
216.22	-110.000
216.59	0.000
216.97	-375.000
217.34	1350.000
217.72	-114.286
218.09	-350.000
218.47	-214.286
218.84	342.857
219.22	-242.857
219.59	0.000
219.97	242.857
220.34	425.000
220.72	275.000
221.09	-84.615
221.47	0.000
221.84	200.000
222.22	-350.000
222.59	1200.000
222.97	-212.500
223.34	-500.000
223.72	-500.000
224.09	-121.429
224.46	-575.000
224.84	-107.143
225.21	-271.429
225.59	-109.091
225.96	-212.500
226.34	-57.143
226.71	-77.778
227.08	-20.000
227.46	1600.000
227.83	-328.571
228.21	-237.500
228.58	1000.000
228.95	-18.750
229.33	-1400.000
229.70	-420.000
230.08	-850.000
230.45	-116.667
230.82	-200.000
231.20	-2000.000
231.57	-800.000
231.95	1200.000
232.32	0.000
232.69	-77.778
233.07	-157.143
233.44	-900.000
233.81	-60.000
234.19	-233.333
234.56	-56.250
234.93	28.125
235.31	-157.143
235.68	-64.286
236.05	-76.471
236.43	-50.000
236.80	-32.258
237.17	-37.500
237.55	-57.143
237.92	-95.455
238.29	-20.000
238.67	-5.882
239.04	2.778
239.41	-41.935
239.79	-38.462
240.16	-35.714
240.53	-30.909
240.91	-20.513
241.28	-7.273
241.65	3.077
242.02	-14.754
242.40	-29.508
242.77	-24.242
243.14	-22.034
243.51	-25.714
243.89	-12.658
244.26	-11.236
244.63	-10.526
245.00	-18.947
245.38	-2.542
245.75	-2.655
246.12	4.800
246.49	-8.661
246.87	-13.821
247.24	-17.797
247.61	-1.695
247.98	-4.930
248.36	-6.993
248.73	0.633
249.10	-1.274
249.47	1.754
249.84	-2.841
250.22	-10.714
250.59	-1.130
250.96	-6.283
251.33	0.948
251.70	1.923
252.08	-4.265
252.45	-4.265
252.82	-4.286
253.19	0.426
253.56	-0.806
253.94	-5.485
254.31	-1.288
254.68	3.252
255.05	-7.258
255.42	1.190
255.79	-1.075
256.16	0.000
256.54	2.574
256.91	0.000
257.28	-1.099
257.65	-0.709
258.02	1.887
258.39	0.000
258.76	-4.392
259.14	-1.852
259.51	0.656
259.88	-1.524
260.25	1.553
260.62	-1.929
260.99	-3.561
261.36	1.829
261.73	1.445
262.10	2.500
262.47	-1.140
262.85	2.857
263.22	-0.860
263.59	-1.846
263.96	-1.739
264.33	1.355
264.70	-1.657
265.07	0.549
265.44	-0.775
265.81	1.034
266.18	-2.278
266.55	-0.490
266.92	2.267
267.29	1.937
267.66	1.235
268.03	2.899
268.40	0.235
268.77	3.373
269.14	-1.160
269.51	1.839
269.88	-1.606
270.25	-0.233
270.62	1.373
270.99	2.252
271.36	1.865
271.73	1.570
272.10	-2.517
272.47	0.444
272.84	1.333
273.21	2.523
273.58	1.978
273.95	-0.877
274.32	0.679
274.69	1.313
275.06	0.818
275.43	0.893
275.80	2.851
276.17	-1.464
276.54	0.611
276.91	1.440
277.28	0.406
277.65	0.413
278.02	-0.835
278.39	0.000
278.76	2.988
279.13	0.791
279.50	0.596
279.87	0.846
280.23	3.036
280.60	-0.398
280.97	0.777
281.34	-0.387
281.71	2.885
282.08	0.000
282.45	-2.648
282.82	0.388
283.19	-1.091
283.56	2.015
283.92	1.767
284.29	-0.743
284.66	0.899
285.03	1.248
285.40	0.738
285.77	0.877
286.14	0.903
286.51	1.243
286.87	0.544
287.24	0.512
287.61	1.322
287.98	2.773
288.35	-0.661
288.72	0.170
289.08	-0.847
289.45	1.852
289.82	-0.519
290.19	3.284
290.56	-0.331
290.93	2.067
291.29	0.648
291.66	0.161
292.03	1.413
292.40	1.958
292.77	1.553
293.13	1.463
293.50	1.634
293.87	1.994
294.24	0.905
294.60	0.152
294.97	3.035
295.34	1.037
295.71	1.786
296.08	-0.614
296.44	1.144
296.81	0.000
297.18	0.000
297.55	4.237
297.91	3.347
298.28	1.096
298.65	0.558
299.02	4.011
299.38	1.337
299.75	2.038
300.12	2.692
300.48	3.069
300.85	1.180
301.22	2.846
301.59	3.381
301.95	4.282
302.32	1.565
302.69	3.550
303.05	3.053
303.42	2.750
303.79	1.794
304.15	2.725
304.52	4.084
304.89	2.243
305.25	1.709
305.62	3.055
305.99	2.945
306.35	3.774
306.72	0.911
307.09	3.746
307.45	3.065
307.82	3.017
308.19	3.356
308.55	3.813
308.92	2.363
309.29	3.243
309.65	3.181
310.02	4.104
310.38	2.919
310.75	4.611
311.12	5.165
311.48	4.280
311.85	4.016
312.22	4.119
312.58	6.612
312.95	3.262
313.31	5.195
313.68	5.427
314.05	5.341
314.41	4.326
314.78	4.895
315.14	5.726
315.51	5.066
315.87	5.518
316.24	6.317
316.61	6.046
316.97	6.766
317.34	6.647
317.70	7.050
318.07	8.302
318.43	5.899
318.80	9.296
319.16	6.848
319.53	7.237
319.89	7.056
320.26	7.353
320.62	7.788
320.99	8.458
321.35	7.389
321.72	7.472
322.08	8.210
322.45	7.228
322.81	8.069
323.18	10.086
323.54	9.889
323.91	10.751
324.27	9.601
324.64	9.415
325.00	11.082
325.37	11.131
325.73	12.598
326.10	9.566
326.46	11.384
326.83	11.234
327.19	12.093
327.56	12.606
327.92	13.679
328.29	12.121
328.65	11.182
329.01	12.633
329.38	12.400
329.74	13.187
330.11	14.143
330.47	12.716
330.84	14.757
331.20	13.809
331.56	13.856
331.93	14.654
332.29	14.064
332.66	13.784
333.02	13.665
333.38	14.247
333.75	15.494
334.11	15.467
334.48	13.151
334.84	15.748
335.20	13.387
335.57	15.523
335.93	16.204
336.29	15.235
336.66	14.097
337.02	16.126
337.38	14.973
337.75	13.960
338.11	15.385
338.47	15.569
338.84	13.793
339.20	15.026
339.56	16.845
339.93	15.256
340.29	14.526
340.65	15.385
341.02	15.177
341.38	15.164
341.74	15.580
342.11	14.505
342.47	15.451
342.83	16.037
343.20	15.628
343.56	14.204
343.92	15.526
344.28	16.232
344.65	15.182
345.01	14.202
345.37	15.864
345.73	14.730
346.10	13.737
346.46	14.460
346.82	14.354
347.19	14.215
347.55	15.008
347.91	15.354
348.27	14.399
348.63	16.478
349.00	16.388
349.36	13.505
349.72	15.525
350.08	14.916
350.45	14.736
350.81	15.366
351.17	13.666
351.53	14.797
351.89	15.036
352.26	15.116
352.62	16.436
352.98	15.348
353.34	15.508
353.70	14.595
354.07	15.578
354.43	15.573
354.79	15.055
355.15	14.297
355.51	15.000
355.87	14.941
356.24	14.535
356.60	15.471
356.96	15.704
357.32	14.489
357.68	14.559
358.04	15.012
358.40	14.540
358.77	14.606
359.13	15.226
359.49	15.117
359.85	15.168
360.21	15.753
360.57	15.813
360.93	15.630
361.29	15.396
361.66	15.244
362.02	14.793
362.38	15.481
362.74	15.165
363.10	15.280
363.46	16.311
363.82	15.816
364.18	15.702
364.54	17.012
364.90	15.514
365.26	15.193
365.62	16.750
365.98	16.643
366.35	16.479
366.71	15.645
367.07	15.737
367.43	17.364
367.79	16.289
368.15	15.647
368.51	16.853
368.87	16.071
369.23	16.421
369.59	17.153
369.95	16.702
370.31	18.073
370.67	16.124
371.03	16.983
371.39	15.842
371.75	16.738
372.11	17.432
372.47	16.341
372.83	17.663
373.19	17.214
373.55	18.227
373.91	17.212
374.27	17.864
374.63	17.736
374.99	17.942
375.35	17.699
375.71	18.231
376.07	17.659
376.42	17.483
376.78	18.301
377.14	17.695
377.50	19.471
377.86	18.661
378.22	18.467
378.58	18.345
378.94	17.386
379.30	19.561
379.66	18.154
380.02	18.954
380.38	19.940
380.74	18.757
381.09	19.098
381.45	19.093
381.81	19.117
382.17	19.486
382.53	19.088
382.89	19.916
383.25	19.446
383.61	21.285
383.97	20.086
384.32	20.025
384.68	20.979
385.04	20.652
385.40	20.146
385.76	20.549
386.12	20.924
386.48	21.968
386.83	20.920
387.19	21.219
387.55	21.078
387.91	21.340
388.27	21.291
388.62	21.034
388.98	20.533
389.34	21.603
389.70	20.889
390.06	20.883
390.42	21.090
390.77	21.451
391.13	21.491
391.49	22.271
391.85	22.319
392.20	22.573
392.56	21.869
392.92	21.449
393.28	22.273
393.64	22.670
393.99	22.462
394.35	23.114
394.71	22.730
395.07	22.536
395.42	22.229
395.78	22.187
396.14	23.676
396.50	23.119
396.85	23.196
397.21	22.539
397.57	23.100
397.92	22.658
398.28	23.444
398.64	23.260
399.00	23.708
399.35	23.563
399.71	24.506
400.07	24.657
400.42	23.601
400.78	23.673
401.14	23.353
401.49	23.408
401.85	23.612
402.21	24.076
402.57	23.726
402.92	24.418
403.28	23.529
403.63	23.247
403.99	24.301
404.35	24.336
404.70	24.810
405.06	24.971
405.42	23.493
405.77	24.378
406.13	23.850
406.49	24.446
406.84	23.695
407.20	25.736
407.55	24.763
407.91	24.093
408.27	25.000
408.62	24.534
408.98	24.924
409.34	24.254
409.69	24.638
410.05	24.864
410.40	25.199
410.76	25.963
411.11	24.501
411.47	23.977
411.83	25.244
412.18	25.000
412.54	24.710
412.89	25.091
413.25	24.144
413.60	25.030
413.96	24.584
414.31	25.749
414.67	25.524
415.03	24.968
415.38	25.309
415.74	25.451
416.09	25.320
416.45	25.926
416.80	25.878
417.16	25.714
417.51	26.461
417.87	25.566
418.22	26.675
418.58	25.802
418.93	25.751
419.29	26.098
419.64	25.188
420.00	26.914
420.35	26.198
420.71	26.291
421.06	26.746
421.42	25.468
421.77	25.516
422.12	25.797
422.48	26.724
422.83	26.481
423.19	27.004
423.54	26.916
423.90	26.952
424.25	26.584
424.61	27.744
424.96	27.443
425.31	26.942
425.67	26.991
426.02	26.563
426.38	27.405
426.73	27.177
427.09	26.961
427.44	27.898
427.79	26.860
428.15	27.289
428.50	27.683
428.85	27.578
429.21	27.283
429.56	28.594
429.92	27.104
430.27	28.365
430.62	28.422
430.98	27.026
431.33	27.801
431.68	27.560
432.04	28.595
432.39	28.490
432.74	28.897
433.10	28.700
433.45	28.267
433.80	29.283
434.16	28.694
434.51	28.493
434.86	29.525
435.22	28.842
435.57	28.335
435.92	29.191
436.28	28.783
436.63	29.395
436.98	28.751
437.34	29.120
437.69	29.522
438.04	28.417
438.39	29.483
438.75	28.289
439.10	28.873
439.45	29.692
439.81	30.241
440.16	29.074
440.51	29.647
440.86	29.092
441.22	29.630
441.57	29.316
441.92	29.412
442.27	29.600
442.63	30.043
442.98	29.571
443.33	29.654
443.68	30.693
444.03	29.764
444.39	29.613
444.74	30.066
445.09	30.263
445.44	30.219
445.79	30.495
446.15	30.230
446.50	30.430
446.85	29.913
447.20	29.622
447.55	30.994
447.91	30.938
448.26	28.994
448.61	29.655
448.96	31.036
449.31	29.932
449.66	30.052
450.02	30.083
450.37	30.899
450.72	30.452
451.07	30.861
451.42	30.421
451.77	29.623
452.12	31.108
452.47	30.542
452.83	30.227
453.18	31.309
453.53	31.468
453.88	31.100
454.23	30.351
454.58	31.075
454.93	30.856
455.28	30.656
455.63	31.327
455.98	31.627
456.34	30.432
456.69	32.208
457.04	31.039
457.39	31.041
457.74	31.187
458.09	30.568
458.44	32.506
458.79	30.998
459.14	32.059
459.49	31.024
459.84	30.972
460.19	32.160
460.54	30.792
460.89	31.446
461.24	31.087
461.59	30.539
461.94	31.254
462.29	32.162
462.64	32.148
462.99	32.262
463.34	31.465
463.69	32.061
464.04	30.873
464.39	30.227
464.74	30.969
465.09	30.247
465.44	30.739
465.79	31.528
466.14	31.933
466.49	32.355
466.84	31.873
467.19	31.546
467.54	31.392
467.89	32.799
468.24	31.413
468.59	31.793
468.94	30.804
469.29	31.384
469.64	32.143
469.99	32.748
470.34	31.997
470.68	32.267
471.03	32.897
471.38	32.014
471.73	33.077
472.08	32.396
472.43	31.338
472.78	32.400
473.13	32.339
473.48	32.163
473.83	32.010
474.17	31.911
474.52	32.737
474.87	32.284
475.22	31.976
475.57	31.889
475.92	31.371
476.27	31.143
476.61	32.563
476.96	31.973
477.31	32.508
477.66	32.153
478.01	33.063
478.36	31.954
478.70	32.568
479.05	32.180
479.40	31.969
479.75	31.346
480.10	31.002
480.45	30.899
480.79	32.034
481.14	32.715
481.49	32.769
481.84	31.854
482.19	32.983
482.53	32.481
482.88	32.463
483.23	31.690
483.58	32.285
483.92	33.158
484.27	31.724
484.62	32.786
484.97	32.229
485.31	30.592
485.66	30.261
486.01	31.213
486.36	31.922
486.70	32.601
487.05	31.671
487.40	31.918
487.75	31.555
488.09	31.223
488.44	32.307
488.79	31.411
489.13	31.609
489.48	32.300
489.83	32.271
490.17	31.389
490.52	32.201
490.87	31.316
491.22	31.574
491.56	32.269
491.91	32.920
492.26	32.170
492.60	32.065
492.95	32.461
493.30	32.349
493.64	31.970
493.99	32.696
494.34	32.667
494.68	32.959
495.03	32.170
495.37	31.711
495.72	32.269
496.07	33.365
496.41	33.071
496.76	31.735
497.11	32.219
497.45	32.711
497.80	32.566
498.14	32.318
498.49	32.496
498.84	31.505
499.18	32.651
499.53	32.538
499.87	31.515
500.22	32.451
500.56	32.516
500.91	32.463
501.26	32.072
501.60	31.103
501.95	32.754
502.29	32.026
502.64	32.107
502.98	32.487
503.33	31.156
503.67	31.657
504.02	31.627
504.36	32.598
504.71	31.611
505.06	31.503
505.40	32.834
505.75	32.724
506.09	32.154
506.44	32.281
506.78	31.811
507.13	31.462
507.47	32.290
507.82	32.473
508.16	32.383
508.51	31.891
508.85	32.039
509.19	32.077
509.54	31.025
509.88	32.979
510.23	32.495
510.57	33.280
510.92	33.029
511.26	32.217
511.61	32.181
511.95	32.004
512.30	32.106
512.64	32.999
512.98	33.168
513.33	31.576
513.67	31.714
514.02	32.942
514.36	32.133
514.70	32.598
515.05	31.732
515.39	32.468
515.74	33.101
516.08	32.277
516.42	31.785
516.77	31.427
517.11	32.609
517.46	33.612
517.80	33.574
518.14	31.824
518.49	32.995
518.83	32.878
519.17	32.031
519.52	31.579
519.86	33.632
520.20	32.946
520.55	33.046
520.89	32.248
521.23	33.455
521.58	31.850
521.92	32.932
522.26	32.889
522.61	32.383
522.95	32.036
523.29	33.856
523.64	33.104
523.98	32.782
524.32	32.307
524.66	32.236
525.01	32.306
525.35	33.441
525.69	32.921
526.04	33.225
526.38	33.227
526.72	32.120
527.06	31.966
527.41	32.937
527.75	31.947
528.09	32.561
528.43	31.869
528.78	31.972
529.12	32.138
529.46	32.152
529.80	32.795
530.15	32.518
530.49	32.277
530.83	33.202
531.17	31.785
531.51	32.485
531.86	32.719
532.20	32.321
532.54	32.353
532.88	31.621
533.22	32.955
533.57	32.833
533.91	32.272
534.25	31.741
534.59	32.542
534.93	31.363
535.27	32.536
535.62	32.417
535.96	32.127
536.30	30.825
536.64	32.736
536.98	32.415
537.32	32.343
537.66	32.722
538.01	32.165
538.35	33.108
538.69	31.818
539.03	31.957
539.37	31.737
539.71	31.821
540.05	31.666
540.39	32.271
540.73	31.790
541.07	32.377
541.42	30.385
541.76	30.565
542.10	33.153
542.44	32.312
542.78	31.547
543.12	31.568
543.46	30.000
543.80	31.773
544.14	30.960
544.48	31.693
544.82	32.206
545.16	31.791
545.50	30.619
545.84	32.267
546.18	31.761
546.52	31.935
546.86	32.123
547.20	32.068
547.54	30.992
547.88	31.387
548.22	30.341
548.56	31.129
548.90	30.795
549.24	32.095
549.58	30.981
549.92	32.721
550.26	32.659
550.60	30.797
550.94	31.460
551.28	32.205
551.62	31.167
551.96	32.127
552.30	31.359
552.64	30.612
552.98	31.395
553.32	30.952
553.66	32.444
554.00	30.917
554.34	31.119
554.68	31.140
555.02	32.562
555.36	31.344
555.69	31.662
556.03	31.368
556.37	31.721
556.71	31.067
557.05	31.412
557.39	32.146
557.73	31.072
558.07	32.027
558.41	32.162
558.75	31.863
559.08	31.440
559.42	31.470
559.76	32.055
560.10	32.215
560.44	31.936
560.78	30.341
561.12	32.022
561.45	31.164
561.79	31.289
562.13	31.978
562.47	31.232
562.81	30.269
563.15	31.351
563.48	31.375
563.82	31.102
564.16	31.034
564.50	30.981
564.84	31.878
565.17	30.902
565.51	32.203
565.85	33.063
566.19	32.279
566.52	30.789
566.86	30.594
567.20	31.780
567.54	30.892
567.88	30.542
568.21	30.872
568.55	30.859
568.89	31.262
569.23	30.773
569.56	30.307
569.90	30.409
570.24	30.665
570.57	29.561
570.91	29.412
571.25	29.086
571.59	30.034
571.92	29.464
572.26	29.089
572.60	28.762
572.93	29.018
573.27	28.872
573.61	28.506
573.95	29.404
574.28	28.353
574.62	28.571
574.96	28.589
575.29	28.659
575.63	28.564
575.97	28.047
576.30	28.748
576.64	28.930
576.98	28.589
577.31	28.653
577.65	28.517
577.98	28.815
578.32	28.773
578.66	28.919
578.99	28.588
579.33	28.536
579.67	28.506
580.00	28.423
580.34	28.009
580.67	28.095
581.01	27.582
581.35	28.403
581.68	27.939
582.02	28.897
582.35	28.555
582.69	29.040
583.02	28.935
583.36	28.861
583.70	28.187
584.03	29.041
584.37	28.200
584.70	28.099
585.04	29.139
585.37	28.138
585.71	28.834
586.04	29.103
586.38	29.030
586.72	28.890
587.05	28.717
587.39	28.489
587.72	29.095
588.06	28.666
588.39	28.653
588.73	29.270
589.06	28.740
589.40	28.959
589.73	28.931
590.07	29.388
590.40	29.151
590.73	29.188
591.07	28.852
591.40	28.856
591.74	28.454
592.07	29.550
592.41	28.705
592.74	29.400
593.08	28.733
593.41	29.079
593.75	29.014
594.08	29.942
594.41	29.316
594.75	29.785
595.08	29.173
595.42	29.769
595.75	28.372
596.09	29.181
596.42	29.705
596.75	29.194
597.09	29.519
597.42	30.336
597.75	29.451
598.09	29.733
598.42	29.518
598.76	29.651
599.09	29.084
599.42	28.681
599.76	29.256
600.09	29.847
600.42	29.244
600.76	29.040
601.09	28.750
601.42	28.492
601.76	29.167
602.09	29.243
602.42	28.930
602.76	28.666
603.09	29.476
603.42	29.170
603.76	29.517
604.09	29.475
604.42	29.850
604.76	28.565
605.09	29.385
605.42	30.053
605.75	28.978
606.09	28.850
606.42	28.948
606.75	29.025
607.09	28.981
607.42	28.785
607.75	29.095
608.08	29.869
608.42	29.281
608.75	29.206
609.08	30.200
609.41	30.045
609.75	28.669
610.08	29.951
610.41	30.169
610.74	30.222
611.07	30.172
611.41	28.996
611.74	30.026
612.07	30.559
612.40	29.158
612.73	30.264
613.07	29.499
613.40	30.159
613.73	29.428
614.06	30.148
614.39	30.891
614.72	29.218
615.06	29.239
615.39	30.222
615.72	29.712
616.05	29.431
616.38	30.644
616.71	29.069
617.05	29.373
617.38	31.331
617.71	29.730
618.04	30.000
618.37	29.686
618.70	31.030
619.03	30.603
619.36	30.726
619.69	30.510
620.03	30.372
620.36	30.380
620.69	31.371
621.02	31.126
621.35	30.968
621.68	31.311
622.01	30.259
622.34	30.590
622.67	31.406
623.00	31.599
623.33	31.493
623.66	30.428
623.99	31.353
624.32	29.539
624.65	31.199
624.99	30.471
625.32	30.838
625.65	31.624
625.98	29.734
626.31	31.892
626.64	30.209
626.97	31.421
627.30	32.170
627.63	31.520
627.96	31.419
628.29	31.710
628.62	32.187
628.95	31.496
629.28	30.827
629.61	31.894
629.94	31.758
630.26	31.312
630.59	32.864
630.92	32.933
631.25	31.956
631.58	30.582
631.91	30.638
632.24	32.333
632.57	33.000
632.90	33.218
633.23	33.411
633.56	31.579
633.89	31.958
634.22	31.759
634.55	32.812
