SpectraSuite Data File
++++++++++++++++++++++++++++++++++++
Date: Sat May 16 11:09:51 PDT 2015
User: schluterlab
Dark Spectrum Present: Yes
Reference Spectrum Present: Yes
Number of Sampled Component Spectra: 1
Spectrometers: USB2E3373
Integration Time (usec): 3000 (USB2E3373)
Spectra Averaged: 3 (USB2E3373)
Boxcar Smoothing: 0 (USB2E3373)
Correct for Electrical Dark: No (USB2E3373)
Strobe/Lamp Enabled: No (USB2E3373)
Correct for Detector Non-linearity: No (USB2E3373)
Correct for Stray Light: No (USB2E3373)
Number of Pixels in Processed Spectrum: 2048
>>>>>Begin Processed Spectral Data<<<<<
178.53	0.000
178.91	33.333
179.29	-133.333
179.67	100.000
180.04	-76.923
180.42	800.000
180.80	50.000
181.18	125.000
181.56	-25.000
181.94	200.000
182.31	175.000
182.69	46.154
183.07	33.333
183.45	1200.000
183.83	133.333
184.20	42.857
184.58	0.000
184.96	-150.000
185.34	37.500
185.72	-225.000
186.09	50.000
186.47	-87.500
186.85	-50.000
187.23	212.500
187.61	-100.000
187.98	-237.500
188.36	12.500
188.74	62.500
189.12	-500.000
189.49	100.000
189.87	58.333
190.25	-25.000
190.63	-64.286
191.00	-111.111
191.38	180.000
191.76	40.000
192.14	220.000
192.51	80.000
192.89	-366.667
193.27	0.000
193.65	-44.444
194.02	-14.286
194.40	100.000
194.78	0.000
195.15	200.000
195.53	-72.727
195.91	-283.333
196.29	-20.000
196.66	-133.333
197.04	100.000
197.42	300.000
197.79	93.333
198.17	-33.333
198.55	100.000
198.92	-400.000
199.30	62.500
199.68	-150.000
200.05	-55.556
200.43	-122.222
200.81	400.000
201.18	33.333
201.56	-57.143
201.94	-20.000
202.31	72.727
202.69	160.000
203.07	-40.000
203.44	266.667
203.82	-166.667
204.19	100.000
204.57	50.000
204.95	-800.000
205.32	-6.250
205.70	400.000
206.08	-1300.000
206.45	-38.889
206.83	-700.000
207.20	450.000
207.58	-33.333
207.96	-300.000
208.33	50.000
208.71	-88.889
209.08	200.000
209.46	-100.000
209.84	200.000
210.21	0.000
210.59	50.000
210.96	700.000
211.34	-66.667
211.71	33.333
212.09	75.000
212.46	650.000
212.84	-800.000
213.22	100.000
213.59	75.000
213.97	88.889
214.34	70.000
214.72	10.000
215.09	0.000
215.47	0.000
215.84	-70.000
216.22	10.000
216.59	33.333
216.97	-225.000
217.34	500.000
217.72	71.429
218.09	-166.667
218.47	-14.286
218.84	114.286
219.22	128.571
219.59	0.000
219.97	28.571
220.34	275.000
220.72	162.500
221.09	46.154
221.47	0.000
221.84	133.333
222.22	-150.000
222.59	100.000
222.97	-212.500
223.34	-600.000
223.72	0.000
224.09	64.286
224.46	25.000
224.84	0.000
225.21	-28.571
225.59	-27.273
225.96	-37.500
226.34	-42.857
226.71	-166.667
227.08	30.000
227.46	500.000
227.83	-185.714
228.21	-150.000
228.58	250.000
228.95	18.750
229.33	-400.000
229.70	-80.000
230.08	-650.000
230.45	58.333
230.82	-133.333
231.20	-300.000
231.57	-300.000
231.95	-100.000
232.32	52.381
232.69	11.111
233.07	-185.714
233.44	-650.000
233.81	-86.667
234.19	-22.222
234.56	0.000
234.93	40.625
235.31	-128.571
235.68	-57.143
236.05	-29.412
236.43	-45.455
236.80	9.677
237.17	25.000
237.55	14.286
237.92	-86.364
238.29	14.286
238.67	26.471
239.04	8.333
239.41	-6.452
239.79	-7.692
240.16	-21.429
240.53	9.091
240.91	51.282
241.28	23.636
241.65	13.846
242.02	14.754
242.40	-16.393
242.77	30.303
243.14	10.169
243.51	4.286
243.89	15.190
244.26	10.112
244.63	17.895
245.00	12.632
245.38	13.559
245.75	13.274
246.12	8.000
246.49	6.299
246.87	7.317
247.24	5.932
247.61	5.932
247.98	15.493
248.36	6.294
248.73	12.658
249.10	6.369
249.47	9.357
249.84	14.205
250.22	1.190
250.59	10.734
250.96	9.948
251.33	13.744
251.70	7.212
252.08	7.109
252.45	2.844
252.82	13.333
253.19	10.638
253.56	4.839
253.94	10.970
254.31	8.155
254.68	10.569
255.05	9.274
255.42	11.508
255.79	6.093
256.16	6.275
256.54	14.706
256.91	6.818
257.28	10.256
257.65	8.511
258.02	12.893
258.39	8.361
258.76	8.108
259.14	7.407
259.51	11.148
259.88	9.146
260.25	9.317
260.62	8.360
260.99	8.309
261.36	10.671
261.73	9.827
262.10	11.667
262.47	7.407
262.85	12.286
263.22	9.742
263.59	7.385
263.96	8.116
264.33	10.027
264.70	6.630
265.07	9.615
265.44	10.594
265.81	8.269
266.18	8.608
266.55	9.804
266.92	12.091
267.29	10.654
267.66	5.926
268.03	13.043
268.40	10.798
268.77	8.675
269.14	8.121
269.51	10.345
269.88	7.110
270.25	9.790
270.62	7.551
270.99	9.910
271.36	9.324
271.73	8.296
272.10	9.840
272.47	7.778
272.84	10.000
273.21	11.468
273.58	7.033
273.95	7.675
274.32	9.955
274.69	10.941
275.06	10.634
275.43	7.143
275.80	10.183
276.17	9.623
276.54	10.794
276.91	8.642
277.28	9.128
277.65	9.711
278.02	9.395
278.39	9.430
278.76	9.562
279.13	10.277
279.50	10.139
279.87	8.879
280.23	10.526
280.60	6.759
280.97	6.602
281.34	8.511
281.71	10.192
282.08	8.468
282.45	6.925
282.82	10.271
283.19	9.091
283.56	11.905
283.92	10.424
284.29	8.178
284.66	8.633
285.03	9.804
285.40	9.779
285.77	9.825
286.14	8.484
286.51	8.881
286.87	9.619
287.24	10.410
287.61	9.587
287.98	9.012
288.35	9.091
288.72	5.603
289.08	5.932
289.45	7.744
289.82	5.017
290.19	9.195
290.56	7.934
290.93	8.903
291.29	7.618
291.66	7.407
292.03	8.791
292.40	8.133
292.77	8.540
293.13	7.642
293.50	9.212
293.87	7.515
294.24	8.899
294.60	7.727
294.97	9.560
295.34	6.667
295.71	7.738
296.08	5.991
296.44	8.298
296.81	8.262
297.18	7.887
297.55	8.616
297.91	8.647
298.28	8.082
298.65	8.368
299.02	8.824
299.38	8.289
299.75	7.065
300.12	7.436
300.48	8.824
300.85	6.946
301.22	7.115
301.59	8.453
301.95	9.320
302.32	6.128
302.69	7.466
303.05	7.326
303.42	7.125
303.79	6.340
304.15	8.412
304.52	9.102
304.89	8.737
305.25	8.181
305.62	7.638
305.99	10.718
306.35	7.547
306.72	8.200
307.09	9.989
307.45	8.400
307.82	8.045
308.19	8.613
308.55	8.606
308.92	7.948
309.29	8.324
309.65	9.862
310.02	8.207
310.38	8.432
310.75	8.811
311.12	8.988
311.48	9.812
311.85	7.312
312.22	9.887
312.58	11.190
312.95	8.767
313.31	10.789
313.68	10.050
314.05	11.177
314.41	8.954
314.78	10.589
315.14	10.958
315.51	10.740
315.87	12.778
316.24	11.953
316.61	12.188
316.97	11.244
317.34	11.657
317.70	10.946
318.07	11.567
318.43	12.360
318.80	13.991
319.16	10.882
319.53	12.312
319.89	13.076
320.26	13.431
320.62	12.404
320.99	14.030
321.35	11.133
321.72	12.692
322.08	14.243
322.45	13.960
322.81	16.138
323.18	16.715
323.54	14.787
323.91	15.663
324.27	15.399
324.64	16.362
325.00	17.016
325.37	17.466
325.73	17.673
326.10	15.500
326.46	16.900
326.83	17.702
327.19	17.181
327.56	18.739
327.92	18.692
328.29	19.307
328.65	17.909
329.01	19.700
329.38	18.466
329.74	20.330
330.11	19.674
330.47	19.619
330.84	20.898
331.20	20.036
331.56	20.784
331.93	21.048
332.29	21.553
332.66	19.842
333.02	20.905
333.38	21.595
333.75	21.104
334.11	22.311
334.48	21.094
334.84	22.047
335.20	21.454
335.57	21.661
335.93	21.576
336.29	21.346
336.66	20.529
337.02	21.982
337.38	21.390
337.75	22.037
338.11	21.735
338.47	21.352
338.84	22.777
339.20	21.002
339.56	22.282
339.93	22.046
340.29	22.409
340.65	20.542
341.02	21.501
341.38	22.578
341.74	22.777
342.11	20.734
342.47	20.601
342.83	20.655
343.20	21.947
343.56	20.490
343.92	21.202
344.28	22.456
344.65	21.617
345.01	21.513
345.37	21.927
345.73	19.640
346.10	20.523
346.46	20.796
346.82	20.850
347.19	21.528
347.55	21.589
347.91	20.630
348.27	20.207
348.63	21.082
349.00	21.559
349.36	18.813
349.72	21.497
350.08	21.171
350.45	19.858
350.81	21.656
351.17	20.900
351.53	19.252
351.89	20.695
352.26	21.163
352.62	21.813
352.98	20.016
353.34	20.943
353.70	20.309
354.07	21.243
354.43	20.158
354.79	20.285
355.15	20.767
355.51	19.922
355.87	19.842
356.24	19.619
356.60	21.031
356.96	21.555
357.32	21.061
357.68	19.387
358.04	20.015
358.40	19.799
358.77	19.938
359.13	20.888
359.49	20.257
359.85	20.732
360.21	20.091
360.57	21.310
360.93	20.593
361.29	21.001
361.66	19.284
362.02	19.231
362.38	20.836
362.74	20.513
363.10	19.297
363.46	21.154
363.82	20.408
364.18	19.030
364.54	20.801
364.90	20.266
365.26	20.114
365.62	20.741
365.98	20.839
366.35	20.352
366.71	20.366
367.07	19.972
367.43	21.620
367.79	20.344
368.15	19.559
368.51	20.350
368.87	20.879
369.23	20.632
369.59	20.000
369.95	20.155
370.31	21.097
370.67	19.740
371.03	20.408
371.39	19.731
371.75	20.959
372.11	19.943
372.47	18.583
372.83	20.584
373.19	20.214
373.55	20.549
373.91	19.701
374.27	19.576
374.63	19.876
374.99	20.584
375.35	19.381
375.71	20.662
376.07	20.055
376.42	19.338
376.78	20.196
377.14	20.407
377.50	20.438
377.86	20.351
378.22	19.347
378.58	19.951
378.94	19.236
379.30	19.500
379.66	19.794
380.02	20.380
380.38	19.396
380.74	19.695
381.09	20.035
381.45	19.690
381.81	19.722
382.17	19.925
382.53	20.122
382.89	19.258
383.25	19.928
383.61	19.222
383.97	19.535
384.32	20.025
384.68	20.073
385.04	19.867
385.40	19.659
385.76	18.902
386.12	19.425
386.48	19.307
386.83	18.957
387.19	19.725
387.55	19.261
387.91	19.146
388.27	18.335
388.62	19.531
388.98	19.200
389.34	19.339
389.70	18.879
390.06	18.769
390.42	19.038
390.77	18.927
391.13	19.689
391.49	19.276
391.85	19.389
392.20	18.993
392.56	18.021
392.92	18.540
393.28	19.116
393.64	19.002
393.99	19.446
394.35	18.735
394.71	18.962
395.07	19.083
395.42	18.296
395.78	17.788
396.14	18.380
396.50	18.349
396.85	18.507
397.21	18.712
397.57	19.149
397.92	18.735
398.28	18.722
398.64	18.203
399.00	19.326
399.35	18.320
399.71	18.699
400.07	18.030
400.42	19.039
400.78	17.293
401.14	18.383
401.49	17.983
401.85	18.243
402.21	18.594
402.57	18.022
402.92	19.257
403.28	18.260
403.63	17.376
403.99	19.080
404.35	18.176
404.70	17.086
405.06	18.916
405.42	17.036
405.77	17.647
406.13	17.149
406.49	17.975
406.84	17.876
407.20	18.080
407.55	17.416
407.91	17.034
408.27	18.076
408.62	17.980
408.98	18.253
409.34	17.855
409.69	18.084
410.05	17.162
410.40	18.026
410.76	17.902
411.11	17.706
411.47	17.519
411.83	18.399
412.18	16.955
412.54	16.901
412.89	18.104
413.25	17.237
413.60	16.343
413.96	16.636
414.31	18.226
414.67	17.270
415.03	16.753
415.38	17.437
415.74	17.655
416.09	17.136
416.45	17.196
416.80	17.620
417.16	16.678
417.51	17.925
417.87	17.152
418.22	17.383
418.58	17.202
418.93	17.964
419.29	17.189
419.64	16.269
420.00	17.193
420.35	17.327
420.71	17.287
421.06	18.402
421.42	15.925
421.77	17.588
422.12	17.292
422.48	17.157
422.83	18.451
423.19	17.316
423.54	17.233
423.90	17.235
424.25	17.138
424.61	17.973
424.96	18.081
425.31	17.719
425.67	17.650
426.02	16.581
426.38	17.665
426.73	18.235
427.09	17.892
427.44	18.011
427.79	17.674
428.15	18.013
428.50	18.768
428.85	18.046
429.21	17.986
429.56	18.750
429.92	18.236
430.27	18.146
430.62	19.070
430.98	17.825
431.33	18.837
431.68	18.660
432.04	19.138
432.39	18.632
432.74	18.345
433.10	18.739
433.45	18.135
433.80	19.037
434.16	17.947
434.51	18.795
434.86	19.039
435.22	18.875
435.57	18.605
435.92	18.757
436.28	18.754
436.63	18.824
436.98	17.927
437.34	19.256
437.69	18.670
438.04	18.378
438.39	20.096
438.75	19.092
439.10	19.434
439.45	18.588
439.81	18.855
440.16	18.399
440.51	19.294
440.86	18.566
441.22	19.071
441.57	18.684
441.92	19.028
442.27	19.751
442.63	19.152
442.98	18.849
443.33	20.319
443.68	18.812
444.03	19.401
444.39	19.873
444.74	19.934
445.09	20.011
445.44	20.653
445.79	19.990
446.15	19.715
446.50	19.760
446.85	20.215
447.20	20.582
447.55	20.166
447.91	20.438
448.26	19.497
448.61	19.864
448.96	20.896
449.31	20.237
449.66	20.321
450.02	20.277
450.37	19.884
450.72	20.452
451.07	21.182
451.42	19.455
451.77	20.646
452.12	19.785
452.47	20.655
452.83	20.443
453.18	21.126
453.53	21.020
453.88	21.232
454.23	20.617
454.58	21.007
454.93	21.537
455.28	21.160
455.63	20.885
455.98	21.446
456.34	20.076
456.69	21.451
457.04	21.205
457.39	20.514
457.74	21.382
458.09	20.418
458.44	21.651
458.79	20.179
459.14	21.848
459.49	20.426
459.84	21.079
460.19	20.167
460.54	20.327
460.89	20.516
461.24	20.765
461.59	22.157
461.94	21.324
462.29	20.488
462.64	21.212
462.99	21.754
463.34	21.742
463.69	20.929
464.04	20.504
464.39	21.087
464.74	20.922
465.09	20.084
465.44	21.545
465.79	20.643
466.14	21.001
466.49	21.359
466.84	21.068
467.19	21.197
467.54	21.456
467.89	22.441
468.24	20.428
468.59	21.174
468.94	22.058
469.29	21.053
469.64	21.226
469.99	22.485
470.34	22.111
470.68	22.093
471.03	21.886
471.38	21.528
471.73	20.839
472.08	21.620
472.43	22.008
472.78	21.333
473.13	21.140
473.48	21.634
473.83	21.092
474.17	21.656
474.52	22.251
474.87	21.212
475.22	21.475
475.57	21.056
475.92	21.166
476.27	21.086
476.61	20.732
476.96	21.185
477.31	21.690
477.66	21.527
478.01	21.826
478.36	20.639
478.70	21.997
479.05	21.958
479.40	21.399
479.75	21.203
480.10	20.784
480.45	20.261
480.79	20.928
481.14	20.773
481.49	21.297
481.84	20.897
482.19	21.106
482.53	21.117
482.88	21.310
483.23	21.502
483.58	21.462
483.92	21.739
484.27	20.735
484.62	21.425
484.97	21.278
485.31	20.096
485.66	20.014
486.01	19.265
486.36	19.701
486.70	19.947
487.05	20.141
487.40	19.925
487.75	20.129
488.09	19.796
488.44	20.704
488.79	21.047
489.13	21.567
489.48	21.166
489.83	21.572
490.17	21.593
490.52	21.784
490.87	21.478
491.22	21.018
491.56	21.620
491.91	21.660
492.26	21.509
492.60	21.361
492.95	21.323
493.30	21.582
493.64	21.345
493.99	21.367
494.34	20.762
494.68	22.425
495.03	21.558
495.37	21.190
495.72	21.316
496.07	21.445
496.41	21.769
496.76	21.507
497.11	21.809
497.45	22.270
497.80	22.511
498.14	21.562
498.49	21.246
498.84	20.971
499.18	21.540
499.53	22.163
499.87	21.380
500.22	21.569
500.56	21.811
500.91	21.970
501.26	21.689
501.60	20.992
501.95	22.029
502.29	21.682
502.64	21.782
502.98	21.131
503.33	21.992
503.67	21.552
504.02	22.018
504.36	22.402
504.71	21.023
505.06	21.368
505.40	22.505
505.75	21.341
506.09	21.941
506.44	21.353
506.78	22.228
507.13	21.627
507.47	22.483
507.82	22.148
508.16	21.917
508.51	21.278
508.85	22.774
509.19	21.559
509.54	22.252
509.88	22.074
510.23	22.222
510.57	23.175
510.92	23.308
511.26	21.850
511.61	21.868
511.95	22.144
512.30	21.605
512.64	21.814
512.98	22.442
513.33	22.350
513.67	23.395
514.02	23.043
514.36	22.825
514.70	22.411
515.05	22.699
515.39	22.664
515.74	23.677
516.08	22.767
516.42	23.173
516.77	23.917
517.11	23.741
517.46	23.325
517.80	23.887
518.14	22.886
518.49	22.773
518.83	23.086
519.17	23.683
519.52	23.713
519.86	24.194
520.20	23.044
520.55	24.000
520.89	23.607
521.23	23.993
521.58	24.138
521.92	23.686
522.26	23.302
522.61	23.447
522.95	22.527
523.29	23.574
523.64	23.548
523.98	23.870
524.32	24.450
524.66	23.106
525.01	23.828
525.35	23.389
525.69	24.528
526.04	24.413
526.38	24.443
526.72	24.649
527.06	24.414
527.41	23.762
527.75	21.914
528.09	24.024
528.43	24.918
528.78	23.869
529.12	25.160
529.46	24.162
529.80	24.403
530.15	24.598
530.49	24.515
530.83	25.606
531.17	24.579
531.51	24.715
531.86	24.358
532.20	24.022
532.54	24.532
532.88	24.769
533.22	24.733
533.57	23.172
533.91	23.720
534.25	23.696
534.59	22.986
534.93	23.522
535.27	23.663
535.62	24.361
535.96	24.434
536.30	22.775
536.64	24.170
536.98	23.658
537.32	23.635
537.66	23.693
538.01	24.055
538.35	24.595
538.69	23.730
539.03	23.629
539.37	24.884
539.71	23.682
540.05	23.509
540.39	24.169
540.73	24.948
541.07	23.839
541.42	23.565
541.76	22.724
542.10	24.848
542.44	24.250
542.78	24.220
543.12	24.440
543.46	22.877
543.80	23.211
544.14	22.901
544.48	23.556
544.82	23.884
545.16	23.474
545.50	22.140
545.84	23.574
546.18	23.856
546.52	24.751
546.86	22.934
547.20	24.613
547.54	23.623
547.88	22.893
548.22	21.625
548.56	23.046
548.90	23.989
549.24	23.266
549.58	24.277
549.92	23.463
550.26	25.795
550.60	24.395
550.94	23.869
551.28	24.605
551.62	23.929
551.96	24.964
552.30	23.484
552.64	23.716
552.98	24.527
553.32	23.088
553.66	23.937
554.00	23.596
554.34	23.321
554.68	22.880
555.02	25.181
555.36	23.364
555.69	24.284
556.03	23.228
556.37	23.826
556.71	24.123
557.05	24.021
557.39	23.385
557.73	24.216
558.07	24.491
558.41	23.710
558.75	24.867
559.08	23.191
559.42	24.349
559.76	23.926
560.10	24.385
560.44	23.916
560.78	24.495
561.12	23.464
561.45	23.904
561.79	23.136
562.13	23.492
562.47	23.880
562.81	23.621
563.15	23.163
563.48	24.395
563.82	23.191
564.16	23.529
564.50	23.656
564.84	23.942
565.17	24.204
565.51	23.272
565.85	23.259
566.19	24.374
566.52	22.570
566.86	23.072
567.20	24.274
567.54	23.745
567.88	23.116
568.21	22.371
568.55	22.800
568.89	22.266
569.23	21.703
569.56	21.606
569.90	21.518
570.24	21.233
570.57	20.668
570.91	20.809
571.25	21.271
571.59	20.356
571.92	20.238
572.26	20.521
572.60	20.478
572.93	20.626
573.27	20.274
573.61	19.931
573.95	20.543
574.28	19.498
574.62	20.336
574.96	20.015
575.29	20.122
575.63	20.388
575.97	19.768
576.30	20.225
576.64	20.052
576.98	19.756
577.31	19.642
577.65	19.817
577.98	19.390
578.32	19.343
578.66	19.213
578.99	20.014
579.33	20.296
579.67	19.959
580.00	19.668
580.34	19.105
580.67	19.735
581.01	19.447
581.35	19.440
581.68	19.408
582.02	19.405
582.35	19.263
582.69	19.602
583.02	19.828
583.36	19.948
583.70	19.867
584.03	20.636
584.37	20.325
584.70	20.354
585.04	19.924
585.37	19.523
585.71	20.053
586.04	19.554
586.38	19.300
586.72	20.547
587.05	20.334
587.39	19.913
587.72	19.697
588.06	20.385
588.39	19.937
588.73	20.308
589.06	20.460
589.40	21.058
589.73	20.786
590.07	20.284
590.40	21.365
590.73	20.912
591.07	21.270
591.40	21.880
591.74	22.155
592.07	20.721
592.41	21.699
592.74	21.214
593.08	20.975
593.41	20.493
593.75	19.651
594.08	20.848
594.41	21.294
594.75	21.631
595.08	20.564
595.42	21.568
595.75	20.581
596.09	21.653
596.42	21.154
596.75	21.389
597.09	22.529
597.42	21.344
597.75	21.833
598.09	21.600
598.42	21.608
598.76	20.930
599.09	21.468
599.42	20.723
599.76	21.140
600.09	21.145
600.42	20.775
600.76	20.942
601.09	21.382
601.42	21.211
601.76	22.079
602.09	21.513
602.42	21.193
602.76	21.064
603.09	21.008
603.42	21.193
603.76	21.779
604.09	20.665
604.42	21.607
604.76	21.544
605.09	22.016
605.42	21.676
605.75	21.906
606.09	21.337
606.42	21.072
606.75	21.254
607.09	21.747
607.42	21.303
607.75	21.943
608.08	22.006
608.42	21.854
608.75	21.075
609.08	21.383
609.41	21.425
609.75	21.453
610.08	22.451
610.41	22.072
610.74	21.663
611.07	22.008
611.41	21.331
611.74	23.239
612.07	22.664
612.40	21.375
612.73	21.432
613.07	22.345
613.40	22.879
613.73	22.779
614.06	21.691
614.39	22.604
614.72	21.899
615.06	21.522
615.39	22.084
615.72	21.564
616.05	20.817
616.38	22.113
616.71	21.682
617.05	22.557
617.38	22.229
617.71	21.990
618.04	22.236
618.37	22.453
618.70	24.446
619.03	22.749
619.36	24.242
619.69	24.049
620.03	22.865
620.36	22.996
620.69	22.685
621.02	22.755
621.35	23.226
621.68	23.770
622.01	25.162
622.34	24.301
622.67	24.453
623.00	23.565
623.33	23.955
623.66	22.821
623.99	23.308
624.32	23.140
624.65	23.915
624.99	23.152
625.32	22.455
625.65	24.398
625.98	24.257
626.31	24.225
626.64	24.268
626.97	24.486
627.30	24.340
627.63	22.884
627.96	25.413
628.29	25.092
628.62	26.743
628.95	25.394
629.28	23.684
629.61	24.632
629.94	25.803
630.26	25.249
630.59	25.528
630.92	25.125
631.25	25.000
631.58	26.243
631.91	24.149
632.24	25.778
632.57	26.556
632.90	26.782
633.23	26.051
633.56	24.678
633.89	26.415
634.22	27.037
634.55	25.481
634.88	26.239
635.20	27.466
635.53	26.972
635.86	26.196
636.19	25.763
636.52	25.090
636.85	23.947
