SpectraSuite Data File
++++++++++++++++++++++++++++++++++++
Date: Sat May 16 11:46:22 PDT 2015
User: schluterlab
Dark Spectrum Present: Yes
Reference Spectrum Present: Yes
Number of Sampled Component Spectra: 1
Spectrometers: USB2E3373
Integration Time (usec): 3000 (USB2E3373)
Spectra Averaged: 3 (USB2E3373)
Boxcar Smoothing: 0 (USB2E3373)
Correct for Electrical Dark: No (USB2E3373)
Strobe/Lamp Enabled: No (USB2E3373)
Correct for Detector Non-linearity: No (USB2E3373)
Correct for Stray Light: No (USB2E3373)
Number of Pixels in Processed Spectrum: 2048
>>>>>Begin Processed Spectral Data<<<<<
178.53	0.000
178.91	106.667
179.29	933.333
179.67	-900.000
180.04	-53.846
180.42	700.000
180.80	325.000
181.18	325.000
181.56	-137.500
181.94	200.000
182.31	375.000
182.69	-23.077
183.07	-433.333
183.45	1150.000
183.83	566.667
184.20	-271.429
184.58	-75.000
184.96	-250.000
185.34	75.000
185.72	-300.000
186.09	400.000
186.47	-162.500
186.85	-225.000
187.23	-137.500
187.61	-125.000
187.98	-250.000
188.36	-87.500
188.74	-137.500
189.12	2000.000
189.49	357.143
189.87	-58.333
190.25	300.000
190.63	-21.429
191.00	-100.000
191.38	380.000
191.76	-6.667
192.14	360.000
192.51	-200.000
192.89	-633.333
193.27	0.000
193.65	-122.222
194.02	-342.857
194.40	400.000
194.78	-140.000
195.15	-200.000
195.53	-118.182
195.91	-433.333
196.29	280.000
196.66	-333.333
197.04	1800.000
197.42	-25.000
197.79	66.667
198.17	33.333
198.55	-350.000
198.92	-1100.000
199.30	250.000
199.68	-700.000
200.05	-166.667
200.43	-166.667
200.81	-1700.000
201.18	-116.667
201.56	314.286
201.94	26.667
202.31	22.727
202.69	-100.000
203.07	-90.000
203.44	766.667
203.82	-333.333
204.19	-475.000
204.57	-325.000
204.95	-700.000
205.32	-6.250
205.70	1400.000
206.08	-3100.000
206.45	-33.333
206.83	-800.000
207.20	50.000
207.58	-600.000
207.96	-400.000
208.33	-187.500
208.71	-55.556
209.08	280.000
209.46	-71.429
209.84	700.000
210.21	0.000
210.59	95.000
210.96	800.000
211.34	-233.333
211.71	-200.000
212.09	300.000
212.46	1100.000
212.84	-2200.000
213.22	533.333
213.59	75.000
213.97	-55.556
214.34	150.000
214.72	-60.000
215.09	-300.000
215.47	-116.667
215.84	-80.000
216.22	-50.000
216.59	-33.333
216.97	-575.000
217.34	800.000
217.72	-271.429
218.09	-300.000
218.47	-371.429
218.84	171.429
219.22	-114.286
219.59	0.000
219.97	257.143
220.34	600.000
220.72	250.000
221.09	-23.077
221.47	0.000
221.84	533.333
222.22	-400.000
222.59	1700.000
222.97	-150.000
223.34	-850.000
223.72	-566.667
224.09	-78.571
224.46	-75.000
224.84	-42.857
225.21	-271.429
225.59	-90.909
225.96	-225.000
226.34	-14.286
226.71	-111.111
227.08	-35.000
227.46	1600.000
227.83	-100.000
228.21	-250.000
228.58	250.000
228.95	-25.000
229.33	-1800.000
229.70	-320.000
230.08	-450.000
230.45	-16.667
230.82	-116.667
231.20	-2200.000
231.57	-350.000
231.95	2100.000
232.32	-9.524
232.69	-177.778
233.07	-114.286
233.44	-850.000
233.81	-60.000
234.19	-200.000
234.56	-93.750
234.93	18.750
235.31	-242.857
235.68	-107.143
236.05	-52.941
236.43	-54.545
236.80	-19.355
237.17	-20.833
237.55	-66.667
237.92	-90.909
238.29	-40.000
238.67	-5.882
239.04	-2.778
239.41	-45.161
239.79	-61.538
240.16	-40.476
240.53	-25.455
240.91	-33.333
241.28	-9.091
241.65	4.615
242.02	-1.639
242.40	-9.836
242.77	-13.636
243.14	-8.475
243.51	-25.714
243.89	-20.253
244.26	-13.483
244.63	7.368
245.00	2.105
245.38	0.000
245.75	2.655
246.12	-10.400
246.49	4.724
246.87	-8.130
247.24	-19.492
247.61	-13.559
247.98	-9.155
248.36	-11.888
248.73	-3.165
249.10	-12.739
249.47	3.509
249.84	-4.545
250.22	-10.714
250.59	-9.605
250.96	1.571
251.33	2.844
251.70	-1.923
252.08	0.000
252.45	-7.109
252.82	-5.238
253.19	0.851
253.56	-0.806
253.94	-3.797
254.31	1.717
254.68	-0.813
255.05	-2.419
255.42	-2.381
255.79	-1.792
256.16	-1.176
256.54	-4.044
256.91	0.758
257.28	-1.465
257.65	-2.128
258.02	0.629
258.39	-1.003
258.76	-5.405
259.14	-0.617
259.51	-1.311
259.88	1.220
260.25	2.795
260.62	-4.180
260.99	-2.374
261.36	0.610
261.73	-0.867
262.10	3.056
262.47	-1.140
262.85	2.571
263.22	-3.725
263.59	-5.538
263.96	0.000
264.33	2.439
264.70	1.105
265.07	-1.374
265.44	0.000
265.81	2.584
266.18	0.253
266.55	0.735
266.92	0.756
267.29	0.242
267.66	-0.741
268.03	1.932
268.40	2.113
268.77	2.651
269.14	0.000
269.51	1.839
269.88	0.000
270.25	2.098
270.62	0.458
270.99	0.901
271.36	1.399
271.73	0.897
272.10	2.517
272.47	0.222
272.84	4.444
273.21	0.229
273.58	2.418
273.95	0.658
274.32	-1.357
274.69	2.188
275.06	1.431
275.43	-1.339
275.80	2.037
276.17	1.674
276.54	2.037
276.91	0.823
277.28	-0.811
277.65	-0.413
278.02	0.209
278.39	2.750
278.76	1.992
279.13	2.964
279.50	1.988
279.87	0.634
280.23	1.012
280.60	1.988
280.97	-2.330
281.34	1.161
281.71	1.538
282.08	0.403
282.45	-2.240
282.82	1.550
283.19	0.182
283.56	2.930
283.92	2.297
284.29	0.743
284.66	0.719
285.03	1.248
285.40	1.292
285.77	1.579
286.14	0.542
286.51	1.066
286.87	4.174
287.24	1.877
287.61	2.314
287.98	0.693
288.35	0.496
288.72	0.849
289.08	-1.017
289.45	1.010
289.82	-0.173
290.19	1.970
290.56	0.000
290.93	1.590
291.29	-1.135
291.66	0.322
292.03	0.157
292.40	1.657
292.77	-1.087
293.13	1.626
293.50	1.486
293.87	0.920
294.24	2.262
294.60	0.455
294.97	0.910
295.34	-0.889
295.71	1.042
296.08	-1.075
296.44	-0.143
296.81	0.712
297.18	0.141
297.55	1.836
297.91	1.534
298.28	-0.274
298.65	0.139
299.02	2.005
299.38	1.872
299.75	2.038
300.12	1.410
300.48	1.535
300.85	1.180
301.22	1.035
301.59	0.520
301.95	3.526
302.32	-0.652
302.69	2.081
303.05	1.709
303.42	1.000
303.79	1.794
304.15	1.659
304.52	1.050
304.89	1.299
305.25	1.099
305.62	0.470
305.99	3.062
306.35	2.442
306.72	1.253
307.09	2.270
307.45	-0.341
307.82	1.341
308.19	2.796
308.55	3.268
308.92	0.000
309.29	2.162
309.65	1.591
310.02	2.160
310.38	1.838
310.75	1.844
311.12	3.822
311.48	2.610
311.85	2.678
312.22	2.163
312.58	4.781
312.95	3.262
313.31	3.497
313.68	3.618
314.05	3.264
314.41	1.710
314.78	3.896
315.14	5.035
315.51	4.255
315.87	5.227
316.24	5.345
316.61	5.470
316.97	5.771
317.34	5.395
317.70	5.473
318.07	6.157
318.43	6.742
318.80	7.606
319.16	6.848
319.53	7.049
319.89	7.056
320.26	6.863
320.62	7.404
320.99	8.159
321.35	7.882
321.72	8.700
322.08	9.298
322.45	8.713
322.81	11.143
323.18	11.912
323.54	11.922
323.91	10.843
324.27	10.837
324.64	11.792
325.00	12.129
325.37	12.579
325.73	14.436
326.10	12.666
326.46	13.835
326.83	13.702
327.19	14.679
327.56	16.014
327.92	14.868
328.29	16.710
328.65	15.091
329.01	17.314
329.38	17.484
329.74	18.407
330.11	18.767
330.47	17.530
330.84	18.882
331.20	18.412
331.56	18.778
331.93	19.538
332.29	19.361
332.66	19.052
333.02	19.457
333.38	19.982
333.75	20.392
334.11	20.089
334.48	20.124
334.84	21.697
335.20	20.479
335.57	22.112
335.93	22.381
336.29	21.258
336.66	21.674
337.02	21.622
337.38	19.608
337.75	21.949
338.11	22.004
338.47	22.598
338.84	22.323
339.20	20.562
339.56	21.836
339.93	21.517
340.29	21.701
340.65	21.154
341.02	22.428
341.38	20.893
341.74	22.015
342.11	22.611
342.47	23.176
342.83	21.746
343.20	21.691
343.56	21.551
343.92	22.037
344.28	22.204
344.65	21.205
345.01	21.261
345.37	23.256
345.73	22.259
346.10	21.504
346.46	21.202
346.82	21.732
347.19	22.186
347.55	22.311
347.91	22.126
348.27	22.037
348.63	22.779
349.00	22.593
349.36	21.702
349.72	22.771
350.08	22.053
350.45	21.907
350.81	22.532
351.17	22.428
351.53	22.355
351.89	23.201
352.26	22.636
352.62	23.195
352.98	22.864
353.34	23.501
353.70	21.390
354.07	22.659
354.43	23.557
354.79	23.217
355.15	23.083
355.51	22.578
355.87	24.032
356.24	23.034
356.60	24.013
356.96	22.556
357.32	22.565
357.68	23.372
358.04	23.172
358.40	23.511
358.77	23.261
359.13	23.336
359.49	23.885
359.85	22.942
360.21	22.755
360.57	23.193
360.93	22.741
361.29	23.169
361.66	22.561
362.02	23.151
362.38	23.991
362.74	23.590
363.10	24.032
363.46	24.858
363.82	25.364
364.18	25.398
364.54	24.803
364.90	24.039
365.26	23.823
365.62	25.374
365.98	26.316
366.35	24.718
366.71	24.454
367.07	25.759
367.43	25.326
367.79	25.223
368.15	24.964
368.51	24.755
368.87	25.962
369.23	25.404
369.59	26.458
369.95	25.722
370.31	26.231
370.67	24.512
371.03	25.583
371.39	25.106
371.75	26.609
372.11	26.829
372.47	26.464
372.83	27.399
373.19	26.571
373.55	27.868
373.91	29.018
374.27	27.036
374.63	26.777
374.99	27.886
375.35	26.312
375.71	28.764
376.07	27.858
376.42	26.225
376.78	29.608
377.14	28.203
377.50	28.433
377.86	28.674
378.22	28.392
378.58	28.474
378.94	29.100
379.30	28.641
379.66	28.840
380.02	28.758
380.38	28.882
380.74	30.363
381.09	29.233
381.45	30.131
381.81	30.732
382.17	30.326
382.53	31.003
382.89	29.785
383.25	30.584
383.61	30.189
383.97	31.415
384.32	31.164
384.68	31.137
385.04	30.314
385.40	31.284
385.76	32.683
386.12	31.106
386.48	31.807
386.83	32.331
387.19	31.261
387.55	31.496
387.91	32.543
388.27	31.544
388.62	31.430
388.98	31.920
389.34	32.436
389.70	32.400
390.06	32.194
390.42	33.333
390.77	32.555
391.13	34.037
391.49	32.938
391.85	32.668
392.20	32.949
392.56	32.987
392.92	33.485
393.28	33.639
393.64	33.854
393.99	34.154
394.35	33.820
394.71	33.230
395.07	33.773
395.42	32.598
395.78	33.124
396.14	34.829
396.50	34.312
396.85	34.176
397.21	32.928
397.57	34.894
397.92	34.836
398.28	36.111
398.64	34.682
399.00	35.787
399.35	34.329
399.71	35.889
400.07	36.000
400.42	35.584
400.78	34.466
401.14	35.090
401.49	35.436
401.85	35.998
402.21	35.399
402.57	35.376
402.92	36.123
403.28	34.804
403.63	34.092
403.99	35.861
404.35	34.662
404.70	34.933
405.06	35.179
405.42	36.285
405.77	34.672
406.13	36.570
406.49	37.208
406.84	37.672
407.20	36.101
407.55	36.479
407.91	35.104
408.27	36.642
408.62	36.560
408.98	37.902
409.34	36.258
409.69	36.295
410.05	36.871
410.40	36.603
410.76	36.870
411.11	36.471
411.47	35.997
411.83	37.836
412.18	36.386
412.54	36.425
412.89	37.120
413.25	36.541
413.60	36.999
413.96	36.414
414.31	37.676
414.67	37.397
415.03	36.158
415.38	39.623
415.74	38.273
416.09	37.788
416.45	36.706
416.80	37.451
417.16	37.807
417.51	39.265
417.87	37.799
418.22	38.432
418.58	37.612
418.93	38.565
419.29	38.645
419.64	38.505
420.00	37.485
420.35	38.912
420.71	37.815
421.06	38.462
421.42	38.525
421.77	39.475
422.12	38.780
422.48	38.055
422.83	38.440
423.19	38.697
423.54	39.020
423.90	39.329
424.25	38.914
424.61	39.505
424.96	40.609
425.31	40.749
425.67	39.542
426.02	39.415
426.38	40.230
426.73	39.860
427.09	40.502
427.44	40.000
427.79	40.872
428.15	40.096
428.50	40.880
428.85	41.007
429.21	40.398
429.56	40.208
429.92	40.531
430.27	40.279
430.62	41.118
430.98	40.565
431.33	40.822
431.68	41.662
432.04	41.242
432.39	41.140
432.74	40.588
433.10	41.643
433.45	40.645
433.80	42.273
434.16	41.644
434.51	41.315
434.86	43.409
435.22	41.815
435.57	42.901
435.92	42.907
436.28	42.018
436.63	41.266
436.98	41.294
437.34	41.996
437.69	42.765
438.04	42.711
438.39	43.141
438.75	41.735
439.10	42.699
439.45	43.874
439.81	43.735
440.16	42.249
440.51	44.059
440.86	43.146
441.22	42.344
441.57	43.421
441.92	43.325
442.27	43.723
442.63	43.616
442.98	42.720
443.33	44.152
443.68	44.346
444.03	43.369
444.39	43.906
444.74	43.998
445.09	44.024
445.44	45.414
445.79	44.722
446.15	44.195
446.50	43.713
446.85	43.253
447.20	44.127
447.55	44.199
447.91	43.739
448.26	44.302
448.61	44.256
448.96	44.650
449.31	43.856
449.66	45.220
450.02	43.213
450.37	43.826
450.72	43.898
451.07	45.192
451.42	43.928
451.77	45.183
452.12	45.113
452.47	44.836
452.83	44.729
453.18	45.541
453.53	44.590
453.88	45.335
454.23	44.680
454.58	46.737
454.93	44.710
455.28	44.487
455.63	47.113
455.98	44.880
456.34	44.536
456.69	46.216
457.04	45.913
457.39	44.976
457.74	45.127
458.09	46.404
458.44	45.958
458.79	46.300
459.14	45.750
459.49	45.826
459.84	45.419
460.19	45.883
460.54	45.130
460.89	45.235
461.24	45.112
461.59	45.780
461.94	46.658
462.29	45.920
462.64	45.784
462.99	47.189
463.34	46.455
463.69	46.120
464.04	44.347
464.39	46.894
464.74	45.213
465.09	45.460
465.44	45.234
465.79	45.854
466.14	46.318
466.49	46.632
466.84	46.999
467.19	45.823
467.54	46.266
467.89	47.287
468.24	46.615
468.59	46.221
468.94	46.881
469.29	45.614
469.64	47.372
469.99	47.400
470.34	47.094
470.68	46.875
471.03	47.419
471.38	45.556
471.73	47.552
472.08	47.858
472.43	48.005
472.78	47.333
473.13	47.051
473.48	47.224
473.83	47.643
474.17	47.962
474.52	48.849
474.87	46.503
475.22	47.021
475.57	46.333
475.92	48.650
476.27	46.914
476.61	47.324
476.96	47.289
477.31	48.170
477.66	48.091
478.01	47.920
478.36	46.569
478.70	48.745
479.05	47.810
479.40	48.756
479.75	47.757
480.10	47.024
480.45	46.760
480.79	48.618
481.14	49.172
481.49	48.742
481.84	47.619
482.19	47.373
482.53	48.248
482.88	47.698
483.23	48.028
483.58	48.474
483.92	48.495
484.27	47.718
484.62	47.948
484.97	46.960
485.31	46.176
485.66	45.186
486.01	45.478
486.36	46.693
486.70	47.412
487.05	46.509
487.40	47.249
487.75	46.378
488.09	45.553
488.44	46.245
488.79	46.339
489.13	46.025
489.48	47.675
489.83	47.686
490.17	48.063
490.52	48.370
490.87	48.406
491.22	48.949
491.56	47.639
491.91	48.282
492.26	48.491
492.60	48.335
492.95	48.025
493.30	48.452
493.64	48.331
493.99	48.853
494.34	48.714
494.68	49.391
495.03	48.996
495.37	49.803
495.72	49.018
496.07	47.912
496.41	48.773
496.76	48.813
497.11	48.610
497.45	49.952
497.80	49.025
498.14	49.656
498.49	49.322
498.84	48.204
499.18	49.220
499.53	48.612
499.87	48.263
500.22	49.069
500.56	49.375
500.91	49.163
501.26	48.569
501.60	48.291
501.95	50.338
502.29	49.126
502.64	49.175
502.98	48.826
503.33	49.671
503.67	49.473
504.02	49.107
504.36	48.137
504.71	49.392
505.06	48.977
505.40	49.701
505.75	49.848
506.09	49.848
506.44	49.674
506.78	49.875
507.13	50.515
507.47	49.504
507.82	49.355
508.16	50.207
508.51	47.965
508.85	50.466
509.19	50.340
509.54	49.947
509.88	49.840
510.23	50.472
510.57	50.899
510.92	50.591
511.26	49.654
511.61	50.324
511.95	49.192
512.30	50.137
512.64	49.638
512.98	50.715
513.33	49.753
513.67	51.033
514.02	51.230
514.36	51.524
514.70	52.179
515.05	50.429
515.39	51.442
515.74	52.007
516.08	51.931
516.42	51.501
516.77	52.975
517.11	51.659
517.46	52.751
517.80	52.828
518.14	50.906
518.49	52.481
518.83	52.344
519.17	52.161
519.52	51.243
519.86	52.509
520.20	53.301
520.55	52.308
520.89	52.098
521.23	53.419
521.58	53.480
521.92	53.768
522.26	52.762
522.61	53.232
522.95	52.393
523.29	54.420
523.64	53.092
523.98	52.705
524.32	53.677
524.66	51.988
525.01	52.858
525.35	53.608
525.69	54.066
526.04	54.178
526.38	55.124
526.72	53.576
527.06	54.948
527.41	53.993
527.75	52.805
528.09	53.408
528.43	53.508
528.78	52.387
529.12	55.122
529.46	53.737
529.80	53.518
530.15	53.960
530.49	53.622
530.83	55.010
531.17	54.276
531.51	54.320
531.86	52.930
532.20	54.116
532.54	53.610
532.88	54.150
533.22	54.947
533.57	54.243
533.91	52.684
534.25	52.608
534.59	52.530
534.93	52.582
535.27	53.933
535.62	52.621
535.96	53.135
536.30	52.618
536.64	53.254
536.98	55.791
537.32	53.490
537.66	54.311
538.01	55.326
538.35	54.730
538.69	54.345
539.03	54.976
539.37	54.291
539.71	53.169
540.05	54.558
540.39	55.263
540.73	54.181
541.07	54.235
541.42	52.735
541.76	51.960
542.10	55.165
542.44	53.231
542.78	53.392
543.12	53.428
543.46	53.699
543.80	53.244
544.14	53.794
544.48	53.740
544.82	53.451
545.16	53.454
545.50	51.480
545.84	54.590
546.18	53.675
546.52	55.619
546.86	52.564
547.20	53.305
547.54	53.099
547.88	53.616
548.22	52.228
548.56	54.242
548.90	54.313
549.24	54.380
549.58	53.776
549.92	53.781
550.26	54.118
550.60	53.770
550.94	54.818
551.28	55.982
551.62	53.988
551.96	54.052
552.30	53.659
552.64	53.554
552.98	55.291
553.32	55.195
553.66	54.939
554.00	53.873
554.34	54.946
554.68	54.386
555.02	53.690
555.36	54.996
555.69	54.585
556.03	53.123
556.37	54.410
556.71	54.545
557.05	54.841
557.39	54.788
557.73	54.267
558.07	55.840
558.41	54.749
558.75	55.361
559.08	53.541
559.42	55.207
559.76	54.831
560.10	56.227
560.44	56.214
560.78	54.349
561.12	53.554
561.45	54.795
561.79	55.958
562.13	53.576
562.47	53.361
562.81	53.890
563.15	53.394
563.48	53.974
563.82	53.753
564.16	53.617
564.50	54.234
564.84	54.167
565.17	54.111
565.51	52.412
565.85	55.443
566.19	55.138
566.52	54.012
566.86	53.224
567.20	52.663
567.54	54.046
567.88	53.769
568.21	53.468
568.55	52.174
568.89	52.087
569.23	51.458
569.56	50.862
569.90	50.157
570.24	50.921
570.57	49.174
570.91	49.745
571.25	50.713
571.59	50.546
571.92	48.869
572.26	49.611
572.60	49.054
572.93	48.777
573.27	48.079
573.61	48.007
573.95	48.803
574.28	48.861
574.62	48.754
574.96	48.654
575.29	48.552
575.63	48.314
575.97	48.112
576.30	48.643
576.64	48.590
576.98	48.146
577.31	48.367
577.65	48.647
577.98	47.727
578.32	48.306
578.66	48.088
578.99	49.128
579.33	48.003
579.67	48.212
580.00	48.140
580.34	48.361
580.67	48.149
581.01	47.806
581.35	47.907
581.68	47.309
582.02	48.026
582.35	48.045
582.69	48.863
583.02	48.917
583.36	48.093
583.70	48.310
584.03	49.273
584.37	48.823
584.70	48.506
585.04	47.949
585.37	47.518
585.71	48.766
586.04	47.746
586.38	48.115
586.72	48.703
587.05	49.108
587.39	48.484
587.72	49.164
588.06	49.409
588.39	48.846
588.73	48.733
589.06	48.721
589.40	49.468
589.73	49.469
590.07	49.636
590.40	49.520
590.73	50.180
591.07	50.533
591.40	49.827
591.74	49.826
592.07	51.261
592.41	51.168
592.74	49.500
593.08	49.399
593.41	49.539
593.75	49.027
594.08	49.856
594.41	51.017
594.75	49.717
595.08	50.188
595.42	50.253
595.75	49.430
596.09	49.864
596.42	50.286
596.75	50.323
597.09	51.024
597.42	50.153
597.75	51.240
598.09	50.429
598.42	49.271
598.76	49.336
599.09	49.290
599.42	49.404
599.76	49.453
600.09	50.000
600.42	49.070
600.76	49.906
601.09	49.449
601.42	48.753
601.76	49.065
602.09	50.470
602.42	49.671
602.76	49.647
603.09	49.315
603.42	50.886
603.76	49.621
604.09	50.180
604.42	49.500
604.76	50.240
605.09	50.814
605.42	50.310
605.75	50.237
606.09	49.481
606.42	49.393
606.75	49.292
607.09	50.728
607.42	50.352
607.75	50.508
608.08	50.474
608.42	50.189
608.75	49.393
609.08	50.511
609.41	50.075
609.75	49.683
610.08	50.000
610.41	50.265
610.74	51.596
611.07	51.014
611.41	50.126
611.74	50.643
612.07	52.041
612.40	50.533
612.73	52.127
613.07	49.917
613.40	50.958
613.73	50.136
614.06	50.412
614.39	51.860
614.72	50.615
615.06	50.489
615.39	50.298
615.72	51.385
616.05	49.972
616.38	51.770
616.71	51.592
617.05	51.448
617.38	52.446
617.71	52.150
618.04	51.801
618.37	52.390
618.70	51.825
619.03	52.268
619.36	53.770
619.69	53.912
620.03	53.375
620.36	53.094
620.69	53.984
621.02	52.968
621.35	53.145
621.68	54.262
622.01	53.479
622.34	52.795
622.67	52.188
623.00	53.711
623.33	53.657
623.66	51.773
623.99	52.256
624.32	52.976
624.65	52.833
624.99	53.547
625.32	53.443
625.65	53.691
625.98	53.365
626.31	53.426
626.64	54.728
626.97	53.596
627.30	53.447
627.63	51.727
627.96	53.960
628.29	56.158
628.62	55.205
628.95	55.906
629.28	54.511
629.61	54.661
629.94	54.537
630.26	56.958
630.59	55.879
630.92	56.657
631.25	54.435
631.58	55.026
631.91	54.043
632.24	57.222
632.57	56.222
632.90	57.931
633.23	56.776
633.56	57.193
633.89	55.425
634.22	56.553
634.55	55.649
634.88	56.227
