SpectraSuite Data File
++++++++++++++++++++++++++++++++++++
Date: Sat May 16 11:29:30 PDT 2015
User: schluterlab
Dark Spectrum Present: Yes
Reference Spectrum Present: Yes
Number of Sampled Component Spectra: 1
Spectrometers: USB2E3373
Integration Time (usec): 3000 (USB2E3373)
Spectra Averaged: 3 (USB2E3373)
Boxcar Smoothing: 0 (USB2E3373)
Correct for Electrical Dark: No (USB2E3373)
Strobe/Lamp Enabled: No (USB2E3373)
Correct for Detector Non-linearity: No (USB2E3373)
Correct for Stray Light: No (USB2E3373)
Number of Pixels in Processed Spectrum: 2048
>>>>>Begin Processed Spectral Data<<<<<
178.53	0.000
178.91	133.333
179.29	433.333
179.67	-1000.000
180.04	-84.615
180.42	-500.000
180.80	450.000
181.18	675.000
181.56	-175.000
181.94	300.000
182.31	450.000
182.69	-130.769
183.07	-700.000
183.45	1500.000
183.83	700.000
184.20	-242.857
184.58	-212.500
184.96	-550.000
185.34	156.250
185.72	-575.000
186.09	300.000
186.47	-175.000
186.85	-187.500
187.23	-187.500
187.61	-175.000
187.98	-312.500
188.36	-112.500
188.74	-175.000
189.12	1500.000
189.49	314.286
189.87	-100.000
190.25	350.000
190.63	-121.429
191.00	-200.000
191.38	340.000
191.76	0.000
192.14	420.000
192.51	-140.000
192.89	-600.000
193.27	0.000
193.65	-144.444
194.02	-242.857
194.40	400.000
194.78	-100.000
195.15	100.000
195.53	-90.909
195.91	-300.000
196.29	40.000
196.66	-866.667
197.04	1800.000
197.42	25.000
197.79	-40.000
198.17	-333.333
198.55	-700.000
198.92	-700.000
199.30	200.000
199.68	-600.000
200.05	-188.889
200.43	-233.333
200.81	-1400.000
201.18	-100.000
201.56	314.286
201.94	-86.667
202.31	-13.636
202.69	90.000
203.07	-110.000
203.44	600.000
203.82	-266.667
204.19	-625.000
204.57	-250.000
204.95	-700.000
205.32	-68.750
205.70	1300.000
206.08	-1600.000
206.45	-72.222
206.83	-850.000
207.20	-150.000
207.58	-600.000
207.96	-366.667
208.33	-175.000
208.71	-111.111
209.08	180.000
209.46	-200.000
209.84	500.000
210.21	0.000
210.59	30.000
210.96	100.000
211.34	-333.333
211.71	-766.667
212.09	325.000
212.46	1250.000
212.84	-1600.000
213.22	633.333
213.59	150.000
213.97	-44.444
214.34	180.000
214.72	-160.000
215.09	-466.667
215.47	-283.333
215.84	-130.000
216.22	-30.000
216.59	46.667
216.97	-425.000
217.34	1300.000
217.72	-128.571
218.09	-383.333
218.47	-214.286
218.84	285.714
219.22	-214.286
219.59	0.000
219.97	257.143
220.34	475.000
220.72	175.000
221.09	-23.077
221.47	0.000
221.84	300.000
222.22	-250.000
222.59	800.000
222.97	-237.500
223.34	-950.000
223.72	-300.000
224.09	-64.286
224.46	-475.000
224.84	-64.286
225.21	-114.286
225.59	-81.818
225.96	-237.500
226.34	-228.571
226.71	-122.222
227.08	0.000
227.46	2300.000
227.83	-100.000
228.21	-262.500
228.58	500.000
228.95	-25.000
229.33	-1200.000
229.70	-140.000
230.08	-650.000
230.45	-125.000
230.82	-116.667
231.20	-1400.000
231.57	-450.000
231.95	1100.000
232.32	14.286
232.69	-222.222
233.07	-300.000
233.44	-1050.000
233.81	-73.333
234.19	-122.222
234.56	-31.250
234.93	3.125
235.31	-171.429
235.68	-142.857
236.05	-64.706
236.43	-81.818
236.80	-19.355
237.17	-37.500
237.55	-104.762
237.92	-72.727
238.29	-17.143
238.67	-17.647
239.04	-27.778
239.41	-19.355
239.79	-38.462
240.16	-23.810
240.53	-21.818
240.91	-41.026
241.28	-3.636
241.65	-3.077
242.02	-18.033
242.40	-18.033
242.77	-10.606
243.14	-15.254
243.51	-15.714
243.89	-20.253
244.26	-14.607
244.63	-6.316
245.00	-3.158
245.38	-1.695
245.75	-6.195
246.12	-2.400
246.49	-1.575
246.87	-15.447
247.24	-5.085
247.61	-22.034
247.98	-7.042
248.36	-13.287
248.73	-5.696
249.10	-10.191
249.47	0.585
249.84	4.545
250.22	-17.262
250.59	-0.565
250.96	-0.524
251.33	3.791
251.70	0.000
252.08	-2.370
252.45	-8.531
252.82	-8.571
253.19	-0.851
253.56	0.403
253.94	-1.688
254.31	-2.575
254.68	-0.813
255.05	-5.645
255.42	1.984
255.79	-3.226
256.16	-2.745
256.54	-2.206
256.91	-4.924
257.28	-5.128
257.65	-4.610
258.02	2.830
258.39	-2.007
258.76	-4.730
259.14	-2.160
259.51	-0.656
259.88	0.305
260.25	-0.621
260.62	-6.109
260.99	-2.374
261.36	-0.610
261.73	-3.179
262.10	-1.111
262.47	-1.709
262.85	1.429
263.22	-2.865
263.59	-4.308
263.96	1.739
264.33	2.439
264.70	-2.486
265.07	-4.670
265.44	0.258
265.81	-2.584
266.18	-2.025
266.55	0.980
266.92	-0.252
267.29	-1.453
267.66	0.494
268.03	1.449
268.40	1.174
268.77	0.241
269.14	-0.232
269.51	1.609
269.88	-2.294
270.25	-0.932
270.62	-0.686
270.99	-1.351
271.36	0.466
271.73	-1.345
272.10	-1.144
272.47	0.444
272.84	1.556
273.21	-0.459
273.58	-1.758
273.95	0.439
274.32	-2.036
274.69	0.000
275.06	0.818
275.43	-3.125
275.80	0.407
276.17	0.628
276.54	1.426
276.91	0.823
277.28	-1.623
277.65	-0.413
278.02	0.209
278.39	-0.196
278.76	-1.793
279.13	1.581
279.50	0.795
279.87	-0.423
280.23	-1.012
280.60	-0.596
280.97	-2.524
281.34	1.161
281.71	-0.192
282.08	-1.210
282.45	-1.833
282.82	0.969
283.19	-0.727
283.56	1.648
283.92	0.883
284.29	-1.115
284.66	0.899
285.03	0.891
285.40	0.554
285.77	1.930
286.14	0.722
286.51	-0.710
286.87	0.363
287.24	1.877
287.61	1.322
287.98	0.347
288.35	0.661
288.72	0.000
289.08	-1.186
289.45	3.030
289.82	0.173
290.19	2.463
290.56	0.496
290.93	2.544
291.29	1.135
291.66	-0.483
292.03	3.768
292.40	0.452
292.77	1.708
293.13	2.114
293.50	2.526
293.87	2.147
294.24	2.413
294.60	-0.152
294.97	2.428
295.34	1.333
295.71	1.190
296.08	0.922
296.44	1.431
296.81	1.567
297.18	1.408
297.55	3.249
297.91	3.766
298.28	1.096
298.65	2.232
299.02	4.813
299.38	1.070
299.75	2.853
300.12	4.103
300.48	4.220
300.85	3.408
301.22	3.105
301.59	2.991
301.95	5.038
302.32	3.390
302.69	4.162
303.05	3.175
303.42	2.250
303.79	2.990
304.15	3.673
304.52	3.851
304.89	3.660
305.25	2.808
305.62	3.760
305.99	5.889
306.35	2.997
306.72	3.075
307.09	4.767
307.45	3.632
307.82	4.022
308.19	3.915
308.55	5.011
308.92	3.545
309.29	4.324
309.65	3.606
310.02	4.428
310.38	2.270
310.75	5.533
311.12	5.165
311.48	4.489
311.85	4.840
312.22	5.355
312.58	6.409
312.95	5.708
313.31	4.995
313.68	7.437
314.05	5.539
314.41	5.835
314.78	4.995
315.14	7.108
315.51	4.863
315.87	5.905
316.24	6.220
316.61	7.869
316.97	6.169
317.34	6.840
317.70	5.659
318.07	7.276
318.43	6.273
318.80	7.512
319.16	5.629
319.53	7.143
319.89	6.397
320.26	7.549
320.62	6.731
320.99	7.562
321.35	6.207
321.72	6.755
322.08	8.408
322.45	7.426
322.81	8.261
323.18	9.222
323.54	8.872
323.91	10.009
324.27	9.411
324.64	9.689
325.00	10.820
325.37	11.041
325.73	12.598
326.10	9.832
326.46	12.434
326.83	12.766
327.19	14.262
327.56	14.651
327.92	14.528
328.29	14.545
328.65	14.818
329.01	16.254
329.38	16.236
329.74	17.399
330.11	16.682
330.47	16.712
330.84	17.782
331.20	17.870
331.56	18.961
331.93	19.005
332.29	20.639
332.66	19.754
333.02	20.362
333.38	21.505
333.75	21.460
334.11	20.889
334.48	21.447
334.84	22.922
335.20	22.429
335.57	21.209
335.93	24.082
336.29	22.498
336.66	22.291
337.02	23.514
337.38	22.906
337.75	23.617
338.11	22.809
338.47	22.776
338.84	23.775
339.20	21.880
339.56	24.332
339.93	22.751
340.29	23.738
340.65	23.864
341.02	23.103
341.38	23.083
341.74	23.455
342.11	24.317
342.47	24.464
342.83	23.929
343.20	23.228
343.56	23.510
343.92	23.539
344.28	24.643
344.65	23.515
345.01	24.370
345.37	25.166
345.73	21.768
346.10	21.423
346.46	22.502
346.82	22.935
347.19	23.418
347.55	23.194
347.91	23.543
348.27	22.912
348.63	23.183
349.00	23.628
349.36	22.639
349.72	24.204
350.08	23.897
350.45	22.459
350.81	24.283
351.17	22.910
351.53	22.593
351.89	23.040
352.26	22.481
352.62	23.502
352.98	23.418
353.34	23.102
353.70	23.320
354.07	23.289
354.43	23.162
354.79	23.376
355.15	23.163
355.51	22.656
355.87	23.162
356.24	23.272
356.60	25.302
356.96	23.634
357.32	23.199
357.68	22.989
358.04	23.865
358.40	23.666
358.77	22.566
359.13	23.106
359.49	24.490
359.85	22.942
360.21	23.668
360.57	23.494
360.93	24.222
361.29	24.365
361.66	22.942
362.02	23.373
362.38	24.138
362.74	24.249
363.10	22.525
363.46	25.071
363.82	24.781
364.18	23.444
364.54	25.161
364.90	24.389
365.26	24.465
365.62	24.091
365.98	25.036
366.35	22.958
366.71	23.326
367.07	24.488
367.43	24.640
367.79	24.674
368.15	24.253
368.51	25.664
368.87	24.794
369.23	25.123
369.59	24.514
369.95	25.652
370.31	25.035
370.67	23.138
371.03	24.417
371.39	23.197
371.75	25.465
372.11	25.323
372.47	24.946
372.83	24.757
373.19	25.500
373.55	25.968
373.91	25.036
374.27	24.778
374.63	25.397
374.99	26.287
375.35	25.572
375.71	26.401
376.07	26.489
376.42	24.967
376.78	25.556
377.14	26.915
377.50	26.112
377.86	25.943
378.22	26.884
378.58	25.818
378.94	26.264
379.30	27.118
379.66	27.080
380.02	26.084
380.38	26.586
380.74	26.964
381.09	27.944
381.45	27.506
381.81	27.344
382.17	28.571
382.53	26.748
382.89	27.990
383.25	27.634
383.61	26.769
383.97	27.312
384.32	27.409
384.68	27.690
385.04	27.295
385.40	27.632
385.76	28.720
386.12	28.482
386.48	28.651
386.83	28.344
387.19	28.452
387.55	28.710
387.91	28.809
388.27	26.719
388.62	28.606
388.98	28.528
389.34	27.601
389.70	28.745
390.06	28.776
390.42	28.974
390.77	27.886
391.13	30.062
391.49	29.445
391.85	28.117
392.20	29.248
392.56	29.933
392.92	29.435
393.28	29.392
393.64	29.345
393.99	29.046
394.35	29.440
394.71	28.721
395.07	29.253
395.42	28.784
395.78	29.164
396.14	29.346
396.50	29.235
396.85	29.056
397.21	29.708
397.57	29.422
397.92	29.391
398.28	29.500
398.64	28.079
399.00	29.888
399.35	28.129
399.71	28.978
400.07	29.672
400.42	29.866
400.78	28.324
401.14	29.341
401.49	28.833
401.85	29.286
402.21	29.321
402.57	29.248
402.92	28.760
403.28	29.044
403.63	28.999
403.99	29.521
404.35	28.080
404.70	29.081
405.06	29.123
405.42	28.413
405.77	28.563
406.13	28.677
406.49	29.179
406.84	28.854
407.20	28.916
407.55	29.006
407.91	28.497
408.27	28.799
408.62	28.863
408.98	29.594
409.34	28.885
409.69	28.922
410.05	28.866
410.40	29.185
410.76	29.164
411.11	28.616
411.47	28.708
411.83	29.401
412.18	28.465
412.54	28.310
412.89	28.736
413.25	27.745
413.60	27.582
413.96	28.651
414.31	28.685
414.67	27.873
415.03	29.754
415.38	28.757
415.74	28.802
416.09	28.389
416.45	28.571
416.80	28.349
417.16	27.841
417.51	30.007
417.87	28.932
418.22	28.824
418.58	29.012
418.93	28.326
419.29	28.607
419.64	28.706
420.00	29.648
420.35	29.509
420.71	29.892
421.06	30.059
421.42	28.162
421.77	28.587
422.12	29.211
422.48	29.556
422.83	28.702
423.19	29.510
423.54	29.222
423.90	29.670
424.25	28.733
424.61	30.338
424.96	29.725
425.31	30.520
425.67	29.513
426.02	29.547
426.38	30.792
426.73	30.333
427.09	30.270
427.44	30.455
427.79	30.291
428.15	30.281
428.50	30.909
428.85	30.276
429.21	29.994
429.56	31.094
429.92	29.459
430.27	30.558
430.62	31.139
430.98	30.423
431.33	30.683
431.68	31.475
432.04	30.554
432.39	31.567
432.74	30.336
433.10	30.670
433.45	30.570
433.80	31.299
434.16	31.327
434.51	31.671
434.86	32.279
435.22	31.013
435.57	31.089
435.92	29.836
436.28	30.742
436.63	31.317
436.98	30.813
437.34	31.010
437.69	30.280
438.04	31.083
438.39	31.949
438.75	31.315
439.10	31.316
439.45	30.416
439.81	32.169
440.16	32.027
440.51	32.059
440.86	31.984
441.22	31.012
441.57	31.737
441.92	31.611
442.27	31.764
442.63	32.242
442.98	32.280
443.33	31.686
443.68	31.371
444.03	32.466
444.39	32.403
444.74	33.700
445.09	32.730
445.44	32.414
445.79	33.554
446.15	33.297
446.50	32.934
446.85	32.324
447.20	32.329
447.55	31.326
447.91	32.341
448.26	31.899
448.61	31.579
448.96	32.773
449.31	32.018
449.66	33.658
450.02	31.302
450.37	32.928
450.72	32.881
451.07	34.129
451.42	32.156
451.77	33.453
452.12	32.896
452.47	33.753
452.83	33.430
453.18	33.080
453.53	33.085
453.88	33.911
454.23	33.071
454.58	33.810
454.93	32.746
455.28	33.142
455.63	32.555
455.98	33.434
456.34	32.592
456.69	33.709
457.04	33.128
457.39	33.254
457.74	33.609
458.09	32.715
458.44	34.007
458.79	32.455
459.14	33.485
459.49	33.748
459.84	33.221
460.19	33.234
460.54	32.789
460.89	33.913
461.24	33.333
461.59	33.880
461.94	34.182
462.29	33.591
462.64	33.465
462.99	34.605
463.34	32.478
463.69	33.842
464.04	33.978
464.39	33.393
464.74	33.333
465.09	32.532
465.44	33.954
465.79	34.010
466.14	33.314
466.49	33.333
466.84	33.193
467.19	33.978
467.54	33.734
467.89	34.649
468.24	35.036
468.59	33.729
468.94	34.984
469.29	33.918
469.64	34.771
469.99	35.854
470.34	33.667
470.68	35.610
471.03	35.237
471.38	34.028
471.73	35.594
472.08	34.739
472.43	34.106
472.78	34.867
473.13	32.803
473.48	35.099
473.83	34.181
474.17	35.096
474.52	34.910
474.87	34.266
475.22	35.162
475.57	35.111
475.92	34.611
476.27	34.457
476.61	34.141
476.96	34.768
477.31	35.038
477.66	35.750
478.01	34.198
478.36	34.887
478.70	35.184
479.05	34.613
479.40	34.974
479.75	34.811
480.10	34.325
480.45	33.752
480.79	34.847
481.14	34.972
481.49	35.237
481.84	34.397
482.19	35.541
482.53	35.464
482.88	35.216
483.23	34.836
483.58	35.569
483.92	34.974
484.27	35.224
484.62	35.162
484.97	34.957
485.31	34.208
485.66	33.150
486.01	33.364
486.36	34.230
486.70	35.148
487.05	34.493
487.40	34.295
487.75	34.503
488.09	33.755
488.44	34.608
488.79	35.126
489.13	34.956
489.48	36.011
489.83	35.633
490.17	36.091
490.52	36.187
490.87	35.381
491.22	35.965
491.56	35.972
491.91	36.403
492.26	36.557
492.60	35.538
492.95	35.840
493.30	35.588
493.64	34.744
493.99	36.281
494.34	36.524
494.68	36.283
495.03	35.803
495.37	36.431
495.72	36.690
496.07	35.946
496.41	36.498
496.76	36.484
497.11	35.563
497.45	36.303
497.80	37.319
498.14	36.051
498.49	35.610
498.84	35.583
499.18	36.647
499.53	36.970
499.87	36.245
500.22	36.324
500.56	36.918
500.91	36.108
501.26	36.778
501.60	37.265
501.95	37.729
502.29	36.797
502.64	37.671
502.98	36.560
503.33	36.466
503.67	36.159
504.02	37.422
504.36	36.422
504.71	36.474
505.06	36.995
505.40	37.275
505.75	37.144
506.09	36.754
506.44	37.393
506.78	36.879
507.13	37.693
507.47	36.881
507.82	37.429
508.16	37.617
508.51	37.403
508.85	37.578
509.19	37.049
509.54	37.949
509.88	37.713
510.23	37.526
510.57	38.466
510.92	38.185
511.26	37.002
511.61	36.933
511.95	37.500
512.30	37.053
512.64	37.340
512.98	38.064
513.33	38.331
513.67	37.186
514.02	37.864
514.36	37.784
514.70	38.257
515.05	38.193
515.39	38.178
515.74	38.976
516.08	38.040
516.42	37.734
516.77	38.013
517.11	38.787
517.46	38.337
517.80	38.026
518.14	38.829
518.49	38.912
518.83	38.042
519.17	38.188
519.52	38.172
519.86	38.112
520.20	39.425
520.55	39.262
520.89	38.760
521.23	39.133
521.58	39.122
521.92	39.139
522.26	38.476
522.61	38.847
522.95	37.843
523.29	38.495
523.64	38.351
523.98	40.484
524.32	38.906
524.66	39.068
525.01	38.664
525.35	39.948
525.69	38.842
526.04	39.295
526.38	40.993
526.72	38.314
527.06	40.234
527.41	39.076
527.75	38.614
528.09	40.304
528.43	39.934
528.78	39.510
529.12	40.397
529.46	39.240
529.80	38.735
530.15	39.021
530.49	38.228
530.83	39.686
531.17	40.606
531.51	39.384
531.86	39.105
532.20	39.744
532.54	40.107
532.88	38.406
533.22	38.770
533.57	39.491
533.91	38.702
534.25	38.404
534.59	38.289
534.93	37.648
535.27	39.396
535.62	38.619
535.96	39.819
536.30	38.220
536.64	40.106
536.98	40.395
537.32	39.323
537.66	39.443
538.01	38.763
538.35	39.932
538.69	39.372
539.03	39.810
539.37	39.188
539.71	39.426
540.05	39.685
540.39	39.681
540.73	40.290
541.07	40.369
541.42	39.230
541.76	37.741
542.10	40.041
542.44	39.507
542.78	39.552
543.12	39.579
543.46	39.658
543.80	39.599
544.14	38.684
544.48	39.961
544.82	39.242
545.16	40.376
545.50	38.560
545.84	39.917
546.18	39.459
546.52	39.616
546.86	40.028
547.20	40.647
547.54	39.187
547.88	40.544
548.22	38.467
548.56	39.613
548.90	39.825
549.24	38.683
549.58	39.097
549.92	40.141
550.26	41.329
550.60	38.834
550.94	40.365
551.28	40.406
551.62	40.842
551.96	39.146
552.30	39.582
552.64	41.098
552.98	41.416
553.32	40.693
553.66	41.745
554.00	40.441
554.34	39.711
554.68	40.132
555.02	40.232
555.36	40.690
555.69	39.183
556.03	40.211
556.37	39.545
556.71	39.656
557.05	41.094
557.39	40.312
557.73	41.284
558.07	41.372
558.41	40.314
558.75	40.380
559.08	41.012
559.42	41.807
559.76	41.028
560.10	40.418
560.44	40.390
560.78	40.501
561.12	40.925
561.45	41.849
561.79	40.000
562.13	40.954
562.47	39.986
562.81	39.533
563.15	39.748
563.48	39.599
563.82	40.162
564.16	40.568
564.50	39.718
564.84	40.013
565.17	40.119
565.51	40.026
565.85	41.515
566.19	41.370
566.52	39.726
566.86	40.708
567.20	41.889
567.54	40.402
567.88	39.754
568.21	39.821
568.55	39.502
568.89	38.569
569.23	37.992
569.56	37.747
569.90	37.569
570.24	38.670
570.57	37.364
570.91	37.538
571.25	36.446
571.59	37.090
571.92	36.696
572.26	37.118
572.60	36.922
572.93	36.544
573.27	36.280
573.61	36.077
573.95	36.828
574.28	36.173
574.62	36.909
574.96	36.740
575.29	36.153
575.63	36.820
575.97	35.976
576.30	36.668
576.64	36.736
576.98	35.506
577.31	36.329
577.65	36.547
577.98	36.101
578.32	36.266
578.66	36.547
578.99	36.566
579.33	36.096
579.67	36.318
580.00	36.334
580.34	36.619
580.67	36.798
581.01	35.695
581.35	36.335
581.68	35.744
582.02	36.460
582.35	36.091
582.69	36.225
583.02	36.760
583.36	36.916
583.70	36.457
584.03	36.934
584.37	37.185
584.70	36.796
585.04	36.481
585.37	35.967
585.71	36.647
586.04	36.499
586.38	36.889
586.72	37.148
587.05	36.958
587.39	36.465
587.72	37.059
588.06	37.827
588.39	36.742
588.73	37.658
589.06	37.660
589.40	37.444
589.73	37.465
590.07	36.890
590.40	37.491
590.73	37.945
591.07	38.525
591.40	38.215
591.74	38.792
592.07	38.559
592.41	38.004
592.74	38.278
593.08	37.899
593.41	36.612
593.75	36.894
594.08	37.671
594.41	38.336
594.75	38.203
595.08	37.857
595.42	37.681
595.75	37.119
596.09	37.796
596.42	38.298
596.75	37.818
597.09	38.646
597.42	38.018
597.75	38.264
598.09	38.590
598.42	38.445
598.76	38.455
599.09	37.372
599.42	37.216
599.76	37.675
600.09	38.473
600.42	38.017
600.76	37.702
601.09	37.904
601.42	37.990
601.76	38.240
602.09	38.405
602.42	38.601
602.76	38.305
603.09	37.621
603.42	38.840
603.76	38.293
604.09	38.046
604.42	37.427
604.76	38.334
605.09	38.698
605.42	39.140
605.75	38.767
606.09	38.356
606.42	38.207
606.75	37.312
607.09	39.082
607.42	38.204
607.75	37.969
608.08	38.952
608.42	38.884
608.75	38.178
609.08	39.016
609.41	37.967
609.75	39.493
610.08	38.725
610.41	38.554
610.74	39.362
611.07	39.300
611.41	38.729
611.74	40.000
612.07	39.474
612.40	39.179
612.73	39.526
613.07	38.855
613.40	39.847
613.73	40.000
614.06	38.660
614.39	41.037
614.72	39.162
615.06	39.185
615.39	39.230
615.72	39.815
616.05	39.426
616.38	40.511
616.71	39.700
617.05	40.591
617.38	39.752
617.71	40.541
618.04	40.621
618.37	40.629
618.70	40.613
619.03	41.435
619.36	41.367
619.69	40.775
620.03	40.083
620.36	40.999
620.69	41.206
621.02	41.020
621.35	41.774
621.68	40.984
622.01	41.586
622.34	41.925
622.67	41.016
623.00	41.316
623.33	41.791
623.66	40.251
623.99	41.880
624.32	40.551
624.65	42.163
624.99	42.345
625.32	40.644
625.65	42.191
625.98	41.393
626.31	43.719
626.64	42.845
626.97	43.921
627.30	41.872
627.63	41.451
627.96	42.820
628.29	43.382
628.62	42.693
628.95	44.783
629.28	43.891
629.61	43.278
629.94	41.777
630.26	43.837
630.59	44.824
630.92	44.845
631.25	45.363
631.58	43.386
631.91	42.766
632.24	45.222
632.57	45.000
632.90	45.402
633.23	44.977
633.56	44.795
633.89	44.693
