SpectraSuite Data File
++++++++++++++++++++++++++++++++++++
Date: Sat May 16 11:10:35 PDT 2015
User: schluterlab
Dark Spectrum Present: Yes
Reference Spectrum Present: Yes
Number of Sampled Component Spectra: 1
Spectrometers: USB2E3373
Integration Time (usec): 3000 (USB2E3373)
Spectra Averaged: 3 (USB2E3373)
Boxcar Smoothing: 0 (USB2E3373)
Correct for Electrical Dark: No (USB2E3373)
Strobe/Lamp Enabled: No (USB2E3373)
Correct for Detector Non-linearity: No (USB2E3373)
Correct for Stray Light: No (USB2E3373)
Number of Pixels in Processed Spectrum: 2048
>>>>>Begin Processed Spectral Data<<<<<
178.53	0.000
178.91	66.667
179.29	600.000
179.67	-600.000
180.04	-92.308
180.42	100.000
180.80	-125.000
181.18	125.000
181.56	137.500
181.94	600.000
182.31	125.000
182.69	53.846
183.07	-200.000
183.45	1050.000
183.83	266.667
184.20	-171.429
184.58	-75.000
184.96	-25.000
185.34	112.500
185.72	-100.000
186.09	-66.667
186.47	-75.000
186.85	-150.000
187.23	-25.000
187.61	-175.000
187.98	-162.500
188.36	-112.500
188.74	-25.000
189.12	300.000
189.49	271.429
189.87	41.667
190.25	125.000
190.63	28.571
191.00	-22.222
191.38	120.000
191.76	-13.333
192.14	260.000
192.51	120.000
192.89	-200.000
193.27	0.000
193.65	-200.000
194.02	-157.143
194.40	300.000
194.78	-120.000
195.15	-1200.000
195.53	9.091
195.91	-316.667
196.29	200.000
196.66	-266.667
197.04	1500.000
197.42	25.000
197.79	66.667
198.17	-33.333
198.55	-450.000
198.92	-600.000
199.30	12.500
199.68	-200.000
200.05	-55.556
200.43	0.000
200.81	-600.000
201.18	-58.333
201.56	157.143
201.94	33.333
202.31	81.818
202.69	0.000
203.07	60.000
203.44	433.333
203.82	-350.000
204.19	-75.000
204.57	-100.000
204.95	0.000
205.32	-50.000
205.70	-200.000
206.08	-1400.000
206.45	-5.556
206.83	-400.000
207.20	100.000
207.58	-100.000
207.96	0.000
208.33	125.000
208.71	-22.222
209.08	130.000
209.46	-85.714
209.84	150.000
210.21	0.000
210.59	95.000
210.96	1500.000
211.34	-216.667
211.71	-100.000
212.09	100.000
212.46	950.000
212.84	-1200.000
213.22	166.667
213.59	41.667
213.97	22.222
214.34	40.000
214.72	10.000
215.09	133.333
215.47	-83.333
215.84	70.000
216.22	-90.000
216.59	53.333
216.97	-75.000
217.34	400.000
217.72	114.286
218.09	-166.667
218.47	-28.571
218.84	100.000
219.22	14.286
219.59	0.000
219.97	128.571
220.34	225.000
220.72	225.000
221.09	-23.077
221.47	0.000
221.84	400.000
222.22	-700.000
222.59	-300.000
222.97	-125.000
223.34	-600.000
223.72	-133.333
224.09	7.143
224.46	-325.000
224.84	-14.286
225.21	-171.429
225.59	-81.818
225.96	75.000
226.34	14.286
226.71	-22.222
227.08	60.000
227.46	200.000
227.83	-157.143
228.21	0.000
228.58	-200.000
228.95	12.500
229.33	100.000
229.70	-220.000
230.08	-150.000
230.45	83.333
230.82	-50.000
231.20	0.000
231.57	-400.000
231.95	400.000
232.32	14.286
232.69	33.333
233.07	-85.714
233.44	-550.000
233.81	-53.333
234.19	88.889
234.56	31.250
234.93	50.000
235.31	-157.143
235.68	-28.571
236.05	-5.882
236.43	27.273
236.80	22.581
237.17	41.667
237.55	47.619
237.92	-13.636
238.29	8.571
238.67	41.176
239.04	44.444
239.41	35.484
239.79	-12.821
240.16	4.762
240.53	10.909
240.91	33.333
241.28	25.455
241.65	6.154
242.02	31.148
242.40	14.754
242.77	16.667
243.14	25.424
243.51	14.286
243.89	22.785
244.26	14.607
244.63	25.263
245.00	15.789
245.38	28.814
245.75	29.204
246.12	29.600
246.49	18.898
246.87	26.016
247.24	20.339
247.61	16.949
247.98	26.761
248.36	21.678
248.73	27.215
249.10	24.841
249.47	25.731
249.84	24.432
250.22	20.833
250.59	25.424
250.96	29.319
251.33	18.957
251.70	22.115
252.08	24.171
252.45	17.062
252.82	23.810
253.19	25.957
253.56	27.016
253.94	24.473
254.31	26.609
254.68	27.642
255.05	22.177
255.42	22.222
255.79	23.297
256.16	25.490
256.54	29.412
256.91	23.485
257.28	22.711
257.65	23.759
258.02	26.415
258.39	24.080
258.76	25.000
259.14	22.531
259.51	27.869
259.88	25.610
260.25	29.814
260.62	28.617
260.99	21.662
261.36	28.354
261.73	23.699
262.10	29.722
262.47	25.071
262.85	26.857
263.22	22.636
263.59	24.308
263.96	25.217
264.33	24.932
264.70	26.796
265.07	24.176
265.44	23.773
265.81	24.548
266.18	21.772
266.55	26.961
266.92	27.204
267.29	30.266
267.66	26.667
268.03	26.812
268.40	24.413
268.77	25.783
269.14	25.058
269.51	25.057
269.88	22.936
270.25	24.009
270.62	25.172
270.99	24.775
271.36	25.874
271.73	26.457
272.10	24.714
272.47	24.444
272.84	26.889
273.21	25.688
273.58	23.297
273.95	26.754
274.32	26.244
274.69	26.477
275.06	28.425
275.43	25.446
275.80	24.644
276.17	26.151
276.54	26.273
276.91	25.103
277.28	22.921
277.65	25.207
278.02	25.470
278.39	26.326
278.76	24.502
279.13	26.285
279.50	25.447
279.87	25.370
280.23	25.506
280.60	27.038
280.97	26.602
281.34	25.919
281.71	25.192
282.08	25.000
282.45	25.458
282.82	25.775
283.19	25.818
283.56	25.641
283.92	27.208
284.29	26.394
284.66	24.101
285.03	25.668
285.40	24.723
285.77	25.439
286.14	24.368
286.51	24.334
286.87	25.045
287.24	25.939
287.61	24.132
287.98	23.744
288.35	22.645
288.72	23.260
289.08	22.712
289.45	22.391
289.82	23.356
290.19	26.273
290.56	21.818
290.93	22.099
291.29	22.042
291.66	23.510
292.03	24.647
292.40	20.633
292.77	22.050
293.13	21.301
293.50	22.585
293.87	21.012
294.24	22.474
294.60	21.970
294.97	21.548
295.34	22.074
295.71	20.238
296.08	18.894
296.44	17.740
296.81	20.370
297.18	18.873
297.55	21.751
297.91	19.805
298.28	18.767
298.65	18.828
299.02	19.786
299.38	18.984
299.75	19.293
300.12	18.846
300.48	20.460
300.85	17.431
301.22	19.534
301.59	17.035
301.95	20.403
302.32	18.383
302.69	17.258
303.05	20.513
303.42	18.000
303.79	18.660
304.15	18.128
304.52	19.253
304.89	17.473
305.25	16.361
305.62	17.626
305.99	19.552
306.35	17.980
306.72	17.198
307.09	17.480
307.45	17.594
307.82	16.425
308.19	17.897
308.55	17.865
308.92	16.864
309.29	17.297
309.65	16.755
310.02	17.711
310.38	15.351
310.75	17.316
311.12	18.905
311.48	17.432
311.85	16.375
312.22	18.538
312.58	17.904
312.95	15.800
313.31	18.781
313.68	17.588
314.05	17.606
314.41	15.392
314.78	15.185
315.14	16.683
315.51	17.730
315.87	16.747
316.24	16.327
316.61	17.466
316.97	17.811
317.34	15.511
317.70	16.976
318.07	16.978
318.43	16.199
318.80	18.028
319.16	15.666
319.53	16.729
319.89	15.146
320.26	17.059
320.62	15.192
320.99	17.114
321.35	15.567
321.72	15.865
322.08	17.804
322.45	15.149
322.81	16.523
323.18	17.003
323.54	16.821
323.91	16.126
324.27	15.779
324.64	15.905
325.00	16.667
325.37	18.100
325.73	17.323
326.10	13.995
326.46	15.937
326.83	15.915
327.19	15.763
327.56	17.632
327.92	16.992
328.29	17.403
328.65	15.727
329.01	16.343
329.38	14.451
329.74	17.491
330.11	15.866
330.47	16.349
330.84	16.774
331.20	16.155
331.56	15.861
331.93	16.075
332.29	16.712
332.66	15.979
333.02	16.018
333.38	16.398
333.75	16.207
334.11	15.644
334.48	14.651
334.84	17.060
335.20	15.780
335.57	15.794
335.93	16.741
336.29	16.298
336.66	14.185
337.02	15.586
337.38	15.152
337.75	14.925
338.11	14.132
338.47	16.103
338.84	14.610
339.20	15.817
339.56	17.380
339.93	15.785
340.29	14.615
340.65	15.385
341.02	16.189
341.38	15.670
341.74	15.157
342.11	15.444
342.47	14.077
342.83	15.533
343.20	15.371
343.56	14.449
343.92	15.025
344.28	15.475
344.65	14.851
345.01	16.387
345.37	16.445
345.73	14.403
346.10	14.554
346.46	15.353
346.82	14.515
347.19	14.790
347.55	15.249
347.91	14.803
348.27	14.081
348.63	15.670
349.00	15.274
349.36	14.520
349.72	16.003
350.08	14.916
350.45	14.263
350.81	15.048
351.17	13.826
351.53	14.240
351.89	14.632
352.26	14.419
352.62	16.283
352.98	13.687
353.34	14.708
353.70	14.672
354.07	15.421
354.43	14.783
354.79	14.501
355.15	15.016
355.51	13.828
355.87	13.439
356.24	14.456
356.60	15.955
356.96	15.089
357.32	14.331
357.68	15.249
358.04	14.781
358.40	14.076
358.77	14.297
359.13	13.466
359.49	14.815
359.85	14.482
360.21	13.775
360.57	15.211
360.93	15.556
361.29	14.873
361.66	12.881
362.02	14.349
362.38	13.646
362.74	13.993
363.10	13.773
363.46	15.028
363.82	14.723
364.18	14.544
364.54	16.154
364.90	14.396
365.26	13.837
365.62	14.255
365.98	14.225
366.35	14.085
366.71	12.755
367.07	14.538
367.43	15.031
367.79	13.814
368.15	13.514
368.51	14.336
368.87	14.904
369.23	14.456
369.59	14.375
369.95	14.376
370.31	14.276
370.67	13.811
371.03	14.067
371.39	14.144
371.75	14.521
372.11	13.558
372.47	14.244
372.83	14.882
373.19	13.786
373.55	15.060
373.91	14.296
374.27	13.073
374.63	14.976
374.99	14.673
375.35	13.863
375.71	15.125
376.07	13.347
376.42	13.841
376.78	14.314
377.14	15.322
377.50	14.700
377.86	14.889
378.22	14.636
378.58	14.021
378.94	14.242
379.30	14.747
379.66	14.451
380.02	14.439
380.38	14.260
380.74	14.009
381.09	14.528
381.45	13.962
381.81	13.551
382.17	14.724
382.53	13.921
382.89	14.653
383.25	15.051
383.61	14.623
383.97	15.003
384.32	14.706
384.68	14.692
385.04	14.010
385.40	14.060
385.76	14.573
386.12	15.053
386.48	14.418
386.83	14.110
387.19	14.585
387.55	14.537
387.91	13.752
388.27	13.510
388.62	14.002
388.98	14.416
389.34	13.158
389.70	14.434
390.06	14.667
390.42	15.385
390.77	14.069
391.13	15.217
391.49	14.847
391.85	14.464
392.20	14.260
392.56	14.478
392.92	14.604
393.28	14.696
393.64	14.552
393.99	14.892
394.35	14.416
394.71	14.268
395.07	14.815
395.42	13.886
395.78	14.268
396.14	14.393
396.50	14.679
396.85	14.127
397.21	14.824
397.57	14.833
397.92	14.988
398.28	14.444
398.64	15.170
399.00	15.787
399.35	14.374
399.71	14.983
400.07	15.343
400.42	15.450
400.78	14.252
401.14	14.671
401.49	14.623
401.85	15.070
402.21	15.018
402.57	14.684
402.92	15.167
403.28	13.909
403.63	13.661
403.99	15.165
404.35	14.372
404.70	15.097
405.06	15.167
405.42	14.453
405.77	14.197
406.13	14.310
406.49	14.979
406.84	15.177
407.20	16.490
407.55	15.516
407.91	14.961
408.27	15.135
408.62	15.274
408.98	15.039
409.34	14.503
409.69	14.934
410.05	14.797
410.40	15.328
410.76	14.878
411.11	14.526
411.47	15.409
411.83	15.770
412.18	14.171
412.54	14.826
412.89	14.216
413.25	14.168
413.60	14.459
413.96	13.986
414.31	14.985
414.67	14.476
415.03	15.006
415.38	15.094
415.74	15.271
416.09	14.642
416.45	14.021
416.80	14.954
417.16	14.020
417.51	15.167
417.87	15.016
418.22	15.487
418.58	15.148
418.93	14.899
419.29	15.182
419.64	14.761
420.00	14.095
420.35	14.488
420.71	13.745
421.06	15.444
421.42	13.993
421.77	15.020
422.12	15.389
422.48	14.484
422.83	14.920
423.19	14.087
423.54	15.101
423.90	14.806
424.25	15.215
424.61	15.259
424.96	15.097
425.31	14.925
425.67	14.728
426.02	14.400
426.38	15.003
426.73	15.196
427.09	15.074
427.44	15.341
427.79	14.651
428.15	15.799
428.50	14.487
428.85	15.048
429.21	14.278
429.56	14.740
429.92	14.729
430.27	15.005
430.62	15.883
430.98	15.578
431.33	14.728
431.68	15.496
432.04	15.501
432.39	15.954
432.74	15.588
433.10	14.800
433.45	14.450
433.80	14.502
434.16	15.153
434.51	15.123
434.86	16.052
435.22	15.089
435.57	15.545
435.92	15.416
436.28	15.549
436.63	15.602
436.98	14.891
437.34	15.889
437.69	15.111
438.04	15.258
438.39	14.922
438.75	15.134
439.10	15.880
439.45	15.208
439.81	15.301
440.16	15.673
440.51	15.353
440.86	15.616
441.22	14.704
441.57	14.632
441.92	15.345
442.27	14.827
442.63	14.807
442.98	14.955
443.33	15.596
443.68	15.320
444.03	16.061
444.39	14.929
444.74	15.859
445.09	14.967
445.44	14.800
445.79	15.553
446.15	16.320
446.50	14.208
446.85	15.444
447.20	15.373
447.55	14.862
447.91	15.160
448.26	16.034
448.61	15.393
448.96	15.630
449.31	14.600
449.66	15.226
450.02	15.346
450.37	15.420
450.72	14.802
451.07	15.336
451.42	15.242
451.77	15.560
452.12	15.852
452.47	15.239
452.83	14.910
453.18	14.801
453.53	15.112
453.88	15.490
454.23	15.054
454.58	15.848
454.93	15.239
455.28	15.997
455.63	15.111
455.98	15.783
456.34	15.057
456.69	15.510
457.04	16.165
457.39	15.371
457.74	15.712
458.09	15.719
458.44	15.647
458.79	14.798
459.14	15.060
459.49	15.808
459.84	16.020
460.19	15.513
460.54	15.245
460.89	14.910
461.24	15.726
461.59	15.768
461.94	16.041
462.29	15.545
462.64	15.217
462.99	16.198
463.34	16.003
463.69	15.840
464.04	15.466
464.39	15.591
464.74	15.603
465.09	15.153
465.44	15.567
465.79	16.131
466.14	16.801
466.49	15.083
466.84	16.327
467.19	15.461
467.54	15.190
467.89	15.166
468.24	15.974
468.59	15.428
468.94	14.855
469.29	15.530
469.64	16.173
469.99	16.475
470.34	15.364
470.68	17.006
471.03	16.449
471.38	15.139
471.73	15.734
472.08	15.395
472.43	15.894
472.78	16.667
473.13	15.242
473.48	15.444
473.83	15.199
474.17	14.968
474.52	16.240
474.87	16.200
475.22	15.634
475.57	14.667
475.92	15.875
476.27	15.486
476.61	16.113
476.96	15.148
477.31	15.823
477.66	15.606
478.01	15.883
478.36	16.396
478.70	16.498
479.05	17.036
479.40	16.062
479.75	15.851
480.10	15.724
480.45	15.232
480.79	15.893
481.14	16.307
481.49	16.457
481.84	15.996
482.19	16.354
482.53	16.004
482.88	15.852
483.23	16.244
483.58	16.559
483.92	16.054
484.27	15.685
484.62	16.371
484.97	15.394
485.31	15.456
485.66	15.750
486.01	15.754
486.36	15.987
486.70	16.413
487.05	16.346
487.40	16.159
487.75	16.367
488.09	15.720
488.44	16.035
488.79	16.166
489.13	16.128
489.48	16.272
489.83	16.288
490.17	15.890
490.52	16.123
490.87	15.889
491.22	15.367
491.56	16.065
491.91	15.887
492.26	16.179
492.60	16.127
492.95	16.278
493.30	16.579
493.64	16.408
493.99	15.918
494.34	16.429
494.68	16.760
495.03	16.396
495.37	16.273
495.72	16.454
496.07	16.753
496.41	17.045
496.76	16.621
497.11	17.193
497.45	16.667
497.80	16.308
498.14	16.454
498.49	16.323
498.84	16.456
499.18	16.715
499.53	16.512
499.87	15.927
500.22	16.569
500.56	16.408
500.91	15.862
501.26	17.079
501.60	16.659
501.95	17.198
502.29	16.675
502.64	17.067
502.98	15.956
503.33	16.541
503.67	16.858
504.02	16.948
504.36	16.765
504.71	16.869
505.06	16.725
505.40	17.415
505.75	16.667
506.09	16.229
506.44	17.043
506.78	16.959
507.13	16.014
507.47	16.797
507.82	17.863
508.16	17.202
508.51	16.332
508.85	17.184
509.19	16.693
509.54	16.596
509.88	17.979
510.23	17.610
510.57	17.513
510.92	17.938
511.26	17.278
511.61	16.253
511.95	16.810
512.30	17.152
512.64	16.917
512.98	17.602
513.33	17.024
513.67	17.253
514.02	17.114
514.36	18.116
514.70	16.695
515.05	17.839
515.39	17.705
515.74	17.568
516.08	17.118
516.42	18.527
516.77	17.447
517.11	18.135
517.46	17.943
517.80	18.051
518.14	16.727
518.49	17.215
518.83	17.270
519.17	17.999
519.52	17.293
519.86	18.339
520.20	17.176
520.55	17.169
520.89	17.533
521.23	17.827
521.58	17.806
521.92	17.669
522.26	17.905
522.61	17.364
522.95	16.847
523.29	17.555
523.64	17.676
523.98	17.123
524.32	18.416
524.66	18.012
525.01	17.983
525.35	17.461
525.69	17.827
526.04	17.624
526.38	18.460
526.72	17.433
527.06	18.034
527.41	18.020
527.75	17.492
528.09	17.472
528.43	17.836
528.78	18.090
529.12	17.862
529.46	17.655
529.80	18.141
530.15	17.321
530.49	17.917
530.83	18.402
531.17	17.912
531.51	18.419
531.86	17.907
532.20	16.937
532.54	17.380
532.88	18.248
533.22	17.313
533.57	17.885
533.91	17.104
534.25	17.473
534.59	16.989
534.93	17.673
535.27	17.936
535.62	17.903
535.96	17.647
536.30	17.866
536.64	18.127
536.98	18.362
537.32	17.208
537.66	17.312
538.01	17.663
538.35	17.635
538.69	18.182
539.03	18.145
539.37	17.631
539.71	17.945
540.05	17.546
540.39	18.283
540.73	18.452
541.07	18.033
541.42	17.218
541.76	17.542
542.10	18.974
542.44	17.388
542.78	17.978
543.12	16.972
543.46	17.260
543.80	17.458
544.14	17.999
544.48	17.782
544.82	17.591
545.16	18.176
545.50	17.699
545.84	18.011
546.18	18.169
546.52	17.425
546.86	18.661
547.20	18.495
547.54	16.460
547.88	18.115
548.22	17.628
548.56	17.836
548.90	17.655
549.24	18.430
549.58	18.278
549.92	18.092
550.26	19.075
550.60	18.065
550.94	17.226
551.28	17.758
551.62	17.725
551.96	19.247
552.30	18.049
552.64	18.367
552.98	18.010
553.32	18.182
553.66	18.169
554.00	19.190
554.34	17.256
554.68	18.421
555.02	18.234
555.36	17.829
555.69	17.550
556.03	17.684
556.37	18.208
556.71	18.397
557.05	17.886
557.39	17.743
557.73	19.329
558.07	18.161
558.41	17.502
558.75	17.795
559.08	17.121
559.42	18.224
559.76	17.868
560.10	18.941
560.44	18.497
560.78	18.302
561.12	17.943
561.45	18.562
561.79	18.955
562.13	18.022
562.47	17.927
562.81	17.539
563.15	18.195
563.48	17.899
563.82	17.782
564.16	17.309
564.50	18.078
564.84	17.659
565.17	17.905
565.51	17.471
565.85	18.120
566.19	18.577
566.52	18.330
566.86	16.941
567.20	19.128
567.54	17.838
567.88	17.979
568.21	18.009
568.55	17.497
568.89	16.849
569.23	18.232
569.56	17.150
569.90	18.017
570.24	18.076
570.57	17.258
570.91	17.579
571.25	17.704
571.59	18.108
571.92	17.321
572.26	17.705
572.60	17.747
572.93	17.776
573.27	17.043
573.61	16.949
573.95	17.563
574.28	17.167
574.62	17.565
574.96	17.149
575.29	17.200
575.63	17.547
575.97	17.449
576.30	17.128
576.64	17.728
576.98	17.218
577.31	17.139
577.65	17.781
577.98	17.750
578.32	17.260
578.66	17.687
578.99	17.435
579.33	17.056
579.67	17.322
580.00	17.113
580.34	17.392
580.67	17.455
581.01	17.413
581.35	17.252
581.68	17.042
582.02	17.624
582.35	17.299
582.69	17.529
583.02	17.440
583.36	17.588
583.70	17.588
584.03	17.592
584.37	17.321
584.70	17.764
585.04	17.063
585.37	17.446
585.71	17.658
586.04	17.629
586.38	17.108
586.72	18.067
587.05	17.955
587.39	17.782
587.72	17.229
588.06	17.194
588.39	17.374
588.73	17.260
589.06	17.967
589.40	18.138
589.73	18.307
590.07	17.079
590.40	17.601
590.73	17.233
591.07	17.910
591.40	18.111
591.74	17.854
592.07	18.198
592.41	17.410
592.74	17.525
593.08	17.439
593.41	17.434
593.75	16.980
594.08	17.973
594.41	18.410
594.75	17.856
595.08	17.970
595.42	18.497
595.75	17.494
596.09	17.268
596.42	18.044
596.75	17.292
597.09	18.433
597.42	17.285
597.75	17.848
598.09	17.668
598.42	17.676
598.76	17.733
599.09	17.167
599.42	17.686
599.76	18.007
600.09	19.046
600.42	18.116
600.76	18.305
601.09	17.774
601.42	17.214
601.76	17.757
602.09	17.628
602.42	17.449
602.76	18.031
603.09	17.903
603.42	17.728
603.76	17.950
604.09	18.102
604.42	17.194
604.76	17.837
605.09	18.083
605.42	17.863
605.75	17.119
606.09	17.518
606.42	17.386
606.75	17.733
607.09	17.380
607.42	18.134
607.75	17.528
608.08	17.804
608.42	17.219
608.75	17.523
609.08	17.681
609.41	17.040
609.75	17.114
610.08	18.039
610.41	17.928
610.74	18.279
611.07	18.053
611.41	16.591
611.74	18.355
612.07	17.615
612.40	18.337
612.73	17.717
613.07	17.997
613.40	18.062
613.73	17.875
614.06	17.738
614.39	18.377
614.72	17.095
615.06	16.848
615.39	17.092
615.72	17.328
616.05	17.725
616.38	17.586
616.71	17.477
617.05	17.672
617.38	17.585
617.71	17.199
618.04	17.640
618.37	17.673
618.70	17.471
619.03	17.739
619.36	17.618
619.69	18.449
620.03	17.218
620.36	17.581
620.69	18.306
621.02	16.591
621.35	17.339
621.68	17.131
622.01	16.748
622.34	17.314
622.67	17.422
623.00	17.215
623.33	17.836
623.66	17.799
623.99	17.895
624.32	17.187
624.65	17.660
624.99	16.654
625.32	17.066
625.65	16.628
625.98	17.449
626.31	17.537
626.64	17.071
626.97	16.267
627.30	17.617
627.63	16.839
627.96	17.319
628.29	17.004
628.62	17.765
628.95	16.634
629.28	16.635
629.61	16.977
629.94	17.958
630.26	17.594
630.59	17.588
630.92	19.219
631.25	17.238
631.58	17.143
631.91	16.596
632.24	17.889
632.57	18.111
632.90	17.701
633.23	16.472
