SpectraSuite Data File
++++++++++++++++++++++++++++++++++++
Date: Sat May 16 11:30:57 PDT 2015
User: schluterlab
Dark Spectrum Present: Yes
Reference Spectrum Present: Yes
Number of Sampled Component Spectra: 1
Spectrometers: USB2E3373
Integration Time (usec): 3000 (USB2E3373)
Spectra Averaged: 3 (USB2E3373)
Boxcar Smoothing: 0 (USB2E3373)
Correct for Electrical Dark: No (USB2E3373)
Strobe/Lamp Enabled: No (USB2E3373)
Correct for Detector Non-linearity: No (USB2E3373)
Correct for Stray Light: No (USB2E3373)
Number of Pixels in Processed Spectrum: 2048
>>>>>Begin Processed Spectral Data<<<<<
178.53	0.000
178.91	66.667
179.29	400.000
179.67	-1900.000
180.04	-61.538
180.42	800.000
180.80	175.000
181.18	375.000
181.56	-75.000
181.94	1200.000
182.31	350.000
182.69	-69.231
183.07	-233.333
183.45	1450.000
183.83	666.667
184.20	-142.857
184.58	-137.500
184.96	-225.000
185.34	137.500
185.72	-525.000
186.09	50.000
186.47	-137.500
186.85	-137.500
187.23	-37.500
187.61	-175.000
187.98	-287.500
188.36	-125.000
188.74	-262.500
189.12	1900.000
189.49	371.429
189.87	-191.667
190.25	150.000
190.63	-42.857
191.00	-111.111
191.38	180.000
191.76	-86.667
192.14	420.000
192.51	-300.000
192.89	-566.667
193.27	0.000
193.65	-133.333
194.02	-185.714
194.40	800.000
194.78	-60.000
195.15	-1500.000
195.53	-72.727
195.91	-450.000
196.29	220.000
196.66	-666.667
197.04	2000.000
197.42	-300.000
197.79	13.333
198.17	-366.667
198.55	-750.000
198.92	-1400.000
199.30	312.500
199.68	-350.000
200.05	-100.000
200.43	-300.000
200.81	-1700.000
201.18	-75.000
201.56	200.000
201.94	-33.333
202.31	-31.818
202.69	-40.000
203.07	-120.000
203.44	600.000
203.82	-383.333
204.19	-650.000
204.57	-150.000
204.95	-800.000
205.32	-87.500
205.70	1100.000
206.08	-2300.000
206.45	-16.667
206.83	-950.000
207.20	0.000
207.58	-666.667
207.96	-100.000
208.33	-225.000
208.71	-122.222
209.08	190.000
209.46	-114.286
209.84	500.000
210.21	0.000
210.59	10.000
210.96	1000.000
211.34	-316.667
211.71	-300.000
212.09	50.000
212.46	1200.000
212.84	-2000.000
213.22	833.333
213.59	100.000
213.97	-77.778
214.34	170.000
214.72	-70.000
215.09	-333.333
215.47	-233.333
215.84	-50.000
216.22	-130.000
216.59	-6.667
216.97	-375.000
217.34	900.000
217.72	-114.286
218.09	-216.667
218.47	-271.429
218.84	185.714
219.22	-14.286
219.59	0.000
219.97	385.714
220.34	475.000
220.72	237.500
221.09	-46.154
221.47	0.000
221.84	500.000
222.22	-950.000
222.59	400.000
222.97	-237.500
223.34	-600.000
223.72	-433.333
224.09	-85.714
224.46	-300.000
224.84	-114.286
225.21	-142.857
225.59	-54.545
225.96	-275.000
226.34	-128.571
226.71	-77.778
227.08	-20.000
227.46	1800.000
227.83	-242.857
228.21	-62.500
228.58	350.000
228.95	-75.000
229.33	-2500.000
229.70	-400.000
230.08	-700.000
230.45	-16.667
230.82	-100.000
231.20	-1900.000
231.57	-150.000
231.95	1000.000
232.32	0.000
232.69	-66.667
233.07	-185.714
233.44	-650.000
233.81	-126.667
234.19	-111.111
234.56	-25.000
234.93	0.000
235.31	-314.286
235.68	-121.429
236.05	-88.235
236.43	-68.182
236.80	9.677
237.17	-41.667
237.55	-100.000
237.92	-90.909
238.29	-8.571
238.67	-23.529
239.04	-27.778
239.41	-38.710
239.79	-56.410
240.16	-16.667
240.53	-18.182
240.91	-23.077
241.28	-18.182
241.65	1.538
242.02	-14.754
242.40	-19.672
242.77	-9.091
243.14	-33.898
243.51	-30.000
243.89	-20.253
244.26	-19.101
244.63	-11.579
245.00	-14.737
245.38	-6.780
245.75	-8.850
246.12	-3.200
246.49	-5.512
246.87	-5.691
247.24	-11.017
247.61	-19.492
247.98	-6.338
248.36	-7.692
248.73	-7.595
249.10	-7.006
249.47	-2.924
249.84	-1.136
250.22	-11.310
250.59	-9.040
250.96	-4.188
251.33	-0.474
251.70	-1.442
252.08	-3.318
252.45	-6.161
252.82	-10.476
253.19	-0.426
253.56	-2.016
253.94	-2.954
254.31	-2.146
254.68	-3.659
255.05	-6.855
255.42	-1.984
255.79	-4.301
256.16	-2.745
256.54	-2.206
256.91	-3.788
257.28	-6.227
257.65	-1.773
258.02	0.629
258.39	-1.003
258.76	-4.054
259.14	-3.395
259.51	1.311
259.88	-1.524
260.25	0.621
260.62	-2.572
260.99	-2.671
261.36	-2.134
261.73	-0.578
262.10	-2.222
262.47	-5.413
262.85	1.714
263.22	-2.865
263.59	-4.615
263.96	-2.319
264.33	-2.439
264.70	0.000
265.07	-4.670
265.44	-0.258
265.81	-1.550
266.18	-3.291
266.55	-0.980
266.92	2.771
267.29	-0.484
267.66	0.000
268.03	0.483
268.40	-0.939
268.77	-1.687
269.14	0.696
269.51	0.230
269.88	0.229
270.25	-4.662
270.62	-1.831
270.99	0.000
271.36	-0.466
271.73	-1.121
272.10	1.831
272.47	-1.556
272.84	1.778
273.21	-0.688
273.58	0.659
273.95	0.877
274.32	-1.584
274.69	-0.875
275.06	1.840
275.43	-1.786
275.80	-0.204
276.17	-0.628
276.54	2.037
276.91	1.440
277.28	-0.406
277.65	-1.033
278.02	-1.670
278.39	0.982
278.76	-0.398
279.13	1.581
279.50	1.392
279.87	-1.268
280.23	-0.810
280.60	-2.187
280.97	-2.524
281.34	-1.934
281.71	0.385
282.08	-2.218
282.45	-1.426
282.82	-0.581
283.19	1.636
283.56	0.916
283.92	-0.883
284.29	-3.717
284.66	-0.360
285.03	-1.070
285.40	-0.554
285.77	-1.579
286.14	-0.181
286.51	-2.131
286.87	-0.726
287.24	2.389
287.61	0.992
287.98	-1.560
288.35	-0.496
288.72	0.679
289.08	-2.542
289.45	0.337
289.82	-0.346
290.19	2.135
290.56	-0.331
290.93	0.159
291.29	-1.783
291.66	-1.127
292.03	1.570
292.40	1.205
292.77	0.466
293.13	-0.650
293.50	1.189
293.87	-0.920
294.24	0.603
294.60	-1.364
294.97	1.214
295.34	-0.444
295.71	-1.637
296.08	-1.229
296.44	-1.001
296.81	0.997
297.18	0.845
297.55	1.412
297.91	0.976
298.28	0.274
298.65	0.279
299.02	2.273
299.38	-0.134
299.75	0.679
300.12	1.282
300.48	-0.512
300.85	1.048
301.22	0.647
301.59	-0.130
301.95	2.519
302.32	-0.261
302.69	1.224
303.05	-0.122
303.42	0.500
303.79	1.675
304.15	1.422
304.52	1.867
304.89	1.181
305.25	1.099
305.62	-0.823
305.99	3.887
306.35	1.776
306.72	0.456
307.09	3.405
307.45	0.795
307.82	0.894
308.19	2.685
308.55	1.089
308.92	0.859
309.29	0.757
309.65	1.273
310.02	1.944
310.38	1.297
310.75	2.561
311.12	2.479
311.48	3.653
311.85	1.648
312.22	2.575
312.58	3.052
312.95	2.752
313.31	2.997
313.68	3.819
314.05	4.055
314.41	2.314
314.78	1.998
315.14	2.369
315.51	2.533
315.87	3.872
316.24	3.596
316.61	4.702
316.97	2.985
317.34	4.432
317.70	2.597
318.07	4.571
318.43	3.933
318.80	4.977
319.16	3.940
319.53	3.853
319.89	4.233
320.26	4.706
320.62	3.750
320.99	5.174
321.35	4.631
321.72	4.299
322.08	4.748
322.45	3.861
322.81	4.995
323.18	5.187
323.54	6.932
323.91	5.746
324.27	6.464
324.64	5.759
325.00	6.894
325.37	6.425
325.73	7.699
326.10	6.289
326.46	6.130
326.83	7.915
327.19	7.089
327.56	7.836
327.92	8.921
328.29	9.004
328.65	6.364
329.01	7.686
329.38	7.939
329.74	9.341
330.11	8.432
330.47	9.173
330.84	9.349
331.20	8.664
331.56	9.025
331.93	8.703
332.29	9.406
332.66	8.692
333.02	8.597
333.38	9.677
333.75	9.172
334.11	9.067
334.48	8.473
334.84	10.586
335.20	9.397
335.57	9.116
335.93	9.937
336.29	9.655
336.66	9.956
337.02	10.541
337.38	9.447
337.75	9.131
338.11	10.018
338.47	8.541
338.84	10.526
339.20	9.227
339.56	10.517
339.93	8.907
340.29	8.857
340.65	8.741
341.02	9.191
341.38	9.773
341.74	10.923
342.11	9.386
342.47	8.927
342.83	9.572
343.20	9.735
343.56	8.735
343.92	10.684
344.28	10.261
344.65	9.406
345.01	9.076
345.37	10.382
345.73	9.329
346.10	9.321
346.46	9.180
346.82	10.345
347.19	9.203
347.55	9.631
347.91	10.236
348.27	9.149
348.63	9.289
349.00	10.819
349.36	8.509
349.72	9.873
350.08	10.184
350.45	9.141
350.81	9.076
351.17	8.842
351.53	8.433
351.89	10.186
352.26	9.845
352.62	11.137
352.98	9.573
353.34	9.752
353.70	8.880
354.07	9.992
354.43	9.881
354.79	9.746
355.15	8.866
355.51	9.297
355.87	10.198
356.24	9.452
356.60	9.992
356.96	10.624
357.32	9.739
357.68	9.502
358.04	9.469
358.40	9.049
358.77	9.119
359.13	9.487
359.49	9.599
359.85	9.223
360.21	8.752
360.57	11.069
360.93	10.222
361.29	9.268
361.66	9.375
362.02	8.950
362.38	10.345
362.74	9.597
363.10	9.469
363.46	10.897
363.82	10.058
364.18	10.275
364.54	11.508
364.90	9.504
365.26	9.843
365.62	10.121
365.98	11.309
366.35	9.789
366.71	10.500
367.07	9.527
367.43	10.638
367.79	11.271
368.15	9.602
368.51	11.189
368.87	10.920
369.23	10.596
369.59	10.486
369.95	11.487
370.31	11.533
370.67	9.906
371.03	11.079
371.39	11.174
371.75	11.946
372.11	11.478
372.47	10.195
372.83	10.709
373.19	11.714
373.55	11.189
373.91	10.882
374.27	10.883
374.63	10.973
374.99	12.726
375.35	12.113
375.71	11.614
376.07	11.636
376.42	11.192
376.78	12.353
377.14	12.339
377.50	12.573
377.86	12.484
378.22	12.123
378.58	12.044
378.94	12.269
379.30	12.310
379.66	12.629
380.02	12.478
380.38	13.474
380.74	12.485
381.09	12.830
381.45	13.007
381.81	12.099
382.17	12.845
382.53	12.948
382.89	12.799
383.25	14.088
383.61	13.679
383.97	14.268
384.32	13.204
384.68	13.845
385.04	14.070
385.40	15.216
385.76	14.268
386.12	14.179
386.48	15.161
386.83	14.110
387.19	14.764
387.55	14.173
387.91	13.515
388.27	13.993
388.62	15.024
388.98	13.749
389.34	14.565
389.70	14.312
390.06	14.792
390.42	15.449
390.77	14.322
391.13	15.155
391.49	15.346
391.85	14.838
392.20	14.563
392.56	14.722
392.92	15.402
393.28	15.729
393.64	15.213
393.99	15.385
394.35	15.207
394.71	15.565
395.07	15.631
395.42	14.720
395.78	15.022
396.14	15.639
396.50	15.719
396.85	15.978
397.21	16.282
397.57	16.170
397.92	16.393
398.28	15.722
398.64	16.359
399.00	16.742
399.35	16.178
399.71	16.783
400.07	16.060
400.42	16.302
400.78	15.206
401.14	16.228
401.49	16.156
401.85	16.351
402.21	16.329
402.57	16.383
402.92	16.551
403.28	16.789
403.63	16.357
403.99	16.221
404.35	15.761
404.70	16.208
405.06	16.551
405.42	15.744
405.77	16.459
406.13	16.127
406.49	16.237
406.84	16.617
407.20	16.254
407.55	16.466
407.91	15.220
408.27	16.115
408.62	15.875
408.98	16.919
409.34	16.088
409.69	16.068
410.05	16.313
410.40	16.064
410.76	15.827
411.11	16.771
411.47	16.368
411.83	17.115
412.18	15.780
412.54	16.412
412.89	16.646
413.25	15.998
413.60	15.674
413.96	16.574
414.31	16.942
414.67	16.444
415.03	16.429
415.38	17.957
415.74	16.495
416.09	17.199
416.45	16.667
416.80	17.295
417.16	16.811
417.51	17.531
417.87	16.828
418.22	17.383
418.58	16.752
418.93	17.474
419.29	17.440
419.64	16.771
420.00	17.436
420.35	17.327
420.71	17.167
421.06	17.396
421.42	17.096
421.77	17.420
422.12	17.571
422.48	17.584
422.83	18.337
423.19	17.595
423.54	17.695
423.90	17.062
424.25	17.590
424.61	18.456
424.96	18.490
425.31	17.552
425.67	18.739
426.02	17.441
426.38	18.572
426.73	18.527
427.09	19.424
427.44	18.807
427.79	18.605
428.15	19.090
428.50	19.648
428.85	18.585
429.21	18.318
429.56	18.490
429.92	18.236
430.27	18.794
430.62	18.182
430.98	18.610
431.33	18.463
431.68	18.445
432.04	18.747
432.39	19.316
432.74	17.986
433.10	19.190
433.45	18.595
433.80	18.981
434.16	19.237
434.51	18.904
434.86	20.387
435.22	18.430
435.57	18.482
435.92	19.812
436.28	19.347
436.63	19.389
436.98	19.588
437.34	19.669
437.69	18.553
438.04	19.229
438.39	19.555
438.75	19.441
439.10	19.767
439.45	19.372
439.81	19.578
440.16	19.534
440.51	20.235
440.86	19.491
441.22	19.237
441.57	20.316
441.92	20.102
442.27	19.751
442.63	20.118
442.98	20.034
443.33	19.605
443.68	19.854
444.03	20.138
444.39	19.824
444.74	20.099
445.09	20.066
445.44	20.653
445.79	20.398
446.15	19.715
446.50	20.033
446.85	20.062
447.20	20.429
447.55	20.442
447.91	20.606
448.26	19.832
448.61	20.656
448.96	21.457
449.31	20.180
449.66	20.550
450.02	19.557
450.37	20.348
450.72	21.525
451.07	21.182
451.42	19.703
451.77	20.407
452.12	20.620
452.47	21.222
452.83	20.501
453.18	21.126
453.53	20.833
453.88	20.514
454.23	19.710
454.58	21.380
454.93	21.474
455.28	20.650
455.63	21.376
455.98	21.988
456.34	20.267
456.69	21.451
457.04	21.266
457.39	20.873
457.74	20.496
458.09	20.824
458.44	21.709
458.79	20.684
459.14	20.821
459.49	20.782
459.84	21.192
460.19	21.480
460.54	20.569
460.89	20.908
461.24	21.615
461.59	21.805
461.94	22.406
462.29	21.858
462.64	21.410
462.99	21.620
463.34	21.067
463.69	21.565
464.04	20.914
464.39	21.326
464.74	21.040
465.09	20.325
465.44	22.109
465.79	22.504
466.14	22.555
466.49	21.474
466.84	21.729
467.19	21.135
467.54	20.696
467.89	21.702
468.24	21.081
468.59	22.049
468.94	20.900
469.29	22.027
469.64	21.631
469.99	22.620
470.34	22.244
470.68	21.730
471.03	22.849
471.38	20.486
471.73	22.098
472.08	20.281
472.43	20.978
472.78	21.867
473.13	21.007
473.48	21.889
473.83	21.650
474.17	21.975
474.52	23.018
474.87	21.678
475.22	21.770
475.57	21.556
475.92	22.354
476.27	22.343
476.61	21.577
476.96	21.520
477.31	21.690
477.66	22.524
478.01	21.448
478.36	21.372
478.70	21.890
479.05	22.445
479.40	21.710
479.75	21.713
480.10	21.776
480.45	20.890
480.79	22.063
481.14	21.576
481.49	22.459
481.84	21.452
482.19	21.836
482.53	22.064
482.88	21.690
483.23	21.596
483.58	22.525
483.92	22.121
484.27	22.286
484.62	21.814
484.97	21.473
485.31	21.344
485.66	21.481
486.01	21.121
486.36	22.010
486.70	22.638
487.05	22.160
487.40	22.115
487.75	21.870
488.09	21.340
488.44	21.313
488.79	21.648
489.13	21.871
489.48	21.860
489.83	22.140
490.17	21.811
490.52	22.192
490.87	20.924
491.22	21.999
491.56	21.944
491.91	22.376
492.26	21.462
492.60	21.456
492.95	22.132
493.30	21.486
493.64	21.627
493.99	21.558
494.34	22.000
494.68	22.612
495.03	22.467
495.37	21.829
495.72	21.709
496.07	22.149
496.41	22.788
496.76	22.009
497.11	22.421
497.45	22.174
497.80	21.261
498.14	21.758
498.49	21.798
498.84	21.505
499.18	21.832
499.53	22.601
499.87	22.008
500.22	22.255
500.56	21.361
500.91	21.182
501.26	22.756
501.60	22.099
501.95	22.947
502.29	21.634
502.64	22.867
502.98	21.706
503.33	22.697
503.67	21.456
504.02	21.584
504.36	21.373
504.71	21.378
505.06	20.969
505.40	22.655
505.75	21.545
506.09	21.790
506.44	22.356
506.78	22.127
507.13	22.400
507.47	22.274
507.82	22.354
508.16	22.383
508.51	22.308
508.85	21.584
509.19	22.083
509.54	21.934
509.88	22.819
510.23	21.593
510.57	22.698
510.92	23.631
511.26	21.425
511.61	21.760
511.95	21.606
512.30	21.495
512.64	21.647
512.98	22.057
513.33	21.527
513.67	21.999
514.02	22.707
514.36	22.604
514.70	22.637
515.05	22.642
515.39	22.088
515.74	23.037
516.08	22.190
516.42	22.436
516.77	22.010
517.11	21.682
517.46	22.907
517.80	21.961
518.14	21.558
518.49	22.355
518.83	22.018
519.17	21.788
519.52	21.805
519.86	22.581
520.20	22.188
520.55	22.154
520.89	21.728
521.23	22.222
521.58	22.821
521.92	22.356
522.26	22.222
522.61	21.610
522.95	20.996
523.29	22.759
523.64	22.361
523.98	22.024
524.32	21.496
524.66	21.739
525.01	21.580
525.35	21.585
525.69	21.861
526.04	21.932
526.38	23.043
526.72	21.648
527.06	21.615
527.41	21.254
527.75	21.914
528.09	21.774
528.43	22.295
528.78	22.048
529.12	21.255
529.46	21.907
529.80	21.433
530.15	21.893
530.49	22.639
530.83	23.117
531.17	21.549
531.51	20.630
531.86	21.461
532.20	21.457
532.54	21.658
532.88	22.464
533.22	21.190
533.57	22.585
533.91	20.911
534.25	21.684
534.59	22.236
534.93	21.220
535.27	22.593
535.62	22.251
535.96	21.655
536.30	20.615
536.64	22.377
536.98	22.246
537.32	21.424
537.66	22.471
538.01	22.680
538.35	21.892
538.69	21.257
539.03	22.613
539.37	21.557
539.71	21.681
540.05	22.138
540.39	21.676
540.73	22.322
541.07	22.336
541.42	21.202
541.76	20.000
542.10	23.025
542.44	21.519
542.78	22.185
543.12	21.860
543.46	21.233
543.80	21.873
544.14	21.558
544.48	21.916
544.82	21.854
545.16	21.060
545.50	20.861
545.84	21.836
546.18	21.567
546.52	21.906
546.86	21.225
547.20	22.363
547.54	21.350
547.88	21.831
548.22	21.035
548.56	20.908
548.90	22.170
549.24	20.813
549.58	21.736
549.92	21.908
550.26	22.471
550.60	21.124
550.94	21.533
551.28	22.047
551.62	21.344
551.96	21.346
552.30	21.742
552.64	21.605
552.98	21.934
553.32	21.934
553.66	20.908
554.00	21.464
554.34	21.227
554.68	20.395
555.02	21.346
555.36	21.639
555.69	20.774
556.03	21.053
556.37	20.484
556.71	20.472
557.05	21.803
557.39	20.638
557.73	22.903
558.07	20.799
558.41	20.942
558.75	21.065
559.08	21.089
559.42	20.904
559.76	20.629
560.10	22.222
560.44	22.182
560.78	22.199
561.12	21.532
561.45	21.507
561.79	20.627
562.13	21.388
562.47	21.779
562.81	21.358
563.15	21.624
563.48	21.355
563.82	21.095
564.16	21.433
564.50	22.043
564.84	21.561
565.17	21.353
565.51	21.121
565.85	22.650
566.19	21.212
566.52	21.200
566.86	21.492
567.20	22.579
567.54	21.677
567.88	21.161
568.21	21.924
568.55	21.103
568.89	20.775
569.23	21.795
569.56	20.219
569.90	21.243
570.24	20.744
570.57	20.984
570.91	20.673
571.25	20.623
571.59	20.980
571.92	20.774
572.26	20.641
572.60	20.788
572.93	20.068
573.27	20.244
573.61	19.902
573.95	20.516
574.28	20.559
574.62	20.615
574.96	20.389
575.29	20.528
575.63	20.733
575.97	20.227
576.30	20.252
576.64	20.261
576.98	20.105
577.31	20.048
577.65	20.577
577.98	20.324
578.32	20.164
578.66	20.407
578.99	20.468
579.33	20.673
579.67	20.416
580.00	20.337
580.34	20.254
580.67	20.324
581.01	19.927
581.35	20.408
581.68	20.210
582.02	20.672
582.35	20.321
582.69	20.547
583.02	20.690
583.36	20.067
583.70	20.405
584.03	20.501
584.37	20.514
584.70	20.063
585.04	20.152
585.37	20.048
585.71	20.585
586.04	20.517
586.38	19.727
586.72	20.998
587.05	20.419
587.39	20.404
587.72	19.963
588.06	20.358
588.39	20.365
588.73	20.851
589.06	20.844
589.40	21.608
589.73	20.822
590.07	19.410
590.40	20.959
590.73	20.072
591.07	20.615
591.40	20.927
591.74	20.721
592.07	20.360
592.41	20.637
592.74	20.984
593.08	21.456
593.41	20.855
593.75	20.640
594.08	21.423
594.41	21.220
594.75	20.876
595.08	20.451
595.42	21.207
595.75	20.029
596.09	20.722
596.42	21.645
596.75	20.742
597.09	21.327
597.42	20.384
597.75	20.992
598.09	20.741
598.42	20.990
598.76	20.972
599.09	20.600
599.42	20.569
599.76	20.423
600.09	21.145
600.42	20.889
600.76	20.452
601.09	20.395
601.42	20.855
601.76	21.495
602.09	20.695
602.42	20.700
602.76	20.731
603.09	21.653
603.42	20.790
603.76	21.580
604.09	20.465
604.42	21.066
604.76	20.759
605.09	21.338
605.42	20.789
605.75	20.871
606.09	21.337
606.42	20.486
606.75	20.781
607.09	21.394
607.42	20.863
607.75	21.236
608.08	20.967
608.42	20.435
608.75	20.280
609.08	20.458
609.41	21.325
609.75	20.332
610.08	20.637
610.41	21.349
610.74	21.518
611.07	21.247
611.41	19.970
611.74	21.285
612.07	21.751
612.40	19.883
612.73	20.679
613.07	20.914
613.40	22.113
613.73	21.526
614.06	20.538
614.39	21.139
614.72	20.950
615.06	20.489
615.39	21.270
615.72	21.293
616.05	21.038
616.38	21.242
616.71	21.261
617.05	21.472
617.38	21.486
617.71	20.639
618.04	21.118
618.37	20.692
618.70	21.773
619.03	21.733
619.36	22.199
619.69	21.608
620.03	20.592
620.36	22.011
620.69	21.321
621.02	21.157
621.35	20.645
621.68	20.738
622.01	21.440
622.34	22.127
622.67	21.797
623.00	22.265
623.33	22.388
623.66	21.787
623.99	21.805
624.32	21.726
624.65	21.560
624.99	21.807
625.32	21.108
625.65	22.378
625.98	21.909
626.31	21.370
626.64	21.255
626.97	20.377
627.30	21.617
627.63	21.244
627.96	21.236
628.29	21.048
628.62	21.203
628.95	21.260
629.28	21.992
629.61	21.492
629.94	21.550
630.26	22.465
630.59	22.211
630.92	22.222
631.25	22.984
631.58	21.587
631.91	20.851
632.24	21.111
632.57	23.667
632.90	22.989
633.23	21.145
633.56	21.404
633.89	22.524
634.22	21.842
634.55	21.034
634.88	20.556
635.20	21.348
635.53	22.901
