SpectraSuite Data File
++++++++++++++++++++++++++++++++++++
Date: Sat May 16 11:17:27 PDT 2015
User: schluterlab
Dark Spectrum Present: Yes
Reference Spectrum Present: Yes
Number of Sampled Component Spectra: 1
Spectrometers: USB2E3373
Integration Time (usec): 3000 (USB2E3373)
Spectra Averaged: 3 (USB2E3373)
Boxcar Smoothing: 0 (USB2E3373)
Correct for Electrical Dark: No (USB2E3373)
Strobe/Lamp Enabled: No (USB2E3373)
Correct for Detector Non-linearity: No (USB2E3373)
Correct for Stray Light: No (USB2E3373)
Number of Pixels in Processed Spectrum: 2048
>>>>>Begin Processed Spectral Data<<<<<
178.53	0.000
178.91	140.000
179.29	466.667
179.67	-1000.000
180.04	30.769
180.42	1000.000
180.80	350.000
181.18	275.000
181.56	25.000
181.94	1500.000
182.31	550.000
182.69	15.385
183.07	-366.667
183.45	650.000
183.83	233.333
184.20	0.000
184.58	-25.000
184.96	-225.000
185.34	100.000
185.72	-175.000
186.09	250.000
186.47	-100.000
186.85	-62.500
187.23	0.000
187.61	-350.000
187.98	-112.500
188.36	-200.000
188.74	-12.500
189.12	800.000
189.49	342.857
189.87	-8.333
190.25	275.000
190.63	14.286
191.00	-66.667
191.38	260.000
191.76	40.000
192.14	560.000
192.51	-160.000
192.89	66.667
193.27	0.000
193.65	-33.333
194.02	-271.429
194.40	33.333
194.78	-80.000
195.15	-600.000
195.53	-36.364
195.91	-366.667
196.29	120.000
196.66	-266.667
197.04	1000.000
197.42	100.000
197.79	60.000
198.17	-100.000
198.55	-300.000
198.92	-1400.000
199.30	175.000
199.68	50.000
200.05	-11.111
200.43	-166.667
200.81	-800.000
201.18	-8.333
201.56	71.429
201.94	0.000
202.31	63.636
202.69	100.000
203.07	0.000
203.44	533.333
203.82	-333.333
204.19	-325.000
204.57	-50.000
204.95	-700.000
205.32	6.250
205.70	1300.000
206.08	-1500.000
206.45	-27.778
206.83	-600.000
207.20	-250.000
207.58	-566.667
207.96	-166.667
208.33	-100.000
208.71	-111.111
209.08	180.000
209.46	-200.000
209.84	150.000
210.21	0.000
210.59	75.000
210.96	700.000
211.34	-183.333
211.71	-200.000
212.09	225.000
212.46	800.000
212.84	-2600.000
213.22	433.333
213.59	116.667
213.97	11.111
214.34	250.000
214.72	-50.000
215.09	-566.667
215.47	-200.000
215.84	-100.000
216.22	-100.000
216.59	40.000
216.97	-175.000
217.34	750.000
217.72	-28.571
218.09	-183.333
218.47	-157.143
218.84	185.714
219.22	-42.857
219.59	0.000
219.97	271.429
220.34	-25.000
220.72	150.000
221.09	-15.385
221.47	0.000
221.84	366.667
222.22	-250.000
222.59	1100.000
222.97	-37.500
223.34	-1100.000
223.72	-266.667
224.09	21.429
224.46	-225.000
224.84	21.429
225.21	-28.571
225.59	-36.364
225.96	-100.000
226.34	-85.714
226.71	-55.556
227.08	5.000
227.46	2000.000
227.83	-71.429
228.21	-150.000
228.58	250.000
228.95	31.250
229.33	-1300.000
229.70	-220.000
230.08	-700.000
230.45	0.000
230.82	-66.667
231.20	0.000
231.57	-850.000
231.95	300.000
232.32	-9.524
232.69	-44.444
233.07	-300.000
233.44	-500.000
233.81	-26.667
234.19	-111.111
234.56	-25.000
234.93	12.500
235.31	-171.429
235.68	-107.143
236.05	-17.647
236.43	-40.909
236.80	-19.355
237.17	12.500
237.55	-28.571
237.92	-104.545
238.29	-17.143
238.67	14.706
239.04	-13.889
239.41	0.000
239.79	-48.718
240.16	-2.381
240.53	0.000
240.91	15.385
241.28	3.636
241.65	18.462
242.02	-11.475
242.40	-6.557
242.77	9.091
243.14	-13.559
243.51	-2.857
243.89	6.329
244.26	2.247
244.63	4.211
245.00	10.526
245.38	10.169
245.75	1.770
246.12	9.600
246.49	1.575
246.87	4.065
247.24	3.390
247.61	-0.847
247.98	4.930
248.36	2.098
248.73	8.228
249.10	5.096
249.47	5.848
249.84	14.205
250.22	7.143
250.59	7.345
250.96	10.471
251.33	9.953
251.70	11.058
252.08	18.009
252.45	0.948
252.82	8.095
253.19	13.191
253.56	8.468
253.94	4.641
254.31	8.155
254.68	13.008
255.05	12.903
255.42	13.889
255.79	9.319
256.16	11.765
256.54	9.191
256.91	4.545
257.28	11.355
257.65	10.638
258.02	13.836
258.39	12.709
258.76	11.149
259.14	8.951
259.51	10.820
259.88	8.537
260.25	11.801
260.62	7.395
260.99	9.496
261.36	9.146
261.73	12.139
262.10	12.222
262.47	7.407
262.85	13.714
263.22	8.309
263.59	7.692
263.96	10.725
264.33	12.195
264.70	13.536
265.07	12.088
265.44	10.078
265.81	11.370
266.18	11.392
266.55	10.049
266.92	12.846
267.29	9.927
267.66	10.370
268.03	10.628
268.40	13.615
268.77	13.012
269.14	10.441
269.51	11.034
269.88	9.174
270.25	9.790
270.62	10.069
270.99	11.937
271.36	10.256
271.73	11.435
272.10	10.984
272.47	10.667
272.84	13.778
273.21	12.615
273.58	9.890
273.95	10.746
274.32	11.538
274.69	12.035
275.06	12.883
275.43	11.161
275.80	13.646
276.17	12.343
276.54	12.220
276.91	12.757
277.28	9.939
277.65	10.950
278.02	12.317
278.39	11.395
278.76	11.155
279.13	13.439
279.50	9.940
279.87	10.782
280.23	9.514
280.60	9.344
280.97	10.485
281.34	10.445
281.71	12.692
282.08	11.694
282.45	8.554
282.82	11.822
283.19	12.364
283.56	13.370
283.92	12.544
284.29	10.595
284.66	11.151
285.03	10.695
285.40	12.362
285.77	13.333
286.14	11.733
286.51	11.012
286.87	13.430
287.24	13.311
287.61	12.231
287.98	10.572
288.35	10.909
288.72	10.866
289.08	9.153
289.45	11.953
289.82	8.478
290.19	12.479
290.56	10.413
290.93	9.221
291.29	10.211
291.66	8.535
292.03	12.402
292.40	11.295
292.77	11.491
293.13	10.894
293.50	11.887
293.87	12.117
294.24	11.765
294.60	10.152
294.97	10.774
295.34	11.259
295.71	10.268
296.08	9.217
296.44	11.445
296.81	11.254
297.18	10.282
297.55	11.582
297.91	11.994
298.28	11.233
298.65	10.739
299.02	12.567
299.38	11.631
299.75	12.500
300.12	11.667
300.48	11.253
300.85	11.009
301.22	12.549
301.59	10.403
301.95	12.972
302.32	8.475
302.69	11.873
303.05	11.111
303.42	9.250
303.79	12.919
304.15	10.664
304.52	9.685
304.89	11.688
305.25	10.256
305.62	9.988
305.99	11.190
306.35	11.876
306.72	10.478
307.09	11.918
307.45	10.329
307.82	9.832
308.19	13.199
308.55	11.111
308.92	8.593
309.29	10.811
309.65	11.029
310.02	9.395
310.38	9.946
310.75	11.270
311.12	12.397
311.48	10.021
311.85	10.505
312.22	10.711
312.58	11.495
312.95	10.703
313.31	11.888
313.68	11.256
314.05	11.968
314.41	9.960
314.78	10.589
315.14	10.661
315.51	11.246
315.87	11.423
316.24	11.273
316.61	11.324
316.97	10.746
317.34	9.441
317.70	10.761
318.07	11.381
318.43	10.768
318.80	12.582
319.16	9.475
319.53	11.184
319.89	10.724
320.26	10.294
320.62	10.192
320.99	11.144
321.35	9.655
321.72	11.054
322.08	12.166
322.45	10.990
322.81	12.104
323.18	10.951
323.54	12.107
323.91	11.585
324.27	12.357
324.64	11.517
325.00	11.431
325.37	11.946
325.73	12.423
326.10	11.426
326.46	12.084
326.83	12.426
327.19	12.844
327.56	12.606
327.92	12.150
328.29	12.468
328.65	11.455
329.01	12.721
329.38	12.846
329.74	13.095
330.11	12.783
330.47	13.715
330.84	13.382
331.20	13.448
331.56	13.309
331.93	13.854
332.29	14.338
332.66	14.047
333.02	15.566
333.38	14.785
333.75	14.426
334.11	14.222
334.48	14.916
334.84	15.398
335.20	15.514
335.57	14.711
335.93	15.577
336.29	14.438
336.66	14.802
337.02	14.955
337.38	14.795
337.75	16.242
338.11	15.027
338.47	15.747
338.84	15.699
339.20	14.411
339.56	14.795
339.93	14.021
340.29	15.058
340.65	14.773
341.02	16.105
341.38	14.575
341.74	15.665
342.11	15.102
342.47	16.137
342.83	15.029
343.20	15.884
343.56	14.857
343.92	16.361
344.28	16.653
344.65	14.851
345.01	16.050
345.37	16.528
345.73	14.239
346.10	14.064
346.46	16.003
346.82	15.477
347.19	14.955
347.55	15.971
347.91	15.591
348.27	15.593
348.63	15.751
349.00	15.354
349.36	13.739
349.72	16.162
350.08	15.237
350.45	15.603
350.81	15.924
351.17	15.113
351.53	14.956
351.89	15.360
352.26	15.116
352.62	16.436
352.98	16.377
353.34	15.827
353.70	15.753
354.07	15.657
354.43	15.810
354.79	16.403
355.15	15.415
355.51	15.469
355.87	15.415
356.24	14.694
356.60	17.647
356.96	16.243
357.32	15.281
357.68	14.943
358.04	16.628
358.40	15.932
358.77	15.765
359.13	15.685
359.49	15.949
359.85	15.625
360.21	16.362
360.57	16.491
360.93	16.667
361.29	17.115
361.66	15.168
362.02	16.494
362.38	15.994
362.74	17.436
363.10	15.423
363.46	17.165
363.82	16.837
364.18	16.932
364.54	17.513
364.90	16.212
365.26	16.405
365.62	17.035
365.98	18.065
366.35	16.127
366.71	15.715
367.07	16.584
367.43	17.433
367.79	17.938
368.15	16.358
368.51	17.762
368.87	17.995
369.23	17.333
369.59	17.222
369.95	17.336
370.31	17.159
370.67	16.052
371.03	16.618
371.39	16.266
371.75	18.240
372.11	17.791
372.47	17.498
372.83	18.081
373.19	17.286
373.55	18.086
373.91	17.781
374.27	17.933
374.63	18.703
374.99	17.733
375.35	18.708
375.71	17.826
376.07	18.275
376.42	16.887
376.78	17.451
377.14	18.576
377.50	19.020
377.86	18.531
378.22	18.467
378.58	18.653
378.94	17.818
379.30	19.500
379.66	19.186
380.02	19.133
380.38	18.489
380.74	18.699
381.09	19.274
381.45	19.869
381.81	18.391
382.17	18.797
382.53	18.541
382.89	19.378
383.25	19.205
383.61	18.573
383.97	19.718
384.32	19.587
384.68	19.226
385.04	19.384
385.40	18.929
385.76	19.878
386.12	20.112
386.48	20.235
386.83	19.877
387.19	20.502
387.55	19.564
387.91	19.561
388.27	19.300
388.62	19.531
388.98	19.867
389.34	19.645
389.70	19.671
390.06	20.261
390.42	20.128
390.77	20.000
391.13	20.683
391.49	20.150
391.85	20.200
392.20	20.085
392.56	19.304
392.92	20.878
393.28	20.608
393.64	20.806
393.99	21.108
394.35	20.560
394.71	20.198
395.07	20.339
395.42	19.428
395.78	19.987
396.14	20.685
396.50	20.245
396.85	20.419
397.21	21.021
397.57	21.033
397.92	20.141
398.28	19.833
398.64	20.286
399.00	21.067
399.35	21.477
399.71	20.557
400.07	20.776
400.42	20.620
400.78	20.453
401.14	21.557
401.49	20.165
401.85	21.171
402.21	20.739
402.57	20.692
402.92	20.894
403.28	19.547
403.63	19.593
403.99	20.323
404.35	19.626
404.70	20.772
405.06	21.223
405.42	20.787
405.77	19.344
406.13	20.329
406.49	20.371
406.84	20.156
407.20	20.789
407.55	20.329
407.91	19.430
408.27	20.956
408.62	19.543
408.98	20.679
409.34	19.927
409.69	19.534
410.05	20.982
410.40	19.742
410.76	20.451
411.11	20.761
411.47	20.205
411.83	20.844
412.18	20.235
412.54	19.036
412.89	21.810
413.25	20.012
413.60	19.198
413.96	19.901
414.31	19.817
414.67	19.937
415.03	20.181
415.38	20.039
415.74	21.263
416.09	20.972
416.45	19.511
416.80	21.196
417.16	20.066
417.51	20.814
417.87	20.129
418.22	20.164
418.58	21.694
418.93	20.601
419.29	20.514
419.64	19.975
420.00	20.717
420.35	21.053
420.71	19.808
421.06	20.414
421.42	19.555
421.77	19.654
422.12	20.649
422.48	20.524
422.83	21.925
423.19	20.156
423.54	20.980
423.90	20.590
424.25	20.928
424.61	21.954
424.96	21.475
425.31	21.465
425.67	21.032
426.02	21.170
426.38	20.750
426.73	21.216
427.09	21.262
427.44	20.852
427.79	20.233
428.15	20.586
428.50	21.349
428.85	20.923
429.21	20.753
429.56	21.198
429.92	21.393
430.27	20.937
430.62	21.891
430.98	21.537
431.33	20.758
431.68	21.555
432.04	21.544
432.39	21.937
432.74	22.182
433.10	20.540
433.45	22.107
433.80	20.829
434.16	21.601
434.51	21.370
434.86	21.441
435.22	21.771
435.57	20.685
435.92	21.043
436.28	21.306
436.63	21.255
436.98	21.191
437.34	22.386
437.69	21.937
438.04	20.987
438.39	21.600
438.75	21.013
439.10	21.599
439.45	21.304
439.81	21.386
440.16	21.522
440.51	22.000
440.86	21.457
441.22	21.780
441.57	22.263
441.92	21.688
442.27	21.970
442.63	21.996
442.98	21.388
443.33	22.076
443.68	21.939
444.03	22.053
444.39	21.488
444.74	22.247
445.09	21.491
445.44	22.566
445.79	22.336
446.15	22.563
446.50	21.666
446.85	21.806
447.20	22.114
447.55	22.210
447.91	22.796
448.26	21.285
448.61	21.336
448.96	22.073
449.31	22.379
449.66	21.866
450.02	21.274
450.37	22.261
450.72	21.977
451.07	23.382
451.42	21.128
451.77	22.501
452.12	22.348
452.47	22.355
452.83	22.132
453.18	22.328
453.53	22.139
453.88	22.727
454.23	22.249
454.58	22.809
454.93	22.544
455.28	21.734
455.63	21.867
455.98	22.289
456.34	22.236
456.69	22.577
457.04	22.065
457.39	22.069
457.74	21.618
458.09	22.680
458.44	22.748
458.79	21.861
459.14	22.476
459.49	22.913
459.84	23.440
460.19	21.957
460.54	21.839
460.89	22.141
461.24	22.526
461.59	22.567
461.94	23.361
462.29	23.288
462.64	22.925
462.99	23.226
463.34	21.945
463.69	22.519
464.04	22.261
464.39	22.162
464.74	22.754
465.09	22.489
465.44	22.448
465.79	23.350
466.14	22.497
466.49	22.453
466.84	22.389
467.19	22.506
467.54	22.722
467.89	22.688
468.24	22.743
468.59	23.235
468.94	22.958
469.29	22.547
469.64	23.652
469.99	23.970
470.34	24.315
470.68	23.910
471.03	22.780
471.38	22.431
471.73	23.636
472.08	21.754
472.43	22.844
472.78	23.533
473.13	22.200
473.48	23.612
473.83	22.457
474.17	23.057
474.52	24.297
474.87	23.310
475.22	23.127
475.57	22.889
475.92	22.786
476.27	23.314
476.61	23.944
476.96	23.141
477.31	23.843
477.66	24.350
478.01	23.825
478.36	22.577
478.70	24.239
479.05	23.310
479.40	23.679
479.75	23.598
480.10	23.016
480.45	22.631
480.79	23.939
481.14	24.486
481.49	23.379
481.84	23.625
482.19	23.984
482.53	23.248
482.88	23.256
483.23	23.052
483.58	24.376
483.92	23.937
484.27	23.039
484.62	23.499
484.97	22.720
485.31	22.528
485.66	21.504
486.01	21.967
486.36	22.444
486.70	23.233
487.05	22.549
487.40	22.703
487.75	22.600
488.09	23.162
488.44	23.512
488.79	23.311
489.13	23.317
489.48	23.369
489.83	23.712
490.17	23.248
490.52	23.958
490.87	24.157
491.22	22.980
491.56	23.287
491.91	24.332
492.26	23.396
492.60	24.120
492.95	23.751
493.30	23.916
493.64	23.272
493.99	24.140
494.34	24.000
494.68	24.298
495.03	24.044
495.37	23.304
495.72	24.018
496.07	23.839
496.41	24.595
496.76	24.292
497.11	24.258
497.45	23.707
497.80	24.112
498.14	23.428
498.49	23.656
498.84	23.786
499.18	24.513
499.53	24.403
499.87	23.938
500.22	24.657
500.56	24.112
500.91	24.433
501.26	24.066
501.60	23.592
501.95	25.411
502.29	24.799
502.64	25.083
502.98	24.485
503.33	24.013
503.67	24.713
504.02	24.288
504.36	24.804
504.71	23.810
505.06	23.964
505.40	25.000
505.75	24.848
506.09	24.823
506.44	24.461
506.78	24.034
507.13	24.614
507.47	25.978
507.82	25.761
508.16	25.440
508.51	25.193
508.85	25.104
509.19	24.856
509.54	25.951
509.88	24.947
510.23	25.105
510.57	26.772
510.92	26.155
511.26	25.306
511.61	25.054
511.95	25.593
512.30	24.959
512.64	25.042
512.98	25.138
513.33	25.920
513.67	26.075
514.02	26.063
514.36	25.817
514.70	25.410
515.05	25.729
515.39	25.721
515.74	26.236
516.08	25.879
516.42	25.552
516.77	26.632
517.11	25.915
517.46	26.615
517.80	26.474
518.14	25.725
518.49	25.762
518.83	26.647
519.17	26.406
519.52	25.564
519.86	27.121
520.20	26.773
520.55	26.277
520.89	27.113
521.23	26.496
521.58	27.335
521.92	27.739
522.26	27.048
522.61	26.616
522.95	26.611
523.29	26.708
523.64	27.108
523.98	28.453
524.32	27.530
524.66	27.143
525.01	25.947
525.35	27.513
525.69	27.456
526.04	27.350
526.38	27.435
526.72	26.884
527.06	26.693
527.41	27.657
527.75	26.403
528.09	27.465
528.43	28.262
528.78	27.889
529.12	28.553
529.46	27.191
529.80	28.018
530.15	28.268
530.49	27.232
530.83	28.487
531.17	27.273
531.51	28.667
531.86	27.518
532.20	27.598
532.54	28.810
532.88	27.800
533.22	28.142
533.57	27.480
533.91	26.841
534.25	26.084
534.59	27.233
534.93	26.820
535.27	27.753
535.62	28.133
535.96	27.408
536.30	27.160
536.64	27.424
536.98	27.966
537.32	27.643
537.66	27.766
538.01	26.942
538.35	27.973
538.69	26.337
539.03	26.540
539.37	28.410
539.71	27.885
540.05	27.416
540.39	27.839
540.73	28.680
541.07	29.167
541.42	27.076
541.76	25.847
542.10	28.899
542.44	27.582
542.78	26.662
543.12	28.921
543.46	26.918
543.80	27.023
544.14	28.005
544.48	28.346
544.82	28.281
545.16	29.041
545.50	27.052
545.84	26.565
546.18	28.017
546.52	28.378
546.86	27.707
547.20	27.637
547.54	27.135
547.88	26.609
548.22	25.885
548.56	27.789
548.90	27.426
549.24	27.330
549.58	27.876
549.92	28.269
550.26	28.468
550.60	27.027
550.94	28.029
551.28	27.615
551.62	29.025
551.96	27.858
552.30	27.944
552.64	28.220
552.98	29.292
553.32	27.417
553.66	29.200
554.00	28.358
554.34	27.437
554.68	28.289
555.02	29.233
555.36	28.037
555.69	27.221
556.03	27.298
556.37	27.667
556.71	27.631
557.05	27.790
557.39	28.359
557.73	29.030
558.07	28.561
558.41	27.450
558.75	27.605
559.08	27.549
559.42	29.020
559.76	28.374
560.10	28.337
560.44	28.179
560.78	28.740
561.12	28.571
561.45	27.945
561.79	28.014
562.13	28.261
562.47	28.291
562.81	27.723
563.15	27.642
563.48	27.298
563.82	29.006
564.16	27.789
564.50	28.562
564.84	27.910
565.17	27.984
565.51	27.966
565.85	29.141
566.19	28.393
566.52	27.462
566.86	27.497
567.20	28.632
567.54	27.702
567.88	27.694
568.21	27.181
568.55	26.776
568.89	25.944
569.23	26.469
569.56	25.893
569.90	26.515
570.24	26.156
570.57	25.413
570.91	25.706
571.25	25.649
571.59	25.507
571.92	24.851
572.26	24.955
572.60	26.125
572.93	25.333
573.27	25.152
573.61	25.151
573.95	24.987
574.28	24.728
574.62	25.547
574.96	24.801
575.29	25.279
575.63	25.272
575.97	24.703
576.30	24.664
576.64	24.961
576.98	25.106
577.31	25.030
577.65	24.357
577.98	24.247
578.32	24.332
578.66	25.072
578.99	24.863
579.33	24.893
579.67	24.981
580.00	24.628
580.34	24.168
580.67	24.687
581.01	24.520
581.35	24.216
581.68	24.542
582.02	24.472
582.35	24.457
582.69	24.532
583.02	25.619
583.36	25.262
583.70	24.680
584.03	25.000
584.37	25.169
584.70	25.139
585.04	24.532
585.37	24.129
585.71	24.577
586.04	25.025
586.38	25.207
586.72	24.746
587.05	25.743
587.39	25.239
587.72	25.219
588.06	25.254
588.39	25.150
588.73	25.498
589.06	26.183
589.40	25.593
589.73	25.885
590.07	25.273
590.40	25.572
590.73	25.270
591.07	25.779
591.40	25.823
591.74	26.672
592.07	26.351
592.41	25.435
592.74	25.058
593.08	25.197
593.41	25.296
593.75	24.761
594.08	25.701
594.41	25.878
594.75	26.123
595.08	25.113
595.42	25.108
595.75	24.917
596.09	25.999
596.42	25.941
596.75	26.003
597.09	26.046
597.42	26.015
597.75	25.642
598.09	26.118
598.42	25.497
598.76	25.291
599.09	24.783
599.42	24.875
599.76	25.142
600.09	25.802
600.42	25.712
600.76	25.989
601.09	25.446
601.42	25.010
601.76	25.545
602.09	25.685
602.42	25.844
602.76	25.384
603.09	25.927
603.42	25.504
603.76	25.369
604.09	24.870
604.42	25.271
604.76	26.210
605.09	26.537
605.42	25.665
605.75	25.313
606.09	25.654
606.42	25.346
606.75	25.419
607.09	26.334
607.42	25.352
607.75	25.033
608.08	25.712
608.42	25.166
608.75	25.701
609.08	25.865
609.41	25.561
609.75	25.305
610.08	26.520
610.41	26.313
610.74	26.064
611.07	25.355
611.41	25.668
611.74	26.427
612.07	26.799
612.40	25.800
612.73	26.494
613.07	25.592
613.40	26.984
613.73	25.940
614.06	25.645
614.39	26.437
614.72	25.140
615.06	25.380
615.39	25.990
615.72	26.073
616.05	25.400
616.38	26.524
616.71	26.066
617.05	26.357
617.38	26.687
617.71	25.614
618.04	26.460
618.37	25.849
618.70	27.836
619.03	26.676
619.36	27.273
619.69	27.854
620.03	26.377
620.36	26.864
620.69	26.992
621.02	27.549
621.35	27.097
621.68	27.213
622.01	26.537
622.34	26.786
622.67	26.875
623.00	27.697
623.33	27.015
623.66	26.809
623.99	26.466
624.32	26.414
624.65	27.594
624.99	26.438
625.32	27.919
625.65	27.972
625.98	27.074
626.31	26.101
626.64	28.117
626.97	27.654
627.30	27.064
627.63	26.857
627.96	27.589
628.29	26.930
628.62	27.221
628.95	29.134
629.28	27.256
629.61	27.085
629.94	28.639
630.26	28.330
630.59	28.844
630.92	27.728
631.25	28.427
631.58	28.889
631.91	26.489
632.24	29.889
632.57	28.778
632.90	28.046
633.23	28.037
633.56	27.018
633.89	28.774
