SpectraSuite Data File
++++++++++++++++++++++++++++++++++++
Date: Sat May 16 11:43:39 PDT 2015
User: schluterlab
Dark Spectrum Present: Yes
Reference Spectrum Present: Yes
Number of Sampled Component Spectra: 1
Spectrometers: USB2E3373
Integration Time (usec): 3000 (USB2E3373)
Spectra Averaged: 3 (USB2E3373)
Boxcar Smoothing: 0 (USB2E3373)
Correct for Electrical Dark: No (USB2E3373)
Strobe/Lamp Enabled: No (USB2E3373)
Correct for Detector Non-linearity: No (USB2E3373)
Correct for Stray Light: No (USB2E3373)
Number of Pixels in Processed Spectrum: 2048
>>>>>Begin Processed Spectral Data<<<<<
178.53	0.000
178.91	80.000
179.29	566.667
179.67	-1400.000
180.04	-76.923
180.42	800.000
180.80	625.000
181.18	425.000
181.56	-250.000
181.94	800.000
182.31	625.000
182.69	-53.846
183.07	-766.667
183.45	1400.000
183.83	466.667
184.20	-357.143
184.58	-175.000
184.96	-200.000
185.34	81.250
185.72	-575.000
186.09	183.333
186.47	-175.000
186.85	-287.500
187.23	62.500
187.61	-150.000
187.98	-300.000
188.36	-200.000
188.74	-87.500
189.12	900.000
189.49	514.286
189.87	-75.000
190.25	225.000
190.63	-35.714
191.00	-166.667
191.38	280.000
191.76	-26.667
192.14	580.000
192.51	-160.000
192.89	-200.000
193.27	0.000
193.65	-277.778
194.02	-200.000
194.40	633.333
194.78	-90.000
195.15	-1300.000
195.53	-100.000
195.91	-216.667
196.29	200.000
196.66	-500.000
197.04	2000.000
197.42	-550.000
197.79	-13.333
198.17	-366.667
198.55	-750.000
198.92	-1700.000
199.30	212.500
199.68	-550.000
200.05	-100.000
200.43	-244.444
200.81	-2100.000
201.18	-58.333
201.56	128.571
201.94	-93.333
202.31	4.545
202.69	-20.000
203.07	-10.000
203.44	533.333
203.82	-250.000
204.19	-375.000
204.57	-50.000
204.95	-900.000
205.32	6.250
205.70	1700.000
206.08	-3300.000
206.45	-50.000
206.83	-1000.000
207.20	-350.000
207.58	-800.000
207.96	-233.333
208.33	-150.000
208.71	-177.778
209.08	160.000
209.46	-257.143
209.84	250.000
210.21	0.000
210.59	20.000
210.96	1200.000
211.34	-333.333
211.71	-266.667
212.09	450.000
212.46	1450.000
212.84	-1500.000
213.22	566.667
213.59	166.667
213.97	-44.444
214.34	90.000
214.72	-90.000
215.09	-400.000
215.47	-133.333
215.84	-20.000
216.22	-120.000
216.59	6.667
216.97	-375.000
217.34	1050.000
217.72	-100.000
218.09	-300.000
218.47	-228.571
218.84	285.714
219.22	-114.286
219.59	0.000
219.97	285.714
220.34	600.000
220.72	187.500
221.09	-7.692
221.47	0.000
221.84	566.667
222.22	-600.000
222.59	900.000
222.97	-162.500
223.34	-950.000
223.72	-666.667
224.09	-64.286
224.46	-550.000
224.84	-57.143
225.21	-85.714
225.59	-145.455
225.96	-37.500
226.34	-57.143
226.71	-155.556
227.08	-5.000
227.46	1000.000
227.83	-385.714
228.21	-150.000
228.58	400.000
228.95	-43.750
229.33	-2500.000
229.70	-380.000
230.08	-1000.000
230.45	-91.667
230.82	-183.333
231.20	-1000.000
231.57	-700.000
231.95	1200.000
232.32	-14.286
232.69	-111.111
233.07	-300.000
233.44	-1000.000
233.81	-80.000
234.19	-100.000
234.56	-50.000
234.93	-15.625
235.31	-271.429
235.68	-207.143
236.05	-70.588
236.43	-104.545
236.80	-6.452
237.17	-45.833
237.55	-104.762
237.92	-68.182
238.29	-34.286
238.67	-5.882
239.04	-25.000
239.41	-64.516
239.79	-66.667
240.16	-16.667
240.53	-14.545
240.91	-28.205
241.28	-5.455
241.65	-10.769
242.02	-21.311
242.40	-14.754
242.77	-6.061
243.14	-16.949
243.51	-22.857
243.89	-3.797
244.26	-19.101
244.63	-4.211
245.00	-9.474
245.38	-0.847
245.75	0.885
246.12	7.200
246.49	-2.362
246.87	-9.756
247.24	-12.712
247.61	-7.627
247.98	-7.746
248.36	-4.895
248.73	-6.962
249.10	-8.280
249.47	-2.924
249.84	-3.977
250.22	-14.286
250.59	-3.390
250.96	0.524
251.33	1.422
251.70	0.000
252.08	0.474
252.45	0.474
252.82	-3.810
253.19	-2.128
253.56	-0.403
253.94	-5.063
254.31	0.429
254.68	0.407
255.05	-2.419
255.42	1.587
255.79	-1.075
256.16	-0.392
256.54	-2.941
256.91	-4.924
257.28	-2.564
257.65	0.355
258.02	3.145
258.39	1.003
258.76	-1.689
259.14	-2.160
259.51	4.918
259.88	0.305
260.25	4.037
260.62	-2.572
260.99	-0.890
261.36	-0.305
261.73	4.624
262.10	1.667
262.47	0.285
262.85	4.286
263.22	-1.146
263.59	-0.308
263.96	2.609
264.33	-0.542
264.70	-1.105
265.07	2.473
265.44	-0.517
265.81	-1.292
266.18	-1.772
266.55	0.980
266.92	3.275
267.29	-0.484
267.66	0.247
268.03	1.932
268.40	2.347
268.77	3.855
269.14	1.624
269.51	3.678
269.88	0.459
270.25	0.699
270.62	0.458
270.99	0.676
271.36	1.865
271.73	0.224
272.10	1.602
272.47	0.222
272.84	4.667
273.21	0.917
273.58	0.220
273.95	3.070
274.32	3.620
274.69	3.501
275.06	2.863
275.43	0.893
275.80	2.240
276.17	1.255
276.54	3.462
276.91	1.646
277.28	1.826
277.65	2.273
278.02	1.461
278.39	3.929
278.76	1.195
279.13	2.372
279.50	3.380
279.87	4.017
280.23	3.441
280.60	2.982
280.97	1.942
281.34	1.741
281.71	1.154
282.08	2.621
282.45	-1.833
282.82	0.194
283.19	3.636
283.56	3.846
283.92	1.413
284.29	1.115
284.66	3.058
285.03	4.456
285.40	0.923
285.77	2.281
286.14	1.986
286.51	2.309
286.87	4.719
287.24	4.949
287.61	2.479
287.98	1.386
288.35	1.653
288.72	3.056
289.08	0.508
289.45	3.030
289.82	1.211
290.19	2.956
290.56	0.165
290.93	3.339
291.29	2.755
291.66	1.288
292.03	3.454
292.40	2.861
292.77	2.174
293.13	3.577
293.50	3.120
293.87	3.374
294.24	1.961
294.60	2.424
294.97	5.008
295.34	2.074
295.71	2.381
296.08	0.768
296.44	2.003
296.81	2.279
297.18	2.113
297.55	2.684
297.91	4.184
298.28	1.644
298.65	2.371
299.02	4.813
299.38	2.139
299.75	1.766
300.12	4.231
300.48	3.964
300.85	1.966
301.22	3.364
301.59	2.211
301.95	4.408
302.32	3.390
302.69	3.550
303.05	3.907
303.42	2.375
303.79	3.349
304.15	4.147
304.52	3.267
304.89	2.952
305.25	3.785
305.62	3.525
305.99	4.829
306.35	5.660
306.72	2.506
307.09	4.540
307.45	3.292
307.82	2.682
308.19	4.362
308.55	5.447
308.92	3.437
309.29	3.459
309.65	4.136
310.02	4.536
310.38	4.216
310.75	5.328
311.12	4.545
311.48	5.741
311.85	5.046
312.22	4.428
312.58	4.578
312.95	5.708
313.31	5.195
313.68	5.930
314.05	5.935
314.41	4.125
314.78	4.895
315.14	4.541
315.51	6.586
315.87	5.615
316.24	6.220
316.61	6.718
316.97	5.871
317.34	6.358
317.70	6.030
318.07	6.343
318.43	6.367
318.80	7.887
319.16	5.816
319.53	7.049
319.89	7.902
320.26	7.647
320.62	6.058
320.99	8.458
321.35	6.897
321.72	7.062
322.08	7.715
322.45	6.931
322.81	9.414
323.18	9.606
323.54	9.519
323.91	8.804
324.27	9.506
324.64	8.501
325.00	8.988
325.37	10.498
325.73	11.374
326.10	9.743
326.46	11.208
326.83	11.149
327.19	11.426
327.56	12.095
327.92	12.150
328.29	12.208
328.65	11.273
329.01	12.544
329.38	13.470
329.74	14.103
330.11	13.781
330.47	12.807
330.84	15.307
331.20	14.079
331.56	13.947
331.93	15.631
332.29	16.804
332.66	14.223
333.02	15.656
333.38	16.667
333.75	15.939
334.11	16.622
334.48	16.946
334.84	17.235
335.20	16.578
335.57	16.697
335.93	17.637
336.29	16.563
336.66	16.123
337.02	16.757
337.38	15.508
337.75	16.769
338.11	17.442
338.47	16.637
338.84	17.332
339.20	17.223
339.56	18.093
339.93	16.843
340.29	15.766
340.65	17.133
341.02	17.369
341.38	17.355
341.74	16.935
342.11	17.065
342.47	17.854
342.83	16.709
343.20	17.421
343.56	16.327
343.92	17.446
344.28	19.008
344.65	16.997
345.01	16.471
345.37	19.020
345.73	16.694
346.10	15.699
346.46	17.059
346.82	17.161
347.19	15.859
347.55	16.934
347.91	16.220
348.27	16.706
348.63	16.963
349.00	16.388
349.36	16.393
349.72	17.914
350.08	18.123
350.45	17.258
350.81	16.799
351.17	17.203
351.53	16.309
351.89	17.219
352.26	16.667
352.62	17.972
352.98	17.089
353.34	16.787
353.70	16.602
354.07	16.522
354.43	17.233
354.79	17.195
355.15	15.655
355.51	16.641
355.87	16.522
356.24	15.806
356.60	18.533
356.96	17.398
357.32	17.973
357.68	16.475
358.04	17.706
358.40	16.628
358.77	16.383
359.13	16.756
359.49	16.629
359.85	16.616
360.21	16.362
360.57	16.642
360.93	17.852
361.29	17.339
361.66	16.463
362.02	16.938
362.38	17.388
362.74	16.850
363.10	16.714
363.46	17.521
363.82	17.420
364.18	17.728
364.54	17.227
364.90	16.492
365.26	16.334
365.62	18.817
365.98	17.852
366.35	17.324
366.71	16.561
367.07	17.713
367.43	18.257
367.79	17.801
368.15	16.501
368.51	17.972
368.87	17.376
369.23	18.526
369.59	17.222
369.95	17.195
370.31	18.214
370.67	17.137
371.03	17.201
371.39	16.902
371.75	17.668
372.11	17.288
372.47	16.703
372.83	17.594
373.19	17.357
373.55	17.875
373.91	18.421
374.27	18.001
374.63	17.322
374.99	17.246
375.35	18.035
375.71	18.501
376.07	18.207
376.42	16.225
376.78	18.366
377.14	16.949
377.50	18.182
377.86	17.555
378.22	17.274
378.58	17.603
378.94	18.372
379.30	17.977
379.66	18.519
380.02	17.291
380.38	17.523
380.74	17.937
381.09	18.629
381.45	18.556
381.81	17.362
382.17	17.481
382.53	17.447
382.89	17.344
383.25	18.724
383.61	17.983
383.97	18.126
384.32	17.835
384.68	17.775
385.04	18.056
385.40	17.529
385.76	18.354
386.12	18.676
386.48	18.564
386.83	18.282
387.19	17.812
387.55	18.110
387.91	18.020
388.27	17.672
388.62	17.909
388.98	17.383
389.34	19.033
389.70	17.357
390.06	17.837
390.42	18.397
390.77	17.729
391.13	18.820
391.49	18.403
391.85	18.142
392.20	17.900
392.56	18.204
392.92	17.456
393.28	18.772
393.64	18.340
393.99	18.154
394.35	17.762
394.71	17.356
395.07	18.519
395.42	16.865
395.78	17.725
396.14	17.819
396.50	17.309
396.85	17.397
397.21	17.011
397.57	18.176
397.92	17.916
398.28	17.500
398.64	17.252
399.00	17.416
399.35	17.644
399.71	17.538
400.07	17.970
400.42	17.944
400.78	16.696
401.14	17.605
401.49	17.158
401.85	17.206
402.21	17.402
402.57	17.597
402.92	17.621
403.28	17.402
403.63	17.316
403.99	16.781
404.35	17.089
404.70	17.379
405.06	17.820
405.42	17.159
405.77	16.403
406.13	16.809
406.49	16.597
406.84	17.457
407.20	17.668
407.55	16.846
407.91	16.256
408.27	16.360
408.62	16.717
408.98	16.192
409.34	16.271
409.69	16.698
410.05	17.404
410.40	17.045
410.76	17.131
411.11	16.397
411.47	16.688
411.83	17.604
412.18	16.832
412.54	17.084
412.89	16.343
413.25	15.998
413.60	15.614
413.96	16.328
414.31	17.248
414.67	16.444
415.03	17.335
415.38	16.331
415.74	17.010
416.09	17.199
416.45	16.138
416.80	16.320
417.16	16.013
417.51	18.253
417.87	16.570
418.22	17.952
418.58	17.458
418.93	17.597
419.29	16.813
419.64	16.897
420.00	17.922
420.35	17.268
420.71	17.707
421.06	18.047
421.42	16.979
421.77	17.588
422.12	17.907
422.48	17.851
422.83	17.597
423.19	17.539
423.54	19.078
423.90	18.276
424.25	17.930
424.61	18.758
424.96	18.373
425.31	18.670
425.67	18.510
426.02	18.187
426.38	18.209
426.73	18.819
427.09	18.750
427.44	19.432
427.79	19.012
428.15	19.689
428.50	19.238
428.85	20.084
429.21	19.203
429.56	19.844
429.92	19.940
430.27	19.143
430.62	19.488
430.98	19.341
431.33	19.851
431.68	20.268
432.04	19.922
432.39	20.456
432.74	19.424
433.10	20.540
433.45	20.725
433.80	20.717
434.16	20.365
434.51	20.164
434.86	21.675
435.22	20.434
435.57	20.257
435.92	20.516
436.28	21.780
436.63	21.029
436.98	20.218
437.34	21.559
437.69	20.945
438.04	21.100
438.39	21.661
438.75	20.431
439.10	21.321
439.45	20.700
439.81	22.410
440.16	21.408
440.51	22.824
440.86	22.094
441.22	21.725
441.57	21.737
441.92	21.944
442.27	21.861
442.63	21.459
442.98	21.163
443.33	22.186
443.68	21.834
444.03	22.446
444.39	22.222
444.74	22.357
445.09	22.368
445.44	22.228
445.79	21.928
446.15	22.727
446.50	21.884
446.85	22.422
447.20	22.676
447.55	22.376
447.91	23.302
448.26	22.291
448.61	22.411
448.96	23.137
449.31	22.886
449.66	23.068
450.02	22.271
450.37	23.362
450.72	23.390
451.07	22.627
451.42	22.553
451.77	22.681
452.12	23.957
452.47	23.363
452.83	23.296
453.18	23.529
453.53	23.134
453.88	24.701
454.23	22.551
454.58	24.549
454.93	22.859
455.28	23.582
455.63	23.403
455.98	23.012
456.34	23.062
456.69	24.453
457.04	23.725
457.39	23.565
457.74	23.804
458.09	22.970
458.44	24.365
458.79	23.318
459.14	24.244
459.49	24.097
459.84	24.002
460.19	23.508
460.54	23.835
460.89	23.599
461.24	23.619
461.59	23.857
461.94	23.870
462.29	25.610
462.64	23.913
462.99	25.033
463.34	23.430
463.69	24.746
464.04	23.081
464.39	23.656
464.74	24.409
465.09	23.692
465.44	24.365
465.79	24.365
466.14	23.936
466.49	24.986
466.84	24.550
467.19	24.751
467.54	22.848
467.89	24.106
468.24	24.109
468.59	23.735
468.94	23.923
469.29	24.431
469.64	24.798
469.99	24.646
470.34	25.718
470.68	25.218
471.03	24.776
471.38	23.750
471.73	25.455
472.08	24.230
472.43	23.938
472.78	23.800
473.13	23.592
473.48	24.505
473.83	24.256
474.17	24.204
474.52	25.639
474.87	24.184
475.22	23.776
475.57	24.389
475.92	24.730
476.27	24.971
476.61	24.394
476.96	23.980
477.31	24.812
477.66	24.516
478.01	24.581
478.36	24.620
478.70	24.826
479.05	25.203
479.40	24.663
479.75	25.025
480.10	25.198
480.45	24.226
480.79	25.222
481.14	24.686
481.49	25.218
481.84	24.734
482.19	24.897
482.53	24.953
482.88	25.202
483.23	24.554
483.58	24.699
483.92	24.462
484.27	24.679
484.62	24.536
484.97	24.084
485.31	23.584
485.66	23.246
486.01	23.309
486.36	24.232
486.70	25.062
487.05	24.106
487.40	24.546
487.75	24.088
488.09	23.996
488.44	24.831
488.79	25.150
489.13	24.686
489.48	25.285
489.83	25.109
490.17	24.989
490.52	25.498
490.87	24.711
491.22	24.755
491.56	24.444
491.91	25.191
492.26	24.717
492.60	25.071
492.95	24.131
493.30	24.917
493.64	24.871
493.99	25.048
494.34	25.286
494.68	25.562
495.03	25.239
495.37	24.730
495.72	25.147
496.07	25.481
496.41	25.614
496.76	25.205
497.11	25.200
497.45	25.431
497.80	24.662
498.14	24.656
498.49	24.862
498.84	25.583
499.18	25.877
499.53	25.377
499.87	24.710
500.22	24.657
500.56	25.663
500.91	24.778
501.26	25.473
501.60	24.699
501.95	25.024
502.29	24.563
502.64	25.648
502.98	24.341
503.33	25.423
503.67	24.856
504.02	24.674
504.36	25.245
504.71	24.417
505.06	24.314
505.40	26.048
505.75	25.203
506.09	25.278
506.44	25.414
506.78	24.837
507.13	25.386
507.47	24.883
507.82	24.987
508.16	25.699
508.51	24.781
508.85	25.104
509.19	24.856
509.54	25.423
509.88	25.372
510.23	25.105
510.57	25.450
510.92	25.832
511.26	25.306
511.61	24.622
511.95	25.108
512.30	24.959
512.64	25.209
512.98	25.248
513.33	24.876
513.67	24.511
514.02	24.609
514.36	25.319
514.70	25.184
515.05	25.100
515.39	24.971
515.74	26.178
516.08	25.533
516.42	24.589
516.77	26.170
517.11	25.172
517.46	26.136
517.80	25.511
518.14	25.121
518.49	24.806
518.83	25.460
519.17	24.689
519.52	24.060
519.86	25.806
520.20	25.244
520.55	25.046
520.89	24.796
521.23	25.702
521.58	25.517
521.92	26.156
522.26	25.651
522.61	25.919
522.95	24.250
523.29	25.517
523.64	24.859
523.98	25.843
524.32	25.204
524.66	24.224
525.01	25.112
525.35	24.871
525.69	25.504
526.04	25.587
526.38	24.825
526.72	24.457
527.06	25.195
527.41	25.215
527.75	23.894
528.09	25.877
528.43	25.180
528.78	24.497
529.12	25.992
529.46	23.711
529.80	25.307
530.15	25.177
530.49	24.062
530.83	24.558
531.17	24.781
531.51	23.711
531.86	24.029
532.20	24.494
532.54	24.866
532.88	23.913
533.22	24.398
533.57	24.804
533.91	23.283
534.25	24.387
534.59	24.172
534.93	24.207
535.27	23.977
535.62	25.000
535.96	24.176
536.30	22.513
536.64	23.971
536.98	24.153
537.32	22.668
537.66	24.168
538.01	24.605
538.35	24.054
538.69	23.329
539.03	23.561
539.37	23.619
539.71	23.816
540.05	23.509
540.39	24.100
540.73	23.220
541.07	24.454
541.42	23.768
541.76	22.126
542.10	23.228
542.44	22.785
542.78	24.152
543.12	23.489
543.46	22.808
543.80	21.940
544.14	22.565
544.48	23.163
544.82	23.410
545.16	23.474
545.50	22.544
545.84	22.740
546.18	22.816
546.52	22.475
546.86	22.222
547.20	23.277
547.54	22.727
547.88	21.831
548.22	21.494
548.56	23.046
548.90	22.372
549.24	21.724
549.58	23.712
549.92	22.615
550.26	23.338
550.60	22.973
550.94	22.993
551.28	23.552
551.62	23.043
551.96	23.734
552.30	22.578
552.64	24.068
552.98	22.985
553.32	22.727
553.66	23.071
554.00	22.743
554.34	22.671
554.68	23.319
555.02	22.938
555.36	22.430
555.69	22.278
556.03	22.947
556.37	22.760
556.71	23.121
557.05	22.986
557.39	22.420
557.73	23.341
558.07	23.361
558.41	21.017
558.75	21.825
559.08	21.323
559.42	22.818
559.76	22.546
560.10	22.595
560.44	22.327
560.78	21.503
561.12	21.877
561.45	21.849
561.79	22.230
562.13	21.809
562.47	21.639
562.81	21.641
563.15	21.903
563.48	21.562
563.82	21.501
564.16	21.433
564.50	21.371
564.84	21.230
565.17	21.618
565.51	21.317
565.85	21.907
566.19	21.344
566.52	21.526
566.86	21.049
567.20	21.489
567.54	21.973
567.88	20.882
568.21	21.421
568.55	20.679
568.89	20.278
569.23	20.731
569.56	20.092
569.90	20.614
570.24	20.519
570.57	20.105
570.91	19.687
571.25	20.396
571.59	20.044
571.92	19.554
572.26	19.443
572.60	19.981
572.93	19.820
573.27	19.695
573.61	19.644
573.95	20.011
574.28	19.109
574.62	19.573
574.96	19.043
575.29	19.512
575.63	19.697
575.97	18.851
576.30	19.046
576.64	19.191
576.98	18.910
577.31	18.856
577.65	19.011
577.98	19.161
578.32	18.838
578.66	18.970
578.99	19.346
579.33	18.865
579.67	19.401
580.00	18.601
580.34	18.860
580.67	19.000
581.01	18.099
581.35	18.851
581.68	18.321
582.02	18.579
582.35	18.867
582.69	18.958
583.02	19.187
583.36	19.113
583.70	18.894
584.03	19.504
584.37	18.701
584.70	18.715
585.04	18.734
585.37	17.971
585.71	18.844
586.04	18.668
586.38	19.059
586.72	18.799
587.05	18.663
587.39	18.547
587.72	18.821
588.06	18.762
588.39	19.368
588.73	19.191
589.06	19.309
589.40	19.547
589.73	19.511
590.07	19.009
590.40	19.225
590.73	19.752
591.07	18.770
591.40	19.714
591.74	19.461
592.07	18.694
592.41	19.321
592.74	19.331
593.08	18.915
593.41	18.421
593.75	18.727
594.08	19.267
594.41	20.000
594.75	19.328
595.08	19.624
595.42	18.533
595.75	18.559
596.09	18.432
596.42	19.231
596.75	18.456
597.09	20.080
597.42	18.333
597.75	18.778
598.09	18.798
598.42	18.825
598.76	18.729
599.09	18.785
599.42	17.878
599.76	18.573
600.09	18.588
600.42	18.990
600.76	18.682
601.09	18.610
601.42	18.480
601.76	19.237
602.09	18.528
602.42	18.272
602.76	18.571
603.09	18.306
603.42	18.815
603.76	19.426
604.09	18.422
604.42	18.401
604.76	19.320
605.09	18.942
605.42	18.395
605.75	18.197
606.09	18.182
606.42	17.972
606.75	18.205
607.09	19.188
607.42	18.002
607.75	18.234
608.08	18.979
608.42	18.827
608.75	18.318
609.08	19.191
609.41	18.137
609.75	18.284
610.08	19.216
610.41	17.880
610.74	19.246
611.07	19.168
611.41	18.104
611.74	18.766
612.07	18.475
612.40	18.497
612.73	18.632
613.07	18.767
613.40	18.610
613.73	18.365
614.06	17.738
614.39	18.715
614.72	17.654
615.06	18.533
615.39	18.177
615.72	18.523
616.05	18.001
616.38	19.037
616.71	18.078
617.05	18.396
617.38	19.133
617.71	17.138
618.04	18.696
618.37	18.805
618.70	18.514
619.03	18.483
619.36	19.239
619.69	18.521
620.03	18.182
620.36	18.354
620.69	18.449
621.02	19.330
621.35	19.194
621.68	17.377
622.01	18.123
622.34	19.099
622.67	18.594
623.00	18.745
623.33	18.955
623.66	17.873
623.99	18.947
624.32	18.006
624.65	18.617
624.99	17.401
625.32	17.440
625.65	18.104
625.98	17.293
626.31	19.086
626.64	18.494
626.97	18.579
627.30	17.617
627.63	17.444
627.96	18.016
628.29	18.290
628.62	18.720
628.95	19.094
629.28	17.669
629.61	18.351
629.94	19.187
630.26	17.793
630.59	20.804
630.92	17.117
631.25	18.851
631.58	19.259
631.91	17.128
632.24	19.444
632.57	19.111
632.90	18.276
633.23	19.393
633.56	19.064
633.89	18.514
634.22	18.182
634.55	19.952
634.88	19.468
635.20	16.979
