SpectraSuite Data File
++++++++++++++++++++++++++++++++++++
Date: Sat May 16 11:41:21 PDT 2015
User: schluterlab
Dark Spectrum Present: Yes
Reference Spectrum Present: Yes
Number of Sampled Component Spectra: 1
Spectrometers: USB2E3373
Integration Time (usec): 3000 (USB2E3373)
Spectra Averaged: 3 (USB2E3373)
Boxcar Smoothing: 0 (USB2E3373)
Correct for Electrical Dark: No (USB2E3373)
Strobe/Lamp Enabled: No (USB2E3373)
Correct for Detector Non-linearity: No (USB2E3373)
Correct for Stray Light: No (USB2E3373)
Number of Pixels in Processed Spectrum: 2048
>>>>>Begin Processed Spectral Data<<<<<
178.53	0.000
178.91	113.333
179.29	600.000
179.67	-1600.000
180.04	-76.923
180.42	400.000
180.80	450.000
181.18	450.000
181.56	-125.000
181.94	1000.000
182.31	400.000
182.69	-107.692
183.07	-266.667
183.45	1950.000
183.83	566.667
184.20	-185.714
184.58	-112.500
184.96	-450.000
185.34	162.500
185.72	-350.000
186.09	333.333
186.47	-225.000
186.85	-125.000
187.23	87.500
187.61	-300.000
187.98	-337.500
188.36	-137.500
188.74	-62.500
189.12	1200.000
189.49	328.571
189.87	-116.667
190.25	475.000
190.63	-14.286
191.00	-166.667
191.38	340.000
191.76	-20.000
192.14	600.000
192.51	-400.000
192.89	-566.667
193.27	0.000
193.65	-77.778
194.02	-271.429
194.40	566.667
194.78	-130.000
195.15	-900.000
195.53	-127.273
195.91	-416.667
196.29	400.000
196.66	-933.333
197.04	3300.000
197.42	-150.000
197.79	0.000
198.17	0.000
198.55	-1000.000
198.92	-700.000
199.30	212.500
199.68	-500.000
200.05	-33.333
200.43	-188.889
200.81	-1400.000
201.18	-100.000
201.56	214.286
201.94	-106.667
202.31	-4.545
202.69	-150.000
203.07	-130.000
203.44	666.667
203.82	-416.667
204.19	-500.000
204.57	0.000
204.95	-1300.000
205.32	-62.500
205.70	1200.000
206.08	-1500.000
206.45	-33.333
206.83	-900.000
207.20	-100.000
207.58	-533.333
207.96	-633.333
208.33	-125.000
208.71	-200.000
209.08	260.000
209.46	-157.143
209.84	500.000
210.21	0.000
210.59	25.000
210.96	700.000
211.34	-283.333
211.71	-566.667
212.09	700.000
212.46	1100.000
212.84	-2700.000
213.22	366.667
213.59	150.000
213.97	-88.889
214.34	170.000
214.72	-110.000
215.09	-333.333
215.47	-183.333
215.84	40.000
216.22	-100.000
216.59	-33.333
216.97	-425.000
217.34	950.000
217.72	-171.429
218.09	-200.000
218.47	-171.429
218.84	185.714
219.22	-85.714
219.59	0.000
219.97	300.000
220.34	500.000
220.72	125.000
221.09	-84.615
221.47	0.000
221.84	-66.667
222.22	-450.000
222.59	1500.000
222.97	-162.500
223.34	-600.000
223.72	-600.000
224.09	-21.429
224.46	-325.000
224.84	-57.143
225.21	-171.429
225.59	-127.273
225.96	-200.000
226.34	-114.286
226.71	-266.667
227.08	25.000
227.46	1400.000
227.83	-157.143
228.21	-87.500
228.58	350.000
228.95	-50.000
229.33	-2100.000
229.70	-160.000
230.08	-650.000
230.45	-58.333
230.82	-216.667
231.20	-1500.000
231.57	-300.000
231.95	1100.000
232.32	0.000
232.69	0.000
233.07	-271.429
233.44	-950.000
233.81	-6.667
234.19	-122.222
234.56	-68.750
234.93	3.125
235.31	-200.000
235.68	-100.000
236.05	-64.706
236.43	-72.727
236.80	22.581
237.17	-20.833
237.55	-61.905
237.92	-86.364
238.29	-5.714
238.67	-23.529
239.04	5.556
239.41	-45.161
239.79	-15.385
240.16	-28.571
240.53	0.000
240.91	0.000
241.28	14.545
241.65	23.077
242.02	1.639
242.40	4.918
242.77	-1.515
243.14	-10.169
243.51	5.714
243.89	13.924
244.26	11.236
244.63	21.053
245.00	23.158
245.38	21.186
245.75	18.584
246.12	13.600
246.49	22.047
246.87	15.447
247.24	13.559
247.61	13.559
247.98	13.380
248.36	16.084
248.73	20.253
249.10	11.465
249.47	21.053
249.84	17.614
250.22	8.333
250.59	19.774
250.96	12.042
251.33	22.275
251.70	17.308
252.08	18.957
252.45	15.166
252.82	13.810
253.19	22.128
253.56	22.581
253.94	18.143
254.31	19.742
254.68	17.073
255.05	16.129
255.42	21.429
255.79	17.563
256.16	23.529
256.54	20.588
256.91	19.318
257.28	17.582
257.65	20.213
258.02	22.327
258.39	21.739
258.76	17.230
259.14	20.679
259.51	25.902
259.88	17.378
260.25	23.913
260.62	15.113
260.99	21.662
261.36	21.037
261.73	22.543
262.10	20.833
262.47	19.088
262.85	26.000
263.22	20.917
263.59	16.000
263.96	23.188
264.33	25.203
264.70	20.166
265.07	22.527
265.44	17.571
265.81	21.189
266.18	20.759
266.55	20.833
266.92	21.914
267.29	22.276
267.66	20.000
268.03	21.739
268.40	21.127
268.77	21.205
269.14	20.186
269.51	20.000
269.88	18.119
270.25	17.716
270.62	21.739
270.99	19.820
271.36	22.145
271.73	19.731
272.10	22.426
272.47	19.333
272.84	21.778
273.21	20.642
273.58	23.736
273.95	19.298
274.32	21.719
274.69	21.007
275.06	21.677
275.43	20.982
275.80	20.774
276.17	20.711
276.54	23.014
276.91	21.605
277.28	20.892
277.65	20.041
278.02	21.921
278.39	21.022
278.76	20.717
279.13	23.715
279.50	20.875
279.87	21.353
280.23	20.243
280.60	21.272
280.97	19.612
281.34	21.277
281.71	21.923
282.08	19.153
282.45	20.978
282.82	22.287
283.19	21.273
283.56	20.513
283.92	21.025
284.29	20.818
284.66	18.885
285.03	21.747
285.40	21.402
285.77	21.754
286.14	18.773
286.51	18.650
286.87	22.505
287.24	19.966
287.61	21.983
287.98	19.411
288.35	19.669
288.72	19.185
289.08	15.763
289.45	20.539
289.82	17.820
290.19	20.197
290.56	16.694
290.93	18.283
291.29	16.856
291.66	17.552
292.03	19.309
292.40	19.127
292.77	17.702
293.13	19.350
293.50	18.722
293.87	19.479
294.24	19.306
294.60	15.758
294.97	18.209
295.34	14.815
295.71	16.518
296.08	16.129
296.44	15.021
296.81	16.382
297.18	17.324
297.55	18.362
297.91	16.876
298.28	14.932
298.65	15.202
299.02	16.578
299.38	16.043
299.75	15.489
300.12	15.385
300.48	17.008
300.85	15.465
301.22	16.041
301.59	15.865
301.95	17.254
302.32	14.081
302.69	15.667
303.05	15.507
303.42	14.625
303.79	16.029
304.15	15.166
304.52	16.803
304.89	16.411
305.25	14.652
305.62	14.689
305.99	16.961
306.35	14.872
306.72	13.440
307.09	16.913
307.45	14.642
307.82	13.743
308.19	14.877
308.55	15.142
308.92	15.360
309.29	15.892
309.65	15.695
310.02	15.443
310.38	15.135
310.75	15.369
311.12	15.496
311.48	16.388
311.85	15.551
312.22	15.551
312.58	16.785
312.95	15.189
313.31	16.184
313.68	16.683
314.05	17.112
314.41	15.694
314.78	15.185
315.14	16.190
315.51	16.616
315.87	17.425
316.24	17.590
316.61	18.906
316.97	18.109
317.34	18.979
317.70	19.109
318.07	19.496
318.43	19.663
318.80	19.906
319.16	19.512
319.53	20.207
319.89	19.944
320.26	20.490
320.62	19.327
320.99	20.796
321.35	20.296
321.72	21.290
322.08	22.552
322.45	22.277
322.81	21.902
323.18	23.727
323.54	24.584
323.91	24.467
324.27	26.236
324.64	25.594
325.00	26.876
325.37	26.968
325.73	28.871
326.10	27.547
326.46	28.021
326.83	30.298
327.19	29.358
327.56	31.005
327.92	31.096
328.29	33.247
328.65	30.364
329.01	32.067
329.38	32.649
329.74	34.615
330.11	34.905
330.47	34.968
330.84	36.022
331.20	36.733
331.56	36.098
331.93	37.567
332.29	37.900
332.66	38.191
333.02	39.457
333.38	39.516
333.75	40.695
334.11	39.289
334.48	41.130
334.84	40.595
335.20	40.957
335.57	41.606
335.93	43.062
336.29	41.364
336.66	41.850
337.02	42.883
337.38	41.979
337.75	42.230
338.11	44.275
338.47	44.128
338.84	43.920
339.20	43.937
339.56	44.029
339.93	43.563
340.29	44.730
340.65	43.706
341.02	43.676
341.38	42.291
341.74	44.369
342.11	44.198
342.47	44.034
342.83	43.997
343.20	45.090
343.56	42.939
343.92	44.658
344.28	45.921
344.65	44.719
345.01	45.462
345.37	45.266
345.73	43.372
346.10	43.500
346.46	44.435
346.82	45.950
347.19	44.864
347.55	43.098
347.91	44.252
348.27	44.551
348.63	45.638
349.00	44.789
349.36	43.716
349.72	45.541
350.08	45.790
350.45	44.681
350.81	44.825
351.17	45.418
351.53	44.312
351.89	44.220
352.26	45.116
352.62	45.699
352.98	46.598
353.34	45.803
353.70	45.174
354.07	45.240
354.43	45.613
354.79	45.483
355.15	46.086
355.51	45.391
355.87	46.719
356.24	45.433
356.60	47.865
356.96	46.574
357.32	44.735
357.68	46.054
358.04	45.651
358.40	45.166
358.77	47.682
359.13	46.978
359.49	45.503
359.85	45.655
360.21	47.412
360.57	46.611
360.93	47.333
361.29	47.907
361.66	47.104
362.02	46.080
362.38	46.955
362.74	49.524
363.10	47.274
363.46	48.077
363.82	46.574
364.18	46.816
364.54	47.748
364.90	47.589
365.26	47.076
365.62	48.254
365.98	48.791
366.35	48.169
366.71	46.934
367.07	48.553
367.43	48.936
367.79	48.316
368.15	48.862
368.51	48.322
368.87	49.794
369.23	49.333
369.59	49.514
369.95	48.978
370.31	50.070
370.67	49.096
371.03	49.708
371.39	49.222
371.75	50.572
372.11	47.920
372.47	50.253
372.83	50.000
373.19	50.571
373.55	49.683
373.91	51.422
374.27	50.787
374.63	50.173
374.99	50.834
375.35	49.731
375.71	51.384
376.07	50.513
376.42	50.066
376.78	51.307
377.14	52.339
377.50	51.580
377.86	52.146
378.22	51.193
378.58	51.513
378.94	51.603
379.30	50.945
379.66	51.852
380.02	51.515
380.38	52.628
380.74	51.817
381.09	52.900
381.45	52.924
381.81	53.055
382.17	52.882
382.53	52.644
382.89	53.050
383.25	53.642
383.61	53.125
383.97	53.705
384.32	53.442
384.68	54.414
385.04	54.106
385.40	54.291
385.76	53.720
386.12	53.529
386.48	54.827
386.83	53.742
387.19	53.796
387.55	54.452
387.91	54.416
388.27	54.162
388.62	54.447
388.98	54.694
389.34	52.754
389.70	54.750
390.06	53.822
390.42	56.282
390.77	55.836
391.13	55.031
391.49	55.271
391.85	55.673
392.20	54.551
392.56	54.918
392.92	55.220
393.28	54.478
393.64	56.103
393.99	56.492
394.35	55.109
394.71	55.096
395.07	55.304
395.42	54.052
395.78	55.500
396.14	56.199
396.50	55.413
396.85	55.275
397.21	56.318
397.57	55.745
397.92	55.152
398.28	55.944
398.64	55.622
399.00	57.079
399.35	56.708
399.71	55.575
400.07	56.478
400.42	55.049
400.78	55.277
401.14	56.168
401.49	56.309
401.85	55.583
402.21	55.483
402.57	55.947
402.92	56.954
403.28	56.189
403.63	55.123
403.99	56.060
404.35	55.193
404.70	55.705
405.06	55.825
405.42	56.458
405.77	55.204
406.13	55.934
406.49	56.621
406.84	56.749
407.20	56.773
407.55	55.415
407.91	55.181
408.27	56.127
408.62	55.021
408.98	56.277
409.34	54.906
409.69	56.333
410.05	54.942
410.40	56.039
410.76	55.779
411.11	56.110
411.47	55.563
411.83	57.335
412.18	54.950
412.54	55.461
412.89	55.164
413.25	55.254
413.60	56.075
413.96	55.638
414.31	56.024
414.67	56.254
415.03	55.110
415.38	56.344
415.74	55.412
416.09	57.225
416.45	55.754
416.80	57.217
417.16	57.608
417.51	56.599
417.87	57.217
418.22	57.459
418.58	57.125
418.93	58.063
419.29	57.089
419.64	56.030
420.00	58.262
420.35	57.540
420.71	58.944
421.06	56.686
421.42	58.080
421.77	57.510
422.12	58.814
422.48	58.097
422.83	57.118
423.19	57.851
423.54	58.040
423.90	58.531
424.25	56.844
424.61	59.107
424.96	59.157
425.31	59.027
425.67	58.166
426.02	58.348
426.38	58.802
426.73	59.614
427.09	59.191
427.44	59.432
427.79	58.721
428.15	60.503
428.50	60.880
428.85	60.012
429.21	59.103
429.56	60.990
429.92	60.170
430.27	60.219
430.62	60.449
430.98	59.070
431.33	60.192
431.68	60.054
432.04	61.164
432.39	61.197
432.74	62.230
433.10	61.396
433.45	61.888
433.80	62.766
434.16	62.440
434.51	61.863
434.86	62.390
435.22	61.303
435.57	61.444
435.92	62.427
436.28	62.315
436.63	61.673
436.98	62.199
437.34	61.725
437.69	62.077
438.04	62.280
438.39	64.260
438.75	63.562
439.10	63.576
439.45	63.488
439.81	63.614
440.16	62.124
440.51	64.647
440.86	63.621
441.22	63.074
441.57	63.211
441.92	63.939
442.27	62.338
442.63	63.788
442.98	63.657
443.33	64.525
443.68	63.158
444.03	64.440
444.39	64.121
444.74	65.639
445.09	64.857
445.44	65.672
445.79	65.222
446.15	65.553
446.50	64.507
446.85	64.084
447.20	64.709
447.55	64.475
447.91	65.357
448.26	65.196
448.61	64.743
448.96	65.714
449.31	65.671
449.66	66.514
450.02	64.820
450.37	66.435
450.72	65.650
451.07	66.750
451.42	64.250
451.77	65.470
452.12	64.839
452.47	65.806
452.83	64.997
453.18	66.793
453.53	66.356
453.88	67.105
454.23	64.873
454.58	67.620
454.93	67.569
455.28	67.814
455.63	67.445
455.98	68.133
456.34	67.090
456.69	67.292
457.04	66.503
457.39	67.404
457.74	67.159
458.09	65.893
458.44	67.667
458.79	67.769
459.14	68.169
459.49	68.680
459.84	66.161
460.19	67.064
460.54	67.332
460.89	67.769
461.24	66.120
461.59	67.292
461.94	69.064
462.29	68.195
462.64	69.236
462.99	68.340
463.34	68.062
463.69	67.875
464.04	66.784
464.39	69.056
464.74	66.785
465.09	67.168
465.44	68.979
465.79	69.600
466.14	69.275
466.49	68.221
466.84	69.328
467.19	70.075
467.54	68.734
467.89	68.249
468.24	68.290
468.59	69.769
468.94	70.547
469.29	69.201
469.64	69.340
469.99	68.805
470.34	70.942
470.68	69.331
471.03	71.163
471.38	69.583
471.73	71.678
472.08	69.813
472.43	70.849
472.78	70.200
473.13	69.317
473.48	71.283
473.83	70.223
474.17	70.255
474.52	71.419
474.87	69.814
475.22	70.088
475.57	70.889
475.92	70.518
476.27	68.457
476.61	69.352
476.96	70.319
477.31	69.107
477.66	70.725
478.01	71.799
478.36	68.570
478.70	70.742
479.05	71.065
479.40	70.622
479.75	70.693
480.10	70.337
480.45	69.536
480.79	71.422
481.14	71.400
481.49	71.442
481.84	70.689
482.19	69.667
482.53	70.833
482.88	70.622
483.23	71.221
483.58	71.739
483.92	71.954
484.27	70.846
484.62	69.935
484.97	70.031
485.31	68.160
485.66	66.208
486.01	66.838
486.36	68.825
486.70	70.337
487.05	69.059
487.40	70.192
487.75	69.259
488.09	68.808
488.44	69.553
488.79	68.978
489.13	70.711
489.48	71.085
489.83	71.092
490.17	70.353
490.52	72.781
490.87	72.009
491.22	72.489
491.56	72.083
491.91	72.615
492.26	72.736
492.60	72.455
492.95	75.155
493.30	73.225
493.64	72.308
493.99	73.901
494.34	73.000
494.68	74.298
495.03	72.562
495.37	73.795
495.72	72.741
496.07	73.487
496.41	73.460
496.76	73.607
497.11	74.470
497.45	74.521
497.80	73.987
498.14	73.477
498.49	74.435
498.84	71.456
499.18	73.879
499.53	74.525
499.87	74.421
500.22	74.951
500.56	74.887
500.91	74.581
501.26	74.333
501.60	73.568
501.95	73.623
502.29	72.556
502.64	74.729
502.98	73.886
503.33	74.342
503.67	74.234
504.02	74.408
504.36	75.245
504.71	75.633
505.06	74.239
505.40	75.499
505.75	75.356
506.09	74.975
506.44	74.586
506.78	74.812
507.13	75.901
507.47	76.109
507.82	74.600
508.16	76.010
508.51	75.940
508.85	76.812
509.19	76.975
509.54	76.638
509.88	75.904
510.23	77.516
510.57	76.720
510.92	77.444
511.26	76.715
511.61	76.512
511.95	76.347
512.30	78.010
512.64	75.793
512.98	78.273
513.33	77.375
513.67	77.945
514.02	77.069
514.36	77.562
514.70	76.740
515.05	79.131
515.39	77.624
515.74	79.116
516.08	78.501
516.42	78.470
516.77	78.972
517.11	78.947
517.46	80.084
517.80	81.288
518.14	79.046
518.49	80.096
518.83	77.389
519.17	78.034
519.52	77.097
519.86	79.988
520.20	80.746
520.55	79.385
520.89	79.775
521.23	79.304
521.58	80.376
521.92	80.177
522.26	80.063
522.61	79.341
522.95	79.324
523.29	80.188
523.64	79.700
523.98	80.267
524.32	79.824
524.66	78.758
525.01	80.347
525.35	81.057
525.69	82.173
526.04	81.005
526.38	80.777
526.72	79.438
527.06	80.990
527.41	80.132
527.75	80.264
528.09	80.212
528.43	80.525
528.78	79.146
529.12	83.163
529.46	80.863
529.80	79.858
530.15	79.588
530.49	80.401
530.83	82.187
531.17	81.212
531.51	81.514
531.86	80.316
532.20	80.702
532.54	80.548
532.88	80.435
533.22	81.952
533.57	80.875
533.91	78.777
534.25	79.824
534.59	79.325
534.93	79.216
535.27	79.924
535.62	80.946
535.96	79.897
536.30	80.759
536.64	79.748
536.98	82.910
537.32	81.341
537.66	79.905
538.01	80.893
538.35	81.959
538.69	80.749
539.03	80.433
539.37	81.504
539.71	79.320
540.05	81.631
540.39	82.479
540.73	82.861
541.07	81.148
541.42	79.878
541.76	79.070
542.10	80.216
542.44	79.214
542.78	81.140
543.12	82.621
543.46	80.411
543.80	81.003
544.14	81.061
544.48	80.709
544.82	80.447
545.16	81.556
545.50	78.937
545.84	81.572
546.18	80.374
546.52	81.366
546.86	81.980
547.20	81.857
547.54	79.890
547.88	80.425
548.22	79.751
548.56	83.300
548.90	79.919
549.24	80.519
549.58	80.734
549.92	80.848
550.26	81.575
550.60	80.441
550.94	81.387
551.28	81.866
551.62	79.911
551.96	81.404
552.30	80.488
552.64	81.985
552.98	81.710
553.32	82.540
553.66	82.192
554.00	82.161
554.34	81.949
554.68	80.994
555.02	81.766
555.36	81.596
555.69	81.519
556.03	81.544
556.37	81.863
556.71	82.606
557.05	84.405
557.39	84.410
557.73	82.567
558.07	85.305
558.41	83.171
558.75	80.228
559.08	83.191
559.42	84.686
559.76	83.972
560.10	83.072
560.44	82.370
560.78	82.185
561.12	82.057
561.45	82.945
561.79	81.672
562.13	81.697
562.47	83.403
562.81	81.612
563.15	81.596
563.48	81.064
563.82	83.908
564.16	80.798
564.50	81.183
564.84	80.952
565.17	82.427
565.51	80.900
565.85	83.570
566.19	83.202
566.52	81.605
566.86	81.416
567.20	81.840
567.54	82.516
567.88	80.290
568.21	80.369
568.55	78.791
568.89	79.026
569.23	77.788
569.56	76.587
569.90	78.167
570.24	77.715
570.57	75.852
570.91	75.315
571.25	76.556
571.59	75.679
571.92	75.327
572.26	74.416
572.60	74.496
572.93	73.769
573.27	72.500
573.61	73.100
573.95	74.082
574.28	74.443
574.62	73.793
574.96	73.704
575.29	72.891
575.63	74.064
575.97	73.058
576.30	73.280
576.64	74.569
576.98	72.655
577.31	73.659
577.65	73.227
577.98	73.075
578.32	73.332
578.66	73.182
578.99	73.322
579.33	72.796
579.67	73.218
580.00	72.619
580.34	72.554
580.67	72.984
581.01	71.389
581.35	73.322
581.68	72.118
582.02	73.215
582.35	72.502
582.69	74.059
583.02	74.315
583.36	74.071
583.70	73.758
584.03	74.461
584.37	74.019
584.70	73.883
585.04	74.481
585.37	72.888
585.71	73.440
586.04	74.797
586.38	74.098
586.72	75.254
587.05	75.616
587.39	74.023
587.72	74.436
588.06	74.856
588.39	74.879
588.73	75.498
589.06	76.247
589.40	75.885
589.73	75.390
590.07	75.965
590.40	76.273
590.73	77.209
591.07	77.787
591.40	77.556
591.74	76.759
592.07	76.667
592.41	77.452
592.74	78.132
593.08	76.622
593.41	77.270
593.75	76.525
594.08	77.139
594.41	78.004
594.75	77.274
595.08	77.030
595.42	77.782
595.75	76.773
596.09	78.075
596.42	77.414
596.75	77.749
597.09	78.495
597.42	77.128
597.75	78.211
598.09	78.129
598.42	77.331
598.76	76.537
599.09	77.664
599.42	77.316
599.76	76.406
600.09	78.015
600.42	76.833
600.76	77.476
601.09	76.908
601.42	77.602
601.76	77.142
602.09	78.282
602.42	77.737
602.76	77.732
603.09	77.419
603.42	77.961
603.76	77.623
604.09	77.853
604.42	77.352
604.76	77.279
605.09	78.345
605.42	78.590
605.75	77.188
606.09	77.875
606.42	78.048
606.75	77.587
607.09	78.915
607.42	78.125
607.75	78.764
608.08	79.394
608.42	79.376
608.75	77.570
609.08	79.201
609.41	78.525
609.75	78.742
610.08	80.637
610.41	78.602
610.74	80.658
611.07	80.172
611.41	77.811
611.74	80.051
612.07	81.310
612.40	79.478
612.73	79.321
613.07	79.747
613.40	79.858
613.73	80.327
614.06	79.517
614.39	82.074
614.72	79.888
615.06	80.000
615.39	80.304
615.72	81.152
616.05	79.625
616.38	80.905
616.71	80.060
617.05	80.639
617.38	82.910
617.71	81.880
618.04	83.727
618.37	82.830
618.70	84.485
619.03	80.975
619.36	84.708
619.69	83.991
620.03	80.854
620.36	84.318
620.69	84.135
621.02	84.018
621.35	86.048
621.68	85.246
622.01	87.783
622.34	84.394
622.67	84.688
623.00	83.168
623.33	84.851
623.66	84.564
623.99	85.038
624.32	83.482
624.65	83.370
624.99	86.034
625.32	84.356
625.65	85.859
625.98	83.725
626.31	86.623
626.64	86.527
626.97	87.757
627.30	87.064
627.63	88.687
627.96	88.947
628.29	87.684
628.62	88.539
628.95	90.453
629.28	87.124
629.61	89.892
629.94	87.051
630.26	90.557
630.59	91.156
630.92	90.290
631.25	88.306
631.58	91.958
