SpectraSuite Data File
++++++++++++++++++++++++++++++++++++
Date: Sat May 16 11:16:14 PDT 2015
User: schluterlab
Dark Spectrum Present: Yes
Reference Spectrum Present: Yes
Number of Sampled Component Spectra: 1
Spectrometers: USB2E3373
Integration Time (usec): 3000 (USB2E3373)
Spectra Averaged: 3 (USB2E3373)
Boxcar Smoothing: 0 (USB2E3373)
Correct for Electrical Dark: No (USB2E3373)
Strobe/Lamp Enabled: No (USB2E3373)
Correct for Detector Non-linearity: No (USB2E3373)
Correct for Stray Light: No (USB2E3373)
Number of Pixels in Processed Spectrum: 2048
>>>>>Begin Processed Spectral Data<<<<<
178.53	0.000
178.91	113.333
179.29	-33.333
179.67	-900.000
180.04	-23.077
180.42	-100.000
180.80	175.000
181.18	300.000
181.56	12.500
181.94	700.000
182.31	475.000
182.69	-7.692
183.07	-366.667
183.45	1200.000
183.83	433.333
184.20	-71.429
184.58	-100.000
184.96	-125.000
185.34	75.000
185.72	-350.000
186.09	-33.333
186.47	-175.000
186.85	-137.500
187.23	0.000
187.61	350.000
187.98	-275.000
188.36	12.500
188.74	-12.500
189.12	700.000
189.49	285.714
189.87	50.000
190.25	250.000
190.63	-28.571
191.00	-77.778
191.38	280.000
191.76	0.000
192.14	400.000
192.51	-200.000
192.89	-133.333
193.27	0.000
193.65	-111.111
194.02	-100.000
194.40	333.333
194.78	0.000
195.15	-900.000
195.53	-27.273
195.91	-216.667
196.29	240.000
196.66	-400.000
197.04	1400.000
197.42	-100.000
197.79	-6.667
198.17	-266.667
198.55	-650.000
198.92	-500.000
199.30	112.500
199.68	50.000
200.05	-77.778
200.43	-111.111
200.81	-200.000
201.18	-100.000
201.56	128.571
201.94	-60.000
202.31	13.636
202.69	-80.000
203.07	-50.000
203.44	600.000
203.82	-183.333
204.19	-300.000
204.57	-125.000
204.95	-700.000
205.32	-18.750
205.70	800.000
206.08	-1300.000
206.45	11.111
206.83	-800.000
207.20	350.000
207.58	-600.000
207.96	-500.000
208.33	-37.500
208.71	-133.333
209.08	180.000
209.46	-71.429
209.84	100.000
210.21	0.000
210.59	50.000
210.96	1700.000
211.34	-100.000
211.71	33.333
212.09	275.000
212.46	700.000
212.84	-900.000
213.22	600.000
213.59	41.667
213.97	55.556
214.34	60.000
214.72	-70.000
215.09	-266.667
215.47	-100.000
215.84	-10.000
216.22	-110.000
216.59	-60.000
216.97	-125.000
217.34	1000.000
217.72	-114.286
218.09	-200.000
218.47	-100.000
218.84	128.571
219.22	-28.571
219.59	0.000
219.97	100.000
220.34	250.000
220.72	250.000
221.09	-23.077
221.47	0.000
221.84	533.333
222.22	250.000
222.59	500.000
222.97	-187.500
223.34	-700.000
223.72	-466.667
224.09	-14.286
224.46	-375.000
224.84	21.429
225.21	-128.571
225.59	-54.545
225.96	-137.500
226.34	114.286
226.71	-88.889
227.08	30.000
227.46	1200.000
227.83	-42.857
228.21	-62.500
228.58	350.000
228.95	-25.000
229.33	-1100.000
229.70	0.000
230.08	-850.000
230.45	41.667
230.82	-166.667
231.20	-1000.000
231.57	-400.000
231.95	1900.000
232.32	38.095
232.69	-133.333
233.07	-185.714
233.44	-600.000
233.81	-46.667
234.19	-77.778
234.56	-62.500
234.93	-25.000
235.31	-214.286
235.68	-78.571
236.05	17.647
236.43	-45.455
236.80	-12.903
237.17	-37.500
237.55	-19.048
237.92	-90.909
238.29	-2.857
238.67	-26.471
239.04	-27.778
239.41	-22.581
239.79	-38.462
240.16	-21.429
240.53	-12.727
240.91	-7.692
241.28	-3.636
241.65	-6.154
242.02	-13.115
242.40	-13.115
242.77	-3.030
243.14	-28.814
243.51	-20.000
243.89	-10.127
244.26	-4.494
244.63	-4.211
245.00	-5.263
245.38	-0.847
245.75	-9.735
246.12	-1.600
246.49	1.575
246.87	-3.252
247.24	-11.017
247.61	-8.475
247.98	-8.451
248.36	-6.294
248.73	-3.165
249.10	-6.369
249.47	-3.509
249.84	-3.977
250.22	-9.524
250.59	0.565
250.96	-3.665
251.33	0.000
251.70	0.962
252.08	-1.422
252.45	-6.635
252.82	-3.333
253.19	0.851
253.56	-0.403
253.94	-1.688
254.31	-7.296
254.68	-1.220
255.05	-5.645
255.42	0.794
255.79	-3.584
256.16	3.137
256.54	-0.368
256.91	-0.379
257.28	-4.762
257.65	0.355
258.02	0.000
258.39	-1.003
258.76	-3.716
259.14	1.235
259.51	1.967
259.88	0.610
260.25	4.969
260.62	-1.929
260.99	-1.780
261.36	0.915
261.73	2.601
262.10	2.222
262.47	0.285
262.85	2.286
263.22	-1.146
263.59	-6.769
263.96	-0.290
264.33	-0.813
264.70	-0.276
265.07	0.549
265.44	0.775
265.81	-0.258
266.18	-0.759
266.55	0.980
266.92	-0.756
267.29	1.211
267.66	-0.494
268.03	3.140
268.40	0.235
268.77	0.723
269.14	1.160
269.51	2.989
269.88	-2.294
270.25	-2.098
270.62	0.458
270.99	-0.901
271.36	-0.699
271.73	-2.018
272.10	-2.517
272.47	0.222
272.84	4.000
273.21	0.229
273.58	0.879
273.95	-1.316
274.32	1.131
274.69	1.532
275.06	1.431
275.43	-3.571
275.80	0.407
276.17	-0.209
276.54	3.462
276.91	-1.235
277.28	-0.811
277.65	0.826
278.02	-0.209
278.39	-0.196
278.76	1.195
279.13	1.581
279.50	1.193
279.87	-1.903
280.23	-0.607
280.60	-1.590
280.97	0.000
281.34	0.580
281.71	0.962
282.08	1.815
282.45	-2.037
282.82	-1.357
283.19	-0.727
283.56	2.747
283.92	-1.060
284.29	0.558
284.66	-0.360
285.03	1.783
285.40	1.292
285.77	1.404
286.14	0.181
286.51	-1.421
286.87	2.722
287.24	0.000
287.61	0.661
287.98	-1.906
288.35	-0.331
288.72	-0.679
289.08	-1.525
289.45	0.337
289.82	-0.692
290.19	-0.493
290.56	-1.653
290.93	0.000
291.29	-0.810
291.66	-0.644
292.03	-0.314
292.40	1.205
292.77	3.261
293.13	-0.163
293.50	0.297
293.87	1.687
294.24	0.151
294.60	-0.909
294.97	1.669
295.34	-0.593
295.71	-1.190
296.08	-0.614
296.44	-1.860
296.81	-0.142
297.18	0.000
297.55	0.000
297.91	1.395
298.28	-1.370
298.65	-0.558
299.02	1.604
299.38	0.134
299.75	1.495
300.12	0.128
300.48	0.767
300.85	-1.048
301.22	1.035
301.59	-0.130
301.95	2.393
302.32	-0.391
302.69	0.122
303.05	0.366
303.42	0.000
303.79	0.120
304.15	0.592
304.52	0.350
304.89	1.653
305.25	0.244
305.62	0.940
305.99	1.767
306.35	0.666
306.72	0.228
307.09	1.589
307.45	0.908
307.82	0.894
308.19	1.230
308.55	1.634
308.92	0.322
309.29	0.757
309.65	0.212
310.02	1.188
310.38	-1.730
310.75	1.127
311.12	1.446
311.48	2.505
311.85	1.236
312.22	1.648
312.58	2.340
312.95	1.733
313.31	1.199
313.68	3.015
314.05	3.363
314.41	1.006
314.78	0.200
315.14	3.356
315.51	2.634
315.87	2.614
316.24	3.013
316.61	3.359
316.97	4.478
317.34	3.083
317.70	3.432
318.07	4.011
318.43	3.652
318.80	4.319
319.16	4.128
319.53	3.477
319.89	4.233
320.26	5.784
320.62	5.481
320.99	5.274
321.35	5.320
321.72	5.834
322.08	6.429
322.45	6.733
322.81	7.973
323.18	7.205
323.54	7.763
323.91	7.600
324.27	7.795
324.64	8.958
325.00	10.209
325.37	10.407
325.73	11.724
326.10	9.566
326.46	11.909
326.83	11.319
327.19	11.593
327.56	14.225
327.92	13.679
328.29	14.199
328.65	12.273
329.01	14.488
329.38	14.897
329.74	17.582
330.11	16.228
330.47	17.802
330.84	17.599
331.20	17.780
331.56	17.229
331.93	18.739
332.29	18.539
332.66	18.876
333.02	19.367
333.38	20.968
333.75	20.036
334.11	20.267
334.48	21.006
334.84	21.522
335.20	20.567
335.57	21.570
335.93	22.292
336.29	20.283
336.66	20.441
337.02	21.712
337.38	20.321
337.75	20.369
338.11	21.199
338.47	20.730
338.84	22.051
339.20	21.529
339.56	22.460
339.93	22.046
340.29	21.258
340.65	21.329
341.02	22.344
341.38	21.146
341.74	21.507
342.11	21.928
342.47	21.888
342.83	21.914
343.20	22.289
343.56	21.714
343.92	22.120
344.28	22.792
344.65	21.452
345.01	21.765
345.37	22.508
345.73	21.195
346.10	20.605
346.46	20.390
346.82	21.411
347.19	21.775
347.55	21.750
347.91	20.236
348.27	20.684
348.63	22.213
349.00	23.230
349.36	20.453
349.72	23.010
350.08	21.251
350.45	20.567
350.81	22.054
351.17	21.383
351.53	20.286
351.89	21.423
352.26	22.248
352.62	22.427
352.98	21.994
353.34	21.823
353.70	20.772
354.07	21.951
354.43	22.609
354.79	20.998
355.15	21.645
355.51	20.312
355.87	22.055
356.24	20.334
356.60	22.643
356.96	21.786
357.32	21.298
357.68	21.686
358.04	21.940
358.40	21.268
358.77	21.484
359.13	22.035
359.49	22.600
359.85	21.037
360.21	22.222
360.57	23.042
360.93	21.037
361.29	21.749
361.66	20.884
362.02	22.559
362.38	22.597
362.74	22.784
363.10	22.166
363.46	23.006
363.82	22.522
364.18	22.359
364.54	23.517
364.90	21.314
365.26	22.397
365.62	22.880
365.98	22.404
366.35	22.746
366.71	22.269
367.07	22.653
367.43	23.267
367.79	22.955
368.15	22.262
368.51	24.336
368.87	24.176
369.23	22.526
369.59	23.403
369.95	21.846
370.31	23.347
370.67	22.415
371.03	23.615
371.39	21.994
371.75	23.319
372.11	23.960
372.47	24.006
372.83	24.965
373.19	24.571
373.55	24.631
373.91	24.111
374.27	24.983
374.63	23.741
374.99	24.131
375.35	23.890
375.71	25.051
376.07	25.325
376.42	24.437
376.78	24.967
377.14	25.085
377.50	24.371
377.86	25.488
378.22	24.560
378.58	25.015
378.94	25.154
379.30	25.899
379.66	25.137
380.02	25.550
380.38	25.619
380.74	25.440
381.09	25.483
381.45	26.313
381.81	25.892
382.17	26.692
382.53	24.742
382.89	26.017
383.25	26.550
383.61	26.061
383.97	26.393
384.32	24.906
384.68	27.146
385.04	26.570
385.40	25.685
385.76	26.768
386.12	26.421
386.48	27.475
386.83	26.564
387.19	26.360
387.55	26.529
387.91	26.793
388.27	26.779
388.62	27.043
388.98	27.377
389.34	27.601
389.70	26.979
390.06	27.843
390.42	28.397
390.77	27.823
391.13	27.453
391.49	27.324
391.85	27.618
392.20	27.609
392.56	26.817
392.92	28.294
393.28	28.473
393.64	28.803
393.99	28.062
394.35	27.920
394.71	27.671
395.07	28.186
395.42	27.592
395.78	28.850
396.14	28.972
396.50	28.196
396.85	29.303
397.21	28.250
397.57	30.091
397.92	29.274
398.28	29.444
398.64	28.614
399.00	28.427
399.35	28.805
399.71	30.023
400.07	29.134
400.42	28.345
400.78	28.861
401.14	27.605
401.49	29.363
401.85	29.835
402.21	29.261
402.57	28.823
402.92	29.641
403.28	29.228
403.63	28.400
403.99	30.019
404.35	28.684
404.70	28.613
405.06	30.046
405.42	28.229
405.77	29.129
406.13	29.358
406.49	30.018
406.84	28.434
407.20	28.916
407.55	29.576
407.91	28.821
408.27	29.596
408.62	29.946
408.98	30.807
409.34	29.372
409.69	30.561
410.05	29.654
410.40	29.430
410.76	30.053
411.11	29.613
411.47	29.604
411.83	30.929
412.18	30.012
412.54	29.957
412.89	30.984
413.25	30.165
413.60	30.620
413.96	29.144
414.31	30.887
414.67	29.333
415.03	30.013
415.38	30.384
415.74	30.992
416.09	30.627
416.45	31.349
416.80	31.274
417.16	30.365
417.51	31.517
417.87	31.197
418.22	31.100
418.58	31.515
418.93	30.411
419.29	30.866
419.64	30.276
420.00	31.349
420.35	31.756
420.71	31.993
421.06	32.485
421.42	31.733
421.77	31.379
422.12	32.345
422.48	31.962
422.83	31.435
423.19	32.183
423.54	31.643
423.90	31.810
424.25	31.165
424.61	32.328
424.96	33.177
425.31	33.259
425.67	31.862
426.02	32.071
426.38	33.212
426.73	32.613
427.09	33.088
427.44	32.955
427.79	33.140
428.15	34.051
428.50	33.548
428.85	32.974
429.21	32.983
429.56	33.594
429.92	33.417
430.27	33.599
430.62	34.431
430.98	32.619
431.33	33.671
431.68	34.316
432.04	34.527
432.39	34.815
432.74	33.453
433.10	34.665
433.45	33.333
433.80	34.099
434.16	34.713
434.51	34.137
434.86	35.559
435.22	35.579
435.57	34.578
435.92	35.287
436.28	34.599
436.63	34.992
436.98	33.963
437.34	35.204
437.69	35.356
438.04	35.678
438.39	36.282
438.75	35.739
439.10	35.258
439.45	35.486
439.81	35.964
440.16	34.810
440.51	35.647
440.86	35.685
441.22	34.936
441.57	36.053
441.92	35.550
442.27	36.580
442.63	36.320
442.98	35.045
443.33	35.805
443.68	36.321
444.03	35.609
444.39	35.977
444.74	36.619
445.09	36.568
445.44	35.847
445.79	36.461
446.15	36.418
446.50	35.602
446.85	36.121
447.20	36.874
447.55	36.022
447.91	37.844
448.26	36.816
448.61	36.106
448.96	37.087
449.31	36.528
449.66	36.920
450.02	36.288
450.37	36.812
450.72	36.271
451.07	36.958
451.42	35.998
451.77	36.206
452.12	35.518
452.47	36.524
452.83	37.100
453.18	36.939
453.53	36.256
453.88	37.500
454.23	37.001
454.58	37.539
454.93	37.783
455.28	37.540
455.63	39.005
455.98	38.373
456.34	36.595
456.69	38.712
457.04	36.939
457.39	37.560
457.74	37.626
458.09	37.181
458.44	38.626
458.79	37.052
459.14	36.509
459.49	37.241
459.84	37.324
460.19	36.814
460.54	37.205
460.89	37.724
461.24	37.948
461.59	37.515
461.94	37.619
462.29	37.701
462.64	38.142
462.99	39.224
463.34	36.935
463.69	38.550
464.04	37.317
464.39	36.798
464.74	37.411
465.09	37.523
465.44	37.789
465.79	38.579
466.14	37.917
466.49	37.363
466.84	37.695
467.19	38.903
467.54	38.291
467.89	38.101
468.24	36.936
468.59	38.101
468.94	37.878
469.29	36.582
469.64	38.140
469.99	37.947
470.34	38.277
470.68	39.172
471.03	38.954
471.38	37.222
471.73	38.462
472.08	36.948
472.43	37.452
472.78	36.867
473.13	36.978
473.48	38.098
473.83	38.027
474.17	38.981
474.52	38.747
474.87	37.646
475.22	37.227
475.57	37.889
475.92	37.743
476.27	36.857
476.61	37.577
476.96	37.954
477.31	38.805
477.66	38.019
478.01	38.466
478.36	37.349
478.70	39.028
479.05	37.372
479.40	37.772
479.75	38.277
480.10	37.599
480.45	37.476
480.79	38.648
481.14	38.334
481.49	38.190
481.84	38.234
482.19	37.551
482.53	37.358
482.88	37.304
483.23	37.653
483.58	38.992
483.92	38.462
484.27	37.483
484.62	37.451
484.97	37.841
485.31	36.864
485.66	36.199
486.01	36.232
486.36	37.441
486.70	38.003
487.05	36.658
487.40	37.099
487.75	36.917
488.09	36.597
488.44	37.077
488.79	37.389
489.13	37.238
489.48	37.847
489.83	37.729
490.17	37.658
490.52	38.361
490.87	37.506
491.22	38.300
491.56	38.148
491.91	38.263
492.26	38.443
492.60	38.011
492.95	38.077
493.30	37.732
493.64	38.364
493.99	37.476
494.34	38.476
494.68	39.139
495.03	38.098
495.37	38.791
495.72	37.132
496.07	38.902
496.41	38.907
496.76	38.493
497.11	38.436
497.45	37.931
497.80	38.819
498.14	38.507
498.49	37.619
498.84	38.010
499.18	38.596
499.53	38.139
499.87	37.693
500.22	38.578
500.56	38.269
500.91	37.241
501.26	38.379
501.60	38.276
501.95	38.599
502.29	37.742
502.64	38.331
502.98	38.476
503.33	37.735
503.67	37.548
504.02	37.904
504.36	37.745
504.71	37.589
505.06	37.743
505.40	37.874
505.75	36.941
506.09	37.867
506.44	37.694
506.78	38.886
507.13	37.745
507.47	38.967
507.82	37.016
508.16	37.565
508.51	38.640
508.85	37.785
509.19	38.932
509.54	38.055
509.88	38.298
510.23	38.103
510.57	38.307
510.92	40.440
511.26	37.852
511.61	37.311
511.95	38.416
512.30	39.472
512.64	37.173
512.98	39.164
513.33	37.507
513.67	37.688
514.02	38.367
514.36	38.892
514.70	38.879
515.05	38.994
515.39	38.524
515.74	39.500
516.08	38.213
516.42	38.810
516.77	38.590
517.11	39.016
517.46	38.756
517.80	39.952
518.14	37.681
518.49	39.091
518.83	37.982
519.17	39.254
519.52	37.363
519.86	39.665
520.20	37.775
520.55	37.908
520.89	38.447
521.23	38.584
521.58	37.743
521.92	38.632
522.26	37.905
522.61	38.657
522.95	38.162
523.29	39.060
523.64	38.289
523.98	39.147
524.32	38.592
524.66	38.571
525.01	37.636
525.35	38.595
525.69	37.931
526.04	39.099
526.38	39.211
526.72	38.250
527.06	37.956
527.41	36.700
527.75	37.426
528.09	37.326
528.43	39.607
528.78	38.003
529.12	38.540
529.46	37.371
529.80	38.347
530.15	38.120
530.49	37.516
530.83	38.376
531.17	38.855
531.51	37.843
531.86	38.051
532.20	37.922
532.54	38.570
532.88	38.011
533.22	37.166
533.57	38.185
533.91	37.578
534.25	37.398
534.59	37.102
534.93	37.461
535.27	37.319
535.62	37.660
535.96	37.750
536.30	35.995
536.64	36.720
536.98	38.206
537.32	37.664
537.66	37.407
538.01	37.732
538.35	37.500
538.69	36.765
539.03	38.253
539.37	37.924
539.71	36.024
540.05	37.491
540.39	37.881
540.73	36.697
541.07	37.363
541.42	36.057
541.76	36.478
542.10	37.677
542.44	37.308
542.78	36.974
543.12	37.746
543.46	36.438
543.80	36.321
544.14	36.132
544.48	36.942
544.82	36.401
545.16	35.882
545.50	34.791
545.84	36.439
546.18	37.032
546.52	36.913
546.86	36.610
547.20	37.131
547.54	34.986
547.88	36.828
548.22	34.862
548.56	35.204
548.90	35.647
549.24	36.370
549.58	36.909
549.92	35.548
550.26	37.211
550.60	34.637
550.94	36.788
551.28	36.268
551.62	36.263
551.96	35.166
552.30	35.261
552.64	35.327
552.98	36.720
553.32	35.354
553.66	35.905
554.00	35.039
554.34	35.018
554.68	35.819
555.02	34.660
555.36	35.370
555.69	34.885
556.03	34.035
556.37	35.633
556.71	36.006
557.05	35.181
557.39	35.189
557.73	36.251
558.07	36.549
558.41	35.378
558.75	34.677
559.08	33.774
559.42	35.145
559.76	35.583
560.10	34.377
560.44	35.260
560.78	34.308
561.12	34.300
561.45	34.247
561.79	34.495
562.13	34.011
562.47	34.104
562.81	35.431
563.15	34.360
563.48	33.932
563.82	34.077
564.16	32.995
564.50	34.409
564.84	32.672
565.17	34.019
565.51	33.963
565.85	35.024
566.19	35.112
566.52	33.855
566.86	33.628
567.20	33.838
567.54	33.786
567.88	32.887
568.21	33.445
568.55	33.563
568.89	31.610
569.23	31.745
569.56	32.072
569.90	31.589
570.24	31.755
570.57	30.650
570.91	30.398
571.25	31.453
571.59	31.377
571.92	30.268
572.26	29.838
572.60	30.655
572.93	30.040
573.27	30.244
573.61	29.252
573.95	29.164
574.28	29.492
574.62	29.741
574.96	29.711
575.29	29.395
575.63	29.360
575.97	29.369
576.30	29.076
576.64	29.426
576.98	29.087
577.31	29.082
577.65	29.456
577.98	29.022
578.32	28.752
578.66	29.494
578.99	29.424
579.33	28.410
579.67	28.887
580.00	29.241
580.34	28.523
580.67	28.929
581.01	28.336
581.35	28.866
581.68	28.092
582.02	28.401
582.35	28.536
582.69	28.839
583.02	29.156
583.36	28.599
583.70	28.213
584.03	28.906
584.37	28.498
584.70	28.099
585.04	28.253
585.37	28.377
585.71	28.520
586.04	28.546
586.38	27.907
586.72	28.326
587.05	28.575
587.39	28.790
587.72	28.537
588.06	28.308
588.39	28.083
588.73	28.334
589.06	28.645
589.40	28.787
589.73	28.258
590.07	28.259
590.40	28.893
590.73	28.709
591.07	28.402
591.40	29.463
591.74	28.454
592.07	28.874
592.41	29.257
592.74	28.901
593.08	28.630
593.41	27.928
593.75	27.267
594.08	28.433
594.41	27.948
594.75	28.011
595.08	28.797
595.42	27.926
595.75	28.004
596.09	28.444
596.42	28.560
596.75	27.943
597.09	27.694
597.42	28.416
597.75	28.831
598.09	28.107
598.42	28.635
598.76	27.159
599.09	27.111
599.42	27.951
599.76	27.860
600.09	28.168
600.42	28.523
600.76	27.684
601.09	27.763
601.42	27.345
601.76	28.076
602.09	28.262
602.42	27.901
602.76	27.337
603.09	27.339
603.42	27.397
603.76	28.241
604.09	27.833
604.42	26.936
604.76	27.649
605.09	27.803
605.42	26.995
605.75	27.253
606.09	28.103
606.42	26.938
606.75	27.351
607.09	27.172
607.42	27.597
607.75	26.887
608.08	27.836
608.42	27.720
608.75	26.636
609.08	27.716
609.41	27.603
609.75	26.767
610.08	26.863
610.41	26.892
610.74	28.143
611.07	27.333
611.41	27.534
611.74	27.712
612.07	27.336
612.40	26.919
612.73	27.194
613.07	27.188
613.40	27.258
613.73	27.084
614.06	26.908
614.39	28.072
614.72	27.039
615.06	26.630
615.39	27.564
615.72	27.159
616.05	26.063
616.38	27.974
616.71	26.967
617.05	27.443
617.38	27.492
617.71	26.167
618.04	27.391
618.37	26.855
618.70	27.966
619.03	27.691
619.36	27.555
619.69	27.782
620.03	27.548
620.36	27.918
620.69	27.925
621.02	27.473
621.35	27.984
621.68	28.852
622.01	27.346
622.34	27.950
622.67	27.031
623.00	28.615
623.33	27.687
623.66	26.883
623.99	27.368
624.32	27.158
624.65	28.403
624.99	26.512
625.32	26.497
625.65	27.894
625.98	25.978
626.31	27.406
626.64	27.615
626.97	27.911
627.30	27.830
627.63	26.770
627.96	26.632
628.29	27.298
628.62	27.603
628.95	27.657
629.28	26.598
629.61	26.693
629.94	29.584
630.26	28.529
630.59	28.040
630.92	28.228
631.25	27.621
631.58	27.196
631.91	27.234
632.24	28.222
632.57	28.556
632.90	28.506
633.23	29.439
633.56	27.953
633.89	29.363
634.22	28.099
634.55	28.365
634.88	27.086
