SpectraSuite Data File
++++++++++++++++++++++++++++++++++++
Date: Sat May 16 11:20:28 PDT 2015
User: schluterlab
Dark Spectrum Present: Yes
Reference Spectrum Present: Yes
Number of Sampled Component Spectra: 1
Spectrometers: USB2E3373
Integration Time (usec): 3000 (USB2E3373)
Spectra Averaged: 3 (USB2E3373)
Boxcar Smoothing: 0 (USB2E3373)
Correct for Electrical Dark: No (USB2E3373)
Strobe/Lamp Enabled: No (USB2E3373)
Correct for Detector Non-linearity: No (USB2E3373)
Correct for Stray Light: No (USB2E3373)
Number of Pixels in Processed Spectrum: 2048
>>>>>Begin Processed Spectral Data<<<<<
178.53	0.000
178.91	120.000
179.29	700.000
179.67	-1200.000
180.04	-23.077
180.42	1000.000
180.80	225.000
181.18	500.000
181.56	-62.500
181.94	1000.000
182.31	650.000
182.69	-61.538
183.07	-666.667
183.45	1750.000
183.83	100.000
184.20	-128.571
184.58	-262.500
184.96	-275.000
185.34	125.000
185.72	-275.000
186.09	200.000
186.47	-200.000
186.85	-175.000
187.23	-75.000
187.61	0.000
187.98	-300.000
188.36	-37.500
188.74	-100.000
189.12	100.000
189.49	271.429
189.87	8.333
190.25	350.000
190.63	28.571
191.00	-111.111
191.38	280.000
191.76	-33.333
192.14	440.000
192.51	-160.000
192.89	-500.000
193.27	0.000
193.65	-111.111
194.02	-171.429
194.40	300.000
194.78	-150.000
195.15	-200.000
195.53	-54.545
195.91	-266.667
196.29	140.000
196.66	-166.667
197.04	1800.000
197.42	-100.000
197.79	106.667
198.17	-233.333
198.55	-700.000
198.92	-900.000
199.30	150.000
199.68	-450.000
200.05	-144.444
200.43	-66.667
200.81	-2600.000
201.18	-75.000
201.56	214.286
201.94	-46.667
202.31	22.727
202.69	120.000
203.07	-10.000
203.44	333.333
203.82	-200.000
204.19	-225.000
204.57	-200.000
204.95	-100.000
205.32	-18.750
205.70	1900.000
206.08	-1600.000
206.45	-44.444
206.83	-650.000
207.20	-250.000
207.58	-533.333
207.96	-133.333
208.33	-12.500
208.71	-66.667
209.08	140.000
209.46	-142.857
209.84	650.000
210.21	0.000
210.59	15.000
210.96	500.000
211.34	-183.333
211.71	-400.000
212.09	150.000
212.46	1000.000
212.84	-1200.000
213.22	533.333
213.59	91.667
213.97	22.222
214.34	130.000
214.72	-150.000
215.09	-333.333
215.47	166.667
215.84	-70.000
216.22	-40.000
216.59	53.333
216.97	-175.000
217.34	700.000
217.72	-42.857
218.09	-133.333
218.47	-114.286
218.84	171.429
219.22	-71.429
219.59	0.000
219.97	185.714
220.34	500.000
220.72	225.000
221.09	15.385
221.47	0.000
221.84	433.333
222.22	50.000
222.59	200.000
222.97	-137.500
223.34	-200.000
223.72	-266.667
224.09	-14.286
224.46	0.000
224.84	-35.714
225.21	-328.571
225.59	-172.727
225.96	12.500
226.34	-114.286
226.71	-66.667
227.08	15.000
227.46	1600.000
227.83	0.000
228.21	-137.500
228.58	500.000
228.95	-31.250
229.33	-1700.000
229.70	-400.000
230.08	-550.000
230.45	-58.333
230.82	-16.667
231.20	-1000.000
231.57	-450.000
231.95	1100.000
232.32	28.571
232.69	-55.556
233.07	-257.143
233.44	-650.000
233.81	-100.000
234.19	55.556
234.56	-31.250
234.93	9.375
235.31	-271.429
235.68	-178.571
236.05	11.765
236.43	-22.727
236.80	19.355
237.17	25.000
237.55	23.810
237.92	-40.909
238.29	-14.286
238.67	11.765
239.04	2.778
239.41	9.677
239.79	-10.256
240.16	-4.762
240.53	30.909
240.91	30.769
241.28	40.000
241.65	46.154
242.02	11.475
242.40	27.869
242.77	27.273
243.14	11.864
243.51	35.714
243.89	3.797
244.26	25.843
244.63	20.000
245.00	26.316
245.38	31.356
245.75	37.168
246.12	34.400
246.49	31.496
246.87	30.081
247.24	24.576
247.61	27.966
247.98	32.394
248.36	25.874
248.73	24.684
249.10	23.567
249.47	27.485
249.84	35.795
250.22	20.833
250.59	24.859
250.96	29.319
251.33	35.071
251.70	32.692
252.08	35.545
252.45	24.645
252.82	30.476
253.19	30.213
253.56	33.065
253.94	29.114
254.31	29.185
254.68	29.675
255.05	33.468
255.42	34.921
255.79	27.240
256.16	37.255
256.54	33.088
256.91	32.955
257.28	29.304
257.65	30.142
258.02	34.591
258.39	32.441
258.76	35.135
259.14	28.704
259.51	34.754
259.88	31.707
260.25	33.851
260.62	29.904
260.99	31.157
261.36	32.927
261.73	36.127
262.10	31.944
262.47	31.339
262.85	32.857
263.22	32.665
263.59	28.923
263.96	29.855
264.33	32.520
264.70	32.597
265.07	34.066
265.44	32.300
265.81	30.491
266.18	30.633
266.55	31.618
266.92	35.264
267.29	30.508
267.66	34.074
268.03	31.884
268.40	31.690
268.77	33.012
269.14	33.411
269.51	31.954
269.88	30.734
270.25	29.138
270.62	34.783
270.99	31.532
271.36	34.033
271.73	32.063
272.10	35.011
272.47	29.333
272.84	35.111
273.21	32.339
273.58	31.868
273.95	31.798
274.32	33.032
274.69	34.573
275.06	33.129
275.43	30.134
275.80	35.845
276.17	31.799
276.54	31.772
276.91	32.305
277.28	32.860
277.65	34.298
278.02	33.194
278.39	32.809
278.76	32.470
279.13	34.783
279.50	32.406
279.87	32.135
280.23	31.174
280.60	31.610
280.97	31.262
281.34	32.108
281.71	29.231
282.08	33.266
282.45	31.568
282.82	31.008
283.19	32.909
283.56	34.249
283.92	31.449
284.29	33.086
284.66	28.597
285.03	31.373
285.40	32.472
285.77	32.807
286.14	30.686
286.51	30.373
286.87	33.031
287.24	33.106
287.61	32.231
287.98	31.023
288.35	30.579
288.72	31.070
289.08	28.475
289.45	28.788
289.82	27.509
290.19	30.049
290.56	28.264
290.93	28.617
291.29	28.363
291.66	28.824
292.03	30.769
292.40	29.367
292.77	27.329
293.13	28.943
293.50	30.163
293.87	29.294
294.24	30.015
294.60	25.606
294.97	29.135
295.34	27.852
295.71	27.381
296.08	25.960
296.44	26.466
296.81	29.915
297.18	27.606
297.55	27.401
297.91	27.476
298.28	25.753
298.65	26.639
299.02	27.273
299.38	25.668
299.75	28.125
300.12	26.538
300.48	25.959
300.85	25.557
301.22	25.356
301.59	23.797
301.95	26.700
302.32	25.684
302.69	26.805
303.05	24.542
303.42	25.625
303.79	26.555
304.15	25.118
304.52	25.554
304.89	26.446
305.25	26.984
305.62	25.969
305.99	25.913
306.35	26.415
306.72	25.057
307.09	26.561
307.45	25.426
307.82	24.358
308.19	26.286
308.55	25.272
308.92	25.456
309.29	25.405
309.65	25.981
310.02	25.594
310.38	25.730
310.75	27.561
311.12	27.996
311.48	27.244
311.85	27.394
312.22	26.468
312.58	28.383
312.95	27.115
313.31	29.471
313.68	28.241
314.05	28.882
314.41	28.471
314.78	27.972
315.14	28.332
315.51	29.483
315.87	30.397
316.24	29.349
316.61	30.038
316.97	31.045
317.34	31.985
317.70	30.334
318.07	31.437
318.43	31.273
318.80	32.488
319.16	30.206
319.53	32.143
319.89	32.173
320.26	33.529
320.62	32.500
320.99	33.532
321.35	33.793
321.72	35.210
322.08	36.301
322.45	37.327
322.81	38.521
323.18	38.232
323.54	38.262
323.91	39.018
324.27	40.589
324.64	40.494
325.00	40.750
325.37	41.810
325.73	43.570
326.10	42.958
326.46	44.221
326.83	45.447
327.19	44.454
327.56	48.211
327.92	47.664
328.29	48.745
328.65	48.636
329.01	51.590
329.38	51.472
329.74	52.564
330.11	50.499
330.47	50.954
330.84	53.987
331.20	53.971
331.56	52.051
331.93	53.108
332.29	56.804
332.66	53.819
333.02	54.570
333.38	55.376
333.75	54.764
334.11	56.000
334.48	54.898
334.84	55.381
335.20	56.826
335.57	58.213
335.93	58.281
336.29	56.067
336.66	55.771
337.02	58.018
337.38	55.080
337.75	57.594
338.11	58.945
338.47	59.253
338.84	57.350
339.20	58.348
339.56	57.932
339.93	58.289
340.29	56.687
340.65	57.780
341.02	58.094
341.38	57.793
341.74	59.018
342.11	59.044
342.47	58.541
342.83	57.011
343.20	59.009
343.56	56.816
343.92	59.599
344.28	59.378
344.65	56.931
345.01	59.328
345.37	57.807
345.73	57.038
346.10	56.337
346.46	57.758
346.82	59.182
347.19	58.340
347.55	58.266
347.91	58.740
348.27	57.995
348.63	60.016
349.00	59.427
349.36	57.221
349.72	61.385
350.08	59.022
350.45	59.890
350.81	59.793
351.17	60.209
351.53	59.268
351.89	59.499
352.26	60.388
352.62	60.215
352.98	59.968
353.34	61.551
353.70	58.996
354.07	60.268
354.43	60.949
354.79	59.350
355.15	59.665
355.51	60.313
355.87	61.423
356.24	59.492
356.60	63.981
356.96	61.663
357.32	61.045
357.68	62.375
358.04	61.740
358.40	60.866
358.77	61.901
359.13	61.744
359.49	61.376
359.85	62.271
360.21	61.872
360.57	60.994
360.93	62.667
361.29	63.303
361.66	61.662
362.02	63.683
362.38	62.289
362.74	64.029
363.10	62.626
363.46	64.601
363.82	62.536
364.18	62.446
364.54	64.546
364.90	61.915
365.26	63.766
365.62	65.360
365.98	63.727
366.35	63.239
366.71	62.438
367.07	64.220
367.43	64.447
367.79	64.330
368.15	64.865
368.51	64.755
368.87	64.560
369.23	64.982
369.59	64.444
369.95	65.680
370.31	66.526
370.67	65.076
371.03	65.671
371.39	65.700
371.75	66.237
372.11	66.499
372.47	67.317
372.83	67.107
373.19	66.571
373.55	66.502
373.91	66.714
374.27	66.393
374.63	65.355
374.99	67.316
375.35	66.285
375.71	66.644
376.07	67.214
376.42	65.960
376.78	68.497
377.14	69.559
377.50	69.181
377.86	67.880
378.22	67.148
378.58	67.573
378.94	67.448
379.30	67.642
379.66	67.092
380.02	67.558
380.38	68.761
380.74	68.875
381.09	67.780
381.45	68.795
381.81	66.727
382.17	67.857
382.53	66.626
382.89	68.421
383.25	69.777
383.61	67.099
383.97	68.708
384.32	69.274
384.68	69.045
385.04	68.599
385.40	67.925
385.76	69.878
386.12	67.895
386.48	69.431
386.83	69.018
387.19	68.858
387.55	68.201
387.91	69.117
388.27	68.396
388.62	67.668
388.98	69.291
389.34	68.360
389.70	68.149
390.06	68.179
390.42	68.654
390.77	67.571
391.13	69.814
391.49	68.559
391.85	68.641
392.20	67.718
392.56	66.891
392.92	68.796
393.28	68.255
393.64	70.415
393.99	68.615
394.35	67.518
394.71	67.634
395.07	68.613
395.42	67.282
395.78	67.379
396.14	66.854
396.50	67.095
396.85	67.551
397.21	67.861
397.57	67.538
397.92	67.447
398.28	68.556
398.64	68.174
399.00	68.933
399.35	67.418
399.71	68.467
400.07	67.164
400.42	67.518
400.78	66.309
401.14	66.347
401.49	65.625
401.85	68.395
402.21	65.673
402.57	66.201
402.92	67.716
403.28	65.931
403.63	63.930
403.99	65.382
404.35	64.312
404.70	64.658
405.06	64.764
405.42	64.084
405.77	65.441
406.13	64.452
406.49	65.069
406.84	65.987
407.20	65.194
407.55	65.674
407.91	64.249
408.27	65.196
408.62	64.221
408.98	64.039
409.34	64.351
409.69	64.839
410.05	65.312
410.40	65.420
410.76	62.952
411.11	64.651
411.47	63.939
411.83	63.875
412.18	63.366
412.54	62.355
412.89	63.244
413.25	62.456
413.60	63.791
413.96	63.771
414.31	63.058
414.67	62.984
415.03	63.001
415.38	64.476
415.74	64.626
416.09	63.747
416.45	64.220
416.80	64.759
417.16	65.316
417.51	65.003
417.87	64.595
418.22	64.286
418.58	64.570
418.93	65.175
419.29	64.680
419.64	65.201
420.00	66.403
420.35	67.061
420.71	65.726
421.06	65.207
421.42	66.803
421.77	67.560
422.12	67.543
422.48	67.397
422.83	67.540
423.19	67.205
423.54	67.378
423.90	67.611
424.25	68.948
424.61	70.627
424.96	71.387
425.31	71.101
425.67	69.857
426.02	69.707
426.38	70.720
426.73	71.479
427.09	71.752
427.44	70.057
427.79	71.628
428.15	71.035
428.50	72.258
428.85	71.403
429.21	72.828
429.56	74.010
429.92	72.144
430.27	74.078
430.62	74.660
430.98	73.654
431.33	74.600
431.68	74.209
432.04	75.713
432.39	75.726
432.74	75.959
433.10	74.789
433.45	75.360
433.80	76.428
434.16	75.819
434.51	78.356
434.86	77.680
435.22	79.009
435.57	77.601
435.92	77.315
436.28	78.932
436.63	77.841
436.98	76.518
437.34	76.728
437.69	77.538
438.04	79.410
438.39	79.964
438.75	79.802
439.10	78.234
439.45	78.877
439.81	79.458
440.16	79.160
440.51	81.059
440.86	80.104
441.22	79.381
441.57	79.737
441.92	79.847
442.27	79.654
442.63	80.150
442.98	80.813
443.33	79.572
443.68	80.823
444.03	79.519
444.39	80.029
444.74	81.993
445.09	80.647
445.44	81.654
445.79	81.948
446.15	82.147
446.50	81.056
446.85	81.067
447.20	81.256
447.55	81.768
447.91	82.369
448.26	80.726
448.61	81.268
448.96	84.202
449.31	83.145
449.66	82.770
450.02	80.831
450.37	82.957
450.72	82.316
451.07	84.601
451.42	82.776
451.77	82.944
452.12	83.492
452.47	83.123
452.83	82.994
453.18	83.744
453.53	84.701
453.88	84.988
454.23	83.374
454.58	85.705
454.93	83.564
455.28	83.493
455.63	84.029
455.98	84.699
456.34	83.227
456.69	82.677
457.04	84.143
457.39	84.749
457.74	83.225
458.09	83.875
458.44	85.219
458.79	85.762
459.14	84.541
459.49	85.080
459.84	83.418
460.19	82.339
460.54	85.178
460.89	85.146
461.24	82.149
461.59	83.646
461.94	84.787
462.29	84.574
462.64	85.375
462.99	86.747
463.34	83.592
463.69	86.005
464.04	82.308
464.39	83.333
464.74	82.801
465.09	83.343
465.44	84.602
465.79	83.305
466.14	84.062
466.49	85.550
466.84	85.114
467.19	85.474
467.54	82.911
467.89	84.895
468.24	85.036
468.59	84.510
468.94	86.302
469.29	85.510
469.64	85.243
469.99	85.888
470.34	85.638
470.68	87.137
471.03	85.478
471.38	85.903
471.73	86.503
472.08	84.605
472.43	85.393
472.78	85.133
473.13	85.752
473.48	86.790
473.83	85.422
474.17	85.414
474.52	87.404
474.87	84.091
475.22	84.071
475.57	85.556
475.92	85.475
476.27	84.286
476.61	85.352
476.96	85.467
477.31	86.114
477.66	86.884
478.01	84.873
478.36	84.075
478.70	86.332
479.05	86.804
479.40	85.907
479.75	83.435
480.10	83.085
480.45	83.075
480.79	84.847
481.14	85.198
481.49	85.334
481.84	85.160
482.19	84.422
482.53	85.653
482.88	83.626
483.23	84.319
483.58	83.904
483.92	86.144
484.27	83.252
484.62	83.931
484.97	83.009
485.31	81.408
485.66	79.528
486.01	79.706
486.36	82.156
486.70	83.792
487.05	82.900
487.40	83.040
487.75	82.173
488.09	83.230
488.44	82.442
488.79	81.995
489.13	83.340
489.48	84.462
489.83	85.459
490.17	84.414
490.52	85.236
490.87	84.850
491.22	85.474
491.56	84.213
491.91	85.782
492.26	84.340
492.60	85.633
492.95	84.484
493.30	84.612
493.64	83.780
493.99	85.229
494.34	85.667
494.68	86.096
495.03	84.656
495.37	85.939
495.72	86.640
496.07	85.171
496.41	86.336
496.76	85.845
497.11	86.057
497.45	85.345
497.80	86.043
498.14	85.953
498.49	86.238
498.84	84.223
499.18	85.721
499.53	85.046
499.87	85.328
500.22	85.588
500.56	86.793
500.91	84.581
501.26	84.377
501.60	85.315
501.95	86.473
502.29	84.554
502.64	84.347
502.98	85.577
503.33	84.774
503.67	85.057
504.02	85.369
504.36	85.147
504.71	85.005
505.06	85.871
505.40	85.279
505.75	88.262
506.09	85.895
506.44	85.514
506.78	85.700
507.13	85.427
507.47	86.594
507.82	86.009
508.16	85.751
508.51	86.090
508.85	85.300
509.19	85.662
509.54	86.575
509.88	85.372
510.23	85.901
510.57	86.614
510.92	88.185
511.26	85.274
511.61	86.609
511.95	86.207
512.30	88.180
512.64	86.533
512.98	86.469
513.33	86.052
513.67	85.539
514.02	86.018
514.36	85.319
514.70	85.512
515.05	87.021
515.39	86.794
515.74	87.435
516.08	86.686
516.42	86.062
516.77	88.215
517.11	86.842
517.46	88.098
517.80	88.147
518.14	86.957
518.49	87.388
518.83	86.291
519.17	85.554
519.52	85.483
519.86	87.993
520.20	88.325
520.55	88.123
520.89	87.163
521.23	87.179
521.58	87.022
521.92	87.144
522.26	85.397
522.61	87.009
522.95	86.343
523.29	86.458
523.64	86.758
523.98	88.288
524.32	86.549
524.66	86.211
525.01	87.219
525.35	88.273
525.69	86.467
526.04	87.533
526.38	87.715
526.72	84.674
527.06	87.500
527.41	87.195
527.75	86.205
528.09	87.426
528.43	87.148
528.78	85.302
529.12	86.748
529.46	86.018
529.80	86.314
530.15	86.220
530.49	85.511
530.83	84.938
531.17	86.128
531.51	84.729
531.86	83.805
532.20	85.155
532.54	84.759
532.88	85.046
533.22	86.832
533.57	83.943
533.91	83.271
534.25	83.281
534.59	82.448
534.93	83.012
535.27	83.197
535.62	84.591
535.96	81.900
536.30	83.312
536.64	83.865
536.98	86.511
537.32	85.073
537.66	83.910
538.01	84.330
538.35	83.986
538.69	83.422
539.03	83.412
539.37	84.298
539.71	83.923
540.05	84.647
540.39	83.864
540.73	84.589
541.07	84.699
541.42	82.579
541.76	81.262
542.10	83.997
542.44	82.278
542.78	82.700
543.12	85.064
543.46	82.123
543.80	82.007
544.14	83.412
544.48	81.562
544.82	83.897
545.16	82.294
545.50	82.032
545.84	82.476
546.18	84.535
546.52	83.642
546.86	83.761
547.20	84.599
547.54	81.749
547.88	82.747
548.22	82.831
548.56	83.166
548.90	82.278
549.24	83.672
549.58	84.121
549.92	83.322
550.26	82.514
550.60	81.721
550.94	84.453
551.28	83.220
551.62	82.718
551.96	83.068
552.30	81.951
552.64	85.222
552.98	83.812
553.32	84.416
553.66	84.283
554.00	82.587
554.34	85.343
554.68	81.579
555.02	83.285
555.36	83.106
555.69	84.527
556.03	83.368
556.37	83.215
556.71	85.540
557.05	86.844
557.39	85.152
557.73	82.932
558.07	85.607
558.41	83.022
558.75	83.802
559.08	83.502
559.42	84.456
559.76	85.583
560.10	84.042
560.44	85.477
560.78	84.830
561.12	82.816
561.45	83.562
561.79	82.718
562.13	84.081
562.47	83.683
562.81	83.593
563.15	84.115
563.48	83.690
563.82	83.570
564.16	82.353
564.50	81.855
564.84	82.275
565.17	82.294
565.51	83.051
565.85	85.328
566.19	83.531
566.52	83.301
566.86	82.364
567.20	82.022
567.54	82.339
567.88	81.184
568.21	81.320
568.55	80.435
568.89	80.318
569.23	79.454
569.56	76.923
569.90	78.127
570.24	77.941
570.57	75.220
570.91	75.621
571.25	76.459
571.59	76.116
571.92	75.060
572.26	74.775
572.60	75.427
572.93	75.132
573.27	74.390
573.61	73.702
573.95	74.215
574.28	74.107
574.62	74.021
574.96	73.180
575.29	73.095
575.63	74.224
575.97	72.869
576.30	73.801
576.64	73.943
576.98	72.779
577.31	73.635
577.65	72.713
577.98	72.410
578.32	72.427
578.66	72.629
578.99	73.346
579.33	73.876
579.67	73.117
580.00	72.693
580.34	73.092
580.67	73.646
581.01	72.098
581.35	72.775
581.68	71.565
582.02	73.600
582.35	72.748
582.69	73.697
583.02	74.447
583.36	72.903
583.70	74.680
584.03	74.704
584.37	74.966
584.70	74.333
585.04	73.873
585.37	72.554
585.71	73.464
586.04	74.873
586.38	74.231
586.72	74.831
587.05	74.653
587.39	74.898
587.72	74.675
588.06	75.131
588.39	74.765
588.73	75.769
589.06	76.055
589.40	77.396
589.73	75.496
590.07	76.038
590.40	75.314
590.73	77.169
591.07	77.377
591.40	77.166
591.74	76.325
592.07	77.793
592.41	77.580
592.74	77.248
593.08	76.828
593.41	76.645
593.75	75.833
594.08	77.858
594.41	77.523
594.75	76.595
595.08	78.120
595.42	76.915
595.75	76.736
596.09	77.765
596.42	78.560
596.75	77.749
597.09	77.293
597.42	77.259
597.75	77.857
598.09	79.304
598.42	76.536
598.76	76.952
599.09	77.230
599.42	76.932
599.76	77.010
600.09	77.137
600.42	76.643
600.76	76.874
601.09	75.959
601.42	76.336
601.76	76.324
602.09	77.423
602.42	75.844
602.76	76.735
603.09	77.258
603.42	78.525
603.76	77.383
604.09	77.333
604.42	78.018
604.76	77.846
605.09	78.255
605.42	77.438
605.75	78.180
606.09	77.792
606.42	77.671
606.75	76.428
607.09	76.886
607.42	77.597
607.75	77.925
608.08	76.954
608.42	79.565
608.75	76.589
609.08	78.324
609.41	78.376
609.75	76.987
610.08	79.069
610.41	78.217
610.74	78.820
611.07	79.868
611.41	77.206
611.74	78.869
612.07	80.451
612.40	77.932
612.73	78.244
613.07	78.976
613.40	80.679
613.73	79.237
614.06	78.254
614.39	80.947
614.72	78.045
615.06	78.098
615.39	79.110
615.72	79.087
616.05	77.747
616.38	80.209
616.71	79.279
617.05	80.217
617.38	79.938
617.71	78.808
618.04	79.938
618.37	81.761
618.70	80.639
619.03	80.975
619.36	80.620
619.69	80.689
620.03	80.165
620.36	80.872
620.69	82.053
621.02	83.257
621.35	82.661
621.68	83.361
622.01	83.495
622.34	82.143
622.67	82.813
623.00	82.020
623.33	82.537
623.66	82.570
623.99	81.729
624.32	82.589
624.65	80.795
624.99	83.346
625.32	81.662
625.65	82.984
625.98	81.299
626.31	83.361
626.64	83.933
626.97	85.445
627.30	83.574
627.63	82.988
627.96	85.640
628.29	85.570
628.62	82.044
628.95	86.319
629.28	84.211
629.61	84.593
629.94	84.594
630.26	87.376
630.59	86.332
630.92	86.086
631.25	86.391
631.58	87.407
631.91	86.915
632.24	89.333
