SpectraSuite Data File
++++++++++++++++++++++++++++++++++++
Date: Sat May 16 11:10:55 PDT 2015
User: schluterlab
Dark Spectrum Present: Yes
Reference Spectrum Present: Yes
Number of Sampled Component Spectra: 1
Spectrometers: USB2E3373
Integration Time (usec): 3000 (USB2E3373)
Spectra Averaged: 3 (USB2E3373)
Boxcar Smoothing: 0 (USB2E3373)
Correct for Electrical Dark: No (USB2E3373)
Strobe/Lamp Enabled: No (USB2E3373)
Correct for Detector Non-linearity: No (USB2E3373)
Correct for Stray Light: No (USB2E3373)
Number of Pixels in Processed Spectrum: 2048
>>>>>Begin Processed Spectral Data<<<<<
178.53	0.000
178.91	113.333
179.29	-233.333
179.67	700.000
180.04	-46.154
180.42	300.000
180.80	75.000
181.18	-50.000
181.56	-25.000
181.94	-500.000
182.31	300.000
182.69	0.000
183.07	-233.333
183.45	600.000
183.83	100.000
184.20	-28.571
184.58	-187.500
184.96	100.000
185.34	87.500
185.72	-275.000
186.09	-66.667
186.47	-25.000
186.85	-62.500
187.23	87.500
187.61	25.000
187.98	-87.500
188.36	100.000
188.74	50.000
189.12	200.000
189.49	300.000
189.87	-33.333
190.25	100.000
190.63	-14.286
191.00	-188.889
191.38	100.000
191.76	0.000
192.14	600.000
192.51	-60.000
192.89	133.333
193.27	0.000
193.65	-66.667
194.02	-128.571
194.40	433.333
194.78	30.000
195.15	500.000
195.53	-18.182
195.91	-166.667
196.29	20.000
196.66	-66.667
197.04	400.000
197.42	-75.000
197.79	6.667
198.17	-233.333
198.55	-300.000
198.92	-700.000
199.30	262.500
199.68	-200.000
200.05	-33.333
200.43	-88.889
200.81	-700.000
201.18	0.000
201.56	285.714
201.94	-46.667
202.31	45.455
202.69	60.000
203.07	-50.000
203.44	-33.333
203.82	-216.667
204.19	-150.000
204.57	-175.000
204.95	-300.000
205.32	18.750
205.70	-1100.000
206.08	-1800.000
206.45	-38.889
206.83	-250.000
207.20	550.000
207.58	-133.333
207.96	0.000
208.33	-125.000
208.71	22.222
209.08	150.000
209.46	28.571
209.84	200.000
210.21	0.000
210.59	80.000
210.96	-500.000
211.34	-33.333
211.71	200.000
212.09	175.000
212.46	500.000
212.84	-1400.000
213.22	400.000
213.59	66.667
213.97	-44.444
214.34	20.000
214.72	-60.000
215.09	-533.333
215.47	200.000
215.84	0.000
216.22	40.000
216.59	26.667
216.97	-325.000
217.34	700.000
217.72	-85.714
218.09	-100.000
218.47	-200.000
218.84	142.857
219.22	-57.143
219.59	0.000
219.97	185.714
220.34	325.000
220.72	37.500
221.09	-7.692
221.47	0.000
221.84	300.000
222.22	200.000
222.59	-200.000
222.97	-75.000
223.34	100.000
223.72	-100.000
224.09	-35.714
224.46	-275.000
224.84	7.143
225.21	28.571
225.59	127.273
225.96	-162.500
226.34	-214.286
226.71	-33.333
227.08	20.000
227.46	1200.000
227.83	-128.571
228.21	-112.500
228.58	-50.000
228.95	-6.250
229.33	-500.000
229.70	-40.000
230.08	-150.000
230.45	-41.667
230.82	0.000
231.20	-1300.000
231.57	-250.000
231.95	500.000
232.32	42.857
232.69	-66.667
233.07	-214.286
233.44	-950.000
233.81	26.667
234.19	-55.556
234.56	25.000
234.93	25.000
235.31	-200.000
235.68	-85.714
236.05	-29.412
236.43	-18.182
236.80	3.226
237.17	-25.000
237.55	23.810
237.92	-13.636
238.29	-5.714
238.67	0.000
239.04	-2.778
239.41	-16.129
239.79	-25.641
240.16	-4.762
240.53	-14.545
240.91	12.821
241.28	-3.636
241.65	18.462
242.02	0.000
242.40	6.557
242.77	6.061
243.14	-18.644
243.51	-10.000
243.89	-10.127
244.26	-13.483
244.63	4.211
245.00	-2.105
245.38	10.169
245.75	10.619
246.12	-0.800
246.49	3.937
246.87	-2.439
247.24	-7.627
247.61	-3.390
247.98	11.268
248.36	-4.196
248.73	1.266
249.10	1.911
249.47	3.509
249.84	4.545
250.22	-5.952
250.59	-5.085
250.96	3.665
251.33	6.635
251.70	0.962
252.08	9.953
252.45	-0.948
252.82	-1.429
253.19	5.532
253.56	1.613
253.94	2.532
254.31	6.438
254.68	1.220
255.05	-1.210
255.42	4.762
255.79	2.151
256.16	6.667
256.54	5.882
256.91	3.030
257.28	-2.198
257.65	2.128
258.02	6.289
258.39	2.341
258.76	4.730
259.14	0.000
259.51	4.918
259.88	2.744
260.25	4.037
260.62	2.572
260.99	1.780
261.36	4.878
261.73	3.179
262.10	4.722
262.47	2.849
262.85	4.571
263.22	1.719
263.59	2.154
263.96	0.290
264.33	2.168
264.70	6.354
265.07	2.198
265.44	3.618
265.81	2.842
266.18	0.000
266.55	0.735
266.92	2.771
267.29	2.179
267.66	-1.235
268.03	4.106
268.40	2.582
268.77	2.169
269.14	4.408
269.51	5.287
269.88	0.459
270.25	1.399
270.62	4.577
270.99	4.054
271.36	1.865
271.73	1.794
272.10	4.577
272.47	2.444
272.84	7.778
273.21	2.523
273.58	4.176
273.95	2.193
274.32	3.167
274.69	3.720
275.06	4.294
275.43	1.786
275.80	3.666
276.17	2.929
276.54	6.517
276.91	1.646
277.28	2.840
277.65	1.653
278.02	4.384
278.39	2.161
278.76	3.187
279.13	2.569
279.50	4.374
279.87	4.651
280.23	2.024
280.60	1.789
280.97	1.165
281.34	4.255
281.71	2.885
282.08	3.226
282.45	2.444
282.82	1.163
283.19	4.000
283.56	4.396
283.92	3.710
284.29	2.602
284.66	4.856
285.03	3.209
285.40	4.428
285.77	4.737
286.14	4.152
286.51	2.131
286.87	2.722
287.24	3.925
287.61	3.140
287.98	3.466
288.35	1.653
288.72	2.207
289.08	0.678
289.45	3.535
289.82	1.730
290.19	5.911
290.56	2.479
290.93	2.385
291.29	2.917
291.66	1.771
292.03	3.611
292.40	2.711
292.77	3.416
293.13	1.301
293.50	2.972
293.87	2.454
294.24	3.469
294.60	0.758
294.97	4.401
295.34	2.815
295.71	4.018
296.08	1.075
296.44	0.858
296.81	3.419
297.18	3.521
297.55	2.401
297.91	3.208
298.28	2.055
298.65	1.813
299.02	4.813
299.38	2.674
299.75	2.717
300.12	3.333
300.48	4.987
300.85	1.311
301.22	3.622
301.59	2.991
301.95	4.282
302.32	-0.130
302.69	3.182
303.05	2.564
303.42	2.125
303.79	2.990
304.15	2.014
304.52	3.267
304.89	2.597
305.25	2.076
305.62	2.938
305.99	2.827
306.35	3.774
306.72	2.164
307.09	2.724
307.45	2.838
307.82	1.899
308.19	3.803
308.55	2.941
308.92	1.826
309.29	3.784
309.65	2.969
310.02	1.728
310.38	3.135
310.75	2.561
311.12	3.926
311.48	4.280
311.85	2.987
312.22	4.222
312.58	4.171
312.95	3.262
313.31	3.896
313.68	4.020
314.05	3.561
314.41	2.817
314.78	2.198
315.14	4.047
315.51	2.330
315.87	4.356
316.24	4.956
316.61	4.319
316.97	3.781
317.34	3.565
317.70	2.783
318.07	4.664
318.43	4.120
318.80	5.070
319.16	2.814
319.53	3.853
319.89	3.763
320.26	4.216
320.62	3.462
320.99	4.876
321.35	3.744
321.72	4.606
322.08	4.847
322.45	5.248
322.81	5.476
323.18	6.052
323.54	6.192
323.91	6.302
324.27	6.369
324.64	6.399
325.00	7.068
325.37	6.606
325.73	8.661
326.10	6.909
326.46	7.618
326.83	8.596
327.19	9.758
327.56	9.625
327.92	9.431
328.29	10.476
328.65	9.455
329.01	11.749
329.38	11.508
329.74	12.912
330.11	12.511
330.47	12.352
330.84	14.482
331.20	13.538
331.56	14.312
331.93	14.920
332.29	15.068
332.66	15.540
333.02	16.561
333.38	16.577
333.75	17.364
334.11	16.622
334.48	17.123
334.84	18.635
335.20	17.908
335.57	18.141
335.93	19.696
336.29	16.829
336.66	16.828
337.02	18.919
337.38	19.251
337.75	18.525
338.11	18.515
338.47	17.972
338.84	18.784
339.20	19.684
339.56	18.984
339.93	18.783
340.29	19.663
340.65	18.182
341.02	19.562
341.38	17.776
341.74	19.983
342.11	18.771
342.47	17.082
342.83	18.808
343.20	18.275
343.56	17.959
343.92	20.033
344.28	19.680
344.65	19.967
345.01	19.328
345.37	18.522
345.73	18.249
346.10	18.806
346.46	18.278
346.82	19.727
347.19	17.420
347.55	17.576
347.91	18.898
348.27	17.422
348.63	19.548
349.00	18.457
349.36	16.628
349.72	19.984
350.08	18.685
350.45	16.942
350.81	18.073
351.17	19.373
351.53	17.661
351.89	17.623
352.26	18.140
352.62	18.740
352.98	18.987
353.34	18.785
353.70	18.301
354.07	18.883
354.43	18.893
354.79	17.829
355.15	17.891
355.51	18.203
355.87	16.601
356.24	18.348
356.60	19.339
356.96	18.630
357.32	17.815
357.68	17.778
358.04	18.399
358.40	17.788
358.77	17.620
359.13	18.745
359.49	19.123
359.85	17.759
360.21	19.559
360.57	19.051
360.93	19.481
361.29	19.058
361.66	17.530
362.02	17.751
362.38	19.222
362.74	18.535
363.10	18.580
363.46	20.085
363.82	19.023
364.18	18.669
364.54	19.728
364.90	18.449
365.26	18.474
365.62	19.031
365.98	19.630
366.35	18.732
366.71	19.239
367.07	18.984
367.43	19.904
367.79	19.313
368.15	18.706
368.51	19.231
368.87	19.849
369.23	19.088
369.59	19.097
369.95	18.816
370.31	18.706
370.67	18.872
371.03	19.679
371.39	17.963
371.75	19.385
372.11	20.158
372.47	19.450
372.83	19.680
373.19	20.357
373.55	19.634
373.91	19.915
374.27	20.055
374.63	19.807
374.99	20.515
375.35	20.458
375.71	21.269
376.07	20.192
376.42	19.735
376.78	21.438
377.14	21.153
377.50	21.083
377.86	20.481
378.22	20.791
378.58	21.124
378.94	20.592
379.30	20.475
379.66	21.251
380.02	20.143
380.38	21.329
380.74	19.930
381.09	21.617
381.45	21.659
381.81	20.629
382.17	21.429
382.53	21.520
382.89	22.069
383.25	22.095
383.61	21.580
383.97	21.678
384.32	21.214
384.68	22.370
385.04	21.739
385.40	22.215
385.76	22.134
386.12	21.674
386.48	22.587
386.83	21.902
387.19	22.953
387.55	22.471
387.91	22.584
388.27	21.894
388.62	22.656
388.98	22.411
389.34	22.644
389.70	22.594
390.06	22.250
390.42	23.397
390.77	22.461
391.13	23.789
391.49	23.144
391.85	23.379
392.20	22.087
392.56	22.847
392.92	23.560
393.28	23.421
393.64	24.354
393.99	23.262
394.35	23.358
394.71	23.039
395.07	24.482
395.42	22.408
395.78	22.879
396.14	24.237
396.50	23.119
396.85	22.887
397.21	23.147
397.57	23.708
397.92	24.122
398.28	23.778
398.64	23.795
399.00	23.989
399.35	23.732
399.71	24.623
400.07	24.179
400.42	24.209
400.78	23.375
401.14	23.533
401.49	23.585
401.85	23.429
402.21	23.182
402.57	23.604
402.92	23.914
403.28	23.713
403.63	22.289
403.99	23.866
404.35	23.611
404.70	23.874
405.06	23.241
405.42	23.555
405.77	22.738
406.13	23.112
406.49	23.487
406.84	23.515
407.20	24.323
407.55	24.256
407.91	22.992
408.27	24.142
408.62	23.331
408.98	23.651
409.34	22.913
409.69	23.062
410.05	23.833
410.40	23.850
410.76	22.999
411.11	23.878
411.47	23.338
411.83	23.227
412.18	23.639
412.54	22.880
412.89	23.147
413.25	22.491
413.60	22.296
413.96	22.181
414.31	23.670
414.67	22.794
415.03	23.480
415.38	23.878
415.74	23.840
416.09	24.041
416.45	23.214
416.80	24.317
417.16	22.525
417.51	24.885
417.87	23.625
418.22	23.831
418.58	23.363
418.93	23.605
419.29	24.216
419.64	22.487
420.00	24.058
420.35	23.418
420.71	24.010
421.06	23.550
421.42	22.775
421.77	23.004
422.12	24.175
422.48	22.929
422.83	24.032
423.19	23.163
423.54	23.573
423.90	23.540
424.25	23.756
424.61	23.040
424.96	24.751
425.31	24.259
425.67	23.897
426.02	23.465
426.38	23.835
426.73	23.729
427.09	24.632
427.44	23.750
427.79	24.128
428.15	23.519
428.50	24.399
428.85	24.101
429.21	24.571
429.56	23.802
429.92	24.198
430.27	23.978
430.62	24.451
430.98	24.464
431.33	23.906
431.68	25.201
432.04	24.287
432.39	24.444
432.74	24.161
433.10	24.873
433.45	23.431
433.80	24.412
434.16	25.040
434.51	25.205
434.86	24.722
435.22	24.889
435.57	25.398
435.92	24.326
436.28	24.510
436.63	24.703
436.98	24.513
437.34	25.162
437.69	25.088
438.04	24.504
438.39	24.188
438.75	24.214
439.10	24.986
439.45	24.502
439.81	24.277
440.16	24.929
440.51	24.412
440.86	25.101
441.22	23.659
441.57	24.632
441.92	25.064
442.27	24.729
442.63	24.624
442.98	24.379
443.33	24.712
443.68	25.221
444.03	25.196
444.39	24.670
444.74	25.826
445.09	24.726
445.44	25.380
445.79	25.395
446.15	25.246
446.50	24.224
446.85	25.295
447.20	25.332
447.55	25.193
447.91	25.323
448.26	24.749
448.61	24.505
448.96	25.658
449.31	25.592
449.66	24.270
450.02	24.321
450.37	25.275
450.72	25.367
451.07	25.770
451.42	24.783
451.77	25.793
452.12	25.030
452.47	25.315
452.83	25.568
453.18	25.553
453.53	25.124
453.88	25.359
454.23	25.030
454.58	25.855
454.93	25.819
455.28	25.112
455.63	25.369
455.98	26.205
456.34	23.825
456.69	25.704
457.04	25.015
457.39	24.342
457.74	25.281
458.09	25.696
458.44	25.808
458.79	24.608
459.14	25.613
459.49	26.288
459.84	25.351
460.19	25.358
460.54	26.316
460.89	25.617
461.24	25.319
461.59	26.671
461.94	25.652
462.29	24.836
462.64	25.758
462.99	25.502
463.34	24.916
463.69	25.891
464.04	24.605
464.39	24.970
464.74	25.414
465.09	25.436
465.44	24.986
465.79	26.001
466.14	25.662
466.49	26.252
466.84	24.850
467.19	25.561
467.54	24.747
467.89	25.709
468.24	25.416
468.59	25.859
468.94	24.823
469.29	25.016
469.64	25.539
469.99	25.861
470.34	25.451
470.68	25.363
471.03	25.258
471.38	25.417
471.73	25.804
472.08	25.100
472.43	25.676
472.78	26.067
473.13	24.520
473.48	26.165
473.83	25.744
474.17	25.414
474.52	26.982
474.87	25.641
475.22	25.015
475.57	25.167
475.92	25.540
476.27	24.800
476.61	25.296
476.96	25.657
477.31	25.404
477.66	24.516
478.01	25.932
478.36	25.511
478.70	25.360
479.05	25.527
479.40	26.477
479.75	24.873
480.10	25.198
480.45	23.888
480.79	24.729
481.14	25.991
481.49	24.976
481.84	24.272
482.19	25.354
482.53	25.047
482.88	25.154
483.23	25.540
483.58	25.902
483.92	26.087
484.27	24.590
484.62	24.190
484.97	24.825
485.31	24.128
485.66	23.980
486.01	24.393
486.36	24.458
486.70	25.082
487.05	24.957
487.40	25.107
487.75	24.818
488.09	24.614
488.44	25.237
488.79	25.256
489.13	25.675
489.48	25.734
489.83	25.415
490.17	25.468
490.52	25.272
490.87	25.635
491.22	25.689
491.56	25.463
491.91	26.145
492.26	25.330
492.60	25.309
492.95	24.941
493.30	25.774
493.64	24.965
493.99	25.765
494.34	25.333
494.68	25.375
495.03	25.478
495.37	24.975
495.72	25.688
496.07	25.340
496.41	25.799
496.76	25.434
497.11	26.284
497.45	25.431
497.80	25.013
498.14	24.853
498.49	25.565
498.84	25.631
499.18	26.170
499.53	25.085
499.87	24.807
500.22	24.902
500.56	25.313
500.91	25.862
501.26	25.716
501.60	25.806
501.95	25.604
502.29	25.083
502.64	25.554
502.98	25.012
503.33	25.329
503.67	25.431
504.02	25.060
504.36	25.539
504.71	25.532
505.06	25.262
505.40	25.150
505.75	25.508
506.09	25.683
506.44	25.013
506.78	25.439
507.13	25.077
507.47	25.978
507.82	24.884
508.16	25.699
508.51	25.193
508.85	25.466
509.19	24.647
509.54	25.740
509.88	25.532
510.23	25.629
510.57	26.085
510.92	25.564
511.26	24.615
511.61	25.216
511.95	25.431
512.30	25.673
512.64	24.930
512.98	26.183
513.33	25.700
513.67	25.405
514.02	24.944
514.36	24.820
514.70	25.184
515.05	25.958
515.39	25.836
515.74	26.178
516.08	24.899
516.42	25.496
516.77	25.303
517.11	24.886
517.46	26.435
517.80	25.872
518.14	25.242
518.49	24.746
518.83	24.451
519.17	25.400
519.52	24.754
519.86	24.791
520.20	25.611
520.55	24.246
520.89	24.922
521.23	25.946
521.58	25.204
521.92	25.332
522.26	25.968
522.61	24.968
522.95	24.633
523.29	24.890
523.64	25.234
523.98	25.271
524.32	25.079
524.66	24.472
525.01	24.791
525.35	25.644
525.69	23.943
526.04	25.196
526.38	26.989
526.72	25.032
527.06	25.716
527.41	24.752
527.75	24.884
528.09	25.612
528.43	24.787
528.78	25.565
529.12	25.544
529.46	24.613
529.80	25.048
530.15	25.628
530.49	24.968
530.83	25.409
531.17	24.916
531.51	24.514
531.86	25.609
532.20	25.169
532.54	24.532
532.88	24.901
533.22	25.735
533.57	25.196
533.91	24.469
534.25	24.513
534.59	23.548
534.93	23.709
535.27	25.047
535.62	25.128
535.96	25.145
536.30	24.607
536.64	23.971
536.98	24.859
537.32	23.704
537.66	24.915
538.01	24.811
538.35	25.135
538.69	23.864
539.03	25.186
539.37	24.551
539.71	24.950
540.05	24.400
540.39	25.623
540.73	24.672
541.07	24.590
541.42	25.253
541.76	23.322
542.10	25.726
542.44	25.250
542.78	25.441
543.12	25.458
543.46	24.247
543.80	23.880
544.14	24.916
544.48	23.950
544.82	24.560
545.16	23.742
545.50	24.092
545.84	24.757
546.18	25.451
546.52	24.538
546.86	24.501
547.20	24.824
547.54	23.898
547.88	24.486
548.22	23.853
548.56	23.848
548.90	24.798
549.24	23.336
549.58	24.700
549.92	24.947
550.26	25.361
550.60	23.826
550.94	24.599
551.28	23.627
551.62	24.520
551.96	24.385
552.30	24.808
552.64	23.434
552.98	24.667
553.32	23.954
553.66	25.162
554.00	25.018
554.34	24.982
554.68	24.635
555.02	23.878
555.36	23.940
555.69	24.570
556.03	23.368
556.37	23.400
556.71	23.980
557.05	23.651
557.39	22.866
557.73	24.070
558.07	23.662
558.41	23.186
558.75	24.791
559.08	23.424
559.42	24.579
559.76	24.617
560.10	24.534
560.44	23.699
560.78	23.382
561.12	23.050
561.45	23.836
561.79	23.763
562.13	24.053
562.47	23.529
562.81	23.409
563.15	24.913
563.48	23.704
563.82	23.327
564.16	23.597
564.50	24.194
564.84	23.810
565.17	24.138
565.51	23.207
565.85	24.070
566.19	22.859
566.52	23.614
566.86	23.704
567.20	24.939
567.54	23.863
567.88	23.004
568.21	23.714
568.55	22.057
568.89	22.515
569.23	22.536
569.56	23.287
569.90	23.053
570.24	22.999
570.57	22.531
570.91	22.611
571.25	22.633
571.59	22.635
571.92	22.113
572.26	22.199
572.60	22.091
572.93	22.081
573.27	21.707
573.61	21.681
573.95	22.086
574.28	21.983
574.62	22.242
574.96	21.735
575.29	21.977
575.63	21.954
575.97	22.033
576.30	21.787
576.64	21.958
576.98	22.170
577.31	21.669
577.65	21.941
577.98	21.902
578.32	21.301
578.66	21.800
578.99	22.164
579.33	21.728
579.67	21.659
580.00	21.602
580.34	21.673
580.67	21.549
581.01	21.161
581.35	21.649
581.68	21.355
582.02	21.608
582.35	21.454
582.69	21.634
583.02	22.237
583.36	21.783
583.70	21.941
584.03	21.875
584.37	22.192
584.70	21.782
585.04	21.418
585.37	21.169
585.71	21.795
586.04	21.809
586.38	21.465
586.72	22.210
587.05	21.665
587.39	21.551
587.72	21.609
588.06	21.816
588.39	21.219
588.73	21.575
589.06	21.995
589.40	22.295
589.73	22.238
590.07	22.032
590.40	21.808
590.73	22.231
591.07	22.295
591.40	22.487
591.74	22.850
592.07	22.027
592.41	21.741
592.74	22.137
593.08	21.456
593.41	21.480
593.75	21.629
594.08	21.387
594.41	22.292
594.75	22.537
595.08	22.143
595.42	21.568
595.75	21.904
596.09	21.692
596.42	22.831
596.75	22.251
597.09	22.529
597.42	21.694
597.75	21.922
598.09	22.006
598.42	21.918
598.76	21.885
599.09	21.350
599.42	21.069
599.76	21.253
600.09	21.832
600.42	21.155
600.76	21.657
601.09	21.420
601.42	21.092
601.76	21.807
602.09	21.350
602.42	21.770
602.76	20.731
603.09	21.653
603.42	21.998
603.76	20.981
604.09	21.546
604.42	21.399
604.76	21.239
605.09	22.152
605.42	22.074
605.75	21.389
606.09	21.212
606.42	21.324
606.75	22.027
607.09	21.791
607.42	21.039
607.75	21.280
608.08	21.735
608.42	21.334
608.75	20.327
609.08	21.676
609.41	21.525
609.75	20.965
610.08	21.814
610.41	21.542
610.74	22.340
611.07	21.298
611.41	21.029
611.74	22.622
612.07	22.019
612.40	21.962
612.73	21.648
613.07	20.969
613.40	22.222
613.73	20.872
614.06	20.538
614.39	21.251
614.72	21.844
615.06	21.522
615.39	21.812
615.72	21.510
616.05	20.762
616.38	21.184
616.71	21.562
617.05	21.834
617.38	20.743
617.71	21.990
618.04	21.615
618.37	22.138
618.70	22.751
619.03	21.869
619.36	21.987
619.69	21.967
620.03	21.970
620.36	21.660
620.69	22.828
621.02	21.766
621.35	21.855
621.68	21.557
622.01	22.330
622.34	21.972
622.67	21.094
623.00	22.112
623.33	22.239
623.66	22.083
623.99	21.353
624.32	21.503
624.65	21.486
624.99	21.509
625.32	20.958
625.65	21.678
625.98	21.283
626.31	21.615
626.64	21.841
626.97	23.288
627.30	22.213
627.63	20.898
627.96	22.106
628.29	21.875
628.62	21.012
628.95	22.638
629.28	21.898
629.61	21.492
629.94	22.495
630.26	22.465
630.59	22.010
630.92	21.522
631.25	23.387
631.58	23.069
631.91	21.383
632.24	22.556
632.57	23.556
632.90	22.759
633.23	22.313
633.56	21.053
633.89	21.934
634.22	21.960
634.55	21.034
634.88	21.282
635.20	21.473
635.53	21.501
635.86	21.662
636.19	21.368
636.52	22.222
636.85	20.818
637.18	19.375
637.51	23.420
637.83	22.770
