SpectraSuite Data File
++++++++++++++++++++++++++++++++++++
Date: Sat May 16 11:07:15 PDT 2015
User: schluterlab
Dark Spectrum Present: Yes
Reference Spectrum Present: Yes
Number of Sampled Component Spectra: 1
Spectrometers: USB2E3373
Integration Time (usec): 3000 (USB2E3373)
Spectra Averaged: 3 (USB2E3373)
Boxcar Smoothing: 0 (USB2E3373)
Correct for Electrical Dark: No (USB2E3373)
Strobe/Lamp Enabled: No (USB2E3373)
Correct for Detector Non-linearity: No (USB2E3373)
Correct for Stray Light: No (USB2E3373)
Number of Pixels in Processed Spectrum: 2048
>>>>>Begin Processed Spectral Data<<<<<
178.53	0.000
178.91	-6.667
179.29	133.333
179.67	500.000
180.04	-15.385
180.42	600.000
180.80	25.000
181.18	-25.000
181.56	50.000
181.94	-500.000
182.31	100.000
182.69	53.846
183.07	-566.667
183.45	750.000
183.83	300.000
184.20	14.286
184.58	87.500
184.96	-75.000
185.34	12.500
185.72	25.000
186.09	-50.000
186.47	50.000
186.85	-37.500
187.23	50.000
187.61	-250.000
187.98	-100.000
188.36	112.500
188.74	50.000
189.12	400.000
189.49	300.000
189.87	41.667
190.25	275.000
190.63	92.857
191.00	11.111
191.38	380.000
191.76	126.667
192.14	460.000
192.51	0.000
192.89	-100.000
193.27	0.000
193.65	33.333
194.02	-85.714
194.40	-66.667
194.78	-10.000
195.15	600.000
195.53	54.545
195.91	-183.333
196.29	-140.000
196.66	-433.333
197.04	500.000
197.42	50.000
197.79	33.333
198.17	366.667
198.55	50.000
198.92	0.000
199.30	12.500
199.68	250.000
200.05	55.556
200.43	0.000
200.81	-500.000
201.18	-66.667
201.56	14.286
201.94	-26.667
202.31	86.364
202.69	80.000
203.07	140.000
203.44	333.333
203.82	0.000
204.19	-150.000
204.57	325.000
204.95	-600.000
205.32	81.250
205.70	-200.000
206.08	-600.000
206.45	77.778
206.83	0.000
207.20	800.000
207.58	0.000
207.96	33.333
208.33	125.000
208.71	33.333
209.08	190.000
209.46	-71.429
209.84	150.000
210.21	0.000
210.59	65.000
210.96	-500.000
211.34	-100.000
211.71	266.667
212.09	-100.000
212.46	250.000
212.84	-300.000
213.22	500.000
213.59	58.333
213.97	133.333
214.34	60.000
214.72	-30.000
215.09	-66.667
215.47	133.333
215.84	110.000
216.22	150.000
216.59	53.333
216.97	-50.000
217.34	250.000
217.72	85.714
218.09	66.667
218.47	-42.857
218.84	-42.857
219.22	157.143
219.59	0.000
219.97	28.571
220.34	175.000
220.72	-12.500
221.09	38.462
221.47	0.000
221.84	33.333
222.22	350.000
222.59	-600.000
222.97	62.500
223.34	250.000
223.72	-166.667
224.09	42.857
224.46	-125.000
224.84	-7.143
225.21	85.714
225.59	-54.545
225.96	50.000
226.34	-100.000
226.71	77.778
227.08	0.000
227.46	600.000
227.83	157.143
228.21	-12.500
228.58	300.000
228.95	75.000
229.33	-200.000
229.70	20.000
230.08	-150.000
230.45	-33.333
230.82	-16.667
231.20	-100.000
231.57	200.000
231.95	700.000
232.32	76.190
232.69	-11.111
233.07	-42.857
233.44	-400.000
233.81	33.333
234.19	77.778
234.56	6.250
234.93	59.375
235.31	-85.714
235.68	-28.571
236.05	-41.176
236.43	9.091
236.80	-12.903
237.17	79.167
237.55	-23.810
237.92	4.545
238.29	40.000
238.67	38.235
239.04	27.778
239.41	-3.226
239.79	15.385
240.16	4.762
240.53	23.636
240.91	28.205
241.28	20.000
241.65	36.923
242.02	31.148
242.40	8.197
242.77	24.242
243.14	30.508
243.51	17.143
243.89	15.190
244.26	14.607
244.63	22.105
245.00	16.842
245.38	11.017
245.75	22.124
246.12	20.800
246.49	21.260
246.87	16.260
247.24	7.627
247.61	19.492
247.98	19.718
248.36	13.287
248.73	18.354
249.10	14.013
249.47	15.789
249.84	21.023
250.22	13.690
250.59	14.689
250.96	20.942
251.33	15.166
251.70	16.346
252.08	16.114
252.45	16.114
252.82	17.143
253.19	16.170
253.56	18.145
253.94	18.143
254.31	18.026
254.68	14.228
255.05	15.323
255.42	18.651
255.79	16.129
256.16	17.647
256.54	20.221
256.91	15.530
257.28	16.117
257.65	19.149
258.02	19.497
258.39	17.726
258.76	16.554
259.14	17.593
259.51	18.689
259.88	15.854
260.25	16.770
260.62	15.756
260.99	16.914
261.36	17.378
261.73	18.208
262.10	20.556
262.47	15.385
262.85	22.286
263.22	17.192
263.59	13.846
263.96	19.710
264.33	17.886
264.70	16.575
265.07	19.505
265.44	14.987
265.81	15.504
266.18	12.658
266.55	16.912
266.92	18.640
267.29	15.981
267.66	15.309
268.03	18.841
268.40	16.667
268.77	16.386
269.14	17.169
269.51	19.540
269.88	13.303
270.25	13.287
270.62	17.849
270.99	16.216
271.36	15.385
271.73	15.919
272.10	16.934
272.47	17.778
272.84	16.667
273.21	19.266
273.58	16.044
273.95	15.351
274.32	16.742
274.69	16.411
275.06	17.996
275.43	16.071
275.80	17.312
276.17	16.318
276.54	16.904
276.91	17.078
277.28	16.430
277.65	15.289
278.02	15.449
278.39	15.717
278.76	15.339
279.13	14.625
279.50	15.706
279.87	16.279
280.23	18.826
280.60	16.302
280.97	14.951
281.34	15.861
281.71	17.692
282.08	17.339
282.45	13.849
282.82	16.279
283.19	17.636
283.56	17.949
283.92	16.784
284.29	15.428
284.66	16.367
285.03	17.825
285.40	18.450
285.77	16.316
286.14	14.621
286.51	17.052
286.87	17.423
287.24	16.894
287.61	14.380
287.98	16.118
288.35	15.372
288.72	15.959
289.08	15.424
289.45	15.825
289.82	14.533
290.19	14.614
290.56	14.545
290.93	13.672
291.29	13.614
291.66	14.976
292.03	14.757
292.40	14.759
292.77	14.286
293.13	16.260
293.50	13.373
293.87	15.491
294.24	14.480
294.60	14.394
294.97	15.630
295.34	14.074
295.71	14.881
296.08	13.057
296.44	12.732
296.81	14.103
297.18	14.789
297.55	14.266
297.91	14.365
298.28	12.740
298.65	15.202
299.02	16.176
299.38	13.770
299.75	14.538
300.12	15.128
300.48	14.194
300.85	13.893
301.22	14.101
301.59	14.044
301.95	13.854
302.32	13.950
302.69	15.055
303.05	13.675
303.42	12.250
303.79	13.995
304.15	14.218
304.52	12.369
304.89	13.105
305.25	13.675
305.62	12.338
305.99	14.252
306.35	13.762
306.72	13.098
307.09	14.075
307.45	14.415
307.82	12.291
308.19	13.982
308.55	13.617
308.92	14.501
309.29	14.162
309.65	13.680
310.02	13.715
310.38	13.622
310.75	13.730
311.12	14.979
311.48	14.301
311.85	14.006
312.22	14.521
312.58	13.530
312.95	14.985
313.31	14.685
313.68	14.673
314.05	15.925
314.41	14.889
314.78	14.685
315.14	15.499
315.51	15.400
315.87	15.102
316.24	17.007
316.61	16.795
316.97	16.716
317.34	15.222
317.70	16.234
318.07	17.631
318.43	16.011
318.80	17.840
319.16	15.760
319.53	16.259
319.89	16.275
320.26	16.765
320.62	17.212
320.99	17.612
321.35	14.975
321.72	16.070
322.08	18.595
322.45	17.525
322.81	18.732
323.18	18.444
323.54	19.224
323.91	19.741
324.27	19.106
324.64	19.104
325.00	19.197
325.37	20.181
325.73	21.347
326.10	18.512
326.46	20.228
326.83	20.936
327.19	20.267
327.56	22.828
327.92	21.410
328.29	21.905
328.65	21.545
329.01	23.233
329.38	22.391
329.74	24.176
330.11	22.484
330.47	22.525
330.84	23.648
331.20	23.827
331.56	24.248
331.93	23.179
332.29	24.110
332.66	23.090
333.02	23.620
333.38	24.462
333.75	25.289
334.11	25.244
334.48	24.625
334.84	24.847
335.20	25.621
335.57	24.729
335.93	27.216
336.29	25.155
336.66	24.934
337.02	24.955
337.38	25.668
337.75	25.461
338.11	24.955
338.47	27.224
338.84	24.955
339.20	25.659
339.56	28.075
339.93	25.485
340.29	25.421
340.65	25.787
341.02	25.548
341.38	26.116
341.74	26.418
342.11	26.621
342.47	25.751
342.83	25.861
343.20	24.851
343.56	24.653
343.92	26.043
344.28	27.586
344.65	26.815
345.01	27.563
345.37	27.824
345.73	25.205
346.10	25.675
346.46	25.345
346.82	24.699
347.19	27.034
347.55	26.244
347.91	26.063
348.27	25.457
348.63	26.575
349.00	27.128
349.36	24.434
349.72	27.070
350.08	26.303
350.45	26.162
350.81	26.592
351.17	26.849
351.53	25.537
351.89	26.677
352.26	26.434
352.62	27.880
352.98	27.927
353.34	27.898
353.70	26.178
354.07	27.065
354.43	28.696
354.79	27.971
355.15	27.396
355.51	27.578
355.87	27.273
356.24	27.244
356.60	28.606
356.96	27.637
357.32	27.474
357.68	28.123
358.04	27.791
358.40	27.688
358.77	27.821
359.13	27.850
359.49	27.135
359.85	27.744
360.21	27.702
360.57	28.389
360.93	27.556
361.29	27.803
361.66	27.896
362.02	27.367
362.38	29.200
362.74	29.231
363.10	26.758
363.46	29.915
363.82	29.082
364.18	28.871
364.54	30.236
364.90	29.210
365.26	30.100
365.62	29.722
365.98	29.730
366.35	29.718
366.71	29.175
367.07	28.864
367.43	30.885
367.79	30.447
368.15	29.374
368.51	30.769
368.87	31.593
369.23	29.825
369.59	31.806
369.95	30.726
370.31	31.083
370.67	29.284
371.03	30.685
371.39	30.127
371.75	31.760
372.11	31.349
372.47	31.453
372.83	31.293
373.19	31.786
373.55	32.160
373.91	30.939
374.27	32.101
374.63	32.988
374.99	32.754
375.35	31.561
375.71	33.693
376.07	32.512
376.42	31.589
376.78	33.137
377.14	32.678
377.50	32.946
377.86	33.550
378.22	33.417
378.58	33.354
378.94	33.231
379.30	34.430
379.66	34.426
380.02	33.452
380.38	33.776
380.74	33.880
381.09	33.626
381.45	34.964
381.81	33.515
382.17	34.398
382.53	34.529
382.89	35.108
383.25	36.123
383.61	34.257
383.97	35.946
384.32	35.732
384.68	36.820
385.04	35.386
385.40	35.545
385.76	37.439
386.12	36.102
386.48	37.562
386.83	36.748
387.19	37.059
387.55	37.856
387.91	36.159
388.27	37.455
388.62	36.659
388.98	36.160
389.34	37.454
389.70	37.820
390.06	37.166
390.42	38.462
390.77	37.918
391.13	38.509
391.49	38.677
391.85	37.531
392.20	37.682
392.56	38.668
392.92	37.650
393.28	39.093
393.64	39.387
393.99	38.831
394.35	38.564
394.71	39.160
395.07	39.548
395.42	38.379
395.78	38.152
396.14	40.436
396.50	39.450
396.85	39.112
397.21	38.943
397.57	40.547
397.92	40.281
398.28	40.389
398.64	40.571
399.00	40.562
399.35	40.643
399.71	40.534
400.07	39.940
400.42	40.024
400.78	40.489
401.14	40.539
401.49	41.804
401.85	41.062
402.21	41.657
402.57	40.777
402.92	41.913
403.28	41.483
403.63	40.683
403.99	41.206
404.35	41.365
404.70	41.369
405.06	41.522
405.42	41.820
405.77	40.385
406.13	41.908
406.49	42.121
406.84	41.572
407.20	42.462
407.55	42.685
407.91	41.580
408.27	43.873
408.62	42.874
408.98	42.450
409.34	42.108
409.69	42.911
410.05	41.601
410.40	41.876
410.76	43.154
411.11	43.267
411.47	42.583
411.83	43.888
412.18	43.131
412.54	42.526
412.89	43.196
413.25	42.916
413.60	41.677
413.96	43.007
414.31	42.936
414.67	43.683
415.03	43.984
415.38	44.828
415.74	44.394
416.09	45.141
416.45	43.651
416.80	45.059
417.16	44.186
417.51	45.043
417.87	44.919
418.22	46.018
418.58	45.186
418.93	45.616
419.29	43.977
419.64	44.472
420.00	45.869
420.35	45.358
420.71	45.378
421.06	46.036
421.42	46.311
421.77	46.957
422.12	46.670
422.48	45.804
422.83	46.811
423.19	45.824
423.54	47.262
423.90	46.848
424.25	45.362
424.61	46.984
424.96	47.806
425.31	46.618
425.67	46.705
426.02	46.988
426.38	48.094
426.73	47.750
427.09	48.836
427.44	48.011
427.79	47.326
428.15	49.013
428.50	48.094
428.85	48.022
429.21	47.593
429.56	48.750
429.92	48.046
430.27	47.059
430.62	49.060
430.98	47.308
431.33	48.719
431.68	49.223
432.04	49.356
432.39	49.174
432.74	49.580
433.10	49.184
433.45	49.396
433.80	49.328
434.16	49.436
434.51	49.918
434.86	49.678
435.22	49.332
435.57	50.796
435.92	49.883
436.28	50.208
436.63	50.141
436.98	50.115
437.34	50.148
437.69	50.058
438.04	51.673
438.39	52.888
438.75	50.291
439.10	50.750
439.45	51.841
439.81	51.386
440.16	50.994
440.51	51.706
440.86	52.516
441.22	50.746
441.57	51.211
441.92	51.100
442.27	52.706
442.63	51.448
442.98	51.862
443.33	53.103
443.68	52.423
444.03	52.161
444.39	52.570
444.74	54.020
445.09	53.399
445.44	53.630
445.79	54.258
446.15	53.286
446.50	53.566
446.85	52.232
447.20	52.605
447.55	53.481
447.91	54.183
448.26	52.905
448.61	53.367
448.96	54.342
449.31	53.833
449.66	54.150
450.02	53.241
450.37	54.087
450.72	54.633
451.07	55.060
451.42	53.036
451.77	54.877
452.12	53.814
452.47	54.597
452.83	55.154
453.18	54.902
453.53	54.540
453.88	55.502
454.23	53.809
454.58	55.749
454.93	55.542
455.28	55.832
455.63	55.098
455.98	55.783
456.34	53.875
456.69	55.785
457.04	54.518
457.39	55.144
457.74	54.755
458.09	55.162
458.44	56.293
458.79	55.549
459.14	55.961
459.49	56.365
459.84	55.818
460.19	55.251
460.54	56.080
460.89	55.886
461.24	54.706
461.59	55.041
461.94	55.188
462.29	56.105
462.64	56.390
462.99	55.221
463.34	56.853
463.69	56.870
464.04	55.126
464.39	56.213
464.74	55.201
465.09	53.217
465.44	54.822
465.79	56.176
466.14	56.502
466.49	55.959
466.84	55.942
467.19	54.988
467.54	54.810
467.89	56.412
468.24	57.482
468.59	55.590
468.94	56.206
469.29	56.010
469.64	55.930
469.99	57.461
470.34	57.181
470.68	56.686
471.03	57.811
471.38	55.903
471.73	57.063
472.08	56.894
472.43	57.529
472.78	56.533
473.13	56.793
473.48	56.669
473.83	57.506
474.17	58.408
474.52	58.184
474.87	56.177
475.22	55.339
475.57	55.278
475.92	55.994
476.27	56.057
476.61	56.789
476.96	56.624
477.31	56.297
477.66	57.277
478.01	58.023
478.36	55.265
478.70	57.234
479.05	57.653
479.40	57.409
479.75	56.014
480.10	56.448
480.45	55.416
480.79	57.305
481.14	57.652
481.49	57.648
481.84	55.848
482.19	56.236
482.53	57.623
482.88	56.431
483.23	56.761
483.58	56.660
483.92	57.000
484.27	55.472
484.62	55.724
484.97	55.924
485.31	54.176
485.66	52.476
486.01	51.949
486.36	52.317
486.70	53.287
487.05	51.666
487.40	53.953
487.75	54.604
488.09	53.830
488.44	55.413
488.79	55.536
489.13	56.333
489.48	56.607
489.83	56.987
490.17	56.683
490.52	57.337
490.87	57.598
491.22	56.562
491.56	56.389
491.91	56.679
492.26	56.415
492.60	55.947
492.95	56.259
493.30	55.836
493.64	55.806
493.99	56.405
494.34	56.476
494.68	56.882
495.03	56.979
495.37	57.866
495.72	57.073
496.07	57.156
496.41	58.499
496.76	56.667
497.11	57.466
497.45	56.849
497.80	56.828
498.14	57.220
498.49	58.413
498.84	56.699
499.18	58.041
499.53	56.844
499.87	57.625
500.22	57.157
500.56	58.429
500.91	56.798
501.26	57.157
501.60	57.053
501.95	58.019
502.29	55.550
502.64	55.917
502.98	57.115
503.33	56.579
503.67	56.657
504.02	56.688
504.36	57.745
504.71	58.156
505.06	56.665
505.40	58.034
505.75	57.622
506.09	58.392
506.44	57.744
506.78	57.953
507.13	57.055
507.47	57.642
507.82	57.615
508.16	57.668
508.51	57.342
508.85	56.625
509.19	57.509
509.54	58.140
509.88	58.032
510.23	57.180
510.57	59.048
510.92	57.787
511.26	57.097
511.61	57.721
511.95	57.274
512.30	58.384
512.64	57.429
512.98	58.911
513.33	58.045
513.67	58.571
514.02	58.669
514.36	59.114
514.70	57.612
515.05	58.776
515.39	58.766
515.74	59.337
516.08	60.231
516.42	59.150
516.77	58.521
517.11	58.524
517.46	60.108
517.80	59.567
518.14	58.514
518.49	60.311
518.83	58.635
519.17	57.608
519.52	58.704
519.86	59.498
520.20	60.024
520.55	60.123
520.89	58.673
521.23	59.585
521.58	60.564
521.92	58.961
522.26	60.825
522.61	61.280
522.95	60.370
523.29	60.627
523.64	58.963
523.98	59.771
524.32	59.459
524.66	58.696
525.01	59.666
525.35	59.665
525.69	59.466
526.04	60.770
526.38	60.344
526.72	59.004
527.06	61.068
527.41	61.386
527.75	59.736
528.09	60.357
528.43	60.459
528.78	59.422
529.12	60.179
529.46	61.276
529.80	60.620
530.15	59.305
530.49	59.702
530.83	59.921
531.17	60.943
531.51	59.812
531.86	59.447
532.20	59.717
532.54	59.759
532.88	59.420
533.22	59.291
533.57	59.073
533.91	57.990
534.25	58.768
534.59	57.901
534.93	56.565
535.27	59.597
535.62	58.504
535.96	58.953
536.30	59.031
536.64	59.827
536.98	61.370
537.32	59.157
537.66	58.588
538.01	60.275
538.35	60.338
538.69	59.024
539.03	58.091
539.37	59.348
539.71	58.239
540.05	60.864
540.39	60.042
540.73	59.295
541.07	59.904
541.42	59.487
541.76	57.076
542.10	59.487
542.44	59.027
542.78	58.684
543.12	58.588
543.46	58.151
543.80	58.127
544.14	58.764
544.48	57.940
544.82	59.675
545.16	59.423
545.50	57.672
545.84	59.318
546.18	58.599
546.52	59.459
546.86	59.117
547.20	59.986
547.54	56.612
547.88	58.261
548.22	58.322
548.56	57.715
548.90	58.154
549.24	59.075
549.58	57.516
549.92	59.223
550.26	59.754
550.60	58.819
550.94	59.927
551.28	59.819
551.62	58.493
551.96	59.841
552.30	58.188
552.64	60.028
552.98	59.075
553.32	59.596
553.66	60.130
554.00	59.630
554.34	58.917
554.68	58.260
555.02	59.407
555.36	58.375
555.69	58.596
556.03	58.316
556.37	59.033
556.71	58.626
557.05	60.680
557.39	59.614
557.73	59.227
558.07	59.683
558.41	60.135
558.75	60.456
559.08	59.144
559.42	60.184
559.76	60.583
560.10	60.477
560.44	60.910
560.78	58.246
561.12	58.109
561.45	58.904
561.79	58.885
562.13	59.327
562.47	59.104
562.81	59.547
563.15	58.083
563.48	58.880
563.82	59.500
564.16	57.877
564.50	58.535
564.84	56.746
565.17	57.692
565.51	57.823
565.85	59.838
566.19	59.025
566.52	57.730
566.86	58.028
567.20	57.627
567.54	58.653
567.88	56.449
568.21	57.942
568.55	56.469
568.89	56.262
569.23	54.419
569.56	53.510
569.90	54.681
570.24	54.040
570.57	51.705
570.91	52.261
571.25	52.594
571.59	52.076
571.92	51.637
572.26	51.528
572.60	51.412
572.93	50.852
573.27	51.585
573.61	50.645
573.95	51.996
574.28	51.010
574.62	51.169
574.96	50.075
575.29	50.889
575.63	51.261
575.97	50.485
576.30	50.178
576.64	51.671
576.98	50.485
577.31	51.037
577.65	50.682
577.98	50.446
578.32	49.863
578.66	51.072
578.99	50.848
579.33	50.741
579.67	50.900
580.00	51.116
580.34	50.709
580.67	50.699
581.01	49.680
581.35	50.621
581.68	49.656
582.02	49.513
582.35	49.802
582.69	50.553
583.02	50.862
583.36	51.215
583.70	51.254
584.03	51.616
584.37	52.260
584.70	51.123
585.04	51.620
585.37	49.809
585.71	50.532
586.04	50.101
586.38	50.708
586.72	50.366
587.05	51.798
587.39	51.516
587.72	50.226
588.06	51.609
588.39	51.979
588.73	51.509
589.06	53.517
589.40	53.521
589.73	51.877
590.07	52.476
590.40	52.362
590.73	54.538
591.07	54.180
591.40	54.679
591.74	54.170
592.07	54.505
592.41	54.310
592.74	53.305
593.08	52.111
593.41	52.237
593.75	51.105
594.08	53.523
594.41	52.976
594.75	52.775
595.08	53.872
595.42	53.035
595.75	53.289
596.09	53.434
596.42	53.519
596.75	53.428
597.09	55.298
597.42	53.776
597.75	53.632
598.09	55.987
598.42	53.601
598.76	53.654
599.09	53.670
599.42	54.171
599.76	52.246
600.09	52.977
600.42	53.399
600.76	53.748
601.09	53.703
601.42	53.344
601.76	52.648
602.09	54.519
602.42	53.786
602.76	54.134
603.09	54.073
603.42	54.835
603.76	53.690
604.09	54.545
604.42	53.081
604.76	55.255
605.09	53.933
605.42	54.300
605.75	53.644
606.09	53.674
606.42	53.666
606.75	54.487
607.09	54.169
607.42	53.565
607.75	54.260
608.08	54.858
608.42	54.021
608.75	53.692
609.08	55.334
609.41	55.107
609.75	53.779
610.08	55.245
610.41	54.410
610.74	54.594
611.07	55.680
611.41	54.463
611.74	55.116
612.07	56.230
612.40	54.744
612.73	55.250
613.07	53.935
613.40	57.088
613.73	56.076
614.06	55.574
614.39	57.948
614.72	55.196
615.06	55.924
615.39	55.833
615.72	56.382
616.05	54.500
616.38	56.239
616.71	56.697
617.05	57.539
617.38	57.709
617.71	56.757
618.04	58.509
618.37	56.415
618.70	58.475
619.03	58.497
619.36	58.774
619.69	58.650
620.03	56.818
620.36	58.931
620.69	58.363
621.02	58.752
621.35	60.000
621.68	60.984
622.01	62.298
622.34	59.317
622.67	60.938
623.00	59.373
623.33	60.075
623.66	59.158
623.99	60.000
624.32	60.268
624.65	59.382
624.99	59.223
625.32	59.656
625.65	60.684
625.98	59.624
626.31	60.848
626.64	60.251
626.97	61.644
627.30	60.851
627.63	62.953
627.96	61.880
628.29	63.971
628.62	61.318
628.95	63.386
629.28	62.500
629.61	64.868
629.94	62.665
630.26	63.817
630.59	66.131
630.92	63.864
631.25	63.105
631.58	65.291
631.91	63.830
632.24	65.333
632.57	64.444
632.90	67.931
633.23	65.304
633.56	65.965
633.89	67.689
634.22	65.289
