SpectraSuite Data File
++++++++++++++++++++++++++++++++++++
Date: Sat May 16 11:16:08 PDT 2015
User: schluterlab
Dark Spectrum Present: Yes
Reference Spectrum Present: Yes
Number of Sampled Component Spectra: 1
Spectrometers: USB2E3373
Integration Time (usec): 3000 (USB2E3373)
Spectra Averaged: 3 (USB2E3373)
Boxcar Smoothing: 0 (USB2E3373)
Correct for Electrical Dark: No (USB2E3373)
Strobe/Lamp Enabled: No (USB2E3373)
Correct for Detector Non-linearity: No (USB2E3373)
Correct for Stray Light: No (USB2E3373)
Number of Pixels in Processed Spectrum: 2048
>>>>>Begin Processed Spectral Data<<<<<
178.53	0.000
178.91	73.333
179.29	200.000
179.67	-400.000
180.04	-30.769
180.42	200.000
180.80	50.000
181.18	350.000
181.56	-37.500
181.94	100.000
182.31	275.000
182.69	-23.077
183.07	-433.333
183.45	1200.000
183.83	500.000
184.20	-285.714
184.58	-37.500
184.96	-75.000
185.34	81.250
185.72	-500.000
186.09	333.333
186.47	-100.000
186.85	-125.000
187.23	-25.000
187.61	150.000
187.98	-150.000
188.36	0.000
188.74	-187.500
189.12	1300.000
189.49	314.286
189.87	-58.333
190.25	100.000
190.63	21.429
191.00	-100.000
191.38	360.000
191.76	60.000
192.14	220.000
192.51	0.000
192.89	-333.333
193.27	0.000
193.65	-55.556
194.02	-214.286
194.40	100.000
194.78	-50.000
195.15	-1100.000
195.53	-36.364
195.91	-383.333
196.29	220.000
196.66	-266.667
197.04	1400.000
197.42	-25.000
197.79	40.000
198.17	-66.667
198.55	-550.000
198.92	-300.000
199.30	262.500
199.68	-850.000
200.05	-177.778
200.43	0.000
200.81	-1300.000
201.18	-75.000
201.56	14.286
201.94	0.000
202.31	54.545
202.69	50.000
203.07	10.000
203.44	533.333
203.82	-100.000
204.19	-400.000
204.57	-25.000
204.95	500.000
205.32	0.000
205.70	-0.000
206.08	-900.000
206.45	0.000
206.83	-200.000
207.20	450.000
207.58	-166.667
207.96	-500.000
208.33	-175.000
208.71	-88.889
209.08	180.000
209.46	-200.000
209.84	-100.000
210.21	0.000
210.59	75.000
210.96	300.000
211.34	-150.000
211.71	33.333
212.09	100.000
212.46	800.000
212.84	-1800.000
213.22	300.000
213.59	150.000
213.97	55.556
214.34	140.000
214.72	-60.000
215.09	266.667
215.47	-133.333
215.84	40.000
216.22	-130.000
216.59	53.333
216.97	-350.000
217.34	550.000
217.72	-14.286
218.09	-233.333
218.47	-214.286
218.84	85.714
219.22	157.143
219.59	0.000
219.97	142.857
220.34	325.000
220.72	175.000
221.09	30.769
221.47	0.000
221.84	400.000
222.22	-150.000
222.59	700.000
222.97	-200.000
223.34	-750.000
223.72	0.000
224.09	-42.857
224.46	-125.000
224.84	-42.857
225.21	-28.571
225.59	9.091
225.96	-50.000
226.34	-114.286
226.71	-111.111
227.08	25.000
227.46	900.000
227.83	-114.286
228.21	-187.500
228.58	100.000
228.95	25.000
229.33	-1500.000
229.70	-140.000
230.08	-450.000
230.45	66.667
230.82	0.000
231.20	-400.000
231.57	-500.000
231.95	-200.000
232.32	23.810
232.69	-77.778
233.07	-142.857
233.44	-550.000
233.81	0.000
234.19	55.556
234.56	-25.000
234.93	34.375
235.31	-128.571
235.68	-57.143
236.05	-47.059
236.43	-31.818
236.80	-25.806
237.17	16.667
237.55	-23.810
237.92	-18.182
238.29	2.857
238.67	47.059
239.04	30.556
239.41	-3.226
239.79	5.128
240.16	4.762
240.53	18.182
240.91	53.846
241.28	16.364
241.65	33.846
242.02	37.705
242.40	31.148
242.77	33.333
243.14	15.254
243.51	10.000
243.89	29.114
244.26	25.843
244.63	30.526
245.00	32.632
245.38	37.288
245.75	32.743
246.12	30.400
246.49	33.858
246.87	32.520
247.24	20.339
247.61	22.881
247.98	31.690
248.36	25.874
248.73	25.316
249.10	27.389
249.47	28.070
249.84	35.795
250.22	22.619
250.59	27.684
250.96	29.319
251.33	32.701
251.70	25.962
252.08	27.014
252.45	32.227
252.82	28.571
253.19	31.489
253.56	30.645
253.94	30.802
254.31	32.618
254.68	29.675
255.05	25.403
255.42	34.127
255.79	30.466
256.16	36.078
256.54	26.103
256.91	31.439
257.28	25.641
257.65	29.078
258.02	32.075
258.39	29.431
258.76	29.392
259.14	31.173
259.51	33.443
259.88	32.317
260.25	31.677
260.62	28.939
260.99	25.519
261.36	31.402
261.73	33.237
262.10	31.667
262.47	26.781
262.85	33.143
263.22	26.934
263.59	27.692
263.96	27.536
264.33	30.352
264.70	29.282
265.07	27.473
265.44	27.907
265.81	29.974
266.18	28.608
266.55	26.716
266.92	33.249
267.29	28.814
267.66	27.901
268.03	29.227
268.40	27.934
268.77	28.916
269.14	27.842
269.51	30.115
269.88	26.147
270.25	24.709
270.62	29.291
270.99	24.775
271.36	27.739
271.73	28.924
272.10	27.002
272.47	29.111
272.84	29.333
273.21	26.606
273.58	29.011
273.95	28.289
274.32	26.471
274.69	30.853
275.06	29.857
275.43	27.232
275.80	29.532
276.17	24.268
276.54	29.328
276.91	26.955
277.28	26.978
277.65	28.306
278.02	29.436
278.39	29.273
278.76	27.490
279.13	29.447
279.50	28.231
279.87	29.598
280.23	29.150
280.60	26.243
280.97	29.709
281.34	29.014
281.71	28.269
282.08	27.823
282.45	26.069
282.82	28.101
283.19	27.455
283.56	27.106
283.92	28.975
284.29	26.022
284.66	26.799
285.03	28.699
285.40	26.753
285.77	31.930
286.14	27.617
286.51	26.998
286.87	28.494
287.24	27.133
287.61	27.438
287.98	25.997
288.35	26.446
288.72	27.504
289.08	26.441
289.45	26.936
289.82	25.952
290.19	26.765
290.56	25.455
290.93	24.483
291.29	24.959
291.66	25.765
292.03	26.217
292.40	25.602
292.77	26.242
293.13	24.553
293.50	25.111
293.87	23.313
294.24	24.434
294.60	25.152
294.97	25.948
295.34	22.519
295.71	24.107
296.08	23.195
296.44	21.316
296.81	25.071
297.18	23.803
297.55	25.000
297.91	26.639
298.28	22.192
298.65	21.199
299.02	24.064
299.38	22.460
299.75	22.554
300.12	21.795
300.48	25.064
300.85	22.543
301.22	23.027
301.59	23.147
301.95	25.693
302.32	22.686
302.69	21.665
303.05	22.589
303.42	22.875
303.79	23.804
304.15	23.223
304.52	23.804
304.89	22.904
305.25	25.153
305.62	22.679
305.99	25.088
306.35	22.309
306.72	23.918
307.09	24.631
307.45	23.383
307.82	23.240
308.19	23.826
308.55	22.985
308.92	23.308
309.29	24.324
309.65	25.663
310.02	24.190
310.38	25.838
310.75	24.180
311.12	26.136
311.48	26.096
311.85	24.820
312.22	26.982
312.58	26.958
312.95	27.217
313.31	26.773
313.68	28.141
314.05	29.179
314.41	25.654
314.78	26.773
315.14	28.430
315.51	28.267
315.87	28.751
316.24	28.766
316.61	30.230
316.97	30.746
317.34	30.250
317.70	31.262
318.07	31.810
318.43	31.086
318.80	33.052
319.16	31.520
319.53	33.271
319.89	33.866
320.26	34.118
320.62	32.692
320.99	33.831
321.35	33.103
321.72	35.312
322.08	38.477
322.45	39.802
322.81	38.905
323.18	39.481
323.54	39.187
323.91	39.852
324.27	41.730
324.64	40.585
325.00	39.616
325.37	42.896
325.73	42.520
326.10	43.401
326.46	42.557
326.83	43.745
327.19	44.871
327.56	46.082
327.92	46.559
328.29	47.100
328.65	46.364
329.01	48.410
329.38	49.242
329.74	53.022
330.11	48.957
330.47	49.500
330.84	51.421
331.20	51.534
331.56	51.869
331.93	52.131
332.29	53.973
332.66	52.239
333.02	53.484
333.38	54.122
333.75	54.319
334.11	53.244
334.48	55.163
334.84	55.381
335.20	54.344
335.57	56.318
335.93	57.654
336.29	53.676
336.66	55.859
337.02	56.396
337.38	55.080
337.75	56.102
338.11	57.424
338.47	57.384
338.84	57.078
339.20	56.063
339.56	58.645
339.93	56.261
340.29	57.219
340.65	57.517
341.02	54.890
341.38	55.350
341.74	57.324
342.11	57.338
342.47	57.082
342.83	57.347
343.20	56.533
343.56	56.163
343.92	57.346
344.28	58.537
344.65	56.766
345.01	59.496
345.37	57.475
345.73	56.219
346.10	55.192
346.46	57.514
346.82	57.177
347.19	58.176
347.55	56.661
347.91	57.087
348.27	56.086
348.63	56.947
349.00	57.597
349.36	55.738
349.72	58.280
350.08	57.658
350.45	57.604
350.81	57.404
351.17	55.707
351.53	57.597
351.89	58.367
352.26	56.822
352.62	59.140
352.98	58.782
353.34	57.554
353.70	55.753
354.07	57.907
354.43	60.158
354.79	58.558
355.15	58.626
355.51	57.891
355.87	58.261
356.24	58.380
356.60	60.032
356.96	58.891
357.32	58.828
357.68	59.464
358.04	58.353
358.40	58.237
358.77	58.887
359.13	59.908
359.49	58.881
359.85	58.765
360.21	59.209
360.57	59.488
360.93	60.296
361.29	61.286
361.66	59.985
362.02	59.393
362.38	57.960
362.74	61.612
363.10	60.402
363.46	60.114
363.82	59.475
364.18	59.913
364.54	60.186
364.90	61.356
365.26	60.200
365.62	62.295
365.98	62.660
366.35	61.408
366.71	60.888
367.07	61.044
367.43	60.947
367.79	61.443
368.15	61.593
368.51	62.448
368.87	62.637
369.23	61.895
369.59	63.681
369.95	63.143
370.31	62.307
370.67	62.690
371.03	64.067
371.39	63.154
371.75	64.807
372.11	64.060
372.47	65.076
372.83	64.395
373.19	65.357
373.55	64.673
373.91	65.718
374.27	65.161
374.63	63.354
374.99	64.882
375.35	63.122
375.71	66.847
376.07	65.503
376.42	65.099
376.78	65.425
377.14	67.322
377.50	67.505
377.86	66.125
378.22	67.211
378.58	67.140
378.94	66.831
379.30	67.642
379.66	66.545
380.02	66.251
380.38	68.338
380.74	68.992
381.09	67.077
381.45	68.138
381.81	67.877
382.17	69.236
382.53	67.356
382.89	69.856
383.25	70.199
383.61	68.750
383.97	69.810
384.32	69.650
384.68	70.254
385.04	71.437
385.40	70.663
385.76	72.195
386.12	71.455
386.48	72.525
386.83	72.638
387.19	72.385
387.55	72.441
387.91	72.081
388.27	72.557
388.62	72.236
388.98	73.531
389.34	72.889
389.70	71.255
390.06	72.467
390.42	73.846
390.77	73.691
391.13	75.093
391.49	75.608
391.85	74.501
392.20	73.301
392.56	74.160
392.92	75.870
393.28	75.373
393.64	75.646
393.99	75.446
394.35	76.277
394.71	74.676
395.07	76.648
395.42	75.209
395.78	75.990
396.14	76.822
396.50	76.942
396.85	77.051
397.21	77.157
397.57	79.331
397.92	77.518
398.28	78.667
398.64	77.275
399.00	80.281
399.35	78.636
399.71	79.849
400.07	79.164
400.42	79.988
400.78	79.547
401.14	79.701
401.49	79.245
401.85	80.842
402.21	81.526
402.57	78.641
402.92	81.624
403.28	79.779
403.63	78.850
403.99	81.541
404.35	80.978
404.70	82.563
405.06	80.507
405.42	81.611
405.77	80.204
406.13	81.885
406.49	82.864
406.84	83.683
407.20	83.863
407.55	83.534
407.91	82.124
408.27	82.966
408.62	83.403
408.98	83.869
409.34	82.998
409.69	82.357
410.05	82.596
410.40	84.304
410.76	83.640
411.11	85.474
411.47	83.504
411.83	84.535
412.18	84.468
412.54	85.235
412.89	86.270
413.25	85.950
413.60	83.900
413.96	86.815
414.31	85.994
414.67	85.397
415.03	86.611
415.38	88.159
415.74	87.629
416.09	87.340
416.45	87.434
416.80	89.662
417.16	88.505
417.51	88.641
417.87	88.414
418.22	90.518
418.58	89.089
418.93	89.761
419.29	88.018
419.64	89.636
420.00	90.401
420.35	90.183
420.71	91.837
421.06	90.473
421.42	92.857
421.77	90.676
422.12	93.453
422.48	91.716
422.83	90.034
423.19	92.316
423.54	92.853
423.90	93.233
424.25	93.326
424.61	95.838
424.96	94.909
425.31	95.361
425.67	96.447
426.02	93.919
426.38	95.221
426.73	96.201
427.09	96.998
427.44	95.966
427.79	98.198
428.15	96.589
428.50	98.710
428.85	98.022
429.21	98.395
429.56	99.375
429.92	97.846
430.27	98.504
430.62	99.216
430.98	98.798
431.33	100.694
431.68	99.303
432.04	101.903
432.39	101.994
432.74	102.098
433.10	102.026
433.45	101.612
433.80	101.400
434.16	102.526
434.51	105.041
434.86	102.871
435.22	102.951
435.57	104.284
435.92	102.638
436.28	104.629
436.63	104.918
436.98	102.520
437.34	103.485
437.69	104.259
438.04	105.105
438.39	105.295
438.75	102.852
439.10	103.887
439.45	105.613
439.81	105.904
440.16	104.600
440.51	106.824
440.86	107.692
441.22	107.020
441.57	105.842
441.92	105.473
442.27	106.385
442.63	106.009
442.98	106.264
443.33	107.194
443.68	107.243
444.03	107.662
444.39	108.027
444.74	108.425
445.09	106.634
445.44	108.948
445.79	109.434
446.15	106.955
446.50	108.383
446.85	106.773
447.20	108.733
447.55	109.171
447.91	110.163
448.26	107.933
448.61	108.149
448.96	108.964
449.31	108.625
449.66	109.960
450.02	108.698
450.37	108.928
450.72	110.056
451.07	111.628
451.42	107.497
451.77	109.934
452.12	110.489
452.47	109.383
452.83	110.250
453.18	111.954
453.53	110.510
453.88	112.081
454.23	109.553
454.58	112.492
454.93	110.453
455.28	112.747
455.63	111.855
455.98	110.783
456.34	108.577
456.69	111.257
457.04	109.281
457.39	110.825
457.74	111.045
458.09	110.615
458.44	111.490
458.79	110.258
459.14	111.523
459.49	111.723
459.84	110.512
460.19	112.291
460.54	111.373
460.89	111.435
461.24	110.929
461.59	110.434
461.94	112.540
462.29	111.138
462.64	112.516
462.99	112.517
463.34	112.086
463.69	113.995
464.04	108.963
464.39	110.693
464.74	110.165
465.09	109.802
465.44	110.716
465.79	109.588
466.14	112.025
466.49	110.766
466.84	111.285
467.19	111.097
467.54	109.114
467.89	111.776
468.24	110.451
468.59	110.493
468.94	113.119
469.29	111.696
469.64	111.860
469.99	110.939
470.34	112.291
470.68	112.645
471.03	110.255
471.38	110.139
471.73	113.287
472.08	112.517
472.43	111.519
472.78	110.467
473.13	110.139
473.48	111.615
473.83	110.422
474.17	109.936
474.52	112.340
474.87	106.585
475.22	110.442
475.57	109.167
475.92	109.179
476.27	108.514
476.61	109.915
476.96	109.782
477.31	110.065
477.66	110.570
478.01	110.427
478.36	107.491
478.70	110.785
479.05	109.248
479.40	111.347
479.75	108.716
480.10	107.540
480.45	107.592
480.79	110.464
481.14	110.236
481.49	109.390
481.84	108.044
482.19	107.812
482.53	109.659
482.88	108.068
483.23	108.592
483.58	109.389
483.92	109.938
484.27	106.026
484.62	107.862
484.97	106.898
485.31	104.352
485.66	101.032
486.01	101.471
486.36	104.114
486.70	106.265
487.05	103.746
487.40	105.956
487.75	104.604
488.09	104.324
488.44	106.732
488.79	106.120
489.13	107.265
489.48	107.382
489.83	107.424
490.17	105.442
490.52	107.065
490.87	105.450
491.22	107.567
491.56	104.676
491.91	105.630
492.26	105.755
492.60	105.471
492.95	104.046
493.30	105.574
493.64	104.278
493.99	105.545
494.34	106.381
494.68	104.775
495.03	104.111
495.37	106.588
495.72	105.305
496.07	103.848
496.41	105.373
496.76	105.342
497.11	105.323
497.45	104.167
497.80	106.453
498.14	103.929
498.49	105.123
498.84	102.233
499.18	104.727
499.53	105.212
499.87	103.958
500.22	104.412
500.56	104.202
500.91	104.335
501.26	103.688
501.60	102.504
501.95	103.285
502.29	101.842
502.64	102.735
502.98	102.012
503.33	102.068
503.67	103.496
504.02	102.559
504.36	102.843
504.71	103.597
505.06	101.847
505.40	103.244
505.75	101.982
506.09	103.337
506.44	102.155
506.78	102.709
507.13	100.927
507.47	101.878
507.82	102.065
508.16	103.472
508.51	101.494
508.85	102.329
509.19	101.779
509.54	102.326
509.88	103.298
510.23	101.834
510.57	102.381
510.92	103.330
511.26	100.372
511.61	101.674
511.95	101.940
512.30	102.364
512.64	100.946
512.98	101.705
513.33	100.549
513.67	99.832
514.02	100.447
514.36	101.607
514.70	100.962
515.05	102.115
515.39	101.672
515.74	103.374
516.08	101.556
516.42	100.907
516.77	102.369
517.11	100.515
517.46	102.632
517.80	102.768
518.14	101.570
518.49	102.929
518.83	100.237
519.17	101.125
519.52	99.884
519.86	103.823
520.20	102.812
520.55	102.215
520.89	100.814
521.23	97.924
521.58	102.069
521.92	102.153
522.26	100.063
522.61	100.887
522.95	99.872
523.29	102.194
523.64	99.813
523.98	101.973
524.32	99.937
524.66	98.634
525.01	100.578
525.35	101.933
525.69	99.089
526.04	100.522
526.38	101.782
526.72	97.829
527.06	101.497
527.41	101.254
527.75	100.330
528.09	100.860
528.43	100.000
528.78	98.430
529.12	100.576
529.46	99.871
529.80	100.516
530.15	100.451
530.49	97.025
530.83	99.018
531.17	100.539
531.51	98.459
531.86	98.683
532.20	98.853
532.54	99.332
532.88	96.640
533.22	99.599
533.57	98.760
533.91	96.816
534.25	95.852
534.59	96.502
534.93	95.333
535.27	98.175
535.62	98.465
535.96	97.220
536.30	96.662
536.64	95.817
536.98	100.565
537.32	97.374
537.66	96.402
538.01	99.656
538.35	98.581
538.69	95.856
539.03	97.021
539.37	96.873
539.71	97.865
540.05	97.258
540.39	98.130
540.73	98.549
541.07	98.019
541.42	98.042
541.76	94.884
542.10	98.920
542.44	95.470
542.78	97.354
543.12	96.606
543.46	95.411
543.80	96.722
544.14	96.105
544.48	96.588
544.82	96.549
545.16	95.775
545.50	94.415
545.84	97.705
546.18	94.521
546.52	96.444
546.86	95.940
547.20	97.187
547.54	94.284
547.88	93.033
548.22	94.037
548.56	96.126
548.90	94.879
549.24	96.566
549.58	94.566
549.92	95.760
550.26	95.231
550.60	94.310
550.94	95.912
551.28	96.464
551.62	97.046
551.96	95.948
552.30	93.310
552.64	95.074
552.98	95.305
553.32	95.960
553.66	96.323
554.00	96.162
554.34	94.513
554.68	94.371
555.02	94.863
555.36	94.968
555.69	95.559
556.03	94.807
556.37	95.377
556.71	94.273
557.05	96.600
557.39	94.655
557.73	94.675
558.07	95.554
558.41	96.111
558.75	94.068
559.08	95.798
559.42	96.095
559.76	95.475
560.10	95.675
560.44	94.653
560.78	94.433
561.12	93.789
561.45	93.904
561.79	93.659
562.13	93.408
562.47	93.838
562.81	93.989
563.15	94.402
563.48	94.748
563.82	93.374
564.16	94.253
564.50	95.497
564.84	91.270
565.17	92.639
565.51	92.634
565.85	95.605
566.19	96.113
566.52	93.542
566.86	91.656
567.20	92.131
567.54	94.507
567.88	91.122
568.21	93.792
568.55	92.524
568.89	90.606
569.23	89.912
569.56	89.365
569.90	89.457
570.24	90.079
570.57	87.557
570.91	86.875
571.25	87.419
571.59	88.511
571.92	86.845
572.26	87.118
572.60	87.620
572.93	87.829
573.27	86.402
573.61	86.349
573.95	86.189
574.28	85.966
574.62	87.824
574.96	85.269
575.29	86.941
575.63	86.037
575.97	85.734
576.30	85.311
576.64	86.319
576.98	85.270
577.31	85.959
577.65	86.155
577.98	85.344
578.32	85.666
578.66	85.939
578.99	86.100
579.33	85.933
579.67	86.457
580.00	86.483
580.34	86.301
580.67	86.810
581.01	85.032
581.35	85.546
581.68	85.019
582.02	85.129
582.35	85.798
582.69	86.194
583.02	85.809
583.36	85.367
583.70	87.276
584.03	87.877
584.37	87.470
584.70	86.942
585.04	86.861
585.37	85.322
585.71	85.099
586.04	86.196
586.38	84.817
586.72	85.485
587.05	86.689
587.39	85.796
587.72	86.063
588.06	87.813
588.39	87.069
588.73	86.814
589.06	86.797
589.40	88.698
589.73	88.031
590.07	87.181
590.40	87.712
590.73	89.604
591.07	88.934
591.40	89.211
591.74	89.140
592.07	89.414
592.41	87.219
592.74	87.855
593.08	85.994
593.41	87.368
593.75	85.559
594.08	88.174
594.41	88.651
594.75	87.580
595.08	88.684
595.42	88.078
595.75	87.431
596.09	88.048
596.42	89.648
596.75	87.107
597.09	89.448
597.42	88.520
597.75	87.865
598.09	88.522
598.42	87.892
598.76	87.666
599.09	88.122
599.42	88.043
599.76	86.410
600.09	87.786
600.42	86.555
600.76	87.533
601.09	86.783
601.42	87.574
601.76	87.150
602.09	87.648
602.42	86.872
602.76	86.789
603.09	87.823
603.42	88.155
603.76	88.472
604.09	88.186
604.42	86.261
604.76	87.833
605.09	88.517
605.42	87.677
605.75	89.133
606.09	88.294
606.42	87.558
606.75	87.505
607.09	88.399
607.42	87.456
607.75	87.461
608.08	88.206
608.42	89.593
608.75	88.037
609.08	88.115
609.41	89.138
609.75	88.688
610.08	89.608
610.41	88.867
610.74	87.234
611.07	89.402
611.41	88.754
611.74	88.226
612.07	89.957
612.40	88.966
612.73	87.614
613.07	87.727
613.40	91.516
613.73	88.665
614.06	89.182
614.39	91.939
614.72	90.335
615.06	88.424
615.39	88.226
615.72	90.494
616.05	88.294
616.38	90.946
616.71	89.730
617.05	89.505
617.38	90.093
617.71	89.558
618.04	90.994
618.37	91.761
618.70	91.786
619.03	89.844
619.36	92.107
619.69	90.022
620.03	88.636
620.36	92.475
620.69	94.544
621.02	93.379
621.35	93.871
621.68	94.836
622.01	92.718
622.34	92.624
622.67	91.484
623.00	92.272
623.33	92.612
623.66	91.802
623.99	91.353
624.32	91.815
624.65	91.906
624.99	91.561
625.32	90.419
625.65	93.939
625.98	92.254
626.31	95.759
626.64	92.971
626.97	92.123
