SpectraSuite Data File
++++++++++++++++++++++++++++++++++++
Date: Sat May 16 11:40:06 PDT 2015
User: schluterlab
Dark Spectrum Present: Yes
Reference Spectrum Present: Yes
Number of Sampled Component Spectra: 1
Spectrometers: USB2E3373
Integration Time (usec): 3000 (USB2E3373)
Spectra Averaged: 3 (USB2E3373)
Boxcar Smoothing: 0 (USB2E3373)
Correct for Electrical Dark: No (USB2E3373)
Strobe/Lamp Enabled: No (USB2E3373)
Correct for Detector Non-linearity: No (USB2E3373)
Correct for Stray Light: No (USB2E3373)
Number of Pixels in Processed Spectrum: 2048
>>>>>Begin Processed Spectral Data<<<<<
178.53	0.000
178.91	100.000
179.29	366.667
179.67	-1500.000
180.04	-115.385
180.42	800.000
180.80	600.000
181.18	475.000
181.56	-175.000
181.94	600.000
182.31	325.000
182.69	-146.154
183.07	-133.333
183.45	1350.000
183.83	466.667
184.20	-200.000
184.58	-162.500
184.96	-575.000
185.34	143.750
185.72	-575.000
186.09	450.000
186.47	-162.500
186.85	-212.500
187.23	-137.500
187.61	-250.000
187.98	-362.500
188.36	-112.500
188.74	-187.500
189.12	1700.000
189.49	285.714
189.87	-58.333
190.25	550.000
190.63	-71.429
191.00	-322.222
191.38	280.000
191.76	-26.667
192.14	600.000
192.51	-360.000
192.89	-200.000
193.27	0.000
193.65	-111.111
194.02	-314.286
194.40	433.333
194.78	-120.000
195.15	-1200.000
195.53	-63.636
195.91	-583.333
196.29	240.000
196.66	-600.000
197.04	2200.000
197.42	-225.000
197.79	33.333
198.17	-433.333
198.55	-550.000
198.92	-1000.000
199.30	312.500
199.68	-900.000
200.05	-144.444
200.43	-333.333
200.81	-1200.000
201.18	-191.667
201.56	171.429
201.94	-60.000
202.31	-31.818
202.69	-40.000
203.07	-70.000
203.44	766.667
203.82	-366.667
204.19	-675.000
204.57	-375.000
204.95	-1500.000
205.32	-68.750
205.70	1000.000
206.08	-2300.000
206.45	-38.889
206.83	-1100.000
207.20	-200.000
207.58	-333.333
207.96	-633.333
208.33	-62.500
208.71	-144.444
209.08	280.000
209.46	-257.143
209.84	600.000
210.21	0.000
210.59	35.000
210.96	1100.000
211.34	-400.000
211.71	-400.000
212.09	375.000
212.46	1000.000
212.84	-1800.000
213.22	700.000
213.59	183.333
213.97	0.000
214.34	250.000
214.72	-110.000
215.09	-766.667
215.47	-233.333
215.84	-70.000
216.22	-80.000
216.59	-6.667
216.97	-525.000
217.34	900.000
217.72	-100.000
218.09	-283.333
218.47	-242.857
218.84	314.286
219.22	-157.143
219.59	0.000
219.97	-14.286
220.34	550.000
220.72	262.500
221.09	-53.846
221.47	0.000
221.84	533.333
222.22	-300.000
222.59	1400.000
222.97	-225.000
223.34	-1200.000
223.72	-300.000
224.09	-121.429
224.46	-325.000
224.84	-35.714
225.21	-242.857
225.59	-127.273
225.96	-175.000
226.34	-100.000
226.71	-144.444
227.08	-20.000
227.46	2200.000
227.83	-242.857
228.21	-262.500
228.58	350.000
228.95	-12.500
229.33	-2100.000
229.70	-280.000
230.08	-1150.000
230.45	-66.667
230.82	-266.667
231.20	-1100.000
231.57	-800.000
231.95	1700.000
232.32	23.810
232.69	-200.000
233.07	-200.000
233.44	-950.000
233.81	-100.000
234.19	-111.111
234.56	-81.250
234.93	15.625
235.31	-314.286
235.68	-214.286
236.05	-94.118
236.43	-131.818
236.80	-29.032
237.17	-8.333
237.55	-33.333
237.92	-81.818
238.29	-54.286
238.67	-35.294
239.04	-41.667
239.41	-35.484
239.79	-56.410
240.16	-19.048
240.53	-40.000
240.91	-25.641
241.28	-21.818
241.65	10.769
242.02	-9.836
242.40	-34.426
242.77	-25.758
243.14	-20.339
243.51	-20.000
243.89	-8.861
244.26	-10.112
244.63	-6.316
245.00	-6.316
245.38	-12.712
245.75	0.885
246.12	-2.400
246.49	-0.787
246.87	-13.008
247.24	-16.102
247.61	-12.712
247.98	-11.268
248.36	-16.783
248.73	-6.962
249.10	-14.013
249.47	-3.509
249.84	-3.409
250.22	-15.476
250.59	-5.085
250.96	0.524
251.33	1.896
251.70	-6.731
252.08	-2.844
252.45	-3.318
252.82	-4.762
253.19	-3.830
253.56	-6.452
253.94	-8.017
254.31	-3.433
254.68	-4.472
255.05	-9.274
255.42	-1.587
255.79	-7.527
256.16	-3.922
256.54	-2.941
256.91	-3.030
257.28	-9.158
257.65	-5.674
258.02	2.516
258.39	-1.338
258.76	-4.730
259.14	-0.617
259.51	-1.967
259.88	-3.963
260.25	0.621
260.62	-7.395
260.99	-3.858
261.36	-4.878
261.73	-3.179
262.10	0.556
262.47	-3.419
262.85	-0.286
263.22	-4.585
263.59	-5.231
263.96	-1.739
264.33	-2.710
264.70	0.552
265.07	-2.198
265.44	-3.876
265.81	-3.101
266.18	-4.051
266.55	-3.186
266.92	-3.275
267.29	-2.179
267.66	-2.222
268.03	-0.242
268.40	-2.582
268.77	-1.446
269.14	-1.624
269.51	-1.839
269.88	-3.899
270.25	-6.061
270.62	-2.517
270.99	-0.450
271.36	-2.098
271.73	-1.121
272.10	-3.204
272.47	-2.889
272.84	-0.667
273.21	-0.459
273.58	-0.220
273.95	-1.316
274.32	-2.489
274.69	-0.219
275.06	-2.863
275.43	-4.018
275.80	1.629
276.17	-0.837
276.54	0.204
276.91	-1.646
277.28	-0.609
277.65	-3.306
278.02	-1.670
278.39	-0.982
278.76	-2.191
279.13	-1.186
279.50	-2.584
279.87	-0.211
280.23	0.202
280.60	-3.777
280.97	-1.748
281.34	-2.901
281.71	-0.769
282.08	-2.218
282.45	-5.703
282.82	-1.938
283.19	-2.000
283.56	2.381
283.92	-2.120
284.29	-1.673
284.66	0.180
285.03	1.070
285.40	-0.369
285.77	0.351
286.14	-3.069
286.51	-0.533
286.87	-0.726
287.24	-0.512
287.61	1.322
287.98	-2.773
288.35	-1.983
288.72	-1.528
289.08	-1.017
289.45	-2.189
289.82	-2.768
290.19	0.164
290.56	-3.802
290.93	-2.226
291.29	-0.972
291.66	-0.805
292.03	0.314
292.40	0.602
292.77	0.621
293.13	-1.301
293.50	0.000
293.87	-0.460
294.24	-0.603
294.60	-1.667
294.97	0.152
295.34	-2.519
295.71	-1.190
296.08	-2.304
296.44	-2.861
296.81	-1.282
297.18	-0.845
297.55	-0.989
297.91	1.534
298.28	-0.959
298.65	-2.232
299.02	0.936
299.38	-0.401
299.75	-1.087
300.12	-0.513
300.48	1.151
300.85	-1.180
301.22	-1.423
301.59	-1.691
301.95	0.630
302.32	-1.825
302.69	0.979
303.05	-0.977
303.42	-1.125
303.79	-0.957
304.15	0.355
304.52	-0.350
304.89	-1.417
305.25	-0.855
305.62	-1.763
305.99	1.413
306.35	0.666
306.72	-1.481
307.09	0.454
307.45	-1.022
307.82	-0.894
308.19	0.000
308.55	-0.218
308.92	0.322
309.29	0.432
309.65	0.954
310.02	-1.080
310.38	0.000
310.75	-0.205
311.12	1.550
311.48	0.522
311.85	0.309
312.22	-0.206
312.58	1.017
312.95	1.121
313.31	0.400
313.68	1.106
314.05	1.187
314.41	0.604
314.78	0.300
315.14	0.987
315.51	1.216
315.87	1.258
316.24	1.069
316.61	1.919
316.97	1.493
317.34	1.156
317.70	0.835
318.07	1.772
318.43	2.060
318.80	3.005
319.16	1.126
319.53	1.880
319.89	1.129
320.26	2.157
320.62	1.635
320.99	3.383
321.35	1.084
321.72	1.740
322.08	2.572
322.45	2.574
322.81	4.131
323.18	3.266
323.54	2.957
323.91	4.263
324.27	4.468
324.64	4.479
325.00	5.148
325.37	4.706
325.73	6.037
326.10	3.897
326.46	5.166
326.83	5.021
327.19	5.171
327.56	6.644
327.92	5.692
328.29	6.840
328.65	5.727
329.01	7.244
329.38	5.709
329.74	7.418
330.11	5.621
330.47	6.721
330.84	7.791
331.20	6.949
331.56	6.837
331.93	7.371
332.29	7.671
332.66	7.814
333.02	6.425
333.38	7.706
333.75	7.747
334.11	7.289
334.48	8.208
334.84	9.011
335.20	7.890
335.57	7.130
335.93	8.684
336.29	8.857
336.66	7.665
337.02	7.658
337.38	6.328
337.75	8.341
338.11	7.603
338.47	7.740
338.84	7.713
339.20	8.172
339.56	9.091
339.93	8.377
340.29	7.795
340.65	8.566
341.02	7.841
341.38	7.414
341.74	9.229
342.11	7.423
342.47	7.811
342.83	8.060
343.20	8.284
343.56	7.918
343.92	8.681
344.28	9.083
344.65	8.333
345.01	8.739
345.37	8.638
345.73	7.692
346.10	7.441
346.46	7.880
346.82	7.137
347.19	7.477
347.55	8.106
347.91	8.346
348.27	8.035
348.63	9.935
349.00	8.274
349.36	6.792
349.72	9.156
350.08	8.180
350.45	7.801
350.81	8.121
351.17	7.556
351.53	8.353
351.89	7.518
352.26	8.682
352.62	9.293
352.98	8.386
353.34	8.793
353.70	8.417
354.07	9.441
354.43	9.012
354.79	8.796
355.15	7.428
355.51	7.969
355.87	7.984
356.24	7.784
356.60	8.622
356.96	8.930
357.32	8.314
357.68	8.582
358.04	9.469
358.40	8.662
358.77	7.651
359.13	8.493
359.49	8.012
359.85	8.613
360.21	9.056
360.57	9.413
360.93	8.815
361.29	9.641
361.66	8.308
362.02	8.136
362.38	9.464
362.74	9.890
363.10	8.608
363.46	11.111
363.82	8.965
364.18	9.624
364.54	10.650
364.90	9.993
365.26	9.344
365.62	9.551
365.98	10.384
366.35	9.648
366.71	9.655
367.07	10.021
367.43	10.501
367.79	10.241
368.15	9.531
368.51	10.210
368.87	10.989
369.23	10.526
369.59	10.625
369.95	10.641
370.31	9.705
370.67	10.340
371.03	10.131
371.39	9.972
371.75	10.587
372.11	10.617
372.47	10.991
372.83	10.987
373.19	10.286
373.55	11.612
373.91	10.526
374.27	11.636
374.63	12.146
374.99	12.726
375.35	11.306
375.71	12.154
376.07	11.841
376.42	11.325
376.78	12.614
377.14	12.339
377.50	12.701
377.86	12.354
378.22	12.877
378.58	12.786
378.94	12.885
379.30	12.797
379.66	13.722
380.02	13.131
380.38	12.628
380.74	13.482
381.09	14.470
381.45	13.604
381.81	12.946
382.17	13.596
382.53	14.347
382.89	14.713
383.25	15.352
383.61	14.564
383.97	15.064
384.32	14.643
384.68	15.961
385.04	14.976
385.40	15.520
385.76	16.220
386.12	16.115
386.48	16.027
386.83	15.706
387.19	15.840
387.55	16.172
387.91	16.598
388.27	16.526
388.62	16.226
388.98	16.778
389.34	15.483
389.70	16.139
390.06	16.532
390.42	16.346
390.77	16.151
391.13	17.143
391.49	16.906
391.85	16.646
392.20	17.051
392.56	17.104
392.92	17.171
393.28	17.968
393.64	17.739
393.99	18.092
394.35	18.491
394.71	17.974
395.07	17.702
395.42	18.236
395.78	16.970
396.14	17.632
396.50	17.187
396.85	18.075
397.21	18.651
397.57	18.602
397.92	18.208
398.28	17.389
398.64	18.620
399.00	18.933
399.35	18.828
399.71	19.280
400.07	19.224
400.42	19.161
400.78	18.605
401.14	18.503
401.49	18.868
401.85	19.402
402.21	19.487
402.57	19.478
402.92	20.138
403.28	19.792
403.63	18.334
403.99	19.764
404.35	18.237
404.70	19.193
405.06	18.685
405.42	18.696
405.77	18.552
406.13	18.966
406.49	19.473
406.84	19.136
407.20	20.082
407.55	19.126
407.91	18.264
408.27	19.608
408.62	20.265
408.98	19.345
409.34	19.257
409.69	19.597
410.05	20.133
410.40	19.926
410.76	19.265
411.11	19.888
411.47	18.926
411.83	20.355
412.18	19.431
412.54	19.829
412.89	19.198
413.25	18.890
413.60	18.955
413.96	19.409
414.31	20.612
414.67	19.302
415.03	19.470
415.38	20.494
415.74	20.168
416.09	19.501
416.45	20.106
416.80	20.351
417.16	19.668
417.51	20.355
417.87	20.324
418.22	19.975
418.58	19.576
418.93	21.337
419.29	20.013
419.64	19.347
420.00	20.960
420.35	20.284
420.71	19.988
421.06	20.828
421.42	19.965
421.77	20.324
422.12	20.369
422.48	20.631
422.83	20.672
423.19	20.156
423.54	20.576
423.90	20.763
424.25	20.871
424.61	20.929
424.96	21.358
425.31	20.850
425.67	21.490
426.02	20.367
426.38	21.597
426.73	20.865
427.09	20.833
427.44	21.534
427.79	21.744
428.15	21.903
428.50	21.056
428.85	21.103
429.21	20.919
429.56	21.563
429.92	21.543
430.27	21.984
430.62	22.414
430.98	22.060
431.33	21.932
431.68	21.501
432.04	22.328
432.39	22.678
432.74	22.002
433.10	22.454
433.45	21.819
433.80	22.508
434.16	22.837
434.51	22.411
434.86	22.378
435.22	22.049
435.57	22.827
435.92	21.630
436.28	22.908
436.63	22.329
436.98	21.936
437.34	23.213
437.69	22.695
438.04	22.235
438.39	22.864
438.75	22.817
439.10	23.098
439.45	23.114
439.81	23.253
440.16	23.169
440.51	23.412
440.86	22.325
441.22	21.946
441.57	23.263
441.92	23.427
442.27	22.673
442.63	23.981
442.98	22.517
443.33	23.394
443.68	22.981
444.03	24.116
444.39	23.201
444.74	23.844
445.09	23.904
445.44	23.748
445.79	23.763
446.15	23.932
446.50	22.809
446.85	23.704
447.20	24.055
447.55	24.309
447.91	24.144
448.26	22.793
448.61	23.769
448.96	23.810
449.31	23.563
449.66	24.327
450.02	23.712
450.37	22.609
450.72	23.842
451.07	24.073
451.42	23.296
451.77	23.998
452.12	23.778
452.47	23.804
452.83	23.471
453.18	24.225
453.53	24.627
453.88	24.940
454.23	23.156
454.58	25.171
454.93	24.244
455.28	24.984
455.63	23.587
455.98	25.361
456.34	23.507
456.69	24.828
457.04	24.216
457.39	24.043
457.74	24.926
458.09	23.840
458.44	25.462
458.79	24.383
459.14	24.815
459.49	24.985
459.84	24.115
460.19	24.045
460.54	24.622
460.89	23.543
461.24	24.104
461.59	24.326
461.94	24.443
462.29	24.598
462.64	25.231
462.99	24.766
463.34	23.835
463.69	24.173
464.04	24.253
464.39	24.134
464.74	24.704
465.09	24.354
465.44	24.083
465.79	25.324
466.14	24.338
466.49	24.180
466.84	24.910
467.19	25.623
467.54	24.241
467.89	24.353
468.24	24.762
468.59	25.047
468.94	25.466
469.29	24.561
469.64	25.741
469.99	26.131
470.34	25.251
470.68	24.201
471.03	25.327
471.38	24.444
471.73	24.965
472.08	25.368
472.43	24.260
472.78	24.267
473.13	24.851
473.48	25.016
473.83	24.628
474.17	25.414
474.52	26.023
474.87	25.874
475.22	24.602
475.57	24.722
475.92	26.458
476.27	25.771
476.61	25.239
476.96	25.154
477.31	25.834
477.66	25.291
478.01	25.068
478.36	25.458
478.70	26.535
479.05	25.095
479.40	25.389
479.75	25.382
480.10	25.397
480.45	25.097
480.79	25.222
481.14	25.941
481.49	26.283
481.84	25.751
482.19	25.765
482.53	25.095
482.88	24.490
483.23	25.258
483.58	26.179
483.92	25.657
484.27	25.831
484.62	25.054
484.97	24.786
485.31	23.840
485.66	23.842
486.01	24.485
486.36	25.204
486.70	25.698
487.05	25.006
487.40	24.813
487.75	24.958
488.09	24.892
488.44	24.966
488.79	25.256
489.13	25.219
489.48	25.326
489.83	25.677
490.17	25.207
490.52	25.136
490.87	25.081
491.22	25.362
491.56	25.139
491.91	25.906
492.26	26.226
492.60	25.119
492.95	25.131
493.30	24.917
493.64	26.046
493.99	25.239
494.34	25.571
494.68	26.124
495.03	25.287
495.37	25.369
495.72	26.130
496.07	25.528
496.41	25.984
496.76	25.616
497.11	25.624
497.45	26.245
497.80	25.213
498.14	26.031
498.49	24.912
498.84	25.485
499.18	26.023
499.53	26.206
499.87	25.772
500.22	25.931
500.56	25.813
500.91	25.665
501.26	26.346
501.60	25.662
501.95	26.425
502.29	25.602
502.64	27.204
502.98	26.114
503.33	25.799
503.67	25.575
504.02	25.109
504.36	25.931
504.71	26.089
505.06	26.360
505.40	25.699
505.75	26.575
506.09	26.491
506.44	26.416
506.78	27.446
507.13	26.210
507.47	26.865
507.82	26.536
508.16	26.891
508.51	26.584
508.85	26.553
509.19	26.426
509.54	26.586
509.88	26.436
510.23	27.096
510.57	27.937
510.92	27.444
511.26	26.209
511.61	25.972
511.95	26.239
512.30	26.718
512.64	26.711
512.98	27.558
513.33	27.787
513.67	27.303
514.02	27.125
514.36	27.756
514.70	27.391
515.05	27.158
515.39	27.566
515.74	28.563
516.08	28.415
516.42	27.762
516.77	29.001
517.11	28.547
517.46	28.768
517.80	28.460
518.14	27.597
518.49	28.392
518.83	28.665
519.17	29.366
519.52	28.745
519.86	27.599
520.20	29.279
520.55	28.246
520.89	28.428
521.23	28.449
521.58	29.028
521.92	29.386
522.26	29.587
522.61	28.707
522.95	29.164
523.29	28.966
523.64	29.044
523.98	28.517
524.32	30.170
524.66	28.199
525.01	29.287
525.35	28.866
525.69	30.124
526.04	29.243
526.38	30.172
526.72	28.672
527.06	29.948
527.41	28.911
527.75	28.581
528.09	29.385
528.43	28.852
528.78	30.025
529.12	30.346
529.46	28.866
529.80	29.503
530.15	28.654
530.49	28.913
530.83	29.666
531.17	30.236
531.51	28.801
531.86	29.230
532.20	29.015
532.54	30.080
532.88	30.237
533.22	29.545
533.57	30.026
533.91	28.527
534.25	28.913
534.59	28.420
534.93	28.251
535.27	29.075
535.62	29.987
535.96	29.864
536.30	29.058
536.64	28.884
536.98	31.073
537.32	29.578
537.66	28.853
538.01	29.210
538.35	29.054
538.69	28.877
539.03	30.941
539.37	29.541
539.71	29.286
540.05	29.335
540.39	29.086
540.73	30.822
541.07	30.191
541.42	28.494
541.76	28.106
542.10	29.305
542.44	29.580
542.78	29.986
543.12	29.735
543.46	28.356
543.80	28.629
544.14	29.550
544.48	29.856
544.82	28.417
545.16	29.175
545.50	29.004
545.84	29.346
546.18	29.681
546.52	29.374
546.86	30.698
547.20	30.520
547.54	28.719
547.88	28.600
548.22	28.506
548.56	29.860
548.90	28.774
549.24	28.591
549.58	30.346
549.92	30.671
550.26	30.347
550.60	30.085
550.94	28.394
551.28	29.947
551.62	30.281
551.96	29.378
552.30	29.408
552.64	30.260
552.98	30.904
553.32	30.087
553.66	31.363
554.00	29.424
554.34	29.025
554.68	30.629
555.02	30.318
555.36	29.691
555.69	29.799
556.03	29.474
556.37	29.516
556.71	29.563
557.05	30.673
557.39	28.582
557.73	30.416
558.07	30.821
558.41	29.020
558.75	30.190
559.08	28.482
559.42	30.398
559.76	29.755
560.10	29.978
560.44	30.347
560.78	29.645
561.12	29.331
561.45	29.726
561.79	28.850
562.13	29.874
562.47	29.412
562.81	29.632
563.15	29.881
563.48	30.408
563.82	29.953
564.16	29.074
564.50	29.435
564.84	30.026
565.17	28.647
565.51	29.726
565.85	30.156
566.19	30.896
566.52	30.137
566.86	29.077
567.20	30.751
567.54	30.301
567.88	29.202
568.21	30.034
568.55	29.321
568.89	28.330
569.23	28.783
569.56	28.331
569.90	28.167
570.24	28.523
570.57	27.944
570.91	28.154
571.25	28.113
571.59	27.568
571.92	28.036
572.26	27.891
572.60	27.552
572.93	27.377
573.27	26.311
573.61	27.101
573.95	27.382
574.28	27.007
574.62	27.250
574.96	26.745
575.29	26.905
575.63	27.980
575.97	26.645
576.30	27.432
576.64	27.076
576.98	27.022
577.31	27.080
577.65	27.376
577.98	27.444
578.32	27.089
578.66	27.084
578.99	26.702
579.33	27.129
579.67	26.782
580.00	26.959
580.34	26.957
580.67	26.869
581.01	26.828
581.35	27.246
581.68	26.870
582.02	27.171
582.35	27.573
582.69	26.987
583.02	27.476
583.36	27.788
583.70	27.010
584.03	27.505
584.37	27.470
584.70	27.333
585.04	27.165
585.37	26.754
585.71	27.358
586.04	27.128
586.38	26.437
586.72	27.903
587.05	27.641
587.39	27.096
587.72	26.679
588.06	27.098
588.39	27.514
588.73	27.610
589.06	28.389
589.40	28.032
589.73	28.258
590.07	27.385
590.40	28.192
590.73	27.829
591.07	28.033
591.40	29.116
591.74	28.584
592.07	28.423
592.41	28.577
592.74	27.902
593.08	28.218
593.41	27.895
593.75	27.596
594.08	29.008
594.41	28.466
594.75	28.350
595.08	28.609
595.42	27.962
595.75	28.078
596.09	27.862
596.42	28.682
596.75	28.116
597.09	29.920
597.42	28.503
597.75	28.388
598.09	28.152
598.42	28.546
598.76	27.907
599.09	27.901
599.42	27.912
599.76	27.520
600.09	28.855
600.42	28.371
600.76	27.684
601.09	28.219
601.42	27.701
601.76	28.193
602.09	28.303
602.42	28.313
602.76	27.960
603.09	28.105
603.42	28.888
603.76	28.919
604.09	28.434
604.42	28.185
604.76	28.783
605.09	28.391
605.42	28.236
605.75	28.245
606.09	28.601
606.42	27.901
606.75	27.694
607.09	29.378
607.42	28.169
607.75	27.859
608.08	29.191
608.42	29.281
608.75	27.570
609.08	28.787
609.41	28.102
609.75	28.181
610.08	29.020
610.41	28.819
610.74	28.191
611.07	29.108
611.41	27.685
611.74	28.946
612.07	29.323
612.40	29.158
612.73	29.133
613.07	28.453
613.40	29.228
613.73	28.338
614.06	27.897
614.39	30.214
614.72	27.989
615.06	29.022
615.39	28.269
615.72	28.246
616.05	28.879
616.38	29.658
616.71	29.369
617.05	29.373
617.38	29.102
617.71	29.730
618.04	29.503
618.37	30.063
618.70	30.248
619.03	29.181
619.36	31.572
619.69	30.223
620.03	29.614
620.36	28.903
620.69	30.366
621.02	30.365
621.35	29.032
621.68	30.820
622.01	30.097
622.34	31.444
622.67	30.156
623.00	29.992
623.33	30.522
623.66	29.985
623.99	30.376
624.32	29.985
624.65	29.875
624.99	29.649
625.32	30.464
625.65	30.070
625.98	30.047
626.31	30.750
626.64	29.456
626.97	31.421
627.30	31.149
627.63	29.706
627.96	29.765
628.29	30.607
628.62	31.328
628.95	31.201
629.28	30.357
629.61	30.029
629.94	30.246
630.26	31.412
630.59	31.357
630.92	30.030
631.25	32.258
631.58	31.005
631.91	30.745
632.24	31.333
632.57	32.556
632.90	32.759
633.23	31.776
633.56	31.111
633.89	32.665
634.22	32.349
634.55	31.490
634.88	31.560
