SpectraSuite Data File
++++++++++++++++++++++++++++++++++++
Date: Sat May 16 11:42:22 PDT 2015
User: schluterlab
Dark Spectrum Present: Yes
Reference Spectrum Present: Yes
Number of Sampled Component Spectra: 1
Spectrometers: USB2E3373
Integration Time (usec): 3000 (USB2E3373)
Spectra Averaged: 3 (USB2E3373)
Boxcar Smoothing: 0 (USB2E3373)
Correct for Electrical Dark: No (USB2E3373)
Strobe/Lamp Enabled: No (USB2E3373)
Correct for Detector Non-linearity: No (USB2E3373)
Correct for Stray Light: No (USB2E3373)
Number of Pixels in Processed Spectrum: 2048
>>>>>Begin Processed Spectral Data<<<<<
178.53	0.000
178.91	100.000
179.29	233.333
179.67	-700.000
180.04	-61.538
180.42	-100.000
180.80	250.000
181.18	500.000
181.56	-125.000
181.94	600.000
182.31	425.000
182.69	-53.846
183.07	-666.667
183.45	1200.000
183.83	366.667
184.20	-257.143
184.58	-125.000
184.96	-300.000
185.34	112.500
185.72	-700.000
186.09	300.000
186.47	-125.000
186.85	-225.000
187.23	-137.500
187.61	-425.000
187.98	-312.500
188.36	-137.500
188.74	-75.000
189.12	1500.000
189.49	428.571
189.87	-16.667
190.25	550.000
190.63	-85.714
191.00	-155.556
191.38	400.000
191.76	-13.333
192.14	640.000
192.51	-400.000
192.89	-866.667
193.27	0.000
193.65	-177.778
194.02	-285.714
194.40	366.667
194.78	-100.000
195.15	-1500.000
195.53	-118.182
195.91	-483.333
196.29	400.000
196.66	-900.000
197.04	2300.000
197.42	-325.000
197.79	6.667
198.17	-466.667
198.55	-1050.000
198.92	-1100.000
199.30	237.500
199.68	-150.000
200.05	-200.000
200.43	-255.556
200.81	-1800.000
201.18	-133.333
201.56	328.571
201.94	-40.000
202.31	-9.091
202.69	-70.000
203.07	-180.000
203.44	933.333
203.82	-200.000
204.19	-350.000
204.57	-175.000
204.95	-1400.000
205.32	-37.500
205.70	1200.000
206.08	-1600.000
206.45	-77.778
206.83	-1150.000
207.20	-250.000
207.58	-433.333
207.96	-333.333
208.33	-137.500
208.71	-144.444
209.08	220.000
209.46	-257.143
209.84	600.000
210.21	0.000
210.59	40.000
210.96	1200.000
211.34	-266.667
211.71	-200.000
212.09	400.000
212.46	1350.000
212.84	-2300.000
213.22	733.333
213.59	175.000
213.97	-44.444
214.34	140.000
214.72	-170.000
215.09	-133.333
215.47	-233.333
215.84	-20.000
216.22	-100.000
216.59	-20.000
216.97	-500.000
217.34	1100.000
217.72	-100.000
218.09	-250.000
218.47	-200.000
218.84	171.429
219.22	-214.286
219.59	0.000
219.97	442.857
220.34	700.000
220.72	287.500
221.09	-69.231
221.47	0.000
221.84	366.667
222.22	-650.000
222.59	1000.000
222.97	-287.500
223.34	-800.000
223.72	-133.333
224.09	-42.857
224.46	-375.000
224.84	-92.857
225.21	-157.143
225.59	-163.636
225.96	-137.500
226.34	-142.857
226.71	-177.778
227.08	-10.000
227.46	1200.000
227.83	-171.429
228.21	-250.000
228.58	850.000
228.95	12.500
229.33	-1200.000
229.70	-280.000
230.08	-1100.000
230.45	-91.667
230.82	-33.333
231.20	-1300.000
231.57	-700.000
231.95	2700.000
232.32	4.762
232.69	-155.556
233.07	-257.143
233.44	-1100.000
233.81	-86.667
234.19	-66.667
234.56	-25.000
234.93	-3.125
235.31	-357.143
235.68	-121.429
236.05	17.647
236.43	-81.818
236.80	-16.129
237.17	-62.500
237.55	-66.667
237.92	-77.273
238.29	11.429
238.67	17.647
239.04	13.889
239.41	-45.161
239.79	-46.154
240.16	-26.190
240.53	-18.182
240.91	15.385
241.28	20.000
241.65	15.385
242.02	1.639
242.40	-16.393
242.77	12.121
243.14	-10.169
243.51	-8.571
243.89	-1.266
244.26	7.865
244.63	9.474
245.00	-2.105
245.38	9.322
245.75	14.159
246.12	4.800
246.49	11.811
246.87	12.195
247.24	5.085
247.61	-0.847
247.98	8.451
248.36	2.098
248.73	12.658
249.10	10.828
249.47	15.789
249.84	12.500
250.22	8.929
250.59	10.734
250.96	15.183
251.33	14.692
251.70	19.231
252.08	15.166
252.45	9.953
252.82	11.905
253.19	12.766
253.56	10.484
253.94	17.300
254.31	13.305
254.68	15.041
255.05	16.129
255.42	15.079
255.79	11.470
256.16	18.039
256.54	18.382
256.91	16.667
257.28	11.722
257.65	12.766
258.02	16.038
258.39	16.388
258.76	12.838
259.14	13.580
259.51	17.049
259.88	14.329
260.25	15.528
260.62	11.576
260.99	15.430
261.36	15.549
261.73	14.451
262.10	15.278
262.47	10.826
262.85	15.714
263.22	15.759
263.59	13.231
263.96	15.072
264.33	14.092
264.70	16.851
265.07	11.538
265.44	12.661
265.81	15.762
266.18	14.430
266.55	12.990
266.92	16.373
267.29	16.707
267.66	14.321
268.03	15.459
268.40	15.023
268.77	14.458
269.14	14.849
269.51	16.322
269.88	14.220
270.25	16.317
270.62	14.645
270.99	14.865
271.36	13.287
271.73	15.247
272.10	15.789
272.47	12.889
272.84	16.667
273.21	14.908
273.58	14.066
273.95	15.132
274.32	14.932
274.69	15.317
275.06	15.133
275.43	15.402
275.80	14.868
276.17	14.226
276.54	15.275
276.91	13.374
277.28	15.822
277.65	13.430
278.02	14.405
278.39	14.342
278.76	13.944
279.13	15.415
279.50	14.314
279.87	13.531
280.23	16.397
280.60	13.121
280.97	14.757
281.34	11.025
281.71	16.731
282.08	15.121
282.45	10.794
282.82	15.310
283.19	14.000
283.56	15.934
283.92	14.841
284.29	13.011
284.66	14.568
285.03	16.221
285.40	14.576
285.77	14.912
286.14	13.538
286.51	11.901
286.87	15.426
287.24	15.188
287.61	14.711
287.98	12.825
288.35	10.579
288.72	15.450
289.08	12.373
289.45	13.636
289.82	11.246
290.19	14.286
290.56	10.909
290.93	12.401
291.29	11.183
291.66	12.077
292.03	13.187
292.40	13.855
292.77	12.267
293.13	12.195
293.50	13.076
293.87	12.270
294.24	12.066
294.60	11.667
294.97	13.354
295.34	11.111
295.71	10.268
296.08	10.445
296.44	10.300
296.81	13.533
297.18	11.690
297.55	12.571
297.91	13.668
298.28	10.685
298.65	12.134
299.02	12.701
299.38	12.299
299.75	13.043
300.12	11.923
300.48	12.916
300.85	12.058
301.22	12.419
301.59	12.744
301.95	12.343
302.32	9.648
302.69	11.995
303.05	10.989
303.42	11.375
303.79	10.407
304.15	12.085
304.52	11.902
304.89	10.744
305.25	11.477
305.62	11.633
305.99	12.956
306.35	12.209
306.72	10.934
307.09	12.372
307.45	10.897
307.82	11.397
308.19	11.409
308.55	12.200
308.92	11.493
309.29	11.784
309.65	12.513
310.02	11.555
310.38	11.676
310.75	12.602
311.12	12.087
311.48	12.526
311.85	11.226
312.22	11.329
312.58	13.530
312.95	12.334
313.31	12.987
313.68	13.367
314.05	12.760
314.41	11.670
314.78	10.090
315.14	13.129
315.51	13.273
315.87	13.166
316.24	13.508
316.61	13.532
316.97	13.134
317.34	12.524
317.70	12.338
318.07	12.220
318.43	12.547
318.80	13.709
319.16	10.976
319.53	13.346
319.89	12.700
320.26	12.451
320.62	12.788
320.99	13.731
321.35	12.414
321.72	13.613
322.08	12.859
322.45	12.673
322.81	13.641
323.18	14.217
323.54	14.325
323.91	13.809
324.27	13.973
324.64	14.260
325.00	14.223
325.37	14.118
325.73	14.961
326.10	14.172
326.46	14.623
326.83	14.809
327.19	15.513
327.56	15.758
327.92	14.783
328.29	15.931
328.65	14.455
329.01	16.431
329.38	15.879
329.74	17.216
330.11	16.319
330.47	16.803
330.84	17.782
331.20	15.704
331.56	15.861
331.93	17.407
332.29	17.534
332.66	17.735
333.02	17.376
333.38	17.473
333.75	17.898
334.11	16.800
334.48	17.211
334.84	18.023
335.20	16.401
335.57	18.773
335.93	19.338
336.29	18.158
336.66	16.564
337.02	17.928
337.38	18.360
337.75	18.174
338.11	18.605
338.47	18.505
338.84	18.240
339.20	17.399
339.56	19.875
339.93	18.783
340.29	17.095
340.65	17.395
341.02	19.477
341.38	16.849
341.74	18.290
342.11	18.174
342.47	17.511
342.83	17.884
343.20	19.300
343.56	18.286
343.92	18.447
344.28	20.269
344.65	18.069
345.01	18.571
345.37	18.937
345.73	17.021
346.10	16.762
346.46	17.709
346.82	19.166
347.19	18.652
347.55	18.218
347.91	19.134
348.27	17.263
348.63	19.305
349.00	19.650
349.36	17.564
349.72	19.904
350.08	17.963
350.45	18.203
350.81	18.869
351.17	18.408
351.53	18.616
351.89	18.917
352.26	19.070
352.62	19.124
352.98	18.750
353.34	19.105
353.70	17.992
354.07	19.748
354.43	19.447
354.79	18.780
355.15	19.089
355.51	18.984
355.87	17.787
356.24	18.983
356.60	19.500
356.96	19.169
357.32	18.369
357.68	19.770
358.04	18.784
358.40	19.876
358.77	19.861
359.13	18.516
359.49	18.745
359.85	18.293
360.21	19.559
360.57	20.181
360.93	19.778
361.29	19.507
361.66	19.131
362.02	19.305
362.38	19.296
362.74	18.828
363.10	19.154
363.46	20.513
363.82	19.534
364.18	19.754
364.54	19.871
364.90	20.266
365.26	19.544
365.62	20.955
365.98	20.199
366.35	19.577
366.71	19.168
367.07	19.901
367.43	20.522
367.79	20.137
368.15	19.915
368.51	21.049
368.87	20.810
369.23	20.351
369.59	20.486
369.95	20.296
370.31	19.972
370.67	19.234
371.03	20.481
371.39	20.297
371.75	19.599
372.11	20.301
372.47	20.897
372.83	20.515
373.19	20.143
373.55	22.308
373.91	21.124
374.27	20.602
374.63	20.704
374.99	20.793
375.35	21.400
375.71	21.540
376.07	20.671
376.42	19.934
376.78	22.288
377.14	21.424
377.50	20.696
377.86	21.782
378.22	21.545
378.58	21.557
378.94	20.345
379.30	21.389
379.66	21.554
380.02	21.509
380.38	21.269
380.74	20.457
381.09	21.734
381.45	21.897
381.81	21.113
382.17	21.366
382.53	21.094
382.89	21.711
383.25	21.915
383.61	21.993
383.97	21.678
384.32	22.591
384.68	22.068
385.04	21.920
385.40	22.215
385.76	21.951
386.12	21.861
386.48	23.020
386.83	21.902
387.19	22.714
387.55	22.653
387.91	23.177
388.27	21.291
388.62	22.356
388.98	21.987
389.34	21.542
389.70	21.742
390.06	22.250
390.42	22.756
390.77	21.640
391.13	22.981
391.49	22.770
391.85	22.444
392.20	21.723
392.56	22.541
392.92	21.905
393.28	22.675
393.64	23.151
393.99	23.200
394.35	22.689
394.71	22.854
395.07	23.729
395.42	22.825
395.78	21.622
396.14	24.112
396.50	22.875
396.85	22.579
397.21	22.661
397.57	22.736
397.92	22.892
398.28	23.778
398.64	22.903
399.00	23.764
399.35	23.055
399.71	23.868
400.07	22.985
400.42	23.844
400.78	22.719
401.14	23.713
401.49	22.936
401.85	22.819
402.21	22.944
402.57	22.937
402.92	24.103
403.28	23.468
403.63	23.068
403.99	23.369
404.35	23.188
404.70	22.703
405.06	23.414
405.42	22.325
405.77	22.285
406.13	24.020
406.49	23.008
406.84	22.795
407.20	24.205
407.55	23.369
407.91	23.057
408.27	24.510
408.62	23.632
408.98	23.347
409.34	23.583
409.69	23.503
410.05	23.954
410.40	23.912
410.76	23.355
411.11	24.065
411.47	23.529
411.83	24.572
412.18	23.700
412.54	23.429
412.89	24.241
413.25	23.081
413.60	23.815
413.96	24.030
414.31	23.853
414.67	23.619
415.03	24.191
415.38	24.463
415.74	25.387
416.09	23.785
416.45	22.950
416.80	24.837
417.16	23.787
417.51	24.228
417.87	24.272
418.22	23.831
418.58	24.454
418.93	24.586
419.29	23.777
419.64	23.995
420.00	25.638
420.35	24.128
420.71	24.790
421.06	25.148
421.42	22.834
421.77	24.902
422.12	25.518
422.48	24.265
422.83	24.146
423.19	24.499
423.54	24.899
423.90	23.944
424.25	23.812
424.61	25.452
424.96	25.746
425.31	25.098
425.67	24.928
426.02	24.670
426.38	25.590
426.73	25.307
427.09	25.061
427.44	25.057
427.79	24.244
428.15	25.733
428.50	25.455
428.85	25.300
429.21	25.125
429.56	25.208
429.92	24.599
430.27	26.022
430.62	25.601
430.98	25.719
431.33	25.454
431.68	26.542
432.04	26.581
432.39	25.242
432.74	25.839
433.10	25.605
433.45	24.755
433.80	26.540
434.16	25.739
434.51	25.973
434.86	26.831
435.22	25.724
435.57	25.949
435.92	25.615
436.28	26.350
436.63	26.343
436.98	26.289
437.34	25.399
437.69	26.371
438.04	26.602
438.39	25.933
438.75	26.601
439.10	26.374
439.45	25.649
439.81	26.265
440.16	26.519
440.51	25.706
440.86	26.258
441.22	25.705
441.57	25.789
441.92	26.803
442.27	25.325
442.63	26.717
442.98	25.847
443.33	26.634
443.68	26.055
444.03	26.817
444.39	26.040
444.74	26.927
445.09	26.371
445.44	27.181
445.79	26.874
446.15	27.218
446.50	25.857
446.85	26.321
447.20	26.813
447.55	26.906
447.91	27.569
448.26	25.978
448.61	25.806
448.96	27.507
449.31	27.114
449.66	27.991
450.02	26.427
450.37	27.188
450.72	27.458
451.07	27.467
451.42	26.332
451.77	27.349
452.12	27.354
452.47	27.078
452.83	27.665
453.18	28.083
453.53	27.052
453.88	27.392
454.23	27.449
454.58	29.086
454.93	28.338
455.28	27.597
455.63	28.256
455.98	28.012
456.34	27.001
456.69	27.267
457.04	27.474
457.39	28.170
457.74	26.757
458.09	27.378
458.44	28.349
458.79	27.859
459.14	28.523
459.49	28.419
459.84	28.162
460.19	28.819
460.54	27.949
460.89	27.915
461.24	28.415
461.59	28.253
461.94	27.817
462.29	27.278
462.64	29.051
462.99	28.983
463.34	28.562
463.69	28.626
464.04	28.295
464.39	27.957
464.74	27.719
465.09	27.962
465.44	28.370
465.79	28.652
466.14	29.459
466.49	28.728
466.84	28.031
467.19	29.925
467.54	27.595
467.89	29.038
468.24	28.325
468.59	28.232
468.94	28.489
469.29	29.760
469.64	28.639
469.99	30.182
470.34	29.259
470.68	29.869
471.03	28.837
471.38	28.889
471.73	29.930
472.08	28.514
472.43	29.344
472.78	29.733
473.13	29.092
473.48	28.845
473.83	29.094
474.17	29.554
474.52	31.010
474.87	29.837
475.22	29.145
475.57	28.611
475.92	29.266
476.27	28.171
476.61	29.239
476.96	29.178
477.31	29.925
477.66	28.445
478.01	29.714
478.36	29.492
478.70	30.112
479.05	29.529
479.40	28.653
479.75	29.867
480.10	28.968
480.45	28.482
480.79	30.553
481.14	30.607
481.49	29.961
481.84	29.357
482.19	30.059
482.53	30.445
482.88	29.758
483.23	29.531
483.58	29.926
483.92	29.957
484.27	29.818
484.62	29.546
484.97	29.228
485.31	28.000
485.66	27.442
486.01	27.151
486.36	28.137
486.70	29.129
487.05	29.068
487.40	28.632
487.75	29.450
488.09	28.938
488.44	29.635
488.79	29.254
489.13	29.973
489.48	29.853
489.83	31.004
490.17	30.257
490.52	29.620
490.87	29.192
491.22	29.706
491.56	30.648
491.91	30.725
492.26	31.745
492.60	30.637
492.95	30.604
493.30	30.348
493.64	30.465
493.99	30.545
494.34	31.048
494.68	31.882
495.03	29.876
495.37	31.416
495.72	30.697
496.07	31.300
496.41	31.172
496.76	30.502
497.11	30.947
497.45	32.136
497.80	30.915
498.14	30.452
498.49	30.889
498.84	29.903
499.18	30.409
499.53	30.443
499.87	31.322
500.22	31.176
500.56	31.766
500.91	31.281
501.26	31.781
501.60	30.284
501.95	31.498
502.29	31.082
502.64	31.400
502.98	30.474
503.33	30.968
503.67	31.082
504.02	32.352
504.36	31.324
504.71	31.256
505.06	31.053
505.40	31.737
505.75	32.063
506.09	31.951
506.44	33.033
506.78	31.611
507.13	31.411
507.47	31.977
507.82	31.957
508.16	31.969
508.51	33.024
508.85	31.832
509.19	32.077
509.54	32.717
509.88	31.968
510.23	31.237
510.57	32.751
510.92	31.955
511.26	32.483
511.61	31.425
511.95	31.627
512.30	31.941
512.64	31.386
512.98	32.398
513.33	33.169
513.67	32.942
514.02	31.711
514.36	33.906
514.70	32.145
515.05	33.276
515.39	32.872
515.74	34.613
516.08	32.565
516.42	33.711
516.77	34.084
517.11	33.124
517.46	34.270
517.80	34.296
518.14	33.635
518.49	33.592
518.83	33.709
519.17	33.570
519.52	33.025
519.86	34.946
520.20	34.535
520.55	34.708
520.89	33.813
521.23	33.089
521.58	34.420
521.92	34.896
522.26	33.651
522.61	34.728
522.95	34.078
523.29	35.110
523.64	34.853
523.98	34.309
524.32	34.507
524.66	33.727
525.01	35.324
525.35	35.052
525.69	34.483
526.04	35.052
526.38	35.582
526.72	34.227
527.06	35.156
527.41	34.191
527.75	34.587
528.09	36.201
528.43	35.213
528.78	34.108
529.12	34.443
529.46	34.536
529.80	35.249
530.15	35.608
530.49	33.829
530.83	35.232
531.17	34.343
531.51	34.695
531.86	34.365
532.20	34.818
532.54	34.960
532.88	34.058
533.22	35.094
533.57	35.640
533.91	33.583
534.25	34.318
534.59	34.166
534.93	33.914
535.27	34.487
535.62	34.719
535.96	34.777
536.30	34.293
536.64	35.724
536.98	35.452
537.32	34.001
537.66	34.623
538.01	34.227
538.35	35.203
538.69	33.757
539.03	34.800
539.37	34.731
539.71	34.089
540.05	34.750
540.39	35.388
540.73	35.729
541.07	36.066
541.42	35.652
541.76	33.422
542.10	36.394
542.44	34.444
542.78	33.921
543.12	35.777
543.46	34.178
543.80	34.448
544.14	33.647
544.48	34.777
544.82	33.694
545.16	34.406
545.50	33.715
545.84	34.910
546.18	35.506
546.52	33.997
546.86	34.829
547.20	35.302
547.54	33.953
547.88	34.107
548.22	32.831
548.56	33.133
548.90	34.636
549.24	35.319
549.58	34.439
549.92	34.912
550.26	35.332
550.60	33.642
550.94	34.088
551.28	34.688
551.62	34.490
551.96	35.094
552.30	34.286
552.64	34.905
552.98	35.459
553.32	34.488
553.66	34.463
554.00	35.181
554.34	33.574
554.68	33.772
555.02	34.588
555.36	34.939
555.69	33.883
556.03	34.456
556.37	33.073
556.71	34.860
557.05	34.516
557.39	35.115
557.73	33.990
558.07	35.192
558.41	33.882
558.75	34.981
559.08	34.786
559.42	35.452
559.76	35.123
560.10	34.676
560.44	34.971
560.78	33.820
561.12	33.885
561.45	35.479
561.79	34.425
562.13	34.362
562.47	33.403
562.81	34.512
563.15	33.730
563.48	33.656
563.82	33.942
564.16	34.145
564.50	33.737
564.84	33.995
565.17	33.289
565.51	34.094
565.85	33.604
566.19	34.387
566.52	33.790
566.86	33.818
567.20	34.746
567.54	33.668
567.88	33.222
568.21	32.662
568.55	32.609
568.89	32.306
569.23	32.207
569.56	31.148
569.90	32.101
570.24	32.018
570.57	30.721
570.91	30.160
571.25	30.545
571.59	31.470
571.92	30.149
572.26	30.198
572.60	30.562
572.93	30.071
573.27	30.061
573.61	29.682
573.95	30.468
574.28	29.622
574.62	30.147
574.96	29.262
575.29	29.726
575.63	29.387
575.97	29.207
576.30	29.351
576.64	29.843
576.98	29.485
577.31	29.011
577.65	29.524
577.98	29.583
578.32	28.983
578.66	29.892
578.99	29.615
579.33	30.344
579.67	29.673
580.00	29.911
580.34	29.207
580.67	29.493
581.01	28.931
581.35	29.308
581.68	28.779
582.02	29.080
582.35	28.857
582.69	29.543
583.02	29.487
583.36	29.623
583.70	29.672
584.03	30.145
584.37	30.122
584.70	29.923
585.04	29.646
585.37	28.711
585.71	29.415
586.04	29.965
586.38	29.591
586.72	29.453
587.05	29.907
587.39	29.801
587.72	29.679
588.06	30.399
588.39	29.764
588.73	30.296
589.06	30.115
589.40	30.917
589.73	30.772
590.07	30.808
590.40	30.738
590.73	30.388
591.07	30.820
591.40	31.672
591.74	30.539
592.07	31.396
592.41	30.616
592.74	29.939
593.08	30.518
593.41	30.230
593.75	29.805
594.08	30.805
594.41	31.460
594.75	30.880
595.08	30.075
595.42	30.527
595.75	29.805
596.09	31.005
596.42	31.219
596.75	29.668
597.09	31.567
597.42	30.292
597.75	30.735
598.09	30.682
598.42	30.270
598.76	30.274
599.09	29.755
599.42	30.604
599.76	30.313
600.09	30.802
600.42	30.194
600.76	30.584
601.09	29.814
601.42	30.154
601.76	29.907
602.09	30.061
602.42	30.329
602.76	30.328
603.09	31.089
603.42	30.862
603.76	30.475
604.09	31.438
604.42	29.559
604.76	30.789
605.09	31.239
605.42	30.718
605.75	29.797
606.09	30.552
606.42	30.666
606.75	30.657
607.09	30.481
607.42	30.546
607.75	31.700
608.08	30.999
608.42	31.126
608.75	30.280
609.08	31.856
609.41	30.244
609.75	30.375
610.08	30.735
610.41	30.747
610.74	32.012
611.07	31.947
611.41	30.761
611.74	31.260
612.07	31.794
612.40	30.970
612.73	31.772
613.07	31.921
613.40	33.005
613.73	31.662
614.06	30.368
614.39	32.244
614.72	31.006
615.06	31.739
615.39	31.036
615.72	31.287
616.05	30.094
616.38	31.689
616.71	31.171
617.05	31.303
617.38	32.012
617.71	31.204
618.04	31.988
618.37	32.138
618.70	32.725
619.03	31.889
619.36	33.474
619.69	33.381
620.03	31.887
620.36	32.278
620.69	32.663
621.02	32.953
621.35	33.387
621.68	34.344
622.01	33.900
622.34	33.307
622.67	33.672
623.00	32.976
623.33	33.582
623.66	32.053
623.99	33.308
624.32	33.110
624.65	33.186
624.99	33.234
625.32	32.260
625.65	33.256
625.98	32.864
626.31	34.095
626.64	33.975
626.97	34.332
627.30	33.872
627.63	33.161
627.96	34.030
628.29	34.559
628.62	34.193
628.95	35.531
629.28	34.868
629.61	34.053
629.94	34.216
630.26	34.791
630.59	36.583
630.92	33.834
631.25	34.980
