SpectraSuite Data File
++++++++++++++++++++++++++++++++++++
Date: Sat May 16 11:17:25 PDT 2015
User: schluterlab
Dark Spectrum Present: Yes
Reference Spectrum Present: Yes
Number of Sampled Component Spectra: 1
Spectrometers: USB2E3373
Integration Time (usec): 3000 (USB2E3373)
Spectra Averaged: 3 (USB2E3373)
Boxcar Smoothing: 0 (USB2E3373)
Correct for Electrical Dark: No (USB2E3373)
Strobe/Lamp Enabled: No (USB2E3373)
Correct for Detector Non-linearity: No (USB2E3373)
Correct for Stray Light: No (USB2E3373)
Number of Pixels in Processed Spectrum: 2048
>>>>>Begin Processed Spectral Data<<<<<
178.53	0.000
178.91	80.000
179.29	333.333
179.67	-1400.000
180.04	15.385
180.42	1000.000
180.80	225.000
181.18	425.000
181.56	-100.000
181.94	-500.000
182.31	475.000
182.69	69.231
183.07	-366.667
183.45	1400.000
183.83	333.333
184.20	-185.714
184.58	12.500
184.96	-100.000
185.34	100.000
185.72	-400.000
186.09	33.333
186.47	-75.000
186.85	-150.000
187.23	50.000
187.61	-200.000
187.98	-237.500
188.36	-125.000
188.74	-37.500
189.12	1000.000
189.49	285.714
189.87	-16.667
190.25	125.000
190.63	0.000
191.00	-33.333
191.38	320.000
191.76	40.000
192.14	460.000
192.51	-100.000
192.89	-300.000
193.27	0.000
193.65	-155.556
194.02	-100.000
194.40	366.667
194.78	10.000
195.15	-1500.000
195.53	-118.182
195.91	-300.000
196.29	20.000
196.66	-466.667
197.04	2600.000
197.42	-350.000
197.79	60.000
198.17	-300.000
198.55	-600.000
198.92	-900.000
199.30	212.500
199.68	-300.000
200.05	-111.111
200.43	-111.111
200.81	-1200.000
201.18	-83.333
201.56	157.143
201.94	-73.333
202.31	81.818
202.69	30.000
203.07	-100.000
203.44	466.667
203.82	-200.000
204.19	-275.000
204.57	-75.000
204.95	-1700.000
205.32	-12.500
205.70	300.000
206.08	-1500.000
206.45	-16.667
206.83	-1100.000
207.20	350.000
207.58	-866.667
207.96	-433.333
208.33	-100.000
208.71	-122.222
209.08	80.000
209.46	-28.571
209.84	750.000
210.21	0.000
210.59	45.000
210.96	100.000
211.34	-83.333
211.71	0.000
212.09	275.000
212.46	950.000
212.84	-1600.000
213.22	600.000
213.59	75.000
213.97	44.444
214.34	110.000
214.72	-120.000
215.09	-266.667
215.47	-250.000
215.84	-70.000
216.22	-90.000
216.59	33.333
216.97	-225.000
217.34	650.000
217.72	-157.143
218.09	-216.667
218.47	-171.429
218.84	-28.571
219.22	85.714
219.59	0.000
219.97	200.000
220.34	225.000
220.72	87.500
221.09	-46.154
221.47	0.000
221.84	466.667
222.22	-300.000
222.59	-0.000
222.97	-112.500
223.34	-800.000
223.72	100.000
224.09	-85.714
224.46	-400.000
224.84	-57.143
225.21	-128.571
225.59	-63.636
225.96	-250.000
226.34	100.000
226.71	-200.000
227.08	55.000
227.46	800.000
227.83	57.143
228.21	-162.500
228.58	550.000
228.95	18.750
229.33	-800.000
229.70	-200.000
230.08	-800.000
230.45	-25.000
230.82	150.000
231.20	-600.000
231.57	-600.000
231.95	1900.000
232.32	90.476
232.69	-66.667
233.07	-71.429
233.44	-1050.000
233.81	-13.333
234.19	-88.889
234.56	-6.250
234.93	21.875
235.31	-171.429
235.68	-142.857
236.05	-88.235
236.43	-31.818
236.80	-12.903
237.17	25.000
237.55	-42.857
237.92	-68.182
238.29	-14.286
238.67	5.882
239.04	16.667
239.41	-35.484
239.79	-25.641
240.16	-26.190
240.53	-9.091
240.91	-12.821
241.28	14.545
241.65	3.077
242.02	-8.197
242.40	-4.918
242.77	12.121
243.14	-22.034
243.51	-15.714
243.89	0.000
244.26	-1.124
244.63	12.632
245.00	8.421
245.38	3.390
245.75	7.080
246.12	4.800
246.49	5.512
246.87	0.813
247.24	0.000
247.61	-1.695
247.98	8.451
248.36	4.196
248.73	1.266
249.10	-3.185
249.47	8.772
249.84	6.818
250.22	0.595
250.59	7.345
250.96	2.094
251.33	8.057
251.70	2.404
252.08	4.265
252.45	6.635
252.82	2.857
253.19	5.106
253.56	6.855
253.94	5.063
254.31	3.863
254.68	6.504
255.05	7.661
255.42	5.952
255.79	5.735
256.16	5.098
256.54	10.662
256.91	9.091
257.28	6.227
257.65	3.546
258.02	11.635
258.39	9.699
258.76	3.041
259.14	7.716
259.51	5.902
259.88	6.098
260.25	6.522
260.62	6.109
260.99	5.935
261.36	9.146
261.73	10.116
262.10	10.833
262.47	9.402
262.85	9.429
263.22	10.029
263.59	8.923
263.96	8.406
264.33	9.485
264.70	10.221
265.07	7.418
265.44	8.010
265.81	9.302
266.18	9.114
266.55	10.049
266.92	9.320
267.29	7.022
267.66	7.407
268.03	10.870
268.40	10.094
268.77	9.639
269.14	8.817
269.51	9.655
269.88	5.734
270.25	8.392
270.62	6.407
270.99	10.135
271.36	9.557
271.73	7.623
272.10	8.924
272.47	7.333
272.84	9.778
273.21	10.780
273.58	8.132
273.95	6.798
274.32	7.240
274.69	10.503
275.06	10.429
275.43	6.920
275.80	11.405
276.17	9.414
276.54	10.794
276.91	8.848
277.28	11.765
277.65	7.851
278.02	7.307
278.39	9.234
278.76	7.570
279.13	8.696
279.50	8.549
279.87	7.822
280.23	8.907
280.60	9.742
280.97	7.767
281.34	6.576
281.71	7.692
282.08	10.484
282.45	7.536
282.82	9.884
283.19	8.182
283.56	11.538
283.92	8.834
284.29	9.108
284.66	8.273
285.03	8.734
285.40	10.886
285.77	9.825
286.14	9.747
286.51	7.460
286.87	9.074
287.24	11.945
287.61	8.099
287.98	6.239
288.35	7.107
288.72	8.829
289.08	6.780
289.45	7.744
289.82	7.093
290.19	9.852
290.56	7.769
290.93	8.903
291.29	8.914
291.66	8.374
292.03	8.477
292.40	8.886
292.77	7.298
293.13	10.081
293.50	9.064
293.87	8.129
294.24	7.843
294.60	7.727
294.97	10.319
295.34	9.185
295.71	9.077
296.08	7.680
296.44	6.724
296.81	7.407
297.18	6.338
297.55	10.876
297.91	9.344
298.28	7.671
298.65	7.531
299.02	8.289
299.38	8.422
299.75	8.152
300.12	7.949
300.48	10.358
300.85	8.650
301.22	7.633
301.59	9.233
301.95	10.076
302.32	5.606
302.69	8.201
303.05	8.547
303.42	7.875
303.79	8.971
304.15	8.531
304.52	8.168
304.89	8.619
305.25	6.960
305.62	9.166
305.99	9.776
306.35	8.657
306.72	8.542
307.09	9.421
307.45	9.308
307.82	8.603
308.19	7.494
308.55	7.734
308.92	7.519
309.29	8.757
309.65	6.893
310.02	7.775
310.38	7.784
310.75	7.582
311.12	7.851
311.48	8.977
311.85	8.136
312.22	9.063
312.58	9.868
312.95	8.869
313.31	8.492
313.68	9.548
314.05	8.111
314.41	7.646
314.78	7.393
315.14	8.786
315.51	8.207
315.87	7.067
316.24	8.066
316.61	7.678
316.97	8.358
317.34	8.189
317.70	7.885
318.07	8.862
318.43	8.708
318.80	9.390
319.16	7.223
319.53	8.083
319.89	8.184
320.26	8.431
320.62	7.692
320.99	8.657
321.35	6.798
321.72	6.755
322.08	8.408
322.45	7.129
322.81	6.820
323.18	9.606
323.54	9.335
323.91	8.804
324.27	8.460
324.64	7.861
325.00	8.988
325.37	8.326
325.73	9.449
326.10	6.820
326.46	8.144
326.83	7.830
327.19	8.424
327.56	8.773
327.92	8.496
328.29	9.004
328.65	8.455
329.01	7.951
329.38	8.385
329.74	9.615
330.11	7.616
330.47	7.902
330.84	9.441
331.20	8.574
331.56	8.478
331.93	8.437
332.29	9.589
332.66	8.516
333.02	8.597
333.38	9.140
333.75	8.638
334.11	9.244
334.48	8.297
334.84	10.324
335.20	9.663
335.57	9.296
335.93	10.474
336.29	9.035
336.66	8.194
337.02	9.459
337.38	8.378
337.75	9.833
338.11	9.571
338.47	9.875
338.84	9.256
339.20	9.490
339.56	10.071
339.93	8.995
340.29	8.857
340.65	8.916
341.02	7.841
341.38	9.688
341.74	9.738
342.11	9.130
342.47	8.841
342.83	8.396
343.20	9.564
343.56	9.551
343.92	9.516
344.28	9.420
344.65	8.911
345.01	8.739
345.37	10.465
345.73	9.002
346.10	8.831
346.46	9.504
346.82	7.939
347.19	9.532
347.55	9.631
347.91	10.079
348.27	8.433
348.63	9.935
349.00	8.990
349.36	7.884
349.72	10.589
350.08	8.982
350.45	9.614
350.81	10.111
351.17	8.762
351.53	8.512
351.89	8.731
352.26	10.310
352.62	10.676
352.98	8.703
353.34	8.873
353.70	9.575
354.07	9.363
354.43	10.119
354.79	9.509
355.15	9.425
355.51	8.516
355.87	8.538
356.24	9.055
356.60	10.153
356.96	9.315
357.32	9.105
357.68	9.732
358.04	9.777
358.40	9.899
358.77	9.892
359.13	9.181
359.49	8.768
359.85	9.985
360.21	9.665
360.57	9.639
360.93	10.296
361.29	9.716
361.66	9.375
362.02	9.467
362.38	9.171
362.74	8.718
363.10	9.182
363.46	9.687
363.82	9.329
364.18	10.492
364.54	9.650
364.90	8.735
365.26	9.558
365.62	9.694
365.98	10.100
366.35	9.859
366.71	9.020
367.07	9.104
367.43	9.746
367.79	10.447
368.15	9.886
368.51	10.210
368.87	10.577
369.23	10.526
369.59	10.278
369.95	10.289
370.31	9.986
370.67	9.834
371.03	9.694
371.39	8.911
371.75	9.800
372.11	10.976
372.47	9.328
372.83	10.223
373.19	9.643
373.55	11.260
373.91	10.171
374.27	10.335
374.63	10.214
374.99	10.709
375.35	10.296
375.71	10.939
376.07	10.815
376.42	9.536
376.78	10.588
377.14	10.237
377.50	10.638
377.86	10.338
378.22	10.364
378.58	9.697
378.94	10.604
379.30	11.335
379.66	10.747
380.02	9.804
380.38	10.937
380.74	10.668
381.09	11.482
381.45	11.277
381.81	10.950
382.17	10.464
382.53	10.334
382.89	10.885
383.25	11.198
383.61	10.377
383.97	11.023
384.32	11.702
384.68	11.669
385.04	10.870
385.40	10.043
385.76	10.915
386.12	11.305
386.48	11.200
386.83	11.534
387.19	11.237
387.55	11.387
387.91	11.085
388.27	10.374
388.62	11.358
388.98	10.600
389.34	11.261
389.70	11.145
390.06	10.503
390.42	11.923
390.77	11.104
391.13	12.236
391.49	11.291
391.85	11.284
392.20	11.104
392.56	10.751
392.92	11.409
393.28	12.227
393.64	11.365
393.99	11.077
394.35	12.287
394.71	10.624
395.07	12.680
395.42	10.727
395.78	10.748
396.14	12.150
396.50	11.437
396.85	11.351
397.21	11.908
397.57	11.733
397.92	11.710
398.28	11.944
398.64	12.017
399.00	12.247
399.35	11.274
399.71	11.847
400.07	11.582
400.42	11.740
400.78	11.091
401.14	11.796
401.49	11.733
401.85	11.348
402.21	12.098
402.57	11.954
402.92	11.894
403.28	11.213
403.63	11.264
403.99	12.057
404.35	11.171
404.70	12.171
405.06	12.630
405.42	10.824
405.77	11.369
406.13	11.868
406.49	11.324
406.84	10.918
407.20	11.896
407.55	11.083
407.91	11.528
408.27	12.806
408.62	11.545
408.98	12.250
409.34	11.578
409.69	11.972
410.05	10.734
410.40	11.895
410.76	12.152
411.11	11.845
411.47	12.276
411.83	12.469
412.18	10.705
412.54	11.287
412.89	11.482
413.25	11.452
413.60	10.996
413.96	11.645
414.31	11.376
414.67	11.492
415.03	12.484
415.38	11.646
415.74	11.534
416.09	11.381
416.45	10.384
416.80	11.508
417.16	12.093
417.51	12.278
417.87	11.327
418.22	11.441
418.58	12.195
418.93	11.404
419.29	11.982
419.64	12.312
420.00	12.454
420.35	12.064
420.71	11.945
421.06	12.367
421.42	10.714
421.77	11.614
422.12	11.807
422.48	12.079
422.83	12.187
423.19	11.748
423.54	12.046
423.90	11.857
424.25	12.387
424.61	12.244
424.96	12.580
425.31	12.409
425.67	11.691
426.02	11.589
426.38	12.946
426.73	11.981
427.09	12.500
427.44	12.614
427.79	12.035
428.15	12.687
428.50	12.669
428.85	12.350
429.21	11.345
429.56	11.927
429.92	12.325
430.27	12.313
430.62	12.957
430.98	12.389
431.33	12.113
431.68	12.386
432.04	12.647
432.39	12.707
432.74	12.110
433.10	12.493
433.45	11.802
433.80	12.374
434.16	12.520
434.51	12.329
434.86	13.240
435.22	11.860
435.57	12.056
435.92	12.837
436.28	12.404
436.63	12.154
436.98	12.371
437.34	12.995
437.69	12.894
438.04	12.762
438.39	13.418
438.75	12.573
439.10	12.604
439.45	12.191
439.81	12.229
440.16	12.663
440.51	12.706
440.86	12.724
441.22	12.327
441.57	12.421
441.92	12.072
442.27	12.284
442.63	12.554
442.98	12.190
443.33	12.795
443.68	12.038
444.03	12.328
444.39	12.922
444.74	12.390
445.09	12.336
445.44	13.393
445.79	12.443
446.15	13.198
446.50	12.085
446.85	12.827
447.20	13.075
447.55	12.983
447.91	12.746
448.26	12.793
448.61	12.168
448.96	13.333
449.31	12.740
449.66	12.707
450.02	12.410
450.37	12.580
450.72	12.542
451.07	13.011
451.42	12.206
451.77	13.345
452.12	12.396
452.47	13.224
452.83	12.871
453.18	13.915
453.53	12.749
453.88	12.679
454.23	11.971
454.58	13.673
454.93	13.035
455.28	12.237
455.63	13.084
455.98	13.313
456.34	12.516
456.69	13.508
457.04	12.846
457.39	13.278
457.74	13.113
458.09	13.225
458.44	13.799
458.79	12.892
459.14	12.550
459.49	13.677
459.84	12.760
460.19	12.709
460.54	13.551
460.89	12.668
461.24	13.722
461.59	13.306
461.94	12.985
462.29	13.818
462.64	13.175
462.99	12.851
463.34	12.897
463.69	13.422
464.04	12.419
464.39	12.545
464.74	14.421
465.09	12.989
465.44	13.254
465.79	14.157
466.14	13.521
466.49	12.263
466.84	13.385
467.19	13.342
467.54	12.975
467.89	13.132
468.24	13.064
468.59	13.242
468.94	13.183
469.29	12.930
469.64	13.342
469.99	14.585
470.34	14.295
470.68	14.099
471.03	13.765
471.38	12.639
471.73	13.497
472.08	13.119
472.43	13.578
472.78	13.800
473.13	12.525
473.48	13.465
473.83	13.648
474.17	13.631
474.52	15.090
474.87	13.753
475.22	13.215
475.57	12.778
475.92	14.201
476.27	13.600
476.61	13.465
476.96	14.198
477.31	14.047
477.66	13.448
478.01	14.046
478.36	14.877
478.70	14.042
479.05	14.062
479.40	14.041
479.75	13.965
480.10	13.492
480.45	13.733
480.79	14.265
481.14	13.949
481.49	13.988
481.84	14.424
482.19	14.710
482.53	14.489
482.88	14.048
483.23	14.742
483.58	14.524
483.92	13.903
484.27	13.691
484.62	13.607
484.97	13.523
485.31	13.152
485.66	13.549
486.01	13.272
486.36	13.765
486.70	14.236
487.05	13.792
487.40	14.049
487.75	13.616
488.09	13.156
488.44	14.208
488.79	13.796
489.13	14.150
489.48	14.723
489.83	14.192
490.17	14.062
490.52	14.176
490.87	13.764
491.22	14.526
491.56	14.306
491.91	14.790
492.26	14.057
492.60	13.463
492.95	14.422
493.30	14.817
493.64	14.339
493.99	14.149
494.34	14.238
494.68	14.934
495.03	14.723
495.37	13.913
495.72	13.949
496.07	14.313
496.41	15.053
496.76	14.292
497.11	14.649
497.45	14.655
497.80	13.857
498.14	14.538
498.49	14.515
498.84	14.563
499.18	15.595
499.53	14.613
499.87	14.044
500.22	14.853
500.56	14.607
500.91	15.320
501.26	15.041
501.60	14.829
501.95	14.638
502.29	14.832
502.64	14.663
502.98	14.902
503.33	14.286
503.67	14.607
504.02	14.679
504.36	14.363
504.71	14.640
505.06	14.678
505.40	15.569
505.75	15.600
506.09	14.712
506.44	15.188
506.78	15.354
507.13	15.294
507.47	15.597
507.82	15.075
508.16	15.130
508.51	14.529
508.85	15.528
509.19	14.547
509.54	15.592
509.88	15.372
510.23	15.671
510.57	16.243
510.92	15.789
511.26	15.577
511.61	15.281
511.95	15.733
512.30	15.283
512.64	15.415
512.98	16.007
513.33	15.596
513.67	15.745
514.02	15.213
514.36	15.956
514.70	16.016
515.05	16.238
515.39	15.975
515.74	16.754
516.08	16.427
516.42	16.317
516.77	16.869
517.11	16.819
517.46	15.909
517.80	16.306
518.14	16.304
518.49	16.079
518.83	16.439
519.17	15.986
519.52	16.831
519.86	16.726
520.20	16.687
520.55	16.062
520.89	16.281
521.23	18.254
521.58	17.116
521.92	18.239
522.26	17.524
522.61	16.920
522.95	16.209
523.29	16.740
523.64	16.427
523.98	17.059
524.32	17.159
524.66	16.708
525.01	16.121
525.35	16.881
525.69	16.786
526.04	17.755
526.38	16.932
526.72	16.858
527.06	17.839
527.41	17.030
527.75	17.228
528.09	16.810
528.43	16.721
528.78	17.525
529.12	17.414
529.46	16.881
529.80	17.495
530.15	17.708
530.49	16.818
530.83	18.140
531.17	17.306
531.51	17.482
531.86	18.236
532.20	17.409
532.54	17.112
532.88	17.852
533.22	17.848
533.57	18.342
533.91	16.167
534.25	16.656
534.59	16.677
534.93	16.553
535.27	16.740
535.62	17.967
535.96	17.582
536.30	16.819
536.64	17.928
536.98	18.715
537.32	17.623
537.66	17.379
538.01	16.976
538.35	17.432
538.69	17.380
539.03	17.671
539.37	18.031
539.71	17.478
540.05	17.478
540.39	18.075
540.73	18.106
541.07	17.896
541.42	16.813
541.76	17.542
542.10	18.096
542.44	18.854
542.78	18.250
543.12	17.855
543.46	15.822
543.80	16.321
544.14	17.529
544.48	18.766
544.82	18.200
545.16	17.840
545.50	16.083
545.84	16.968
546.18	18.377
546.52	18.421
546.86	17.379
547.20	17.440
547.54	16.873
547.88	17.916
548.22	16.252
548.56	16.633
548.90	17.318
549.24	17.029
549.58	17.078
549.92	17.951
550.26	19.003
550.60	17.639
550.94	17.372
551.28	17.908
551.62	17.651
551.96	17.511
552.30	17.003
552.64	16.819
552.98	17.870
553.32	16.811
553.66	17.880
554.00	17.839
554.34	17.256
554.68	18.202
555.02	18.234
555.36	17.613
555.69	17.550
556.03	17.754
556.37	17.710
556.71	17.895
557.05	17.664
557.39	17.966
557.73	18.673
558.07	17.558
558.41	17.651
558.75	17.871
559.08	16.809
559.42	17.994
559.76	18.635
560.10	18.568
560.44	17.919
560.78	17.328
561.12	17.736
561.45	18.288
561.79	17.282
562.13	16.830
562.47	17.157
562.81	17.680
563.15	17.915
563.48	17.830
563.82	17.647
564.16	17.241
564.50	17.608
564.84	17.460
565.17	17.507
565.51	17.340
565.85	18.120
566.19	17.984
566.52	17.939
566.86	17.636
567.20	18.160
567.54	18.252
567.88	16.918
568.21	17.729
568.55	16.808
568.89	16.799
569.23	17.029
569.56	16.688
569.90	16.719
570.24	16.836
570.57	16.063
570.91	15.811
571.25	16.634
571.59	15.829
571.92	16.548
572.26	16.627
572.60	16.382
572.93	15.887
573.27	15.793
573.61	15.629
573.95	16.126
574.28	16.002
574.62	16.116
574.96	15.753
575.29	15.701
575.63	16.220
575.97	15.804
576.30	15.840
576.64	16.057
576.98	15.725
577.31	16.019
577.65	15.835
577.98	15.902
578.32	15.870
578.66	15.786
578.99	15.787
579.33	15.499
579.67	15.851
580.00	15.650
580.34	15.802
580.67	15.519
581.01	15.494
581.35	15.569
581.68	15.592
582.02	15.917
582.35	15.524
582.69	15.798
583.02	16.202
583.36	15.729
583.70	15.975
584.03	16.433
584.37	15.751
584.70	15.623
585.04	15.544
585.37	15.609
585.71	16.038
586.04	15.704
586.38	15.958
586.72	16.263
587.05	16.029
587.39	15.406
587.72	15.981
588.06	15.763
588.39	15.750
588.73	15.691
589.06	16.113
589.40	16.214
589.73	16.466
590.07	15.732
590.40	16.494
590.73	16.393
591.07	16.311
591.40	16.291
591.74	16.377
592.07	16.441
592.41	17.197
592.74	16.218
593.08	16.375
593.41	15.888
593.75	15.595
594.08	15.780
594.41	16.821
594.75	16.270
595.08	16.353
595.42	15.607
595.75	16.759
596.09	16.104
596.42	16.776
596.75	16.085
597.09	16.741
597.42	15.932
597.75	16.076
598.09	16.674
598.42	16.483
598.76	16.030
599.09	15.746
599.42	16.109
599.76	16.119
600.09	16.260
600.42	16.255
600.76	16.347
601.09	15.344
601.42	16.146
601.76	16.394
602.09	16.564
602.42	15.720
602.76	15.455
603.09	15.968
603.42	16.116
603.76	16.035
604.09	16.059
604.42	16.320
604.76	16.790
605.09	16.772
605.42	17.021
605.75	16.343
606.09	16.978
606.42	16.129
606.75	16.058
607.09	16.542
607.42	16.109
607.75	15.541
608.08	17.533
608.42	16.367
608.75	16.402
609.08	16.269
609.41	16.492
609.75	16.675
610.08	17.157
610.41	16.434
610.74	16.925
611.07	16.684
611.41	15.431
611.74	17.326
612.07	16.864
612.40	17.271
612.73	16.747
613.07	16.236
613.40	17.898
613.73	16.294
614.06	16.255
614.39	17.024
614.72	15.698
615.06	16.033
615.39	15.952
615.72	16.839
616.05	16.400
616.38	16.715
616.71	16.517
617.05	16.586
617.38	17.214
617.71	15.909
618.04	16.646
618.37	16.730
618.70	17.601
619.03	17.739
619.36	17.548
619.69	17.516
620.03	16.736
620.36	17.722
620.69	17.803
621.02	16.819
621.35	16.613
621.68	16.885
622.01	17.233
622.34	17.236
622.67	17.422
623.00	17.445
623.33	17.090
623.66	16.322
623.99	16.241
624.32	17.113
624.65	16.409
624.99	16.953
625.32	17.665
625.65	17.405
625.98	16.588
626.31	17.781
626.64	18.159
626.97	17.808
627.30	17.277
627.63	17.358
627.96	18.625
628.29	16.728
628.62	16.619
628.95	17.618
629.28	17.669
629.61	16.879
629.94	17.486
630.26	18.191
630.59	18.693
630.92	17.918
631.25	18.145
631.58	17.778
631.91	16.277
632.24	17.889
632.57	17.667
632.90	18.276
633.23	19.159
633.56	17.778
633.89	17.807
634.22	17.828
634.55	18.389
634.88	16.324
635.20	16.355
635.53	18.575
635.86	17.254
636.19	16.606
636.52	17.802
636.85	17.208
637.18	16.500
637.51	19.083
637.83	17.177
638.16	17.763
638.49	17.931
638.82	18.404
