SpectraSuite Data File
++++++++++++++++++++++++++++++++++++
Date: Sat May 16 11:17:18 PDT 2015
User: schluterlab
Dark Spectrum Present: Yes
Reference Spectrum Present: Yes
Number of Sampled Component Spectra: 1
Spectrometers: USB2E3373
Integration Time (usec): 3000 (USB2E3373)
Spectra Averaged: 3 (USB2E3373)
Boxcar Smoothing: 0 (USB2E3373)
Correct for Electrical Dark: No (USB2E3373)
Strobe/Lamp Enabled: No (USB2E3373)
Correct for Detector Non-linearity: No (USB2E3373)
Correct for Stray Light: No (USB2E3373)
Number of Pixels in Processed Spectrum: 2048
>>>>>Begin Processed Spectral Data<<<<<
178.53	0.000
178.91	106.667
179.29	433.333
179.67	-600.000
180.04	-153.846
180.42	-100.000
180.80	150.000
181.18	450.000
181.56	-12.500
181.94	1700.000
182.31	275.000
182.69	-46.154
183.07	-433.333
183.45	800.000
183.83	500.000
184.20	-114.286
184.58	-62.500
184.96	-225.000
185.34	131.250
185.72	-425.000
186.09	116.667
186.47	-125.000
186.85	-25.000
187.23	12.500
187.61	-100.000
187.98	-262.500
188.36	-137.500
188.74	-187.500
189.12	1500.000
189.49	400.000
189.87	-33.333
190.25	250.000
190.63	-14.286
191.00	-133.333
191.38	240.000
191.76	46.667
192.14	320.000
192.51	-380.000
192.89	0.000
193.27	0.000
193.65	-66.667
194.02	-242.857
194.40	300.000
194.78	-80.000
195.15	-700.000
195.53	-118.182
195.91	-200.000
196.29	40.000
196.66	-133.333
197.04	2000.000
197.42	-125.000
197.79	33.333
198.17	33.333
198.55	-800.000
198.92	-1200.000
199.30	175.000
199.68	-200.000
200.05	-66.667
200.43	-133.333
200.81	200.000
201.18	-83.333
201.56	171.429
201.94	-20.000
202.31	50.000
202.69	70.000
203.07	-80.000
203.44	300.000
203.82	-283.333
204.19	-350.000
204.57	-275.000
204.95	-800.000
205.32	37.500
205.70	-100.000
206.08	-1700.000
206.45	5.556
206.83	-600.000
207.20	0.000
207.58	-733.333
207.96	-100.000
208.33	-87.500
208.71	-133.333
209.08	190.000
209.46	-28.571
209.84	400.000
210.21	0.000
210.59	45.000
210.96	800.000
211.34	-166.667
211.71	-200.000
212.09	375.000
212.46	950.000
212.84	-1200.000
213.22	400.000
213.59	91.667
213.97	155.556
214.34	120.000
214.72	-110.000
215.09	-533.333
215.47	0.000
215.84	-50.000
216.22	-60.000
216.59	46.667
216.97	-125.000
217.34	450.000
217.72	-42.857
218.09	-300.000
218.47	-185.714
218.84	157.143
219.22	42.857
219.59	0.000
219.97	114.286
220.34	475.000
220.72	137.500
221.09	-61.538
221.47	0.000
221.84	300.000
222.22	-150.000
222.59	500.000
222.97	-125.000
223.34	-850.000
223.72	-266.667
224.09	35.714
224.46	-225.000
224.84	21.429
225.21	-85.714
225.59	-54.545
225.96	-75.000
226.34	-42.857
226.71	-111.111
227.08	25.000
227.46	2200.000
227.83	-114.286
228.21	-225.000
228.58	300.000
228.95	-6.250
229.33	-300.000
229.70	-80.000
230.08	-450.000
230.45	41.667
230.82	-133.333
231.20	-400.000
231.57	-300.000
231.95	1800.000
232.32	38.095
232.69	-33.333
233.07	-200.000
233.44	-1200.000
233.81	-46.667
234.19	-22.222
234.56	-25.000
234.93	31.250
235.31	-200.000
235.68	-100.000
236.05	29.412
236.43	-27.273
236.80	-12.903
237.17	20.833
237.55	19.048
237.92	-50.000
238.29	-5.714
238.67	14.706
239.04	11.111
239.41	0.000
239.79	7.692
240.16	14.286
240.53	21.818
240.91	41.026
241.28	1.818
241.65	27.692
242.02	29.508
242.40	13.115
242.77	18.182
243.14	1.695
243.51	27.143
243.89	21.519
244.26	23.596
244.63	33.684
245.00	34.737
245.38	27.966
245.75	28.319
246.12	28.000
246.49	26.772
246.87	19.512
247.24	12.712
247.61	28.814
247.98	26.761
248.36	28.671
248.73	27.848
249.10	31.210
249.47	23.977
249.84	28.977
250.22	22.619
250.59	24.294
250.96	27.225
251.33	23.223
251.70	23.077
252.08	21.327
252.45	20.853
252.82	26.667
253.19	33.191
253.56	28.629
253.94	27.004
254.31	30.472
254.68	30.894
255.05	29.435
255.42	28.968
255.79	28.315
256.16	29.412
256.54	26.838
256.91	26.515
257.28	27.839
257.65	31.206
258.02	32.075
258.39	29.431
258.76	29.054
259.14	30.556
259.51	32.131
259.88	29.878
260.25	33.540
260.62	29.260
260.99	28.783
261.36	28.354
261.73	33.526
262.10	30.278
262.47	25.071
262.85	30.571
263.22	30.946
263.59	28.000
263.96	30.145
264.33	27.913
264.70	32.044
265.07	28.846
265.44	27.649
265.81	28.424
266.18	31.139
266.55	27.941
266.92	30.479
267.29	30.024
267.66	30.864
268.03	31.159
268.40	28.169
268.77	29.398
269.14	26.682
269.51	29.195
269.88	31.193
270.25	27.972
270.62	29.519
270.99	28.153
271.36	29.371
271.73	30.493
272.10	30.892
272.47	29.778
272.84	34.000
273.21	31.651
273.58	28.352
273.95	28.070
274.32	31.222
274.69	29.322
275.06	30.879
275.43	30.804
275.80	31.976
276.17	32.845
276.54	29.328
276.91	30.864
277.28	30.629
277.65	29.752
278.02	31.106
278.39	28.880
278.76	30.478
279.13	29.249
279.50	29.225
279.87	30.233
280.23	30.364
280.60	28.827
280.97	29.903
281.34	26.886
281.71	28.846
282.08	31.855
282.45	30.346
282.82	28.488
283.19	28.727
283.56	29.487
283.92	29.505
284.29	28.253
284.66	28.957
285.03	31.016
285.40	31.181
285.77	29.825
286.14	32.491
286.51	28.419
286.87	29.401
287.24	30.034
287.61	30.744
287.98	27.730
288.35	26.281
288.72	27.504
289.08	26.441
289.45	27.104
289.82	25.433
290.19	28.243
290.56	26.777
290.93	25.119
291.29	29.173
291.66	23.994
292.03	27.786
292.40	26.355
292.77	24.845
293.13	27.317
293.50	26.003
293.87	25.920
294.24	26.546
294.60	24.091
294.97	26.859
295.34	23.704
295.71	24.256
296.08	22.734
296.44	24.607
296.81	25.641
297.18	25.915
297.55	23.446
297.91	23.710
298.28	23.014
298.65	21.757
299.02	24.866
299.38	22.059
299.75	23.234
300.12	23.333
300.48	22.762
300.85	20.577
301.22	24.062
301.59	22.367
301.95	23.174
302.32	21.904
302.69	23.745
303.05	21.856
303.42	21.750
303.79	21.292
304.15	20.853
304.52	22.170
304.89	24.203
305.25	21.612
305.62	21.269
305.99	22.615
306.35	20.644
306.72	21.640
307.09	23.950
307.45	19.977
307.82	21.341
308.19	20.805
308.55	21.351
308.92	20.623
309.29	21.189
309.65	20.891
310.02	19.222
310.38	19.351
310.75	20.389
311.12	22.521
311.48	21.921
311.85	20.288
312.22	20.494
312.58	20.448
312.95	17.941
313.31	20.579
313.68	20.201
314.05	19.782
314.41	19.215
314.78	20.380
315.14	21.125
315.51	20.669
315.87	19.845
316.24	20.311
316.61	20.250
316.97	21.393
317.34	20.809
317.70	19.109
318.07	20.522
318.43	19.195
318.80	20.845
319.16	19.043
319.53	20.583
319.89	18.062
320.26	19.216
320.62	18.269
320.99	20.498
321.35	18.621
321.72	18.833
322.08	19.782
322.45	19.109
322.81	18.732
323.18	20.365
323.54	18.484
323.91	18.906
324.27	19.392
324.64	18.556
325.00	19.110
325.37	20.362
325.73	20.472
326.10	17.803
326.46	19.089
326.83	18.553
327.19	20.017
327.56	20.273
327.92	18.692
328.29	19.827
328.65	17.545
329.01	19.611
329.38	17.841
329.74	20.055
330.11	19.946
330.47	19.346
330.84	18.607
331.20	18.682
331.56	17.776
331.93	18.828
332.29	18.813
332.66	19.140
333.02	18.281
333.38	18.907
333.75	17.542
334.11	19.289
334.48	18.005
334.84	19.248
335.20	19.060
335.57	18.321
335.93	19.964
336.29	18.335
336.66	18.062
337.02	18.919
337.38	18.360
337.75	18.876
338.11	18.605
338.47	18.772
338.84	17.514
339.20	18.278
339.56	19.875
339.93	17.989
340.29	17.892
340.65	17.483
341.02	17.454
341.38	18.281
341.74	18.967
342.11	18.089
342.47	18.712
342.83	17.632
343.20	18.019
343.56	17.959
343.92	18.280
344.28	18.923
344.65	16.584
345.01	17.647
345.37	18.355
345.73	16.939
346.10	17.253
346.46	18.197
346.82	17.963
347.19	17.584
347.55	17.817
347.91	18.031
348.27	16.547
348.63	17.447
349.00	17.582
349.36	16.784
349.72	18.312
350.08	17.803
350.45	17.179
350.81	16.640
351.17	16.801
351.53	16.070
351.89	18.108
352.26	17.984
352.62	18.126
352.98	17.247
353.34	17.666
353.70	17.375
354.07	16.994
354.43	16.759
354.79	18.225
355.15	17.013
355.51	17.344
355.87	17.075
356.24	17.077
356.60	17.728
356.96	18.630
357.32	17.102
357.68	17.241
358.04	16.474
358.40	17.324
358.77	16.770
359.13	16.526
359.49	16.629
359.85	16.463
360.21	17.808
360.57	17.244
360.93	17.481
361.29	16.442
361.66	16.463
362.02	16.346
362.38	16.801
362.74	17.582
363.10	15.710
363.46	17.735
363.82	18.076
364.18	16.715
364.54	17.584
364.90	16.981
365.26	16.476
365.62	17.391
365.98	17.639
366.35	17.113
366.71	15.927
367.07	17.431
367.43	17.776
367.79	17.182
368.15	16.714
368.51	17.413
368.87	18.338
369.23	17.053
369.59	16.667
369.95	18.323
370.31	18.214
370.67	16.847
371.03	16.472
371.39	16.973
371.75	17.310
372.11	17.575
372.47	16.847
372.83	17.177
373.19	17.071
373.55	17.452
373.91	17.639
374.27	16.906
374.63	16.839
374.99	17.177
375.35	15.680
375.71	18.366
376.07	17.180
376.42	15.762
376.78	17.582
377.14	17.559
377.50	17.344
377.86	17.425
378.22	16.834
378.58	17.356
378.94	16.646
379.30	16.941
379.66	16.940
380.02	16.756
380.38	16.254
380.74	17.292
381.09	17.340
381.45	16.468
381.81	16.213
382.17	17.293
382.53	16.657
382.89	16.866
383.25	18.182
383.61	17.158
383.97	18.126
384.32	17.897
384.68	17.654
385.04	17.391
385.40	16.920
385.76	17.134
386.12	18.176
386.48	18.317
386.83	17.423
387.19	17.215
387.55	17.565
387.91	16.775
388.27	16.104
388.62	17.668
388.98	17.383
389.34	17.319
389.70	17.052
390.06	17.402
390.42	17.692
390.77	17.476
391.13	18.137
391.49	17.093
391.85	18.017
392.20	17.233
392.56	17.593
392.92	18.026
393.28	17.681
393.64	17.859
393.99	18.215
394.35	17.518
394.71	18.345
395.07	17.389
395.42	17.402
395.78	16.970
396.14	18.006
396.50	18.654
396.85	17.150
397.21	17.801
397.57	17.933
397.92	17.623
398.28	18.222
398.64	17.847
399.00	18.596
399.35	17.644
399.71	18.757
400.07	17.851
400.42	18.431
400.78	16.696
401.14	17.665
401.49	17.925
401.85	17.633
402.21	17.878
402.57	17.354
402.92	18.502
403.28	17.279
403.63	17.136
403.99	18.397
404.35	17.391
404.70	17.613
405.06	18.281
405.42	16.974
405.77	17.534
406.13	17.604
406.49	17.795
406.84	17.636
407.20	17.903
407.55	17.099
407.91	17.034
408.27	18.566
408.62	18.280
408.98	17.890
409.34	17.367
409.69	18.336
410.05	18.011
410.40	17.535
410.76	17.783
411.11	18.080
411.47	17.711
411.83	17.848
412.18	17.946
412.54	16.290
412.89	18.287
413.25	17.060
413.60	16.403
413.96	16.636
414.31	17.859
414.67	17.079
415.03	17.982
415.38	18.608
415.74	18.557
416.09	17.072
416.45	16.997
416.80	18.661
417.16	17.874
417.51	18.516
417.87	17.346
418.22	18.142
418.58	18.100
418.93	17.351
419.29	18.381
419.64	17.211
420.00	18.044
420.35	17.682
420.71	18.067
421.06	17.456
421.42	17.037
421.77	17.476
422.12	18.019
422.48	17.477
422.83	17.995
423.19	17.428
423.54	17.925
423.90	17.178
424.25	16.855
424.61	18.516
424.96	17.905
425.31	17.272
425.67	18.281
426.02	17.556
426.38	17.967
426.73	17.592
427.09	17.279
427.44	17.898
427.79	17.442
428.15	18.133
428.50	18.475
428.85	18.525
429.21	17.875
429.56	18.125
429.92	18.687
430.27	17.797
430.62	18.652
430.98	18.557
431.33	17.129
431.68	18.123
432.04	17.683
432.39	19.031
432.74	18.106
433.10	17.895
433.45	17.559
433.80	18.253
434.16	17.464
434.51	17.973
434.86	19.039
435.22	18.318
435.57	17.258
435.92	18.933
436.28	18.338
436.63	17.637
436.98	17.468
437.34	18.074
437.69	17.153
438.04	18.378
438.39	18.953
438.75	18.685
439.10	18.157
439.45	18.105
439.81	17.651
440.16	18.058
440.51	19.118
440.86	18.392
441.22	16.805
441.57	17.263
441.92	17.238
442.27	17.857
442.63	17.489
442.98	17.212
443.33	18.122
443.68	18.551
444.03	17.976
444.39	18.257
444.74	18.392
445.09	17.818
445.44	18.120
445.79	17.899
446.15	18.620
446.50	17.529
446.85	18.214
447.20	17.773
447.55	18.619
447.91	17.855
448.26	17.318
448.61	18.506
448.96	18.711
449.31	17.869
449.66	18.260
450.02	17.673
450.37	17.913
450.72	17.910
451.07	18.228
451.42	17.286
451.77	18.552
452.12	17.759
452.47	18.451
452.83	17.822
453.18	18.027
453.53	19.092
453.88	18.242
454.23	18.259
454.58	19.577
454.93	18.262
455.28	18.037
455.63	18.305
455.98	19.277
456.34	17.980
456.69	19.387
457.04	17.947
457.39	17.763
457.74	18.724
458.09	18.155
458.44	18.995
458.79	17.993
459.14	18.825
459.49	18.591
459.84	18.943
460.19	18.377
460.54	17.846
460.89	17.489
461.24	19.247
461.59	18.640
461.94	18.332
462.29	18.463
462.64	18.445
462.99	19.143
463.34	18.704
463.69	18.702
464.04	18.453
464.39	18.160
464.74	17.908
465.09	19.242
465.44	17.992
465.79	18.443
466.14	18.930
466.49	18.365
466.84	19.088
467.19	19.701
467.54	17.658
467.89	18.866
468.24	19.656
468.59	18.676
468.94	17.621
469.29	18.324
469.64	19.205
469.99	19.649
470.34	19.773
470.68	20.349
471.03	20.303
471.38	19.444
471.73	19.371
472.08	19.009
472.43	19.369
472.78	19.533
473.13	19.152
473.48	19.655
473.83	18.238
474.17	18.599
474.52	20.780
474.87	19.872
475.22	19.292
475.57	18.944
475.92	19.114
476.27	19.371
476.61	19.042
476.96	19.340
477.31	19.053
477.66	19.092
478.01	18.855
478.36	18.963
478.70	20.075
479.05	18.821
479.40	20.000
479.75	19.419
480.10	19.097
480.45	19.149
480.79	20.188
481.14	19.518
481.49	19.748
481.84	18.909
482.19	19.415
482.53	19.271
482.88	18.700
483.23	19.859
483.58	20.074
483.92	19.207
484.27	19.495
484.62	18.575
484.97	19.330
485.31	18.528
485.66	17.996
486.01	17.702
486.36	17.966
486.70	18.529
487.05	18.487
487.40	18.937
487.75	18.754
488.09	18.808
488.44	19.114
488.79	19.455
489.13	19.589
489.48	19.943
489.83	19.782
490.17	19.939
490.52	20.697
490.87	18.753
491.22	19.150
491.56	19.722
491.91	18.989
492.26	19.858
492.60	19.648
492.95	20.181
493.30	19.867
493.64	19.135
493.99	20.315
494.34	18.952
494.68	20.552
495.03	20.220
495.37	19.420
495.72	20.187
496.07	20.601
496.41	20.750
496.76	19.772
497.11	20.820
497.45	19.780
497.80	20.810
498.14	20.138
498.49	20.191
498.84	20.922
499.18	21.004
499.53	20.507
499.87	19.595
500.22	20.294
500.56	20.210
500.91	20.788
501.26	20.864
501.60	19.981
501.95	20.580
502.29	20.406
502.64	20.415
502.98	21.035
503.33	20.912
503.67	20.163
504.02	20.666
504.36	20.245
504.71	19.352
505.06	20.519
505.40	21.357
505.75	20.986
506.09	21.689
506.44	20.852
506.78	21.475
507.13	21.009
507.47	21.596
507.82	21.322
508.16	21.606
508.51	21.123
508.85	21.377
509.19	21.559
509.54	21.406
509.88	22.234
510.23	21.960
510.57	21.799
510.92	21.697
511.26	21.318
511.61	21.058
511.95	21.929
512.30	21.990
512.64	21.091
512.98	22.387
513.33	21.856
513.67	21.441
514.02	21.980
514.36	22.216
514.70	22.354
515.05	22.985
515.39	21.915
515.74	23.909
516.08	21.671
516.42	21.643
516.77	23.975
517.11	22.368
517.46	23.026
517.80	22.864
518.14	22.705
518.49	23.491
518.83	22.136
519.17	22.795
519.52	23.019
519.86	24.014
520.20	23.533
520.55	23.323
520.89	23.982
521.23	23.810
521.58	24.326
521.92	24.066
522.26	24.381
522.61	23.891
522.95	23.612
523.29	23.950
523.64	23.423
523.98	24.061
524.32	23.507
524.66	23.292
525.01	23.635
525.35	24.098
525.69	23.357
526.04	24.217
526.38	24.252
526.72	22.925
527.06	23.177
527.41	24.224
527.75	24.158
528.09	24.024
528.43	23.869
528.78	23.932
529.12	24.648
529.46	23.905
529.80	25.242
530.15	24.791
530.49	25.032
530.83	25.082
531.17	24.310
531.51	23.577
531.86	25.543
532.20	24.764
532.54	24.265
532.88	25.033
533.22	24.332
533.57	24.804
533.91	23.596
534.25	23.884
534.59	22.299
534.93	23.584
535.27	23.851
535.62	24.361
535.96	23.659
536.30	23.757
536.64	24.436
536.98	24.718
537.32	23.912
537.66	24.304
538.01	23.849
538.35	24.932
538.69	24.799
539.03	24.441
539.37	23.420
539.71	24.283
540.05	23.783
540.39	24.307
540.73	25.570
541.07	24.454
541.42	24.038
541.76	23.189
542.10	25.388
542.44	23.318
542.78	24.491
543.12	24.983
543.46	23.425
543.80	23.344
544.14	23.909
544.48	24.869
544.82	23.681
545.16	25.084
545.50	24.361
545.84	25.243
546.18	24.896
546.52	25.107
546.86	25.142
547.20	23.418
547.54	24.036
547.88	24.552
548.22	22.346
548.56	24.449
548.90	25.000
549.24	23.896
549.58	25.194
549.92	25.088
550.26	25.145
550.60	24.751
550.94	25.620
551.28	25.734
551.62	24.372
551.96	25.036
552.30	24.390
552.64	25.053
552.98	24.247
553.32	23.954
553.66	26.172
554.00	25.373
554.34	24.765
554.68	24.781
555.02	24.964
555.36	24.227
555.69	24.355
556.03	24.561
556.37	25.036
556.71	25.268
557.05	25.499
557.39	25.019
557.73	25.602
558.07	24.943
558.41	24.607
558.75	25.019
559.08	24.747
559.42	25.651
559.76	25.383
560.10	25.354
560.44	24.494
560.78	24.565
561.12	23.879
561.45	24.795
561.79	24.251
562.13	24.334
562.47	25.070
562.81	24.328
563.15	24.773
563.48	24.948
563.82	25.287
564.16	24.882
564.50	23.992
564.84	25.529
565.17	23.740
565.51	23.990
565.85	24.949
566.19	26.153
566.52	23.353
566.86	23.515
567.20	24.879
567.54	24.099
567.88	23.004
568.21	23.714
568.55	23.171
568.89	22.515
569.23	22.999
569.56	22.488
569.90	22.659
570.24	22.999
570.57	21.793
570.91	22.101
571.25	21.757
571.59	22.354
571.92	21.786
572.26	21.180
572.60	22.184
572.93	21.926
573.27	21.738
573.61	21.078
573.95	21.554
574.28	21.595
574.62	21.835
574.96	21.087
575.29	21.265
575.63	21.874
575.97	21.629
576.30	21.595
576.64	21.070
576.98	21.349
577.31	21.549
577.65	21.651
577.98	21.113
578.32	20.501
578.66	21.048
578.99	21.185
579.33	21.276
579.67	21.278
580.00	21.081
580.34	21.282
580.67	21.329
581.01	20.475
581.35	21.208
581.68	20.458
582.02	20.911
582.35	20.604
582.69	21.272
583.02	21.618
583.36	21.115
583.70	21.710
584.03	21.929
584.37	21.705
584.70	21.174
585.04	21.418
585.37	20.644
585.71	21.626
586.04	21.150
586.38	20.823
586.72	21.646
587.05	21.439
587.39	21.770
587.72	22.060
588.06	21.898
588.39	21.703
588.73	21.967
589.06	22.283
589.40	22.398
589.73	22.734
590.07	21.668
590.40	22.251
590.73	22.631
591.07	22.746
591.40	22.747
591.74	23.197
592.07	22.568
592.41	22.463
592.74	22.406
593.08	22.245
593.41	21.711
593.75	21.991
594.08	22.789
594.41	22.255
594.75	22.537
595.08	22.368
595.42	22.399
595.75	21.205
596.09	22.352
596.42	22.668
596.75	22.725
597.09	23.152
597.42	22.130
597.75	22.232
598.09	22.684
598.42	22.404
598.76	22.135
599.09	22.257
599.42	21.069
599.76	22.122
600.09	22.786
600.42	22.256
600.76	22.298
601.09	22.028
601.42	22.042
601.76	22.625
602.09	22.945
602.42	22.428
602.76	21.728
603.09	22.097
603.42	22.361
603.76	22.617
604.09	22.387
604.42	22.565
604.76	22.983
605.09	23.644
605.42	22.207
605.75	22.510
606.09	22.956
606.42	21.450
606.75	22.112
607.09	22.408
607.42	22.667
607.75	22.517
608.08	23.136
608.42	23.037
608.75	22.523
609.08	23.234
609.41	22.920
609.75	23.306
610.08	23.676
610.41	22.651
610.74	22.921
611.07	23.073
611.41	22.642
611.74	23.496
612.07	23.416
612.40	23.188
612.73	24.340
613.07	23.060
613.40	24.685
613.73	23.161
614.06	23.504
614.39	23.506
614.72	22.570
615.06	24.293
615.39	22.409
615.72	23.194
616.05	22.474
616.38	24.434
616.71	24.204
617.05	24.789
617.38	24.025
617.71	23.710
618.04	24.658
618.37	24.969
618.70	24.576
619.03	24.441
619.36	25.018
619.69	25.341
620.03	24.311
620.36	24.332
620.69	25.197
621.02	24.581
621.35	26.452
621.68	23.934
622.01	24.757
622.34	25.621
622.67	24.531
623.00	26.320
623.33	25.896
623.66	24.889
623.99	24.511
624.32	25.074
624.65	24.945
624.99	24.272
625.32	25.150
625.65	25.874
625.98	25.743
626.31	25.693
626.64	25.774
626.97	26.027
627.30	25.447
627.63	24.957
627.96	26.371
628.29	25.919
628.62	25.406
628.95	25.787
629.28	25.658
629.61	25.221
629.94	25.236
630.26	27.137
630.59	27.739
630.92	27.127
631.25	26.714
631.58	26.772
631.91	25.106
632.24	27.222
632.57	26.889
