SpectraSuite Data File
++++++++++++++++++++++++++++++++++++
Date: Sat May 16 11:22:06 PDT 2015
User: schluterlab
Dark Spectrum Present: Yes
Reference Spectrum Present: Yes
Number of Sampled Component Spectra: 1
Spectrometers: USB2E3373
Integration Time (usec): 3000 (USB2E3373)
Spectra Averaged: 3 (USB2E3373)
Boxcar Smoothing: 0 (USB2E3373)
Correct for Electrical Dark: No (USB2E3373)
Strobe/Lamp Enabled: No (USB2E3373)
Correct for Detector Non-linearity: No (USB2E3373)
Correct for Stray Light: No (USB2E3373)
Number of Pixels in Processed Spectrum: 2048
>>>>>Begin Processed Spectral Data<<<<<
178.53	0.000
178.91	120.000
179.29	366.667
179.67	-800.000
180.04	-7.692
180.42	1300.000
180.80	425.000
181.18	325.000
181.56	-62.500
181.94	1500.000
182.31	500.000
182.69	-30.769
183.07	-666.667
183.45	1150.000
183.83	200.000
184.20	-185.714
184.58	-87.500
184.96	-175.000
185.34	125.000
185.72	-475.000
186.09	216.667
186.47	-212.500
186.85	-212.500
187.23	-237.500
187.61	-425.000
187.98	-212.500
188.36	-50.000
188.74	-150.000
189.12	-0.000
189.49	257.143
189.87	-58.333
190.25	350.000
190.63	7.143
191.00	-155.556
191.38	620.000
191.76	-46.667
192.14	300.000
192.51	-180.000
192.89	-266.667
193.27	0.000
193.65	-22.222
194.02	-328.571
194.40	566.667
194.78	-210.000
195.15	-1400.000
195.53	36.364
195.91	-250.000
196.29	400.000
196.66	-400.000
197.04	2000.000
197.42	-50.000
197.79	13.333
198.17	-300.000
198.55	-300.000
198.92	-1000.000
199.30	200.000
199.68	-750.000
200.05	-77.778
200.43	-200.000
200.81	-1400.000
201.18	-66.667
201.56	314.286
201.94	-73.333
202.31	-18.182
202.69	-30.000
203.07	-160.000
203.44	400.000
203.82	-550.000
204.19	-450.000
204.57	-400.000
204.95	-1100.000
205.32	-81.250
205.70	200.000
206.08	-2500.000
206.45	-22.222
206.83	-400.000
207.20	-250.000
207.58	-600.000
207.96	-500.000
208.33	-25.000
208.71	-66.667
209.08	180.000
209.46	-128.571
209.84	650.000
210.21	0.000
210.59	30.000
210.96	1200.000
211.34	-300.000
211.71	-233.333
212.09	525.000
212.46	900.000
212.84	-2100.000
213.22	1066.667
213.59	191.667
213.97	44.444
214.34	180.000
214.72	-20.000
215.09	-466.667
215.47	-33.333
215.84	-100.000
216.22	-90.000
216.59	-73.333
216.97	-400.000
217.34	1000.000
217.72	-57.143
218.09	-266.667
218.47	-257.143
218.84	242.857
219.22	28.571
219.59	0.000
219.97	100.000
220.34	550.000
220.72	187.500
221.09	-38.462
221.47	0.000
221.84	-133.333
222.22	50.000
222.59	500.000
222.97	-262.500
223.34	-850.000
223.72	-266.667
224.09	-71.429
224.46	-500.000
224.84	-42.857
225.21	-185.714
225.59	-145.455
225.96	-125.000
226.34	-57.143
226.71	-155.556
227.08	5.000
227.46	1600.000
227.83	-271.429
228.21	-250.000
228.58	200.000
228.95	-37.500
229.33	-1600.000
229.70	-100.000
230.08	-450.000
230.45	-33.333
230.82	-100.000
231.20	-500.000
231.57	-950.000
231.95	1500.000
232.32	-4.762
232.69	-155.556
233.07	-42.857
233.44	-1150.000
233.81	-53.333
234.19	-111.111
234.56	-75.000
234.93	21.875
235.31	-228.571
235.68	-107.143
236.05	-17.647
236.43	-54.545
236.80	-22.581
237.17	-25.000
237.55	-38.095
237.92	-86.364
238.29	0.000
238.67	-14.706
239.04	-41.667
239.41	-32.258
239.79	-64.103
240.16	-45.238
240.53	-23.636
240.91	-35.897
241.28	-1.818
241.65	3.077
242.02	-9.836
242.40	-18.033
242.77	-6.061
243.14	-18.644
243.51	-25.714
243.89	-7.595
244.26	-15.730
244.63	-15.789
245.00	-14.737
245.38	-5.932
245.75	-1.770
246.12	-5.600
246.49	-6.299
246.87	-6.504
247.24	-11.017
247.61	-11.017
247.98	-4.930
248.36	-5.594
248.73	-7.595
249.10	-10.191
249.47	-4.094
249.84	2.841
250.22	-17.857
250.59	-3.955
250.96	-9.948
251.33	4.265
251.70	-9.135
252.08	-3.318
252.45	-9.479
252.82	-8.095
253.19	-2.553
253.56	-4.839
253.94	-5.485
254.31	-4.292
254.68	-2.033
255.05	-6.855
255.42	-3.175
255.79	-3.584
256.16	-3.137
256.54	-5.882
256.91	-3.788
257.28	-7.692
257.65	-1.773
258.02	1.258
258.39	-3.010
258.76	-7.432
259.14	-4.321
259.51	-1.967
259.88	-3.049
260.25	-0.932
260.62	-3.537
260.99	-6.231
261.36	-0.915
261.73	-1.156
262.10	-0.833
262.47	-3.134
262.85	0.857
263.22	-1.719
263.59	-7.385
263.96	-2.029
264.33	-0.542
264.70	-1.105
265.07	-1.923
265.44	-2.584
265.81	0.258
266.18	-4.304
266.55	-2.206
266.92	-2.519
267.29	-2.421
267.66	-4.444
268.03	-1.208
268.40	-0.235
268.77	0.000
269.14	-2.320
269.51	-2.529
269.88	-2.294
270.25	-3.730
270.62	-1.831
270.99	-1.802
271.36	-1.166
271.73	-3.363
272.10	-3.661
272.47	-3.111
272.84	-0.222
273.21	-1.376
273.58	-0.659
273.95	-3.289
274.32	-1.131
274.69	-0.438
275.06	-1.227
275.43	-3.348
275.80	-1.222
276.17	-0.628
276.54	2.648
276.91	-2.263
277.28	-3.854
277.65	-1.860
278.02	-1.670
278.39	1.179
278.76	-3.386
279.13	-1.581
279.50	-2.783
279.87	-2.114
280.23	-0.607
280.60	-0.398
280.97	-2.136
281.34	-2.708
281.71	-1.731
282.08	-1.815
282.45	-1.426
282.82	-2.713
283.19	-1.273
283.56	2.381
283.92	-1.237
284.29	-2.045
284.66	-0.360
285.03	0.891
285.40	-1.292
285.77	0.351
286.14	-1.805
286.51	-0.533
286.87	-0.363
287.24	-0.683
287.61	-0.496
287.98	-2.080
288.35	-1.157
288.72	-1.528
289.08	-4.068
289.45	0.000
289.82	-1.384
290.19	1.314
290.56	-3.636
290.93	-1.749
291.29	-1.945
291.66	-1.127
292.03	1.099
292.40	-0.452
292.77	-0.776
293.13	-0.325
293.50	-0.743
293.87	-1.380
294.24	-0.452
294.60	-3.333
294.97	-0.152
295.34	-1.778
295.71	-2.232
296.08	-2.458
296.44	-1.860
296.81	-3.134
297.18	-0.423
297.55	-0.282
297.91	0.000
298.28	-1.644
298.65	-1.813
299.02	0.401
299.38	-1.604
299.75	-1.495
300.12	0.000
300.48	0.384
300.85	0.000
301.22	0.647
301.59	-0.520
301.95	0.378
302.32	-2.086
302.69	0.734
303.05	-0.611
303.42	-0.375
303.79	0.359
304.15	0.592
304.52	1.400
304.89	0.826
305.25	-1.221
305.62	-0.588
305.99	0.942
306.35	1.554
306.72	-0.456
307.09	-0.341
307.45	-0.681
307.82	-1.788
308.19	0.224
308.55	-0.654
308.92	-0.215
309.29	-0.108
309.65	0.000
310.02	0.000
310.38	-0.432
310.75	0.512
311.12	-0.413
311.48	0.000
311.85	-0.412
312.22	-0.206
312.58	0.305
312.95	0.000
313.31	0.000
313.68	1.910
314.05	1.385
314.41	0.805
314.78	0.400
315.14	2.567
315.51	1.114
315.87	2.517
316.24	1.846
316.61	2.687
316.97	1.990
317.34	1.349
317.70	1.763
318.07	3.265
318.43	1.592
318.80	3.568
319.16	2.908
319.53	2.538
319.89	2.916
320.26	3.039
320.62	2.788
320.99	4.080
321.35	2.069
321.72	3.378
322.08	5.539
322.45	2.871
322.81	5.572
323.18	4.899
323.54	4.436
323.91	5.839
324.27	5.228
324.64	6.033
325.00	7.330
325.37	7.602
325.73	8.049
326.10	7.086
326.46	7.618
326.83	8.766
327.19	9.174
327.56	10.733
327.92	9.431
328.29	11.342
328.65	10.182
329.01	10.336
329.38	12.400
329.74	12.821
330.11	11.967
330.47	11.989
330.84	14.024
331.20	13.177
331.56	13.947
331.93	14.476
332.29	15.068
332.66	15.628
333.02	16.652
333.38	15.771
333.75	16.296
334.11	18.044
334.48	16.152
334.84	18.460
335.20	17.287
335.57	17.329
335.93	19.069
336.29	18.158
336.66	17.269
337.02	17.748
337.38	18.717
337.75	17.998
338.11	18.426
338.47	19.039
338.84	19.056
339.20	18.366
339.56	20.143
339.93	19.400
340.29	17.981
340.65	18.881
341.02	19.056
341.38	18.366
341.74	19.560
342.11	18.174
342.47	19.828
342.83	20.067
343.20	19.471
343.56	18.612
343.92	19.699
344.28	20.606
344.65	19.637
345.01	19.160
345.37	20.100
345.73	19.885
346.10	17.743
346.46	19.740
346.82	19.166
347.19	18.899
347.55	20.385
347.91	18.740
348.27	18.218
348.63	19.790
349.00	19.889
349.36	18.189
349.72	20.462
350.08	19.166
350.45	19.307
350.81	19.506
351.17	19.855
351.53	18.377
351.89	19.402
352.26	20.000
352.62	20.430
352.98	19.462
353.34	20.544
353.70	20.000
354.07	19.197
354.43	20.000
354.79	19.968
355.15	19.888
355.51	19.297
355.87	20.316
356.24	20.254
356.60	21.434
356.96	20.631
357.32	19.794
357.68	19.464
358.04	19.554
358.40	19.876
358.77	19.165
359.13	19.587
359.49	20.181
359.85	19.893
360.21	19.330
360.57	20.633
360.93	19.481
361.29	20.254
361.66	18.826
362.02	20.340
362.38	20.543
362.74	20.806
363.10	20.373
363.46	20.798
363.82	20.627
364.18	20.767
364.54	21.015
364.90	19.916
365.26	20.613
365.62	22.024
365.98	20.910
366.35	21.056
366.71	20.437
367.07	20.536
367.43	21.345
367.79	20.619
368.15	21.053
368.51	22.098
368.87	22.665
369.23	22.035
369.59	21.667
369.95	21.705
370.31	22.152
370.67	20.752
371.03	22.012
371.39	20.509
371.75	22.604
372.11	22.669
372.47	21.186
372.83	21.766
373.19	22.357
373.55	21.675
373.91	22.333
374.27	21.492
374.63	21.601
374.99	22.670
375.35	21.534
375.71	23.430
376.07	22.793
376.42	20.728
376.78	22.549
377.14	22.508
377.50	23.146
377.86	23.277
378.22	22.613
378.58	23.101
378.94	23.736
379.30	22.364
379.66	23.315
380.02	22.400
380.38	23.082
380.74	22.743
381.09	22.964
381.45	23.747
381.81	22.202
382.17	23.308
382.53	23.100
382.89	23.684
383.25	22.637
383.61	23.172
383.97	24.189
384.32	23.905
384.68	24.123
385.04	23.430
385.40	23.007
385.76	23.841
386.12	23.673
386.48	24.814
386.83	24.110
387.19	24.507
387.55	23.743
387.91	24.778
388.27	23.764
388.62	23.498
388.98	23.501
389.34	23.623
389.70	24.056
390.06	23.741
390.42	24.231
390.77	24.038
391.13	24.099
391.49	24.392
391.85	23.628
392.20	23.847
392.56	23.396
392.92	23.731
393.28	23.938
393.64	22.850
393.99	24.246
394.35	23.114
394.71	23.780
395.07	23.603
395.42	23.182
395.78	23.130
396.14	25.421
396.50	24.220
396.85	23.998
397.21	23.694
397.57	23.708
397.92	24.122
398.28	24.833
398.64	24.033
399.00	24.551
399.35	24.014
399.71	23.810
400.07	24.179
400.42	24.148
400.78	22.958
401.14	24.311
401.49	23.644
401.85	23.490
402.21	24.672
402.57	23.604
402.92	24.229
403.28	23.468
403.63	22.828
403.99	23.493
404.35	23.490
404.70	23.815
405.06	23.414
405.42	23.616
405.77	22.964
406.13	23.680
406.49	22.648
406.84	23.395
407.20	23.086
407.55	24.319
407.91	22.150
408.27	22.794
408.62	23.271
408.98	22.620
409.34	23.035
409.69	23.503
410.05	23.166
410.40	23.053
410.76	23.770
411.11	22.880
411.47	23.465
411.83	23.044
412.18	22.958
412.54	22.453
412.89	23.269
413.25	22.668
413.60	22.722
413.96	22.736
414.31	22.752
414.67	22.667
415.03	23.221
415.38	23.682
415.74	24.678
416.09	22.379
416.45	23.016
416.80	23.017
417.16	23.389
417.51	24.819
417.87	22.977
418.22	23.578
418.58	23.299
418.93	23.912
419.29	24.467
419.64	23.241
420.00	24.362
420.35	23.773
420.71	24.310
421.06	24.556
421.42	23.536
421.77	23.953
422.12	24.566
422.48	24.105
422.83	24.146
423.19	24.053
423.54	24.726
423.90	24.002
424.25	24.717
424.61	26.538
424.96	26.097
425.31	25.936
425.67	25.387
426.02	25.760
426.38	25.771
426.73	25.482
427.09	24.939
427.44	26.818
427.79	25.000
428.15	27.050
428.50	26.804
428.85	26.019
429.21	25.623
429.56	26.667
429.92	26.002
430.27	27.019
430.62	26.803
430.98	26.712
431.33	27.215
431.68	27.989
432.04	28.707
432.39	27.749
432.74	27.158
433.10	26.899
433.45	27.404
433.80	28.611
434.16	28.318
434.51	28.219
434.86	28.998
435.22	28.174
435.57	27.723
435.92	28.429
436.28	28.190
436.63	27.756
436.98	28.465
437.34	29.947
437.69	28.996
438.04	28.417
438.39	30.144
438.75	29.045
439.10	29.706
439.45	29.330
439.81	29.578
440.16	29.529
440.51	30.000
440.86	29.265
441.22	29.022
441.57	30.368
441.92	31.202
442.27	30.682
442.63	30.901
442.98	30.192
443.33	30.313
443.68	30.276
444.03	30.010
444.39	30.250
444.74	31.333
445.09	30.592
445.44	31.289
445.79	31.311
446.15	31.380
446.50	30.321
446.85	30.888
447.20	32.022
447.55	30.166
447.91	32.903
448.26	31.620
448.61	31.636
448.96	31.317
449.31	31.905
449.66	31.654
450.02	30.748
450.37	30.841
450.72	31.186
451.07	32.935
451.42	31.165
451.77	32.436
452.12	32.539
452.47	31.612
452.83	33.197
453.18	32.954
453.53	32.898
453.88	33.313
454.23	31.983
454.58	33.561
454.93	33.438
455.28	33.206
455.63	32.924
455.98	33.795
456.34	32.465
456.69	33.709
457.04	32.944
457.39	33.433
457.74	33.963
458.09	33.295
458.44	32.968
458.79	33.072
459.14	32.687
459.49	33.629
459.84	33.446
460.19	33.890
460.54	32.668
460.89	33.184
461.24	34.426
461.59	34.818
461.94	34.246
462.29	33.115
462.64	34.585
462.99	35.141
463.34	33.693
463.69	33.142
464.04	33.158
464.39	33.931
464.74	33.747
465.09	32.712
465.44	33.615
465.79	33.277
466.14	35.155
466.49	33.736
466.84	34.034
467.19	34.539
467.54	33.544
467.89	34.217
468.24	34.679
468.59	34.478
468.94	34.405
469.29	34.568
469.64	35.108
469.99	35.314
470.34	34.937
470.68	36.192
471.03	34.756
471.38	35.278
471.73	36.294
472.08	34.806
472.43	34.878
472.78	35.800
473.13	35.056
473.48	34.588
473.83	34.926
474.17	35.924
474.52	36.701
474.87	36.072
475.22	35.221
475.57	34.778
475.92	35.637
476.27	35.143
476.61	34.986
476.96	35.103
477.31	35.361
477.66	35.861
478.01	36.035
478.36	34.468
478.70	36.199
479.05	35.749
479.40	35.699
479.75	36.442
480.10	35.516
480.45	35.735
480.79	36.525
481.14	35.374
481.49	35.915
481.84	36.523
482.19	35.678
482.53	35.985
482.88	35.691
483.23	35.822
483.58	36.679
483.92	35.882
484.27	35.268
484.62	35.464
484.97	35.542
485.31	34.784
485.66	33.494
486.01	34.026
486.36	35.046
486.70	36.237
487.05	35.636
487.40	34.856
487.75	35.177
488.09	34.775
488.44	35.318
488.79	35.373
489.13	35.983
489.48	36.052
489.83	36.201
490.17	37.048
490.52	36.911
490.87	35.982
491.22	36.618
491.56	37.130
491.91	36.784
492.26	36.226
492.60	37.012
492.95	36.982
493.30	36.875
493.64	37.047
493.99	36.998
494.34	36.429
494.68	37.172
495.03	37.428
495.37	36.971
495.72	37.672
496.07	37.729
496.41	37.795
496.76	36.941
497.11	37.353
497.45	37.308
497.80	37.319
498.14	36.935
498.49	37.418
498.84	38.058
499.18	37.914
499.53	37.360
499.87	37.403
500.22	37.745
500.56	37.669
500.91	37.734
501.26	37.797
501.60	36.206
501.95	38.019
502.29	37.837
502.64	37.718
502.98	37.614
503.33	37.829
503.67	37.739
504.02	38.098
504.36	38.725
504.71	37.639
505.06	37.394
505.40	38.323
505.75	38.364
506.09	39.029
506.44	37.995
506.78	38.284
507.13	37.745
507.47	39.124
507.82	38.565
508.16	38.446
508.51	37.764
508.85	38.043
509.19	37.834
509.54	38.002
509.88	37.872
510.23	37.683
510.57	39.259
510.92	39.098
511.26	38.278
511.61	37.473
511.95	39.063
512.30	38.538
512.64	37.618
512.98	39.494
513.33	38.880
513.67	38.414
514.02	38.647
514.36	38.670
514.70	38.766
515.05	38.822
515.39	38.639
515.74	39.151
516.08	38.444
516.42	39.433
516.77	38.879
517.11	39.016
517.46	40.550
517.80	39.471
518.14	39.493
518.49	38.733
518.83	38.754
519.17	40.734
519.52	37.767
519.86	40.621
520.20	39.425
520.55	40.246
520.89	38.009
521.23	39.805
521.58	40.251
521.92	39.139
522.26	38.794
522.61	39.670
522.95	38.226
523.29	40.502
523.64	39.350
523.98	40.356
524.32	38.529
524.66	38.447
525.01	39.627
525.35	40.077
525.69	39.753
526.04	40.470
526.38	39.975
526.72	38.825
527.06	39.779
527.41	39.208
527.75	39.538
528.09	39.841
528.43	38.623
528.78	39.510
529.12	39.885
529.46	39.111
529.80	39.832
530.15	38.957
530.49	38.745
530.83	39.948
531.17	39.259
531.51	39.250
531.86	40.026
532.20	40.486
532.54	39.104
532.88	39.065
533.22	39.171
533.57	39.752
533.91	38.764
534.25	37.901
534.59	37.914
534.93	38.270
535.27	38.829
535.62	38.811
535.96	39.043
536.30	38.940
536.64	38.380
536.98	40.254
537.32	38.908
537.66	38.561
538.01	39.038
538.35	37.635
538.69	38.035
539.03	38.592
539.37	38.656
539.71	38.626
540.05	37.491
540.39	39.543
540.73	38.079
541.07	39.071
541.42	38.893
541.76	38.007
542.10	39.365
542.44	38.108
542.78	39.145
543.12	38.968
543.46	38.699
543.80	36.990
544.14	38.684
544.48	38.255
544.82	38.024
545.16	39.973
545.50	38.829
545.84	38.248
546.18	37.517
546.52	37.980
546.86	39.245
547.20	39.170
547.54	39.394
547.88	37.823
548.22	37.353
548.56	38.410
548.90	40.027
549.24	38.402
549.58	38.744
549.92	39.576
550.26	39.379
550.60	38.976
550.94	38.686
551.28	39.127
551.62	38.479
551.96	38.929
552.30	39.024
552.64	38.424
552.98	38.823
553.32	38.745
553.66	38.645
554.00	38.806
554.34	38.773
554.68	39.035
555.02	38.784
555.36	38.533
555.69	38.968
556.03	37.965
556.37	39.260
556.71	38.654
557.05	39.394
557.39	39.792
557.73	39.387
558.07	39.412
558.41	38.145
558.75	38.479
559.08	38.366
559.42	39.587
559.76	38.574
560.10	39.821
560.44	39.668
560.78	38.761
561.12	39.614
561.45	39.110
561.79	38.955
562.13	39.481
562.47	38.655
562.81	38.897
563.15	38.768
563.48	39.323
563.82	38.675
564.16	38.201
564.50	38.777
564.84	38.823
565.17	38.594
565.51	38.331
565.85	40.500
566.19	38.406
566.52	38.748
566.86	38.875
567.20	39.044
567.54	38.512
567.88	37.298
568.21	38.199
568.55	38.176
568.89	36.630
569.23	36.280
569.56	35.813
569.90	36.349
570.24	36.716
570.57	35.079
570.91	35.464
571.25	35.895
571.59	35.279
571.92	34.821
572.26	35.500
572.60	34.967
572.93	34.624
573.27	34.634
573.61	34.012
573.95	34.433
574.28	34.102
574.62	35.180
574.96	34.073
575.29	34.121
575.63	34.298
575.97	33.981
576.30	34.420
576.64	33.577
576.98	34.287
577.31	33.826
577.65	33.617
577.98	33.714
578.32	33.972
578.66	34.314
578.99	34.153
579.33	34.363
579.67	34.339
580.00	33.606
580.34	33.244
580.67	34.126
581.01	33.318
581.35	33.936
581.68	33.168
582.02	34.276
582.35	33.277
582.69	34.433
583.02	34.549
583.36	34.342
583.70	33.794
584.03	34.671
584.37	34.398
584.70	33.888
585.04	34.152
585.37	33.723
585.71	34.180
586.04	34.448
586.38	34.296
586.72	34.301
587.05	34.948
587.39	34.499
587.72	34.404
588.06	34.911
588.39	34.776
588.73	35.697
589.06	35.038
589.40	35.898
589.73	35.198
590.07	35.215
590.40	34.871
590.73	36.545
591.07	35.738
591.40	36.655
591.74	37.098
592.07	36.036
592.41	36.178
592.74	35.396
593.08	36.251
593.41	35.822
593.75	34.982
594.08	35.873
594.41	36.118
594.75	35.561
595.08	36.015
595.42	36.236
595.75	35.612
596.09	35.080
596.42	35.925
596.75	35.748
597.09	36.109
597.42	35.661
597.75	36.094
598.09	36.105
598.42	35.307
598.76	35.133
599.09	35.596
599.42	36.063
599.76	35.183
600.09	35.916
600.42	36.081
600.76	35.028
601.09	35.549
601.42	35.101
601.76	35.670
602.09	35.746
602.42	35.514
602.76	35.854
603.09	35.605
603.42	36.060
603.76	35.221
604.09	35.923
604.42	35.262
604.76	35.717
605.09	36.212
605.42	36.303
605.75	35.748
606.09	35.949
606.42	35.442
606.75	35.595
607.09	36.303
607.42	35.651
607.75	35.629
608.08	37.009
608.42	36.991
608.75	35.561
609.08	36.824
609.41	35.825
609.75	36.031
610.08	36.324
610.41	35.711
610.74	35.832
611.07	36.258
611.41	35.653
611.74	35.990
612.07	37.540
612.40	36.087
612.73	36.403
613.07	36.434
613.40	37.165
613.73	36.458
614.06	35.969
614.39	37.204
614.72	35.307
615.06	36.739
615.39	35.920
615.72	36.665
616.05	36.610
616.38	37.551
616.71	37.898
617.05	37.394
617.38	37.152
617.71	35.872
618.04	37.081
618.37	37.296
618.70	37.484
619.03	37.441
619.36	39.253
619.69	38.047
620.03	37.259
620.36	36.990
620.69	36.755
621.02	36.834
621.35	37.823
621.68	37.623
622.01	38.511
622.34	39.053
622.67	38.203
623.00	37.261
623.33	37.910
623.66	36.706
623.99	37.970
624.32	37.351
624.65	37.748
624.99	37.192
625.32	37.275
625.65	38.617
625.98	38.028
626.31	37.684
626.64	37.992
626.97	39.041
627.30	37.532
627.63	38.774
627.96	38.903
628.29	39.062
628.62	40.210
628.95	40.945
629.28	39.098
629.61	39.450
629.94	39.603
630.26	41.252
630.59	40.905
630.92	40.541
631.25	40.827
631.58	38.730
631.91	39.255
632.24	41.111
632.57	41.444
632.90	40.230
