SpectraSuite Data File
++++++++++++++++++++++++++++++++++++
Date: Sat May 16 11:34:24 PDT 2015
User: schluterlab
Dark Spectrum Present: Yes
Reference Spectrum Present: Yes
Number of Sampled Component Spectra: 1
Spectrometers: USB2E3373
Integration Time (usec): 3000 (USB2E3373)
Spectra Averaged: 3 (USB2E3373)
Boxcar Smoothing: 0 (USB2E3373)
Correct for Electrical Dark: No (USB2E3373)
Strobe/Lamp Enabled: No (USB2E3373)
Correct for Detector Non-linearity: No (USB2E3373)
Correct for Stray Light: No (USB2E3373)
Number of Pixels in Processed Spectrum: 2048
>>>>>Begin Processed Spectral Data<<<<<
178.53	0.000
178.91	93.333
179.29	766.667
179.67	-800.000
180.04	-15.385
180.42	1500.000
180.80	250.000
181.18	425.000
181.56	-162.500
181.94	1100.000
182.31	525.000
182.69	15.385
183.07	-766.667
183.45	1050.000
183.83	300.000
184.20	-185.714
184.58	-250.000
184.96	-200.000
185.34	112.500
185.72	-525.000
186.09	266.667
186.47	-125.000
186.85	-187.500
187.23	-150.000
187.61	-275.000
187.98	-250.000
188.36	-212.500
188.74	-50.000
189.12	2900.000
189.49	371.429
189.87	-58.333
190.25	550.000
190.63	-21.429
191.00	-111.111
191.38	440.000
191.76	-66.667
192.14	680.000
192.51	-140.000
192.89	-733.333
193.27	0.000
193.65	-88.889
194.02	-185.714
194.40	533.333
194.78	-190.000
195.15	-900.000
195.53	-72.727
195.91	-350.000
196.29	500.000
196.66	-366.667
197.04	2500.000
197.42	-100.000
197.79	33.333
198.17	-366.667
198.55	-650.000
198.92	-1100.000
199.30	125.000
199.68	-950.000
200.05	-166.667
200.43	-155.556
200.81	-1500.000
201.18	-100.000
201.56	171.429
201.94	-46.667
202.31	-22.727
202.69	10.000
203.07	-130.000
203.44	833.333
203.82	-450.000
204.19	-500.000
204.57	-275.000
204.95	-100.000
205.32	-56.250
205.70	500.000
206.08	-1700.000
206.45	-16.667
206.83	-550.000
207.20	200.000
207.58	-366.667
207.96	-266.667
208.33	-225.000
208.71	-133.333
209.08	240.000
209.46	-214.286
209.84	500.000
210.21	0.000
210.59	40.000
210.96	1000.000
211.34	-316.667
211.71	-466.667
212.09	375.000
212.46	1450.000
212.84	-2600.000
213.22	500.000
213.59	141.667
213.97	-33.333
214.34	70.000
214.72	-110.000
215.09	-200.000
215.47	-233.333
215.84	-10.000
216.22	-140.000
216.59	-53.333
216.97	-125.000
217.34	1050.000
217.72	-114.286
218.09	-300.000
218.47	-214.286
218.84	257.143
219.22	-228.571
219.59	0.000
219.97	171.429
220.34	225.000
220.72	275.000
221.09	-76.923
221.47	0.000
221.84	366.667
222.22	-600.000
222.59	600.000
222.97	-175.000
223.34	-600.000
223.72	-366.667
224.09	-100.000
224.46	-325.000
224.84	-57.143
225.21	-285.714
225.59	-27.273
225.96	-100.000
226.34	-200.000
226.71	-155.556
227.08	-20.000
227.46	2000.000
227.83	-157.143
228.21	-237.500
228.58	400.000
228.95	12.500
229.33	-800.000
229.70	-380.000
230.08	-750.000
230.45	-83.333
230.82	-250.000
231.20	-900.000
231.57	-850.000
231.95	800.000
232.32	38.095
232.69	-55.556
233.07	-128.571
233.44	-1250.000
233.81	-106.667
234.19	-33.333
234.56	-37.500
234.93	12.500
235.31	-200.000
235.68	-150.000
236.05	-117.647
236.43	-54.545
236.80	-25.806
237.17	-20.833
237.55	-28.571
237.92	-40.909
238.29	-11.429
238.67	-5.882
239.04	-16.667
239.41	9.677
239.79	-46.154
240.16	0.000
240.53	-14.545
240.91	-10.256
241.28	-9.091
241.65	20.000
242.02	9.836
242.40	1.639
242.77	6.061
243.14	25.424
243.51	4.286
243.89	20.253
244.26	4.494
244.63	20.000
245.00	14.737
245.38	14.407
245.75	7.965
246.12	8.800
246.49	11.024
246.87	2.439
247.24	13.559
247.61	12.712
247.98	5.634
248.36	16.783
248.73	15.190
249.10	12.102
249.47	15.789
249.84	19.318
250.22	13.095
250.59	16.384
250.96	20.419
251.33	18.483
251.70	17.788
252.08	24.645
252.45	16.114
252.82	12.857
253.19	20.851
253.56	20.161
253.94	18.143
254.31	21.888
254.68	19.512
255.05	16.935
255.42	23.016
255.79	12.903
256.16	20.000
256.54	19.853
256.91	16.667
257.28	15.385
257.65	16.667
258.02	19.182
258.39	20.067
258.76	17.230
259.14	13.889
259.51	20.656
259.88	19.207
260.25	23.292
260.62	20.257
260.99	14.540
261.36	17.988
261.73	19.942
262.10	21.111
262.47	19.088
262.85	18.571
263.22	18.052
263.59	22.462
263.96	21.159
264.33	20.867
264.70	22.652
265.07	21.154
265.44	20.930
265.81	18.863
266.18	19.494
266.55	18.382
266.92	22.670
267.29	21.308
267.66	19.753
268.03	23.430
268.40	19.484
268.77	21.205
269.14	20.186
269.51	18.851
269.88	18.578
270.25	19.580
270.62	19.451
270.99	19.144
271.36	18.881
271.73	20.628
272.10	22.197
272.47	20.889
272.84	21.556
273.21	20.642
273.58	22.637
273.95	17.763
274.32	21.719
274.69	23.195
275.06	21.881
275.43	19.196
275.80	24.033
276.17	18.619
276.54	23.014
276.91	18.313
277.28	22.110
277.65	20.868
278.02	19.833
278.39	19.057
278.76	20.916
279.13	22.530
279.50	19.284
279.87	21.564
280.23	18.826
280.60	22.664
280.97	20.971
281.34	20.503
281.71	22.500
282.08	20.161
282.45	17.719
282.82	19.767
283.19	20.909
283.56	22.344
283.92	22.438
284.29	19.517
284.66	21.403
285.03	20.321
285.40	19.188
285.77	22.982
286.14	20.758
286.51	19.005
286.87	21.234
287.24	22.184
287.61	20.992
287.98	20.277
288.35	20.331
288.72	19.864
289.08	18.305
289.45	19.697
289.82	20.761
290.19	20.197
290.56	18.017
290.93	19.237
291.29	19.935
291.66	18.841
292.03	18.995
292.40	20.030
292.77	19.255
293.13	19.837
293.50	18.574
293.87	17.945
294.24	19.759
294.60	15.758
294.97	17.906
295.34	17.185
295.71	17.411
296.08	18.740
296.44	16.452
296.81	18.661
297.18	17.465
297.55	18.503
297.91	19.526
298.28	16.438
298.65	19.386
299.02	17.647
299.38	18.449
299.75	17.799
300.12	18.718
300.48	16.880
300.85	17.300
301.22	17.982
301.59	16.645
301.95	19.018
302.32	17.471
302.69	18.237
303.05	16.117
303.42	17.000
303.79	16.627
304.15	18.246
304.52	16.453
304.89	17.119
305.25	16.117
305.62	16.216
305.99	18.963
306.35	17.758
306.72	15.376
307.09	17.934
307.45	16.913
307.82	16.872
308.19	17.002
308.55	15.686
308.92	17.508
309.29	16.541
309.65	16.861
310.02	16.739
310.38	16.757
310.75	17.623
311.12	17.252
311.48	18.476
311.85	16.890
312.22	16.787
312.58	17.294
312.95	16.514
313.31	17.183
313.68	16.583
314.05	18.892
314.41	16.398
314.78	16.783
315.14	16.584
315.51	16.008
315.87	18.780
316.24	17.784
316.61	18.522
316.97	18.408
317.34	18.015
317.70	16.141
318.07	19.123
318.43	18.914
318.80	19.531
319.16	18.199
319.53	18.797
319.89	16.933
320.26	19.118
320.62	18.462
320.99	18.408
321.35	17.340
321.72	17.707
322.08	18.991
322.45	18.515
322.81	19.981
323.18	19.693
323.54	20.055
323.91	19.555
324.27	19.011
324.64	19.470
325.00	19.721
325.37	20.814
325.73	21.960
326.10	20.283
326.46	20.753
326.83	19.149
327.19	21.935
327.56	23.169
327.92	22.600
328.29	21.991
328.65	20.455
329.01	22.261
329.38	22.926
329.74	23.535
330.11	22.393
330.47	21.889
330.84	22.731
331.20	23.195
331.56	22.881
331.93	22.735
332.29	23.288
332.66	23.090
333.02	23.620
333.38	24.373
333.75	25.111
334.11	22.667
334.48	23.036
334.84	24.322
335.20	23.759
335.57	23.285
335.93	26.768
336.29	24.624
336.66	22.996
337.02	25.315
337.38	23.351
337.75	23.968
338.11	24.240
338.47	25.623
338.84	26.679
339.20	24.165
339.56	25.668
339.93	26.455
340.29	24.624
340.65	24.913
341.02	25.295
341.38	24.179
341.74	25.233
342.11	25.512
342.47	25.064
342.83	25.105
343.20	26.302
343.56	24.816
343.92	25.376
344.28	26.325
344.65	25.165
345.01	25.798
345.37	26.163
345.73	24.550
346.10	24.775
346.46	26.158
346.82	25.742
347.19	25.226
347.55	24.960
347.91	26.142
348.27	24.901
348.63	25.848
349.00	25.776
349.36	23.810
349.72	26.433
350.08	24.779
350.45	25.532
350.81	25.398
351.17	24.357
351.53	24.662
351.89	25.222
352.26	26.202
352.62	26.190
352.98	25.633
353.34	25.180
353.70	24.942
354.07	26.121
354.43	25.771
354.79	24.881
355.15	24.281
355.51	25.000
355.87	25.375
356.24	25.576
356.60	26.591
356.96	27.098
357.32	25.178
357.68	26.054
358.04	26.174
358.40	26.063
358.77	25.270
359.13	24.943
359.49	24.943
359.85	25.610
360.21	25.799
360.57	26.657
360.93	26.000
361.29	27.205
361.66	24.848
362.02	25.444
362.38	25.825
362.74	25.641
363.10	26.327
363.46	25.926
363.82	26.020
364.18	25.760
364.54	26.876
364.90	26.205
365.26	26.034
365.62	26.871
365.98	26.885
366.35	25.563
366.71	25.300
367.07	26.253
367.43	27.248
367.79	26.735
368.15	25.391
368.51	26.364
368.87	27.404
369.23	26.947
369.59	25.833
369.95	26.075
370.31	26.371
370.67	26.247
371.03	27.041
371.39	26.308
371.75	27.539
372.11	27.618
372.47	27.187
372.83	27.955
373.19	26.929
373.55	27.797
373.91	27.667
374.27	26.762
374.63	26.225
374.99	27.886
375.35	26.447
375.71	27.684
376.07	27.652
376.42	26.821
376.78	27.712
377.14	28.610
377.50	27.982
377.86	27.958
378.22	28.204
378.58	27.733
378.94	28.237
379.30	29.129
379.66	28.294
380.02	27.867
380.38	29.426
380.74	28.312
381.09	28.588
381.45	29.296
381.81	28.312
382.17	28.885
382.53	28.450
382.89	29.306
383.25	29.440
383.61	28.774
383.97	29.271
384.32	29.725
384.68	29.565
385.04	29.831
385.40	29.032
385.76	29.817
386.12	28.795
386.48	29.703
386.83	29.632
387.19	29.647
387.55	30.224
387.91	29.223
388.27	29.614
388.62	29.267
388.98	29.073
389.34	30.294
389.70	30.146
390.06	29.086
390.42	30.513
390.77	30.789
391.13	30.807
391.49	29.819
391.85	30.611
392.20	30.097
392.56	30.788
392.92	30.006
393.28	30.253
393.64	30.186
393.99	31.631
394.35	30.292
394.71	29.833
395.07	32.015
395.42	29.619
395.78	30.233
396.14	31.589
396.50	31.376
396.85	31.092
397.21	30.134
397.57	30.638
397.92	31.674
398.28	31.444
398.64	30.399
399.00	31.517
399.35	31.116
399.71	31.649
400.07	31.522
400.42	31.934
400.78	30.769
401.14	31.737
401.49	31.309
401.85	31.422
402.21	31.585
402.57	31.493
402.92	32.159
403.28	31.250
403.63	29.539
403.99	31.883
404.35	30.616
404.70	31.773
405.06	32.065
405.42	30.873
405.77	30.656
406.13	30.380
406.49	31.636
406.84	30.774
407.20	31.508
407.55	31.476
407.91	32.060
408.27	32.537
408.62	31.389
408.98	32.019
409.34	31.749
409.69	30.561
410.05	31.898
410.40	32.066
410.76	32.602
411.11	31.920
411.47	31.458
411.83	32.029
412.18	31.064
412.54	31.910
412.89	32.503
413.25	30.756
413.60	31.896
413.96	30.869
414.31	31.254
414.67	31.429
415.03	32.277
415.38	33.182
415.74	32.603
416.09	31.777
416.45	31.283
416.80	32.380
417.16	32.625
417.51	32.764
417.87	32.751
418.22	32.491
418.58	31.707
418.93	32.128
419.29	32.246
419.64	31.972
420.00	32.382
420.35	33.057
420.71	32.113
421.06	32.426
421.42	32.845
421.77	31.882
422.12	33.128
422.48	33.030
422.83	32.745
423.19	33.073
423.54	31.758
423.90	33.372
424.25	32.862
424.61	33.776
424.96	34.231
425.31	34.153
425.67	33.066
426.02	32.760
426.38	34.483
426.73	33.665
427.09	33.211
427.44	33.409
427.79	33.256
428.15	32.974
428.50	35.132
428.85	34.233
429.21	32.651
429.56	34.167
429.92	33.567
430.27	33.948
430.62	34.013
430.98	34.292
431.33	34.205
431.68	34.692
432.04	34.863
432.39	33.960
432.74	34.472
433.10	34.834
433.45	34.254
433.80	34.770
434.16	34.498
434.51	35.616
434.86	36.028
435.22	35.078
435.57	34.700
435.92	34.467
436.28	35.608
436.63	35.105
436.98	34.880
437.34	35.204
437.69	35.414
438.04	34.317
438.39	36.101
438.75	35.972
439.10	36.147
439.45	36.512
439.81	35.964
440.16	35.264
440.51	35.294
440.86	36.322
441.22	34.992
441.57	36.211
441.92	36.368
442.27	35.606
442.63	36.534
442.98	35.440
443.33	36.299
443.68	36.269
444.03	36.002
444.39	36.515
444.74	36.454
445.09	35.910
445.44	36.804
445.79	36.461
446.15	36.857
446.50	35.710
446.85	36.480
447.20	36.823
447.55	36.851
447.91	37.507
448.26	36.480
448.61	36.616
448.96	37.535
449.31	37.148
449.66	38.466
450.02	38.116
450.37	37.043
450.72	36.893
451.07	37.524
451.42	37.237
451.77	38.540
452.12	38.558
452.47	37.909
452.83	37.158
453.18	38.836
453.53	38.184
453.88	38.696
454.23	37.606
454.58	40.025
454.93	37.972
455.28	38.878
455.63	38.145
455.98	39.036
456.34	38.437
456.69	39.462
457.04	38.722
457.39	38.337
457.74	38.748
458.09	38.863
458.44	39.376
458.79	37.892
459.14	39.817
459.49	38.958
459.84	38.730
460.19	38.962
460.54	38.173
460.89	39.350
461.24	38.676
461.59	38.628
461.94	39.465
462.29	39.845
462.64	40.184
462.99	40.295
463.34	38.825
463.69	40.522
464.04	38.781
464.39	39.606
464.74	39.125
465.09	38.485
465.44	39.312
465.79	39.255
466.14	39.586
466.49	40.012
466.84	40.636
467.19	39.900
467.54	39.051
467.89	40.259
468.24	39.846
468.59	40.162
468.94	41.479
469.29	40.871
469.64	40.633
469.99	40.783
470.34	41.283
470.68	41.570
471.03	41.363
471.38	40.556
471.73	41.469
472.08	41.834
472.43	41.313
472.78	41.333
473.13	41.418
473.48	41.991
473.83	40.757
474.17	41.274
474.52	42.391
474.87	41.492
475.22	40.944
475.57	42.278
475.92	41.577
476.27	41.143
476.61	41.859
476.96	41.811
477.31	41.819
477.66	42.446
478.01	42.410
478.36	41.016
478.70	43.193
479.05	42.077
479.40	42.383
479.75	42.355
480.10	41.964
480.45	41.731
480.79	42.152
481.14	43.201
481.49	42.062
481.84	41.840
482.19	42.257
482.53	42.992
482.88	41.718
483.23	42.300
483.58	42.599
483.92	42.953
484.27	42.136
484.62	41.598
484.97	41.543
485.31	41.184
485.66	39.661
486.01	40.404
486.36	41.156
486.70	41.865
487.05	40.915
487.40	41.426
487.75	40.960
488.09	40.364
488.44	41.509
488.79	41.740
489.13	41.537
489.48	43.230
489.83	43.013
490.17	41.707
490.52	43.116
490.87	42.263
491.22	43.811
491.56	43.287
491.91	43.798
492.26	43.632
492.60	42.864
492.95	43.503
493.30	43.735
493.64	42.501
493.99	42.830
494.34	43.667
494.68	43.867
495.03	42.973
495.37	44.149
495.72	44.450
496.07	44.627
496.41	44.419
496.76	43.196
497.11	44.089
497.45	44.301
497.80	44.172
498.14	44.253
498.49	43.898
498.84	43.155
499.18	44.834
499.53	44.082
499.87	43.822
500.22	44.608
500.56	44.672
500.91	44.089
501.26	45.075
501.60	43.909
501.95	45.121
502.29	43.836
502.64	45.450
502.98	44.801
503.33	43.797
503.67	44.971
504.02	45.099
504.36	45.294
504.71	44.782
505.06	44.383
505.40	45.459
505.75	44.970
506.09	45.450
506.44	45.714
506.78	45.861
507.13	45.881
507.47	45.592
507.82	44.966
508.16	46.218
508.51	46.059
508.85	47.516
509.19	45.003
509.54	46.934
509.88	46.330
510.23	46.069
510.57	47.354
510.92	47.583
511.26	46.199
511.61	45.896
511.95	46.282
512.30	47.883
512.64	47.190
512.98	46.755
513.33	47.556
513.67	47.069
514.02	47.819
514.36	47.590
514.70	47.142
515.05	48.085
515.39	46.021
515.74	48.284
516.08	46.801
516.42	48.555
516.77	48.931
517.11	49.485
517.46	49.821
517.80	49.278
518.14	48.611
518.49	48.595
518.83	50.267
519.17	49.142
519.52	48.120
519.86	49.462
520.20	50.061
520.55	49.600
520.89	49.593
521.23	49.389
521.58	50.658
521.92	50.602
522.26	50.349
522.61	50.127
522.95	49.458
523.29	50.909
523.64	49.719
523.98	50.350
524.32	50.974
524.66	49.752
525.01	50.610
525.35	51.418
525.69	50.748
526.04	49.413
526.38	52.451
526.72	49.936
527.06	52.214
527.41	51.155
527.75	51.485
528.09	51.224
528.43	51.541
528.78	50.942
529.12	52.561
529.46	51.289
529.80	49.516
530.15	50.805
530.49	50.517
530.83	51.604
531.17	52.054
531.51	51.507
531.86	50.823
532.20	53.036
532.54	52.139
532.88	51.186
533.22	52.473
533.57	52.219
533.91	50.999
534.25	49.969
534.59	49.407
534.93	49.969
535.27	52.549
535.62	51.151
535.96	51.519
536.30	49.935
536.64	50.531
536.98	53.037
537.32	50.864
537.66	52.817
538.01	51.890
538.35	50.068
538.69	50.401
539.03	51.117
539.37	52.029
539.71	50.033
540.05	51.679
540.39	53.116
540.73	50.311
541.07	51.913
541.42	50.979
541.76	49.103
542.10	52.600
542.44	49.234
542.78	50.407
543.12	50.509
543.46	51.027
543.80	49.900
544.14	51.444
544.48	50.328
544.82	50.000
545.16	50.973
545.50	50.135
545.84	50.348
546.18	50.693
546.52	51.280
546.86	50.783
547.20	51.406
547.54	49.449
547.88	49.967
548.22	48.886
548.56	50.501
548.90	50.404
549.24	50.666
549.58	49.965
549.92	51.873
550.26	51.012
550.60	50.711
550.94	51.533
551.28	51.091
551.62	50.369
551.96	51.013
552.30	50.523
552.64	51.513
552.98	50.035
553.32	49.423
553.66	49.748
554.00	51.386
554.34	50.614
554.68	49.561
555.02	50.868
555.36	49.820
555.69	50.931
556.03	49.965
556.37	50.640
556.71	50.966
557.05	50.702
557.39	51.448
557.73	50.109
558.07	50.867
558.41	49.364
558.75	49.810
559.08	50.506
559.42	50.613
559.76	52.454
560.10	51.603
560.44	51.445
560.78	50.035
561.12	51.346
561.45	49.658
561.79	50.941
562.13	49.579
562.47	50.560
562.81	50.000
563.15	50.385
563.48	50.449
563.82	50.980
564.16	48.546
564.50	49.597
564.84	49.008
565.17	49.668
565.51	49.218
565.85	50.372
566.19	49.671
566.52	49.315
566.86	49.052
567.20	49.637
567.54	48.612
567.88	48.241
568.21	47.371
568.55	47.137
568.89	46.272
569.23	45.905
569.56	45.313
569.90	45.712
570.24	44.720
570.57	44.042
570.91	43.931
571.25	45.039
571.59	44.552
571.92	43.839
572.26	43.769
572.60	43.190
572.93	43.326
573.27	43.262
573.61	42.787
573.95	42.922
574.28	41.844
574.62	42.857
574.96	42.149
575.29	42.683
575.63	42.288
575.97	41.855
576.30	42.450
576.64	42.820
576.98	42.523
577.31	42.360
577.65	42.071
577.98	41.727
578.32	41.654
578.66	41.610
578.99	41.629
579.33	42.904
579.67	41.567
580.00	41.543
580.34	41.487
580.67	41.898
581.01	41.156
581.35	41.153
581.68	41.450
582.02	41.197
582.35	41.549
582.69	42.141
583.02	41.799
583.36	41.969
583.70	41.705
584.03	42.134
584.37	42.084
584.70	42.321
585.04	42.203
585.37	41.217
585.71	41.655
586.04	41.667
586.38	41.460
586.72	41.911
587.05	41.999
587.39	41.765
587.72	41.492
588.06	42.531
588.39	42.296
588.73	42.185
589.06	42.391
589.40	42.838
589.73	42.103
590.07	43.117
590.40	43.469
590.73	42.343
591.07	44.139
591.40	44.194
591.74	44.266
592.07	43.694
592.41	43.567
592.74	43.582
593.08	42.774
593.41	42.303
593.75	41.939
594.08	43.278
594.41	43.623
594.75	43.262
595.08	43.045
595.42	43.389
595.75	42.007
596.09	42.297
596.42	43.822
596.75	43.467
597.09	44.123
597.42	42.427
597.75	43.490
598.09	44.600
598.42	43.659
598.76	42.940
599.09	42.305
599.42	41.945
599.76	42.016
600.09	43.855
600.42	43.069
600.76	43.051
601.09	43.107
601.42	43.134
601.76	43.769
602.09	43.436
602.42	43.457
602.76	42.459
603.09	43.065
603.42	43.312
603.76	42.760
604.09	42.491
604.42	43.256
604.76	43.655
605.09	44.213
605.42	43.351
605.75	43.165
606.09	42.756
606.42	43.276
606.75	43.581
607.09	43.758
607.42	43.046
607.75	44.194
608.08	44.148
608.42	44.229
608.75	43.505
609.08	43.546
609.41	43.000
609.75	43.540
610.08	44.314
610.41	43.807
610.74	44.632
611.07	43.966
611.41	43.520
611.74	45.398
612.07	45.542
612.40	43.817
612.73	44.319
613.07	43.808
613.40	45.265
613.73	44.578
614.06	44.261
614.39	44.476
614.72	44.078
615.06	44.620
615.39	44.167
615.72	44.487
616.05	44.119
616.38	44.225
616.71	45.105
617.05	46.019
617.38	45.697
617.71	45.639
618.04	45.776
618.37	43.836
618.70	46.871
619.03	45.565
619.36	46.089
619.69	46.088
620.03	46.419
620.36	46.554
620.69	47.308
621.02	47.260
621.35	47.581
621.68	47.049
622.01	49.110
622.34	46.118
622.67	46.250
623.00	47.360
623.33	47.313
623.66	46.898
623.99	47.143
624.32	47.321
624.65	47.093
624.99	47.423
625.32	47.530
625.65	47.397
625.98	46.948
626.31	48.124
626.64	48.703
626.97	48.459
627.30	48.255
627.63	47.323
627.96	47.781
628.29	49.081
628.62	49.666
628.95	49.606
629.28	48.120
629.61	50.540
629.94	49.905
630.26	51.093
630.59	50.653
630.92	49.249
631.25	49.899
631.58	51.429
