SpectraSuite Data File
++++++++++++++++++++++++++++++++++++
Date: Sat May 16 11:23:01 PDT 2015
User: schluterlab
Dark Spectrum Present: Yes
Reference Spectrum Present: Yes
Number of Sampled Component Spectra: 1
Spectrometers: USB2E3373
Integration Time (usec): 3000 (USB2E3373)
Spectra Averaged: 3 (USB2E3373)
Boxcar Smoothing: 0 (USB2E3373)
Correct for Electrical Dark: No (USB2E3373)
Strobe/Lamp Enabled: No (USB2E3373)
Correct for Detector Non-linearity: No (USB2E3373)
Correct for Stray Light: No (USB2E3373)
Number of Pixels in Processed Spectrum: 2048
>>>>>Begin Processed Spectral Data<<<<<
178.53	0.000
178.91	206.667
179.29	466.667
179.67	-1400.000
180.04	-69.231
180.42	1300.000
180.80	150.000
181.18	200.000
181.56	-25.000
181.94	700.000
182.31	275.000
182.69	-69.231
183.07	-400.000
183.45	1200.000
183.83	200.000
184.20	-300.000
184.58	-175.000
184.96	-150.000
185.34	168.750
185.72	-600.000
186.09	216.667
186.47	-125.000
186.85	-100.000
187.23	-112.500
187.61	-400.000
187.98	-225.000
188.36	-187.500
188.74	-125.000
189.12	2400.000
189.49	285.714
189.87	-66.667
190.25	425.000
190.63	-35.714
191.00	-133.333
191.38	440.000
191.76	-60.000
192.14	560.000
192.51	-100.000
192.89	-366.667
193.27	0.000
193.65	-188.889
194.02	-242.857
194.40	300.000
194.78	-110.000
195.15	-300.000
195.53	-136.364
195.91	-450.000
196.29	400.000
196.66	-333.333
197.04	1400.000
197.42	200.000
197.79	13.333
198.17	-233.333
198.55	-450.000
198.92	-1500.000
199.30	125.000
199.68	-450.000
200.05	11.111
200.43	-188.889
200.81	-1300.000
201.18	-100.000
201.56	300.000
201.94	-26.667
202.31	-45.455
202.69	-10.000
203.07	-60.000
203.44	433.333
203.82	-233.333
204.19	-500.000
204.57	-175.000
204.95	-600.000
205.32	-62.500
205.70	1400.000
206.08	-1900.000
206.45	-50.000
206.83	-300.000
207.20	-300.000
207.58	-733.333
207.96	-333.333
208.33	-137.500
208.71	-22.222
209.08	190.000
209.46	-28.571
209.84	800.000
210.21	0.000
210.59	25.000
210.96	1500.000
211.34	-300.000
211.71	-66.667
212.09	300.000
212.46	550.000
212.84	-3100.000
213.22	666.667
213.59	183.333
213.97	-111.111
214.34	110.000
214.72	-50.000
215.09	-600.000
215.47	-66.667
215.84	-80.000
216.22	-10.000
216.59	-66.667
216.97	-325.000
217.34	450.000
217.72	-214.286
218.09	-266.667
218.47	-285.714
218.84	100.000
219.22	-171.429
219.59	0.000
219.97	271.429
220.34	800.000
220.72	262.500
221.09	-92.308
221.47	0.000
221.84	233.333
222.22	-400.000
222.59	800.000
222.97	-225.000
223.34	-1100.000
223.72	-633.333
224.09	-92.857
224.46	-400.000
224.84	-64.286
225.21	-271.429
225.59	-63.636
225.96	-37.500
226.34	-257.143
226.71	-200.000
227.08	-40.000
227.46	1500.000
227.83	-242.857
228.21	-237.500
228.58	350.000
228.95	-143.750
229.33	-1300.000
229.70	-160.000
230.08	-1000.000
230.45	0.000
230.82	-183.333
231.20	-1300.000
231.57	-350.000
231.95	1100.000
232.32	19.048
232.69	-66.667
233.07	-200.000
233.44	-1050.000
233.81	-113.333
234.19	-88.889
234.56	-112.500
234.93	-25.000
235.31	-285.714
235.68	-121.429
236.05	-58.824
236.43	-59.091
236.80	-38.710
237.17	-20.833
237.55	-42.857
237.92	-81.818
238.29	-11.429
238.67	0.000
239.04	2.778
239.41	-16.129
239.79	-30.769
240.16	-23.810
240.53	-12.727
240.91	-12.821
241.28	9.091
241.65	20.000
242.02	13.115
242.40	-4.918
242.77	6.061
243.14	-1.695
243.51	1.429
243.89	10.127
244.26	13.483
244.63	15.789
245.00	27.368
245.38	16.102
245.75	7.080
246.12	13.600
246.49	18.110
246.87	3.252
247.24	7.627
247.61	17.797
247.98	21.127
248.36	15.385
248.73	17.089
249.10	9.554
249.47	19.883
249.84	24.432
250.22	12.500
250.59	25.424
250.96	19.895
251.33	19.905
251.70	16.827
252.08	14.692
252.45	18.009
252.82	14.762
253.19	16.596
253.56	20.161
253.94	18.565
254.31	17.597
254.68	20.732
255.05	18.548
255.42	24.206
255.79	15.412
256.16	20.784
256.54	21.691
256.91	16.667
257.28	16.850
257.65	18.794
258.02	23.270
258.39	15.385
258.76	18.919
259.14	16.358
259.51	20.656
259.88	20.122
260.25	18.634
260.62	18.328
260.99	19.585
261.36	19.207
261.73	18.786
262.10	21.944
262.47	19.943
262.85	22.857
263.22	22.636
263.59	20.000
263.96	19.130
264.33	18.428
264.70	23.204
265.07	21.429
265.44	19.380
265.81	21.189
266.18	17.722
266.55	19.118
266.92	21.914
267.29	21.065
267.66	20.000
268.03	23.430
268.40	18.310
268.77	23.373
269.14	19.722
269.51	20.690
269.88	17.661
270.25	19.114
270.62	21.968
270.99	19.369
271.36	19.814
271.73	17.937
272.10	19.222
272.47	20.667
272.84	22.667
273.21	19.954
273.58	19.341
273.95	19.079
274.32	22.172
274.69	23.414
275.06	21.268
275.43	19.420
275.80	23.218
276.17	19.874
276.54	23.422
276.91	21.605
277.28	19.270
277.65	20.248
278.02	19.624
278.39	20.236
278.76	19.721
279.13	22.134
279.50	20.477
279.87	17.759
280.23	19.838
280.60	19.682
280.97	20.000
281.34	21.470
281.71	20.192
282.08	19.153
282.45	19.959
282.82	18.217
283.19	20.000
283.56	21.978
283.92	21.025
284.29	19.888
284.66	20.504
285.03	21.034
285.40	20.849
285.77	21.754
286.14	19.314
286.51	18.650
286.87	20.690
287.24	19.795
287.61	19.174
287.98	18.891
288.35	18.182
288.72	16.808
289.08	17.627
289.45	19.192
289.82	15.398
290.19	20.033
290.56	17.190
290.93	18.124
291.29	17.990
291.66	16.586
292.03	20.251
292.40	19.578
292.77	18.634
293.13	20.163
293.50	19.168
293.87	19.172
294.24	17.044
294.60	16.515
294.97	17.299
295.34	17.333
295.71	17.411
296.08	14.439
296.44	16.309
296.81	18.376
297.18	15.775
297.55	17.797
297.91	18.689
298.28	17.671
298.65	17.434
299.02	16.578
299.38	16.711
299.75	16.440
300.12	16.923
300.48	16.624
300.85	16.776
301.22	17.206
301.59	15.865
301.95	16.877
302.32	16.688
302.69	16.769
303.05	16.850
303.42	14.625
303.79	16.029
304.15	16.351
304.52	15.169
304.89	16.293
305.25	15.751
305.62	15.864
305.99	17.903
306.35	15.649
306.72	16.515
307.09	17.594
307.45	16.232
307.82	16.536
308.19	16.219
308.55	15.686
308.92	16.434
309.29	15.135
309.65	15.270
310.02	16.091
310.38	16.324
310.75	16.086
311.12	15.806
311.48	16.284
311.85	16.581
312.22	15.654
312.58	16.887
312.95	16.820
313.31	16.683
313.68	15.980
314.05	17.211
314.41	16.298
314.78	16.783
315.14	17.473
315.51	15.603
315.87	17.425
316.24	17.590
316.61	16.219
316.97	17.612
317.34	15.800
317.70	16.512
318.07	16.884
318.43	16.948
318.80	18.216
319.16	16.135
319.53	17.387
319.89	17.968
320.26	17.647
320.62	16.635
320.99	17.711
321.35	15.961
321.72	17.707
322.08	18.398
322.45	17.426
322.81	19.212
323.18	17.579
323.54	17.930
323.91	18.258
324.27	18.061
324.64	17.824
325.00	18.150
325.37	19.095
325.73	19.685
326.10	18.069
326.46	17.863
326.83	19.064
327.19	18.682
327.56	20.528
327.92	18.777
328.29	18.701
328.65	18.455
329.01	18.816
329.38	18.466
329.74	19.780
330.11	19.130
330.47	20.163
330.84	20.623
331.20	19.495
331.56	19.599
331.93	18.384
332.29	20.639
332.66	19.666
333.02	19.548
333.38	19.982
333.75	20.748
334.11	20.089
334.48	20.830
334.84	21.085
335.20	20.567
335.57	19.765
335.93	20.680
336.29	20.106
336.66	19.824
337.02	20.541
337.38	19.430
337.75	20.457
338.11	21.288
338.47	20.374
338.84	19.510
339.20	19.156
339.56	21.034
339.93	20.988
340.29	18.866
340.65	19.930
341.02	20.320
341.38	20.388
341.74	19.729
342.11	21.246
342.47	19.828
342.83	20.067
343.20	20.068
343.56	19.020
343.92	21.202
344.28	21.699
344.65	19.637
345.01	19.664
345.37	20.349
345.73	18.412
346.10	19.297
346.46	19.415
346.82	20.449
347.19	19.228
347.55	20.626
347.91	21.417
348.27	19.730
348.63	20.194
349.00	20.048
349.36	18.189
349.72	20.143
350.08	20.529
350.45	19.307
350.81	20.860
351.17	19.373
351.53	19.650
351.89	19.078
352.26	20.775
352.62	22.043
352.98	20.965
353.34	21.103
353.70	19.691
354.07	21.007
354.43	20.316
354.79	20.048
355.15	19.489
355.51	19.922
355.87	20.395
356.24	19.460
356.60	22.160
356.96	20.246
357.32	20.111
357.68	20.460
358.04	19.938
358.40	19.180
358.77	19.938
359.13	20.122
359.49	20.559
359.85	21.113
360.21	20.928
360.57	21.084
360.93	21.852
361.29	21.450
361.66	20.808
362.02	20.044
362.38	21.277
362.74	20.659
363.10	20.158
363.46	22.650
363.82	21.866
364.18	21.274
364.54	22.159
364.90	20.685
365.26	20.114
365.62	21.739
365.98	22.262
366.35	21.690
366.71	20.789
367.07	21.383
367.43	21.620
367.79	21.993
368.15	20.270
368.51	20.839
368.87	22.459
369.23	21.825
369.59	21.389
369.95	21.564
370.31	22.644
370.67	20.607
371.03	22.522
371.39	22.136
371.75	22.103
372.11	22.166
372.47	22.343
372.83	22.879
373.19	21.286
373.55	22.379
373.91	21.906
374.27	21.424
374.63	22.015
374.99	22.601
375.35	22.342
375.71	23.228
376.07	22.313
376.42	22.781
376.78	23.791
377.14	22.237
377.50	22.824
377.86	23.082
378.22	22.299
378.58	22.421
378.94	22.503
379.30	23.644
379.66	23.922
380.02	23.054
380.38	22.598
380.74	23.388
381.09	23.433
381.45	23.568
381.81	22.989
382.17	23.120
382.53	23.161
382.89	22.667
383.25	22.757
383.61	22.818
383.97	23.393
384.32	23.217
384.68	23.519
385.04	22.886
385.40	23.981
385.76	23.841
386.12	24.297
386.48	23.948
386.83	23.865
387.19	23.670
387.55	22.835
387.91	23.948
388.27	23.040
388.62	24.399
388.98	24.107
389.34	24.419
389.70	23.752
390.06	23.679
390.42	24.936
390.77	24.038
391.13	24.410
391.49	24.579
391.85	24.813
392.20	24.150
392.56	24.679
392.92	23.274
393.28	24.455
393.64	24.534
393.99	24.738
394.35	24.696
394.71	23.718
395.07	25.361
395.42	23.719
395.78	23.884
396.14	24.673
396.50	24.037
396.85	24.306
397.21	24.301
397.57	24.316
397.92	24.180
398.28	24.667
398.64	24.509
399.00	25.674
399.35	24.352
399.71	25.377
400.07	24.776
400.42	24.331
400.78	25.283
401.14	24.731
401.49	24.882
401.85	25.076
402.21	25.328
402.57	24.575
402.92	26.306
403.28	25.735
403.63	24.206
403.99	24.736
404.35	24.094
404.70	25.044
405.06	24.798
405.42	24.539
405.77	24.152
406.13	24.361
406.49	25.165
406.84	24.415
407.20	24.912
407.55	24.383
407.91	24.158
408.27	24.939
408.62	24.714
408.98	25.349
409.34	24.741
409.69	24.575
410.05	23.711
410.40	23.850
410.76	25.667
411.11	24.938
411.47	24.488
411.83	25.733
412.18	24.443
412.54	24.100
412.89	24.727
413.25	24.734
413.60	23.937
413.96	23.783
414.31	24.281
414.67	25.079
415.03	24.321
415.38	24.789
415.74	25.258
416.09	24.552
416.45	24.272
416.80	25.228
417.16	23.987
417.51	25.936
417.87	25.243
418.22	24.210
418.58	24.840
418.93	24.831
419.29	24.843
419.64	24.812
420.00	25.759
420.35	24.837
420.71	26.110
421.06	25.917
421.42	25.117
421.77	25.405
422.12	25.462
422.48	25.922
422.83	26.253
423.19	24.777
423.54	25.764
423.90	26.316
424.25	25.113
424.61	25.452
424.96	26.331
425.31	25.601
425.67	25.501
426.02	24.785
426.38	25.408
426.73	25.307
427.09	26.532
427.44	25.000
427.79	25.581
428.15	25.853
428.50	26.569
428.85	25.899
429.21	26.619
429.56	26.354
429.92	25.601
430.27	25.773
430.62	25.705
430.98	25.562
431.33	26.681
431.68	26.273
432.04	26.749
432.39	26.895
432.74	26.859
433.10	26.337
433.45	26.137
433.80	26.316
434.16	26.652
434.51	26.959
434.86	27.358
435.22	26.392
435.57	26.805
435.92	27.022
436.28	26.884
436.63	26.569
436.98	26.117
437.34	26.580
437.69	26.546
438.04	27.226
438.39	27.316
438.75	27.939
439.10	27.374
439.45	26.976
439.81	26.627
440.16	27.314
440.51	27.882
440.86	26.721
441.22	26.976
441.57	27.105
441.92	27.673
442.27	26.299
442.63	26.717
442.98	27.314
443.33	27.897
443.68	27.358
444.03	27.456
444.39	27.117
444.74	27.808
445.09	27.303
445.44	27.856
445.79	27.384
446.15	27.930
446.50	26.619
446.85	27.296
447.20	27.017
447.55	28.287
447.91	27.681
448.26	27.821
448.61	28.127
448.96	28.515
449.31	27.903
449.66	27.476
450.02	27.368
450.37	27.362
450.72	27.684
451.07	28.536
451.42	27.385
451.77	28.366
452.12	28.665
452.47	28.904
452.83	26.616
453.18	27.957
453.53	28.420
453.88	28.708
454.23	27.388
454.58	28.589
454.93	28.275
455.28	28.171
455.63	28.501
455.98	28.735
456.34	28.335
456.69	29.143
457.04	28.888
457.39	27.990
457.74	28.529
458.09	28.944
458.44	29.446
458.79	27.691
459.14	29.150
459.49	28.419
459.84	28.836
460.19	29.236
460.54	29.038
460.89	27.915
461.24	29.022
461.59	28.957
461.94	28.962
462.29	28.291
462.64	29.051
462.99	29.116
463.34	28.494
463.69	29.135
464.04	28.120
464.39	28.017
464.74	28.191
465.09	28.202
465.44	29.047
465.79	28.878
466.14	29.114
466.49	28.728
466.84	29.832
467.19	30.424
467.54	28.038
467.89	28.915
468.24	30.523
468.59	28.607
468.94	29.968
469.29	29.305
469.64	30.054
469.99	30.925
470.34	29.793
470.68	30.087
471.03	30.213
471.38	29.861
471.73	29.720
472.08	29.183
472.43	29.601
472.78	30.267
473.13	28.562
473.48	30.057
473.83	30.211
474.17	31.083
474.52	31.266
474.87	29.254
475.22	29.499
475.57	30.167
475.92	30.022
476.27	30.171
476.61	30.197
476.96	30.352
477.31	30.409
477.66	30.327
478.01	30.902
478.36	31.063
478.70	30.913
479.05	31.314
479.40	30.207
479.75	30.530
480.10	30.258
480.45	30.319
480.79	30.849
481.14	30.507
481.49	31.510
481.84	30.374
482.19	30.333
482.53	32.102
482.88	30.992
483.23	31.174
483.58	31.129
483.92	31.629
484.27	30.616
484.62	31.015
484.97	30.398
485.31	29.344
485.66	28.886
486.01	28.566
486.36	29.630
486.70	30.177
487.05	29.798
487.40	30.422
487.75	30.264
488.09	30.173
488.44	30.683
488.79	30.421
489.13	31.191
489.48	30.873
489.83	31.310
490.17	31.171
490.52	31.839
490.87	30.808
491.22	30.593
491.56	31.250
491.91	30.916
492.26	31.745
492.60	31.874
492.95	31.985
493.30	31.539
493.64	31.124
493.99	32.744
494.34	32.571
494.68	32.257
495.03	31.262
495.37	31.268
495.72	32.466
496.07	31.441
496.41	31.589
496.76	31.644
497.11	32.030
497.45	32.232
497.80	32.316
498.14	31.974
498.49	32.998
498.84	31.650
499.18	32.115
499.53	32.148
499.87	32.288
500.22	32.255
500.56	32.266
500.91	31.626
501.26	33.042
501.60	32.354
501.95	33.865
502.29	32.310
502.64	33.475
502.98	31.912
503.33	32.378
503.67	32.567
504.02	32.883
504.36	33.284
504.71	33.080
505.06	32.751
505.40	32.585
505.75	32.520
506.09	33.974
506.44	33.333
506.78	33.718
507.13	33.265
507.47	34.637
507.82	33.764
508.16	34.508
508.51	34.261
508.85	33.178
509.19	33.909
509.54	34.249
509.88	35.372
510.23	33.491
510.57	34.180
510.92	35.338
511.26	34.024
511.61	33.693
511.95	34.698
512.30	34.030
512.64	34.446
512.98	35.259
513.33	34.706
513.67	34.506
514.02	34.899
514.36	35.623
514.70	34.861
515.05	35.220
515.39	34.717
515.74	35.951
516.08	35.562
516.42	36.204
516.77	36.049
517.11	35.927
517.46	36.663
517.80	35.981
518.14	35.809
518.49	36.402
518.83	36.024
519.17	35.702
519.52	36.090
519.86	37.216
520.20	36.858
520.55	36.000
520.89	37.320
521.23	36.996
521.58	37.429
521.92	37.492
522.26	37.397
522.61	37.136
522.95	36.439
523.29	37.429
523.64	37.164
523.98	38.192
524.32	37.649
524.66	36.025
525.01	37.636
525.35	38.338
525.69	38.256
526.04	38.055
526.38	38.129
526.72	37.165
527.06	38.672
527.41	37.888
527.75	38.680
528.09	38.385
528.43	38.951
528.78	36.432
529.12	37.772
529.46	38.595
529.80	38.412
530.15	39.150
530.49	37.775
530.83	39.948
531.17	38.451
531.51	38.044
531.86	38.973
532.20	38.596
532.54	38.436
532.88	37.813
533.22	38.436
533.57	38.903
533.91	37.703
534.25	38.089
534.59	37.789
534.93	37.212
535.27	38.389
535.62	38.491
535.96	37.750
536.30	36.846
536.64	38.380
536.98	39.477
537.32	39.254
537.66	37.678
538.01	38.351
538.35	37.973
538.69	38.035
539.03	37.982
539.37	37.658
539.71	38.692
540.05	39.548
540.39	39.404
540.73	38.908
541.07	38.525
541.42	39.298
541.76	37.409
542.10	38.082
542.44	38.041
542.78	38.060
543.12	38.221
543.46	37.945
543.80	37.993
544.14	37.408
544.48	38.648
544.82	38.430
545.16	39.101
545.50	37.820
545.84	38.873
546.18	38.835
546.52	38.762
546.86	38.604
547.20	39.803
547.54	38.499
547.88	38.089
548.22	36.959
548.56	38.410
548.90	37.938
549.24	38.823
549.58	38.814
549.92	39.081
550.26	39.595
550.60	38.478
550.94	39.416
551.28	39.880
551.62	38.479
551.96	40.232
552.30	38.676
552.64	38.072
552.98	39.874
553.32	39.755
553.66	40.663
554.00	38.806
554.34	39.350
554.68	39.693
555.02	38.857
555.36	38.462
555.69	38.825
556.03	38.737
556.37	38.265
556.71	39.370
557.05	40.207
557.39	39.050
557.73	39.096
558.07	41.145
558.41	40.090
558.75	38.859
559.08	39.222
559.42	39.127
559.76	39.647
560.10	39.374
560.44	38.584
560.78	39.388
561.12	39.614
561.45	39.315
561.79	39.721
562.13	38.710
562.47	39.986
562.81	39.675
563.15	39.328
563.48	38.563
563.82	38.540
564.16	38.742
564.50	38.575
564.84	39.286
565.17	38.660
565.51	38.527
565.85	39.892
566.19	38.669
566.52	38.682
566.86	37.990
567.20	39.831
567.54	39.220
567.88	37.409
568.21	37.864
568.55	37.381
568.89	37.177
569.23	36.603
569.56	36.864
569.90	35.641
570.24	37.204
570.57	35.993
570.91	35.192
571.25	36.089
571.59	35.279
571.92	35.060
572.26	35.380
572.60	35.371
572.93	34.995
573.27	34.848
573.61	34.643
573.95	34.646
574.28	34.102
574.62	35.333
574.96	34.671
575.29	34.350
575.63	34.882
575.97	34.763
576.30	34.201
576.64	35.065
576.98	34.859
577.31	33.969
577.65	34.959
577.98	34.046
578.32	34.814
578.66	34.601
578.99	34.774
579.33	34.614
579.67	35.278
580.00	34.301
580.34	34.393
580.67	34.494
581.01	34.004
581.35	34.483
581.68	33.836
582.02	34.092
582.35	34.580
582.69	34.474
583.02	35.212
583.36	34.199
583.70	34.562
584.03	35.291
584.37	34.912
584.70	35.237
585.04	34.278
585.37	33.675
585.71	34.640
586.04	34.726
586.38	34.670
586.72	35.287
587.05	35.089
587.39	35.182
587.72	35.280
588.06	34.993
588.39	35.061
588.73	35.727
589.06	36.157
589.40	36.070
589.73	35.977
590.07	35.106
590.40	35.498
590.73	36.385
591.07	36.107
591.40	36.872
591.74	35.665
592.07	36.802
592.41	36.900
592.74	35.819
593.08	35.221
593.41	35.493
593.75	34.718
594.08	36.628
594.41	36.266
594.75	36.051
595.08	36.391
595.42	35.947
595.75	35.465
596.09	35.468
596.42	36.293
596.75	36.093
597.09	36.999
597.42	35.661
597.75	36.581
598.09	36.737
598.42	36.014
598.76	35.341
599.09	35.635
599.42	35.371
599.76	35.863
600.09	36.183
600.42	35.967
600.76	35.782
601.09	35.739
601.42	36.169
601.76	36.410
602.09	35.910
602.42	36.091
602.76	35.646
603.09	36.492
603.42	36.583
603.76	37.335
604.09	36.564
604.42	35.470
604.76	35.369
605.09	36.438
605.42	37.367
605.75	35.964
606.09	35.866
606.42	36.615
606.75	36.024
607.09	36.965
607.42	36.312
607.75	35.585
608.08	36.421
608.42	37.181
608.75	36.542
609.08	36.288
609.41	36.871
609.75	36.275
610.08	37.304
610.41	36.964
610.74	37.573
611.07	38.235
611.41	36.863
611.74	37.584
612.07	37.701
612.40	36.354
612.73	37.372
613.07	37.204
613.40	37.712
613.73	37.493
614.06	36.683
614.39	37.542
614.72	36.760
615.06	36.739
615.39	37.168
615.72	36.991
616.05	36.610
616.38	36.912
616.71	36.396
617.05	37.696
617.38	37.585
617.71	37.654
618.04	37.516
618.37	38.931
618.70	39.309
619.03	37.508
619.36	38.548
619.69	39.196
620.03	37.672
620.36	38.115
620.69	39.555
621.02	38.052
621.35	40.323
621.68	39.098
622.01	38.511
622.34	39.519
622.67	38.828
623.00	40.474
623.33	39.925
623.66	38.183
623.99	39.925
624.32	39.509
624.65	39.146
624.99	38.312
625.32	38.323
625.65	39.239
625.98	39.906
626.31	38.825
626.64	40.084
626.97	39.640
627.30	40.170
627.63	39.033
627.96	40.818
628.29	40.441
628.62	40.210
628.95	40.650
629.28	40.132
629.61	39.843
629.94	40.454
630.26	42.744
630.59	41.508
630.92	40.641
631.25	41.129
631.58	42.540
