SpectraSuite Data File
++++++++++++++++++++++++++++++++++++
Date: Sat May 16 11:27:16 PDT 2015
User: schluterlab
Dark Spectrum Present: Yes
Reference Spectrum Present: Yes
Number of Sampled Component Spectra: 1
Spectrometers: USB2E3373
Integration Time (usec): 3000 (USB2E3373)
Spectra Averaged: 3 (USB2E3373)
Boxcar Smoothing: 0 (USB2E3373)
Correct for Electrical Dark: No (USB2E3373)
Strobe/Lamp Enabled: No (USB2E3373)
Correct for Detector Non-linearity: No (USB2E3373)
Correct for Stray Light: No (USB2E3373)
Number of Pixels in Processed Spectrum: 2048
>>>>>Begin Processed Spectral Data<<<<<
178.53	0.000
178.91	100.000
179.29	533.333
179.67	-1500.000
180.04	-84.615
180.42	800.000
180.80	325.000
181.18	600.000
181.56	-100.000
181.94	1800.000
182.31	525.000
182.69	-53.846
183.07	-633.333
183.45	1200.000
183.83	633.333
184.20	-142.857
184.58	-175.000
184.96	-600.000
185.34	137.500
185.72	-275.000
186.09	216.667
186.47	-325.000
186.85	-212.500
187.23	-62.500
187.61	-150.000
187.98	-387.500
188.36	-75.000
188.74	-325.000
189.12	400.000
189.49	485.714
189.87	-83.333
190.25	375.000
190.63	-128.571
191.00	-222.222
191.38	520.000
191.76	-26.667
192.14	440.000
192.51	-360.000
192.89	-433.333
193.27	0.000
193.65	-133.333
194.02	-71.429
194.40	533.333
194.78	-50.000
195.15	-1400.000
195.53	-54.545
195.91	-550.000
196.29	320.000
196.66	-533.333
197.04	3300.000
197.42	-325.000
197.79	13.333
198.17	-500.000
198.55	-700.000
198.92	-1600.000
199.30	150.000
199.68	-750.000
200.05	-55.556
200.43	-233.333
200.81	-1800.000
201.18	-41.667
201.56	214.286
201.94	20.000
202.31	-18.182
202.69	-80.000
203.07	-50.000
203.44	500.000
203.82	-283.333
204.19	-400.000
204.57	-100.000
204.95	-1800.000
205.32	6.250
205.70	500.000
206.08	-1900.000
206.45	-50.000
206.83	-1550.000
207.20	-300.000
207.58	-800.000
207.96	-333.333
208.33	-100.000
208.71	-155.556
209.08	220.000
209.46	-228.571
209.84	350.000
210.21	0.000
210.59	-30.000
210.96	1300.000
211.34	-250.000
211.71	-366.667
212.09	200.000
212.46	650.000
212.84	-2700.000
213.22	566.667
213.59	158.333
213.97	11.111
214.34	160.000
214.72	-200.000
215.09	-766.667
215.47	-133.333
215.84	-90.000
216.22	-110.000
216.59	-60.000
216.97	-275.000
217.34	900.000
217.72	-242.857
218.09	-300.000
218.47	-342.857
218.84	114.286
219.22	-142.857
219.59	0.000
219.97	300.000
220.34	625.000
220.72	137.500
221.09	-84.615
221.47	0.000
221.84	366.667
222.22	-950.000
222.59	1400.000
222.97	-250.000
223.34	-650.000
223.72	-566.667
224.09	-114.286
224.46	-200.000
224.84	-28.571
225.21	-85.714
225.59	-127.273
225.96	-225.000
226.34	-142.857
226.71	-188.889
227.08	-60.000
227.46	2300.000
227.83	-142.857
228.21	-250.000
228.58	650.000
228.95	-75.000
229.33	-2300.000
229.70	-300.000
230.08	-900.000
230.45	-16.667
230.82	-16.667
231.20	-2200.000
231.57	-650.000
231.95	2200.000
232.32	23.810
232.69	-100.000
233.07	-214.286
233.44	-850.000
233.81	-100.000
234.19	-77.778
234.56	-75.000
234.93	-9.375
235.31	-271.429
235.68	-121.429
236.05	-88.235
236.43	-54.545
236.80	-16.129
237.17	0.000
237.55	-66.667
237.92	-95.455
238.29	-34.286
238.67	-17.647
239.04	-19.444
239.41	-54.839
239.79	-58.974
240.16	-45.238
240.53	-30.909
240.91	-38.462
241.28	3.636
241.65	0.000
242.02	-11.475
242.40	-34.426
242.77	-3.030
243.14	-25.424
243.51	-27.143
243.89	-16.456
244.26	-11.236
244.63	-2.105
245.00	-5.263
245.38	0.000
245.75	-3.540
246.12	-8.000
246.49	-7.874
246.87	-11.382
247.24	-12.712
247.61	-7.627
247.98	-7.746
248.36	-16.783
248.73	-5.696
249.10	-14.650
249.47	-7.602
249.84	-3.977
250.22	-20.833
250.59	-4.520
250.96	-3.141
251.33	-3.791
251.70	-2.885
252.08	-0.948
252.45	-8.531
252.82	-6.667
253.19	-2.979
253.56	-2.016
253.94	-3.376
254.31	-6.438
254.68	-3.659
255.05	-7.258
255.42	0.397
255.79	-7.168
256.16	-4.314
256.54	-1.471
256.91	-6.439
257.28	-4.762
257.65	-6.738
258.02	0.000
258.39	-2.007
258.76	-6.757
259.14	-5.247
259.51	-1.311
259.88	-3.049
260.25	-0.932
260.62	-2.572
260.99	-3.561
261.36	-2.439
261.73	-0.867
262.10	0.833
262.47	-1.425
262.85	-1.714
263.22	-3.152
263.59	-0.923
263.96	-4.348
264.33	0.271
264.70	0.829
265.07	-3.571
265.44	-3.101
265.81	-3.876
266.18	-0.759
266.55	-1.716
266.92	-2.519
267.29	-0.242
267.66	-3.704
268.03	0.242
268.40	-0.235
268.77	-1.928
269.14	-1.856
269.51	1.609
269.88	-3.670
270.25	-6.061
270.62	-3.661
270.99	-1.351
271.36	-4.895
271.73	-1.794
272.10	-2.517
272.47	-4.222
272.84	-0.444
273.21	-1.376
273.58	-1.099
273.95	-3.509
274.32	-2.262
274.69	-1.094
275.06	-0.613
275.43	-2.902
275.80	2.240
276.17	-1.883
276.54	0.204
276.91	-2.469
277.28	-2.840
277.65	-1.033
278.02	-1.253
278.39	-0.589
278.76	-1.793
279.13	0.988
279.50	-0.795
279.87	-2.326
280.23	-1.619
280.60	-1.193
280.97	-0.971
281.34	-0.967
281.71	-0.385
282.08	-1.210
282.45	-1.833
282.82	-2.132
283.19	-0.909
283.56	1.648
283.92	-2.827
284.29	-3.346
284.66	-0.360
285.03	-0.357
285.40	-0.185
285.77	-0.351
286.14	-1.625
286.51	-0.888
286.87	1.270
287.24	-0.853
287.61	-0.992
287.98	-1.213
288.35	-3.140
288.72	-2.716
289.08	-2.542
289.45	-2.189
289.82	-3.287
290.19	0.493
290.56	-3.802
290.93	-3.021
291.29	-2.431
291.66	-0.805
292.03	0.000
292.40	0.151
292.77	-0.466
293.13	-1.301
293.50	0.297
293.87	0.153
294.24	-1.508
294.60	-2.727
294.97	-0.303
295.34	-1.185
295.71	-1.488
296.08	-1.690
296.44	-2.289
296.81	-1.425
297.18	-2.113
297.55	-1.130
297.91	-0.139
298.28	-2.329
298.65	-0.279
299.02	0.535
299.38	-1.604
299.75	-1.359
300.12	-1.154
300.48	-0.512
300.85	-1.573
301.22	0.776
301.59	-1.430
301.95	1.385
302.32	-0.782
302.69	-0.490
303.05	-0.122
303.42	-1.250
303.79	-0.120
304.15	-0.474
304.52	-0.467
304.89	-0.826
305.25	-1.221
305.62	-0.118
305.99	0.236
306.35	0.333
306.72	-1.481
307.09	1.249
307.45	-1.703
307.82	-0.447
308.19	0.000
308.55	0.000
308.92	-0.107
309.29	-0.973
309.65	0.636
310.02	-0.108
310.38	-0.865
310.75	1.434
311.12	0.723
311.48	0.522
311.85	0.412
312.22	-0.309
312.58	1.221
312.95	0.408
313.31	1.099
313.68	1.005
314.05	1.879
314.41	-0.101
314.78	-0.100
315.14	1.777
315.51	0.304
315.87	2.227
316.24	0.680
316.61	1.631
316.97	1.393
317.34	1.252
317.70	1.670
318.07	1.399
318.43	2.715
318.80	3.005
319.16	1.970
319.53	3.383
319.89	2.634
320.26	2.059
320.62	0.769
320.99	2.886
321.35	1.675
321.72	1.945
322.08	4.154
322.45	2.475
322.81	3.650
323.18	3.554
323.54	3.697
323.91	5.190
324.27	5.038
324.64	4.662
325.00	5.148
325.37	5.430
325.73	6.124
326.10	3.720
326.46	6.305
326.83	5.106
327.19	5.671
327.56	6.985
327.92	6.712
328.29	6.840
328.65	6.364
329.01	7.509
329.38	7.315
329.74	8.883
330.11	7.525
330.47	7.084
330.84	8.524
331.20	7.220
331.56	7.748
331.93	7.726
332.29	9.041
332.66	9.131
333.02	8.326
333.38	8.961
333.75	8.727
334.11	8.178
334.48	8.561
334.84	9.011
335.20	10.195
335.57	8.303
335.93	10.206
336.29	7.972
336.66	8.106
337.02	9.009
337.38	8.734
337.75	10.623
338.11	8.587
338.47	8.986
338.84	8.893
339.20	8.348
339.56	10.784
339.93	9.083
340.29	8.060
340.65	8.566
341.02	10.287
341.38	9.267
341.74	10.330
342.11	8.106
342.47	9.099
342.83	9.236
343.20	9.394
343.56	8.000
343.92	10.017
344.28	10.093
344.65	8.416
345.01	9.328
345.37	10.548
345.73	7.610
346.10	8.831
346.46	8.936
346.82	9.543
347.19	8.792
347.55	8.748
347.91	9.764
348.27	7.637
348.63	10.016
349.00	10.024
349.36	9.290
349.72	10.191
350.08	9.864
350.45	7.959
350.81	9.713
351.17	9.325
351.53	8.512
351.89	9.863
352.26	10.155
352.62	10.445
352.98	9.889
353.34	10.152
353.70	9.189
354.07	9.520
354.43	10.593
354.79	11.331
355.15	9.505
355.51	9.766
355.87	8.933
356.24	8.817
356.60	11.201
356.96	10.393
357.32	9.105
357.68	10.498
358.04	9.084
358.40	10.518
358.77	10.124
359.13	10.406
359.49	10.582
359.85	9.451
360.21	10.274
360.57	11.220
360.93	10.815
361.29	10.463
361.66	10.290
362.02	10.059
362.38	10.198
362.74	10.916
363.10	9.828
363.46	11.681
363.82	10.204
364.18	10.854
364.54	11.222
364.90	10.482
365.26	10.128
365.62	11.689
365.98	11.166
366.35	10.493
366.71	10.007
367.07	11.362
367.43	11.531
367.79	11.065
368.15	10.384
368.51	10.909
368.87	11.401
369.23	11.439
369.59	10.903
369.95	11.416
370.31	11.674
370.67	10.268
371.03	11.516
371.39	10.750
371.75	11.946
372.11	11.549
372.47	12.003
372.83	12.239
373.19	11.929
373.55	12.526
373.91	12.020
374.27	11.910
374.63	12.422
374.99	13.282
375.35	12.450
375.71	13.910
376.07	12.663
376.42	12.185
376.78	13.399
377.14	12.949
377.50	12.637
377.86	12.679
378.22	13.128
378.58	12.292
378.94	12.515
379.30	12.919
379.66	13.540
380.02	13.428
380.38	13.716
380.74	13.775
381.09	14.236
381.45	13.902
381.81	13.128
382.17	14.286
382.53	13.860
382.89	15.012
383.25	14.931
383.61	14.800
383.97	15.126
384.32	14.393
384.68	14.873
385.04	14.493
385.40	14.547
385.76	15.061
386.12	15.178
386.48	16.213
386.83	15.215
387.19	16.079
387.55	15.324
387.91	15.471
388.27	14.656
388.62	14.904
388.98	15.869
389.34	15.606
389.70	16.504
390.06	15.475
390.42	16.538
390.77	15.016
391.13	16.273
391.49	16.157
391.85	16.334
392.20	15.291
392.56	15.211
392.92	15.973
393.28	16.361
393.64	16.597
393.99	16.431
394.35	15.754
394.71	16.553
395.07	16.886
395.42	16.269
395.78	16.405
396.14	16.885
396.50	16.269
396.85	16.780
397.21	16.707
397.57	16.474
397.92	17.272
398.28	17.278
398.64	16.181
399.00	17.416
399.35	16.967
399.71	16.957
400.07	17.552
400.42	17.762
400.78	16.518
401.14	16.766
401.49	17.099
401.85	16.595
402.21	16.985
402.57	17.415
402.92	16.803
403.28	17.279
403.63	16.777
403.99	17.899
404.35	16.727
404.70	17.730
405.06	17.013
405.42	16.974
405.77	17.421
406.13	16.354
406.49	17.196
406.84	17.457
407.20	18.080
407.55	17.606
407.91	15.738
408.27	17.034
408.62	16.837
408.98	18.072
409.34	17.611
409.69	17.454
410.05	17.041
410.40	16.800
410.76	17.842
411.11	17.269
411.47	17.327
411.83	17.787
412.18	16.894
412.54	17.084
412.89	17.983
413.25	16.647
413.60	17.315
413.96	16.636
414.31	17.737
414.67	17.333
415.03	16.300
415.38	17.502
415.74	18.363
416.09	17.263
416.45	16.402
416.80	16.775
417.16	15.681
417.51	17.597
417.87	17.476
418.22	17.826
418.58	16.945
418.93	18.332
419.29	17.315
419.64	16.143
420.00	17.801
420.35	17.564
420.71	17.527
421.06	17.574
421.42	17.623
421.77	17.532
422.12	17.515
422.48	17.691
422.83	17.426
423.19	17.539
423.54	17.752
423.90	18.103
424.25	17.421
424.61	18.456
424.96	17.905
425.31	18.278
425.67	17.994
426.02	17.843
426.38	18.149
426.73	18.410
427.09	18.689
427.44	18.466
427.79	18.430
428.15	18.612
428.50	18.768
428.85	18.345
429.21	18.650
429.56	18.958
429.92	18.687
430.27	18.445
430.62	20.115
430.98	17.878
431.33	19.050
431.68	18.928
432.04	18.858
432.39	19.487
432.74	19.185
433.10	17.783
433.45	18.423
433.80	19.037
434.16	19.774
434.51	19.507
434.86	20.035
435.22	19.543
435.57	19.033
435.92	19.343
436.28	20.059
436.63	19.163
436.98	19.301
437.34	19.079
437.69	18.786
438.04	18.945
438.39	19.073
438.75	18.859
439.10	19.656
439.45	18.045
439.81	18.133
440.16	19.364
440.51	19.294
440.86	19.491
441.22	18.795
441.57	19.263
441.92	19.437
442.27	19.372
442.63	19.421
442.98	18.849
443.33	19.605
443.68	19.958
444.03	19.646
444.39	19.236
444.74	20.099
445.09	19.682
445.44	20.146
445.79	19.888
446.15	19.770
446.50	19.488
446.85	19.343
447.20	19.612
447.55	19.890
447.91	19.652
448.26	19.441
448.61	19.864
448.96	20.784
449.31	19.673
449.66	20.607
450.02	19.778
450.37	20.464
450.72	19.322
451.07	19.862
451.42	18.587
451.77	19.988
452.12	20.083
452.47	19.836
452.83	19.685
453.18	20.557
453.53	21.020
453.88	21.411
454.23	19.589
454.58	20.883
454.93	20.844
455.28	20.268
455.63	20.393
455.98	20.241
456.34	19.949
456.69	20.075
457.04	20.406
457.39	19.976
457.74	20.142
458.09	20.766
458.44	20.612
458.79	19.899
459.14	20.650
459.49	21.314
459.84	20.686
460.19	19.570
460.54	19.359
460.89	19.675
461.24	20.461
461.59	21.102
461.94	19.860
462.29	19.893
462.64	21.014
462.99	21.151
463.34	20.527
463.69	19.911
464.04	19.508
464.39	19.833
464.74	20.567
465.09	20.144
465.44	20.305
465.79	20.812
466.14	21.231
466.49	21.071
466.84	21.008
467.19	20.636
467.54	20.696
467.89	21.085
468.24	20.487
468.59	20.737
468.94	21.093
469.29	20.273
469.64	21.765
469.99	21.337
470.34	20.641
470.68	22.238
471.03	20.785
471.38	19.792
471.73	20.839
472.08	21.620
472.43	20.270
472.78	21.467
473.13	20.278
473.48	20.996
473.83	21.402
474.17	20.764
474.52	21.995
474.87	21.037
475.22	20.531
475.57	20.778
475.92	21.868
476.27	20.800
476.61	21.296
476.96	21.353
477.31	21.744
477.66	21.085
478.01	21.286
478.36	21.582
478.70	21.516
479.05	21.255
479.40	21.606
479.75	21.050
480.10	21.181
480.45	20.938
480.79	21.175
481.14	22.328
481.49	21.781
481.84	21.729
482.19	22.248
482.53	21.591
482.88	21.690
483.23	20.798
483.58	21.647
483.92	21.357
484.27	21.134
484.62	21.296
484.97	20.889
485.31	20.576
485.66	20.403
486.01	20.754
486.36	21.298
486.70	21.672
487.05	21.357
487.40	20.700
487.75	20.803
488.09	20.877
488.44	21.549
488.79	21.825
489.13	21.111
489.48	21.452
489.83	21.572
490.17	21.680
490.52	22.283
490.87	21.478
491.22	21.252
491.56	21.898
491.91	22.281
492.26	21.792
492.60	21.265
492.95	22.037
493.30	21.534
493.64	21.627
493.99	21.367
494.34	21.905
494.68	22.472
495.03	21.558
495.37	21.780
495.72	21.758
496.07	21.211
496.41	22.418
496.76	21.918
497.11	21.479
497.45	22.031
497.80	22.061
498.14	22.348
498.49	22.049
498.84	21.214
499.18	22.612
499.53	21.822
499.87	21.525
500.22	21.667
500.56	21.761
500.91	22.463
501.26	22.222
501.60	21.473
501.95	22.367
502.29	21.493
502.64	22.348
502.98	22.185
503.33	21.711
503.67	21.504
504.02	22.211
504.36	22.010
504.71	22.087
505.06	20.719
505.40	23.253
505.75	21.799
506.09	23.559
506.44	21.855
506.78	21.977
507.13	22.503
507.47	23.005
507.82	21.580
508.16	22.746
508.51	21.793
508.85	21.843
509.19	22.554
509.54	23.044
509.88	22.872
510.23	22.065
510.57	22.857
510.92	23.147
511.26	22.648
511.61	22.570
511.95	23.330
512.30	22.320
512.64	22.037
512.98	23.047
513.33	23.284
513.67	22.613
514.02	22.819
514.36	23.712
514.70	22.524
515.05	23.442
515.39	22.607
515.74	24.142
516.08	22.478
516.42	23.739
516.77	23.686
517.11	22.826
517.46	23.565
517.80	24.248
518.14	23.551
518.49	23.909
518.83	23.205
519.17	24.748
519.52	23.019
519.86	24.074
520.20	24.633
520.55	23.569
520.89	23.294
521.23	24.298
521.58	25.016
521.92	24.446
522.26	23.683
522.61	23.828
522.95	23.038
523.29	24.514
523.64	24.047
523.98	23.679
524.32	23.319
524.66	22.857
525.01	24.342
525.35	24.162
525.69	24.073
526.04	23.825
526.38	23.743
526.72	23.627
527.06	24.219
527.41	25.017
527.75	23.300
528.09	24.686
528.43	23.016
528.78	24.058
529.12	23.944
529.46	23.067
529.80	23.564
530.15	23.696
530.49	23.157
530.83	24.427
531.17	22.963
531.51	23.778
531.86	24.621
532.20	24.359
532.54	23.463
532.88	24.242
533.22	25.067
533.57	24.217
533.91	23.533
534.25	22.942
534.59	23.235
534.93	23.771
535.27	24.418
535.62	24.169
535.96	23.529
536.30	24.280
536.64	25.100
536.98	24.859
537.32	24.534
537.66	24.372
538.01	24.261
538.35	24.662
538.69	23.797
539.03	23.629
539.37	24.019
539.71	24.883
540.05	23.989
540.39	24.723
540.73	23.566
541.07	23.702
541.42	23.363
541.76	23.522
542.10	25.118
542.44	24.184
542.78	25.170
543.12	24.304
543.46	23.425
543.80	23.746
544.14	23.707
544.48	24.738
544.82	23.478
545.16	24.480
545.50	22.880
545.84	24.061
546.18	24.133
546.52	24.467
546.86	24.573
547.20	24.895
547.54	23.554
547.88	23.623
548.22	22.674
548.56	23.981
548.90	24.528
549.24	23.826
549.58	24.418
549.92	24.170
550.26	25.434
550.60	23.329
550.94	24.307
551.28	24.003
551.62	22.452
551.96	24.168
552.30	23.763
552.64	24.560
552.98	24.387
553.32	23.665
553.66	25.451
554.00	23.241
554.34	23.177
554.68	25.512
555.02	24.313
555.36	23.149
555.69	23.424
556.03	24.070
556.37	23.613
556.71	24.624
557.05	24.464
557.39	23.756
557.73	23.924
558.07	23.964
558.41	24.607
558.75	24.183
559.08	22.802
559.42	24.579
559.76	24.156
560.10	23.937
560.44	24.855
560.78	24.078
561.12	23.395
561.45	24.315
561.79	23.275
562.13	22.861
562.47	24.090
562.81	24.328
563.15	23.793
563.48	24.464
563.82	23.056
564.16	24.070
564.50	22.849
564.84	23.942
565.17	23.475
565.51	23.859
565.85	24.341
566.19	24.704
566.52	23.810
566.86	24.336
567.20	25.061
567.54	24.926
567.88	22.892
568.21	23.602
568.55	23.118
568.89	23.211
569.23	23.091
569.56	23.371
569.90	23.721
570.24	23.600
570.57	22.707
570.91	22.883
571.25	23.152
571.59	23.041
571.92	22.738
572.26	22.948
572.60	22.619
572.93	22.515
573.27	22.652
573.61	22.254
573.95	22.512
574.28	22.553
574.62	22.877
574.96	22.582
575.29	22.485
575.63	22.671
575.97	22.357
576.30	22.061
576.64	22.768
576.98	22.319
577.31	22.384
577.65	22.210
577.98	22.192
578.32	22.543
578.66	22.883
578.99	22.522
579.33	22.532
579.67	22.191
580.00	22.421
580.34	22.016
580.67	22.456
581.01	22.189
581.35	22.470
581.68	21.603
582.02	22.618
582.35	22.134
582.69	22.620
583.02	22.834
583.36	22.307
583.70	21.966
584.03	22.737
584.37	22.246
584.70	22.178
585.04	22.380
585.37	21.790
585.71	22.351
586.04	22.670
586.38	22.668
586.72	22.492
587.05	22.968
587.39	22.508
587.72	22.671
588.06	22.586
588.39	22.757
588.73	22.360
589.06	22.986
589.40	23.119
589.73	22.627
590.07	22.542
590.40	22.103
590.73	22.831
591.07	22.213
591.40	23.137
591.74	22.589
592.07	23.243
592.41	22.675
592.74	23.136
593.08	22.897
593.41	21.974
593.75	22.321
594.08	22.286
594.41	23.512
594.75	23.065
595.08	22.970
595.42	23.121
595.75	22.528
596.09	23.516
596.42	23.527
596.75	22.898
597.09	23.954
597.42	23.658
597.75	23.118
598.09	22.413
598.42	22.625
598.76	22.425
599.09	22.731
599.42	22.684
599.76	22.877
600.09	22.939
600.42	23.092
600.76	22.637
601.09	22.636
601.42	22.319
601.76	22.975
602.09	22.536
602.42	22.346
602.76	22.019
603.09	22.258
603.42	22.965
603.76	22.337
604.09	23.108
604.42	22.315
604.76	23.288
605.09	23.011
605.42	22.739
605.75	22.294
606.09	22.873
606.42	23.083
606.75	23.358
607.09	22.717
607.42	22.755
607.75	22.870
608.08	23.814
608.42	22.422
608.75	22.570
609.08	23.186
609.41	22.621
609.75	23.111
610.08	23.529
610.41	22.651
610.74	24.130
611.07	23.276
611.41	23.096
611.74	24.113
612.07	22.986
612.40	22.495
612.73	22.779
613.07	22.565
613.40	23.700
613.73	23.597
614.06	22.680
614.39	22.999
614.72	22.905
615.06	22.609
615.39	22.084
615.72	23.846
616.05	23.357
616.38	23.970
616.71	23.063
617.05	23.643
617.38	22.910
617.71	22.912
618.04	23.292
618.37	22.830
618.70	23.533
619.03	22.952
619.36	23.890
619.69	24.264
620.03	22.796
620.36	22.433
620.69	24.264
621.02	23.516
621.35	22.984
621.68	24.180
622.01	24.919
622.34	23.525
622.67	23.984
623.00	24.024
623.33	23.582
623.66	23.191
623.99	23.534
624.32	24.330
624.65	23.179
624.99	24.197
625.32	23.353
625.65	23.621
625.98	23.552
626.31	24.633
626.64	24.519
626.97	24.829
627.30	25.021
627.63	22.366
627.96	24.108
628.29	24.540
628.62	23.400
628.95	24.508
629.28	23.966
629.61	25.025
629.94	24.480
630.26	24.453
630.59	25.126
630.92	24.324
631.25	25.202
631.58	24.868
631.91	22.766
632.24	24.889
632.57	24.778
632.90	24.598
633.23	25.000
633.56	23.041
633.89	22.642
