SpectraSuite Data File
++++++++++++++++++++++++++++++++++++
Date: Sat May 16 11:32:11 PDT 2015
User: schluterlab
Dark Spectrum Present: Yes
Reference Spectrum Present: Yes
Number of Sampled Component Spectra: 1
Spectrometers: USB2E3373
Integration Time (usec): 3000 (USB2E3373)
Spectra Averaged: 3 (USB2E3373)
Boxcar Smoothing: 0 (USB2E3373)
Correct for Electrical Dark: No (USB2E3373)
Strobe/Lamp Enabled: No (USB2E3373)
Correct for Detector Non-linearity: No (USB2E3373)
Correct for Stray Light: No (USB2E3373)
Number of Pixels in Processed Spectrum: 2048
>>>>>Begin Processed Spectral Data<<<<<
178.53	0.000
178.91	140.000
179.29	533.333
179.67	-1600.000
180.04	-76.923
180.42	1400.000
180.80	325.000
181.18	350.000
181.56	-125.000
181.94	500.000
182.31	525.000
182.69	0.000
183.07	-633.333
183.45	2100.000
183.83	166.667
184.20	-228.571
184.58	-62.500
184.96	-575.000
185.34	93.750
185.72	-725.000
186.09	200.000
186.47	-150.000
186.85	-187.500
187.23	-162.500
187.61	-450.000
187.98	-250.000
188.36	-25.000
188.74	-337.500
189.12	1800.000
189.49	328.571
189.87	-75.000
190.25	350.000
190.63	-100.000
191.00	-177.778
191.38	500.000
191.76	-53.333
192.14	500.000
192.51	-140.000
192.89	-266.667
193.27	0.000
193.65	-22.222
194.02	-185.714
194.40	433.333
194.78	-50.000
195.15	-900.000
195.53	-136.364
195.91	-383.333
196.29	400.000
196.66	-300.000
197.04	1600.000
197.42	-375.000
197.79	6.667
198.17	-333.333
198.55	-1000.000
198.92	-1900.000
199.30	287.500
199.68	-550.000
200.05	-211.111
200.43	-144.444
200.81	-800.000
201.18	-108.333
201.56	85.714
201.94	-93.333
202.31	4.545
202.69	-50.000
203.07	-100.000
203.44	633.333
203.82	-450.000
204.19	-575.000
204.57	-225.000
204.95	-1100.000
205.32	-100.000
205.70	400.000
206.08	-2900.000
206.45	16.667
206.83	-700.000
207.20	-250.000
207.58	-833.333
207.96	-633.333
208.33	-212.500
208.71	-244.444
209.08	290.000
209.46	-57.143
209.84	1050.000
210.21	0.000
210.59	15.000
210.96	800.000
211.34	-350.000
211.71	-200.000
212.09	350.000
212.46	1150.000
212.84	-2000.000
213.22	700.000
213.59	100.000
213.97	-22.222
214.34	160.000
214.72	-60.000
215.09	-566.667
215.47	-266.667
215.84	-120.000
216.22	-30.000
216.59	-20.000
216.97	-325.000
217.34	650.000
217.72	-371.429
218.09	-183.333
218.47	-200.000
218.84	314.286
219.22	-128.571
219.59	0.000
219.97	228.571
220.34	575.000
220.72	300.000
221.09	-138.462
221.47	0.000
221.84	166.667
222.22	-250.000
222.59	2000.000
222.97	-250.000
223.34	-400.000
223.72	-400.000
224.09	-100.000
224.46	-525.000
224.84	-57.143
225.21	-114.286
225.59	-127.273
225.96	-200.000
226.34	-171.429
226.71	-144.444
227.08	-40.000
227.46	900.000
227.83	-328.571
228.21	-200.000
228.58	650.000
228.95	-6.250
229.33	-2100.000
229.70	-320.000
230.08	-600.000
230.45	-33.333
230.82	0.000
231.20	-1200.000
231.57	-850.000
231.95	800.000
232.32	-9.524
232.69	-111.111
233.07	-342.857
233.44	-600.000
233.81	-160.000
234.19	-211.111
234.56	-68.750
234.93	-53.125
235.31	-242.857
235.68	-164.286
236.05	-123.529
236.43	-54.545
236.80	-41.935
237.17	-25.000
237.55	-61.905
237.92	-109.091
238.29	-45.714
238.67	-35.294
239.04	-22.222
239.41	-41.935
239.79	-58.974
240.16	-38.095
240.53	-25.455
240.91	-15.385
241.28	-20.000
241.65	1.538
242.02	-18.033
242.40	-22.951
242.77	-21.212
243.14	-33.898
243.51	-20.000
243.89	-25.316
244.26	-12.360
244.63	-7.368
245.00	-10.526
245.38	0.000
245.75	-10.619
246.12	-12.000
246.49	-11.024
246.87	-15.447
247.24	-20.339
247.61	-18.644
247.98	-13.380
248.36	-5.594
248.73	-3.165
249.10	-10.191
249.47	-5.848
249.84	-6.250
250.22	-13.690
250.59	1.695
250.96	-2.618
251.33	0.000
251.70	-4.327
252.08	-2.370
252.45	-10.900
252.82	-6.190
253.19	-2.553
253.56	-2.419
253.94	-2.532
254.31	-1.717
254.68	2.846
255.05	-3.629
255.42	0.794
255.79	-3.584
256.16	-1.961
256.54	3.676
256.91	-4.924
257.28	-6.960
257.65	-6.028
258.02	1.887
258.39	-4.348
258.76	-5.405
259.14	-4.630
259.51	0.000
259.88	-1.220
260.25	-2.174
260.62	-3.537
260.99	-2.671
261.36	-1.524
261.73	0.578
262.10	1.389
262.47	-1.425
262.85	2.857
263.22	-3.152
263.59	-4.308
263.96	-2.609
264.33	-1.626
264.70	-3.591
265.07	-3.297
265.44	-3.876
265.81	-1.809
266.18	-2.532
266.55	-2.451
266.92	-2.267
267.29	-2.906
267.66	-4.938
268.03	2.174
268.40	-1.408
268.77	-2.892
269.14	-0.464
269.51	0.000
269.88	-4.358
270.25	-4.196
270.62	-0.229
270.99	-1.351
271.36	-3.497
271.73	-0.224
272.10	-2.059
272.47	-2.889
272.84	0.444
273.21	-0.459
273.58	-0.659
273.95	-1.535
274.32	0.000
274.69	0.875
275.06	-1.022
275.43	-3.348
275.80	-1.426
276.17	-1.255
276.54	0.611
276.91	-3.292
277.28	-2.231
277.65	-1.653
278.02	0.209
278.39	-1.768
278.76	-2.988
279.13	-0.395
279.50	-2.187
279.87	-1.903
280.23	0.810
280.60	-1.590
280.97	-2.718
281.34	-2.901
281.71	-0.769
282.08	0.000
282.45	-4.888
282.82	-3.488
283.19	-2.000
283.56	1.832
283.92	0.530
284.29	-2.045
284.66	-1.978
285.03	1.783
285.40	-0.185
285.77	0.526
286.14	-1.444
286.51	-2.842
286.87	-0.181
287.24	-1.365
287.61	0.826
287.98	-2.426
288.35	-1.488
288.72	-2.037
289.08	-2.542
289.45	-2.357
289.82	-2.076
290.19	0.000
290.56	-0.496
290.93	-1.908
291.29	-2.917
291.66	-0.322
292.03	-0.314
292.40	-0.301
292.77	0.000
293.13	-0.163
293.50	-2.675
293.87	-0.613
294.24	-1.659
294.60	-1.818
294.97	0.455
295.34	-1.185
295.71	-2.381
296.08	-2.919
296.44	-2.432
296.81	-0.570
297.18	-1.127
297.55	-0.141
297.91	0.976
298.28	-0.822
298.65	-1.395
299.02	0.936
299.38	-1.070
299.75	-0.136
300.12	-0.897
300.48	-1.918
300.85	-0.917
301.22	-0.259
301.59	-1.430
301.95	1.637
302.32	-1.173
302.69	0.612
303.05	-0.488
303.42	-0.875
303.79	0.837
304.15	-0.592
304.52	1.284
304.89	-0.590
305.25	-1.587
305.62	0.470
305.99	1.178
306.35	0.888
306.72	-0.683
307.09	1.476
307.45	-0.681
307.82	-1.117
308.19	-0.895
308.55	0.654
308.92	-0.322
309.29	0.324
309.65	0.530
310.02	0.972
310.38	-0.216
310.75	1.844
311.12	1.756
311.48	0.939
311.85	1.648
312.22	1.545
312.58	2.340
312.95	1.937
313.31	1.998
313.68	1.910
314.05	2.967
314.41	0.503
314.78	1.099
315.14	1.283
315.51	2.736
315.87	3.969
316.24	2.818
316.61	3.647
316.97	3.284
317.34	3.179
317.70	3.618
318.07	4.104
318.43	3.184
318.80	4.319
319.16	3.096
319.53	5.075
319.89	4.233
320.26	4.412
320.62	3.846
320.99	6.169
321.35	4.138
321.72	5.834
322.08	5.440
322.45	5.347
322.81	6.148
323.18	5.764
323.54	6.377
323.91	7.136
324.27	7.700
324.64	6.856
325.00	7.592
325.37	7.330
325.73	10.061
326.10	7.086
326.46	9.282
326.83	8.936
327.19	9.425
327.56	10.392
327.92	9.856
328.29	9.697
328.65	9.727
329.01	11.307
329.38	10.526
329.74	11.813
330.11	12.149
330.47	12.262
330.84	13.016
331.20	11.733
331.56	13.036
331.93	13.410
332.29	13.699
332.66	12.291
333.02	12.489
333.38	14.158
333.75	14.159
334.11	13.511
334.48	12.357
334.84	15.573
335.20	13.741
335.57	14.531
335.93	15.936
336.29	13.286
336.66	14.097
337.02	13.694
337.38	14.260
337.75	13.696
338.11	14.222
338.47	14.235
338.84	13.884
339.20	14.148
339.56	16.399
339.93	13.933
340.29	14.880
340.65	13.899
341.02	15.346
341.38	15.501
341.74	15.580
342.11	14.078
342.47	15.279
342.83	14.777
343.20	14.518
343.56	12.980
343.92	15.860
344.28	16.064
344.65	13.944
345.01	15.378
345.37	15.864
345.73	14.894
346.10	14.391
346.46	15.028
346.82	15.076
347.19	14.708
347.55	15.329
347.91	14.173
348.27	14.956
348.63	16.155
349.00	15.990
349.36	14.442
349.72	15.605
350.08	15.317
350.45	15.445
350.81	15.844
351.17	14.871
351.53	13.763
351.89	14.228
352.26	15.504
352.62	16.129
352.98	14.873
353.34	15.588
353.70	15.598
354.07	15.657
354.43	14.941
354.79	14.976
355.15	14.856
355.51	14.766
355.87	15.415
356.24	15.568
356.60	16.197
356.96	14.935
357.32	15.756
357.68	15.096
358.04	15.935
358.40	17.324
358.77	15.533
359.13	15.455
359.49	16.780
359.85	15.168
360.21	15.830
360.57	16.190
360.93	16.222
361.29	15.845
361.66	15.015
362.02	15.976
362.38	16.654
362.74	16.117
363.10	15.280
363.46	17.094
363.82	16.910
364.18	17.366
364.54	17.941
364.90	16.562
365.26	16.405
365.62	18.033
365.98	17.425
366.35	17.394
366.71	17.336
367.07	16.514
367.43	18.257
367.79	18.488
368.15	17.425
368.51	18.252
368.87	18.544
369.23	16.982
369.59	17.639
369.95	17.548
370.31	18.776
370.67	18.221
371.03	17.784
371.39	18.600
371.75	18.884
372.11	18.580
372.47	18.149
372.83	19.263
373.19	18.571
373.55	19.212
373.91	19.132
374.27	19.302
374.63	18.703
374.99	19.541
375.35	19.314
375.71	20.662
376.07	19.986
376.42	18.940
376.78	19.608
377.14	20.271
377.50	20.632
377.86	19.961
378.22	20.289
378.58	21.618
378.94	20.592
379.30	20.597
379.66	21.008
380.02	20.321
380.38	21.148
380.74	20.457
381.09	22.027
381.45	21.659
381.81	21.416
382.17	21.805
382.53	21.033
382.89	21.950
383.25	22.637
383.61	22.406
383.97	22.352
384.32	23.154
384.68	23.579
385.04	22.041
385.40	23.068
385.76	22.988
386.12	21.986
386.48	23.453
386.83	22.822
387.19	22.236
387.55	23.077
387.91	23.355
388.27	23.341
388.62	24.038
388.98	23.259
389.34	24.051
389.70	23.508
390.06	22.374
390.42	24.231
390.77	24.038
391.13	24.037
391.49	25.016
391.85	24.875
392.20	23.119
392.56	24.435
392.92	23.617
393.28	24.856
393.64	24.654
393.99	24.369
394.35	24.513
394.71	24.768
395.07	24.922
395.42	24.255
395.78	24.199
396.14	25.545
396.50	25.015
396.85	24.800
397.21	25.334
397.57	25.775
397.92	25.000
398.28	25.333
398.64	25.045
399.00	25.787
399.35	25.705
399.71	25.610
400.07	24.836
400.42	26.034
400.78	24.508
401.14	25.090
401.49	24.116
401.85	25.015
402.21	25.685
402.57	25.364
402.92	26.558
403.28	25.245
403.63	25.404
403.99	25.420
404.35	24.698
404.70	24.459
405.06	25.663
405.42	25.400
405.77	24.887
406.13	24.588
406.49	25.764
406.84	25.495
407.20	25.618
407.55	25.332
407.91	24.935
408.27	25.919
408.62	24.534
408.98	25.288
409.34	24.802
409.69	25.520
410.05	24.742
410.40	24.096
410.76	25.252
411.11	25.312
411.47	24.808
411.83	25.672
412.18	24.505
412.54	25.198
412.89	26.002
413.25	24.616
413.60	24.970
413.96	24.522
414.31	26.300
414.67	24.635
415.03	25.550
415.38	25.830
415.74	25.580
416.09	25.128
416.45	24.537
416.80	27.113
417.16	26.113
417.51	26.198
417.87	25.890
418.22	25.917
418.58	26.252
418.93	26.364
419.29	26.349
419.64	24.623
420.00	26.306
420.35	25.784
420.71	27.011
421.06	26.568
421.42	25.820
421.77	26.912
422.12	26.693
422.48	26.029
422.83	26.765
423.19	26.559
423.54	26.801
423.90	26.316
424.25	26.753
424.61	28.287
424.96	27.209
425.31	27.054
425.67	26.991
426.02	26.621
426.38	27.768
426.73	27.119
427.09	28.309
427.44	27.273
427.79	26.919
428.15	28.426
428.50	28.094
428.85	28.657
429.21	27.615
429.56	28.854
429.92	28.657
430.27	28.265
430.62	27.847
430.98	28.594
431.33	28.602
431.68	29.115
432.04	29.547
432.39	29.630
432.74	28.957
433.10	28.925
433.45	28.900
433.80	29.675
434.16	29.876
434.51	29.808
434.86	31.283
435.22	29.120
435.57	30.539
435.92	29.894
436.28	30.267
436.63	29.847
436.98	29.611
437.34	30.774
437.69	29.930
438.04	30.176
438.39	30.084
438.75	30.617
439.10	30.094
439.45	30.658
439.81	29.819
440.16	30.324
440.51	31.412
440.86	30.191
441.22	29.464
441.57	32.053
441.92	31.714
442.27	31.115
442.63	31.277
442.98	30.248
443.33	31.796
443.68	31.110
444.03	31.336
444.39	31.620
444.74	32.269
445.09	31.250
445.44	31.120
445.79	31.668
446.15	32.421
446.50	31.029
446.85	31.503
447.20	31.410
447.55	32.652
447.91	32.341
448.26	31.173
448.61	31.749
448.96	31.317
449.31	31.229
449.66	31.998
450.02	31.967
450.37	32.058
450.72	30.960
451.07	33.250
451.42	31.784
451.77	32.376
452.12	31.704
452.47	32.368
452.83	32.033
453.18	32.638
453.53	31.779
453.88	33.254
454.23	32.164
454.58	31.945
454.93	32.620
455.28	31.230
455.63	32.371
455.98	32.229
456.34	32.338
456.69	32.896
457.04	32.698
457.39	32.237
457.74	32.959
458.09	32.541
458.44	32.910
458.79	32.567
459.14	32.801
459.49	33.333
459.84	32.209
460.19	33.711
460.54	32.002
460.89	32.791
461.24	32.848
461.59	31.653
461.94	32.145
462.29	32.936
462.64	32.938
462.99	34.070
463.34	33.288
463.69	33.461
464.04	33.392
464.39	32.378
464.74	32.920
465.09	31.870
465.44	33.051
465.79	33.221
466.14	33.429
466.49	33.161
466.84	33.013
467.19	33.479
467.54	32.152
467.89	34.032
468.24	33.254
468.59	33.042
468.94	33.826
469.29	34.828
469.64	32.951
469.99	35.044
470.34	33.267
470.68	33.285
471.03	32.966
471.38	33.750
471.73	34.056
472.08	32.999
472.43	34.170
472.78	33.533
473.13	33.068
473.48	34.014
473.83	34.615
474.17	34.841
474.52	35.166
474.87	34.149
475.22	33.687
475.57	34.556
475.92	34.773
476.27	33.829
476.61	34.366
476.96	34.153
477.31	34.499
477.66	33.758
478.01	34.738
478.36	34.154
478.70	34.544
479.05	34.343
479.40	34.611
479.75	34.251
480.10	33.581
480.45	33.994
480.79	34.699
481.14	34.772
481.49	33.785
481.84	33.981
482.19	35.130
482.53	34.328
482.88	34.741
483.23	34.507
483.58	34.968
483.92	34.878
484.27	35.179
484.62	34.860
484.97	33.983
485.31	33.792
485.66	33.173
486.01	33.143
486.36	34.265
486.70	35.107
487.05	35.344
487.40	34.642
487.75	34.194
488.09	34.064
488.44	34.100
488.79	33.994
489.13	34.386
489.48	35.033
489.83	34.934
490.17	34.349
490.52	34.918
490.87	35.520
491.22	34.143
491.56	34.907
491.91	35.639
492.26	33.774
492.60	34.491
492.95	34.555
493.30	34.683
493.64	34.368
493.99	34.608
494.34	35.286
494.68	36.002
495.03	34.656
495.37	35.497
495.72	35.314
496.07	34.960
496.41	35.526
496.76	35.388
497.11	35.374
497.45	35.153
497.80	34.717
498.14	35.167
498.49	34.505
498.84	35.194
499.18	35.721
499.53	35.606
499.87	36.149
500.22	35.490
500.56	35.568
500.91	35.616
501.26	35.517
501.60	34.569
501.95	35.459
502.29	34.719
502.64	35.596
502.98	35.697
503.33	34.774
503.67	35.105
504.02	35.780
504.36	36.029
504.71	35.562
505.06	36.595
505.40	36.427
505.75	35.823
506.09	35.844
506.44	36.942
506.78	36.879
507.13	35.582
507.47	36.881
507.82	36.603
508.16	36.736
508.51	35.394
508.85	36.698
509.19	36.473
509.54	37.315
509.88	38.032
510.23	36.426
510.57	37.725
510.92	37.916
511.26	37.002
511.61	36.069
511.95	37.231
512.30	38.043
512.64	37.952
512.98	38.229
513.33	37.342
513.67	38.303
514.02	37.025
514.36	38.116
514.70	37.748
515.05	38.822
515.39	37.601
515.74	38.453
516.08	37.637
516.42	38.640
516.77	38.359
517.11	38.444
517.46	38.577
517.80	39.471
518.14	37.621
518.49	38.673
518.83	38.635
519.17	38.721
519.52	38.288
519.86	39.606
520.20	39.731
520.55	39.077
520.89	39.011
521.23	39.866
521.58	39.561
521.92	40.279
522.26	39.556
522.61	39.544
522.95	38.226
523.29	39.687
523.64	39.725
523.98	40.102
524.32	39.158
524.66	39.503
525.01	40.591
525.35	40.786
525.69	40.468
526.04	41.057
526.38	40.038
526.72	38.378
527.06	40.234
527.41	40.198
527.75	39.142
528.09	39.974
528.43	39.803
528.78	39.259
529.12	40.717
529.46	41.302
529.80	39.832
530.15	39.601
530.49	39.004
530.83	40.733
531.17	40.269
531.51	40.054
531.86	38.907
532.20	40.621
532.54	41.444
532.88	40.250
533.22	41.110
533.57	41.057
533.91	39.076
534.25	38.843
534.59	39.475
534.93	38.519
535.27	39.585
535.62	39.514
535.96	39.819
536.30	39.660
536.64	40.505
536.98	40.890
537.32	40.152
537.66	40.190
538.01	40.344
538.35	40.946
538.69	39.639
539.03	40.555
539.37	39.055
539.71	39.159
540.05	41.124
540.39	40.166
540.73	39.599
541.07	40.779
541.42	39.568
541.76	39.668
542.10	40.783
542.44	38.974
542.78	40.841
543.12	41.412
543.46	38.973
543.80	39.465
544.14	40.564
544.48	40.551
544.82	39.851
545.16	40.711
545.50	40.310
545.84	39.569
546.18	40.985
546.52	42.390
546.86	41.311
547.20	40.788
547.54	39.532
547.88	39.748
548.22	39.974
548.56	40.147
548.90	40.364
549.24	40.084
549.58	41.073
549.92	41.060
550.26	42.558
550.60	39.829
550.94	40.219
551.28	40.858
551.62	40.325
551.96	40.232
552.30	39.303
552.64	41.098
552.98	40.925
553.32	40.909
553.66	40.880
554.00	41.222
554.34	40.650
554.68	41.520
555.02	40.955
555.36	40.834
555.69	39.327
556.03	40.982
556.37	41.110
556.71	40.515
557.05	40.650
557.39	40.238
557.73	41.284
558.07	40.618
558.41	40.688
558.75	40.608
559.08	39.922
559.42	40.046
559.76	42.868
560.10	41.685
560.44	40.535
560.78	40.362
561.12	40.097
561.45	40.616
561.79	40.767
562.13	40.673
562.47	39.706
562.81	40.806
563.15	40.448
563.48	41.050
563.82	41.176
564.16	40.568
564.50	40.726
564.84	40.079
565.17	39.324
565.51	40.548
565.85	41.582
566.19	40.975
566.52	40.835
566.86	40.202
567.20	40.920
567.54	42.351
567.88	40.089
568.21	41.275
568.55	40.244
568.89	39.712
569.23	39.472
569.56	39.218
569.90	39.772
570.24	39.271
570.57	38.489
570.91	37.810
571.25	39.105
571.59	39.494
571.92	38.810
572.26	38.077
572.60	38.349
572.93	37.442
573.27	38.232
573.61	38.084
573.95	38.664
574.28	38.866
574.62	37.850
574.96	37.861
575.29	37.551
575.63	37.669
575.97	37.567
576.30	37.435
576.64	37.859
576.98	37.895
577.31	37.735
577.65	37.978
577.98	38.136
578.32	38.160
578.66	38.072
578.99	38.142
579.33	38.307
579.67	37.383
580.00	37.376
580.34	37.818
580.67	37.975
581.01	36.952
581.35	37.850
581.68	37.500
582.02	38.296
582.35	37.847
582.69	38.700
583.02	38.705
583.36	38.084
583.70	38.172
584.03	38.254
584.37	38.078
584.70	37.854
585.04	38.152
585.37	37.303
585.71	38.171
586.04	38.045
586.38	38.546
586.72	38.444
587.05	38.006
587.39	38.214
587.72	38.572
588.06	38.817
588.39	38.536
588.73	39.077
589.06	39.226
589.40	38.990
589.73	38.739
590.07	38.638
590.40	38.782
590.73	39.584
591.07	39.344
591.40	40.035
591.74	39.183
592.07	39.775
592.41	40.127
592.74	39.124
593.08	39.959
593.41	39.770
593.75	38.905
594.08	39.684
594.41	39.704
594.75	39.034
595.08	39.887
595.42	39.090
595.75	38.662
596.09	39.853
596.42	39.975
596.75	39.241
597.09	40.071
597.42	38.804
597.75	40.080
598.09	39.720
598.42	39.240
598.76	38.164
599.09	38.437
599.42	38.870
599.76	39.071
600.09	39.771
600.42	40.486
600.76	39.586
601.09	39.119
601.42	38.860
601.76	38.902
602.09	39.223
602.42	38.848
602.76	39.551
603.09	40.040
603.42	40.411
603.76	39.888
604.09	39.407
604.42	39.842
604.76	39.424
605.09	39.693
605.42	39.672
605.75	39.414
606.09	38.979
606.42	39.380
606.75	40.532
607.09	40.009
607.42	38.556
607.75	39.249
608.08	40.217
608.42	40.114
608.75	38.692
609.08	38.870
609.41	39.412
609.75	39.834
610.08	39.265
610.41	39.566
610.74	40.426
611.07	40.314
611.41	39.183
611.74	39.229
612.07	40.763
612.40	38.966
612.73	40.226
613.07	40.396
613.40	41.653
613.73	40.545
614.06	40.198
614.39	40.304
614.72	39.050
615.06	39.348
615.39	39.989
615.72	39.707
616.05	39.757
616.38	40.337
616.71	39.219
617.05	40.410
617.38	40.557
617.71	40.049
618.04	41.491
618.37	40.755
618.70	41.265
619.03	40.826
619.36	41.438
619.69	40.488
620.03	39.807
620.36	40.928
620.69	41.134
621.02	41.400
621.35	40.161
621.68	40.328
622.01	40.291
622.34	41.460
622.67	40.625
623.00	41.239
623.33	40.448
623.66	39.956
623.99	39.925
624.32	40.699
624.65	41.280
624.99	40.105
625.32	40.045
625.65	40.948
625.98	39.906
626.31	40.620
626.64	40.669
626.97	41.353
627.30	40.766
627.63	40.242
627.96	41.950
628.29	42.371
628.62	41.547
628.95	41.732
629.28	39.850
629.61	40.824
629.94	41.966
630.26	41.750
630.59	42.010
630.92	41.141
631.25	42.843
631.58	41.376
631.91	39.468
632.24	42.111
632.57	41.222
632.90	42.184
