SpectraSuite Data File
++++++++++++++++++++++++++++++++++++
Date: Sat May 16 11:34:33 PDT 2015
User: schluterlab
Dark Spectrum Present: Yes
Reference Spectrum Present: Yes
Number of Sampled Component Spectra: 1
Spectrometers: USB2E3373
Integration Time (usec): 3000 (USB2E3373)
Spectra Averaged: 3 (USB2E3373)
Boxcar Smoothing: 0 (USB2E3373)
Correct for Electrical Dark: No (USB2E3373)
Strobe/Lamp Enabled: No (USB2E3373)
Correct for Detector Non-linearity: No (USB2E3373)
Correct for Stray Light: No (USB2E3373)
Number of Pixels in Processed Spectrum: 2048
>>>>>Begin Processed Spectral Data<<<<<
178.53	0.000
178.91	173.333
179.29	600.000
179.67	-600.000
180.04	-61.538
180.42	2000.000
180.80	575.000
181.18	275.000
181.56	-62.500
181.94	1200.000
182.31	375.000
182.69	-15.385
183.07	-633.333
183.45	1200.000
183.83	366.667
184.20	-257.143
184.58	-212.500
184.96	-525.000
185.34	150.000
185.72	-475.000
186.09	183.333
186.47	-200.000
186.85	-150.000
187.23	-100.000
187.61	-275.000
187.98	-275.000
188.36	-225.000
188.74	-125.000
189.12	1300.000
189.49	242.857
189.87	-83.333
190.25	475.000
190.63	-142.857
191.00	-166.667
191.38	480.000
191.76	-40.000
192.14	620.000
192.51	-300.000
192.89	-366.667
193.27	0.000
193.65	-177.778
194.02	-257.143
194.40	433.333
194.78	0.000
195.15	-1600.000
195.53	-109.091
195.91	-350.000
196.29	420.000
196.66	-700.000
197.04	1900.000
197.42	-175.000
197.79	-20.000
198.17	-533.333
198.55	-300.000
198.92	-2500.000
199.30	275.000
199.68	-550.000
200.05	-66.667
200.43	-200.000
200.81	-1000.000
201.18	-225.000
201.56	28.571
201.94	-73.333
202.31	-4.545
202.69	0.000
203.07	-90.000
203.44	466.667
203.82	-266.667
204.19	-475.000
204.57	75.000
204.95	-1100.000
205.32	-87.500
205.70	1000.000
206.08	-2700.000
206.45	0.000
206.83	-1250.000
207.20	-100.000
207.58	-766.667
207.96	-133.333
208.33	-212.500
208.71	-177.778
209.08	180.000
209.46	-257.143
209.84	1100.000
210.21	0.000
210.59	0.000
210.96	200.000
211.34	-250.000
211.71	-266.667
212.09	450.000
212.46	1150.000
212.84	-2300.000
213.22	900.000
213.59	125.000
213.97	-33.333
214.34	270.000
214.72	-50.000
215.09	-533.333
215.47	-100.000
215.84	-140.000
216.22	-30.000
216.59	40.000
216.97	-325.000
217.34	850.000
217.72	-142.857
218.09	-216.667
218.47	-371.429
218.84	285.714
219.22	-157.143
219.59	0.000
219.97	214.286
220.34	550.000
220.72	112.500
221.09	-123.077
221.47	0.000
221.84	566.667
222.22	-1100.000
222.59	1200.000
222.97	-262.500
223.34	-750.000
223.72	-866.667
224.09	-85.714
224.46	-450.000
224.84	-64.286
225.21	-142.857
225.59	-90.909
225.96	-137.500
226.34	-14.286
226.71	-222.222
227.08	-15.000
227.46	1200.000
227.83	-214.286
228.21	-187.500
228.58	850.000
228.95	-25.000
229.33	-2000.000
229.70	-220.000
230.08	-1200.000
230.45	-50.000
230.82	-366.667
231.20	-1600.000
231.57	-600.000
231.95	1600.000
232.32	-38.095
232.69	-177.778
233.07	-342.857
233.44	-750.000
233.81	-73.333
234.19	-111.111
234.56	-112.500
234.93	15.625
235.31	-314.286
235.68	-121.429
236.05	-94.118
236.43	-127.273
236.80	-38.710
237.17	-16.667
237.55	-80.952
237.92	-63.636
238.29	-34.286
238.67	-29.412
239.04	-30.556
239.41	-51.613
239.79	-48.718
240.16	-33.333
240.53	-5.455
240.91	-51.282
241.28	3.636
241.65	0.000
242.02	-8.197
242.40	-29.508
242.77	-12.121
243.14	-25.424
243.51	-20.000
243.89	-12.658
244.26	-25.843
244.63	-11.579
245.00	-10.526
245.38	-1.695
245.75	-8.850
246.12	-11.200
246.49	-11.024
246.87	-8.130
247.24	-12.712
247.61	-16.949
247.98	-3.521
248.36	-13.986
248.73	-12.025
249.10	-5.732
249.47	-0.585
249.84	-4.545
250.22	-10.714
250.59	-5.650
250.96	-4.712
251.33	-3.318
251.70	-4.808
252.08	-3.791
252.45	-10.900
252.82	-7.143
253.19	-2.979
253.56	-0.403
253.94	-2.954
254.31	-6.438
254.68	-2.439
255.05	-4.839
255.42	-3.968
255.79	-5.376
256.16	-7.451
256.54	-1.103
256.91	-4.924
257.28	-5.861
257.65	-5.319
258.02	0.000
258.39	-2.341
258.76	-4.392
259.14	-4.012
259.51	-3.607
259.88	-3.354
260.25	0.932
260.62	-3.859
260.99	-5.935
261.36	-0.610
261.73	-3.757
262.10	2.778
262.47	-3.134
262.85	0.857
263.22	-4.011
263.59	-4.615
263.96	-2.899
264.33	-3.252
264.70	-1.105
265.07	-3.022
265.44	-1.550
265.81	-1.809
266.18	-5.823
266.55	-3.186
266.92	0.756
267.29	-1.211
267.66	-2.716
268.03	-1.932
268.40	0.235
268.77	-4.096
269.14	-2.552
269.51	-2.529
269.88	-1.835
270.25	-2.564
270.62	-1.602
270.99	-1.577
271.36	-2.098
271.73	0.673
272.10	-1.373
272.47	-1.111
272.84	-2.000
273.21	-0.459
273.58	0.879
273.95	-2.193
274.32	-3.846
274.69	1.094
275.06	-0.818
275.43	-3.125
275.80	1.222
276.17	-2.092
276.54	1.222
276.91	-2.469
277.28	-0.811
277.65	-2.893
278.02	-1.461
278.39	-2.358
278.76	0.398
279.13	1.186
279.50	-1.193
279.87	-2.114
280.23	-1.215
280.60	-2.187
280.97	-2.330
281.34	0.193
281.71	-0.769
282.08	-0.806
282.45	-3.462
282.82	-1.550
283.19	-0.182
283.56	0.916
283.92	-1.237
284.29	-1.115
284.66	-1.799
285.03	0.000
285.40	-1.107
285.77	-0.175
286.14	-2.166
286.51	-2.309
286.87	-0.726
287.24	-0.853
287.61	0.661
287.98	-1.213
288.35	-2.810
288.72	-1.868
289.08	-3.729
289.45	-2.020
289.82	-2.941
290.19	-0.657
290.56	-1.983
290.93	-3.021
291.29	-3.079
291.66	-1.771
292.03	-1.099
292.40	0.301
292.77	-1.553
293.13	-0.325
293.50	-1.783
293.87	-0.307
294.24	-0.603
294.60	-2.576
294.97	1.214
295.34	-0.889
295.71	0.149
296.08	-1.690
296.44	-2.575
296.81	-1.140
297.18	-1.408
297.55	-0.141
297.91	-0.558
298.28	-1.370
298.65	-0.558
299.02	-0.802
299.38	-0.401
299.75	0.136
300.12	0.385
300.48	0.128
300.85	-1.573
301.22	0.388
301.59	0.130
301.95	1.134
302.32	-1.434
302.69	0.122
303.05	-0.855
303.42	-2.125
303.79	-1.316
304.15	0.592
304.52	-0.933
304.89	-0.118
305.25	-1.709
305.62	-0.940
305.99	0.118
306.35	0.777
306.72	-1.025
307.09	0.341
307.45	-0.568
307.82	-1.229
308.19	0.224
308.55	-1.089
308.92	-0.430
309.29	0.324
309.65	0.636
310.02	-0.540
310.38	-0.865
310.75	0.307
311.12	0.723
311.48	-0.209
311.85	-0.103
312.22	0.721
312.58	1.628
312.95	0.000
313.31	0.999
313.68	1.407
314.05	1.385
314.41	0.805
314.78	0.899
315.14	2.665
315.51	1.216
315.87	1.742
316.24	1.749
316.61	2.399
316.97	2.189
317.34	0.674
317.70	2.412
318.07	2.892
318.43	1.685
318.80	3.474
319.16	2.533
319.53	2.538
319.89	3.104
320.26	2.647
320.62	2.596
320.99	3.483
321.35	2.365
321.72	3.173
322.08	4.055
322.45	3.762
322.81	5.283
323.18	4.995
323.54	5.268
323.91	6.580
324.27	5.703
324.64	6.764
325.00	6.632
325.37	7.964
325.73	8.836
326.10	6.377
326.46	8.319
326.83	10.128
327.19	9.758
327.56	10.647
327.92	10.450
328.29	11.342
328.65	9.364
329.01	12.014
329.38	11.864
329.74	13.736
330.11	13.599
330.47	12.897
330.84	13.474
331.20	12.816
331.56	14.403
331.93	14.831
332.29	15.708
332.66	15.277
333.02	15.837
333.38	15.143
333.75	15.583
334.11	15.822
334.48	16.593
334.84	17.585
335.20	16.844
335.57	16.697
335.93	18.174
336.29	18.246
336.66	16.300
337.02	16.937
337.38	17.201
337.75	17.910
338.11	17.084
338.47	17.705
338.84	17.786
339.20	16.257
339.56	18.271
339.93	17.372
340.29	16.386
340.65	17.657
341.02	17.707
341.38	16.933
341.74	17.612
342.11	19.539
342.47	17.082
342.83	17.716
343.20	18.446
343.56	18.449
343.92	18.948
344.28	18.839
344.65	17.244
345.01	18.824
345.37	20.349
345.73	17.349
346.10	16.353
346.46	16.897
346.82	18.765
347.19	17.502
347.55	17.335
347.91	18.504
348.27	17.343
348.63	19.063
349.00	17.661
349.36	16.706
349.72	19.745
350.08	17.883
350.45	17.179
350.81	18.471
351.17	18.408
351.53	16.309
351.89	16.572
352.26	18.217
352.62	19.278
352.98	18.750
353.34	17.586
353.70	17.529
354.07	18.096
354.43	19.684
354.79	18.146
355.15	17.812
355.51	16.641
355.87	17.233
356.24	18.745
356.60	19.259
356.96	18.861
357.32	18.369
357.68	18.927
358.04	20.092
358.40	18.639
358.77	18.470
359.13	18.133
359.49	17.838
359.85	18.902
360.21	18.721
360.57	19.428
360.93	19.259
361.29	20.105
361.66	17.988
362.02	18.047
362.38	19.076
362.74	19.853
363.10	18.867
363.46	20.014
363.82	18.950
364.18	18.958
364.54	20.443
364.90	19.217
365.26	18.902
365.62	19.244
365.98	20.057
366.35	19.014
366.71	19.098
367.07	19.972
367.43	19.904
367.79	20.344
368.15	19.132
368.51	21.259
368.87	20.467
369.23	19.789
369.59	19.931
369.95	19.873
370.31	20.394
370.67	19.161
371.03	20.918
371.39	19.165
371.75	21.245
372.11	20.158
372.47	21.620
372.83	20.515
373.19	21.143
373.55	21.112
373.91	21.337
374.27	21.218
374.63	20.290
374.99	22.114
375.35	20.929
375.71	22.485
376.07	21.287
376.42	20.397
376.78	21.830
377.14	20.542
377.50	21.470
377.86	22.627
378.22	21.106
378.58	20.939
378.94	21.948
379.30	21.572
379.66	22.283
380.02	21.747
380.38	20.906
380.74	21.161
381.09	22.144
381.45	22.852
381.81	21.174
382.17	21.867
382.53	21.459
382.89	22.428
383.25	22.216
383.61	23.231
383.97	22.535
384.32	22.716
384.68	22.733
385.04	21.135
385.40	22.337
385.76	22.927
386.12	22.861
386.48	23.144
386.83	22.883
387.19	22.594
387.55	23.985
387.91	22.881
388.27	22.316
388.62	22.476
388.98	22.895
389.34	22.766
389.70	22.655
390.06	23.679
390.42	23.205
390.77	22.713
391.13	22.919
391.49	22.832
391.85	23.005
392.20	23.362
392.56	22.847
392.92	22.875
393.28	23.708
393.64	23.211
393.99	23.815
394.35	23.540
394.71	22.977
395.07	23.478
395.42	23.004
395.78	22.690
396.14	23.551
396.50	23.425
396.85	23.874
397.21	23.208
397.57	23.465
397.92	24.063
398.28	23.333
398.64	23.736
399.00	24.438
399.35	23.168
399.71	23.926
400.07	23.642
400.42	23.540
400.78	22.958
401.14	23.892
401.49	23.644
401.85	23.490
402.21	23.182
402.57	23.665
402.92	24.418
403.28	23.713
403.63	22.588
403.99	23.182
404.35	23.309
404.70	23.757
405.06	23.587
405.42	23.678
405.77	23.077
406.13	22.998
406.49	23.367
406.84	24.115
407.20	23.734
407.55	23.433
407.91	22.604
408.27	23.284
408.62	22.610
408.98	22.923
409.34	22.974
409.69	23.945
410.05	22.741
410.40	23.789
410.76	22.881
411.11	23.379
411.47	22.762
411.83	22.983
412.18	22.834
412.54	22.453
412.89	23.208
413.25	22.786
413.60	23.208
413.96	21.750
414.31	22.508
414.67	23.873
415.03	22.833
415.38	22.121
415.74	22.809
416.09	23.146
416.45	22.222
416.80	22.887
417.16	22.326
417.51	24.032
417.87	22.460
418.22	23.451
418.58	22.721
418.93	24.034
419.29	23.149
419.64	22.676
420.00	23.329
420.35	23.773
420.71	23.469
421.06	23.669
421.42	22.951
421.77	24.288
422.12	23.279
422.48	23.303
422.83	23.462
423.19	23.274
423.54	23.112
423.90	23.193
424.25	23.133
424.61	24.125
424.96	23.932
425.31	23.756
425.67	24.126
426.02	23.178
426.38	24.682
426.73	23.086
427.09	23.223
427.44	23.580
427.79	22.733
428.15	24.057
428.50	24.868
428.85	25.120
429.21	23.852
429.56	24.427
429.92	25.200
430.27	24.377
430.62	24.295
430.98	23.889
431.33	24.173
431.68	24.343
432.04	24.175
432.39	24.217
432.74	24.580
433.10	24.198
433.45	22.971
433.80	24.132
434.16	23.536
434.51	24.055
434.86	25.015
435.22	24.165
435.57	24.663
435.92	24.033
436.28	24.095
436.63	24.081
436.98	24.513
437.34	24.217
437.69	24.446
438.04	24.504
438.39	25.572
438.75	25.437
439.10	25.819
439.45	25.528
439.81	24.699
440.16	24.475
440.51	25.529
440.86	24.696
441.22	23.936
441.57	25.000
441.92	25.780
442.27	24.675
442.63	24.732
442.98	24.266
443.33	24.272
443.68	24.492
444.03	24.509
444.39	25.355
444.74	26.046
445.09	24.616
445.44	25.718
445.79	24.375
446.15	25.411
446.50	24.224
446.85	25.090
447.20	25.383
447.55	25.193
447.91	25.716
448.26	24.637
448.61	25.071
448.96	25.322
449.31	25.536
449.66	25.186
450.02	23.712
450.37	25.391
450.72	23.842
451.07	25.833
451.42	24.411
451.77	24.656
452.12	25.268
452.47	25.189
452.83	24.520
453.18	25.933
453.53	25.684
453.88	26.077
454.23	24.063
454.58	26.414
454.93	25.126
455.28	24.857
455.63	24.570
455.98	26.024
456.34	24.269
456.69	26.391
457.04	25.200
457.39	24.581
457.74	25.871
458.09	26.276
458.44	26.097
458.79	24.888
459.14	26.583
459.49	26.347
459.84	24.845
460.19	25.477
460.54	25.045
460.89	25.336
461.24	26.351
461.59	25.557
461.94	25.843
462.29	25.253
462.64	25.428
462.99	25.435
463.34	25.051
463.69	25.000
464.04	24.780
464.39	24.313
464.74	25.000
465.09	25.075
465.44	25.324
465.79	25.888
466.14	25.834
466.49	24.352
466.84	25.990
467.19	25.499
467.54	24.430
467.89	26.572
468.24	24.941
468.59	25.172
468.94	24.952
469.29	25.081
469.64	25.876
469.99	25.726
470.34	25.718
470.68	26.599
471.03	25.396
471.38	24.861
471.73	25.175
472.08	25.033
472.43	25.740
472.78	24.667
473.13	25.779
473.48	25.080
473.83	25.993
474.17	25.096
474.52	26.151
474.87	25.000
475.22	25.192
475.57	24.333
475.92	25.216
476.27	24.743
476.61	24.338
476.96	25.545
477.31	25.673
477.66	25.180
478.01	25.446
478.36	25.301
478.70	25.307
479.05	25.311
479.40	25.233
479.75	24.516
480.10	26.240
480.45	24.468
480.79	25.123
481.14	25.840
481.49	24.685
481.84	24.919
482.19	24.577
482.53	24.290
482.88	24.822
483.23	25.164
483.58	25.578
483.92	24.606
484.27	23.261
484.62	24.406
484.97	24.552
485.31	23.712
485.66	22.673
486.01	23.217
486.36	23.694
486.70	24.774
487.05	24.203
487.40	24.760
487.75	24.031
488.09	23.996
488.44	24.797
488.79	25.221
489.13	24.724
489.48	25.204
489.83	25.415
490.17	24.728
490.52	24.909
490.87	24.711
491.22	24.568
491.56	25.185
491.91	25.429
492.26	25.472
492.60	24.358
492.95	24.512
493.30	24.821
493.64	25.059
493.99	24.857
494.34	25.381
494.68	25.421
495.03	23.948
495.37	24.140
495.72	23.870
496.07	25.106
496.41	25.799
496.76	25.114
497.11	24.682
497.45	25.958
497.80	24.712
498.14	24.361
498.49	24.711
498.84	24.806
499.18	25.097
499.53	24.403
499.87	23.986
500.22	25.049
500.56	24.862
500.91	23.990
501.26	25.133
501.60	24.025
501.95	24.106
502.29	24.516
502.64	24.988
502.98	24.389
503.33	24.013
503.67	23.851
504.02	24.964
504.36	25.049
504.71	24.113
505.06	24.314
505.40	24.651
505.75	24.136
506.09	25.278
506.44	24.211
506.78	25.188
507.13	23.893
507.47	24.883
507.82	25.039
508.16	25.130
508.51	24.266
508.85	23.654
509.19	24.751
509.54	23.732
509.88	24.734
510.23	24.371
510.57	24.656
510.92	24.919
511.26	24.615
511.61	24.244
511.95	24.569
512.30	24.244
512.64	23.873
512.98	24.037
513.33	25.096
513.67	24.902
514.02	24.217
514.36	24.875
514.70	25.184
515.05	24.300
515.39	24.452
515.74	25.422
516.08	24.899
516.42	24.816
516.77	24.726
517.11	24.485
517.46	25.120
517.80	25.271
518.14	24.215
518.49	24.447
518.83	24.095
519.17	25.459
519.52	23.655
519.86	25.269
520.20	25.122
520.55	25.477
520.89	24.233
521.23	25.153
521.58	24.326
521.92	25.396
522.26	24.952
522.61	24.905
522.95	24.250
523.29	24.577
523.64	23.485
523.98	25.271
524.32	23.570
524.66	23.540
525.01	23.956
525.35	25.129
525.69	24.658
526.04	23.890
526.38	25.143
526.72	24.202
527.06	25.130
527.41	24.422
527.75	23.762
528.09	24.553
528.43	23.934
528.78	24.372
529.12	24.328
529.46	23.776
529.80	23.822
530.15	24.404
530.49	24.321
530.83	26.195
531.17	23.973
531.51	24.246
531.86	23.831
532.20	23.414
532.54	24.599
532.88	24.440
533.22	24.265
533.57	23.760
533.91	23.658
534.25	23.633
534.59	22.798
534.93	22.962
535.27	24.103
535.62	24.425
535.96	24.240
536.30	23.429
536.64	23.639
536.98	24.011
537.32	23.566
537.66	23.014
538.01	23.368
538.35	24.054
538.69	23.596
539.03	23.494
539.37	22.621
539.71	23.015
540.05	23.783
540.39	23.546
540.73	24.257
541.07	24.044
541.42	23.025
541.76	22.791
542.10	24.443
542.44	23.851
542.78	23.813
543.12	23.150
543.46	22.603
543.80	22.809
544.14	22.297
544.48	24.278
544.82	22.869
545.16	23.072
545.50	21.736
545.84	22.323
546.18	24.064
546.52	23.186
546.86	23.789
547.20	24.051
547.54	23.072
547.88	22.495
548.22	21.232
548.56	22.979
548.90	22.507
549.24	23.055
549.58	22.865
549.92	23.463
550.26	23.483
550.60	22.617
550.94	23.504
551.28	23.627
551.62	23.560
551.96	22.287
552.30	23.136
552.64	22.871
552.98	23.125
553.32	21.501
553.66	22.639
554.00	22.957
554.34	22.816
554.68	22.588
555.02	23.155
555.36	23.149
555.69	22.851
556.03	22.947
556.37	23.400
556.71	22.334
557.05	23.208
557.39	22.940
557.73	23.195
558.07	22.457
558.41	22.812
558.75	23.194
559.08	22.023
559.42	22.358
559.76	23.620
560.10	22.148
560.44	23.266
560.78	22.547
561.12	22.015
561.45	22.260
561.79	22.160
562.13	22.370
562.47	21.639
562.81	21.782
563.15	22.323
563.48	21.700
563.82	22.650
564.16	21.298
564.50	21.976
564.84	22.487
565.17	22.414
565.51	21.578
565.85	22.921
566.19	22.332
566.52	21.657
566.86	21.176
567.20	22.397
567.54	22.032
567.88	21.441
568.21	21.365
568.55	20.626
568.89	20.577
569.23	20.500
569.56	19.756
569.90	20.102
570.24	20.256
570.57	19.824
570.91	20.095
571.25	20.104
571.59	19.732
571.92	20.119
572.26	20.042
572.60	19.764
572.93	19.480
573.27	18.872
573.61	19.673
573.95	19.904
574.28	19.316
574.62	19.598
574.96	19.143
575.29	19.385
575.63	19.246
575.97	19.471
576.30	19.457
576.64	19.138
576.98	18.786
577.31	19.261
577.65	19.302
577.98	18.891
578.32	19.196
578.66	19.434
578.99	18.796
579.33	19.216
579.67	19.097
580.00	18.576
580.34	18.713
580.67	19.245
581.01	18.556
581.35	19.419
581.68	18.321
582.02	18.928
582.35	18.395
582.69	19.078
583.02	19.076
583.36	19.519
583.70	19.252
584.03	19.504
584.37	18.945
584.70	19.244
585.04	18.886
585.37	18.162
585.71	18.916
586.04	19.453
586.38	18.738
586.72	18.715
587.05	18.975
587.39	19.175
587.72	19.007
588.06	19.560
588.39	19.140
588.73	19.191
589.06	19.629
589.40	19.134
589.73	19.724
590.07	18.791
590.40	20.037
590.73	19.712
591.07	19.508
591.40	19.671
591.74	19.765
592.07	18.649
592.41	19.788
592.74	19.101
593.08	19.190
593.41	19.079
593.75	18.398
594.08	19.159
594.41	19.630
594.75	19.517
595.08	19.211
595.42	19.545
595.75	18.706
596.09	19.402
596.42	19.394
596.75	18.844
597.09	19.501
597.42	19.555
597.75	18.955
598.09	19.747
598.42	19.399
598.76	18.854
599.09	18.587
599.42	18.108
599.76	19.215
600.09	18.893
600.42	18.496
600.76	19.171
601.09	18.990
601.42	18.599
601.76	19.977
602.09	18.691
602.42	18.848
602.76	18.945
603.09	18.427
603.42	19.017
603.76	19.107
604.09	19.023
604.42	18.776
604.76	18.840
605.09	19.304
605.42	19.371
605.75	19.146
606.09	18.597
606.42	18.685
606.75	18.892
607.09	19.056
607.42	19.146
607.75	18.234
608.08	19.114
608.42	18.780
608.75	18.925
609.08	19.484
609.41	19.332
609.75	19.161
610.08	19.069
610.41	17.976
610.74	19.101
611.07	19.422
611.41	18.810
611.74	19.280
612.07	19.280
612.40	19.723
612.73	19.009
613.07	18.657
613.40	19.102
613.73	19.237
614.06	18.561
614.39	19.955
614.72	18.547
615.06	18.587
615.39	18.828
615.72	18.903
616.05	18.332
616.38	18.804
616.71	18.619
617.05	19.421
617.38	19.505
617.71	18.857
618.04	19.317
618.37	19.371
618.70	20.013
619.03	18.957
619.36	20.648
619.69	20.101
620.03	19.284
620.36	20.253
620.69	19.957
621.02	19.559
621.35	18.952
621.68	19.754
622.01	19.417
622.34	19.255
622.67	20.000
623.00	19.434
623.33	20.597
623.66	19.129
623.99	20.000
624.32	18.973
624.65	18.985
624.99	19.567
625.32	18.862
625.65	19.814
625.98	19.092
626.31	19.576
626.64	18.996
626.97	20.291
627.30	20.085
627.63	18.135
627.96	19.495
628.29	20.221
628.62	20.057
628.95	20.374
629.28	19.643
629.61	19.136
629.94	19.471
630.26	19.980
630.59	21.307
630.92	19.820
631.25	20.867
631.58	21.058
631.91	18.404
632.24	19.778
632.57	20.556
