SpectraSuite Data File
++++++++++++++++++++++++++++++++++++
Date: Sat May 16 11:08:16 PDT 2015
User: schluterlab
Dark Spectrum Present: Yes
Reference Spectrum Present: Yes
Number of Sampled Component Spectra: 1
Spectrometers: USB2E3373
Integration Time (usec): 3000 (USB2E3373)
Spectra Averaged: 3 (USB2E3373)
Boxcar Smoothing: 0 (USB2E3373)
Correct for Electrical Dark: No (USB2E3373)
Strobe/Lamp Enabled: No (USB2E3373)
Correct for Detector Non-linearity: No (USB2E3373)
Correct for Stray Light: No (USB2E3373)
Number of Pixels in Processed Spectrum: 2048
>>>>>Begin Processed Spectral Data<<<<<
178.53	0.000
178.91	26.667
179.29	166.667
179.67	-1700.000
180.04	0.000
180.42	-700.000
180.80	125.000
181.18	25.000
181.56	62.500
181.94	-100.000
182.31	25.000
182.69	69.231
183.07	-300.000
183.45	650.000
183.83	-66.667
184.20	0.000
184.58	-62.500
184.96	75.000
185.34	87.500
185.72	-125.000
186.09	16.667
186.47	-162.500
186.85	-62.500
187.23	25.000
187.61	100.000
187.98	-50.000
188.36	-50.000
188.74	-112.500
189.12	300.000
189.49	57.143
189.87	50.000
190.25	200.000
190.63	-7.143
191.00	-33.333
191.38	180.000
191.76	100.000
192.14	120.000
192.51	-80.000
192.89	-66.667
193.27	0.000
193.65	44.444
194.02	-28.571
194.40	-33.333
194.78	10.000
195.15	400.000
195.53	-18.182
195.91	-150.000
196.29	-100.000
196.66	-100.000
197.04	700.000
197.42	200.000
197.79	80.000
198.17	166.667
198.55	-500.000
198.92	-300.000
199.30	112.500
199.68	-200.000
200.05	44.444
200.43	-11.111
200.81	100.000
201.18	-25.000
201.56	-114.286
201.94	-13.333
202.31	54.545
202.69	60.000
203.07	60.000
203.44	333.333
203.82	-83.333
204.19	175.000
204.57	75.000
204.95	-300.000
205.32	37.500
205.70	-0.000
206.08	600.000
206.45	16.667
206.83	-400.000
207.20	150.000
207.58	-133.333
207.96	-200.000
208.33	-12.500
208.71	-11.111
209.08	-10.000
209.46	28.571
209.84	-200.000
210.21	0.000
210.59	45.000
210.96	-1000.000
211.34	-50.000
211.71	133.333
212.09	-50.000
212.46	800.000
212.84	-900.000
213.22	466.667
213.59	50.000
213.97	100.000
214.34	-40.000
214.72	50.000
215.09	400.000
215.47	83.333
215.84	70.000
216.22	0.000
216.59	80.000
216.97	75.000
217.34	-150.000
217.72	57.143
218.09	-66.667
218.47	-57.143
218.84	57.143
219.22	85.714
219.59	0.000
219.97	-42.857
220.34	75.000
220.72	62.500
221.09	100.000
221.47	0.000
221.84	-0.000
222.22	200.000
222.59	200.000
222.97	0.000
223.34	150.000
223.72	33.333
224.09	92.857
224.46	250.000
224.84	-28.571
225.21	-85.714
225.59	54.545
225.96	0.000
226.34	114.286
226.71	-11.111
227.08	40.000
227.46	1600.000
227.83	28.571
228.21	-125.000
228.58	-100.000
228.95	18.750
229.33	-800.000
229.70	-240.000
230.08	-400.000
230.45	116.667
230.82	133.333
231.20	600.000
231.57	-50.000
231.95	-700.000
232.32	76.190
232.69	66.667
233.07	-42.857
233.44	0.000
233.81	46.667
234.19	133.333
234.56	-12.500
234.93	53.125
235.31	-100.000
235.68	-64.286
236.05	29.412
236.43	18.182
236.80	16.129
237.17	58.333
237.55	28.571
237.92	0.000
238.29	40.000
238.67	44.118
239.04	44.444
239.41	45.161
239.79	7.692
240.16	42.857
240.53	38.182
240.91	69.231
241.28	30.909
241.65	46.154
242.02	44.262
242.40	37.705
242.77	24.242
243.14	66.102
243.51	17.143
243.89	31.646
244.26	52.809
244.63	47.368
245.00	38.947
245.38	37.288
245.75	48.673
246.12	43.200
246.49	38.583
246.87	34.959
247.24	40.678
247.61	36.441
247.98	37.324
248.36	32.867
248.73	38.608
249.10	34.395
249.47	37.427
249.84	42.045
250.22	33.333
250.59	41.808
250.96	42.932
251.33	41.706
251.70	35.096
252.08	38.389
252.45	41.706
252.82	45.238
253.19	44.255
253.56	39.919
253.94	40.928
254.31	41.202
254.68	47.154
255.05	43.548
255.42	46.825
255.79	38.710
256.16	42.353
256.54	45.221
256.91	41.667
257.28	43.590
257.65	40.426
258.02	38.679
258.39	43.478
258.76	39.189
259.14	42.284
259.51	46.230
259.88	41.463
260.25	49.068
260.62	43.408
260.99	40.356
261.36	42.073
261.73	45.954
262.10	48.056
262.47	45.299
262.85	42.571
263.22	40.974
263.59	41.846
263.96	43.188
264.33	40.379
264.70	46.961
265.07	42.857
265.44	40.052
265.81	40.310
266.18	37.975
266.55	38.971
266.92	45.088
267.29	40.920
267.66	43.210
268.03	44.928
268.40	41.549
268.77	40.000
269.14	41.067
269.51	41.609
269.88	41.284
270.25	38.462
270.62	40.961
270.99	41.441
271.36	41.026
271.73	40.359
272.10	40.275
272.47	39.778
272.84	42.889
273.21	41.514
273.58	40.440
273.95	40.570
274.32	41.629
274.69	42.888
275.06	41.309
275.43	40.848
275.80	40.122
276.17	40.795
276.54	41.141
276.91	41.564
277.28	41.785
277.65	40.289
278.02	41.336
278.39	41.454
278.76	41.235
279.13	42.292
279.50	39.165
279.87	41.226
280.23	42.510
280.60	42.147
280.97	41.359
281.34	40.039
281.71	39.808
282.08	42.944
282.45	42.159
282.82	39.147
283.19	39.818
283.56	42.857
283.92	40.106
284.29	40.520
284.66	37.770
285.03	38.503
285.40	42.435
285.77	40.175
286.14	40.614
286.51	37.123
286.87	40.472
287.24	43.174
287.61	36.694
287.98	37.435
288.35	37.355
288.72	37.351
289.08	35.763
289.45	36.700
289.82	38.754
290.19	40.230
290.56	33.719
290.93	35.612
291.29	35.656
291.66	38.325
292.03	38.305
292.40	35.693
292.77	34.783
293.13	37.561
293.50	35.067
293.87	35.123
294.24	34.389
294.60	33.030
294.97	35.205
295.34	32.889
295.71	32.589
296.08	31.029
296.44	31.187
296.81	33.903
297.18	33.944
297.55	32.910
297.91	34.170
298.28	30.411
298.65	29.428
299.02	33.155
299.38	30.080
299.75	31.386
300.12	29.872
300.48	30.691
300.85	31.062
301.22	32.600
301.59	31.079
301.95	31.108
302.32	27.901
302.69	28.029
303.05	29.792
303.42	29.250
303.79	29.904
304.15	29.976
304.52	28.938
304.89	28.453
305.25	28.938
305.62	29.377
305.99	31.095
306.35	28.080
306.72	28.815
307.09	29.512
307.45	29.171
307.82	28.492
308.19	27.629
308.55	29.739
308.92	27.497
309.29	27.243
309.65	27.784
310.02	27.538
310.38	26.811
310.75	27.766
311.12	29.959
311.48	27.871
311.85	28.012
312.22	28.012
312.58	27.365
312.95	26.809
313.31	27.473
313.68	27.839
314.05	28.091
314.41	26.459
314.78	25.375
315.14	26.456
315.51	27.356
315.87	27.590
316.24	27.502
316.61	28.215
316.97	27.264
317.34	26.493
317.70	26.252
318.07	26.679
318.43	25.187
318.80	26.479
319.16	26.173
319.53	26.410
319.89	26.529
320.26	27.745
320.62	24.615
320.99	25.473
321.35	23.645
321.72	25.998
322.08	26.706
322.45	25.743
322.81	26.225
323.18	26.609
323.54	26.710
323.91	24.930
324.27	25.000
324.64	25.503
325.00	26.265
325.37	25.520
325.73	26.159
326.10	24.801
326.46	25.219
326.83	25.787
327.19	25.688
327.56	26.661
327.92	26.253
328.29	26.234
328.65	25.364
329.01	26.148
329.38	25.245
329.74	25.916
330.11	25.839
330.47	24.160
330.84	25.573
331.20	25.812
331.56	25.342
331.93	24.512
332.29	26.484
332.66	25.285
333.02	24.706
333.38	26.434
333.75	25.824
334.11	24.889
334.48	24.095
334.84	26.334
335.20	24.291
335.57	25.632
335.93	26.141
336.29	24.624
336.66	23.877
337.02	25.405
337.38	23.708
337.75	24.934
338.11	25.224
338.47	24.822
338.84	24.773
339.20	24.429
339.56	25.490
339.93	24.868
340.29	23.295
340.65	24.738
341.02	23.693
341.38	23.757
341.74	24.217
342.11	23.549
342.47	23.777
342.83	23.846
343.20	23.570
343.56	23.429
343.92	25.543
344.28	24.643
344.65	23.267
345.01	23.697
345.37	23.920
345.73	23.322
346.10	21.832
346.46	23.396
346.82	22.614
347.19	23.665
347.55	23.756
347.91	24.094
348.27	23.389
348.63	24.313
349.00	22.912
349.36	21.624
349.72	25.159
350.08	23.737
350.45	21.986
350.81	23.169
351.17	23.312
351.53	21.241
351.89	23.363
352.26	23.256
352.62	24.117
352.98	22.547
353.34	23.341
353.70	22.625
354.07	22.266
354.43	23.478
354.79	23.296
355.15	22.923
355.51	23.594
355.87	22.530
356.24	22.002
356.60	23.207
356.96	22.479
357.32	22.644
357.68	21.992
358.04	21.940
358.40	23.202
358.77	21.638
359.13	22.112
359.49	22.751
359.85	22.485
360.21	22.222
360.57	23.870
360.93	22.593
361.29	23.019
361.66	21.570
362.02	21.450
362.38	21.790
362.74	22.711
363.10	22.095
363.46	22.578
363.82	22.449
364.18	22.648
364.54	23.374
364.90	22.572
365.26	21.826
365.62	22.880
365.98	23.257
366.35	22.746
366.71	21.564
367.07	22.089
367.43	22.992
367.79	21.787
368.15	22.333
368.51	22.308
368.87	23.214
369.23	22.807
369.59	22.569
369.95	21.917
370.31	22.222
370.67	21.475
371.03	22.741
371.39	21.429
371.75	22.961
372.11	22.597
372.47	21.330
372.83	23.018
373.19	22.643
373.55	23.505
373.91	22.617
374.27	22.108
374.63	22.084
374.99	22.184
375.35	21.198
375.71	22.215
376.07	22.450
376.42	20.927
376.78	21.830
377.14	22.780
377.50	22.115
377.86	21.847
378.22	21.294
378.58	21.804
378.94	21.702
379.30	21.938
379.66	22.829
380.02	21.272
380.38	22.417
380.74	21.395
381.09	21.851
381.45	22.912
381.81	21.234
382.17	21.679
382.53	21.459
382.89	21.830
383.25	22.456
383.61	22.052
383.97	22.474
384.32	23.279
384.68	22.612
385.04	21.437
385.40	21.424
385.76	21.829
386.12	22.111
386.48	22.896
386.83	21.472
387.19	22.534
387.55	22.229
387.91	21.695
388.27	21.592
388.62	22.055
388.98	21.744
389.34	22.338
389.70	21.620
390.06	21.131
390.42	22.949
390.77	22.145
391.13	21.988
391.49	22.333
391.85	22.195
392.20	22.512
392.56	20.403
392.92	22.419
393.28	22.445
393.64	22.489
393.99	22.646
394.35	22.324
394.71	23.162
395.07	21.720
395.42	21.573
395.78	21.433
396.14	23.240
396.50	22.018
396.85	22.209
397.21	22.296
397.57	22.249
397.92	21.546
398.28	22.056
398.64	22.130
399.00	23.258
399.35	22.492
399.71	22.880
400.07	21.791
400.42	22.871
400.78	21.884
401.14	22.275
401.49	21.403
401.85	21.721
402.21	21.812
402.57	21.966
402.92	22.278
403.28	21.936
403.63	21.031
403.99	23.058
404.35	20.773
404.70	22.177
405.06	22.261
405.42	21.402
405.77	21.437
406.13	21.579
406.49	22.229
406.84	22.016
407.20	22.968
407.55	22.609
407.91	21.308
408.27	21.569
408.62	22.730
408.98	21.589
409.34	21.207
409.69	21.361
410.05	21.589
410.40	22.747
410.76	22.762
411.11	21.945
411.47	21.995
411.83	22.372
412.18	21.782
412.54	22.575
412.89	22.296
413.25	21.074
413.60	21.810
413.96	21.010
414.31	22.018
414.67	21.333
415.03	21.410
415.38	21.731
415.74	22.809
416.09	21.995
416.45	20.701
416.80	21.977
417.16	21.661
417.51	22.127
417.87	21.100
418.22	22.314
418.58	22.529
418.93	21.950
419.29	21.393
419.64	21.985
420.00	22.236
420.35	21.526
420.71	21.609
421.06	22.012
421.42	21.253
421.77	21.217
422.12	22.440
422.48	21.379
422.83	21.754
423.19	20.880
423.54	21.960
423.90	21.862
424.25	21.154
424.61	22.557
424.96	22.996
425.31	21.744
425.67	21.547
426.02	21.572
426.38	23.109
426.73	22.618
427.09	21.752
427.44	22.614
427.79	21.395
428.15	21.724
428.50	22.111
428.85	21.523
429.21	21.085
429.56	21.927
429.92	21.794
430.27	21.685
430.62	21.996
430.98	20.962
431.33	21.451
431.68	21.609
432.04	22.272
432.39	21.823
432.74	21.523
433.10	21.384
433.45	21.128
433.80	21.109
434.16	21.816
434.51	22.356
434.86	22.554
435.22	22.494
435.57	21.726
435.92	21.747
436.28	21.840
436.63	21.820
436.98	21.019
437.34	22.741
437.69	21.937
438.04	22.008
438.39	22.022
438.75	21.711
439.10	21.932
439.45	21.304
439.81	21.627
440.16	21.408
440.51	22.412
440.86	21.689
441.22	20.951
441.57	20.947
441.92	21.330
442.27	21.537
442.63	21.727
442.98	20.993
443.33	21.527
443.68	22.095
444.03	21.513
444.39	22.075
444.74	21.971
445.09	21.491
445.44	22.510
445.79	22.285
446.15	21.906
446.50	21.666
446.85	22.473
447.20	21.859
447.55	22.210
447.91	22.403
448.26	21.844
448.61	22.015
448.96	22.745
449.31	21.928
449.66	22.210
450.02	21.717
450.37	22.029
450.72	22.486
451.07	22.187
451.42	21.004
451.77	22.980
452.12	21.692
452.47	21.096
452.83	21.142
453.18	22.264
453.53	22.388
453.88	22.428
454.23	20.919
454.58	22.001
454.93	21.662
455.28	22.116
455.63	22.236
455.98	21.988
456.34	21.410
456.69	22.577
457.04	22.372
457.39	22.548
457.74	21.737
458.09	23.086
458.44	22.517
458.79	21.637
459.14	22.590
459.49	21.137
459.84	22.597
460.19	21.957
460.54	21.053
460.89	21.469
461.24	22.344
461.59	22.216
461.94	21.069
462.29	21.680
462.64	22.661
462.99	21.888
463.34	22.350
463.69	22.455
464.04	21.383
464.39	21.326
464.74	21.868
465.09	21.227
465.44	22.222
465.79	22.561
466.14	23.072
466.49	21.992
466.84	22.269
467.19	21.696
467.54	21.013
467.89	22.873
468.24	21.734
468.59	21.424
468.94	21.865
469.29	21.832
469.64	22.574
469.99	22.282
470.34	21.977
470.68	22.093
471.03	22.987
471.38	21.667
471.73	22.238
472.08	21.754
472.43	21.879
472.78	21.400
473.13	20.345
473.48	22.208
473.83	21.526
474.17	21.656
474.52	23.657
474.87	21.795
475.22	22.006
475.57	20.500
475.92	21.598
476.27	22.229
476.61	21.239
476.96	21.688
477.31	22.067
477.66	22.081
478.01	22.690
478.36	21.792
478.70	21.997
479.05	22.607
479.40	22.383
479.75	22.426
480.10	21.627
480.45	21.180
480.79	22.409
481.14	22.127
481.49	21.781
481.84	21.452
482.19	21.882
482.53	21.970
482.88	21.785
483.23	21.549
483.58	22.063
483.92	22.599
484.27	21.622
484.62	21.512
484.97	22.136
485.31	21.280
485.66	21.458
486.01	21.452
486.36	22.496
486.70	22.699
487.05	22.184
487.40	22.329
487.75	22.319
488.09	22.020
488.44	22.869
488.79	23.346
489.13	22.670
489.48	22.757
489.83	21.965
490.17	21.942
490.52	22.871
490.87	21.339
491.22	21.579
491.56	21.759
491.91	21.565
492.26	21.557
492.60	21.313
492.95	21.609
493.30	21.725
493.64	21.533
493.99	22.658
494.34	22.381
494.68	22.519
495.03	22.323
495.37	21.239
495.72	21.955
496.07	22.337
496.41	22.371
496.76	22.192
497.11	22.845
497.45	21.648
497.80	21.811
498.14	22.004
498.49	22.501
498.84	21.796
499.18	21.735
499.53	22.260
499.87	21.863
500.22	22.157
500.56	22.561
500.91	22.118
501.26	22.562
501.60	21.136
501.95	22.319
502.29	21.682
502.64	22.489
502.98	22.185
503.33	22.039
503.67	21.648
504.02	22.163
504.36	22.745
504.71	22.188
505.06	21.767
505.40	23.253
505.75	22.917
506.09	22.952
506.44	21.855
506.78	21.776
507.13	21.370
507.47	22.587
507.82	22.148
508.16	22.435
508.51	21.175
508.85	22.464
509.19	22.135
509.54	22.146
509.88	22.926
510.23	22.746
510.57	22.487
510.92	22.825
511.26	22.275
511.61	22.138
511.95	21.713
512.30	21.935
512.64	21.925
512.98	23.267
513.33	22.460
513.67	23.060
514.02	22.092
514.36	22.881
514.70	22.071
515.05	22.927
515.39	22.664
515.74	22.862
516.08	22.767
516.42	22.266
516.77	22.761
517.11	22.654
517.46	22.727
517.80	23.406
518.14	22.343
518.49	22.415
518.83	22.077
519.17	22.854
519.52	22.036
519.86	23.059
520.20	22.005
520.55	22.892
520.89	21.728
521.23	23.016
521.58	23.448
521.92	23.116
522.26	22.921
522.61	22.243
522.95	22.017
523.29	23.636
523.64	22.236
523.98	22.724
524.32	22.690
524.66	22.174
525.01	22.736
525.35	22.423
525.69	22.381
526.04	23.042
526.38	22.597
526.72	22.031
527.06	23.242
527.41	22.508
527.75	22.442
528.09	22.502
528.43	22.557
528.78	22.362
529.12	22.791
529.46	22.294
529.80	22.337
530.15	23.181
530.49	22.962
530.83	23.772
531.17	22.290
531.51	22.706
531.86	22.910
532.20	22.132
532.54	22.259
532.88	22.003
533.22	22.660
533.57	22.193
533.91	22.534
534.25	23.256
534.59	22.923
534.93	22.838
535.27	22.656
535.62	23.593
535.96	22.107
536.30	21.401
536.64	22.908
536.98	22.811
537.32	23.151
537.66	23.354
538.01	22.543
538.35	22.905
538.69	23.061
539.03	24.103
539.37	22.954
539.71	22.482
540.05	23.029
540.39	23.615
540.73	22.529
541.07	23.839
541.42	22.282
541.76	22.193
542.10	23.700
542.44	22.518
542.78	23.541
543.12	22.878
543.46	22.055
543.80	21.873
544.14	21.894
544.48	23.556
544.82	22.598
545.16	23.273
545.50	22.140
545.84	23.157
546.18	23.509
546.52	22.902
546.86	23.647
547.20	23.840
547.54	22.176
547.88	23.358
548.22	21.822
548.56	23.246
548.90	22.844
549.24	23.266
549.58	23.147
549.92	22.261
550.26	24.061
550.60	23.400
550.94	23.431
551.28	23.552
551.62	23.486
551.96	23.661
552.30	23.136
552.64	23.223
552.98	23.546
553.32	23.665
553.66	23.288
554.00	21.891
554.34	22.455
554.68	22.880
555.02	23.010
555.36	22.646
555.69	22.994
556.03	23.789
556.37	23.471
556.71	23.193
557.05	23.799
557.39	23.608
557.73	24.289
558.07	23.587
558.41	22.737
558.75	22.662
559.08	22.490
559.42	23.507
559.76	22.929
560.10	23.043
560.44	23.483
560.78	22.756
561.12	22.912
561.45	23.082
561.79	23.345
562.13	23.843
562.47	22.689
562.81	22.560
563.15	22.183
563.48	23.842
563.82	23.665
564.16	23.597
564.50	23.118
564.84	23.545
565.17	23.143
565.51	22.947
565.85	23.597
566.19	23.584
566.52	23.353
566.86	23.198
567.20	24.395
567.54	24.513
567.88	24.456
568.21	23.714
568.55	23.277
568.89	23.658
569.23	23.045
569.56	23.329
569.90	23.918
570.24	24.540
570.57	23.445
570.91	23.631
571.25	24.351
571.59	24.102
571.92	23.839
572.26	23.996
572.60	24.294
572.93	23.351
573.27	23.750
573.61	23.659
573.95	24.109
574.28	23.615
574.62	24.403
574.96	24.078
575.29	24.009
575.63	24.370
575.97	23.355
576.30	24.061
576.64	24.073
576.98	24.384
577.31	24.482
577.65	24.379
577.98	24.310
578.32	23.911
578.66	24.011
578.99	24.051
579.33	24.290
579.67	23.941
580.00	24.231
580.34	24.486
580.67	24.369
581.01	24.109
581.35	24.216
581.68	24.198
582.02	24.803
582.35	24.004
582.69	24.733
583.02	23.939
583.36	24.404
583.70	24.322
584.03	24.353
584.37	24.926
584.70	24.346
585.04	24.025
585.37	23.962
585.71	24.311
586.04	24.063
586.38	24.512
586.72	24.549
587.05	24.752
587.39	24.447
587.72	24.874
588.06	24.264
588.39	24.694
588.73	24.593
589.06	24.872
589.40	25.524
589.73	24.540
590.07	24.581
590.40	24.760
590.73	24.470
591.07	24.590
591.40	25.347
591.74	24.283
592.07	24.189
592.41	24.586
592.74	25.019
593.08	24.923
593.41	24.309
593.75	23.937
594.08	24.587
594.41	25.213
594.75	24.462
595.08	24.023
595.42	24.711
595.75	24.660
596.09	24.680
596.42	25.082
596.75	24.148
597.09	25.156
597.42	24.662
597.75	24.136
598.09	25.034
598.42	24.348
598.76	24.003
599.09	24.546
599.42	24.491
599.76	24.613
600.09	25.076
600.42	25.560
600.76	24.783
601.09	24.535
601.42	23.823
601.76	25.273
602.09	24.703
602.42	24.239
602.76	23.806
603.09	25.484
603.42	24.335
603.76	24.930
604.09	24.750
604.42	24.688
604.76	23.637
605.09	24.864
605.42	24.867
605.75	24.450
606.09	24.782
606.42	24.340
606.75	25.247
607.09	25.011
607.42	25.176
607.75	24.945
608.08	25.034
608.42	25.213
608.75	24.299
609.08	25.085
609.41	23.966
609.75	23.940
610.08	25.098
610.41	25.687
610.74	25.097
611.07	24.341
611.41	24.054
611.74	25.501
612.07	25.832
612.40	23.827
612.73	24.987
613.07	24.051
613.40	25.068
613.73	24.905
614.06	23.833
614.39	24.408
614.72	24.302
615.06	24.565
615.39	24.145
615.72	24.606
616.05	24.572
616.38	25.247
616.71	23.904
617.05	25.452
617.38	24.211
617.71	23.464
618.04	24.410
618.37	24.843
618.70	25.359
619.03	24.780
619.36	25.018
619.69	24.623
620.03	23.829
620.36	23.488
620.69	25.772
621.02	24.505
621.35	24.032
621.68	23.197
622.01	24.595
622.34	24.068
622.67	23.672
623.00	23.948
623.33	23.209
623.66	22.895
623.99	24.060
624.32	23.140
624.65	23.841
624.99	23.450
625.32	24.401
625.65	24.242
625.98	24.257
626.31	25.041
626.64	23.347
626.97	24.743
627.30	23.660
627.63	24.007
627.96	23.934
628.29	24.908
628.62	24.833
628.95	25.295
629.28	23.496
629.61	23.062
629.94	23.629
630.26	23.658
630.59	24.724
630.92	23.824
631.25	24.093
631.58	24.656
631.91	22.766
632.24	25.889
632.57	23.444
632.90	23.448
633.23	23.715
633.56	23.509
633.89	23.939
