SpectraSuite Data File
++++++++++++++++++++++++++++++++++++
Date: Sat May 16 11:46:12 PDT 2015
User: schluterlab
Dark Spectrum Present: Yes
Reference Spectrum Present: Yes
Number of Sampled Component Spectra: 1
Spectrometers: USB2E3373
Integration Time (usec): 3000 (USB2E3373)
Spectra Averaged: 3 (USB2E3373)
Boxcar Smoothing: 0 (USB2E3373)
Correct for Electrical Dark: No (USB2E3373)
Strobe/Lamp Enabled: No (USB2E3373)
Correct for Detector Non-linearity: No (USB2E3373)
Correct for Stray Light: No (USB2E3373)
Number of Pixels in Processed Spectrum: 2048
>>>>>Begin Processed Spectral Data<<<<<
178.53	0.000
178.91	60.000
179.29	300.000
179.67	-1300.000
180.04	-146.154
180.42	1200.000
180.80	550.000
181.18	475.000
181.56	-162.500
181.94	1600.000
182.31	500.000
182.69	-84.615
183.07	-466.667
183.45	1400.000
183.83	500.000
184.20	-214.286
184.58	-100.000
184.96	-225.000
185.34	43.750
185.72	-475.000
186.09	266.667
186.47	-125.000
186.85	-237.500
187.23	-200.000
187.61	-325.000
187.98	-350.000
188.36	-62.500
188.74	-200.000
189.12	1700.000
189.49	157.143
189.87	-141.667
190.25	350.000
190.63	0.000
191.00	-144.444
191.38	300.000
191.76	6.667
192.14	300.000
192.51	-280.000
192.89	-166.667
193.27	0.000
193.65	-77.778
194.02	-257.143
194.40	733.333
194.78	-60.000
195.15	-700.000
195.53	-127.273
195.91	-350.000
196.29	340.000
196.66	-433.333
197.04	2500.000
197.42	-125.000
197.79	-13.333
198.17	-600.000
198.55	-100.000
198.92	-1300.000
199.30	175.000
199.68	-50.000
200.05	-66.667
200.43	-55.556
200.81	-1700.000
201.18	-116.667
201.56	42.857
201.94	-66.667
202.31	9.091
202.69	100.000
203.07	-60.000
203.44	566.667
203.82	-183.333
204.19	-300.000
204.57	-225.000
204.95	-600.000
205.32	-31.250
205.70	1300.000
206.08	-700.000
206.45	16.667
206.83	-1150.000
207.20	-100.000
207.58	-700.000
207.96	0.000
208.33	-25.000
208.71	-66.667
209.08	190.000
209.46	-285.714
209.84	450.000
210.21	0.000
210.59	25.000
210.96	1600.000
211.34	-250.000
211.71	66.667
212.09	400.000
212.46	900.000
212.84	-2600.000
213.22	500.000
213.59	83.333
213.97	44.444
214.34	120.000
214.72	-120.000
215.09	-266.667
215.47	-183.333
215.84	-90.000
216.22	-160.000
216.59	-6.667
216.97	-575.000
217.34	1050.000
217.72	-114.286
218.09	-316.667
218.47	-185.714
218.84	200.000
219.22	-85.714
219.59	0.000
219.97	185.714
220.34	250.000
220.72	262.500
221.09	-46.154
221.47	0.000
221.84	233.333
222.22	-750.000
222.59	-300.000
222.97	-150.000
223.34	-450.000
223.72	-333.333
224.09	-42.857
224.46	-300.000
224.84	-7.143
225.21	-171.429
225.59	27.273
225.96	37.500
226.34	-85.714
226.71	-122.222
227.08	-35.000
227.46	1200.000
227.83	-100.000
228.21	-225.000
228.58	150.000
228.95	-25.000
229.33	-900.000
229.70	-240.000
230.08	-600.000
230.45	-8.333
230.82	-50.000
231.20	-600.000
231.57	-500.000
231.95	500.000
232.32	0.000
232.69	-55.556
233.07	-142.857
233.44	-400.000
233.81	-13.333
234.19	-122.222
234.56	-56.250
234.93	31.250
235.31	-142.857
235.68	-42.857
236.05	5.882
236.43	-63.636
236.80	-22.581
237.17	33.333
237.55	-19.048
237.92	-36.364
238.29	2.857
238.67	-14.706
239.04	5.556
239.41	-25.806
239.79	-25.641
240.16	-16.667
240.53	3.636
240.91	2.564
241.28	0.000
241.65	12.308
242.02	1.639
242.40	3.279
242.77	-3.030
243.14	-10.169
243.51	-17.143
243.89	2.532
244.26	11.236
244.63	11.579
245.00	6.316
245.38	5.932
245.75	6.195
246.12	12.000
246.49	14.173
246.87	13.008
247.24	9.322
247.61	1.695
247.98	18.310
248.36	10.490
248.73	10.127
249.10	11.465
249.47	11.696
249.84	19.318
250.22	7.738
250.59	16.949
250.96	12.042
251.33	17.536
251.70	12.981
252.08	14.692
252.45	16.588
252.82	12.857
253.19	9.787
253.56	16.935
253.94	16.456
254.31	12.876
254.68	15.447
255.05	11.290
255.42	16.667
255.79	9.319
256.16	12.941
256.54	13.971
256.91	11.742
257.28	12.088
257.65	10.993
258.02	12.579
258.39	15.385
258.76	14.189
259.14	13.580
259.51	14.754
259.88	14.329
260.25	15.528
260.62	11.254
260.99	13.353
261.36	16.159
261.73	15.029
262.10	16.111
262.47	14.530
262.85	15.714
263.22	15.473
263.59	10.769
263.96	13.043
264.33	16.531
264.70	13.812
265.07	14.011
265.44	13.695
265.81	11.370
266.18	14.684
266.55	16.176
266.92	14.610
267.29	14.770
267.66	12.593
268.03	17.633
268.40	13.380
268.77	15.663
269.14	12.993
269.51	14.253
269.88	12.156
270.25	13.054
270.62	14.645
270.99	13.964
271.36	15.152
271.73	15.695
272.10	13.730
272.47	14.222
272.84	15.778
273.21	11.468
273.58	13.407
273.95	14.474
274.32	16.290
274.69	16.849
275.06	15.951
275.43	10.714
275.80	18.330
276.17	15.481
276.54	16.904
276.91	14.815
277.28	13.996
277.65	14.669
278.02	15.031
278.39	17.485
278.76	15.538
279.13	15.415
279.50	14.115
279.87	13.742
280.23	15.182
280.60	14.911
280.97	13.010
281.34	13.540
281.71	17.115
282.08	14.315
282.45	12.016
282.82	16.860
283.19	14.182
283.56	16.300
283.92	12.721
284.29	12.825
284.66	14.029
285.03	14.082
285.40	15.683
285.77	15.614
286.14	12.274
286.51	13.499
286.87	13.975
287.24	17.577
287.61	15.537
287.98	14.731
288.35	13.223
288.72	12.564
289.08	11.525
289.45	13.636
289.82	11.765
290.19	13.793
290.56	11.074
290.93	11.924
291.29	11.831
291.66	13.527
292.03	14.757
292.40	12.349
292.77	10.093
293.13	12.520
293.50	12.036
293.87	11.963
294.24	13.575
294.60	11.970
294.97	13.657
295.34	11.704
295.71	11.905
296.08	10.138
296.44	11.874
296.81	11.681
297.18	13.099
297.55	12.571
297.91	11.715
298.28	10.274
298.65	10.879
299.02	13.636
299.38	11.765
299.75	11.141
300.12	11.923
300.48	13.683
300.85	12.189
301.22	11.255
301.59	10.923
301.95	12.469
302.32	10.821
302.69	12.362
303.05	10.256
303.42	11.250
303.79	11.364
304.15	12.559
304.52	12.602
304.89	11.098
305.25	11.600
305.62	10.811
305.99	12.485
306.35	12.764
306.72	11.617
307.09	12.713
307.45	11.805
307.82	12.291
308.19	12.752
308.55	12.745
308.92	12.137
309.29	12.000
309.65	13.043
310.02	11.663
310.38	12.216
310.75	13.832
311.12	13.120
311.48	13.257
311.85	13.285
312.22	12.667
312.58	13.123
312.95	13.761
313.31	14.985
313.68	15.176
314.05	16.123
314.41	14.386
314.78	14.885
315.14	16.584
315.51	17.325
315.87	17.619
316.24	16.327
316.61	18.426
316.97	18.209
317.34	18.208
317.70	16.512
318.07	19.403
318.43	20.037
318.80	21.878
319.16	20.075
319.53	21.992
319.89	22.295
320.26	21.275
320.62	22.308
320.99	24.577
321.35	22.266
321.72	24.360
322.08	26.311
322.45	26.337
322.81	26.513
323.18	28.530
323.54	29.113
323.91	28.823
324.27	31.084
324.64	31.444
325.00	32.548
325.37	35.475
325.73	35.958
326.10	35.430
326.46	37.916
326.83	37.106
327.19	40.284
327.56	42.419
327.92	42.906
328.29	43.377
328.65	42.818
329.01	44.611
329.38	45.674
329.74	47.161
330.11	48.413
330.47	50.136
330.84	49.954
331.20	50.993
331.56	50.684
331.93	52.220
332.29	53.425
332.66	53.029
333.02	54.751
333.38	54.570
333.75	54.141
334.11	55.022
334.48	54.545
334.84	55.031
335.20	55.319
335.57	56.498
335.93	58.997
336.29	57.042
336.66	55.947
337.02	58.288
337.38	56.774
337.75	57.155
338.11	59.750
338.47	59.786
338.84	60.436
339.20	58.612
339.56	59.447
339.93	59.171
340.29	58.370
340.65	58.916
341.02	58.432
341.38	59.225
341.74	59.356
342.11	59.556
342.47	60.858
342.83	59.614
343.20	60.034
343.56	58.122
343.92	60.351
344.28	61.396
344.65	60.066
345.01	61.429
345.37	62.209
345.73	59.902
346.10	59.362
346.46	60.682
346.82	61.347
347.19	61.956
347.55	61.798
347.91	61.102
348.27	60.541
348.63	61.147
349.00	61.098
349.36	60.109
349.72	63.217
350.08	61.909
350.45	61.229
350.81	62.898
351.17	62.621
351.53	62.450
351.89	62.490
352.26	62.791
352.62	63.287
352.98	62.896
353.34	64.189
353.70	61.622
354.07	61.998
354.43	63.399
354.79	61.569
355.15	63.738
355.51	64.531
355.87	64.269
356.24	62.907
356.60	65.592
356.96	64.588
357.32	63.104
357.68	63.985
358.04	63.741
358.40	65.197
358.77	64.451
359.13	64.269
359.49	65.004
359.85	64.329
360.21	64.764
360.57	65.587
360.93	66.148
361.29	67.713
361.66	66.311
362.02	65.311
362.38	65.664
362.74	66.081
363.10	64.849
363.46	67.308
363.82	65.816
364.18	67.511
364.54	66.476
364.90	65.758
365.26	67.546
365.62	67.498
365.98	68.848
366.35	67.817
366.71	66.667
367.07	67.819
367.43	67.742
367.79	69.485
368.15	70.057
368.51	68.462
368.87	67.170
369.23	70.596
369.59	67.986
369.95	68.781
370.31	70.675
370.67	70.282
371.03	71.064
371.39	68.458
371.75	71.102
372.11	70.086
372.47	71.945
372.83	71.071
373.19	71.000
373.55	70.866
373.91	72.617
374.27	72.485
374.63	71.429
374.99	72.392
375.35	72.207
375.71	73.194
376.07	73.374
376.42	71.192
376.78	74.183
377.14	76.475
377.50	74.210
377.86	73.407
378.22	75.628
378.58	74.120
378.94	74.908
379.30	73.370
379.66	74.013
380.02	74.094
380.38	75.227
380.74	74.560
381.09	74.458
381.45	75.597
381.81	75.923
382.17	76.128
382.53	75.562
382.89	76.316
383.25	76.400
383.61	76.238
383.97	78.261
384.32	78.348
384.68	77.025
385.04	76.329
385.40	75.350
385.76	79.268
386.12	77.826
386.48	78.403
386.83	77.975
387.19	77.406
387.55	77.529
387.91	77.119
388.27	78.347
388.62	77.103
388.98	78.316
389.34	78.274
389.70	78.502
390.06	78.869
390.42	81.090
390.77	80.126
391.13	79.876
391.49	78.478
391.85	79.426
392.20	79.672
392.56	79.536
392.92	79.293
393.28	79.851
393.64	80.457
393.99	80.369
394.35	80.049
394.71	79.679
395.07	81.293
395.42	79.797
395.78	79.447
396.14	80.935
396.50	79.878
396.85	81.061
397.21	80.194
397.57	80.243
397.92	80.855
398.28	80.167
398.64	79.477
399.00	81.348
399.35	80.552
399.71	81.649
400.07	80.955
400.42	79.927
400.78	81.336
401.14	81.078
401.49	81.840
401.85	83.466
402.21	82.539
402.57	80.643
402.92	83.575
403.28	81.189
403.63	79.988
403.99	81.231
404.35	81.401
404.70	80.105
405.06	80.277
405.42	81.796
405.77	80.373
406.13	81.772
406.49	82.684
406.84	82.543
407.20	81.684
407.55	82.901
407.91	81.865
408.27	81.005
408.62	81.840
408.98	82.656
409.34	81.901
409.69	81.979
410.05	81.565
410.40	81.668
410.76	83.047
411.11	82.544
411.47	83.376
411.83	81.846
412.18	82.240
412.54	80.781
412.89	82.442
413.25	81.405
413.60	82.199
413.96	81.577
414.31	83.242
414.67	83.937
415.03	81.824
415.38	84.385
415.74	84.665
416.09	82.673
416.45	82.738
416.80	83.615
417.16	83.920
417.51	85.620
417.87	85.178
418.22	84.766
418.58	84.146
418.93	84.304
419.29	84.693
419.64	85.050
420.00	85.358
420.35	85.275
420.71	87.815
421.06	85.799
421.42	85.597
421.77	86.767
422.12	87.633
422.48	87.280
422.83	84.624
423.19	86.024
423.54	86.110
423.90	86.813
424.25	86.821
424.61	88.601
424.96	89.409
425.31	88.597
425.67	89.112
426.02	89.616
426.38	89.776
426.73	89.831
427.09	90.993
427.44	89.432
427.79	90.058
428.15	91.023
428.50	90.616
428.85	92.326
429.21	89.651
429.56	91.771
429.92	89.930
430.27	91.176
430.62	91.797
430.98	91.532
431.33	93.063
431.68	93.619
432.04	93.844
432.39	93.903
432.74	92.446
433.10	93.922
433.45	94.070
433.80	94.401
434.16	95.379
434.51	96.164
434.86	95.372
435.22	95.713
435.57	96.328
435.92	95.955
436.28	98.042
436.63	97.004
436.98	96.048
437.34	95.806
437.69	97.550
438.04	97.845
438.39	98.676
438.75	98.603
439.10	97.002
439.45	98.129
439.81	97.590
440.16	98.240
440.51	99.882
440.86	99.075
441.22	98.397
441.57	99.526
441.92	99.437
442.27	98.972
442.63	98.391
442.98	98.871
443.33	99.780
443.68	101.615
444.03	101.031
444.39	99.462
444.74	100.716
445.09	101.974
445.44	101.913
445.79	103.825
446.15	101.479
446.50	101.306
446.85	99.692
447.20	101.839
447.55	103.536
447.91	103.987
448.26	102.849
448.61	101.811
448.96	104.258
449.31	103.382
449.66	103.377
450.02	103.601
450.37	103.072
450.72	104.294
451.07	105.720
451.42	102.912
451.77	105.506
452.12	104.768
452.47	103.967
452.83	104.193
453.18	107.084
453.53	104.913
453.88	107.117
454.23	105.623
454.58	107.644
454.93	104.975
455.28	108.158
455.63	106.818
455.98	108.614
456.34	106.607
456.69	106.567
457.04	106.023
457.39	106.041
457.74	107.797
458.09	106.497
458.44	105.139
458.79	106.222
459.14	107.644
459.49	107.815
459.84	107.420
460.19	106.026
460.54	107.320
460.89	108.913
461.24	105.768
461.59	105.686
461.94	109.102
462.29	107.445
462.64	110.540
462.99	109.705
463.34	107.900
463.69	109.987
464.04	106.854
464.39	109.319
464.74	107.861
465.09	106.795
465.44	108.122
465.79	107.671
466.14	109.379
466.49	109.211
466.84	108.463
467.19	110.037
467.54	107.848
467.89	110.296
468.24	107.185
468.59	108.057
468.94	111.061
469.29	110.331
469.64	107.682
469.99	109.791
470.34	111.623
470.68	112.209
471.03	109.360
471.38	112.153
471.73	113.846
472.08	112.316
472.43	111.519
472.78	111.067
473.13	113.055
473.48	112.955
473.83	111.849
474.17	113.822
474.52	113.683
474.87	109.848
475.22	111.681
475.57	111.500
475.92	110.583
476.27	109.086
476.61	110.986
476.96	110.900
477.31	112.917
477.66	112.120
478.01	112.372
478.36	108.905
478.70	114.362
479.05	112.547
479.40	112.073
479.75	111.315
480.10	111.012
480.45	109.091
480.79	112.438
481.14	113.347
481.49	112.488
481.84	110.125
482.19	109.913
482.53	114.583
482.88	113.004
483.23	111.596
483.58	112.720
483.92	112.996
484.27	110.323
484.62	111.274
484.97	109.392
485.31	107.488
485.66	103.737
486.01	104.798
486.36	105.867
486.70	109.059
487.05	108.538
487.40	107.906
487.75	106.962
488.09	106.671
488.44	107.409
488.79	107.110
489.13	109.091
489.48	110.726
489.83	112.052
490.17	110.535
490.52	112.817
490.87	113.949
491.22	113.825
491.56	112.870
491.91	113.454
492.26	112.123
492.60	113.463
492.95	112.423
493.30	113.197
493.64	112.835
493.99	115.010
494.34	113.905
494.68	114.841
495.03	113.002
495.37	114.651
495.72	113.310
496.07	113.749
496.41	114.914
496.76	113.927
497.11	114.885
497.45	113.697
497.80	116.258
498.14	114.833
498.49	114.314
498.84	112.282
499.18	114.961
499.53	113.590
499.87	115.203
500.22	115.098
500.56	116.058
500.91	115.468
501.26	115.429
501.60	113.914
501.95	116.860
502.29	112.848
502.64	114.899
502.98	115.093
503.33	112.876
503.67	113.889
504.02	114.631
504.36	114.657
504.71	114.438
505.06	114.428
505.40	115.220
505.75	115.549
506.09	116.582
506.44	115.789
506.78	114.802
507.13	115.448
507.47	117.058
507.82	114.610
508.16	115.440
508.51	115.404
508.85	117.340
509.19	117.268
509.54	117.653
509.88	115.638
510.23	116.824
510.57	117.513
510.92	117.615
511.26	115.949
511.61	115.389
511.95	115.463
512.30	117.482
512.64	118.030
512.98	117.657
513.33	117.188
513.67	118.481
514.02	117.729
514.36	115.956
514.70	117.600
515.05	118.582
515.39	116.840
515.74	120.361
516.08	116.888
516.42	117.677
516.77	119.180
517.11	117.563
517.46	119.916
517.80	120.217
518.14	120.109
518.49	119.845
518.83	119.644
519.17	119.183
519.52	116.657
519.86	120.311
520.20	121.394
520.55	121.477
520.89	121.290
521.23	118.926
521.58	122.947
521.92	122.039
522.26	119.365
522.61	120.025
522.95	119.400
523.29	120.439
523.64	120.550
523.98	121.642
524.32	120.490
524.66	119.814
525.01	119.910
525.35	120.747
525.69	121.080
526.04	120.757
526.38	120.178
526.72	117.944
527.06	122.135
527.41	121.716
527.75	120.264
528.09	121.840
528.43	120.852
528.78	120.289
529.12	121.639
529.46	121.714
529.80	122.660
530.15	121.700
530.49	118.435
530.83	119.057
531.17	120.067
531.51	120.295
531.86	118.828
532.20	119.838
532.54	119.586
532.88	119.763
533.22	119.586
533.57	121.345
533.91	118.227
534.25	118.919
534.59	117.239
534.93	115.619
535.27	118.188
535.62	117.775
535.96	117.647
536.30	118.717
536.64	117.530
536.98	120.692
537.32	119.765
537.66	118.058
538.01	121.100
538.35	119.189
538.69	119.184
539.03	117.942
539.37	118.563
539.71	117.478
540.05	119.260
540.39	119.806
540.73	119.419
541.07	119.331
541.42	118.569
541.76	116.146
542.10	119.784
542.44	116.456
542.78	119.335
543.12	119.552
543.46	118.014
543.80	115.987
544.14	118.872
544.48	116.798
544.82	118.539
545.16	118.846
545.50	116.016
545.84	118.707
546.18	118.308
546.52	117.923
546.86	120.085
547.20	118.776
547.54	116.873
547.88	116.921
548.22	116.514
548.56	117.568
548.90	118.464
549.24	119.481
549.58	117.149
549.92	117.597
550.26	119.653
550.60	116.287
550.94	120.511
551.28	119.865
551.62	119.129
551.96	118.017
552.30	116.794
552.64	119.704
552.98	119.341
553.32	120.707
553.66	120.115
554.00	120.043
554.34	119.856
554.68	118.056
555.02	118.813
555.36	119.986
555.69	122.206
556.03	117.825
556.37	117.994
556.71	119.470
557.05	121.212
557.39	119.822
557.73	120.277
558.07	121.703
558.41	121.242
558.75	121.749
559.08	121.323
559.42	121.286
559.76	120.322
560.10	121.849
560.44	119.653
560.78	121.155
561.12	117.598
561.45	118.630
561.79	119.373
562.13	119.846
562.47	119.188
562.81	119.873
563.15	118.614
563.48	118.521
563.82	119.202
564.16	118.864
564.50	117.675
564.84	116.402
565.17	116.910
565.51	117.405
565.85	121.433
566.19	119.433
566.52	118.721
566.86	117.130
567.20	116.949
567.54	117.602
567.88	114.350
568.21	115.996
568.55	113.998
568.89	112.773
569.23	110.088
569.56	110.635
569.90	109.756
570.24	109.545
570.57	107.627
570.91	106.970
571.25	107.361
571.59	106.556
571.92	105.030
572.26	105.422
572.60	104.933
572.93	104.212
573.27	104.848
573.61	102.638
573.95	102.182
574.28	102.486
574.62	102.745
574.96	101.221
575.29	102.058
575.63	102.602
575.97	102.589
576.30	101.754
576.64	103.055
576.98	101.219
577.31	101.907
577.65	101.320
577.98	101.599
578.32	101.052
578.66	100.553
578.99	102.102
579.33	101.583
579.67	101.116
580.00	101.017
580.34	101.394
580.67	101.299
581.01	100.137
581.35	101.052
581.68	99.332
582.02	101.065
582.35	100.869
582.69	101.872
583.02	103.028
583.36	102.908
583.70	102.253
584.03	102.532
584.37	103.410
584.70	102.009
585.04	102.203
585.37	100.740
585.71	101.790
586.04	102.660
586.38	103.101
586.72	103.354
587.05	104.276
587.39	103.196
587.72	103.371
588.06	103.961
588.39	103.418
588.73	103.923
589.06	104.955
589.40	106.115
589.73	106.303
590.07	106.191
590.40	105.424
590.73	107.917
591.07	106.352
591.40	108.709
591.74	106.082
592.07	108.559
592.41	108.195
592.74	107.610
593.08	105.561
593.41	106.414
593.75	106.396
594.08	109.166
594.41	108.392
594.75	107.097
595.08	110.263
595.42	107.045
595.75	106.652
596.09	107.451
596.42	109.165
596.75	108.969
597.09	109.394
597.42	108.206
597.75	109.433
598.09	108.631
598.42	108.131
598.76	106.935
599.09	107.380
599.42	107.459
599.76	107.097
600.09	108.321
600.42	106.532
600.76	108.286
601.09	107.102
601.42	107.875
601.76	106.581
602.09	108.875
602.42	107.366
602.76	107.478
603.09	107.339
603.42	109.508
603.76	109.374
604.09	107.609
604.42	108.326
604.76	108.373
605.09	108.228
605.42	108.865
605.75	108.840
606.09	108.095
606.42	107.834
606.75	108.373
607.09	109.131
607.42	108.935
607.75	109.183
608.08	109.489
608.42	110.501
608.75	108.692
609.08	109.450
609.41	111.460
609.75	109.361
610.08	111.765
610.41	110.940
610.74	110.251
611.07	110.953
611.41	109.985
611.74	110.386
612.07	113.319
612.40	111.834
612.73	109.855
613.07	111.282
613.40	113.246
613.73	112.643
614.06	111.203
614.39	114.994
614.72	111.453
615.06	110.652
615.39	110.364
615.72	112.873
616.05	111.264
616.38	113.871
616.71	112.312
617.05	112.364
617.38	113.622
617.71	114.312
618.04	115.839
618.37	114.214
618.70	116.493
619.03	115.437
619.36	116.209
619.69	116.798
620.03	113.981
620.36	115.963
620.69	117.014
621.02	119.330
