SpectraSuite Data File
++++++++++++++++++++++++++++++++++++
Date: Sat May 16 11:16:27 PDT 2015
User: schluterlab
Dark Spectrum Present: Yes
Reference Spectrum Present: Yes
Number of Sampled Component Spectra: 1
Spectrometers: USB2E3373
Integration Time (usec): 3000 (USB2E3373)
Spectra Averaged: 3 (USB2E3373)
Boxcar Smoothing: 0 (USB2E3373)
Correct for Electrical Dark: No (USB2E3373)
Strobe/Lamp Enabled: No (USB2E3373)
Correct for Detector Non-linearity: No (USB2E3373)
Correct for Stray Light: No (USB2E3373)
Number of Pixels in Processed Spectrum: 2048
>>>>>Begin Processed Spectral Data<<<<<
178.53	0.000
178.91	46.667
179.29	200.000
179.67	-100.000
180.04	-61.538
180.42	400.000
180.80	175.000
181.18	225.000
181.56	-37.500
181.94	700.000
182.31	75.000
182.69	30.769
183.07	-600.000
183.45	1100.000
183.83	533.333
184.20	-14.286
184.58	-87.500
184.96	-350.000
185.34	143.750
185.72	-425.000
186.09	83.333
186.47	-100.000
186.85	-25.000
187.23	-125.000
187.61	-175.000
187.98	-212.500
188.36	-162.500
188.74	-150.000
189.12	600.000
189.49	328.571
189.87	-58.333
190.25	-0.000
190.63	-35.714
191.00	-77.778
191.38	140.000
191.76	20.000
192.14	420.000
192.51	-140.000
192.89	-66.667
193.27	0.000
193.65	-77.778
194.02	-357.143
194.40	266.667
194.78	-10.000
195.15	-600.000
195.53	-36.364
195.91	-333.333
196.29	320.000
196.66	-200.000
197.04	900.000
197.42	150.000
197.79	-13.333
198.17	166.667
198.55	-1050.000
198.92	-1100.000
199.30	100.000
199.68	-200.000
200.05	22.222
200.43	-166.667
200.81	-1800.000
201.18	-66.667
201.56	157.143
201.94	-40.000
202.31	-22.727
202.69	-10.000
203.07	-50.000
203.44	400.000
203.82	-216.667
204.19	-200.000
204.57	50.000
204.95	700.000
205.32	50.000
205.70	-100.000
206.08	-2700.000
206.45	33.333
206.83	-750.000
207.20	150.000
207.58	-566.667
207.96	-100.000
208.33	112.500
208.71	-122.222
209.08	120.000
209.46	85.714
209.84	750.000
210.21	0.000
210.59	80.000
210.96	900.000
211.34	-133.333
211.71	-100.000
212.09	400.000
212.46	600.000
212.84	-1700.000
213.22	233.333
213.59	125.000
213.97	44.444
214.34	130.000
214.72	-40.000
215.09	-233.333
215.47	-133.333
215.84	0.000
216.22	-60.000
216.59	13.333
216.97	-500.000
217.34	550.000
217.72	-200.000
218.09	-83.333
218.47	-185.714
218.84	285.714
219.22	-57.143
219.59	0.000
219.97	214.286
220.34	250.000
220.72	137.500
221.09	30.769
221.47	0.000
221.84	-100.000
222.22	-500.000
222.59	800.000
222.97	-112.500
223.34	-1100.000
223.72	-433.333
224.09	-50.000
224.46	-125.000
224.84	21.429
225.21	-214.286
225.59	-72.727
225.96	-87.500
226.34	-42.857
226.71	-44.444
227.08	60.000
227.46	1300.000
227.83	-128.571
228.21	-187.500
228.58	750.000
228.95	-25.000
229.33	-1700.000
229.70	-80.000
230.08	-800.000
230.45	-16.667
230.82	-166.667
231.20	-900.000
231.57	-250.000
231.95	1300.000
232.32	38.095
232.69	-66.667
233.07	-157.143
233.44	-400.000
233.81	-60.000
234.19	-77.778
234.56	-25.000
234.93	9.375
235.31	-214.286
235.68	-78.571
236.05	-64.706
236.43	-72.727
236.80	-38.710
237.17	-8.333
237.55	-57.143
237.92	-63.636
238.29	-17.143
238.67	2.941
239.04	-11.111
239.41	-48.387
239.79	-35.897
240.16	-14.286
240.53	-7.273
240.91	5.128
241.28	-1.818
241.65	10.769
242.02	-13.115
242.40	-4.918
242.77	-12.121
243.14	-35.593
243.51	-20.000
243.89	-3.797
244.26	-8.989
244.63	-2.105
245.00	-8.421
245.38	5.085
245.75	-2.655
246.12	-3.200
246.49	-7.874
246.87	-8.130
247.24	-16.949
247.61	-7.627
247.98	-3.521
248.36	-8.392
248.73	1.266
249.10	-2.548
249.47	-4.094
249.84	5.114
250.22	-8.929
250.59	-5.085
250.96	-0.524
251.33	3.791
251.70	-4.808
252.08	-2.370
252.45	-0.948
252.82	-4.762
253.19	1.277
253.56	-1.210
253.94	-3.797
254.31	-3.433
254.68	-4.878
255.05	-3.226
255.42	2.778
255.79	-1.075
256.16	0.392
256.54	0.735
256.91	-1.515
257.28	-4.762
257.65	-4.255
258.02	5.660
258.39	-2.007
258.76	-4.392
259.14	1.235
259.51	-0.328
259.88	0.305
260.25	1.553
260.62	-1.286
260.99	0.000
261.36	1.524
261.73	-0.289
262.10	1.111
262.47	-0.285
262.85	1.429
263.22	-4.585
263.59	-0.615
263.96	-2.029
264.33	1.897
264.70	0.276
265.07	-2.747
265.44	-0.258
265.81	0.517
266.18	-2.785
266.55	1.716
266.92	-1.008
267.29	1.453
267.66	0.988
268.03	0.242
268.40	1.408
268.77	0.482
269.14	-2.088
269.51	1.379
269.88	-2.294
270.25	0.932
270.62	0.229
270.99	-0.901
271.36	0.932
271.73	0.673
272.10	0.915
272.47	-1.778
272.84	2.444
273.21	0.000
273.58	0.440
273.95	0.000
274.32	-0.452
274.69	2.407
275.06	0.613
275.43	-1.116
275.80	2.648
276.17	0.209
276.54	1.629
276.91	1.646
277.28	-0.811
277.65	0.413
278.02	2.714
278.39	0.982
278.76	1.195
279.13	1.186
279.50	-0.199
279.87	0.423
280.23	2.024
280.60	-0.596
280.97	-1.553
281.34	-1.354
281.71	1.154
282.08	-1.008
282.45	-1.629
282.82	0.388
283.19	1.091
283.56	2.381
283.92	-0.707
284.29	-1.487
284.66	0.360
285.03	3.030
285.40	0.738
285.77	1.404
286.14	-1.083
286.51	0.355
286.87	-0.726
287.24	0.341
287.61	0.992
287.98	1.733
288.35	-1.157
288.72	-1.698
289.08	-0.508
289.45	-0.168
289.82	-1.384
290.19	3.120
290.56	-0.992
290.93	-1.272
291.29	-1.621
291.66	-0.966
292.03	1.256
292.40	-0.452
292.77	-0.776
293.13	0.976
293.50	1.040
293.87	0.153
294.24	2.564
294.60	-2.121
294.97	1.366
295.34	-1.630
295.71	-0.298
296.08	-1.536
296.44	0.286
296.81	0.000
297.18	0.141
297.55	1.130
297.91	1.674
298.28	-0.822
298.65	0.000
299.02	2.005
299.38	0.535
299.75	-0.272
300.12	0.256
300.48	2.046
300.85	-0.524
301.22	1.294
301.59	-0.910
301.95	2.015
302.32	-0.522
302.69	2.326
303.05	0.000
303.42	-0.750
303.79	0.239
304.15	1.422
304.52	0.933
304.89	1.535
305.25	-0.611
305.62	-0.118
305.99	2.473
306.35	0.666
306.72	1.139
307.09	1.476
307.45	1.362
307.82	0.670
308.19	1.454
308.55	1.634
308.92	0.644
309.29	1.946
309.65	0.530
310.02	1.620
310.38	0.324
310.75	1.537
311.12	1.963
311.48	2.401
311.85	1.648
312.22	2.369
312.58	2.645
312.95	2.141
313.31	1.998
313.68	3.819
314.05	3.561
314.41	1.408
314.78	1.898
315.14	3.455
315.51	2.634
315.87	4.356
316.24	2.818
316.61	4.702
316.97	3.284
317.34	3.179
317.70	3.340
318.07	5.970
318.43	4.588
318.80	5.540
319.16	3.752
319.53	5.451
319.89	4.516
320.26	4.314
320.62	4.808
320.99	4.776
321.35	3.842
321.72	5.937
322.08	7.221
322.45	5.149
322.81	6.724
323.18	5.572
323.54	7.301
323.91	6.580
324.27	7.034
324.64	6.764
325.00	8.464
325.37	7.783
325.73	9.361
326.10	7.263
326.46	8.144
326.83	7.489
327.19	8.924
327.56	10.307
327.92	9.516
328.29	10.476
328.65	8.182
329.01	10.071
329.38	9.634
329.74	11.172
330.11	10.335
330.47	10.082
330.84	11.182
331.20	11.011
331.56	10.301
331.93	11.012
332.29	12.237
332.66	11.150
333.02	11.765
333.38	11.559
333.75	11.932
334.11	10.844
334.48	10.680
334.84	12.511
335.20	12.589
335.57	11.823
335.93	12.802
336.29	11.249
336.66	10.925
337.02	12.793
337.38	11.408
337.75	12.204
338.11	12.343
338.47	11.744
338.84	13.521
339.20	13.005
339.56	13.012
339.93	12.522
340.29	12.046
340.65	12.413
341.02	12.648
341.38	13.564
341.74	12.616
342.11	12.457
342.47	12.446
342.83	11.671
343.20	12.212
343.56	11.020
343.92	12.604
344.28	13.204
344.65	11.881
345.01	11.176
345.37	11.877
345.73	11.784
346.10	11.774
346.46	12.916
346.82	11.949
347.19	11.832
347.55	11.878
347.91	12.047
348.27	12.331
348.63	13.489
349.00	13.286
349.36	11.475
349.72	12.898
350.08	12.189
350.45	11.820
350.81	12.182
351.17	11.977
351.53	12.092
351.89	12.045
352.26	13.411
352.62	12.903
352.98	13.133
353.34	11.351
353.70	12.124
354.07	12.667
354.43	12.727
354.79	11.807
355.15	11.661
355.51	11.875
355.87	11.621
356.24	10.802
356.60	13.699
356.96	11.701
357.32	12.906
357.68	11.877
358.04	13.010
358.40	12.297
358.77	11.437
359.13	12.242
359.49	12.245
359.85	11.966
360.21	13.014
360.57	13.554
360.93	13.333
361.29	12.556
361.66	12.119
362.02	12.204
362.38	12.839
362.74	12.527
363.10	12.626
363.46	13.960
363.82	13.265
364.18	12.880
364.54	13.581
364.90	12.579
365.26	12.411
365.62	12.972
365.98	13.300
366.35	13.099
366.71	11.487
367.07	13.267
367.43	13.658
367.79	12.852
368.15	11.664
368.51	13.427
368.87	14.423
369.23	13.825
369.59	13.264
369.95	12.896
370.31	13.150
370.67	12.654
371.03	13.848
371.39	13.579
371.75	14.306
372.11	13.989
372.47	13.449
372.83	14.117
373.19	13.571
373.55	14.286
373.91	13.869
374.27	13.963
374.63	13.665
374.99	13.908
375.35	14.065
375.71	15.327
376.07	14.305
376.42	13.510
376.78	14.771
377.14	14.169
377.50	14.829
377.86	13.914
378.22	15.138
378.58	14.021
378.94	14.612
379.30	14.991
379.66	15.118
380.02	14.854
380.38	15.287
380.74	15.358
381.09	15.231
381.45	15.990
381.81	15.003
382.17	14.912
382.53	14.650
382.89	15.431
383.25	15.894
383.61	15.212
383.97	16.105
384.32	15.582
384.68	15.599
385.04	14.855
385.40	15.520
385.76	15.671
386.12	15.865
386.48	15.780
386.83	15.828
387.19	16.019
387.55	16.111
387.91	15.945
388.27	15.199
388.62	16.106
388.98	16.111
389.34	16.095
389.70	16.443
390.06	15.724
390.42	17.500
390.77	15.710
391.13	17.205
391.49	17.093
391.85	16.397
392.20	15.959
392.56	15.822
392.92	16.315
393.28	17.107
393.64	16.236
393.99	16.615
394.35	16.971
394.71	16.368
395.07	17.828
395.42	15.852
395.78	16.405
396.14	17.695
396.50	17.064
396.85	17.767
397.21	16.950
397.57	17.629
397.92	16.452
398.28	17.556
398.64	16.478
399.00	17.640
399.35	17.249
399.71	17.828
400.07	17.373
400.42	17.822
400.78	17.293
401.14	17.425
401.49	17.217
401.85	16.534
402.21	16.508
402.57	17.718
402.92	17.369
403.28	17.953
403.63	16.896
403.99	16.594
404.35	16.486
404.70	17.379
405.06	17.359
405.42	17.036
405.77	16.290
406.13	15.957
406.49	16.777
406.84	17.397
407.20	17.903
407.55	17.543
407.91	16.710
408.27	18.015
408.62	17.498
408.98	17.465
409.34	17.307
409.69	17.076
410.05	17.526
410.40	17.964
410.76	17.368
411.11	17.020
411.47	17.583
411.83	18.215
412.18	18.193
412.54	17.633
412.89	17.740
413.25	17.296
413.60	17.254
413.96	16.513
414.31	17.615
414.67	16.762
415.03	17.853
415.38	17.632
415.74	17.655
416.09	17.263
416.45	17.130
416.80	17.815
417.16	17.475
417.51	18.582
417.87	18.123
418.22	18.015
418.58	18.036
418.93	17.474
419.29	17.880
419.64	17.462
420.00	18.165
420.35	17.741
420.71	18.427
421.06	19.053
421.42	17.857
421.77	17.253
422.12	18.243
422.48	18.119
422.83	18.451
423.19	17.817
423.54	18.156
423.90	18.161
424.25	18.326
424.61	18.215
424.96	18.139
425.31	18.055
425.67	18.510
426.02	17.728
426.38	18.512
426.73	18.235
427.09	17.892
427.44	18.523
427.79	18.140
428.15	18.971
428.50	18.534
428.85	18.525
429.21	18.373
429.56	18.490
429.92	18.637
430.27	19.143
430.62	19.018
430.98	19.028
431.33	19.157
431.68	18.606
432.04	18.411
432.39	19.430
432.74	19.844
433.10	19.133
433.45	18.826
433.80	19.149
434.16	19.506
434.51	18.904
434.86	19.391
435.22	18.875
435.57	18.421
435.92	19.168
436.28	18.991
436.63	18.994
436.98	19.530
437.34	19.315
437.69	18.845
438.04	19.682
438.39	19.735
438.75	18.568
439.10	19.378
439.45	19.674
439.81	20.000
440.16	19.875
440.51	19.176
440.86	19.607
441.22	18.850
441.57	19.421
441.92	19.693
442.27	19.102
442.63	19.313
442.98	18.792
443.33	19.495
443.68	19.333
444.03	19.204
444.39	19.824
444.74	19.989
445.09	19.956
445.44	19.527
445.79	19.939
446.15	20.756
446.50	19.760
446.85	19.702
447.20	19.408
447.55	19.337
447.91	20.101
448.26	19.497
448.61	20.430
448.96	19.664
449.31	19.729
449.66	19.863
450.02	19.446
450.37	19.362
450.72	19.944
451.07	20.113
451.42	19.393
451.77	20.227
452.12	19.785
452.47	20.151
452.83	19.453
453.18	19.987
453.53	19.590
453.88	19.856
454.23	18.803
454.58	20.510
454.93	20.781
455.28	19.694
455.63	19.595
455.98	21.084
456.34	19.441
456.69	20.388
457.04	20.897
457.39	18.840
457.74	20.201
458.09	19.374
458.44	20.727
458.79	19.170
459.14	20.080
459.49	20.189
459.84	20.124
460.19	20.585
460.54	20.085
460.89	19.507
461.24	21.190
461.59	19.754
461.94	20.687
462.29	20.131
462.64	20.092
462.99	20.616
463.34	19.851
463.69	20.229
464.04	19.977
464.39	20.072
464.74	20.390
465.09	19.964
465.44	20.248
465.79	20.643
466.14	20.081
466.49	19.862
466.84	20.048
467.19	20.511
467.54	18.924
467.89	20.592
468.24	19.596
468.59	20.050
468.94	20.193
469.29	20.273
469.64	20.013
469.99	19.581
470.34	20.307
470.68	21.512
471.03	21.473
471.38	19.236
471.73	20.629
472.08	20.080
472.43	20.270
472.78	20.400
473.13	18.953
473.48	21.251
473.83	20.471
474.17	19.745
474.52	21.419
474.87	20.862
475.22	21.121
475.57	20.278
475.92	20.680
476.27	19.943
476.61	20.056
476.96	20.402
477.31	21.206
477.66	21.251
478.01	21.610
478.36	20.534
478.70	19.968
479.05	21.255
479.40	20.466
479.75	20.438
480.10	19.841
480.45	20.019
480.79	20.977
481.14	21.224
481.49	20.862
481.84	20.943
482.19	20.877
482.53	20.786
482.88	21.025
483.23	20.469
483.58	21.693
483.92	20.975
484.27	20.514
484.62	20.821
484.97	20.226
485.31	20.000
485.66	19.303
486.01	19.798
486.36	20.483
486.70	20.542
487.05	20.628
487.40	20.166
487.75	20.466
488.09	20.167
488.44	20.196
488.79	20.587
489.13	20.578
489.48	20.595
489.83	20.917
490.17	20.636
490.52	20.516
490.87	20.323
491.22	20.458
491.56	21.019
491.91	20.611
492.26	20.708
492.60	20.124
492.95	20.942
493.30	20.819
493.64	20.028
493.99	20.985
494.34	21.381
494.68	22.144
495.03	20.315
495.37	20.108
495.72	20.776
496.07	21.258
496.41	21.260
496.76	21.279
497.11	21.008
497.45	20.642
497.80	20.760
498.14	21.267
498.49	20.291
498.84	20.874
499.18	21.345
499.53	21.091
499.87	20.125
500.22	21.471
500.56	21.061
500.91	20.985
501.26	21.494
501.60	20.029
501.95	21.353
502.29	20.737
502.64	21.876
502.98	21.610
503.33	21.100
503.67	20.402
504.02	20.956
504.36	21.716
504.71	21.327
505.06	20.669
505.40	20.858
505.75	21.596
506.09	20.930
506.44	21.654
506.78	21.626
507.13	21.112
507.47	22.118
507.82	20.909
508.16	21.658
508.51	21.123
508.85	21.170
509.19	20.984
509.54	21.512
509.88	21.915
510.23	21.017
510.57	21.376
510.92	21.751
511.26	20.893
511.61	21.166
511.95	21.336
512.30	22.210
512.64	21.091
512.98	20.957
513.33	22.076
513.67	21.496
514.02	21.421
514.36	21.773
514.70	22.184
515.05	22.241
515.39	21.165
515.74	22.280
516.08	21.383
516.42	22.210
516.77	22.357
517.11	22.254
517.46	22.189
517.80	22.443
518.14	22.101
518.49	22.295
518.83	21.602
519.17	23.150
519.52	22.499
519.86	23.238
520.20	21.760
520.55	22.154
520.89	21.728
521.23	22.283
521.58	21.630
521.92	22.546
522.26	22.540
522.61	22.053
522.95	22.017
523.29	22.445
523.64	22.361
523.98	23.043
524.32	22.690
524.66	20.683
525.01	21.773
525.35	22.552
525.69	22.707
526.04	23.107
526.38	22.788
526.72	22.286
527.06	22.135
527.41	22.772
527.75	22.640
528.09	22.502
528.43	22.295
528.78	22.864
529.12	23.944
529.46	22.358
529.80	22.660
530.15	22.730
530.49	22.186
530.83	22.200
531.17	22.963
531.51	21.701
531.86	22.581
532.20	22.605
532.54	22.594
532.88	22.793
533.22	22.928
533.57	22.258
533.91	22.035
534.25	22.502
534.59	21.487
534.93	21.593
535.27	22.152
535.62	22.954
535.96	22.237
536.30	21.924
536.64	22.975
536.98	22.316
537.32	21.769
537.66	23.625
538.01	22.337
538.35	22.432
538.69	22.660
539.03	22.884
539.37	22.355
539.71	22.081
540.05	22.687
540.39	22.230
540.73	22.253
541.07	22.609
541.42	22.350
541.76	22.392
542.10	24.240
542.44	22.585
542.78	21.981
543.12	22.607
543.46	21.438
543.80	21.538
544.14	21.894
544.48	23.556
544.82	22.260
545.16	23.005
545.50	20.996
545.84	23.505
546.18	23.301
546.52	23.115
546.86	22.650
547.20	23.840
547.54	21.488
547.88	22.960
548.22	21.232
548.56	23.113
548.90	22.439
549.24	22.285
549.58	23.077
549.92	22.544
550.26	22.616
550.60	22.404
550.94	22.628
551.28	22.874
551.62	22.600
551.96	23.589
552.30	22.648
552.64	22.308
552.98	24.247
553.32	22.799
553.66	23.360
554.00	22.672
554.34	22.383
554.68	22.295
555.02	22.504
555.36	22.502
555.69	22.708
556.03	22.877
556.37	22.546
556.71	22.691
557.05	22.469
557.39	22.197
557.73	23.924
558.07	23.135
558.41	22.737
558.75	22.814
559.08	22.179
559.42	23.201
559.76	22.699
560.10	24.161
560.44	22.832
560.78	22.895
561.12	21.877
561.45	22.534
561.79	22.369
562.13	23.001
562.47	21.639
562.81	21.924
563.15	22.883
563.48	22.944
563.82	22.380
564.16	22.110
564.50	22.379
564.84	22.222
565.17	22.215
565.51	22.425
565.85	22.448
566.19	22.991
566.52	22.896
566.86	21.492
567.20	22.942
567.54	23.154
567.88	22.166
568.21	22.371
568.55	21.792
568.89	21.571
569.23	22.212
569.56	20.891
569.90	21.361
570.24	22.097
570.57	21.371
570.91	21.489
571.25	21.757
571.59	21.043
571.92	21.399
572.26	21.120
572.60	21.253
572.93	21.245
573.27	20.640
573.61	20.619
573.95	21.448
574.28	21.077
574.62	21.149
574.96	20.763
575.29	20.859
575.63	20.945
575.97	20.442
576.30	21.102
576.64	20.783
576.98	21.125
577.31	20.715
577.65	21.047
577.98	20.594
578.32	20.543
578.66	20.606
578.99	20.659
579.33	21.100
579.67	20.949
580.00	20.809
580.34	21.233
580.67	21.451
581.01	20.224
581.35	20.703
581.68	20.401
582.02	20.745
582.35	20.472
582.69	21.010
583.02	20.933
583.36	21.306
583.70	20.942
584.03	21.202
584.37	21.055
584.70	20.989
585.04	21.367
585.37	20.668
585.71	20.997
586.04	20.669
586.38	20.957
586.72	21.392
587.05	21.184
587.39	20.787
587.72	20.919
588.06	21.073
588.39	20.820
588.73	21.605
589.06	21.707
589.40	21.642
589.73	21.105
590.07	20.721
590.40	22.325
590.73	21.831
591.07	21.270
591.40	21.924
591.74	21.851
592.07	22.297
592.41	21.486
592.74	21.138
593.08	21.456
593.41	21.184
593.75	21.134
594.08	21.711
594.41	21.590
594.75	21.518
595.08	21.917
595.42	21.243
595.75	21.058
596.09	21.226
596.42	22.054
596.75	21.561
597.09	22.084
597.42	20.864
597.75	22.055
598.09	21.509
598.42	21.564
598.76	21.719
599.09	21.429
599.42	21.453
599.76	20.763
600.09	21.794
600.42	21.117
600.76	21.544
601.09	20.661
601.42	21.448
601.76	21.067
602.09	21.350
602.42	21.235
602.76	21.147
603.09	21.653
603.42	21.434
603.76	22.298
604.09	21.906
604.42	21.440
604.76	21.064
605.09	21.609
605.42	21.941
605.75	21.647
606.09	21.503
606.42	21.198
606.75	21.211
607.09	22.497
607.42	21.523
607.75	21.987
608.08	21.148
608.42	21.429
608.75	20.935
609.08	21.529
609.41	21.126
609.75	21.794
610.08	21.814
610.41	21.687
610.74	22.340
611.07	21.704
611.41	20.928
611.74	22.622
612.07	22.879
612.40	21.802
612.73	22.240
613.07	21.244
613.40	22.167
613.73	21.362
614.06	21.911
614.39	22.492
614.72	22.067
615.06	21.141
615.39	21.270
615.72	22.325
616.05	21.314
616.38	22.751
616.71	21.682
617.05	22.014
617.38	20.929
617.71	22.113
618.04	22.360
618.37	22.013
618.70	22.360
619.03	22.343
619.36	22.763
619.69	22.613
620.03	22.521
620.36	22.433
620.69	21.321
621.02	22.298
621.35	22.339
621.68	23.197
622.01	21.845
622.34	23.137
622.67	21.328
623.00	22.877
623.33	22.910
623.66	22.821
623.99	22.030
624.32	22.321
624.65	21.339
624.99	22.629
625.32	21.931
625.65	22.766
625.98	21.596
626.31	21.615
626.64	22.845
626.97	22.175
627.30	22.638
627.63	21.848
627.96	21.497
628.29	21.324
628.62	21.681
628.95	22.441
629.28	23.120
629.61	22.473
629.94	23.440
630.26	22.664
630.59	23.116
630.92	22.923
631.25	22.581
631.58	22.963
631.91	20.638
632.24	24.000
632.57	25.111
632.90	23.563
633.23	23.832
633.56	22.339
633.89	24.175
634.22	21.133
634.55	22.356
634.88	22.612
635.20	21.848
635.53	22.646
