SpectraSuite Data File
++++++++++++++++++++++++++++++++++++
Date: Sat May 16 11:42:34 PDT 2015
User: schluterlab
Dark Spectrum Present: Yes
Reference Spectrum Present: Yes
Number of Sampled Component Spectra: 1
Spectrometers: USB2E3373
Integration Time (usec): 3000 (USB2E3373)
Spectra Averaged: 3 (USB2E3373)
Boxcar Smoothing: 0 (USB2E3373)
Correct for Electrical Dark: No (USB2E3373)
Strobe/Lamp Enabled: No (USB2E3373)
Correct for Detector Non-linearity: No (USB2E3373)
Correct for Stray Light: No (USB2E3373)
Number of Pixels in Processed Spectrum: 2048
>>>>>Begin Processed Spectral Data<<<<<
178.53	0.000
178.91	106.667
179.29	333.333
179.67	-1600.000
180.04	-84.615
180.42	700.000
180.80	75.000
181.18	625.000
181.56	-12.500
181.94	900.000
182.31	400.000
182.69	-53.846
183.07	-566.667
183.45	1400.000
183.83	433.333
184.20	-185.714
184.58	-250.000
184.96	-50.000
185.34	81.250
185.72	-525.000
186.09	250.000
186.47	-150.000
186.85	-112.500
187.23	25.000
187.61	-125.000
187.98	-362.500
188.36	-12.500
188.74	-112.500
189.12	1200.000
189.49	357.143
189.87	-75.000
190.25	425.000
190.63	-85.714
191.00	-155.556
191.38	320.000
191.76	0.000
192.14	400.000
192.51	-220.000
192.89	-433.333
193.27	0.000
193.65	-122.222
194.02	-157.143
194.40	700.000
194.78	-60.000
195.15	-200.000
195.53	-100.000
195.91	-400.000
196.29	20.000
196.66	-700.000
197.04	2000.000
197.42	-175.000
197.79	13.333
198.17	-133.333
198.55	-450.000
198.92	-1800.000
199.30	200.000
199.68	-150.000
200.05	-111.111
200.43	-111.111
200.81	-800.000
201.18	-150.000
201.56	328.571
201.94	6.667
202.31	4.545
202.69	-30.000
203.07	-40.000
203.44	666.667
203.82	-333.333
204.19	-250.000
204.57	-50.000
204.95	-400.000
205.32	-75.000
205.70	700.000
206.08	-2500.000
206.45	-11.111
206.83	-950.000
207.20	-250.000
207.58	-766.667
207.96	-533.333
208.33	-150.000
208.71	-66.667
209.08	220.000
209.46	-314.286
209.84	1000.000
210.21	0.000
210.59	10.000
210.96	1600.000
211.34	-166.667
211.71	-133.333
212.09	450.000
212.46	800.000
212.84	-1700.000
213.22	233.333
213.59	141.667
213.97	-55.556
214.34	160.000
214.72	-80.000
215.09	-433.333
215.47	-16.667
215.84	70.000
216.22	-140.000
216.59	-33.333
216.97	-400.000
217.34	1150.000
217.72	-242.857
218.09	-433.333
218.47	-242.857
218.84	300.000
219.22	-57.143
219.59	0.000
219.97	328.571
220.34	500.000
220.72	200.000
221.09	-100.000
221.47	0.000
221.84	400.000
222.22	-300.000
222.59	800.000
222.97	-225.000
223.34	-800.000
223.72	-166.667
224.09	-64.286
224.46	-375.000
224.84	-21.429
225.21	-214.286
225.59	-45.455
225.96	-187.500
226.34	0.000
226.71	-222.222
227.08	-30.000
227.46	1600.000
227.83	-128.571
228.21	-187.500
228.58	750.000
228.95	-25.000
229.33	-900.000
229.70	-120.000
230.08	-500.000
230.45	-16.667
230.82	-116.667
231.20	-2000.000
231.57	-350.000
231.95	900.000
232.32	4.762
232.69	-77.778
233.07	-200.000
233.44	-1400.000
233.81	-46.667
234.19	-100.000
234.56	-56.250
234.93	15.625
235.31	-185.714
235.68	-100.000
236.05	-70.588
236.43	-22.727
236.80	-16.129
237.17	-8.333
237.55	-42.857
237.92	-104.545
238.29	-25.714
238.67	8.824
239.04	-19.444
239.41	-61.290
239.79	-46.154
240.16	-30.952
240.53	-29.091
240.91	10.256
241.28	-5.455
241.65	18.462
242.02	1.639
242.40	11.475
242.77	1.515
243.14	0.000
243.51	2.857
243.89	-13.924
244.26	-10.112
244.63	13.684
245.00	1.053
245.38	0.847
245.75	9.735
246.12	5.600
246.49	0.787
246.87	5.691
247.24	-5.085
247.61	-0.847
247.98	8.451
248.36	2.098
248.73	12.025
249.10	2.548
249.47	14.620
249.84	5.682
250.22	-0.595
250.59	9.605
250.96	7.853
251.33	11.374
251.70	6.250
252.08	6.635
252.45	2.370
252.82	7.143
253.19	10.638
253.56	8.065
253.94	10.549
254.31	6.438
254.68	7.724
255.05	8.065
255.42	9.921
255.79	8.961
256.16	12.941
256.54	11.765
256.91	9.848
257.28	10.256
257.65	5.319
258.02	15.094
258.39	10.702
258.76	8.784
259.14	9.568
259.51	11.475
259.88	8.537
260.25	12.422
260.62	8.360
260.99	7.715
261.36	11.890
261.73	12.428
262.10	11.111
262.47	8.832
262.85	16.857
263.22	11.461
263.59	7.385
263.96	12.754
264.33	10.569
264.70	12.431
265.07	12.912
265.44	10.594
265.81	8.010
266.18	9.620
266.55	13.725
266.92	14.610
267.29	12.591
267.66	8.889
268.03	12.077
268.40	9.859
268.77	13.735
269.14	12.529
269.51	11.724
269.88	8.716
270.25	8.159
270.62	12.357
270.99	10.360
271.36	10.490
271.73	9.641
272.10	13.043
272.47	10.444
272.84	14.000
273.21	13.761
273.58	12.308
273.95	10.088
274.32	11.991
274.69	14.880
275.06	12.474
275.43	8.705
275.80	12.424
276.17	12.762
276.54	10.998
276.91	12.140
277.28	11.765
277.65	9.298
278.02	12.317
278.39	11.198
278.76	8.367
279.13	10.870
279.50	11.531
279.87	12.685
280.23	10.324
280.60	12.326
280.97	8.932
281.34	10.058
281.71	14.808
282.08	12.298
282.45	8.758
282.82	11.047
283.19	10.000
283.56	12.821
283.92	10.601
284.29	10.595
284.66	10.791
285.03	13.369
285.40	11.439
285.77	12.632
286.14	10.650
286.51	11.723
286.87	12.341
287.24	11.263
287.61	10.909
287.98	11.958
288.35	11.405
288.72	11.715
289.08	10.000
289.45	11.616
289.82	10.554
290.19	11.823
290.56	10.413
290.93	10.334
291.29	10.535
291.66	9.340
292.03	10.832
292.40	10.994
292.77	13.043
293.13	8.130
293.50	10.401
293.87	11.503
294.24	10.106
294.60	7.576
294.97	10.167
295.34	8.148
295.71	9.821
296.08	9.985
296.44	9.299
296.81	7.835
297.18	8.169
297.55	9.887
297.91	9.066
298.28	9.315
298.65	10.181
299.02	11.497
299.38	10.027
299.75	8.967
300.12	9.359
300.48	10.358
300.85	8.126
301.22	8.926
301.59	8.583
301.95	9.320
302.32	7.432
302.69	9.180
303.05	8.059
303.42	9.750
303.79	8.852
304.15	9.597
304.52	10.502
304.89	9.445
305.25	8.669
305.62	8.461
305.99	10.130
306.35	9.101
306.72	8.998
307.09	10.556
307.45	8.286
307.82	9.721
308.19	9.060
308.55	10.022
308.92	7.734
309.29	8.649
309.65	8.908
310.02	9.719
310.38	8.432
310.75	8.402
311.12	9.814
311.48	9.603
311.85	10.402
312.22	9.784
312.58	10.376
312.95	9.990
313.31	10.789
313.68	10.653
314.05	11.375
314.41	9.859
314.78	9.990
315.14	9.773
315.51	9.828
315.87	10.842
316.24	11.662
316.61	12.668
316.97	12.438
317.34	10.790
317.70	11.781
318.07	11.754
318.43	12.266
318.80	13.052
319.16	11.632
319.53	12.218
319.89	13.452
320.26	13.333
320.62	13.942
320.99	13.433
321.35	13.005
321.72	13.101
322.08	14.441
322.45	14.059
322.81	14.986
323.18	15.178
323.54	16.451
323.91	15.663
324.27	16.825
324.64	17.276
325.00	18.499
325.37	18.281
325.73	20.122
326.10	18.335
326.46	20.228
326.83	20.766
327.19	22.018
327.56	22.913
327.92	22.770
328.29	24.156
328.65	22.636
329.01	24.382
329.38	25.156
329.74	26.282
330.11	26.020
330.47	25.431
330.84	28.414
331.20	26.354
331.56	27.074
331.93	27.798
332.29	29.498
332.66	27.392
333.02	27.783
333.38	29.211
333.75	29.742
334.11	29.333
334.48	28.861
334.84	29.134
335.20	30.585
335.57	30.144
335.93	30.886
336.29	29.495
336.66	28.899
337.02	31.532
337.38	30.125
337.75	30.553
338.11	30.680
338.47	31.228
338.84	31.488
339.20	30.228
339.56	30.927
339.93	30.247
340.29	30.912
340.65	30.245
341.02	31.282
341.38	30.244
341.74	31.922
342.11	30.119
342.47	31.674
342.83	31.150
343.20	31.170
343.56	28.735
343.92	31.553
344.28	32.548
344.65	30.941
345.01	31.345
345.37	31.645
345.73	31.260
346.10	30.008
346.46	30.057
346.82	30.393
347.19	31.306
347.55	30.578
347.91	29.921
348.27	30.310
348.63	30.210
349.00	31.742
349.36	29.586
349.72	31.210
350.08	31.516
350.45	31.127
350.81	31.290
351.17	31.592
351.53	30.231
351.89	31.447
352.26	31.550
352.62	31.260
352.98	30.142
353.34	30.855
353.70	30.425
354.07	31.157
354.43	32.806
354.79	31.379
355.15	32.348
355.51	31.641
355.87	31.383
356.24	30.500
356.60	32.393
356.96	31.948
357.32	33.333
357.68	31.341
358.04	32.025
358.40	32.869
358.77	31.607
359.13	32.135
359.49	33.031
359.85	32.393
360.21	32.496
360.57	33.660
360.93	32.519
361.29	33.483
361.66	32.622
362.02	32.175
362.38	32.649
362.74	33.480
363.10	32.138
363.46	33.761
363.82	32.434
364.18	33.357
364.54	33.524
364.90	32.914
365.26	33.024
365.62	34.640
365.98	33.570
366.35	32.606
366.71	32.347
367.07	34.439
367.43	33.013
367.79	33.814
368.15	33.357
368.51	33.986
368.87	35.302
369.23	34.807
369.59	34.167
369.95	34.179
370.31	35.443
370.67	34.056
371.03	34.329
371.39	35.290
371.75	34.907
372.11	35.725
372.47	36.226
372.83	36.648
373.19	36.000
373.55	36.735
373.91	35.989
374.27	36.687
374.63	35.956
374.99	37.274
375.35	35.599
375.71	36.327
376.07	36.824
376.42	35.695
376.78	37.647
377.14	37.763
377.50	37.847
377.86	37.451
378.22	38.254
378.58	38.728
378.94	38.533
379.30	37.599
379.66	37.705
380.02	38.324
380.38	37.946
380.74	37.163
381.09	38.137
381.45	40.513
381.81	38.899
382.17	39.536
382.53	39.210
382.89	39.175
383.25	39.916
383.61	38.915
383.97	40.784
384.32	39.987
384.68	41.354
385.04	39.493
385.40	39.440
385.76	41.159
386.12	40.600
386.48	40.718
386.83	40.613
387.19	40.347
387.55	41.248
387.91	40.664
388.27	40.350
388.62	40.565
388.98	39.915
389.34	41.310
389.70	41.108
390.06	40.895
390.42	41.538
390.77	42.397
391.13	42.981
391.49	42.109
391.85	41.708
392.20	42.233
392.56	40.929
392.92	41.985
393.28	42.767
393.64	42.032
393.99	42.154
394.35	41.727
394.71	42.001
395.07	42.812
395.42	41.418
395.78	42.552
396.14	41.994
396.50	42.630
396.85	42.628
397.21	41.616
397.57	42.128
397.92	42.740
398.28	43.444
398.64	43.664
399.00	43.427
399.35	41.770
399.71	43.148
400.07	42.985
400.42	42.640
400.78	41.920
401.14	42.575
401.49	43.042
401.85	43.685
402.21	43.266
402.57	42.718
402.92	42.983
403.28	42.831
403.63	42.540
403.99	42.822
404.35	42.089
404.70	42.130
405.06	42.561
405.42	42.435
405.77	41.459
406.13	42.817
406.49	44.098
406.84	41.512
407.20	44.052
407.55	42.622
407.91	41.969
408.27	42.586
408.62	43.355
408.98	41.783
409.34	43.023
409.69	42.470
410.05	42.389
410.40	43.348
410.76	43.509
411.11	43.454
411.47	41.816
411.83	43.215
412.18	43.007
412.54	40.574
412.89	42.770
413.25	42.326
413.60	43.013
413.96	43.253
414.31	43.119
414.67	41.778
415.03	42.432
415.38	43.787
415.74	42.461
416.09	42.967
416.45	41.799
416.80	43.368
417.16	42.392
417.51	43.336
417.87	44.337
418.22	43.047
418.58	43.004
418.93	42.796
419.29	44.040
419.64	42.714
420.00	43.499
420.35	42.992
420.71	44.298
421.06	42.899
421.42	42.799
421.77	43.607
422.12	44.208
422.48	43.185
422.83	43.052
423.19	42.929
423.54	44.150
423.90	44.534
424.25	43.495
424.61	44.753
424.96	44.061
425.31	45.053
425.67	43.954
426.02	41.824
426.38	46.279
426.73	44.711
427.09	45.282
427.44	44.432
427.79	45.407
428.15	44.165
428.50	45.513
428.85	46.343
429.21	43.996
429.56	45.417
429.92	44.389
430.27	44.616
430.62	45.664
430.98	44.642
431.33	46.425
431.68	46.488
432.04	45.215
432.39	45.470
432.74	47.002
433.10	46.033
433.45	46.402
433.80	46.585
434.16	46.749
434.51	46.411
434.86	47.276
435.22	46.826
435.57	47.368
435.92	46.483
436.28	46.944
436.63	46.637
436.98	45.590
437.34	46.367
437.69	47.375
438.04	47.703
438.39	47.593
438.75	46.158
439.10	47.418
439.45	46.590
439.81	48.193
440.16	45.713
440.51	47.471
440.86	47.368
441.22	46.711
441.57	47.895
441.92	48.133
442.27	46.591
442.63	47.639
442.98	45.993
443.33	47.282
443.68	48.306
444.03	47.250
444.39	48.409
444.74	48.623
445.09	48.191
445.44	49.240
445.79	48.853
446.15	49.671
446.50	48.013
446.85	46.896
447.20	47.957
447.55	47.956
447.91	49.186
448.26	47.933
448.61	47.991
448.96	49.692
449.31	47.125
449.66	48.540
450.02	48.144
450.37	48.290
450.72	48.701
451.07	48.774
451.42	47.398
451.77	49.312
452.12	48.331
452.47	49.370
452.83	49.913
453.18	48.577
453.53	47.450
453.88	49.701
454.23	47.823
454.58	49.596
454.93	47.544
455.28	50.478
455.63	50.369
455.98	50.482
456.34	48.666
456.69	49.156
457.04	49.478
457.39	49.282
457.74	49.144
458.09	48.956
458.44	50.635
458.79	49.944
459.14	49.344
459.49	48.490
459.84	48.904
460.19	50.119
460.54	49.304
460.89	49.720
461.24	50.213
461.59	49.297
461.94	49.141
462.29	50.089
462.64	51.515
462.99	50.335
463.34	50.777
463.69	50.318
464.04	48.037
464.39	49.104
464.74	49.173
465.09	49.549
465.44	50.423
465.79	50.310
466.14	50.748
466.49	51.007
466.84	50.600
467.19	50.748
467.54	49.367
467.89	50.370
468.24	48.812
468.59	50.718
468.94	50.032
469.29	50.487
469.64	51.348
469.99	50.709
470.34	51.236
470.68	50.872
471.03	50.723
471.38	49.931
471.73	52.028
472.08	49.866
472.43	50.901
472.78	50.667
473.13	50.232
473.48	50.862
473.83	51.427
474.17	50.382
474.52	52.494
474.87	50.874
475.22	50.914
475.57	50.111
475.92	50.216
476.27	49.829
476.61	50.141
476.96	51.537
477.31	52.476
477.66	50.470
478.01	51.972
478.36	50.655
478.70	51.522
479.05	52.299
479.40	50.984
479.75	51.070
480.10	50.744
480.45	49.952
480.79	51.037
481.14	51.380
481.49	52.130
481.84	50.347
482.19	51.576
482.53	52.699
482.88	50.736
483.23	50.516
483.58	50.971
483.92	51.218
484.27	49.490
484.62	51.317
484.97	50.390
485.31	49.632
485.66	48.487
486.01	48.989
486.36	50.755
486.70	51.849
487.05	50.401
487.40	50.855
487.75	50.197
488.09	49.660
488.44	49.865
488.79	49.522
489.13	50.361
489.48	50.734
489.83	51.616
490.17	50.718
490.52	51.721
490.87	51.178
491.22	51.938
491.56	50.972
491.91	51.765
492.26	51.321
492.60	51.808
492.95	51.737
493.30	51.834
493.64	51.340
493.99	51.577
494.34	52.000
494.68	51.966
495.03	51.147
495.37	51.721
495.72	52.407
496.07	51.619
496.41	52.524
496.76	51.963
497.11	52.991
497.45	52.347
497.80	53.377
498.14	51.965
498.49	51.833
498.84	51.408
499.18	52.583
499.53	52.557
499.87	52.847
500.22	52.745
500.56	53.827
500.91	52.167
501.26	52.450
501.60	51.709
501.95	53.092
502.29	51.205
502.64	52.145
502.98	52.180
503.33	51.316
503.67	52.874
504.02	51.811
504.36	51.863
504.71	52.989
505.06	51.822
505.40	53.343
505.75	53.608
506.09	53.134
506.44	51.930
506.78	51.831
507.13	52.729
507.47	53.678
507.82	52.246
508.16	54.819
508.51	53.117
508.85	54.348
509.19	53.741
509.54	53.964
509.88	53.617
510.23	53.826
510.57	54.339
510.92	53.867
511.26	54.173
511.61	53.996
511.95	54.957
512.30	53.161
512.64	53.367
512.98	54.895
513.33	53.926
513.67	54.606
514.02	54.530
514.36	54.737
514.70	55.178
515.05	54.889
515.39	53.864
515.74	56.137
516.08	53.545
516.42	55.071
516.77	55.228
517.11	55.892
517.46	57.416
517.80	56.258
518.14	55.254
518.49	55.589
518.83	55.608
519.17	55.832
519.52	54.309
519.86	55.675
520.20	55.990
520.55	54.708
520.89	55.792
521.23	54.884
521.58	55.611
521.92	57.315
522.26	54.921
522.61	57.034
522.95	56.414
523.29	55.987
523.64	55.340
523.98	56.397
524.32	57.134
524.66	55.839
525.01	57.161
525.35	56.959
525.69	57.189
526.04	56.397
526.38	58.116
526.72	55.875
527.06	56.771
527.41	56.304
527.75	55.578
528.09	56.453
528.43	56.262
528.78	55.088
529.12	57.234
529.46	55.412
529.80	55.713
530.15	56.278
530.49	56.727
530.83	56.909
531.17	57.576
531.51	57.133
531.86	57.011
532.20	55.668
532.54	56.016
532.88	55.995
533.22	58.088
533.57	58.029
533.91	55.805
534.25	56.003
534.59	54.341
534.93	54.574
535.27	55.444
535.62	56.841
535.96	55.915
536.30	55.366
536.64	56.839
536.98	57.274
537.32	55.978
537.66	55.601
538.01	56.426
538.35	56.959
538.69	55.816
539.03	55.924
539.37	56.088
539.71	55.570
540.05	55.997
540.39	55.886
540.73	56.185
541.07	56.421
541.42	56.313
541.76	55.083
542.10	57.124
542.44	55.763
542.78	55.699
543.12	57.366
543.46	55.685
543.80	56.455
544.14	56.279
544.48	56.037
544.82	57.781
545.16	55.869
545.50	55.384
545.84	56.537
546.18	56.519
546.52	57.255
546.86	56.339
547.20	56.470
547.54	55.441
547.88	56.603
548.22	55.177
548.56	56.179
548.90	56.806
549.24	55.431
549.58	55.399
549.92	55.972
550.26	56.720
550.60	55.334
550.94	56.934
551.28	56.659
551.62	56.425
551.96	56.512
552.30	55.401
552.64	57.776
552.98	56.202
553.32	56.421
553.66	58.327
554.00	57.356
554.34	55.235
554.68	56.579
555.02	56.078
555.36	56.722
555.69	55.229
556.03	56.281
556.37	57.610
556.71	56.764
557.05	58.463
557.39	57.387
557.73	56.893
558.07	57.950
558.41	56.245
558.75	57.567
559.08	56.809
559.42	57.963
559.76	58.512
560.10	58.315
560.44	57.081
560.78	56.785
561.12	56.936
561.45	56.164
561.79	56.725
562.13	56.592
562.47	55.812
562.81	56.294
563.15	56.823
563.48	56.669
563.82	56.457
564.16	56.457
564.50	56.989
564.84	56.019
565.17	55.637
565.51	56.128
565.85	57.809
566.19	56.719
566.52	57.273
566.86	55.436
567.20	56.659
567.54	57.413
567.88	54.606
568.21	55.257
568.55	54.719
568.89	54.573
569.23	54.743
569.56	53.300
569.90	54.249
570.24	54.340
570.57	52.865
570.91	53.043
571.25	52.562
571.59	53.169
571.92	51.875
572.26	52.487
572.60	52.156
572.93	51.378
573.27	51.433
573.61	50.961
573.95	52.342
574.28	51.968
574.62	52.364
574.96	51.570
575.29	51.524
575.63	51.872
575.97	51.375
576.30	50.945
576.64	51.906
576.98	51.704
577.31	51.037
577.65	52.404
577.98	51.069
578.32	51.547
578.66	51.050
578.99	51.278
579.33	51.595
579.67	51.052
580.00	50.570
580.34	51.296
580.67	51.385
581.01	50.183
581.35	51.610
581.68	50.687
582.02	51.239
582.35	51.086
582.69	52.224
583.02	52.387
583.36	51.644
583.70	50.998
584.03	51.616
584.37	51.664
584.70	51.282
585.04	51.241
585.37	50.764
585.71	52.056
586.04	52.001
586.38	51.377
586.72	51.466
587.05	52.223
587.39	51.216
587.72	51.951
588.06	52.297
588.39	52.549
588.73	51.509
589.06	52.621
589.40	53.075
589.73	52.337
590.07	51.857
590.40	52.030
590.73	52.819
591.07	52.869
591.40	53.423
591.74	52.172
592.07	54.054
592.41	53.673
592.74	51.460
593.08	52.763
593.41	53.224
593.75	52.193
594.08	55.140
594.41	53.383
594.75	53.077
595.08	53.609
595.42	52.240
595.75	53.142
596.09	52.891
596.42	53.519
596.75	53.514
597.09	54.853
597.42	53.339
597.75	53.587
598.09	53.095
598.42	53.690
598.76	53.156
599.09	52.526
599.42	53.249
599.76	52.850
600.09	53.931
600.42	52.602
600.76	53.635
601.09	52.412
601.42	53.542
601.76	52.259
602.09	53.333
602.42	53.086
602.76	53.178
603.09	53.710
603.42	53.425
603.76	52.692
604.09	53.464
604.42	52.998
604.76	54.121
605.09	53.436
605.42	53.945
605.75	53.299
606.09	52.844
606.42	53.079
606.75	52.812
607.09	53.639
607.42	53.653
607.75	52.450
608.08	53.864
608.42	54.305
608.75	53.411
609.08	53.678
609.41	53.612
609.75	52.901
610.08	54.265
610.41	53.494
610.74	54.304
611.07	54.310
611.41	54.463
611.74	54.087
612.07	55.747
612.40	53.305
612.73	53.743
613.07	53.165
613.40	54.953
613.73	53.842
614.06	53.048
614.39	55.750
614.72	53.352
615.06	53.043
615.39	53.445
615.72	55.024
616.05	52.512
616.38	54.382
616.71	53.934
617.05	54.101
617.38	54.551
617.71	53.378
618.04	54.720
618.37	54.780
618.70	56.193
619.03	54.909
619.36	55.673
619.69	54.917
620.03	54.201
620.36	55.626
620.69	55.707
621.02	55.479
621.35	55.484
621.68	55.984
622.01	56.230
622.34	55.124
622.67	55.391
623.00	55.547
623.33	55.672
623.66	54.801
623.99	55.113
624.32	56.399
624.65	55.703
624.99	54.742
625.32	55.165
625.65	56.566
625.98	54.538
626.31	56.852
626.64	55.565
626.97	56.678
627.30	56.511
627.63	54.663
627.96	56.136
628.29	57.169
628.62	55.778
628.95	57.776
629.28	57.801
629.61	57.213
629.94	56.049
630.26	57.654
630.59	57.889
630.92	57.257
631.25	56.452
631.58	57.354
631.91	57.766
632.24	58.000
632.57	58.333
632.90	58.736
633.23	58.762
633.56	58.713
