SpectraSuite Data File
++++++++++++++++++++++++++++++++++++
Date: Sat May 16 11:23:03 PDT 2015
User: schluterlab
Dark Spectrum Present: Yes
Reference Spectrum Present: Yes
Number of Sampled Component Spectra: 1
Spectrometers: USB2E3373
Integration Time (usec): 3000 (USB2E3373)
Spectra Averaged: 3 (USB2E3373)
Boxcar Smoothing: 0 (USB2E3373)
Correct for Electrical Dark: No (USB2E3373)
Strobe/Lamp Enabled: No (USB2E3373)
Correct for Detector Non-linearity: No (USB2E3373)
Correct for Stray Light: No (USB2E3373)
Number of Pixels in Processed Spectrum: 2048
>>>>>Begin Processed Spectral Data<<<<<
178.53	0.000
178.91	93.333
179.29	400.000
179.67	-400.000
180.04	-23.077
180.42	400.000
180.80	325.000
181.18	300.000
181.56	-25.000
181.94	1400.000
182.31	375.000
182.69	-30.769
183.07	-666.667
183.45	1700.000
183.83	633.333
184.20	-71.429
184.58	-137.500
184.96	-250.000
185.34	156.250
185.72	-800.000
186.09	133.333
186.47	-225.000
186.85	-175.000
187.23	112.500
187.61	-250.000
187.98	-237.500
188.36	-12.500
188.74	-112.500
189.12	700.000
189.49	271.429
189.87	-100.000
190.25	450.000
190.63	-107.143
191.00	-144.444
191.38	460.000
191.76	-40.000
192.14	520.000
192.51	-240.000
192.89	-566.667
193.27	0.000
193.65	-188.889
194.02	-285.714
194.40	633.333
194.78	-120.000
195.15	-900.000
195.53	-145.455
195.91	-366.667
196.29	320.000
196.66	-500.000
197.04	2900.000
197.42	-150.000
197.79	0.000
198.17	-400.000
198.55	-700.000
198.92	-900.000
199.30	225.000
199.68	-250.000
200.05	-166.667
200.43	-266.667
200.81	-2000.000
201.18	-83.333
201.56	157.143
201.94	6.667
202.31	18.182
202.69	70.000
203.07	-140.000
203.44	800.000
203.82	-216.667
204.19	-525.000
204.57	-25.000
204.95	-300.000
205.32	-18.750
205.70	800.000
206.08	-1800.000
206.45	-77.778
206.83	-1150.000
207.20	-300.000
207.58	-633.333
207.96	-600.000
208.33	-212.500
208.71	-144.444
209.08	150.000
209.46	-57.143
209.84	1050.000
210.21	0.000
210.59	30.000
210.96	800.000
211.34	-166.667
211.71	-266.667
212.09	500.000
212.46	1400.000
212.84	-2700.000
213.22	400.000
213.59	91.667
213.97	11.111
214.34	130.000
214.72	-210.000
215.09	-533.333
215.47	-216.667
215.84	-70.000
216.22	-90.000
216.59	-6.667
216.97	-475.000
217.34	800.000
217.72	-114.286
218.09	-433.333
218.47	-157.143
218.84	214.286
219.22	-57.143
219.59	0.000
219.97	342.857
220.34	325.000
220.72	187.500
221.09	-38.462
221.47	0.000
221.84	-0.000
222.22	-400.000
222.59	1500.000
222.97	-200.000
223.34	-600.000
223.72	-400.000
224.09	-57.143
224.46	-375.000
224.84	-14.286
225.21	-142.857
225.59	-154.545
225.96	-100.000
226.34	-114.286
226.71	-100.000
227.08	-20.000
227.46	1000.000
227.83	-157.143
228.21	-275.000
228.58	700.000
228.95	6.250
229.33	-400.000
229.70	-420.000
230.08	-650.000
230.45	0.000
230.82	-100.000
231.20	-1200.000
231.57	-900.000
231.95	1600.000
232.32	-4.762
232.69	-66.667
233.07	-271.429
233.44	-800.000
233.81	-60.000
234.19	-122.222
234.56	-50.000
234.93	9.375
235.31	-57.143
235.68	-128.571
236.05	-11.765
236.43	-27.273
236.80	-35.484
237.17	8.333
237.55	-76.190
237.92	-113.636
238.29	-40.000
238.67	14.706
239.04	-22.222
239.41	-12.903
239.79	-41.026
240.16	-21.429
240.53	-29.091
240.91	15.385
241.28	-9.091
241.65	0.000
242.02	-13.115
242.40	3.279
242.77	-3.030
243.14	-8.475
243.51	0.000
243.89	3.797
244.26	0.000
244.63	16.842
245.00	8.421
245.38	17.797
245.75	15.929
246.12	9.600
246.49	18.110
246.87	3.252
247.24	0.000
247.61	3.390
247.98	3.521
248.36	0.000
248.73	10.759
249.10	6.369
249.47	7.602
249.84	6.250
250.22	7.143
250.59	8.475
250.96	6.283
251.33	15.640
251.70	9.615
252.08	13.744
252.45	11.374
252.82	5.238
253.19	12.766
253.56	12.097
253.94	12.236
254.31	12.446
254.68	16.260
255.05	8.871
255.42	9.524
255.79	6.093
256.16	14.902
256.54	12.868
256.91	9.470
257.28	12.088
257.65	10.993
258.02	18.239
258.39	15.719
258.76	10.473
259.14	10.802
259.51	17.705
259.88	12.805
260.25	14.596
260.62	12.219
260.99	12.166
261.36	12.500
261.73	15.029
262.10	14.444
262.47	11.966
262.85	15.143
263.22	10.315
263.59	12.000
263.96	15.072
264.33	14.634
264.70	14.917
265.07	12.637
265.44	16.796
265.81	13.437
266.18	13.924
266.55	14.461
266.92	15.113
267.29	14.044
267.66	13.580
268.03	13.285
268.40	13.850
268.77	14.458
269.14	13.457
269.51	13.333
269.88	14.450
270.25	11.888
270.62	13.501
270.99	12.838
271.36	15.152
271.73	13.677
272.10	13.730
272.47	10.889
272.84	15.333
273.21	15.138
273.58	13.407
273.95	14.254
274.32	13.801
274.69	14.880
275.06	14.519
275.43	13.393
275.80	12.627
276.17	14.226
276.54	14.868
276.91	12.140
277.28	12.576
277.65	15.909
278.02	12.526
278.39	15.521
278.76	15.936
279.13	11.462
279.50	12.326
279.87	12.474
280.23	13.563
280.60	14.513
280.97	12.427
281.34	11.799
281.71	13.077
282.08	11.895
282.45	12.627
282.82	13.953
283.19	13.636
283.56	15.934
283.92	17.138
284.29	12.454
284.66	13.849
285.03	14.795
285.40	13.100
285.77	13.860
286.14	13.538
286.51	12.611
286.87	14.338
287.24	13.823
287.61	12.727
287.98	10.052
288.35	14.050
288.72	12.054
289.08	13.390
289.45	12.795
289.82	9.516
290.19	13.465
290.56	9.256
290.93	13.831
291.29	12.156
291.66	13.043
292.03	12.402
292.40	14.608
292.77	11.335
293.13	12.683
293.50	12.481
293.87	12.577
294.24	11.011
294.60	10.909
294.97	11.836
295.34	11.852
295.71	14.286
296.08	10.599
296.44	11.016
296.81	12.393
297.18	13.099
297.55	12.147
297.91	13.250
298.28	11.233
298.65	10.321
299.02	12.968
299.38	9.759
299.75	8.967
300.12	11.795
300.48	12.276
300.85	11.009
301.22	11.772
301.59	10.663
301.95	13.602
302.32	11.213
302.69	11.383
303.05	10.012
303.42	10.125
303.79	11.722
304.15	10.900
304.52	9.568
304.89	11.334
305.25	10.501
305.62	10.223
305.99	13.781
306.35	10.988
306.72	8.770
307.09	12.145
307.45	9.308
307.82	10.503
308.19	11.521
308.55	11.438
308.92	9.774
309.29	12.108
309.65	10.286
310.02	11.771
310.38	9.405
310.75	11.475
311.12	10.640
311.48	10.647
311.85	10.402
312.22	12.358
312.58	12.106
312.95	10.907
313.31	11.189
313.68	11.759
314.05	11.869
314.41	10.262
314.78	11.089
315.14	11.451
315.51	9.524
315.87	11.326
316.24	12.439
316.61	12.188
316.97	11.642
317.34	11.272
317.70	11.874
318.07	11.381
318.43	10.393
318.80	11.643
319.16	10.976
319.53	11.090
319.89	10.724
320.26	10.980
320.62	10.769
320.99	11.443
321.35	10.640
321.72	10.850
322.08	12.166
322.45	10.198
322.81	12.584
323.18	10.855
323.54	10.628
323.91	11.585
324.27	11.122
324.64	11.517
325.00	12.653
325.37	12.127
325.73	12.861
326.10	11.160
326.46	11.559
326.83	11.064
327.19	11.510
327.56	13.118
327.92	11.470
328.29	12.900
328.65	10.455
329.01	12.456
329.38	11.686
329.74	13.004
330.11	10.970
330.47	11.626
330.84	13.382
331.20	11.191
331.56	11.030
331.93	11.456
332.29	12.237
332.66	12.291
333.02	12.217
333.38	12.097
333.75	12.823
334.11	13.156
334.48	11.915
334.84	13.998
335.20	11.791
335.57	12.816
335.93	13.966
336.29	12.932
336.66	12.070
337.02	12.703
337.38	12.656
337.75	12.379
338.11	12.701
338.47	12.189
338.84	12.341
339.20	11.336
339.56	13.012
339.93	13.051
340.29	12.223
340.65	12.325
341.02	12.142
341.38	13.227
341.74	12.955
342.11	12.031
342.47	12.618
342.83	11.755
343.20	12.126
343.56	11.102
343.92	12.771
344.28	13.204
344.65	12.541
345.01	12.521
345.37	13.040
345.73	12.193
346.10	11.611
346.46	10.804
346.82	12.670
347.19	11.504
347.55	11.878
347.91	11.575
348.27	12.808
348.63	12.359
349.00	12.649
349.36	11.163
349.72	13.933
350.08	12.430
350.45	11.505
350.81	12.818
351.17	11.254
351.53	11.695
351.89	13.339
352.26	13.566
352.62	12.750
352.98	11.946
353.34	11.831
353.70	11.815
354.07	12.589
354.43	12.490
354.79	12.044
355.15	12.460
355.51	11.562
355.87	11.621
356.24	12.153
356.60	12.571
356.96	12.702
357.32	11.956
357.68	13.180
358.04	11.701
358.40	12.065
358.77	12.056
359.13	12.242
359.49	11.565
359.85	11.814
360.21	11.568
360.57	12.575
360.93	11.630
361.29	12.556
361.66	11.357
362.02	11.612
362.38	13.280
362.74	12.161
363.10	12.482
363.46	13.818
363.82	13.265
364.18	12.735
364.54	13.224
364.90	12.369
365.26	11.983
365.62	13.115
365.98	12.589
366.35	12.324
366.71	11.769
367.07	12.138
367.43	12.903
367.79	13.471
368.15	12.660
368.51	13.846
368.87	14.011
369.23	13.474
369.59	12.986
369.95	13.531
370.31	12.799
370.67	13.232
371.03	13.120
371.39	12.518
371.75	13.662
372.11	12.841
372.47	13.015
372.83	13.074
373.19	12.643
373.55	13.371
373.91	14.011
374.27	11.910
374.63	14.010
374.99	14.256
375.35	13.324
375.71	14.315
376.07	13.484
376.42	12.384
376.78	13.725
377.14	14.237
377.50	13.733
377.86	14.564
378.22	14.008
378.58	14.021
378.94	13.625
379.30	13.528
379.66	13.358
380.02	13.963
380.38	12.870
380.74	13.365
381.09	13.767
381.45	13.663
381.81	13.067
382.17	13.596
382.53	13.313
382.89	13.816
383.25	13.606
383.61	14.623
383.97	14.452
384.32	13.955
384.68	14.510
385.04	13.949
385.40	13.755
385.76	14.207
386.12	14.991
386.48	14.542
386.83	14.969
387.19	14.465
387.55	14.779
387.91	13.871
388.27	13.872
388.62	14.483
388.98	14.779
389.34	14.137
389.70	14.434
390.06	14.854
390.42	15.385
390.77	14.259
391.13	15.280
391.49	15.097
391.85	14.401
392.20	13.956
392.56	14.722
392.92	15.003
393.28	15.499
393.64	15.033
393.99	15.077
394.35	14.781
394.71	14.947
395.07	14.689
395.42	14.184
395.78	14.959
396.14	15.576
396.50	15.229
396.85	15.361
397.21	16.039
397.57	15.258
397.92	16.101
398.28	14.611
398.64	14.634
399.00	15.169
399.35	15.220
399.71	15.041
400.07	15.522
400.42	15.389
400.78	14.311
401.14	15.329
401.49	15.271
401.85	14.887
402.21	15.435
402.57	15.898
402.92	15.985
403.28	14.767
403.63	14.679
403.99	15.413
404.35	14.312
404.70	15.740
405.06	14.994
405.42	14.268
405.77	14.253
406.13	14.991
406.49	15.458
406.84	14.697
407.20	15.607
407.55	15.706
407.91	14.832
408.27	15.441
408.62	14.973
408.98	15.343
409.34	15.235
409.69	14.682
410.05	15.403
410.40	15.267
410.76	15.175
411.11	14.900
411.47	15.665
411.83	14.609
412.18	14.728
412.54	14.582
412.89	15.614
413.25	13.932
413.60	14.642
413.96	14.418
414.31	15.780
414.67	14.730
415.03	14.812
415.38	14.444
415.74	14.948
416.09	14.898
416.45	15.013
416.80	15.345
417.16	15.349
417.51	16.087
417.87	14.693
418.22	15.487
418.58	15.725
418.93	15.328
419.29	14.868
419.64	14.887
420.00	15.917
420.35	15.494
420.71	15.066
421.06	16.095
421.42	15.164
421.77	15.466
422.12	15.333
422.48	15.126
422.83	15.774
423.19	15.479
423.54	16.196
423.90	15.327
424.25	16.176
424.61	16.586
424.96	16.150
425.31	15.763
425.67	15.759
426.02	15.491
426.38	16.092
426.73	16.598
427.09	16.054
427.44	16.023
427.79	15.872
428.15	16.397
428.50	16.070
428.85	15.887
429.21	16.104
429.56	16.458
429.92	16.182
430.27	16.999
430.62	16.405
430.98	16.571
431.33	16.009
431.68	15.818
432.04	16.620
432.39	16.524
432.74	16.906
433.10	16.038
433.45	16.177
433.80	16.013
434.16	16.819
434.51	16.986
434.86	16.989
435.22	16.425
435.57	16.034
435.92	16.237
436.28	16.677
436.63	16.280
436.98	16.380
437.34	17.070
437.69	16.803
438.04	16.563
438.39	17.449
438.75	16.647
439.10	16.935
439.45	16.174
439.81	16.566
440.16	17.263
440.51	18.294
440.86	16.888
441.22	17.026
441.57	16.789
441.92	16.829
442.27	16.558
442.63	17.758
442.98	16.140
443.33	17.243
443.68	17.040
444.03	17.240
444.39	17.132
444.74	17.731
445.09	16.996
445.44	18.402
445.79	17.134
446.15	17.798
446.50	16.658
446.85	17.188
447.20	17.671
447.55	17.348
447.91	17.238
448.26	17.095
448.61	17.544
448.96	18.319
449.31	16.122
449.66	18.260
450.02	16.842
450.37	16.696
450.72	17.119
451.07	18.542
451.42	18.030
451.77	17.355
452.12	17.878
452.47	18.577
452.83	17.065
453.18	18.216
453.53	17.973
453.88	18.301
454.23	17.775
454.58	18.832
454.93	19.081
455.28	17.782
455.63	17.629
455.98	18.253
456.34	18.297
456.69	18.637
457.04	18.808
457.39	17.404
457.74	17.720
458.09	17.865
458.44	19.226
458.79	17.881
459.14	18.254
459.49	19.124
459.84	18.550
460.19	17.900
460.54	17.967
460.89	17.321
461.24	17.547
461.59	17.937
461.94	17.950
462.29	17.630
462.64	18.116
462.99	18.206
463.34	17.488
463.69	18.702
464.04	18.395
464.39	18.220
464.74	19.208
465.09	18.400
465.44	18.274
465.79	18.895
466.14	18.182
466.49	18.250
466.84	18.547
467.19	18.641
467.54	17.342
467.89	18.249
468.24	18.587
468.59	18.114
468.94	18.778
469.29	17.934
469.64	18.194
469.99	19.581
470.34	18.370
470.68	19.695
471.03	19.064
471.38	18.472
471.73	19.161
472.08	18.742
472.43	18.082
472.78	18.333
473.13	17.826
473.48	18.953
473.83	19.107
474.17	18.790
474.52	19.373
474.87	19.406
475.22	18.938
475.57	18.389
475.92	20.032
476.27	18.743
476.61	19.042
476.96	18.781
477.31	19.214
477.66	18.760
478.01	19.665
478.36	19.120
478.70	19.114
479.05	19.037
479.40	18.964
479.75	19.317
480.10	19.097
480.45	18.327
480.79	19.891
481.14	19.368
481.49	19.555
481.84	19.233
482.19	19.735
482.53	19.081
482.88	19.269
483.23	18.967
483.58	20.213
483.92	19.398
484.27	18.919
484.62	18.963
484.97	19.291
485.31	18.624
485.66	18.271
486.01	18.327
486.36	19.129
486.70	19.248
487.05	19.046
487.40	19.204
487.75	19.118
488.09	18.468
488.44	19.215
488.79	18.854
489.13	19.551
489.48	20.024
489.83	19.782
490.17	19.983
490.52	19.611
490.87	19.630
491.22	19.290
491.56	19.954
491.91	19.943
492.26	19.670
492.60	19.696
492.95	19.943
493.30	19.581
493.64	20.263
493.99	19.933
494.34	19.952
494.68	20.225
495.03	19.551
495.37	19.420
495.72	20.039
496.07	19.803
496.41	20.843
496.76	20.502
497.11	20.443
497.45	19.923
497.80	19.660
498.14	19.990
498.49	20.291
498.84	20.146
499.18	20.468
499.53	20.166
499.87	19.981
500.22	20.147
500.56	19.660
500.91	20.049
501.26	20.136
501.60	20.414
501.95	20.821
502.29	20.123
502.64	19.943
502.98	20.460
503.33	20.630
503.67	20.354
504.02	19.507
504.36	20.588
504.71	19.959
505.06	20.569
505.40	21.307
505.75	20.376
506.09	20.526
506.44	20.952
506.78	20.070
507.13	20.597
507.47	21.440
507.82	21.270
508.16	21.088
508.51	20.711
508.85	20.807
509.19	20.984
509.54	20.877
509.88	21.277
510.23	20.964
510.57	21.429
510.92	21.482
511.26	20.308
511.61	20.788
511.95	20.905
512.30	21.111
512.64	20.812
512.98	21.617
513.33	22.076
513.67	20.826
514.02	21.365
514.36	21.496
514.70	21.675
515.05	21.898
515.39	21.915
515.74	22.222
516.08	21.210
516.42	22.153
516.77	22.530
517.11	22.597
517.46	22.847
517.80	21.961
518.14	21.618
518.49	22.415
518.83	22.018
519.17	22.913
519.52	21.747
519.86	22.043
520.20	22.738
520.55	22.523
520.89	21.728
521.23	22.405
521.58	22.257
521.92	23.559
522.26	22.857
522.61	21.926
522.95	21.953
523.29	22.508
523.64	22.111
523.98	23.297
524.32	21.873
524.66	22.795
525.01	23.507
525.35	23.131
525.69	23.748
526.04	22.258
526.38	23.616
526.72	22.542
527.06	22.852
527.41	22.970
527.75	22.244
528.09	22.171
528.43	22.689
528.78	23.492
529.12	23.367
529.46	22.938
529.80	23.305
530.15	23.310
530.49	22.639
530.83	24.034
531.17	23.569
531.51	22.907
531.86	23.568
532.20	23.684
532.54	24.198
532.88	22.332
533.22	23.463
533.57	23.564
533.91	23.034
534.25	23.507
534.59	22.673
534.93	22.278
535.27	22.593
535.62	22.506
535.96	23.271
536.30	23.560
536.64	23.240
536.98	23.588
537.32	23.635
537.66	22.811
538.01	24.055
538.35	23.986
538.69	23.930
539.03	23.155
539.37	23.486
539.71	24.016
540.05	22.961
540.39	22.992
540.73	24.395
541.07	23.839
541.42	22.417
541.76	22.126
542.10	23.768
542.44	23.718
542.78	22.524
543.12	24.168
543.46	22.397
543.80	23.144
544.14	23.103
544.48	23.688
544.82	23.072
545.16	23.541
545.50	22.948
545.84	23.505
546.18	23.925
546.52	23.115
546.86	23.433
547.20	24.262
547.54	21.488
547.88	23.756
548.22	22.477
548.56	23.313
548.90	23.181
549.24	23.476
549.58	24.206
549.92	23.322
550.26	23.338
550.60	23.329
550.94	24.526
551.28	23.401
551.62	24.298
551.96	24.819
552.30	22.927
552.64	23.293
552.98	23.266
553.32	23.016
553.66	24.009
554.00	23.881
554.34	22.888
554.68	23.757
555.02	23.951
555.36	23.796
555.69	22.994
556.03	24.211
556.37	23.329
556.71	22.835
557.05	24.095
557.39	23.534
557.73	25.237
558.07	24.491
558.41	23.859
558.75	23.194
559.08	22.335
559.42	23.966
559.76	24.156
560.10	25.056
560.44	23.844
560.78	24.495
561.12	24.224
561.45	24.521
561.79	24.948
562.13	23.001
562.47	23.599
562.81	23.833
563.15	23.583
563.48	24.050
563.82	23.867
564.16	24.003
564.50	23.253
564.84	23.545
565.17	23.143
565.51	23.468
565.85	22.786
566.19	24.308
566.52	23.157
566.86	22.630
567.20	24.395
567.54	24.099
567.88	23.395
568.21	23.714
568.55	23.383
568.89	22.416
569.23	23.045
569.56	22.320
569.90	22.699
570.24	23.149
570.57	22.390
570.91	22.713
571.25	22.406
571.59	22.791
571.92	22.738
572.26	22.618
572.60	22.495
572.93	21.802
573.27	21.220
573.61	21.394
573.95	22.592
574.28	21.828
574.62	22.115
574.96	21.261
575.29	21.519
575.63	21.635
575.97	21.170
576.30	21.622
576.64	21.749
576.98	21.324
577.31	21.454
577.65	21.964
577.98	21.507
578.32	21.595
578.66	21.800
578.99	21.973
579.33	21.678
579.67	21.963
580.00	21.577
580.34	21.526
580.67	21.721
581.01	21.412
581.35	21.607
581.68	21.527
582.02	21.627
582.35	21.870
582.69	22.137
583.02	22.237
583.36	22.212
583.70	21.787
584.03	22.333
584.37	22.165
584.70	22.020
585.04	21.696
585.37	21.456
585.71	22.013
586.04	21.986
586.38	21.625
586.72	22.041
587.05	22.147
587.39	22.344
587.72	22.644
588.06	22.283
588.39	22.415
588.73	22.269
589.06	22.922
589.40	22.673
589.73	22.025
590.07	22.141
590.40	22.768
590.73	22.511
591.07	23.402
591.40	23.050
591.74	22.459
592.07	22.568
592.41	22.718
592.74	22.444
593.08	22.657
593.41	22.105
593.75	21.958
594.08	22.825
594.41	23.068
594.75	22.990
595.08	22.444
595.42	23.013
595.75	22.786
596.09	22.623
596.42	23.773
596.75	22.380
597.09	23.330
597.42	22.741
597.75	22.852
598.09	22.820
598.42	22.713
598.76	22.674
599.09	22.810
599.42	22.414
599.76	22.839
600.09	22.672
600.42	22.940
600.76	22.863
601.09	22.826
601.42	22.279
601.76	22.702
602.09	22.372
602.42	22.634
602.76	22.268
603.09	22.903
603.42	23.368
603.76	23.016
604.09	23.388
604.42	22.107
604.76	22.678
605.09	23.101
605.42	22.429
605.75	23.674
606.09	22.125
606.42	22.497
606.75	22.885
607.09	22.894
607.42	23.063
607.75	23.400
608.08	23.091
608.42	23.132
608.75	21.729
609.08	22.601
609.41	23.069
609.75	23.159
610.08	23.039
610.41	23.133
610.74	23.356
611.07	23.479
611.41	22.289
611.74	23.702
612.07	22.771
612.40	22.708
612.73	22.725
613.07	23.555
613.40	24.795
613.73	23.052
614.06	22.735
614.39	23.619
614.72	22.905
615.06	23.098
615.39	22.518
615.72	23.140
616.05	22.750
616.38	23.157
616.71	22.643
617.05	24.608
617.38	23.653
617.71	22.789
618.04	23.851
618.37	23.899
618.70	24.250
619.03	23.290
619.36	24.665
619.69	24.480
620.03	23.347
620.36	23.207
620.69	23.977
621.02	24.734
621.35	23.306
621.68	23.852
622.01	23.463
622.34	23.602
622.67	24.844
623.00	23.718
623.33	24.627
623.66	22.600
623.99	23.985
624.32	23.214
624.65	24.503
624.99	25.019
625.32	23.728
625.65	24.320
625.98	24.257
626.31	24.470
626.64	24.770
626.97	23.973
627.30	23.660
627.63	24.180
627.96	24.630
628.29	24.724
628.62	23.400
628.95	24.803
629.28	25.564
629.61	24.338
629.94	24.764
630.26	25.845
630.59	27.538
630.92	25.425
631.25	24.899
631.58	25.714
631.91	23.723
632.24	26.111
