SpectraSuite Data File
++++++++++++++++++++++++++++++++++++
Date: Sat May 16 11:44:33 PDT 2015
User: schluterlab
Dark Spectrum Present: Yes
Reference Spectrum Present: Yes
Number of Sampled Component Spectra: 1
Spectrometers: USB2E3373
Integration Time (usec): 3000 (USB2E3373)
Spectra Averaged: 3 (USB2E3373)
Boxcar Smoothing: 0 (USB2E3373)
Correct for Electrical Dark: No (USB2E3373)
Strobe/Lamp Enabled: No (USB2E3373)
Correct for Detector Non-linearity: No (USB2E3373)
Correct for Stray Light: No (USB2E3373)
Number of Pixels in Processed Spectrum: 2048
>>>>>Begin Processed Spectral Data<<<<<
178.53	0.000
178.91	206.667
179.29	500.000
179.67	-1800.000
180.04	-46.154
180.42	-300.000
180.80	275.000
181.18	275.000
181.56	50.000
181.94	1700.000
182.31	375.000
182.69	-76.923
183.07	-833.333
183.45	1350.000
183.83	766.667
184.20	-128.571
184.58	-275.000
184.96	-425.000
185.34	118.750
185.72	-575.000
186.09	250.000
186.47	-137.500
186.85	-100.000
187.23	-75.000
187.61	-225.000
187.98	-287.500
188.36	-200.000
188.74	-162.500
189.12	1200.000
189.49	328.571
189.87	-183.333
190.25	375.000
190.63	-21.429
191.00	-244.444
191.38	500.000
191.76	-13.333
192.14	460.000
192.51	-140.000
192.89	-300.000
193.27	0.000
193.65	-111.111
194.02	-228.571
194.40	733.333
194.78	-190.000
195.15	-1200.000
195.53	-109.091
195.91	-316.667
196.29	360.000
196.66	-466.667
197.04	1800.000
197.42	-350.000
197.79	-6.667
198.17	-333.333
198.55	-800.000
198.92	-1200.000
199.30	275.000
199.68	-450.000
200.05	-222.222
200.43	-100.000
200.81	-2500.000
201.18	-133.333
201.56	100.000
201.94	-80.000
202.31	-9.091
202.69	0.000
203.07	-140.000
203.44	366.667
203.82	-166.667
204.19	-250.000
204.57	-225.000
204.95	-1800.000
205.32	-6.250
205.70	600.000
206.08	-1900.000
206.45	-27.778
206.83	-1600.000
207.20	50.000
207.58	-600.000
207.96	-366.667
208.33	-200.000
208.71	-211.111
209.08	280.000
209.46	-257.143
209.84	1150.000
210.21	0.000
210.59	5.000
210.96	300.000
211.34	-216.667
211.71	-500.000
212.09	275.000
212.46	750.000
212.84	-2700.000
213.22	366.667
213.59	158.333
213.97	-33.333
214.34	130.000
214.72	-100.000
215.09	-400.000
215.47	-383.333
215.84	-80.000
216.22	-70.000
216.59	-26.667
216.97	-300.000
217.34	650.000
217.72	-185.714
218.09	-233.333
218.47	-400.000
218.84	228.571
219.22	-28.571
219.59	0.000
219.97	342.857
220.34	375.000
220.72	187.500
221.09	-107.692
221.47	0.000
221.84	533.333
222.22	-850.000
222.59	1600.000
222.97	-200.000
223.34	-900.000
223.72	-266.667
224.09	-85.714
224.46	-425.000
224.84	-14.286
225.21	-242.857
225.59	-100.000
225.96	-162.500
226.34	-100.000
226.71	-200.000
227.08	25.000
227.46	2000.000
227.83	-257.143
228.21	-250.000
228.58	300.000
228.95	-43.750
229.33	-2300.000
229.70	-140.000
230.08	-850.000
230.45	-16.667
230.82	-183.333
231.20	-1600.000
231.57	-800.000
231.95	1500.000
232.32	38.095
232.69	-122.222
233.07	-157.143
233.44	-1100.000
233.81	-73.333
234.19	-11.111
234.56	-100.000
234.93	12.500
235.31	-214.286
235.68	-121.429
236.05	-41.176
236.43	-63.636
236.80	-35.484
237.17	-20.833
237.55	-57.143
237.92	-54.545
238.29	-14.286
238.67	2.941
239.04	13.889
239.41	-9.677
239.79	-23.077
240.16	-9.524
240.53	7.273
240.91	2.564
241.28	9.091
241.65	16.923
242.02	19.672
242.40	-1.639
242.77	27.273
243.14	-1.695
243.51	10.000
243.89	13.924
244.26	17.978
244.63	26.316
245.00	20.000
245.38	24.576
245.75	31.858
246.12	26.400
246.49	24.409
246.87	25.203
247.24	26.271
247.61	22.034
247.98	22.535
248.36	25.874
248.73	31.013
249.10	28.662
249.47	30.409
249.84	31.818
250.22	25.595
250.59	27.684
250.96	30.890
251.33	24.171
251.70	31.250
252.08	34.597
252.45	27.014
252.82	30.952
253.19	32.766
253.56	29.839
253.94	34.177
254.31	29.614
254.68	34.959
255.05	29.435
255.42	29.762
255.79	30.466
256.16	33.725
256.54	37.500
256.91	31.439
257.28	24.908
257.65	35.106
258.02	36.792
258.39	33.779
258.76	31.081
259.14	30.864
259.51	35.410
259.88	28.963
260.25	36.646
260.62	33.441
260.99	32.047
261.36	36.890
261.73	32.948
262.10	31.389
262.47	33.333
262.85	38.571
263.22	31.519
263.59	31.385
263.96	32.464
264.33	34.417
264.70	34.807
265.07	34.341
265.44	32.041
265.81	33.075
266.18	30.127
266.55	31.863
266.92	38.035
267.29	34.140
267.66	32.099
268.03	34.783
268.40	32.160
268.77	34.699
269.14	29.930
269.51	35.402
269.88	27.523
270.25	32.634
270.62	33.638
270.99	29.730
271.36	35.897
271.73	33.857
272.10	36.156
272.47	33.556
272.84	34.444
273.21	32.110
273.58	33.846
273.95	30.921
274.32	35.973
274.69	36.324
275.06	33.742
275.43	30.580
275.80	33.809
276.17	32.218
276.54	34.216
276.91	33.539
277.28	31.846
277.65	32.025
278.02	35.282
278.39	33.595
278.76	35.259
279.13	33.202
279.50	33.002
279.87	35.941
280.23	35.628
280.60	36.382
280.97	34.951
281.34	35.203
281.71	34.231
282.08	34.476
282.45	33.198
282.82	31.977
283.19	31.818
283.56	33.700
283.92	34.806
284.29	31.041
284.66	32.734
285.03	34.403
285.40	34.317
285.77	34.912
286.14	32.310
286.51	33.570
286.87	33.757
287.24	32.253
287.61	30.744
287.98	30.849
288.35	31.240
288.72	32.937
289.08	31.695
289.45	30.303
289.82	31.315
290.19	32.512
290.56	29.091
290.93	29.730
291.29	29.498
291.66	29.952
292.03	31.868
292.40	30.572
292.77	26.708
293.13	29.756
293.50	28.380
293.87	27.761
294.24	30.468
294.60	26.061
294.97	28.225
295.34	27.704
295.71	27.679
296.08	26.728
296.44	28.755
296.81	28.632
297.18	26.479
297.55	27.401
297.91	28.452
298.28	25.616
298.65	25.662
299.02	28.209
299.38	26.337
299.75	25.543
300.12	25.641
300.48	25.192
300.85	25.819
301.22	27.296
301.59	24.187
301.95	27.834
302.32	23.598
302.69	26.561
303.05	24.908
303.42	25.125
303.79	26.196
304.15	24.882
304.52	24.621
304.89	23.613
305.25	25.519
305.62	23.619
305.99	25.206
306.35	24.861
306.72	23.235
307.09	25.312
307.45	23.156
307.82	22.011
308.19	24.049
308.55	23.312
308.92	22.234
309.29	23.027
309.65	24.178
310.02	22.570
310.38	21.730
310.75	23.156
311.12	23.450
311.48	23.382
311.85	22.554
312.22	22.760
312.58	24.313
312.95	23.955
313.31	24.775
313.68	22.613
314.05	22.552
314.41	23.038
314.78	23.177
315.14	23.100
315.51	23.404
315.87	22.749
316.24	23.421
316.61	23.321
316.97	22.985
317.34	23.218
317.70	22.913
318.07	22.575
318.43	22.191
318.80	22.441
319.16	21.857
319.53	22.368
319.89	23.142
320.26	21.961
320.62	21.731
320.99	21.294
321.35	21.182
321.72	24.156
322.08	23.046
322.45	20.693
322.81	22.767
323.18	21.902
323.54	21.996
323.91	21.501
324.27	22.053
324.64	22.303
325.00	21.990
325.37	21.176
325.73	23.010
326.10	21.523
326.46	21.278
326.83	22.553
327.19	21.184
327.56	23.254
327.92	22.005
328.29	22.078
328.65	20.727
329.01	22.261
329.38	21.142
329.74	22.436
330.11	21.034
330.47	21.889
330.84	24.015
331.20	21.570
331.56	20.784
331.93	21.048
332.29	21.644
332.66	21.949
333.02	20.452
333.38	20.699
333.75	21.193
334.11	20.711
334.48	20.477
334.84	21.697
335.20	20.035
335.57	21.119
335.93	22.381
336.29	20.195
336.66	19.648
337.02	21.532
337.38	20.677
337.75	20.369
338.11	21.288
338.47	20.374
338.84	21.597
339.20	21.090
339.56	20.499
339.93	20.635
340.29	19.752
340.65	20.455
341.02	20.826
341.38	20.303
341.74	21.084
342.11	21.331
342.47	20.000
342.83	20.151
343.20	19.641
343.56	19.755
343.92	21.870
344.28	22.035
344.65	20.297
345.01	20.504
345.37	20.930
345.73	18.985
346.10	19.706
346.46	20.634
346.82	20.369
347.19	20.296
347.55	19.823
347.91	20.000
348.27	20.366
348.63	21.244
349.00	21.082
349.36	18.345
349.72	20.541
350.08	19.808
350.45	20.016
350.81	19.506
351.17	19.775
351.53	18.138
351.89	19.563
352.26	20.310
352.62	19.816
352.98	18.987
353.34	19.025
353.70	18.301
354.07	19.276
354.43	19.842
354.79	20.681
355.15	18.610
355.51	19.609
355.87	19.447
356.24	19.222
356.60	20.790
356.96	19.477
357.32	19.873
357.68	19.234
358.04	19.246
358.40	18.794
358.77	18.624
359.13	18.669
359.49	18.594
359.85	19.360
360.21	19.178
360.57	19.804
360.93	19.704
361.29	20.404
361.66	17.912
362.02	18.639
362.38	19.663
362.74	18.681
363.10	19.154
363.46	19.943
363.82	18.950
364.18	18.958
364.54	20.515
364.90	18.868
365.26	17.903
365.62	19.672
365.98	19.417
366.35	19.577
366.71	18.605
367.07	19.195
367.43	19.012
367.79	19.519
368.15	18.208
368.51	20.210
368.87	19.780
369.23	19.719
369.59	18.819
369.95	18.887
370.31	19.902
370.67	18.583
371.03	19.023
371.39	18.741
371.75	19.170
372.11	19.584
372.47	19.017
372.83	19.402
373.19	19.929
373.55	19.212
373.91	18.706
374.27	18.549
374.63	19.186
374.99	19.332
375.35	18.977
375.71	19.716
376.07	18.480
376.42	17.947
376.78	19.542
377.14	19.119
377.50	19.536
377.86	18.726
378.22	18.970
378.58	19.456
378.94	19.174
379.30	19.561
379.66	19.186
380.02	19.014
380.38	19.517
380.74	18.288
381.09	20.094
381.45	19.988
381.81	18.572
382.17	19.298
382.53	19.331
382.89	18.301
383.25	19.506
383.61	18.396
383.97	19.473
384.32	18.899
384.68	19.649
385.04	18.599
385.40	19.355
385.76	18.720
386.12	19.363
386.48	18.812
386.83	19.202
387.19	19.665
387.55	19.503
387.91	19.206
388.27	18.034
388.62	18.570
388.98	19.382
389.34	19.767
389.70	19.488
390.06	18.459
390.42	19.872
390.77	19.243
391.13	18.447
391.49	18.653
391.85	18.953
392.20	19.782
392.56	18.815
392.92	19.452
393.28	18.657
393.64	19.002
393.99	19.262
394.35	19.647
394.71	19.209
395.07	20.339
395.42	18.892
395.78	18.668
396.14	19.190
396.50	19.266
396.85	19.556
397.21	18.773
397.57	19.027
397.92	19.731
398.28	19.333
398.64	18.679
399.00	19.888
399.35	18.940
399.71	19.686
400.07	19.164
400.42	19.404
400.78	19.678
401.14	19.281
401.49	19.222
401.85	19.219
402.21	19.905
402.57	19.539
402.92	20.453
403.28	19.853
403.63	18.514
403.99	19.453
404.35	18.720
404.70	18.958
405.06	20.012
405.42	19.557
405.77	19.683
406.13	19.250
406.49	19.892
406.84	19.976
407.20	20.200
407.55	18.999
407.91	18.912
408.27	19.792
408.62	19.423
408.98	19.951
409.34	19.439
409.69	19.408
410.05	20.315
410.40	19.252
410.76	19.680
411.11	19.140
411.47	19.309
411.83	19.377
412.18	19.493
412.54	19.280
412.89	18.712
413.25	19.008
413.60	18.773
413.96	19.039
414.31	19.144
414.67	19.048
415.03	19.470
415.38	19.779
415.74	18.943
416.09	19.118
416.45	18.519
416.80	18.921
417.16	18.738
417.51	20.486
417.87	18.900
418.22	20.164
418.58	19.127
418.93	20.110
419.29	19.636
419.64	18.153
420.00	19.563
420.35	19.338
420.71	18.908
421.06	20.118
421.42	19.262
421.77	19.095
422.12	20.201
422.48	18.974
422.83	19.191
423.19	19.766
423.54	19.769
423.90	19.202
424.25	18.948
424.61	19.903
424.96	19.485
425.31	19.285
425.67	19.140
426.02	19.220
426.38	19.964
426.73	19.871
427.09	19.424
427.44	19.659
427.79	19.186
428.15	20.407
428.50	19.707
428.85	19.245
429.21	17.986
429.56	19.323
429.92	19.289
430.27	19.342
430.62	19.958
430.98	19.185
431.33	19.477
431.68	20.054
432.04	19.810
432.39	20.513
432.74	19.964
433.10	19.415
433.45	18.941
433.80	19.653
434.16	20.043
434.51	19.507
434.86	20.972
435.22	19.209
435.57	20.012
435.92	20.164
436.28	19.822
436.63	19.672
436.98	19.187
437.34	20.437
437.69	20.012
438.04	20.533
438.39	20.036
438.75	20.023
439.10	20.155
439.45	19.493
439.81	20.602
440.16	19.875
440.51	20.353
440.86	20.301
441.22	18.905
441.57	19.842
441.92	20.153
442.27	20.022
442.63	19.903
442.98	19.187
443.33	19.660
443.68	19.489
444.03	19.695
444.39	19.677
444.74	19.879
445.09	19.901
445.44	19.809
445.79	19.582
446.15	20.427
446.50	19.434
446.85	19.497
447.20	19.765
447.55	19.834
447.91	20.382
448.26	20.279
448.61	19.411
448.96	20.560
449.31	19.166
449.66	20.435
450.02	19.557
450.37	19.188
450.72	20.113
451.07	19.862
451.42	19.641
451.77	19.808
452.12	19.249
452.47	19.962
452.83	19.569
453.18	19.671
453.53	20.585
453.88	20.215
454.23	19.468
454.58	21.007
454.93	19.710
455.28	20.013
455.63	20.455
455.98	20.602
456.34	19.060
456.69	20.388
457.04	20.836
457.39	19.438
457.74	20.024
458.09	20.940
458.44	19.861
458.79	20.067
459.14	20.422
459.49	19.834
459.84	20.405
460.19	19.630
460.54	19.782
460.89	19.283
461.24	20.461
461.59	20.281
461.94	20.496
462.29	20.012
462.64	20.158
462.99	20.884
463.34	19.919
463.69	19.847
464.04	19.215
464.39	19.295
464.74	20.626
465.09	20.024
465.44	19.966
465.79	20.869
466.14	20.771
466.49	19.919
466.84	20.948
467.19	20.948
467.54	19.241
467.89	20.715
468.24	19.893
468.59	20.175
468.94	20.514
469.29	20.273
469.64	20.553
469.99	20.999
470.34	20.040
470.68	21.294
471.03	21.335
471.38	20.625
471.73	21.049
472.08	19.946
472.43	20.399
472.78	20.667
473.13	20.080
473.48	21.123
473.83	20.223
474.17	21.019
474.52	21.164
474.87	21.096
475.22	19.882
475.57	20.167
475.92	20.302
476.27	19.829
476.61	20.225
476.96	20.011
477.31	20.344
477.66	20.974
478.01	20.205
478.36	20.377
478.70	20.715
479.05	21.850
479.40	20.881
479.75	21.356
480.10	19.940
480.45	19.971
480.79	20.928
481.14	20.973
481.49	20.378
481.84	20.804
482.19	20.740
482.53	21.117
482.88	20.171
483.23	20.704
483.58	20.814
483.92	20.736
484.27	20.204
484.62	20.734
484.97	20.070
485.31	19.616
485.66	19.074
486.01	19.283
486.36	19.892
486.70	20.193
487.05	19.825
487.40	19.551
487.75	20.550
488.09	19.889
488.44	20.162
488.79	20.410
489.13	20.426
489.48	20.636
489.83	21.135
490.17	20.853
490.52	20.426
490.87	20.739
491.22	21.579
491.56	21.389
491.91	21.279
492.26	20.849
492.60	20.266
492.95	20.800
493.30	21.296
493.64	20.686
493.99	20.985
494.34	20.810
494.68	22.378
495.03	21.033
495.37	20.895
495.72	20.825
496.07	21.680
496.41	21.399
496.76	21.005
497.11	21.762
497.45	21.504
497.80	21.161
498.14	21.562
498.49	20.442
498.84	21.165
499.18	21.053
499.53	21.627
499.87	21.139
500.22	21.863
500.56	21.461
500.91	21.330
501.26	22.368
501.60	21.329
501.95	22.174
502.29	21.162
502.64	21.405
502.98	21.322
503.33	21.100
503.67	20.738
504.02	21.246
504.36	21.275
504.71	21.479
505.06	21.618
505.40	21.756
505.75	21.697
506.09	21.436
506.44	21.855
506.78	21.576
507.13	20.855
507.47	21.805
507.82	21.631
508.16	22.176
508.51	21.381
508.85	21.273
509.19	21.350
509.54	22.727
509.88	21.702
510.23	21.908
510.57	23.228
510.92	22.019
511.26	22.010
511.61	21.652
511.95	22.144
512.30	22.265
512.64	21.814
512.98	22.277
513.33	22.350
513.67	22.446
514.02	21.868
514.36	21.440
514.70	22.354
515.05	22.699
515.39	21.742
515.74	23.444
516.08	22.536
516.42	21.586
516.77	21.664
517.11	22.483
517.46	22.428
517.80	23.827
518.14	21.437
518.49	22.176
518.83	23.086
519.17	23.564
519.52	21.631
519.86	23.059
520.20	22.616
520.55	22.523
520.89	22.480
521.23	23.260
521.58	23.197
521.92	22.736
522.26	23.048
522.61	22.433
522.95	23.357
523.29	22.759
523.64	22.923
523.98	23.106
524.32	23.067
524.66	22.236
525.01	22.672
525.35	23.325
525.69	22.576
526.04	22.911
526.38	23.425
526.72	22.861
527.06	23.307
527.41	23.102
527.75	22.442
528.09	23.428
528.43	23.344
528.78	23.116
529.12	23.431
529.46	23.131
529.80	23.112
530.15	23.310
530.49	23.221
530.83	24.558
531.17	22.424
531.51	22.840
531.86	22.712
532.20	22.537
532.54	23.061
532.88	22.859
533.22	22.594
533.57	23.238
533.91	22.909
534.25	22.376
534.59	23.173
534.93	22.340
535.27	22.467
535.62	23.082
535.96	22.366
536.30	22.382
536.64	22.776
536.98	24.011
537.32	23.082
537.66	22.200
538.01	23.093
538.35	24.459
538.69	23.730
539.03	22.952
539.37	22.954
539.71	23.215
540.05	23.441
540.39	23.476
540.73	23.220
541.07	23.770
541.42	22.147
541.76	21.661
542.10	22.755
542.44	23.651
542.78	23.134
543.12	23.286
543.46	22.123
543.80	22.876
544.14	22.498
544.48	23.031
544.82	22.598
545.16	24.346
545.50	21.669
545.84	22.949
546.18	23.232
546.52	22.546
546.86	22.934
547.20	22.855
547.54	22.521
547.88	22.561
548.22	21.953
548.56	22.712
548.90	23.181
549.24	22.565
549.58	21.948
549.92	22.120
550.26	23.338
550.60	22.760
550.94	22.920
551.28	23.928
551.62	22.600
551.96	22.793
552.30	23.136
552.64	22.379
552.98	23.125
553.32	23.593
553.66	23.504
554.00	23.241
554.34	22.310
554.68	23.465
555.02	23.661
555.36	23.077
555.69	23.138
556.03	22.947
556.37	24.111
556.71	23.049
557.05	22.986
557.39	23.756
557.73	23.924
558.07	23.888
558.41	23.261
558.75	22.662
559.08	23.268
559.42	22.818
559.76	23.850
560.10	22.446
560.44	23.410
560.78	22.756
561.12	22.429
561.45	23.219
561.79	23.833
562.13	23.773
562.47	22.549
562.81	23.267
563.15	22.183
563.48	23.082
563.82	21.839
564.16	22.312
564.50	22.043
564.84	23.479
565.17	23.143
565.51	22.360
565.85	23.327
566.19	22.727
566.52	22.440
566.86	22.314
567.20	23.063
567.54	22.977
567.88	22.166
568.21	22.036
568.55	22.163
568.89	21.620
569.23	21.703
569.56	21.396
569.90	22.345
570.24	21.608
570.57	21.195
570.91	21.183
571.25	21.725
571.59	20.980
571.92	21.071
572.26	20.791
572.60	20.509
572.93	20.471
573.27	20.549
573.61	20.161
573.95	20.809
574.28	19.938
574.62	20.742
574.96	20.414
575.29	20.859
575.63	20.467
575.97	19.930
576.30	20.170
576.64	20.261
576.98	19.682
577.31	20.286
577.65	20.443
577.98	20.262
578.32	19.764
578.66	20.053
578.99	20.396
579.33	20.196
579.67	20.264
580.00	19.420
580.34	20.572
580.67	20.127
581.01	19.196
581.35	20.156
581.68	19.828
582.02	20.433
582.35	19.754
582.69	20.105
583.02	20.601
583.36	20.686
583.70	20.379
584.03	20.501
584.37	20.081
584.70	20.063
585.04	20.177
585.37	19.881
585.71	20.851
586.04	20.035
586.38	19.834
586.72	20.237
587.05	20.504
587.39	20.131
587.72	20.228
588.06	19.835
588.39	20.165
588.73	21.002
589.06	20.812
589.40	21.127
589.73	20.963
590.07	20.539
590.40	21.292
590.73	20.712
591.07	20.861
591.40	22.140
591.74	21.373
592.07	20.991
592.41	20.467
592.74	20.792
593.08	21.490
593.41	20.428
593.75	19.749
594.08	21.028
594.41	21.479
594.75	20.083
595.08	20.865
595.42	21.387
595.75	20.728
596.09	20.567
596.42	21.440
596.75	21.130
597.09	21.594
597.42	21.082
597.75	20.948
598.09	21.554
598.42	20.990
598.76	20.723
599.09	20.363
599.42	20.646
599.76	20.687
600.09	21.298
600.42	20.889
600.76	20.791
601.09	20.167
601.42	20.617
601.76	21.262
602.09	21.063
602.42	20.453
602.76	20.399
603.09	20.806
603.42	20.991
603.76	20.941
604.09	21.266
604.42	20.525
604.76	20.323
605.09	21.067
605.42	20.966
605.75	19.922
606.09	20.672
606.42	19.690
606.75	20.824
607.09	21.614
607.42	20.775
607.75	20.486
608.08	21.103
608.42	20.435
608.75	20.794
609.08	20.312
609.41	21.126
609.75	20.624
610.08	21.225
610.41	20.771
610.74	21.518
611.07	21.957
611.41	20.424
611.74	21.748
612.07	21.805
612.40	21.269
612.73	21.109
613.07	20.859
613.40	21.894
613.73	21.253
614.06	21.362
614.39	21.984
614.72	20.447
615.06	21.576
615.39	21.324
615.72	21.673
616.05	20.872
616.38	21.764
616.71	21.441
617.05	22.376
617.38	22.415
617.71	20.577
618.04	21.739
618.37	21.447
618.70	22.034
619.03	22.207
619.36	22.481
619.69	22.469
620.03	21.901
620.36	22.011
620.69	22.398
621.02	21.537
621.35	22.581
621.68	22.213
622.01	23.625
622.34	21.894
622.67	21.797
623.00	22.800
623.33	22.313
623.66	21.787
623.99	22.331
624.32	21.726
624.65	22.369
624.99	22.181
625.32	21.781
625.65	22.067
625.98	22.535
626.31	23.246
626.64	22.845
626.97	23.116
627.30	23.660
627.63	21.675
627.96	22.715
628.29	22.243
628.62	23.018
628.95	23.425
629.28	22.932
629.61	22.375
629.94	23.819
630.26	23.857
630.59	23.015
630.92	23.323
631.25	23.992
