SpectraSuite Data File
++++++++++++++++++++++++++++++++++++
Date: Sat May 16 11:42:38 PDT 2015
User: schluterlab
Dark Spectrum Present: Yes
Reference Spectrum Present: Yes
Number of Sampled Component Spectra: 1
Spectrometers: USB2E3373
Integration Time (usec): 3000 (USB2E3373)
Spectra Averaged: 3 (USB2E3373)
Boxcar Smoothing: 0 (USB2E3373)
Correct for Electrical Dark: No (USB2E3373)
Strobe/Lamp Enabled: No (USB2E3373)
Correct for Detector Non-linearity: No (USB2E3373)
Correct for Stray Light: No (USB2E3373)
Number of Pixels in Processed Spectrum: 2048
>>>>>Begin Processed Spectral Data<<<<<
178.53	0.000
178.91	106.667
179.29	633.333
179.67	-1000.000
180.04	-69.231
180.42	1100.000
180.80	425.000
181.18	525.000
181.56	-62.500
181.94	1400.000
182.31	500.000
182.69	-61.538
183.07	-466.667
183.45	1400.000
183.83	566.667
184.20	-114.286
184.58	-275.000
184.96	-25.000
185.34	106.250
185.72	-575.000
186.09	300.000
186.47	-275.000
186.85	-150.000
187.23	-75.000
187.61	-300.000
187.98	-412.500
188.36	-212.500
188.74	-125.000
189.12	1800.000
189.49	342.857
189.87	-58.333
190.25	325.000
190.63	-64.286
191.00	-122.222
191.38	280.000
191.76	-26.667
192.14	360.000
192.51	-200.000
192.89	-166.667
193.27	0.000
193.65	-22.222
194.02	-257.143
194.40	433.333
194.78	-180.000
195.15	-1600.000
195.53	-54.545
195.91	-416.667
196.29	180.000
196.66	-633.333
197.04	2200.000
197.42	-225.000
197.79	-13.333
198.17	-200.000
198.55	-750.000
198.92	-1500.000
199.30	300.000
199.68	-600.000
200.05	-111.111
200.43	-133.333
200.81	-1100.000
201.18	-100.000
201.56	228.571
201.94	-73.333
202.31	22.727
202.69	-30.000
203.07	-230.000
203.44	500.000
203.82	-350.000
204.19	-350.000
204.57	-350.000
204.95	-300.000
205.32	-50.000
205.70	600.000
206.08	-2200.000
206.45	-22.222
206.83	-900.000
207.20	-500.000
207.58	-566.667
207.96	-366.667
208.33	-62.500
208.71	-66.667
209.08	140.000
209.46	-300.000
209.84	1000.000
210.21	0.000
210.59	-10.000
210.96	900.000
211.34	-216.667
211.71	133.333
212.09	575.000
212.46	1100.000
212.84	-2000.000
213.22	833.333
213.59	125.000
213.97	-33.333
214.34	190.000
214.72	-170.000
215.09	-200.000
215.47	-133.333
215.84	-70.000
216.22	-40.000
216.59	20.000
216.97	-625.000
217.34	1050.000
217.72	0.000
218.09	-233.333
218.47	-157.143
218.84	285.714
219.22	-142.857
219.59	0.000
219.97	114.286
220.34	150.000
220.72	175.000
221.09	-53.846
221.47	0.000
221.84	500.000
222.22	-1100.000
222.59	100.000
222.97	-225.000
223.34	-850.000
223.72	-333.333
224.09	-64.286
224.46	-575.000
224.84	-28.571
225.21	-142.857
225.59	-63.636
225.96	-125.000
226.34	-57.143
226.71	-77.778
227.08	-25.000
227.46	1700.000
227.83	-214.286
228.21	-212.500
228.58	-200.000
228.95	-37.500
229.33	-1900.000
229.70	-320.000
230.08	-650.000
230.45	33.333
230.82	-66.667
231.20	-1800.000
231.57	-350.000
231.95	2200.000
232.32	0.000
232.69	-55.556
233.07	-185.714
233.44	-600.000
233.81	-20.000
234.19	-211.111
234.56	-62.500
234.93	15.625
235.31	-214.286
235.68	-57.143
236.05	-29.412
236.43	-68.182
236.80	0.000
237.17	-37.500
237.55	-76.190
237.92	-54.545
238.29	-5.714
238.67	-29.412
239.04	0.000
239.41	-41.935
239.79	-46.154
240.16	-38.095
240.53	-16.364
240.91	-41.026
241.28	-9.091
241.65	3.077
242.02	-1.639
242.40	-21.311
242.77	-15.152
243.14	-37.288
243.51	-24.286
243.89	-18.987
244.26	-4.494
244.63	1.053
245.00	-11.579
245.38	8.475
245.75	-3.540
246.12	-3.200
246.49	-2.362
246.87	-15.447
247.24	-8.475
247.61	-11.017
247.98	-6.338
248.36	-10.490
248.73	-4.430
249.10	-7.643
249.47	1.170
249.84	-0.568
250.22	-7.143
250.59	-0.565
250.96	-6.283
251.33	3.318
251.70	-0.481
252.08	-1.896
252.45	-1.896
252.82	2.857
253.19	-5.106
253.56	-0.403
253.94	-2.110
254.31	0.429
254.68	-3.252
255.05	-8.065
255.42	0.794
255.79	-4.659
256.16	3.137
256.54	-1.103
256.91	-1.136
257.28	-0.366
257.65	-1.064
258.02	4.088
258.39	2.341
258.76	-3.041
259.14	0.617
259.51	4.262
259.88	1.220
260.25	2.795
260.62	0.322
260.99	0.890
261.36	3.963
261.73	1.734
262.10	3.333
262.47	-0.285
262.85	2.000
263.22	-0.573
263.59	-3.692
263.96	-2.029
264.33	0.813
264.70	3.867
265.07	-0.824
265.44	0.258
265.81	-0.517
266.18	-0.253
266.55	1.716
266.92	2.771
267.29	1.211
267.66	1.975
268.03	5.072
268.40	1.174
268.77	1.928
269.14	2.552
269.51	3.218
269.88	-0.688
270.25	0.000
270.62	2.059
270.99	0.450
271.36	-1.166
271.73	1.794
272.10	3.204
272.47	-2.000
272.84	4.222
273.21	1.835
273.58	0.879
273.95	2.851
274.32	0.226
274.69	1.532
275.06	3.067
275.43	0.000
275.80	0.611
276.17	1.464
276.54	3.666
276.91	1.646
277.28	-1.217
277.65	2.893
278.02	0.626
278.39	2.161
278.76	3.386
279.13	2.174
279.50	2.783
279.87	0.846
280.23	3.644
280.60	0.398
280.97	0.777
281.34	-0.193
281.71	2.692
282.08	2.419
282.45	-0.407
282.82	-0.581
283.19	0.727
283.56	4.212
283.92	1.590
284.29	0.929
284.66	1.079
285.03	3.922
285.40	1.292
285.77	2.281
286.14	1.444
286.51	1.066
286.87	1.089
287.24	1.024
287.61	3.140
287.98	1.560
288.35	1.157
288.72	0.679
289.08	1.017
289.45	3.030
289.82	-0.865
290.19	2.135
290.56	0.000
290.93	2.226
291.29	0.648
291.66	1.610
292.03	2.198
292.40	2.861
292.77	0.776
293.13	2.764
293.50	0.892
293.87	1.380
294.24	1.207
294.60	-0.303
294.97	3.187
295.34	-0.148
295.71	1.339
296.08	-0.922
296.44	0.000
296.81	2.849
297.18	0.282
297.55	1.554
297.91	2.789
298.28	0.959
298.65	0.558
299.02	2.273
299.38	0.802
299.75	0.136
300.12	1.410
300.48	2.430
300.85	1.048
301.22	1.940
301.59	1.691
301.95	3.023
302.32	0.000
302.69	2.448
303.05	1.099
303.42	0.250
303.79	2.512
304.15	1.422
304.52	2.100
304.89	0.472
305.25	2.442
305.62	1.645
305.99	3.180
306.35	1.887
306.72	1.253
307.09	2.611
307.45	1.930
307.82	1.453
308.19	2.349
308.55	1.525
308.92	0.859
309.29	1.081
309.65	1.485
310.02	2.052
310.38	0.973
310.75	2.357
311.12	2.686
311.48	2.818
311.85	1.854
312.22	4.119
312.58	2.340
312.95	3.670
313.31	3.197
313.68	4.121
314.05	3.462
314.41	3.018
314.78	2.298
315.14	3.356
315.51	2.938
315.87	4.163
316.24	3.790
316.61	5.374
316.97	5.274
317.34	4.721
317.70	4.545
318.07	5.317
318.43	5.712
318.80	6.761
319.16	5.253
319.53	6.673
319.89	6.773
320.26	5.882
320.62	6.442
320.99	6.965
321.35	6.502
321.72	4.913
322.08	8.704
322.45	8.218
322.81	7.493
323.18	8.453
323.54	9.519
323.91	9.175
324.27	9.125
324.64	8.867
325.00	11.082
325.37	11.674
325.73	13.211
326.10	11.337
326.46	13.398
326.83	13.617
327.19	14.012
327.56	16.099
327.92	14.528
328.29	16.104
328.65	17.636
329.01	18.728
329.38	18.109
329.74	20.421
330.11	18.767
330.47	20.254
330.84	21.082
331.20	21.300
331.56	21.240
331.93	22.025
332.29	23.744
332.66	23.529
333.02	22.805
333.38	23.208
333.75	22.796
334.11	25.333
334.48	23.213
334.84	24.934
335.20	25.089
335.57	25.000
335.93	25.783
336.29	25.332
336.66	24.670
337.02	26.757
337.38	26.203
337.75	25.637
338.11	27.370
338.47	26.779
338.84	25.862
339.20	25.835
339.56	26.827
339.93	26.102
340.29	26.218
340.65	26.049
341.02	26.644
341.38	27.043
341.74	26.418
342.11	26.365
342.47	26.438
342.83	26.952
343.20	26.473
343.56	26.286
343.92	26.544
344.28	27.250
344.65	26.568
345.01	25.966
345.37	27.326
345.73	26.023
346.10	25.511
346.46	26.483
346.82	26.784
347.19	27.116
347.55	26.485
347.91	27.874
348.27	27.765
348.63	28.918
349.00	27.128
349.36	25.371
349.72	26.990
350.08	27.827
350.45	26.084
350.81	27.150
351.17	26.608
351.53	26.094
351.89	27.890
352.26	27.829
352.62	27.419
352.98	28.877
353.34	27.178
353.70	27.259
354.07	28.009
354.43	28.221
354.79	27.734
355.15	28.035
355.51	26.875
355.87	27.747
356.24	28.118
356.60	28.848
356.96	28.560
357.32	28.266
357.68	28.046
358.04	28.099
358.40	28.152
358.77	28.362
359.13	29.151
359.49	28.647
359.85	28.811
360.21	29.452
360.57	29.142
360.93	29.630
361.29	29.223
361.66	28.811
362.02	28.550
362.38	29.934
362.74	29.304
363.10	28.910
363.46	29.558
363.82	29.665
364.18	30.680
364.54	29.878
364.90	30.119
365.26	28.459
365.62	30.007
365.98	31.294
366.35	30.704
366.71	29.387
367.07	30.910
367.43	32.533
367.79	30.378
368.15	30.654
368.51	32.098
368.87	31.868
369.23	31.579
369.59	31.736
369.95	33.051
370.31	32.068
370.67	30.730
371.03	32.799
371.39	29.844
371.75	32.117
372.11	32.425
372.47	32.538
372.83	32.823
373.19	33.071
373.55	33.146
373.91	33.001
374.27	32.649
374.63	32.367
374.99	34.492
375.35	32.705
375.71	34.976
376.07	34.086
376.42	34.040
376.78	34.706
377.14	34.441
377.50	34.494
377.86	34.915
378.22	35.553
378.58	35.207
378.94	34.834
379.30	34.308
379.66	34.851
380.02	34.225
380.38	35.710
380.74	35.111
381.09	35.032
381.45	36.516
381.81	35.451
382.17	36.216
382.53	35.623
382.89	36.962
383.25	36.123
383.61	36.733
383.97	37.416
384.32	38.486
384.68	38.150
385.04	37.440
385.40	37.492
385.76	38.171
386.12	36.914
386.48	39.233
386.83	38.466
387.19	38.733
387.55	38.462
387.91	37.878
388.27	37.515
388.62	38.101
388.98	37.916
389.34	37.944
389.70	39.160
390.06	38.658
390.42	39.359
390.77	38.738
391.13	39.627
391.49	38.989
391.85	39.027
392.20	39.867
392.56	38.852
392.92	40.559
393.28	39.437
393.64	40.830
393.99	40.062
394.35	39.903
394.71	39.284
395.07	41.055
395.42	40.346
395.78	39.912
396.14	40.997
396.50	40.367
396.85	40.592
397.21	39.307
397.57	39.878
397.92	40.984
398.28	41.222
398.64	41.166
399.00	41.629
399.35	40.361
399.71	40.534
400.07	41.254
400.42	40.876
400.78	39.833
401.14	39.521
401.49	40.979
401.85	41.611
402.21	40.584
402.57	39.806
402.92	40.780
403.28	40.135
403.63	39.185
403.99	40.584
404.35	39.312
404.70	40.023
405.06	39.908
405.42	40.467
405.77	40.102
406.13	40.034
406.49	41.222
406.84	40.132
407.20	40.459
407.55	40.849
407.91	39.443
408.27	40.870
408.62	41.431
408.98	40.752
409.34	40.219
409.69	40.958
410.05	40.631
410.40	40.159
410.76	40.605
411.11	40.711
411.47	41.176
411.83	41.198
412.18	40.099
412.54	40.024
412.89	40.826
413.25	40.378
413.60	39.733
413.96	40.912
414.31	41.284
414.67	40.444
415.03	40.298
415.38	41.379
415.74	42.268
416.09	40.153
416.45	40.542
416.80	41.938
417.16	40.664
417.51	42.351
417.87	40.712
418.22	40.834
418.58	41.335
418.93	41.263
419.29	41.343
419.64	40.829
420.00	42.163
420.35	41.218
420.71	41.236
421.06	42.071
421.42	40.808
421.77	41.988
422.12	41.466
422.48	41.261
422.83	41.401
423.19	41.481
423.54	42.997
423.90	41.932
424.25	42.025
424.61	43.245
424.96	42.481
425.31	42.929
425.67	42.063
426.02	42.169
426.38	42.529
426.73	42.490
427.09	43.137
427.44	42.273
427.79	42.384
428.15	43.148
428.50	43.167
428.85	43.885
429.21	43.221
429.56	44.010
429.92	43.086
430.27	43.121
430.62	43.835
430.98	42.603
431.33	43.917
431.68	44.343
432.04	44.600
432.39	44.274
432.74	43.825
433.10	44.626
433.45	43.235
433.80	44.065
434.16	44.331
434.51	44.712
434.86	44.991
435.22	44.599
435.57	45.410
435.92	44.607
436.28	44.273
436.63	45.280
436.98	43.814
437.34	44.832
437.69	43.932
438.04	44.470
438.39	45.187
438.75	45.693
439.10	45.919
439.45	45.202
439.81	44.337
440.16	45.315
440.51	45.588
440.86	45.922
441.22	44.002
441.57	45.474
441.92	44.910
442.27	45.942
442.63	45.762
442.98	45.316
443.33	45.964
443.68	45.805
444.03	44.941
444.39	46.304
444.74	46.806
445.09	45.724
445.44	46.820
445.79	46.456
446.15	46.276
446.50	46.162
446.85	46.485
447.20	46.016
447.55	46.188
447.91	46.828
448.26	45.642
448.61	46.520
448.96	47.059
449.31	46.392
449.66	46.308
450.02	45.540
450.37	46.203
450.72	46.384
451.07	48.272
451.42	45.539
451.77	47.636
452.12	47.139
452.47	45.781
452.83	47.408
453.18	47.249
453.53	48.197
453.88	48.505
454.23	46.735
454.58	48.415
454.93	46.851
455.28	47.482
455.63	47.973
455.98	47.289
456.34	46.379
456.69	47.780
457.04	47.572
457.39	47.368
457.74	47.608
458.09	47.854
458.44	47.921
458.79	47.141
459.14	47.747
459.49	49.497
459.84	47.836
460.19	47.673
460.54	47.731
460.89	48.374
461.24	48.634
461.59	47.421
461.94	47.868
462.29	47.290
462.64	48.814
462.99	49.465
463.34	48.278
463.69	48.410
464.04	48.096
464.39	48.088
464.74	47.340
465.09	47.384
465.44	48.449
465.79	47.265
466.14	48.562
466.49	48.014
466.84	48.800
467.19	49.127
467.54	47.848
467.89	48.829
468.24	47.743
468.59	47.908
468.94	48.553
469.29	48.343
469.64	48.989
469.99	50.034
470.34	49.967
470.68	49.419
471.03	50.585
471.38	48.958
471.73	50.070
472.08	47.657
472.43	48.970
472.78	49.400
473.13	48.509
473.48	49.011
473.83	48.139
474.17	48.662
474.52	50.959
474.87	48.660
475.22	48.083
475.57	48.778
475.92	49.028
476.27	48.743
476.61	48.338
476.96	48.295
477.31	48.439
477.66	49.253
478.01	48.514
478.36	48.559
478.70	48.425
479.05	49.162
479.40	49.689
479.75	48.828
480.10	48.512
480.45	48.501
480.79	49.605
481.14	49.523
481.49	49.564
481.84	48.128
482.19	49.566
482.53	50.237
482.88	49.692
483.23	48.592
483.58	50.370
483.92	49.928
484.27	48.782
484.62	49.158
484.97	48.090
485.31	47.648
485.66	46.836
486.01	47.206
486.36	48.655
486.70	49.877
487.05	48.918
487.40	47.970
487.75	48.372
488.09	48.425
488.44	48.241
488.79	48.391
489.13	49.106
489.48	50.571
489.83	49.432
490.17	48.977
490.52	50.498
490.87	48.822
491.22	49.043
491.56	49.444
491.91	50.000
492.26	49.245
492.60	50.190
492.95	49.881
493.30	49.833
493.64	49.600
493.99	49.570
494.34	48.762
494.68	50.047
495.03	49.379
495.37	50.246
495.72	50.049
496.07	49.789
496.41	50.116
496.76	49.635
497.11	50.683
497.45	50.431
497.80	51.576
498.14	50.786
498.49	50.427
498.84	49.612
499.18	49.366
499.53	50.024
499.87	50.820
500.22	50.294
500.56	50.675
500.91	49.901
501.26	49.636
501.60	49.446
501.95	51.304
502.29	49.740
502.64	50.778
502.98	49.976
503.33	49.530
503.67	50.670
504.02	50.555
504.36	50.441
504.71	50.355
505.06	50.075
505.40	50.250
505.75	51.423
506.09	51.466
506.44	51.579
506.78	51.229
507.13	50.927
507.47	52.165
507.82	50.594
508.16	51.088
508.51	51.108
508.85	51.346
509.19	50.445
509.54	50.264
509.88	50.532
510.23	50.472
510.57	52.116
510.92	53.115
511.26	50.558
511.61	49.460
511.95	51.239
512.30	51.512
512.64	50.696
512.98	52.310
513.33	51.345
513.67	51.647
514.02	51.510
514.36	50.803
514.70	51.273
515.05	52.144
515.39	52.249
515.74	53.054
516.08	51.988
516.42	51.898
516.77	53.322
517.11	52.403
517.46	53.289
517.80	53.610
518.14	53.382
518.49	53.855
518.83	52.760
519.17	52.102
519.52	52.458
519.86	54.241
520.20	54.340
520.55	52.185
520.89	53.162
521.23	54.274
521.58	53.041
521.92	54.275
522.26	53.333
522.61	54.499
522.95	52.265
523.29	52.978
523.64	52.467
523.98	53.978
524.32	53.614
524.66	52.484
525.01	53.051
525.35	54.059
525.69	52.700
526.04	54.373
526.38	55.060
526.72	53.129
527.06	54.036
527.41	53.531
527.75	53.993
528.09	54.666
528.43	54.492
528.78	54.146
529.12	54.289
529.46	54.639
529.80	54.551
530.15	55.184
530.49	54.916
530.83	55.206
531.17	53.401
531.51	53.583
531.86	54.378
532.20	53.104
532.54	53.610
532.88	53.953
533.22	54.612
533.57	53.329
533.91	52.622
534.25	53.488
534.59	53.467
534.93	53.578
535.27	54.437
535.62	54.540
535.96	53.458
536.30	52.291
536.64	52.125
536.98	55.579
537.32	54.112
537.66	53.564
538.01	53.677
538.35	54.527
538.69	54.278
539.03	53.013
539.37	54.025
539.71	54.770
540.05	54.969
540.39	53.947
540.73	54.527
541.07	55.806
541.42	53.477
541.76	51.429
542.10	54.490
542.44	53.098
542.78	54.342
543.12	54.447
543.46	53.356
543.80	52.977
544.14	53.190
544.48	54.134
544.82	54.465
545.16	54.594
545.50	52.894
545.84	54.798
546.18	53.814
546.52	54.552
546.86	55.199
547.20	54.430
547.54	52.548
547.88	53.484
548.22	52.621
548.56	54.175
548.90	53.504
549.24	54.380
549.58	54.128
549.92	55.689
550.26	53.902
550.60	53.272
550.94	53.358
551.28	55.079
551.62	53.028
551.96	53.256
552.30	53.659
552.64	55.172
552.98	54.730
553.32	54.762
553.66	54.939
554.00	54.087
554.34	54.079
554.68	53.289
555.02	54.848
555.36	54.277
555.69	54.728
556.03	54.807
556.37	55.121
556.71	54.545
557.05	56.245
557.39	53.081
557.73	53.902
558.07	55.463
558.41	55.198
558.75	55.133
559.08	55.175
559.42	55.590
559.76	54.601
560.10	54.661
560.44	54.986
560.78	54.697
561.12	53.554
561.45	53.493
561.79	53.659
562.13	54.628
562.47	54.552
562.81	52.900
563.15	53.534
563.48	54.665
563.82	54.564
564.16	54.767
564.50	54.637
564.84	53.108
565.17	53.647
565.51	54.759
565.85	55.849
566.19	54.809
566.52	54.468
566.86	52.781
567.20	54.298
567.54	54.578
567.88	52.094
568.21	53.356
568.55	53.765
568.89	52.883
569.23	52.846
569.56	51.660
569.90	51.731
570.24	52.800
570.57	50.685
570.91	50.901
571.25	50.649
571.59	51.296
571.92	50.536
572.26	50.270
572.60	50.419
572.93	49.706
573.27	50.274
573.61	49.756
573.95	50.266
574.28	50.078
574.62	50.585
574.96	49.377
575.29	49.593
575.63	50.438
575.97	49.865
576.30	49.027
576.64	50.418
576.98	49.366
577.31	49.893
577.65	49.743
577.98	49.346
578.32	49.905
578.66	49.834
578.99	49.678
579.33	49.485
579.67	49.556
580.00	49.851
580.34	50.171
580.67	49.645
581.01	48.332
581.35	49.632
581.68	49.332
582.02	49.697
582.35	49.764
582.69	50.815
583.02	51.127
583.36	50.238
583.70	49.565
584.03	50.700
584.37	50.582
584.70	50.225
585.04	50.228
585.37	49.690
585.71	49.927
586.04	50.861
586.38	50.174
586.72	49.887
587.05	50.467
587.39	50.970
587.72	50.836
588.06	51.169
588.39	50.783
588.73	51.599
589.06	50.831
589.40	51.804
589.73	51.452
590.07	50.765
590.40	50.923
590.73	52.139
591.07	51.066
591.40	52.513
591.74	51.651
592.07	51.982
592.41	51.253
592.74	51.537
593.08	50.704
593.41	50.625
593.75	50.874
594.08	51.905
594.41	52.348
594.75	51.189
595.08	51.541
595.42	51.842
595.75	50.386
596.09	51.921
596.42	51.678
596.75	52.178
597.09	51.915
597.42	52.248
597.75	50.930
598.09	51.514
598.42	50.552
598.76	50.789
599.09	50.237
599.42	50.557
599.76	51.189
600.09	51.908
600.42	51.348
600.76	51.789
601.09	51.348
601.42	51.484
601.76	50.701
602.09	51.247
602.42	51.728
602.76	51.350
603.09	51.573
603.42	50.685
603.76	52.294
604.09	51.822
604.42	51.332
604.76	52.551
605.09	51.356
605.42	52.704
605.75	51.488
606.09	51.183
606.42	50.984
606.75	51.481
607.09	52.007
607.42	51.408
607.75	50.728
608.08	52.282
608.42	51.608
608.75	50.514
609.08	50.999
609.41	51.918
609.75	51.487
610.08	51.667
610.41	52.048
610.74	53.095
611.07	52.383
611.41	50.580
611.74	52.442
612.07	53.759
612.40	51.493
612.73	51.912
613.07	52.394
613.40	53.202
613.73	52.425
614.06	51.345
614.39	53.382
614.72	51.955
615.06	51.141
615.39	51.221
615.72	52.580
616.05	51.739
616.38	53.163
616.71	52.673
617.05	52.654
617.38	54.427
617.71	53.010
618.04	53.416
618.37	53.333
618.70	53.585
619.03	53.555
619.36	53.347
619.69	54.559
620.03	52.755
620.36	52.883
620.69	54.128
621.02	53.729
621.35	55.323
621.68	54.016
622.01	53.803
622.34	53.882
622.67	53.750
623.00	54.093
623.33	53.060
623.66	52.659
623.99	54.361
624.32	53.497
624.65	52.907
624.99	53.771
625.32	52.919
625.65	54.545
625.98	53.052
626.31	54.405
626.64	54.393
626.97	52.740
627.30	55.745
627.63	53.972
627.96	54.743
628.29	54.688
628.62	54.346
628.95	55.906
629.28	54.981
629.61	55.054
629.94	54.159
630.26	54.871
630.59	56.884
630.92	54.555
631.25	54.839
631.58	55.132
631.91	55.851
632.24	56.778
632.57	55.444
632.90	55.862
633.23	55.374
633.56	54.971
633.89	57.311
634.22	56.080
634.55	56.010
634.88	55.381
