SpectraSuite Data File
++++++++++++++++++++++++++++++++++++
Date: Sat May 16 11:12:11 PDT 2015
User: schluterlab
Dark Spectrum Present: Yes
Reference Spectrum Present: Yes
Number of Sampled Component Spectra: 1
Spectrometers: USB2E3373
Integration Time (usec): 3000 (USB2E3373)
Spectra Averaged: 3 (USB2E3373)
Boxcar Smoothing: 0 (USB2E3373)
Correct for Electrical Dark: No (USB2E3373)
Strobe/Lamp Enabled: No (USB2E3373)
Correct for Detector Non-linearity: No (USB2E3373)
Correct for Stray Light: No (USB2E3373)
Number of Pixels in Processed Spectrum: 2048
>>>>>Begin Processed Spectral Data<<<<<
178.53	0.000
178.91	26.667
179.29	300.000
179.67	-1000.000
180.04	61.538
180.42	200.000
180.80	275.000
181.18	25.000
181.56	-125.000
181.94	200.000
182.31	300.000
182.69	23.077
183.07	-133.333
183.45	1300.000
183.83	466.667
184.20	14.286
184.58	-100.000
184.96	-100.000
185.34	100.000
185.72	-375.000
186.09	33.333
186.47	-75.000
186.85	-87.500
187.23	62.500
187.61	-50.000
187.98	-150.000
188.36	25.000
188.74	-112.500
189.12	1000.000
189.49	171.429
189.87	33.333
190.25	-75.000
190.63	-14.286
191.00	33.333
191.38	60.000
191.76	13.333
192.14	200.000
192.51	-80.000
192.89	33.333
193.27	0.000
193.65	-55.556
194.02	-214.286
194.40	533.333
194.78	30.000
195.15	-400.000
195.53	-36.364
195.91	-316.667
196.29	-80.000
196.66	-333.333
197.04	1300.000
197.42	50.000
197.79	73.333
198.17	166.667
198.55	-700.000
198.92	-400.000
199.30	125.000
199.68	-250.000
200.05	-88.889
200.43	-55.556
200.81	0.000
201.18	-83.333
201.56	85.714
201.94	-20.000
202.31	68.182
202.69	100.000
203.07	40.000
203.44	333.333
203.82	-216.667
204.19	-100.000
204.57	175.000
204.95	100.000
205.32	18.750
205.70	1000.000
206.08	-300.000
206.45	-5.556
206.83	0.000
207.20	100.000
207.58	-233.333
207.96	-33.333
208.33	50.000
208.71	-77.778
209.08	110.000
209.46	14.286
209.84	300.000
210.21	0.000
210.59	90.000
210.96	-200.000
211.34	-100.000
211.71	-666.667
212.09	150.000
212.46	150.000
212.84	-500.000
213.22	100.000
213.59	25.000
213.97	55.556
214.34	100.000
214.72	-130.000
215.09	-366.667
215.47	33.333
215.84	-120.000
216.22	70.000
216.59	113.333
216.97	-150.000
217.34	400.000
217.72	-85.714
218.09	-116.667
218.47	-71.429
218.84	57.143
219.22	71.429
219.59	0.000
219.97	114.286
220.34	325.000
220.72	112.500
221.09	7.692
221.47	0.000
221.84	-166.667
222.22	-50.000
222.59	800.000
222.97	-112.500
223.34	50.000
223.72	-400.000
224.09	14.286
224.46	-175.000
224.84	-21.429
225.21	-114.286
225.59	18.182
225.96	-37.500
226.34	0.000
226.71	-188.889
227.08	20.000
227.46	1500.000
227.83	57.143
228.21	-50.000
228.58	-300.000
228.95	56.250
229.33	-1100.000
229.70	-200.000
230.08	-250.000
230.45	-16.667
230.82	-50.000
231.20	-400.000
231.57	-200.000
231.95	900.000
232.32	47.619
232.69	66.667
233.07	-71.429
233.44	-150.000
233.81	-60.000
234.19	0.000
234.56	75.000
234.93	75.000
235.31	-14.286
235.68	-92.857
236.05	-35.294
236.43	-31.818
236.80	-12.903
237.17	41.667
237.55	0.000
237.92	9.091
238.29	22.857
238.67	29.412
239.04	41.667
239.41	6.452
239.79	-10.256
240.16	-9.524
240.53	-3.636
240.91	15.385
241.28	38.182
241.65	21.538
242.02	22.951
242.40	19.672
242.77	10.606
243.14	23.729
243.51	15.714
243.89	20.253
244.26	30.337
244.63	28.421
245.00	21.053
245.38	21.186
245.75	38.938
246.12	28.000
246.49	29.921
246.87	28.455
247.24	14.407
247.61	18.644
247.98	18.310
248.36	20.280
248.73	32.911
249.10	21.019
249.47	23.392
249.84	23.295
250.22	16.667
250.59	24.859
250.96	25.131
251.33	27.962
251.70	22.115
252.08	18.483
252.45	23.697
252.82	16.190
253.19	28.085
253.56	19.355
253.94	19.831
254.31	22.747
254.68	23.171
255.05	17.742
255.42	22.619
255.79	21.147
256.16	24.706
256.54	20.956
256.91	19.697
257.28	17.949
257.65	22.695
258.02	25.786
258.39	24.080
258.76	20.608
259.14	21.914
259.51	21.639
259.88	22.256
260.25	22.981
260.62	22.830
260.99	23.442
261.36	22.561
261.73	23.699
262.10	23.333
262.47	19.943
262.85	26.000
263.22	23.209
263.59	20.308
263.96	21.159
264.33	23.848
264.70	24.033
265.07	23.352
265.44	20.672
265.81	19.897
266.18	21.772
266.55	19.608
266.92	22.922
267.29	24.213
267.66	21.235
268.03	23.430
268.40	22.535
268.77	20.482
269.14	17.633
269.51	22.069
269.88	18.349
270.25	19.114
270.62	19.680
270.99	21.622
271.36	20.280
271.73	19.507
272.10	21.510
272.47	21.333
272.84	22.000
273.21	21.560
273.58	19.560
273.95	22.807
274.32	22.398
274.69	22.976
275.06	21.063
275.43	19.866
275.80	21.792
276.17	20.084
276.54	22.811
276.91	22.428
277.28	21.298
277.65	21.488
278.02	22.756
278.39	18.664
278.76	18.127
279.13	22.727
279.50	21.272
279.87	20.296
280.23	23.482
280.60	19.483
280.97	20.583
281.34	17.988
281.71	20.769
282.08	21.976
282.45	18.330
282.82	19.380
283.19	19.636
283.56	22.527
283.92	21.201
284.29	18.587
284.66	21.043
285.03	20.677
285.40	20.111
285.77	20.702
286.14	21.300
286.51	20.249
286.87	20.690
287.24	20.137
287.61	21.653
287.98	16.984
288.35	19.339
288.72	17.657
289.08	19.661
289.45	19.192
289.82	19.896
290.19	21.182
290.56	16.860
290.93	19.396
291.29	19.287
291.66	20.129
292.03	19.152
292.40	19.127
292.77	19.099
293.13	18.211
293.50	18.128
293.87	18.865
294.24	20.060
294.60	16.515
294.97	19.423
295.34	17.926
295.71	19.345
296.08	17.512
296.44	16.166
296.81	17.521
297.18	15.775
297.55	19.350
297.91	19.805
298.28	18.493
298.65	19.526
299.02	18.984
299.38	17.246
299.75	17.255
300.12	18.205
300.48	17.647
300.85	17.562
301.22	18.499
301.59	16.515
301.95	18.640
302.32	17.601
302.69	17.258
303.05	16.972
303.42	17.625
303.79	16.866
304.15	17.891
304.52	17.970
304.89	16.647
305.25	16.606
305.62	17.509
305.99	17.550
306.35	18.091
306.72	16.173
307.09	19.069
307.45	18.275
307.82	18.436
308.19	17.338
308.55	17.865
308.92	18.904
309.29	17.189
309.65	19.406
310.02	19.330
310.38	19.027
310.75	19.980
311.12	21.178
311.48	20.668
311.85	20.288
312.22	19.773
312.58	22.075
312.95	20.082
313.31	22.078
313.68	21.307
314.05	23.244
314.41	21.227
314.78	20.280
315.14	23.791
315.51	22.695
315.87	24.298
316.24	23.518
316.61	25.048
316.97	25.572
317.34	24.759
317.70	24.119
318.07	25.000
318.43	25.281
318.80	28.357
319.16	25.891
319.53	25.564
319.89	25.682
320.26	27.549
320.62	27.404
320.99	27.861
321.35	27.685
321.72	28.557
322.08	27.992
322.45	29.307
322.81	29.971
323.18	30.644
323.54	30.222
323.91	31.881
324.27	33.270
324.64	32.998
325.00	32.199
325.37	34.208
325.73	36.483
326.10	34.012
326.46	36.690
326.83	37.872
327.19	38.616
327.56	38.756
327.92	38.573
328.29	40.173
328.65	40.000
329.01	41.608
329.38	41.124
329.74	43.498
330.11	42.792
330.47	44.414
330.84	43.813
331.20	44.404
331.56	46.035
331.93	45.915
332.29	47.306
332.66	45.742
333.02	45.611
333.38	47.043
333.75	45.770
334.11	47.822
334.48	47.396
334.84	48.381
335.20	45.745
335.57	50.632
335.93	51.656
336.29	47.476
336.66	48.811
337.02	49.099
337.38	48.841
337.75	50.132
338.11	49.732
338.47	50.356
338.84	50.998
339.20	48.946
339.56	50.980
339.93	50.705
340.29	48.981
340.65	50.262
341.02	49.831
341.38	48.526
341.74	48.688
342.11	50.768
342.47	49.270
342.83	49.622
343.20	50.043
343.56	48.245
343.92	49.917
344.28	50.463
344.65	49.835
345.01	50.252
345.37	50.166
345.73	49.100
346.10	49.550
346.46	49.553
346.82	50.040
347.19	49.630
347.55	48.475
347.91	49.685
348.27	49.085
348.63	48.788
349.00	50.040
349.36	48.009
349.72	50.876
350.08	50.200
350.45	48.463
350.81	49.682
351.17	50.643
351.53	47.971
351.89	49.232
352.26	48.760
352.62	49.693
352.98	49.604
353.34	49.800
353.70	48.417
354.07	49.803
354.43	49.170
354.79	50.396
355.15	50.799
355.51	49.687
355.87	49.328
356.24	50.040
356.60	51.168
356.96	48.884
357.32	49.644
357.68	49.425
358.04	48.653
358.40	49.961
358.77	49.923
359.13	49.197
359.49	49.660
359.85	49.390
360.21	49.772
360.57	49.322
360.93	49.556
361.29	51.121
361.66	48.933
362.02	49.038
362.38	49.450
362.74	51.062
363.10	48.565
363.46	50.285
363.82	48.907
364.18	50.724
364.54	50.679
364.90	50.035
365.26	49.429
365.62	50.535
365.98	49.573
366.35	49.366
366.71	48.908
367.07	48.765
367.43	50.172
367.79	49.759
368.15	49.075
368.51	49.930
368.87	51.236
369.23	49.544
369.59	49.028
369.95	49.753
370.31	49.015
370.67	49.313
371.03	49.927
371.39	49.151
371.75	51.144
372.11	50.574
372.47	50.036
372.83	51.321
373.19	50.071
373.55	50.598
373.91	50.640
374.27	50.376
374.63	50.173
374.99	51.947
375.35	51.413
375.71	51.317
376.07	50.992
376.42	49.603
376.78	51.895
377.14	52.610
377.50	51.838
377.86	51.105
378.22	50.754
378.58	52.007
378.94	51.726
379.30	51.554
379.66	50.455
380.02	50.624
380.38	51.178
380.74	51.465
381.09	51.318
381.45	52.088
381.81	52.027
382.17	52.068
382.53	51.611
382.89	52.452
383.25	53.161
383.61	52.005
383.97	52.051
384.32	52.315
384.68	53.507
385.04	52.355
385.40	52.039
385.76	52.988
386.12	53.217
386.48	53.589
386.83	53.252
387.19	53.497
387.55	52.514
387.91	52.460
388.27	50.965
388.62	51.923
388.98	52.029
389.34	52.938
389.70	52.923
390.06	52.704
390.42	54.103
390.77	53.123
391.13	53.727
391.49	53.088
391.85	53.180
392.20	53.398
392.56	52.718
392.92	53.052
393.28	52.641
393.64	53.397
393.99	53.415
394.35	53.528
394.71	52.316
395.07	53.798
395.42	51.907
395.78	52.357
396.14	54.517
396.50	52.722
396.85	53.177
397.21	53.220
397.57	53.556
397.92	53.923
398.28	53.889
398.64	53.718
399.00	53.820
399.35	53.044
399.71	53.833
400.07	52.836
400.42	53.406
400.78	52.236
401.14	53.353
401.49	53.125
401.85	54.606
402.21	53.516
402.57	53.155
402.92	53.996
403.28	53.922
403.63	51.468
403.99	53.014
404.35	53.019
404.70	53.130
405.06	52.941
405.42	52.030
405.77	52.149
406.13	52.981
406.49	53.745
406.84	54.589
407.20	54.005
407.55	53.072
407.91	52.267
408.27	53.186
408.62	52.676
408.98	53.972
409.34	53.016
409.69	51.985
410.05	52.941
410.40	53.219
410.76	52.697
411.11	53.616
411.47	53.261
411.83	52.873
412.18	54.146
412.54	52.837
412.89	54.253
413.25	53.188
413.60	53.220
413.96	52.988
414.31	54.067
414.67	53.079
415.03	53.493
415.38	54.457
415.74	53.866
416.09	53.772
416.45	52.381
416.80	54.356
417.16	54.551
417.51	54.235
417.87	54.563
418.22	55.373
418.58	53.530
418.93	54.690
419.29	53.827
419.64	54.334
420.00	54.982
420.35	55.056
420.71	56.723
421.06	56.036
421.42	56.206
421.77	57.510
422.12	56.519
422.48	56.013
422.83	56.093
423.19	56.403
423.54	55.216
423.90	56.333
424.25	56.448
424.61	57.841
424.96	58.631
425.31	58.692
425.67	57.593
426.02	57.085
426.38	58.621
426.73	58.095
427.09	59.681
427.44	58.580
427.79	59.360
428.15	60.263
428.50	60.293
428.85	59.412
429.21	60.266
429.56	60.312
429.92	59.068
430.27	59.172
430.62	60.763
430.98	59.801
431.33	61.046
431.68	60.268
432.04	61.332
432.39	60.228
432.74	61.571
433.10	60.777
433.45	61.082
433.80	61.814
434.16	62.225
434.51	62.630
434.86	62.507
435.22	62.973
435.57	63.280
435.92	63.189
436.28	62.077
436.63	63.030
436.98	62.314
437.34	63.320
437.69	64.411
438.04	64.152
438.39	64.681
438.75	63.329
439.10	62.798
439.45	64.393
439.81	65.181
440.16	64.509
440.51	64.412
440.86	65.587
441.22	64.677
441.57	65.105
441.92	65.320
442.27	65.639
442.63	66.577
442.98	64.786
443.33	65.513
443.68	65.503
444.03	65.521
444.39	66.128
444.74	66.520
445.09	67.215
445.44	67.023
445.79	67.364
446.15	66.484
446.50	65.433
446.85	65.213
447.20	66.190
447.55	66.740
447.91	68.220
448.26	67.989
448.61	67.289
448.96	67.787
449.31	66.685
449.66	68.746
450.02	66.648
450.37	67.014
450.72	67.345
451.07	69.390
451.42	68.340
451.77	68.761
452.12	69.607
452.47	68.388
452.83	68.608
453.18	69.133
453.53	68.159
453.88	68.720
454.23	69.347
454.58	69.857
454.93	69.018
455.28	68.579
455.63	69.902
455.98	69.759
456.34	67.598
456.69	69.293
457.04	69.883
457.39	68.600
457.74	69.226
458.09	69.026
458.44	70.323
458.79	70.628
459.14	70.165
459.49	69.331
459.84	69.646
460.19	69.212
460.54	69.994
460.89	70.516
461.24	69.885
461.59	71.278
461.94	71.101
462.29	70.399
462.64	71.673
462.99	71.954
463.34	70.695
463.69	71.947
464.04	69.420
464.39	70.908
464.74	70.863
465.09	69.272
465.44	71.404
465.79	71.348
466.14	71.692
466.49	70.581
466.84	70.948
467.19	72.880
467.54	70.443
467.89	71.702
468.24	70.784
468.59	71.955
468.94	73.119
469.29	71.540
469.64	72.035
469.99	72.789
470.34	72.879
470.68	73.547
471.03	71.920
471.38	72.292
471.73	74.196
472.08	74.096
472.43	71.879
472.78	72.667
473.13	72.366
473.48	73.197
473.83	73.263
474.17	73.567
474.52	74.361
474.87	71.270
475.22	74.218
475.57	73.056
475.92	72.246
476.27	72.000
476.61	73.296
476.96	73.449
477.31	73.628
477.66	73.658
478.01	74.392
478.36	72.499
478.70	74.907
479.05	73.878
479.40	72.902
479.75	72.885
480.10	73.214
480.45	72.727
480.79	74.975
481.14	75.715
481.49	74.734
481.84	72.584
482.19	72.636
482.53	73.390
482.88	72.283
483.23	73.286
483.58	73.636
483.92	74.439
484.27	73.416
484.62	73.391
484.97	73.266
485.31	73.344
485.66	71.802
486.01	71.710
486.36	72.036
486.70	74.035
487.05	72.805
487.40	72.783
487.75	72.347
488.09	71.093
488.44	72.057
488.79	71.843
489.13	72.347
489.48	72.349
489.83	75.066
490.17	72.921
490.52	75.408
490.87	74.873
491.22	74.591
491.56	74.306
491.91	74.714
492.26	75.377
492.60	75.880
492.95	74.346
493.30	74.369
493.64	73.625
493.99	74.665
494.34	74.571
494.68	74.485
495.03	74.474
495.37	76.106
495.72	75.933
496.07	75.504
496.41	75.405
496.76	75.662
497.11	75.742
497.45	75.048
497.80	74.837
498.14	75.049
498.49	75.439
498.84	74.272
499.18	75.634
499.53	74.866
499.87	74.759
500.22	74.608
500.56	75.238
500.91	75.419
501.26	75.158
501.60	75.108
501.95	76.087
502.29	75.248
502.64	74.493
502.98	75.276
503.33	73.872
503.67	74.569
504.02	74.746
504.36	74.020
504.71	74.823
505.06	74.089
505.40	76.198
505.75	75.610
506.09	75.329
506.44	74.987
506.78	76.016
507.13	74.150
507.47	75.430
507.82	76.252
508.16	75.440
508.51	75.167
508.85	75.155
509.19	76.033
509.54	75.106
509.88	75.957
510.23	74.948
510.57	75.820
510.92	76.316
511.26	73.791
511.61	75.324
511.95	74.623
512.30	76.745
512.64	74.736
512.98	74.917
513.33	74.574
513.67	75.154
514.02	75.056
514.36	75.180
514.70	74.590
515.05	76.444
515.39	76.182
515.74	76.440
516.08	74.755
516.42	74.164
516.77	76.892
517.11	76.373
517.46	77.033
517.80	75.632
518.14	75.664
518.49	75.912
518.83	75.846
519.17	75.370
519.52	76.460
519.86	75.687
520.20	75.672
520.55	75.323
520.89	75.141
521.23	74.603
521.58	75.047
521.92	76.631
522.26	75.365
522.61	73.701
522.95	75.367
523.29	75.486
523.64	73.954
523.98	75.939
524.32	75.487
524.66	73.665
525.01	74.952
525.35	74.613
525.69	73.845
526.04	75.914
526.38	75.557
526.72	73.308
527.06	76.302
527.41	74.719
527.75	73.993
528.09	74.719
528.43	75.213
528.78	72.927
529.12	74.584
529.46	74.678
529.80	74.887
530.15	72.891
530.49	74.127
530.83	73.739
531.17	74.545
531.51	73.007
531.86	73.074
532.20	75.371
532.54	74.265
532.88	73.518
533.22	74.465
533.57	74.804
533.91	71.473
534.25	73.036
534.59	72.642
534.93	72.433
535.27	72.813
535.62	72.954
535.96	72.657
536.30	71.793
536.64	72.377
536.98	76.766
537.32	72.633
537.66	73.320
538.01	75.670
538.35	73.919
538.69	73.463
539.03	72.986
539.37	73.253
539.71	73.916
540.05	73.269
540.39	72.576
540.73	72.633
541.07	74.249
541.42	72.316
541.76	70.831
542.10	72.721
542.44	71.619
542.78	72.388
543.12	72.641
543.46	70.959
543.80	72.107
544.14	71.726
544.48	71.850
544.82	71.922
545.16	72.233
545.50	72.207
545.84	73.435
546.18	72.677
546.52	72.119
546.86	72.650
547.20	71.519
547.54	70.592
547.88	72.130
548.22	71.298
548.56	73.013
548.90	71.024
549.24	71.409
549.58	70.289
549.92	72.226
550.26	72.254
550.60	70.982
550.94	70.949
551.28	72.235
551.62	71.196
551.96	71.708
552.30	70.383
552.64	71.780
552.98	72.810
553.32	70.779
553.66	73.324
554.00	71.500
554.34	72.491
554.68	70.468
555.02	70.912
555.36	71.100
555.69	71.060
556.03	70.596
556.37	70.057
556.71	72.513
557.05	72.506
557.39	70.304
557.73	70.168
558.07	71.289
558.41	71.204
558.75	69.202
559.08	71.206
559.42	71.669
559.76	70.475
560.10	71.066
560.44	71.965
560.78	70.424
561.12	71.636
561.45	70.753
561.79	70.662
562.13	69.565
562.47	69.188
562.81	70.651
563.15	69.209
563.48	69.178
563.82	70.723
564.16	68.966
564.50	69.086
564.84	69.511
565.17	70.690
565.51	69.948
565.85	69.574
566.19	69.895
566.52	69.863
566.86	69.785
567.20	70.036
567.54	70.230
567.88	67.337
568.21	69.351
568.55	69.459
568.89	67.893
569.23	67.006
569.56	68.012
569.90	67.585
570.24	67.118
570.57	66.116
570.91	65.488
571.25	65.175
571.59	65.782
571.92	64.137
572.26	64.679
572.60	64.164
572.93	63.890
573.27	64.390
573.61	63.321
573.95	64.529
574.28	63.283
574.62	64.464
574.96	63.086
575.29	63.389
575.63	62.994
575.97	63.511
576.30	63.223
576.64	63.551
576.98	63.250
577.31	63.147
577.65	63.677
577.98	62.881
578.32	63.229
578.66	63.166
578.99	62.861
579.33	62.924
579.67	62.592
580.00	62.773
580.34	62.696
580.67	62.932
581.01	62.637
581.35	62.487
581.68	62.729
582.02	62.879
582.35	62.663
582.69	63.111
583.02	63.815
583.36	62.846
583.70	62.007
584.03	62.850
584.37	62.300
584.70	62.913
585.04	62.962
585.37	61.360
585.71	62.313
586.04	62.943
586.38	62.711
586.72	62.514
587.05	63.495
587.39	62.879
587.72	62.888
588.06	62.669
588.39	63.429
588.73	62.613
589.06	63.811
589.40	64.033
589.73	62.288
590.07	63.620
590.40	63.616
590.73	64.134
591.07	61.967
591.40	64.081
591.74	64.553
592.07	65.270
592.41	64.671
592.74	64.835
593.08	64.161
593.41	63.224
593.75	62.282
594.08	64.306
594.41	64.030
594.75	63.458
595.08	63.759
595.42	64.342
595.75	62.955
596.09	63.795
596.42	64.116
596.75	63.648
597.09	64.025
597.42	63.204
597.75	63.685
598.09	64.257
598.42	63.500
598.76	63.621
599.09	63.615
599.42	63.706
599.76	63.231
600.09	64.351
600.42	64.071
600.76	63.879
601.09	63.046
601.42	63.197
601.76	63.318
602.09	62.904
602.42	63.374
602.76	63.025
603.09	63.024
603.42	63.699
603.76	63.542
604.09	63.556
604.42	63.947
604.76	63.716
605.09	64.286
605.42	64.583
605.75	64.338
606.09	62.931
606.42	63.385
606.75	63.117
607.09	63.564
607.42	63.864
607.75	63.576
608.08	63.940
608.42	64.286
608.75	62.944
609.08	63.517
609.41	64.425
609.75	62.457
610.08	64.559
610.41	63.614
610.74	64.120
611.07	64.503
611.41	62.632
611.74	64.422
612.07	64.662
612.40	64.072
612.73	63.328
613.07	64.942
613.40	63.930
613.73	63.324
614.06	64.141
614.39	65.051
614.72	64.022
615.06	63.750
615.39	62.941
615.72	64.422
616.05	63.777
616.38	65.467
616.71	63.784
617.05	64.294
617.38	65.387
617.71	65.172
618.04	64.224
618.37	65.031
618.70	66.558
619.03	64.590
619.36	65.751
619.69	65.973
620.03	64.945
620.36	65.682
620.69	66.691
621.02	64.155
621.35	66.290
621.68	66.803
622.01	68.042
622.34	66.770
622.67	65.078
623.00	65.876
623.33	66.567
623.66	66.396
623.99	66.391
624.32	65.699
624.65	66.519
624.99	67.214
625.32	66.018
625.65	67.754
625.98	65.336
626.31	67.700
626.64	67.113
626.97	64.041
627.30	65.532
627.63	65.889
627.96	67.189
628.29	68.107
628.62	65.234
628.95	69.685
629.28	66.353
629.61	67.517
629.94	68.998
630.26	67.396
630.59	70.854
630.92	66.667
631.25	67.238
631.58	69.206
631.91	67.447
632.24	69.778
632.57	70.000
632.90	70.230
633.23	68.341
