SpectraSuite Data File
++++++++++++++++++++++++++++++++++++
Date: Sat May 16 11:28:26 PDT 2015
User: schluterlab
Dark Spectrum Present: Yes
Reference Spectrum Present: Yes
Number of Sampled Component Spectra: 1
Spectrometers: USB2E3373
Integration Time (usec): 3000 (USB2E3373)
Spectra Averaged: 3 (USB2E3373)
Boxcar Smoothing: 0 (USB2E3373)
Correct for Electrical Dark: No (USB2E3373)
Strobe/Lamp Enabled: No (USB2E3373)
Correct for Detector Non-linearity: No (USB2E3373)
Correct for Stray Light: No (USB2E3373)
Number of Pixels in Processed Spectrum: 2048
>>>>>Begin Processed Spectral Data<<<<<
178.53	0.000
178.91	120.000
179.29	366.667
179.67	100.000
180.04	-53.846
180.42	1100.000
180.80	250.000
181.18	250.000
181.56	-12.500
181.94	1600.000
182.31	400.000
182.69	-69.231
183.07	-466.667
183.45	1250.000
183.83	200.000
184.20	-214.286
184.58	-112.500
184.96	-300.000
185.34	81.250
185.72	-575.000
186.09	166.667
186.47	-312.500
186.85	-200.000
187.23	-87.500
187.61	-375.000
187.98	-187.500
188.36	-137.500
188.74	-175.000
189.12	1700.000
189.49	171.429
189.87	-58.333
190.25	700.000
190.63	-71.429
191.00	-155.556
191.38	380.000
191.76	-20.000
192.14	480.000
192.51	-220.000
192.89	-500.000
193.27	0.000
193.65	-133.333
194.02	-200.000
194.40	633.333
194.78	-110.000
195.15	-600.000
195.53	-172.727
195.91	-416.667
196.29	160.000
196.66	-433.333
197.04	1600.000
197.42	-200.000
197.79	-20.000
198.17	-300.000
198.55	-950.000
198.92	-1900.000
199.30	212.500
199.68	-850.000
200.05	-133.333
200.43	-244.444
200.81	-1200.000
201.18	-200.000
201.56	385.714
201.94	-40.000
202.31	13.636
202.69	-10.000
203.07	-30.000
203.44	533.333
203.82	-383.333
204.19	-575.000
204.57	-200.000
204.95	-1300.000
205.32	-18.750
205.70	-200.000
206.08	-2300.000
206.45	-38.889
206.83	-700.000
207.20	100.000
207.58	-600.000
207.96	-266.667
208.33	-162.500
208.71	-166.667
209.08	190.000
209.46	-214.286
209.84	600.000
210.21	0.000
210.59	5.000
210.96	700.000
211.34	-250.000
211.71	-433.333
212.09	275.000
212.46	1600.000
212.84	-2800.000
213.22	433.333
213.59	158.333
213.97	-33.333
214.34	220.000
214.72	-110.000
215.09	-533.333
215.47	-316.667
215.84	-70.000
216.22	-140.000
216.59	6.667
216.97	-450.000
217.34	1350.000
217.72	-100.000
218.09	-150.000
218.47	-328.571
218.84	200.000
219.22	114.286
219.59	0.000
219.97	28.571
220.34	250.000
220.72	200.000
221.09	-115.385
221.47	0.000
221.84	566.667
222.22	-550.000
222.59	1000.000
222.97	-75.000
223.34	-800.000
223.72	-433.333
224.09	-50.000
224.46	-450.000
224.84	-35.714
225.21	-214.286
225.59	-36.364
225.96	-112.500
226.34	-357.143
226.71	-88.889
227.08	-65.000
227.46	1900.000
227.83	-228.571
228.21	-262.500
228.58	450.000
228.95	-37.500
229.33	-1600.000
229.70	-220.000
230.08	-650.000
230.45	-91.667
230.82	-266.667
231.20	-1000.000
231.57	-800.000
231.95	2700.000
232.32	14.286
232.69	-77.778
233.07	-214.286
233.44	-1100.000
233.81	-113.333
234.19	-44.444
234.56	-25.000
234.93	-34.375
235.31	-257.143
235.68	-214.286
236.05	-88.235
236.43	-104.545
236.80	-35.484
237.17	-54.167
237.55	-76.190
237.92	-63.636
238.29	-2.857
238.67	-32.353
239.04	-27.778
239.41	-16.129
239.79	-46.154
240.16	-40.476
240.53	-21.818
240.91	-35.897
241.28	-32.727
241.65	6.154
242.02	-9.836
242.40	-27.869
242.77	-12.121
243.14	-38.983
243.51	-35.714
243.89	-18.987
244.26	-15.730
244.63	-13.684
245.00	-15.789
245.38	-0.847
245.75	-13.274
246.12	-2.400
246.49	-9.449
246.87	-11.382
247.24	-20.339
247.61	-13.559
247.98	-6.338
248.36	-12.587
248.73	-10.127
249.10	-5.096
249.47	-6.433
249.84	-3.409
250.22	-8.929
250.59	-1.695
250.96	-8.377
251.33	-2.844
251.70	-3.365
252.08	-3.791
252.45	-5.687
252.82	-5.714
253.19	-7.234
253.56	-4.839
253.94	-6.751
254.31	-3.863
254.68	-6.098
255.05	-7.258
255.42	-4.762
255.79	-5.376
256.16	-1.961
256.54	-1.103
256.91	-4.924
257.28	-4.762
257.65	-3.901
258.02	0.629
258.39	-2.007
258.76	-7.770
259.14	-5.556
259.51	0.000
259.88	-3.354
260.25	-2.484
260.62	-3.859
260.99	-5.341
261.36	-2.744
261.73	-2.601
262.10	-1.944
262.47	-1.709
262.85	-2.000
263.22	-1.433
263.59	-7.077
263.96	-2.029
264.33	-3.252
264.70	-3.867
265.07	-3.846
265.44	-4.651
265.81	-2.326
266.18	-5.570
266.55	-2.696
266.92	0.252
267.29	-3.390
267.66	-1.975
268.03	-0.725
268.40	-1.643
268.77	-1.205
269.14	-1.624
269.51	-0.920
269.88	-5.963
270.25	-3.497
270.62	-0.458
270.99	-2.252
271.36	-2.564
271.73	-2.915
272.10	-3.661
272.47	-4.222
272.84	-0.222
273.21	-1.147
273.58	-2.637
273.95	-1.535
274.32	-2.489
274.69	-0.219
275.06	-0.613
275.43	-3.348
275.80	0.407
276.17	-2.301
276.54	0.611
276.91	1.029
277.28	-2.028
277.65	-2.066
278.02	-2.088
278.39	-1.768
278.76	-2.390
279.13	-0.395
279.50	-3.380
279.87	-1.691
280.23	-0.405
280.60	-2.187
280.97	-0.971
281.34	-5.416
281.71	-0.577
282.08	-3.024
282.45	-3.055
282.82	-2.132
283.19	-1.636
283.56	-0.549
283.92	0.530
284.29	-2.416
284.66	-0.899
285.03	0.000
285.40	-1.476
285.77	-2.105
286.14	-1.625
286.51	0.178
286.87	-0.181
287.24	-1.706
287.61	-1.653
287.98	-2.426
288.35	-1.653
288.72	-2.716
289.08	-2.542
289.45	-0.337
289.82	-3.979
290.19	-0.657
290.56	-2.479
290.93	-2.544
291.29	-3.404
291.66	-1.932
292.03	-0.157
292.40	0.753
292.77	-1.398
293.13	-1.138
293.50	-0.892
293.87	-0.613
294.24	-0.905
294.60	-3.030
294.97	-0.152
295.34	-1.926
295.71	-1.042
296.08	-3.379
296.44	-2.718
296.81	-0.997
297.18	-1.972
297.55	-1.836
297.91	0.697
298.28	-2.466
298.65	-1.255
299.02	0.401
299.38	-1.738
299.75	-0.815
300.12	-0.513
300.48	0.895
300.85	-1.048
301.22	-0.259
301.59	-1.300
301.95	2.141
302.32	-1.695
302.69	-0.367
303.05	-0.611
303.42	-0.625
303.79	-0.957
304.15	1.066
304.52	-0.933
304.89	-0.354
305.25	-0.977
305.62	-0.705
305.99	1.178
306.35	0.666
306.72	-1.367
307.09	0.114
307.45	-0.341
307.82	-1.564
308.19	-0.336
308.55	-1.089
308.92	-0.859
309.29	-0.541
309.65	-0.742
310.02	-0.216
310.38	-1.838
310.75	-0.410
311.12	0.103
311.48	-0.209
311.85	0.824
312.22	-0.412
312.58	0.203
312.95	-0.306
313.31	1.299
313.68	1.106
314.05	1.682
314.41	0.101
314.78	0.100
315.14	0.987
315.51	-0.405
315.87	0.968
316.24	1.069
316.61	2.111
316.97	2.189
317.34	1.156
317.70	0.557
318.07	2.612
318.43	2.060
318.80	2.347
319.16	1.876
319.53	1.316
319.89	1.787
320.26	2.745
320.62	2.404
320.99	2.090
321.35	2.562
321.72	1.126
322.08	2.275
322.45	2.079
322.81	3.458
323.18	3.458
323.54	4.067
323.91	4.171
324.27	3.897
324.64	4.113
325.00	5.148
325.37	4.887
325.73	6.562
326.10	5.669
326.46	6.130
326.83	6.298
327.19	7.173
327.56	9.029
327.92	7.816
328.29	9.437
328.65	8.364
329.01	8.304
329.38	9.188
329.74	8.974
330.11	9.248
330.47	9.355
330.84	10.449
331.20	9.296
331.56	8.751
331.93	10.213
332.29	10.046
332.66	10.623
333.02	10.769
333.38	10.394
333.75	10.953
334.11	10.311
334.48	10.327
334.84	12.511
335.20	11.259
335.57	11.191
335.93	12.355
336.29	9.920
336.66	9.780
337.02	11.171
337.38	10.963
337.75	10.448
338.11	11.270
338.47	10.854
338.84	11.071
339.20	11.599
339.56	12.389
339.93	10.935
340.29	11.515
340.65	11.014
341.02	11.973
341.38	10.447
341.74	11.600
342.11	11.519
342.47	10.730
342.83	11.671
343.20	10.418
343.56	11.347
343.92	10.601
344.28	12.027
344.65	10.891
345.01	11.429
345.37	11.960
345.73	10.556
346.10	10.793
346.46	11.048
346.82	11.147
347.19	11.422
347.55	11.717
347.91	10.866
348.27	10.183
348.63	11.066
349.00	12.092
349.36	10.148
349.72	11.783
350.08	11.147
350.45	10.323
350.81	10.908
351.17	11.254
351.53	10.422
351.89	10.833
352.26	11.318
352.62	12.366
352.98	10.759
353.34	11.431
353.70	11.506
354.07	11.959
354.43	11.462
354.79	11.173
355.15	11.182
355.51	10.234
355.87	10.593
356.24	11.279
356.60	12.087
356.96	12.240
357.32	11.718
357.68	11.188
358.04	11.316
358.40	11.214
358.77	11.206
359.13	12.395
359.49	12.396
359.85	12.424
360.21	12.709
360.57	12.575
360.93	12.444
361.29	12.407
361.66	11.814
362.02	11.760
362.38	12.619
362.74	12.527
363.10	12.267
363.46	13.390
363.82	12.682
364.18	12.663
364.54	13.796
364.90	12.648
365.26	12.839
365.62	13.542
365.98	13.940
366.35	12.746
366.71	12.826
367.07	13.479
367.43	13.452
367.79	13.608
368.15	12.873
368.51	12.937
368.87	14.766
369.23	13.474
369.59	14.167
369.95	14.658
370.31	13.854
370.67	12.654
371.03	12.974
371.39	13.791
371.75	14.020
372.11	14.204
372.47	13.811
372.83	14.604
373.19	14.500
373.55	15.623
373.91	15.434
374.27	14.237
374.63	14.286
374.99	14.951
375.35	15.209
375.71	16.408
376.07	15.537
376.42	15.166
376.78	15.556
377.14	16.136
377.50	16.119
377.86	15.735
378.22	15.704
378.58	16.924
378.94	16.769
379.30	17.185
379.66	17.122
380.02	16.162
380.38	17.160
380.74	16.589
381.09	17.516
381.45	18.138
381.81	16.939
382.17	17.293
382.53	18.541
382.89	17.703
383.25	17.700
383.61	18.573
383.97	19.780
384.32	19.837
384.68	18.742
385.04	19.082
385.40	17.590
385.76	18.720
386.12	19.675
386.48	20.111
386.83	19.877
387.19	19.366
387.55	19.806
387.91	19.858
388.27	18.758
388.62	19.471
388.98	19.988
389.34	19.890
389.70	19.488
390.06	20.323
390.42	21.218
390.77	20.505
391.13	21.118
391.49	21.148
391.85	21.571
392.20	21.299
392.56	20.709
392.92	20.650
393.28	21.527
393.64	20.325
393.99	21.785
394.35	21.229
394.71	20.754
395.07	22.976
395.42	21.037
395.78	20.930
396.14	22.617
396.50	21.407
396.85	22.332
397.21	22.114
397.57	21.945
397.92	22.190
398.28	22.500
398.64	22.487
399.00	23.258
399.35	22.717
399.71	22.764
400.07	23.224
400.42	22.932
400.78	22.182
401.14	22.395
401.49	22.759
401.85	22.453
402.21	22.706
402.57	22.633
402.92	22.970
403.28	22.243
403.63	22.469
403.99	22.436
404.35	22.947
404.70	23.113
405.06	23.299
405.42	21.525
405.77	22.511
406.13	22.885
406.49	23.367
406.84	22.496
407.20	23.557
407.55	22.419
407.91	22.345
408.27	23.039
408.62	23.692
408.98	23.408
409.34	23.522
409.69	22.432
410.05	22.862
410.40	24.034
410.76	23.414
411.11	22.818
411.47	22.954
411.83	24.144
412.18	23.267
412.54	22.941
412.89	24.241
413.25	22.491
413.60	23.147
413.96	22.921
414.31	23.731
414.67	23.238
415.03	22.898
415.38	23.552
415.74	23.325
416.09	23.849
416.45	22.950
416.80	23.927
417.16	22.924
417.51	25.279
417.87	24.013
418.22	23.135
418.58	24.390
418.93	24.525
419.29	24.279
419.64	23.116
420.00	25.334
420.35	25.074
420.71	24.610
421.06	24.260
421.42	24.356
421.77	23.841
422.12	25.014
422.48	24.372
422.83	24.544
423.19	24.777
423.54	24.669
423.90	25.101
424.25	24.774
424.61	25.995
424.96	25.453
425.31	25.433
425.67	24.413
426.02	24.326
426.38	25.832
426.73	25.248
427.09	25.184
427.44	24.773
427.79	25.756
428.15	26.332
428.50	26.100
428.85	26.439
429.21	26.065
429.56	25.417
429.92	25.050
430.27	26.471
430.62	26.280
430.98	25.771
431.33	25.400
431.68	27.185
432.04	27.084
432.39	26.724
432.74	26.679
433.10	27.406
433.45	26.828
433.80	25.868
434.16	26.491
434.51	26.795
434.86	27.299
435.22	26.392
435.57	26.928
435.92	26.729
436.28	27.122
436.63	27.360
436.98	26.804
437.34	27.053
437.69	27.013
438.04	26.886
438.39	28.159
438.75	27.648
439.10	26.652
439.45	26.614
439.81	27.470
440.16	27.314
440.51	28.235
440.86	27.415
441.22	26.479
441.57	28.053
441.92	28.593
442.27	28.409
442.63	27.897
442.98	27.935
443.33	27.018
443.68	28.661
444.03	28.438
444.39	27.851
444.74	28.855
445.09	27.851
445.44	29.375
445.79	28.455
446.15	28.697
446.50	27.654
446.85	28.476
447.20	28.652
447.55	28.343
447.91	28.972
448.26	28.883
448.61	27.674
448.96	28.011
449.31	29.143
449.66	29.937
450.02	28.476
450.37	28.000
450.72	28.305
451.07	29.290
451.42	28.748
451.77	28.665
452.12	28.665
452.47	29.849
452.83	29.004
453.18	29.222
453.53	28.669
453.88	28.888
454.23	28.295
454.58	29.646
454.93	28.904
455.28	29.318
455.63	29.238
455.98	29.518
456.34	28.590
456.69	28.018
457.04	28.888
457.39	30.024
457.74	29.179
458.09	29.002
458.44	29.388
458.79	29.092
459.14	28.865
459.49	29.189
459.84	28.724
460.19	29.177
460.54	29.099
460.89	29.148
461.24	28.780
461.59	28.429
461.94	29.153
462.29	28.588
462.64	29.842
462.99	29.585
463.34	28.697
463.69	29.326
464.04	28.002
464.39	28.495
464.74	29.255
465.09	28.082
465.44	29.498
465.79	28.708
466.14	29.574
466.49	28.382
466.84	29.292
467.19	29.364
467.54	28.101
467.89	28.668
468.24	28.741
468.59	28.919
468.94	29.132
469.29	28.135
469.64	29.717
469.99	30.115
470.34	29.125
470.68	30.160
471.03	28.906
471.38	28.611
471.73	29.860
472.08	28.581
472.43	28.378
472.78	28.400
473.13	27.369
473.48	29.036
473.83	29.591
474.17	29.236
474.52	29.923
474.87	29.371
475.22	28.024
475.57	27.722
475.92	29.536
476.27	27.829
476.61	28.901
476.96	28.675
477.31	28.095
477.66	29.275
478.01	29.065
478.36	28.863
478.70	29.632
479.05	28.610
479.40	28.083
479.75	28.593
480.10	29.167
480.45	28.288
480.79	29.319
481.14	28.700
481.49	28.606
481.84	28.571
482.19	28.552
482.53	29.309
482.88	28.382
483.23	28.873
483.58	29.278
483.92	29.193
484.27	27.869
484.62	27.819
484.97	27.553
485.31	28.128
485.66	27.785
486.01	28.309
486.36	28.780
486.70	29.170
487.05	28.558
487.40	28.472
487.75	28.158
488.09	27.579
488.44	27.368
488.79	27.060
489.13	27.653
489.48	28.467
489.83	28.035
490.17	27.427
490.52	29.076
490.87	28.822
491.22	28.445
491.56	27.824
491.91	28.578
492.26	28.491
492.60	28.354
492.95	28.367
493.30	27.775
493.64	28.162
493.99	28.633
494.34	28.810
494.68	29.635
495.03	27.964
495.37	28.024
495.72	28.340
496.07	28.390
496.41	28.161
496.76	28.265
497.11	28.121
497.45	28.544
497.80	28.214
498.14	28.340
498.49	27.875
498.84	28.058
499.18	28.168
499.53	28.300
499.87	26.931
500.22	28.431
500.56	28.114
500.91	27.291
501.26	28.045
501.60	26.914
501.95	28.357
502.29	27.917
502.64	28.430
502.98	28.366
503.33	27.820
503.67	27.921
504.02	27.571
504.36	27.108
504.71	27.761
505.06	27.359
505.40	27.046
505.75	27.490
506.09	28.665
506.44	27.870
506.78	27.546
507.13	27.909
507.47	27.178
507.82	27.620
508.16	27.772
508.51	27.769
508.85	27.329
509.19	27.839
509.54	27.748
509.88	27.660
510.23	28.407
510.57	28.307
510.92	28.464
511.26	27.698
511.61	26.728
511.95	26.940
512.30	27.158
512.64	27.379
512.98	27.558
513.33	27.348
513.67	28.252
514.02	27.629
514.36	27.479
514.70	27.391
515.05	27.844
515.39	27.163
515.74	28.389
516.08	27.089
516.42	28.499
516.77	27.845
517.11	27.860
517.46	28.828
517.80	27.557
518.14	26.872
518.49	27.197
518.83	27.122
519.17	27.886
519.52	27.357
519.86	27.778
520.20	28.178
520.55	27.754
520.89	27.426
521.23	27.717
521.58	26.834
521.92	27.866
522.26	28.063
522.61	28.010
522.95	26.994
523.29	28.339
523.64	27.233
523.98	27.498
524.32	27.027
524.66	26.894
525.01	27.360
525.35	28.222
525.69	27.196
526.04	27.023
526.38	27.753
526.72	27.075
527.06	27.214
527.41	27.525
527.75	26.469
528.09	27.201
528.43	27.148
528.78	26.947
529.12	27.785
529.46	27.513
529.80	26.921
530.15	26.787
530.49	27.814
530.83	27.177
531.17	26.599
531.51	27.261
531.86	27.716
532.20	27.530
532.54	26.537
532.88	26.680
533.22	27.340
533.57	26.893
533.91	26.592
534.25	25.833
534.59	26.046
534.93	26.945
535.27	26.683
535.62	27.813
535.96	27.020
536.30	26.963
536.64	28.220
536.98	27.119
537.32	26.469
537.66	26.748
538.01	26.667
538.35	27.162
538.69	26.404
539.03	27.285
539.37	27.345
539.71	26.885
540.05	25.771
540.39	27.562
540.73	26.607
541.07	26.981
541.42	26.536
541.76	25.183
542.10	26.469
542.44	26.516
542.78	26.866
543.12	26.341
543.46	25.959
543.80	25.552
544.14	26.394
544.48	26.837
544.82	26.319
545.16	27.297
545.50	26.110
545.84	27.121
546.18	27.184
546.52	26.316
546.86	26.923
547.20	27.075
547.54	25.964
547.88	26.808
548.22	26.999
548.56	25.651
548.90	27.022
549.24	26.279
549.58	26.817
549.92	27.562
550.26	26.734
550.60	26.671
550.94	26.715
551.28	26.336
551.62	26.219
551.96	25.760
552.30	26.829
552.64	27.164
552.98	26.840
553.32	24.964
553.66	27.181
554.00	27.008
554.34	26.715
554.68	26.901
555.02	26.122
555.36	25.809
555.69	27.364
556.03	26.526
556.37	26.529
556.71	28.060
557.05	26.755
557.39	25.909
557.73	27.133
558.07	27.882
558.41	26.776
558.75	26.084
559.08	25.603
559.42	26.110
559.76	26.534
560.10	26.995
560.44	27.890
560.78	27.209
561.12	26.363
561.45	27.192
561.79	25.714
562.13	25.526
562.47	26.331
562.81	26.591
563.15	26.242
563.48	27.782
563.82	27.519
564.16	27.451
564.50	26.949
564.84	26.587
565.17	26.260
565.51	27.249
565.85	27.248
566.19	27.009
566.52	26.680
566.86	26.485
567.20	26.574
567.54	27.230
567.88	25.851
568.21	27.069
568.55	27.306
568.89	25.944
569.23	26.516
569.56	25.767
569.90	25.649
570.24	27.095
570.57	25.589
570.91	25.842
571.25	25.486
571.59	26.163
571.92	25.506
572.26	26.034
572.60	26.280
572.93	24.868
573.27	24.726
573.61	25.179
573.95	25.599
574.28	25.117
574.62	25.089
574.96	25.174
575.29	25.102
575.63	24.900
575.97	25.297
576.30	25.404
576.64	25.509
576.98	24.807
577.31	25.077
577.65	25.632
577.98	25.535
578.32	25.384
578.66	25.116
578.99	25.125
579.33	25.170
579.67	25.032
580.00	24.554
580.34	24.829
580.67	25.227
581.01	24.680
581.35	25.752
581.68	25.515
582.02	25.757
582.35	25.269
582.69	25.478
583.02	25.531
583.36	25.596
583.70	24.782
584.03	25.404
584.37	25.521
584.70	25.112
585.04	25.190
585.37	25.060
585.71	25.423
586.04	25.101
586.38	25.047
586.72	25.789
587.05	24.979
587.39	25.403
587.72	25.830
588.06	25.557
588.39	25.634
588.73	25.287
589.06	25.480
589.40	26.417
589.73	26.381
590.07	24.618
590.40	25.609
590.73	25.630
591.07	25.533
591.40	26.213
591.74	26.108
592.07	26.306
592.41	26.072
592.74	26.556
593.08	26.742
593.41	26.217
593.75	25.651
594.08	26.276
594.41	26.654
594.75	25.708
595.08	26.541
595.42	26.120
595.75	25.946
596.09	26.038
596.42	25.900
596.75	26.003
597.09	25.957
597.42	26.495
597.75	26.395
598.09	26.254
598.42	25.939
598.76	25.955
599.09	26.204
599.42	25.721
599.76	26.652
600.09	26.794
600.42	27.155
600.76	26.742
601.09	26.168
601.42	27.068
601.76	25.818
602.09	25.317
602.42	26.626
602.76	25.841
603.09	26.573
603.42	26.269
603.76	27.044
604.09	26.952
604.42	26.062
604.76	25.687
605.09	26.537
605.42	25.975
605.75	26.693
606.09	25.820
606.42	26.225
606.75	26.063
607.09	26.775
607.42	26.408
607.75	26.976
608.08	27.384
608.42	26.679
608.75	25.374
609.08	26.985
609.41	26.258
609.75	26.670
610.08	25.980
610.41	27.084
610.74	26.838
611.07	26.471
611.41	25.416
611.74	27.506
612.07	27.444
612.40	27.292
612.73	27.087
613.07	26.472
613.40	27.531
613.73	26.594
614.06	25.590
614.39	26.888
614.72	27.151
615.06	27.283
615.39	26.804
615.72	27.376
616.05	26.505
616.38	26.756
616.71	27.147
617.05	27.684
617.38	27.245
617.71	25.860
618.04	27.267
618.37	26.541
618.70	27.966
619.03	27.150
619.36	27.555
619.69	27.925
620.03	26.928
620.36	27.286
620.69	28.212
621.02	27.930
621.35	27.016
621.68	26.885
622.01	27.346
622.34	27.640
622.67	27.656
623.00	28.386
623.33	28.731
623.66	27.917
623.99	27.970
624.32	28.274
624.65	27.079
624.99	28.230
625.32	27.395
625.65	27.195
625.98	26.995
626.31	28.711
626.64	27.029
626.97	28.339
627.30	28.255
627.63	28.756
627.96	27.241
628.29	28.493
628.62	27.507
628.95	28.346
629.28	28.102
629.61	27.085
629.94	28.639
630.26	29.125
630.59	29.548
630.92	28.829
631.25	28.528
631.58	28.042
631.91	26.489
632.24	28.333
632.57	29.889
