SpectraSuite Data File
++++++++++++++++++++++++++++++++++++
Date: Sat May 16 11:08:36 PDT 2015
User: schluterlab
Dark Spectrum Present: Yes
Reference Spectrum Present: Yes
Number of Sampled Component Spectra: 1
Spectrometers: USB2E3373
Integration Time (usec): 3000 (USB2E3373)
Spectra Averaged: 3 (USB2E3373)
Boxcar Smoothing: 0 (USB2E3373)
Correct for Electrical Dark: No (USB2E3373)
Strobe/Lamp Enabled: No (USB2E3373)
Correct for Detector Non-linearity: No (USB2E3373)
Correct for Stray Light: No (USB2E3373)
Number of Pixels in Processed Spectrum: 2048
>>>>>Begin Processed Spectral Data<<<<<
178.53	0.000
178.91	40.000
179.29	33.333
179.67	-100.000
180.04	69.231
180.42	-100.000
180.80	-75.000
181.18	-25.000
181.56	-12.500
181.94	200.000
182.31	350.000
182.69	-15.385
183.07	-66.667
183.45	1050.000
183.83	133.333
184.20	42.857
184.58	-37.500
184.96	75.000
185.34	56.250
185.72	-250.000
186.09	-166.667
186.47	-62.500
186.85	-100.000
187.23	75.000
187.61	-50.000
187.98	-162.500
188.36	162.500
188.74	25.000
189.12	-200.000
189.49	200.000
189.87	25.000
190.25	-0.000
190.63	35.714
191.00	22.222
191.38	120.000
191.76	80.000
192.14	200.000
192.51	-60.000
192.89	-100.000
193.27	0.000
193.65	-11.111
194.02	-100.000
194.40	-66.667
194.78	110.000
195.15	700.000
195.53	54.545
195.91	-133.333
196.29	140.000
196.66	-466.667
197.04	300.000
197.42	175.000
197.79	66.667
198.17	-66.667
198.55	-550.000
198.92	-700.000
199.30	75.000
199.68	100.000
200.05	55.556
200.43	-33.333
200.81	100.000
201.18	-58.333
201.56	185.714
201.94	66.667
202.31	31.818
202.69	140.000
203.07	40.000
203.44	266.667
203.82	-150.000
204.19	100.000
204.57	-125.000
204.95	0.000
205.32	50.000
205.70	100.000
206.08	-100.000
206.45	27.778
206.83	-400.000
207.20	150.000
207.58	-266.667
207.96	-300.000
208.33	0.000
208.71	22.222
209.08	170.000
209.46	0.000
209.84	350.000
210.21	0.000
210.59	60.000
210.96	-500.000
211.34	-150.000
211.71	-100.000
212.09	-25.000
212.46	450.000
212.84	-1400.000
213.22	-233.333
213.59	75.000
213.97	55.556
214.34	30.000
214.72	-60.000
215.09	-233.333
215.47	33.333
215.84	130.000
216.22	90.000
216.59	6.667
216.97	-250.000
217.34	250.000
217.72	-85.714
218.09	33.333
218.47	-142.857
218.84	142.857
219.22	57.143
219.59	0.000
219.97	14.286
220.34	175.000
220.72	125.000
221.09	61.538
221.47	0.000
221.84	66.667
222.22	-100.000
222.59	-0.000
222.97	-125.000
223.34	50.000
223.72	-366.667
224.09	21.429
224.46	-200.000
224.84	21.429
225.21	57.143
225.59	63.636
225.96	-12.500
226.34	114.286
226.71	44.444
227.08	40.000
227.46	500.000
227.83	-100.000
228.21	-250.000
228.58	-450.000
228.95	43.750
229.33	100.000
229.70	-60.000
230.08	-350.000
230.45	-16.667
230.82	16.667
231.20	-600.000
231.57	150.000
231.95	900.000
232.32	47.619
232.69	22.222
233.07	-114.286
233.44	-600.000
233.81	26.667
234.19	55.556
234.56	25.000
234.93	34.375
235.31	-128.571
235.68	0.000
236.05	-23.529
236.43	-9.091
236.80	12.903
237.17	-12.500
237.55	9.524
237.92	-36.364
238.29	-8.571
238.67	29.412
239.04	30.556
239.41	-29.032
239.79	-23.077
240.16	-23.810
240.53	1.818
240.91	28.205
241.28	14.545
241.65	4.615
242.02	-3.279
242.40	1.639
242.77	13.636
243.14	-6.780
243.51	-10.000
243.89	3.797
244.26	1.124
244.63	6.316
245.00	6.316
245.38	7.627
245.75	7.080
246.12	5.600
246.49	11.811
246.87	-6.504
247.24	5.085
247.61	4.237
247.98	5.634
248.36	3.497
248.73	6.329
249.10	-0.637
249.47	5.263
249.84	9.659
250.22	-2.381
250.59	1.130
250.96	5.759
251.33	9.953
251.70	5.769
252.08	5.213
252.45	0.474
252.82	3.810
253.19	8.085
253.56	4.435
253.94	5.485
254.31	6.009
254.68	9.350
255.05	5.645
255.42	6.349
255.79	1.075
256.16	5.098
256.54	4.412
256.91	6.818
257.28	1.099
257.65	6.383
258.02	9.119
258.39	4.013
258.76	5.068
259.14	3.086
259.51	7.213
259.88	5.183
260.25	5.901
260.62	3.215
260.99	3.858
261.36	5.488
261.73	5.202
262.10	7.500
262.47	1.994
262.85	8.857
263.22	4.585
263.59	4.615
263.96	6.377
264.33	6.775
264.70	6.906
265.07	2.198
265.44	5.168
265.81	5.426
266.18	4.051
266.55	5.147
266.92	7.053
267.29	6.295
267.66	6.173
268.03	6.280
268.40	8.920
268.77	4.337
269.14	4.640
269.51	6.207
269.88	3.899
270.25	3.497
270.62	3.432
270.99	4.955
271.36	5.828
271.73	4.484
272.10	4.805
272.47	3.556
272.84	6.889
273.21	7.569
273.58	3.736
273.95	5.921
274.32	5.430
274.69	8.096
275.06	5.726
275.43	5.357
275.80	7.739
276.17	6.695
276.54	6.110
276.91	4.321
277.28	5.274
277.65	2.893
278.02	5.846
278.39	6.680
278.76	5.378
279.13	5.929
279.50	6.958
279.87	6.765
280.23	5.061
280.60	5.765
280.97	6.019
281.34	6.770
281.71	8.269
282.08	5.645
282.45	3.055
282.82	3.682
283.19	5.091
283.56	6.410
283.92	5.300
284.29	7.249
284.66	3.597
285.03	7.665
285.40	5.535
285.77	7.544
286.14	5.776
286.51	5.329
286.87	7.078
287.24	7.850
287.61	6.281
287.98	5.546
288.35	5.785
288.72	5.433
289.08	4.237
289.45	5.892
289.82	4.671
290.19	7.225
290.56	5.455
290.93	5.723
291.29	4.538
291.66	5.314
292.03	7.378
292.40	4.970
292.77	6.832
293.13	5.691
293.50	7.132
293.87	6.902
294.24	6.938
294.60	4.697
294.97	6.070
295.34	6.074
295.71	6.101
296.08	5.530
296.44	6.009
296.81	4.843
297.18	6.761
297.55	6.780
297.91	7.671
298.28	5.616
298.65	5.300
299.02	6.684
299.38	7.086
299.75	7.745
300.12	7.821
300.48	6.650
300.85	7.077
301.22	7.115
301.59	6.632
301.95	8.564
302.32	4.433
302.69	7.099
303.05	5.739
303.42	5.500
303.79	7.297
304.15	7.464
304.52	7.468
304.89	7.556
305.25	7.570
305.62	6.698
305.99	8.363
306.35	6.992
306.72	6.948
307.09	7.378
307.45	7.151
307.82	6.034
308.19	7.942
308.55	7.843
308.92	6.767
309.29	7.027
309.65	6.893
310.02	7.991
310.38	7.459
310.75	7.070
311.12	7.025
311.48	7.724
311.85	8.342
312.22	7.415
312.58	7.935
312.95	8.461
313.31	7.592
313.68	8.643
314.05	8.111
314.41	6.640
314.78	6.494
315.14	7.700
315.51	7.700
315.87	8.616
316.24	7.872
316.61	8.061
316.97	9.652
317.34	8.478
317.70	7.421
318.07	7.183
318.43	8.427
318.80	8.638
319.16	7.411
319.53	7.425
319.89	6.773
320.26	8.333
320.62	7.692
320.99	9.353
321.35	7.586
321.72	6.960
322.08	8.012
322.45	7.525
322.81	8.934
323.18	8.549
323.54	8.872
323.91	9.453
324.27	9.030
324.64	9.049
325.00	9.162
325.37	9.593
325.73	11.636
326.10	9.477
326.46	9.457
326.83	10.128
327.19	10.676
327.56	11.329
327.92	10.875
328.29	11.429
328.65	10.364
329.01	12.456
329.38	11.686
329.74	13.004
330.11	12.874
330.47	12.171
330.84	13.566
331.20	13.087
331.56	14.859
331.93	14.387
332.29	14.886
332.66	14.223
333.02	15.747
333.38	16.039
333.75	16.741
334.11	16.444
334.48	16.946
334.84	18.285
335.20	18.262
335.57	16.877
335.93	18.174
336.29	17.626
336.66	18.238
337.02	18.919
337.38	18.271
337.75	19.666
338.11	19.589
338.47	19.128
338.84	19.147
339.20	19.420
339.56	20.677
339.93	19.577
340.29	17.538
340.65	19.318
341.02	20.489
341.38	19.798
341.74	20.745
342.11	19.283
342.47	21.116
342.83	20.739
343.20	19.983
343.56	19.755
343.92	20.952
344.28	21.531
344.65	20.710
345.01	19.076
345.37	19.934
345.73	18.985
346.10	18.479
346.46	19.415
346.82	19.567
347.19	19.474
347.55	19.342
347.91	20.472
348.27	19.411
348.63	19.952
349.00	20.207
349.36	19.984
349.72	20.939
350.08	21.091
350.45	19.543
350.81	20.780
351.17	19.855
351.53	19.411
351.89	19.240
352.26	20.620
352.62	21.505
352.98	19.778
353.34	19.105
353.70	19.228
354.07	20.535
354.43	20.711
354.79	20.919
355.15	19.808
355.51	18.984
355.87	19.526
356.24	20.175
356.60	21.676
356.96	20.092
357.32	19.794
357.68	19.540
358.04	20.477
358.40	20.263
358.77	20.093
359.13	20.581
359.49	20.484
359.85	19.131
360.21	19.863
360.57	21.009
360.93	21.333
361.29	19.955
361.66	19.741
362.02	19.453
362.38	20.470
362.74	19.853
363.10	20.230
363.46	20.442
363.82	20.627
364.18	20.043
364.54	21.444
364.90	21.034
365.26	19.900
365.62	21.026
365.98	20.982
366.35	20.352
366.71	20.648
367.07	20.748
367.43	21.345
367.79	21.100
368.15	20.982
368.51	20.839
368.87	21.429
369.23	21.053
369.59	21.319
369.95	20.578
370.31	21.449
370.67	19.740
371.03	20.991
371.39	21.004
371.75	21.173
372.11	21.162
372.47	21.041
372.83	21.349
373.19	21.500
373.55	22.942
373.91	22.119
374.27	20.876
374.63	21.532
374.99	21.488
375.35	21.063
375.71	21.540
376.07	22.177
376.42	20.662
376.78	22.353
377.14	22.102
377.50	22.244
377.86	22.367
378.22	22.048
378.58	21.989
378.94	21.887
379.30	22.669
379.66	22.769
380.02	22.222
380.38	22.598
380.74	22.157
381.09	22.613
381.45	23.449
381.81	22.686
382.17	22.744
382.53	21.520
382.89	21.890
383.25	22.818
383.61	22.877
383.97	23.637
384.32	23.342
384.68	23.942
385.04	22.524
385.40	22.459
385.76	22.683
386.12	23.798
386.48	24.443
386.83	23.865
387.19	23.790
387.55	23.743
387.91	23.711
388.27	22.919
388.62	23.077
388.98	22.956
389.34	23.439
389.70	23.447
390.06	22.871
390.42	23.205
390.77	24.164
391.13	24.534
391.49	22.333
391.85	23.441
392.20	23.483
392.56	23.458
392.92	23.959
393.28	23.364
393.64	24.173
393.99	23.692
394.35	23.540
394.71	23.595
395.07	24.419
395.42	23.421
395.78	23.444
396.14	24.050
396.50	23.914
396.85	23.257
397.21	23.876
397.57	23.708
397.92	24.005
398.28	23.611
398.64	22.963
399.00	23.989
399.35	23.224
399.71	24.390
400.07	23.343
400.42	24.513
400.78	23.077
401.14	23.952
401.49	23.762
401.85	23.856
402.21	23.421
402.57	23.240
402.92	23.663
403.28	22.978
403.63	23.247
403.99	23.804
404.35	22.343
404.70	23.054
405.06	23.760
405.42	22.817
405.77	22.907
406.13	23.055
406.49	23.008
406.84	22.795
407.20	25.324
407.55	22.926
407.91	22.345
408.27	23.652
408.62	22.670
408.98	22.680
409.34	23.644
409.69	22.495
410.05	22.984
410.40	23.912
410.76	22.288
411.11	22.693
411.47	23.082
411.83	23.044
412.18	22.834
412.54	23.429
412.89	23.086
413.25	22.609
413.60	22.296
413.96	23.105
414.31	22.202
414.67	22.730
415.03	23.027
415.38	23.813
415.74	23.325
416.09	23.465
416.45	22.222
416.80	22.432
417.16	22.791
417.51	23.244
417.87	22.718
418.22	22.566
418.58	22.657
418.93	24.218
419.29	23.714
419.64	23.555
420.00	23.086
420.35	23.596
420.71	23.109
421.06	24.201
421.42	22.951
421.77	23.283
422.12	22.999
422.48	23.517
422.83	22.893
423.19	23.330
423.54	23.977
423.90	23.250
424.25	23.303
424.61	23.884
424.96	25.219
425.31	23.756
425.67	23.897
426.02	22.490
426.38	24.501
426.73	24.547
427.09	24.755
427.44	24.602
427.79	24.419
428.15	23.279
428.50	24.457
428.85	23.441
429.21	24.405
429.56	24.010
429.92	24.299
430.27	23.230
430.62	24.033
430.98	23.523
431.33	24.120
431.68	24.182
432.04	24.734
432.39	24.330
432.74	24.041
433.10	24.930
433.45	24.928
433.80	24.748
434.16	24.933
434.51	24.384
434.86	25.015
435.22	24.610
435.57	23.256
435.92	24.853
436.28	25.341
436.63	24.760
436.98	24.055
437.34	25.753
437.69	24.737
438.04	25.014
438.39	24.248
438.75	24.040
439.10	25.319
439.45	24.080
439.81	24.217
440.16	25.099
440.51	25.706
440.86	24.639
441.22	24.378
441.57	25.105
441.92	25.627
442.27	25.162
442.63	24.678
442.98	24.153
443.33	25.096
443.68	24.805
444.03	25.982
444.39	25.159
444.74	25.220
445.09	24.836
445.44	24.367
445.79	25.242
446.15	26.068
446.50	24.279
446.85	24.577
447.20	24.464
447.55	25.414
447.91	25.154
448.26	24.637
448.61	25.410
448.96	25.938
449.31	24.577
449.66	26.445
450.02	24.211
450.37	25.043
450.72	25.254
451.07	25.644
451.42	24.783
451.77	24.596
452.12	26.639
452.47	25.756
452.83	24.811
453.18	26.376
453.53	26.368
453.88	26.435
454.23	25.574
454.58	25.792
454.93	26.259
455.28	25.366
455.63	25.184
455.98	26.687
456.34	23.952
456.69	25.704
457.04	25.814
457.39	25.598
457.74	25.222
458.09	26.392
458.44	26.790
458.79	25.224
459.14	25.556
459.49	25.459
459.84	25.801
460.19	25.000
460.54	25.408
460.89	25.000
461.24	26.230
461.59	26.319
461.94	25.843
462.29	26.027
462.64	26.877
462.99	26.372
463.34	24.510
463.69	25.827
464.04	25.308
464.39	25.269
464.74	26.182
465.09	25.195
465.44	25.268
465.79	25.832
466.14	26.064
466.49	25.676
466.84	26.230
467.19	26.122
467.54	24.620
467.89	25.647
468.24	25.534
468.59	25.859
468.94	25.852
469.29	26.056
469.64	26.415
469.99	26.334
470.34	25.518
470.68	27.035
471.03	26.153
471.38	25.347
471.73	26.014
472.08	26.372
472.43	26.126
472.78	26.133
473.13	24.917
473.48	25.718
473.83	25.744
474.17	25.541
474.52	26.471
474.87	25.699
475.22	25.251
475.57	25.944
475.92	26.674
476.27	25.200
476.61	25.803
476.96	25.936
477.31	25.296
477.66	25.180
478.01	26.202
478.36	25.773
478.70	26.268
479.05	25.744
479.40	25.907
479.75	25.535
480.10	24.851
480.45	23.694
480.79	26.900
481.14	26.693
481.49	26.041
481.84	25.243
482.19	26.359
482.53	25.994
482.88	25.724
483.23	26.338
483.58	26.688
483.92	25.753
484.27	25.343
484.62	25.572
484.97	25.682
485.31	25.152
485.66	24.553
486.01	24.651
486.36	24.857
486.70	25.000
487.05	24.787
487.40	25.374
487.75	25.154
488.09	24.830
488.44	25.947
488.79	25.327
489.13	26.284
489.48	26.468
489.83	26.114
490.17	26.252
490.52	26.540
490.87	25.681
491.22	26.063
491.56	26.250
491.91	26.288
492.26	26.415
492.60	26.261
492.95	26.654
493.30	25.917
493.64	26.375
493.99	25.813
494.34	26.571
494.68	27.013
495.03	25.478
495.37	26.598
495.72	26.081
496.07	25.763
496.41	26.679
496.76	26.164
497.11	25.954
497.45	26.628
497.80	25.863
498.14	25.982
498.49	26.369
498.84	26.117
499.18	27.388
499.53	26.839
499.87	26.110
500.22	26.176
500.56	27.564
500.91	27.094
501.26	26.395
501.60	25.421
501.95	26.715
502.29	26.358
502.64	27.534
502.98	26.210
503.33	27.021
503.67	25.958
504.02	25.350
504.36	27.059
504.71	26.444
505.06	25.761
505.40	26.098
505.75	26.321
506.09	26.997
506.44	26.767
506.78	26.091
507.13	26.571
507.47	27.074
507.82	27.052
508.16	27.098
508.51	26.018
508.85	26.190
509.19	25.536
509.54	26.004
509.88	26.862
510.23	26.782
510.57	27.460
510.92	26.853
511.26	27.220
511.61	26.620
511.95	27.101
512.30	26.773
512.64	26.266
512.98	26.953
513.33	26.524
513.67	26.521
514.02	26.342
514.36	26.482
514.70	26.599
515.05	26.987
515.39	27.163
515.74	27.225
516.08	27.147
516.42	26.516
516.77	26.632
517.11	27.002
517.46	28.589
517.80	26.835
518.14	26.510
518.49	26.838
518.83	26.884
519.17	26.702
519.52	26.027
519.86	27.658
520.20	27.628
520.55	27.138
520.89	27.239
521.23	27.473
521.58	26.395
521.92	27.486
522.26	28.444
522.61	27.567
522.95	26.611
523.29	27.022
523.64	27.420
523.98	26.671
524.32	27.404
524.66	27.081
525.01	27.489
525.35	27.835
525.69	27.261
526.04	27.219
526.38	26.798
526.72	25.479
527.06	26.562
527.41	27.195
527.75	26.271
528.09	26.142
528.43	26.689
528.78	27.324
529.12	27.593
529.46	25.838
529.80	27.179
530.15	26.787
530.49	27.361
530.83	28.553
531.17	27.609
531.51	26.926
531.86	26.860
532.20	26.923
532.54	27.741
532.88	27.075
533.22	27.273
533.57	27.219
533.91	25.780
534.25	26.587
534.59	26.171
534.93	26.385
535.27	27.439
535.62	26.790
535.96	26.826
536.30	26.309
536.64	26.892
536.98	27.754
537.32	26.607
537.66	26.612
538.01	27.973
538.35	26.486
538.69	27.206
539.03	27.217
539.37	27.146
539.71	25.884
540.05	26.388
540.39	27.147
540.73	27.989
541.07	28.210
541.42	26.739
541.76	26.047
542.10	27.752
542.44	26.915
542.78	27.408
543.12	27.088
543.46	25.137
543.80	25.418
544.14	26.461
544.48	26.969
544.82	26.319
545.16	26.626
545.50	25.841
545.84	26.078
546.18	27.462
546.52	26.245
546.86	25.997
547.20	27.004
547.54	25.689
547.88	26.808
548.22	25.098
548.56	25.585
548.90	26.550
549.24	26.279
549.58	27.311
549.92	27.279
550.26	28.179
550.60	26.600
550.94	27.737
551.28	27.540
551.62	26.662
551.96	26.628
552.30	25.923
552.64	26.601
552.98	26.139
553.32	26.623
553.66	26.532
554.00	27.221
554.34	26.570
554.68	26.827
555.02	26.483
555.36	26.671
555.69	26.504
556.03	27.158
556.37	25.676
556.71	26.056
557.05	26.977
557.39	26.281
557.73	26.623
558.07	26.225
558.41	27.599
558.75	26.084
559.08	25.837
559.42	27.259
559.76	27.377
560.10	26.846
560.44	27.312
560.78	27.001
561.12	26.225
561.45	27.260
561.79	26.551
562.13	26.157
562.47	26.751
562.81	26.379
563.15	26.382
563.48	25.985
563.82	26.640
564.16	26.437
564.50	26.344
564.84	27.050
565.17	24.469
565.51	26.532
565.85	26.234
566.19	26.548
566.52	26.093
566.86	25.601
567.20	26.271
567.54	26.462
567.88	24.958
568.21	26.063
568.55	25.451
568.89	24.602
569.23	24.572
569.56	24.548
569.90	24.469
570.24	24.840
570.57	24.359
570.91	23.835
571.25	24.189
571.59	24.009
571.92	23.690
572.26	24.296
572.60	23.425
572.93	24.280
573.27	23.140
573.61	22.828
573.95	23.443
574.28	23.692
574.62	23.386
574.96	23.280
575.29	23.247
575.63	23.361
575.97	22.843
576.30	23.212
576.64	23.708
576.98	22.642
577.31	22.837
577.65	23.239
577.98	22.960
578.32	22.648
578.66	23.038
578.99	23.215
579.33	23.386
579.67	23.130
580.00	23.313
580.34	23.434
580.67	23.388
581.01	22.875
581.35	23.206
581.68	22.538
582.02	22.581
582.35	22.946
582.69	22.660
583.02	23.077
583.36	22.998
583.70	23.093
584.03	23.922
584.37	23.735
584.70	22.865
585.04	23.215
585.37	22.888
585.71	23.246
586.04	23.202
586.38	22.908
586.72	23.563
587.05	23.478
587.39	23.026
587.72	23.387
588.06	23.521
588.39	23.270
588.73	23.808
589.06	23.402
589.40	24.425
589.73	23.690
590.07	23.452
590.40	23.911
590.73	23.271
591.07	24.057
591.40	24.653
591.74	24.370
592.07	24.369
592.41	24.416
592.74	23.982
593.08	24.133
593.41	23.092
593.75	22.915
594.08	23.544
594.41	24.140
594.75	23.179
595.08	24.135
595.42	24.025
595.75	24.035
596.09	23.360
596.42	24.673
596.75	24.407
597.09	24.844
597.42	23.614
597.75	23.782
598.09	24.446
598.42	23.553
598.76	23.339
599.09	23.757
599.42	23.453
599.76	23.518
600.09	23.397
600.42	24.117
600.76	23.390
601.09	23.509
601.42	23.229
601.76	23.715
602.09	23.885
602.42	24.609
602.76	23.432
603.09	23.226
603.42	23.771
603.76	24.053
604.09	23.628
604.42	23.855
604.76	24.248
605.09	24.051
605.42	24.291
605.75	23.976
606.09	23.869
606.42	22.958
606.75	23.229
607.09	23.555
607.42	23.592
607.75	24.018
608.08	24.853
608.42	23.557
608.75	24.252
609.08	24.647
609.41	24.564
609.75	23.647
610.08	23.824
610.41	23.807
610.74	23.549
611.07	23.935
611.41	23.853
611.74	24.884
612.07	24.436
612.40	25.000
612.73	23.910
613.07	24.326
613.40	25.068
613.73	24.523
614.06	23.888
614.39	24.746
614.72	23.743
615.06	23.696
615.39	24.091
615.72	24.280
616.05	24.020
616.38	24.202
616.71	23.964
617.05	25.392
617.38	25.944
617.71	24.263
618.04	24.161
618.37	24.906
618.70	25.359
619.03	23.968
619.36	24.806
619.69	25.556
620.03	23.829
620.36	24.895
620.69	24.838
621.02	24.658
621.35	25.726
621.68	26.148
622.01	26.375
622.34	24.845
622.67	25.234
623.00	26.090
623.33	26.343
623.66	24.520
623.99	24.211
624.32	25.818
624.65	25.092
624.99	24.869
625.32	24.027
625.65	24.709
625.98	25.430
626.31	26.427
626.64	25.523
626.97	24.743
627.30	26.979
627.63	25.734
627.96	25.413
628.29	26.838
628.62	25.692
628.95	26.772
629.28	25.846
629.61	25.417
629.94	27.410
630.26	26.541
630.59	27.035
630.92	26.627
631.25	26.310
631.58	25.079
631.91	25.426
632.24	27.778
632.57	26.889
632.90	27.471
633.23	28.271
633.56	25.965
633.89	29.009
634.22	26.328
634.55	28.005
634.88	27.932
635.20	25.718
635.53	26.845
635.86	26.700
636.19	27.228
636.52	27.360
636.85	25.872
637.18	26.500
637.51	28.377
637.83	27.430
638.16	26.579
638.49	28.552
