SpectraSuite Data File
++++++++++++++++++++++++++++++++++++
Date: Sat May 16 11:24:20 PDT 2015
User: schluterlab
Dark Spectrum Present: Yes
Reference Spectrum Present: Yes
Number of Sampled Component Spectra: 1
Spectrometers: USB2E3373
Integration Time (usec): 3000 (USB2E3373)
Spectra Averaged: 3 (USB2E3373)
Boxcar Smoothing: 0 (USB2E3373)
Correct for Electrical Dark: No (USB2E3373)
Strobe/Lamp Enabled: No (USB2E3373)
Correct for Detector Non-linearity: No (USB2E3373)
Correct for Stray Light: No (USB2E3373)
Number of Pixels in Processed Spectrum: 2048
>>>>>Begin Processed Spectral Data<<<<<
178.53	0.000
178.91	120.000
179.29	700.000
179.67	-1200.000
180.04	-69.231
180.42	1700.000
180.80	325.000
181.18	150.000
181.56	-75.000
181.94	1000.000
182.31	425.000
182.69	-69.231
183.07	-333.333
183.45	1200.000
183.83	800.000
184.20	-114.286
184.58	-100.000
184.96	-275.000
185.34	125.000
185.72	-175.000
186.09	200.000
186.47	-225.000
186.85	-100.000
187.23	-137.500
187.61	-475.000
187.98	-312.500
188.36	-112.500
188.74	-100.000
189.12	2200.000
189.49	357.143
189.87	-25.000
190.25	200.000
190.63	-100.000
191.00	-122.222
191.38	240.000
191.76	-20.000
192.14	480.000
192.51	-100.000
192.89	-566.667
193.27	0.000
193.65	-166.667
194.02	-228.571
194.40	633.333
194.78	-90.000
195.15	-700.000
195.53	-81.818
195.91	-466.667
196.29	180.000
196.66	-466.667
197.04	1600.000
197.42	-275.000
197.79	53.333
198.17	-433.333
198.55	-200.000
198.92	-1900.000
199.30	225.000
199.68	-750.000
200.05	-166.667
200.43	-255.556
200.81	-900.000
201.18	-58.333
201.56	228.571
201.94	-66.667
202.31	27.273
202.69	0.000
203.07	-90.000
203.44	466.667
203.82	-183.333
204.19	-400.000
204.57	-125.000
204.95	-1400.000
205.32	-6.250
205.70	1200.000
206.08	-1800.000
206.45	-72.222
206.83	-1150.000
207.20	-200.000
207.58	-500.000
207.96	-500.000
208.33	-87.500
208.71	-100.000
209.08	70.000
209.46	-242.857
209.84	800.000
210.21	0.000
210.59	15.000
210.96	1200.000
211.34	-183.333
211.71	-266.667
212.09	300.000
212.46	750.000
212.84	-2400.000
213.22	633.333
213.59	108.333
213.97	-144.444
214.34	160.000
214.72	-140.000
215.09	-333.333
215.47	-283.333
215.84	-80.000
216.22	-170.000
216.59	-20.000
216.97	-350.000
217.34	500.000
217.72	-114.286
218.09	-250.000
218.47	-100.000
218.84	85.714
219.22	-28.571
219.59	0.000
219.97	71.429
220.34	350.000
220.72	150.000
221.09	-46.154
221.47	0.000
221.84	266.667
222.22	-500.000
222.59	1600.000
222.97	-200.000
223.34	-800.000
223.72	-400.000
224.09	-64.286
224.46	-125.000
224.84	-85.714
225.21	-228.571
225.59	-27.273
225.96	-100.000
226.34	-171.429
226.71	-122.222
227.08	-25.000
227.46	1500.000
227.83	-171.429
228.21	-162.500
228.58	800.000
228.95	18.750
229.33	-1700.000
229.70	-280.000
230.08	-550.000
230.45	-108.333
230.82	-116.667
231.20	-700.000
231.57	-700.000
231.95	1000.000
232.32	-4.762
232.69	-177.778
233.07	-128.571
233.44	-1000.000
233.81	-46.667
234.19	-211.111
234.56	-12.500
234.93	25.000
235.31	-385.714
235.68	-178.571
236.05	-29.412
236.43	-63.636
236.80	-41.935
237.17	-16.667
237.55	-71.429
237.92	-77.273
238.29	0.000
238.67	11.765
239.04	-8.333
239.41	-38.710
239.79	-53.846
240.16	-42.857
240.53	-30.909
240.91	-43.590
241.28	-18.182
241.65	13.846
242.02	0.000
242.40	-22.951
242.77	-15.152
243.14	-13.559
243.51	-18.571
243.89	-3.797
244.26	-5.618
244.63	-5.263
245.00	-5.263
245.38	8.475
245.75	0.885
246.12	-4.000
246.49	0.787
246.87	-5.691
247.24	-12.712
247.61	-13.559
247.98	-0.704
248.36	-13.986
248.73	-2.532
249.10	-6.369
249.47	1.754
249.84	2.841
250.22	-9.524
250.59	-3.955
250.96	-3.665
251.33	4.265
251.70	-5.769
252.08	1.422
252.45	-1.422
252.82	2.381
253.19	-2.128
253.56	-2.016
253.94	-3.797
254.31	-6.867
254.68	-0.407
255.05	-4.435
255.42	2.778
255.79	-4.659
256.16	0.392
256.54	-0.735
256.91	0.758
257.28	1.465
257.65	0.000
258.02	1.887
258.39	0.334
258.76	-0.676
259.14	2.160
259.51	2.295
259.88	3.659
260.25	4.658
260.62	-3.215
260.99	-2.077
261.36	1.220
261.73	0.867
262.10	3.333
262.47	0.000
262.85	3.143
263.22	-2.579
263.59	-3.692
263.96	-0.580
264.33	2.710
264.70	-0.276
265.07	2.747
265.44	2.067
265.81	3.101
266.18	0.000
266.55	2.696
266.92	1.259
267.29	3.390
267.66	2.469
268.03	1.208
268.40	1.878
268.77	-0.482
269.14	2.320
269.51	1.379
269.88	-1.147
270.25	-0.699
270.62	1.602
270.99	-0.676
271.36	0.233
271.73	1.345
272.10	1.373
272.47	-0.222
272.84	4.444
273.21	3.211
273.58	1.978
273.95	1.096
274.32	2.941
274.69	2.845
275.06	2.658
275.43	0.000
275.80	2.444
276.17	2.092
276.54	1.833
276.91	4.321
277.28	1.014
277.65	2.893
278.02	1.044
278.39	1.572
278.76	1.992
279.13	2.767
279.50	3.579
279.87	1.480
280.23	0.810
280.60	-0.596
280.97	1.942
281.34	0.580
281.71	4.038
282.08	3.427
282.45	-0.204
282.82	0.775
283.19	2.182
283.56	4.762
283.92	1.590
284.29	0.372
284.66	3.237
285.03	4.635
285.40	2.399
285.77	2.281
286.14	0.722
286.51	1.243
286.87	3.267
287.24	1.536
287.61	1.322
287.98	0.347
288.35	0.992
288.72	2.547
289.08	1.356
289.45	2.189
289.82	1.903
290.19	2.463
290.56	-1.322
290.93	0.477
291.29	1.135
291.66	1.127
292.03	2.826
292.40	3.163
292.77	2.019
293.13	2.602
293.50	4.606
293.87	3.834
294.24	2.413
294.60	-1.818
294.97	2.428
295.34	1.778
295.71	3.869
296.08	-0.154
296.44	1.431
296.81	2.137
297.18	1.690
297.55	3.531
297.91	2.929
298.28	0.411
298.65	2.371
299.02	2.807
299.38	2.139
299.75	0.951
300.12	2.564
300.48	2.302
300.85	1.442
301.22	2.717
301.59	2.601
301.95	3.526
302.32	2.347
302.69	4.162
303.05	2.442
303.42	1.375
303.79	1.675
304.15	2.725
304.52	3.501
304.89	0.945
305.25	2.442
305.62	3.055
305.99	4.240
306.35	3.108
306.72	2.961
307.09	4.881
307.45	2.724
307.82	3.017
308.19	3.244
308.55	2.941
308.92	4.726
309.29	4.000
309.65	4.772
310.02	3.780
310.38	3.784
310.75	5.430
311.12	4.959
311.48	3.549
311.85	4.943
312.22	5.767
312.58	6.205
312.95	5.199
313.31	4.895
313.68	6.231
314.05	7.221
314.41	4.728
314.78	6.194
315.14	6.515
315.51	6.788
315.87	7.744
316.24	7.677
316.61	7.102
316.97	8.557
317.34	6.744
317.70	8.442
318.07	9.422
318.43	8.614
318.80	9.765
319.16	8.912
319.53	9.492
319.89	9.407
320.26	10.392
320.62	11.154
320.99	11.343
321.35	9.754
321.72	10.338
322.08	11.573
322.45	11.980
322.81	12.680
323.18	13.160
323.54	13.586
323.91	13.994
324.27	15.209
324.64	15.448
325.00	16.056
325.37	18.281
325.73	18.723
326.10	17.095
326.46	18.739
326.83	20.681
327.19	20.851
327.56	21.976
327.92	21.835
328.29	23.723
328.65	23.182
329.01	24.382
329.38	24.086
329.74	26.374
330.11	26.292
330.47	27.611
330.84	27.681
331.20	26.986
331.56	27.985
331.93	27.886
332.29	29.315
332.66	28.446
333.02	29.955
333.38	30.287
333.75	30.721
334.11	28.356
334.48	30.803
334.84	31.934
335.20	31.649
335.57	32.762
335.93	33.393
336.29	31.798
336.66	33.040
337.02	32.703
337.38	32.799
337.75	32.485
338.11	34.794
338.47	34.342
338.84	34.120
339.20	33.831
339.56	34.670
339.93	33.157
340.29	33.924
340.65	33.479
341.02	34.486
341.38	33.024
341.74	34.293
342.11	34.300
342.47	34.335
342.83	35.181
343.20	34.330
343.56	33.224
343.92	35.058
344.28	36.585
344.65	33.251
345.01	34.874
345.37	35.299
345.73	34.615
346.10	33.115
346.46	35.500
346.82	33.440
347.19	35.004
347.55	34.912
347.91	34.488
348.27	33.333
348.63	35.541
349.00	35.084
349.36	34.817
349.72	35.350
350.08	36.006
350.45	35.303
350.81	36.067
351.17	35.691
351.53	35.004
351.89	35.812
352.26	34.961
352.62	37.558
352.98	35.839
353.34	36.451
353.70	34.208
354.07	35.956
354.43	36.047
354.79	36.292
355.15	37.300
355.51	36.562
355.87	36.206
356.24	36.378
356.60	38.114
356.96	37.105
357.32	36.896
357.68	35.556
358.04	36.721
358.40	37.123
358.77	36.399
359.13	36.649
359.49	37.339
359.85	36.662
360.21	36.377
360.57	36.898
360.93	37.111
361.29	39.013
361.66	37.195
362.02	38.018
362.38	38.151
362.74	38.315
363.10	37.948
363.46	38.889
363.82	38.411
364.18	39.436
364.54	38.027
364.90	38.994
365.26	38.588
365.62	39.558
365.98	40.114
366.35	38.521
366.71	38.971
367.07	40.014
367.43	40.837
367.79	39.038
368.15	39.829
368.51	38.531
368.87	40.041
369.23	39.930
369.59	40.347
369.95	40.381
370.31	41.421
370.67	40.202
371.03	41.181
371.39	39.604
371.75	39.914
372.11	39.957
372.47	40.781
372.83	41.238
373.19	40.643
373.55	40.887
373.91	41.252
374.27	40.520
374.63	40.787
374.99	41.099
375.35	42.396
375.71	42.741
376.07	41.684
376.42	40.728
376.78	42.680
377.14	43.593
377.50	42.424
377.86	43.628
378.22	43.342
378.58	42.557
378.94	42.109
379.30	42.962
379.66	43.959
380.02	43.256
380.38	43.625
380.74	43.787
381.09	43.058
381.45	44.332
381.81	43.920
382.17	44.110
382.53	43.587
382.89	44.617
383.25	44.672
383.61	43.396
383.97	44.274
384.32	44.681
384.68	45.042
385.04	44.263
385.40	44.674
385.76	45.244
386.12	45.534
386.48	46.225
386.83	45.215
387.19	45.188
387.55	45.185
387.91	45.821
388.27	44.210
388.62	45.853
388.98	45.790
389.34	45.838
389.70	45.859
390.06	46.053
390.42	45.769
390.77	44.795
391.13	46.522
391.49	45.789
391.85	45.885
392.20	45.146
392.56	45.082
392.92	45.522
393.28	46.211
393.64	46.302
393.99	46.769
394.35	46.411
394.71	45.893
395.07	46.453
395.42	45.232
395.78	44.940
396.14	46.667
396.50	45.260
396.85	45.898
397.21	46.537
397.57	46.322
397.92	47.190
398.28	46.778
398.64	45.330
399.00	47.022
399.35	46.561
399.71	45.819
400.07	46.746
400.42	46.168
400.78	44.603
401.14	45.689
401.49	45.814
401.85	46.187
402.21	46.186
402.57	46.117
402.92	47.137
403.28	45.159
403.63	44.638
403.99	45.618
404.35	45.652
404.70	46.284
405.06	44.752
405.42	45.941
405.77	44.174
406.13	45.145
406.49	46.255
406.84	45.891
407.20	44.994
407.55	45.535
407.91	45.531
408.27	45.588
408.62	45.280
408.98	45.118
409.34	44.729
409.69	44.171
410.05	44.148
410.40	44.390
410.76	45.584
411.11	46.010
411.47	44.182
411.83	45.355
412.18	44.554
412.54	44.173
412.89	45.322
413.25	43.447
413.60	44.532
413.96	44.978
414.31	44.343
414.67	44.889
415.03	44.373
415.38	46.779
415.74	46.649
416.09	46.355
416.45	45.569
416.80	45.709
417.16	45.050
417.51	47.275
417.87	45.113
418.22	47.092
418.58	45.250
418.93	45.984
419.29	46.926
419.64	46.608
420.00	46.233
420.35	47.073
420.71	46.218
421.06	46.509
421.42	45.902
421.77	46.734
422.12	46.670
422.48	46.179
422.83	45.615
423.19	46.826
423.54	47.089
423.90	48.178
424.25	48.133
424.61	48.311
424.96	49.093
425.31	47.457
425.67	48.825
426.02	47.447
426.38	48.760
426.73	48.568
427.09	49.081
427.44	49.318
427.79	48.895
428.15	50.150
428.50	49.208
428.85	48.861
429.21	48.201
429.56	49.635
429.92	50.000
430.27	48.804
430.62	50.731
430.98	49.242
431.33	51.014
431.68	50.509
432.04	51.483
432.39	50.370
432.74	50.899
433.10	50.535
433.45	50.892
433.80	50.504
434.16	51.155
434.51	53.096
434.86	52.373
435.22	52.227
435.57	52.142
435.92	52.755
436.28	52.166
436.63	53.081
436.98	52.176
437.34	53.337
437.69	52.392
438.04	53.148
438.39	54.152
438.75	52.969
439.10	52.971
439.45	53.530
439.81	53.494
440.16	52.527
440.51	54.176
440.86	52.805
441.22	54.174
441.57	53.737
441.92	54.680
442.27	53.517
442.63	53.970
442.98	52.765
443.33	54.201
443.68	53.570
444.03	54.568
444.39	55.066
444.74	55.066
445.09	55.263
445.44	55.543
445.79	55.329
446.15	56.079
446.50	54.437
446.85	55.823
447.20	54.750
447.55	56.243
447.91	56.204
448.26	56.369
448.61	55.574
448.96	56.527
449.31	54.848
449.66	57.127
450.02	54.958
450.37	55.884
450.72	55.989
451.07	58.202
451.42	56.258
451.77	56.493
452.12	57.092
452.47	56.171
452.83	56.319
453.18	57.369
453.53	56.530
453.88	57.596
454.23	56.348
454.58	58.048
454.93	58.438
455.28	57.425
455.63	57.862
455.98	57.530
456.34	57.370
456.69	56.285
457.04	56.054
457.39	55.742
457.74	57.354
458.09	57.599
458.44	58.891
458.79	57.399
459.14	57.159
459.49	57.963
459.84	56.773
460.19	58.115
460.54	57.350
460.89	58.240
461.24	58.227
461.59	57.386
461.94	58.498
462.29	57.296
462.64	57.773
462.99	59.505
463.34	57.124
463.69	59.860
464.04	57.293
464.39	58.662
464.74	57.033
465.09	57.246
465.44	57.360
465.79	57.755
466.14	58.746
466.49	58.319
466.84	57.563
467.19	58.978
467.54	56.456
467.89	58.385
468.24	59.204
468.59	59.338
468.94	60.000
469.29	58.545
469.64	58.356
469.99	60.297
470.34	59.051
470.68	59.230
471.03	59.257
471.38	58.194
471.73	60.490
472.08	60.776
472.43	59.266
472.78	58.733
473.13	59.311
473.48	60.562
473.83	57.568
474.17	58.344
474.52	61.573
474.87	59.091
475.22	56.932
475.57	59.778
475.92	59.773
476.27	56.571
476.61	59.380
476.96	58.916
477.31	59.957
477.66	59.712
478.01	60.022
478.36	57.203
478.70	60.651
479.05	58.951
479.40	58.912
479.75	58.257
480.10	58.135
480.45	57.495
480.79	58.539
481.14	59.358
481.49	58.906
481.84	58.992
482.19	58.566
482.53	60.133
482.88	59.468
483.23	59.202
483.58	59.898
483.92	60.153
484.27	58.130
484.62	59.136
484.97	58.613
485.31	56.288
485.66	55.823
486.01	56.029
486.36	56.987
486.70	59.141
487.05	58.185
487.40	57.853
487.75	56.766
488.09	58.153
488.44	58.897
488.79	58.224
489.13	59.490
489.48	58.809
489.83	59.345
490.17	58.337
490.52	59.783
490.87	58.938
491.22	59.692
491.56	60.787
491.91	59.637
492.26	59.481
492.60	58.991
492.95	59.686
493.30	58.456
493.64	59.050
493.99	58.843
494.34	59.667
494.68	59.036
495.03	59.847
495.37	60.570
495.72	59.725
496.07	60.441
496.41	59.750
496.76	59.772
497.11	60.151
497.45	59.962
497.80	60.730
498.14	60.806
498.49	60.623
498.84	59.854
499.18	60.770
499.53	59.377
499.87	59.846
500.22	60.049
500.56	60.630
500.91	59.409
501.26	60.456
501.60	60.953
501.95	60.821
502.29	59.943
502.64	60.679
502.98	60.086
503.33	59.868
503.67	60.393
504.02	59.971
504.36	60.049
504.71	60.790
505.06	59.760
505.40	61.128
505.75	61.026
506.09	61.375
506.44	59.799
506.78	60.361
507.13	60.659
507.47	61.242
507.82	60.816
508.16	60.984
508.51	61.206
508.85	59.731
509.19	60.230
509.54	61.575
509.88	61.170
510.23	61.373
510.57	61.376
510.92	62.245
511.26	61.457
511.61	60.745
511.95	59.914
512.30	61.847
512.64	60.991
512.98	61.771
513.33	60.901
513.67	61.027
514.02	61.913
514.36	61.330
514.70	60.555
515.05	61.864
515.39	60.727
515.74	62.478
516.08	61.441
516.42	61.530
516.77	61.063
517.11	60.870
517.46	63.577
517.80	62.575
518.14	61.413
518.49	62.702
518.83	61.187
519.17	61.456
519.52	59.398
519.86	62.605
520.20	62.408
520.55	62.092
520.89	61.302
521.23	61.233
521.58	62.320
521.92	62.191
522.26	61.270
522.61	62.421
522.95	60.944
523.29	61.881
523.64	61.149
523.98	62.635
524.32	62.099
524.66	59.379
525.01	62.299
525.35	62.371
525.69	62.720
526.04	62.010
526.38	63.017
526.72	61.111
527.06	62.044
527.41	61.386
527.75	61.650
528.09	62.144
528.43	60.656
528.78	60.239
529.12	62.740
529.46	62.500
529.80	61.782
530.15	60.657
530.49	60.996
530.83	62.148
531.17	62.222
531.51	61.286
531.86	60.369
532.20	60.256
532.54	61.698
532.88	60.540
533.22	61.698
533.57	60.966
533.91	59.925
534.25	60.151
534.59	60.150
534.93	59.490
535.27	60.164
535.62	61.957
535.96	60.246
536.30	60.602
536.64	59.562
536.98	62.147
537.32	59.710
537.66	60.692
538.01	61.100
538.35	60.203
538.69	60.495
539.03	59.986
539.37	61.544
539.71	60.507
540.05	60.932
540.39	61.773
540.73	60.055
541.07	61.339
541.42	59.892
541.76	57.807
542.10	60.297
542.44	59.560
542.78	60.176
543.12	61.439
543.46	59.521
543.80	58.997
544.14	60.175
544.48	60.696
544.82	60.217
545.16	60.429
545.50	60.162
545.84	60.431
546.18	60.818
546.52	60.953
546.86	59.900
547.20	60.689
547.54	59.366
547.88	59.589
548.22	59.240
548.56	59.786
548.90	60.849
549.24	60.757
549.58	60.550
549.92	61.272
550.26	61.488
550.60	59.246
550.94	61.022
551.28	61.099
551.62	59.527
551.96	62.012
552.30	60.557
552.64	60.873
552.98	61.598
553.32	60.967
553.66	60.634
554.00	60.625
554.34	60.289
554.68	60.526
555.02	60.203
555.36	63.767
555.69	60.530
556.03	60.561
556.37	60.242
556.71	59.699
557.05	62.232
557.39	60.134
557.73	60.321
558.07	62.622
558.41	61.406
558.75	61.597
559.08	60.156
559.42	61.256
559.76	62.117
560.10	61.894
560.44	60.910
560.78	60.543
561.12	59.282
561.45	60.274
561.79	60.070
562.13	59.327
562.47	59.804
562.81	60.537
563.15	60.252
563.48	61.092
563.82	60.920
564.16	60.379
564.50	59.745
564.84	58.929
565.17	60.279
565.51	59.452
565.85	62.339
566.19	61.397
566.52	59.230
566.86	60.303
567.20	60.230
567.54	60.957
567.88	57.510
568.21	59.620
568.55	57.900
568.89	56.859
569.23	57.288
569.56	56.200
569.90	56.334
570.24	55.769
570.57	56.063
570.91	55.797
571.25	55.512
571.59	54.917
571.92	54.881
572.26	54.254
572.60	54.421
572.93	54.134
573.27	53.567
573.61	54.345
573.95	53.858
574.28	53.858
574.62	54.703
574.96	53.539
575.29	53.659
575.63	53.916
575.97	53.614
576.30	53.467
576.64	53.446
576.98	52.824
577.31	53.039
577.65	53.433
577.98	52.709
578.32	53.925
578.66	52.863
578.99	52.973
579.33	53.328
579.67	53.310
580.00	53.472
580.34	53.107
580.67	53.788
581.01	52.742
581.35	53.440
581.68	52.481
582.02	53.112
582.35	53.201
582.69	54.035
583.02	54.178
583.36	53.503
583.70	53.507
584.03	54.472
584.37	54.858
584.70	54.110
585.04	54.000
585.37	53.174
585.71	53.314
586.04	54.255
586.38	54.370
586.72	54.425
587.05	55.140
587.39	55.040
587.72	55.084
588.06	55.186
588.39	54.828
588.73	55.250
589.06	55.115
589.40	56.098
589.73	54.993
590.07	55.608
590.40	56.125
590.73	56.617
591.07	56.762
591.40	57.366
591.74	56.473
592.07	56.261
592.41	56.178
592.74	55.919
593.08	55.064
593.41	55.559
593.75	55.556
594.08	56.650
594.41	55.786
594.75	56.550
595.08	55.865
595.42	55.997
595.75	55.715
596.09	55.685
596.42	57.119
596.75	56.619
597.09	56.634
597.42	56.089
597.75	57.086
598.09	57.840
598.42	55.678
598.76	55.274
599.09	56.038
599.42	55.748
599.76	56.210
600.09	55.687
600.42	56.324
600.76	55.330
601.09	54.918
601.42	55.877
601.76	56.425
602.09	56.646
602.42	56.337
602.76	56.377
603.09	56.411
603.42	55.802
603.76	56.203
604.09	56.067
604.42	55.620
604.76	56.040
605.09	55.787
605.42	57.314
605.75	56.878
606.09	55.210
606.42	56.096
606.75	56.076
607.09	56.815
607.42	56.250
607.75	56.468
608.08	56.846
608.42	57.569
608.75	56.449
609.08	56.405
609.41	56.702
609.75	56.363
610.08	56.569
610.41	56.867
610.74	57.737
611.07	57.252
611.41	55.572
611.74	57.378
612.07	59.130
612.40	57.463
612.73	58.104
613.07	58.283
613.40	58.511
613.73	57.548
614.06	56.837
614.39	58.117
614.72	56.201
615.06	55.326
615.39	56.755
615.72	57.360
616.05	56.378
616.38	57.226
616.71	57.477
617.05	58.082
617.38	57.957
617.71	57.801
618.04	58.323
618.37	59.057
618.70	59.518
619.03	58.903
619.36	58.562
619.69	60.517
620.03	58.747
620.36	58.087
620.69	60.302
621.02	60.122
621.35	61.452
621.68	60.574
622.01	60.922
622.34	59.084
622.67	59.531
623.00	60.597
623.33	60.970
623.66	58.789
623.99	60.000
624.32	59.896
624.65	59.455
624.99	60.642
625.32	58.234
625.65	61.461
625.98	59.937
626.31	60.767
626.64	59.833
626.97	59.932
627.30	61.106
627.63	60.449
627.96	59.269
628.29	61.857
628.62	59.790
628.95	62.697
629.28	61.936
629.61	61.825
629.94	63.800
630.26	64.314
630.59	63.819
630.92	62.262
631.25	62.903
631.58	64.550
631.91	61.702
632.24	63.556
632.57	63.333
632.90	63.678
633.23	63.318
633.56	61.520
633.89	64.623
634.22	64.581
634.55	63.341
634.88	61.548
