SpectraSuite Data File
++++++++++++++++++++++++++++++++++++
Date: Sat May 16 11:16:24 PDT 2015
User: schluterlab
Dark Spectrum Present: Yes
Reference Spectrum Present: Yes
Number of Sampled Component Spectra: 1
Spectrometers: USB2E3373
Integration Time (usec): 3000 (USB2E3373)
Spectra Averaged: 3 (USB2E3373)
Boxcar Smoothing: 0 (USB2E3373)
Correct for Electrical Dark: No (USB2E3373)
Strobe/Lamp Enabled: No (USB2E3373)
Correct for Detector Non-linearity: No (USB2E3373)
Correct for Stray Light: No (USB2E3373)
Number of Pixels in Processed Spectrum: 2048
>>>>>Begin Processed Spectral Data<<<<<
178.53	0.000
178.91	126.667
179.29	466.667
179.67	-500.000
180.04	-23.077
180.42	800.000
180.80	200.000
181.18	125.000
181.56	25.000
181.94	-500.000
182.31	400.000
182.69	-30.769
183.07	-133.333
183.45	1000.000
183.83	366.667
184.20	-71.429
184.58	-62.500
184.96	25.000
185.34	156.250
185.72	-375.000
186.09	16.667
186.47	-75.000
186.85	-100.000
187.23	75.000
187.61	100.000
187.98	-262.500
188.36	-200.000
188.74	-237.500
189.12	500.000
189.49	371.429
189.87	-25.000
190.25	225.000
190.63	0.000
191.00	-33.333
191.38	240.000
191.76	13.333
192.14	480.000
192.51	-40.000
192.89	-333.333
193.27	0.000
193.65	-44.444
194.02	-100.000
194.40	33.333
194.78	-70.000
195.15	-1600.000
195.53	-90.909
195.91	-350.000
196.29	240.000
196.66	-466.667
197.04	1800.000
197.42	-125.000
197.79	33.333
198.17	-66.667
198.55	-400.000
198.92	-1300.000
199.30	112.500
199.68	-450.000
200.05	-77.778
200.43	-11.111
200.81	-1100.000
201.18	-41.667
201.56	57.143
201.94	6.667
202.31	22.727
202.69	100.000
203.07	-120.000
203.44	533.333
203.82	-166.667
204.19	-175.000
204.57	-75.000
204.95	-1100.000
205.32	-37.500
205.70	100.000
206.08	-1900.000
206.45	11.111
206.83	-700.000
207.20	-100.000
207.58	-400.000
207.96	-200.000
208.33	-100.000
208.71	-100.000
209.08	130.000
209.46	-242.857
209.84	150.000
210.21	0.000
210.59	40.000
210.96	400.000
211.34	-116.667
211.71	-266.667
212.09	-50.000
212.46	650.000
212.84	-2200.000
213.22	400.000
213.59	150.000
213.97	0.000
214.34	190.000
214.72	-10.000
215.09	-366.667
215.47	16.667
215.84	30.000
216.22	10.000
216.59	0.000
216.97	-375.000
217.34	1000.000
217.72	-57.143
218.09	-150.000
218.47	-185.714
218.84	114.286
219.22	-114.286
219.59	0.000
219.97	142.857
220.34	-50.000
220.72	162.500
221.09	38.462
221.47	0.000
221.84	266.667
222.22	-400.000
222.59	-0.000
222.97	-150.000
223.34	-300.000
223.72	-333.333
224.09	-28.571
224.46	-100.000
224.84	-57.143
225.21	-100.000
225.59	36.364
225.96	-37.500
226.34	0.000
226.71	-133.333
227.08	-10.000
227.46	800.000
227.83	-85.714
228.21	-250.000
228.58	-200.000
228.95	-37.500
229.33	-1100.000
229.70	-220.000
230.08	-250.000
230.45	50.000
230.82	-83.333
231.20	-500.000
231.57	-500.000
231.95	1200.000
232.32	14.286
232.69	-77.778
233.07	-128.571
233.44	-850.000
233.81	-80.000
234.19	-111.111
234.56	-31.250
234.93	40.625
235.31	-314.286
235.68	-142.857
236.05	-35.294
236.43	-54.545
236.80	-25.806
237.17	-16.667
237.55	-104.762
237.92	-40.909
238.29	2.857
238.67	-5.882
239.04	2.778
239.41	-54.839
239.79	-17.949
240.16	-11.905
240.53	-14.545
240.91	2.564
241.28	-10.909
241.65	3.077
242.02	3.279
242.40	-29.508
242.77	-3.030
243.14	0.000
243.51	-21.429
243.89	1.266
244.26	1.124
244.63	3.158
245.00	0.000
245.38	5.932
245.75	0.000
246.12	-8.000
246.49	-2.362
246.87	-0.813
247.24	-16.102
247.61	-14.407
247.98	-4.225
248.36	0.699
248.73	-0.633
249.10	-8.280
249.47	-1.754
249.84	3.409
250.22	-5.357
250.59	5.650
250.96	0.524
251.33	8.531
251.70	0.962
252.08	0.948
252.45	-0.474
252.82	-2.381
253.19	0.851
253.56	0.403
253.94	-0.422
254.31	-1.288
254.68	-1.220
255.05	-6.855
255.42	0.397
255.79	-0.717
256.16	0.784
256.54	-1.471
256.91	0.379
257.28	-3.297
257.65	-0.355
258.02	3.459
258.39	0.334
258.76	-2.027
259.14	1.235
259.51	-3.607
259.88	-0.915
260.25	3.106
260.62	-4.502
260.99	0.593
261.36	0.610
261.73	3.179
262.10	3.889
262.47	-1.994
262.85	0.286
263.22	-0.287
263.59	-1.846
263.96	1.159
264.33	-0.542
264.70	2.762
265.07	-0.824
265.44	-1.034
265.81	-2.067
266.18	-1.772
266.55	0.000
266.92	0.504
267.29	2.663
267.66	-1.728
268.03	3.382
268.40	1.174
268.77	0.241
269.14	-2.088
269.51	2.069
269.88	-3.211
270.25	-2.098
270.62	-0.458
270.99	-2.928
271.36	-0.233
271.73	1.570
272.10	1.373
272.47	-1.333
272.84	2.000
273.21	0.229
273.58	1.099
273.95	0.439
274.32	0.679
274.69	3.501
275.06	1.022
275.43	-0.223
275.80	2.240
276.17	1.674
276.54	1.018
276.91	-0.412
277.28	2.231
277.65	-2.479
278.02	0.835
278.39	0.589
278.76	-0.598
279.13	-0.198
279.50	-0.596
279.87	-1.057
280.23	-0.202
280.60	1.988
280.97	-0.777
281.34	1.161
281.71	-0.577
282.08	-1.008
282.45	-1.018
282.82	-2.907
283.19	1.636
283.56	-0.549
283.92	1.060
284.29	-0.743
284.66	0.000
285.03	1.248
285.40	-0.369
285.77	0.702
286.14	-1.083
286.51	0.355
286.87	-0.363
287.24	1.024
287.61	-0.496
287.98	-1.733
288.35	-1.653
288.72	1.868
289.08	-0.508
289.45	0.505
289.82	-2.076
290.19	1.314
290.56	-1.983
290.93	0.795
291.29	-0.810
291.66	-2.415
292.03	0.785
292.40	1.807
292.77	0.155
293.13	0.163
293.50	1.040
293.87	0.767
294.24	1.207
294.60	-0.909
294.97	-0.303
295.34	-0.741
295.71	-0.446
296.08	-1.997
296.44	-1.001
296.81	0.712
297.18	-0.845
297.55	0.000
297.91	0.976
298.28	-2.055
298.65	0.279
299.02	1.337
299.38	0.134
299.75	-1.087
300.12	2.051
300.48	2.174
300.85	0.262
301.22	2.199
301.59	-0.130
301.95	2.393
302.32	-0.652
302.69	0.245
303.05	-0.488
303.42	-0.250
303.79	0.359
304.15	0.948
304.52	0.467
304.89	0.590
305.25	0.244
305.62	0.470
305.99	2.709
306.35	1.332
306.72	0.228
307.09	1.589
307.45	1.135
307.82	1.117
308.19	1.230
308.55	1.525
308.92	0.752
309.29	1.514
309.65	1.273
310.02	1.728
310.38	1.297
310.75	2.766
311.12	1.860
311.48	2.401
311.85	0.721
312.22	1.854
312.58	3.052
312.95	0.917
313.31	2.298
313.68	2.613
314.05	3.264
314.41	2.012
314.78	0.799
315.14	3.653
315.51	2.026
315.87	4.356
316.24	4.276
316.61	3.743
316.97	4.378
317.34	3.565
317.70	3.711
318.07	4.478
318.43	4.775
318.80	5.258
319.16	4.128
319.53	5.639
319.89	5.644
320.26	5.098
320.62	3.750
320.99	4.776
321.35	5.123
321.72	5.118
322.08	5.935
322.45	6.040
322.81	7.205
323.18	7.397
323.54	7.394
323.91	7.229
324.27	7.510
324.64	7.678
325.00	7.592
325.37	8.145
325.73	9.799
326.10	7.529
326.46	8.932
326.83	8.596
327.19	9.842
327.56	10.307
327.92	9.941
328.29	9.957
328.65	9.182
329.01	9.629
329.38	10.794
329.74	10.806
330.11	11.786
330.47	10.899
330.84	12.099
331.20	10.921
331.56	10.483
331.93	10.124
332.29	11.598
332.66	11.062
333.02	11.312
333.38	12.366
333.75	12.199
334.11	12.533
334.48	11.650
334.84	13.386
335.20	12.323
335.57	11.372
335.93	13.250
336.29	13.020
336.66	11.982
337.02	12.973
337.38	11.497
337.75	12.643
338.11	12.522
338.47	13.256
338.84	12.613
339.20	12.742
339.56	13.369
339.93	12.610
340.29	13.463
340.65	12.762
341.02	13.153
341.38	12.216
341.74	13.040
342.11	12.799
342.47	13.219
342.83	12.594
343.20	12.553
343.56	12.327
343.92	13.356
344.28	13.541
344.65	12.211
345.01	12.269
345.37	13.040
345.73	11.866
346.10	11.693
346.46	13.241
346.82	12.510
347.19	12.408
347.55	12.600
347.91	13.858
348.27	13.047
348.63	11.712
349.00	12.649
349.36	11.866
349.72	12.978
350.08	12.590
350.45	12.687
350.81	11.624
351.17	12.219
351.53	12.331
351.89	12.773
352.26	12.326
352.62	13.134
352.98	12.184
353.34	12.950
353.70	12.896
354.07	12.825
354.43	13.676
354.79	12.678
355.15	12.380
355.51	11.641
355.87	12.648
356.24	12.867
356.60	13.860
356.96	13.318
357.32	12.589
357.68	12.950
358.04	13.087
358.40	11.678
358.77	12.365
359.13	12.548
359.49	13.379
359.85	12.119
360.21	13.699
360.57	14.081
360.93	12.741
361.29	12.332
361.66	11.204
362.02	12.056
362.38	14.160
362.74	13.407
363.10	13.199
363.46	14.957
363.82	13.338
364.18	13.603
364.54	14.796
364.90	13.487
365.26	13.338
365.62	13.685
365.98	14.154
366.35	13.873
366.71	13.037
367.07	13.479
367.43	14.207
367.79	13.952
368.15	12.802
368.51	14.615
368.87	14.560
369.23	13.754
369.59	13.333
369.95	14.235
370.31	14.698
370.67	13.666
371.03	14.504
371.39	13.296
371.75	14.235
372.11	14.634
372.47	14.389
372.83	15.160
373.19	14.643
373.55	14.708
373.91	14.438
374.27	14.716
374.63	14.355
374.99	14.256
375.35	15.074
375.71	15.395
376.07	14.100
376.42	14.238
376.78	15.098
377.14	16.203
377.50	15.023
377.86	15.800
378.22	15.138
378.58	14.453
378.94	14.920
379.30	15.296
379.66	15.786
380.02	15.152
380.38	15.347
380.74	15.533
381.09	15.290
381.45	16.408
381.81	15.245
382.17	15.226
382.53	14.894
382.89	16.208
383.25	16.315
383.61	15.802
383.97	16.718
384.32	15.645
384.68	16.264
385.04	15.700
385.40	15.642
385.76	16.829
386.12	16.989
386.48	17.203
386.83	16.380
387.19	17.215
387.55	16.596
387.91	16.420
388.27	15.561
388.62	16.286
388.98	16.657
389.34	16.157
389.70	16.565
390.06	17.091
390.42	16.731
390.77	17.855
391.13	17.391
391.49	17.093
391.85	16.833
392.20	16.383
392.56	16.249
392.92	17.171
393.28	17.336
393.64	18.821
393.99	17.600
394.35	17.275
394.71	16.924
395.07	18.016
395.42	16.925
395.78	16.468
396.14	18.069
396.50	17.798
396.85	18.075
397.21	18.287
397.57	18.237
397.92	18.326
398.28	17.167
398.64	17.371
399.00	17.921
399.35	17.700
399.71	18.293
400.07	18.448
400.42	18.005
400.78	17.233
401.14	19.102
401.49	18.042
401.85	17.938
402.21	18.355
402.57	18.265
402.92	17.873
403.28	17.831
403.63	17.316
403.99	17.464
404.35	18.056
404.70	18.607
405.06	18.397
405.42	17.405
405.77	17.590
406.13	17.660
406.49	17.975
406.84	17.696
407.20	18.669
407.55	18.809
407.91	17.681
408.27	18.076
408.62	17.799
408.98	18.375
409.34	18.282
409.69	18.463
410.05	17.404
410.40	18.271
410.76	18.079
411.11	19.202
411.47	18.990
411.83	18.888
412.18	18.317
412.54	19.097
412.89	19.320
413.25	17.769
413.60	18.712
413.96	17.560
414.31	18.838
414.67	17.460
415.03	18.435
415.38	18.868
415.74	19.008
416.09	19.182
416.45	17.989
416.80	18.205
417.16	18.538
417.51	18.779
417.87	19.288
418.22	19.848
418.58	19.063
418.93	19.068
419.29	19.009
419.64	18.719
420.00	19.198
420.35	19.338
420.71	19.028
421.06	18.994
421.42	17.681
421.77	19.821
422.12	19.810
422.48	19.669
422.83	19.476
423.19	20.212
423.54	19.251
423.90	19.028
424.25	18.835
424.61	20.386
424.96	20.363
425.31	18.893
425.67	19.828
426.02	18.818
426.38	20.024
426.73	19.521
427.09	19.914
427.44	20.000
427.79	19.302
428.15	20.467
428.50	20.645
428.85	20.324
429.21	19.757
429.56	19.844
429.92	20.691
430.27	20.887
430.62	20.846
430.98	19.864
431.33	20.491
431.68	20.375
432.04	20.593
432.39	20.969
432.74	20.743
433.10	21.159
433.45	20.035
433.80	21.221
434.16	20.419
434.51	21.151
434.86	21.558
435.22	20.379
435.57	20.563
435.92	20.457
436.28	20.772
436.63	21.142
436.98	19.931
437.34	21.382
437.69	20.362
438.04	20.193
438.39	21.239
438.75	20.955
439.10	20.877
439.45	20.881
439.81	21.506
440.16	20.954
440.51	21.000
440.86	20.821
441.22	21.227
441.57	21.316
441.92	21.893
442.27	21.807
442.63	20.976
442.98	20.993
443.33	21.636
443.68	21.365
444.03	21.562
444.39	21.390
444.74	22.137
445.09	22.039
445.44	21.778
445.79	21.367
446.15	21.303
446.50	20.686
446.85	22.063
447.20	21.910
447.55	22.210
447.91	21.617
448.26	22.067
448.61	21.336
448.96	22.017
449.31	21.533
449.66	22.152
450.02	21.053
450.37	21.797
450.72	21.921
451.07	22.062
451.42	21.375
451.77	21.305
452.12	21.931
452.47	22.103
452.83	21.374
453.18	22.960
453.53	22.450
453.88	21.950
454.23	21.463
454.58	22.063
454.93	22.418
455.28	21.542
455.63	22.297
455.98	22.108
456.34	20.966
456.69	22.702
457.04	22.127
457.39	21.950
457.74	22.150
458.09	21.752
458.44	23.037
458.79	21.637
459.14	22.305
459.49	22.854
459.84	22.372
460.19	21.838
460.54	21.355
460.89	21.805
461.24	22.162
461.59	22.040
461.94	22.788
462.29	22.216
462.64	22.925
462.99	22.021
463.34	21.742
463.69	22.010
464.04	21.558
464.39	21.804
464.74	22.045
465.09	21.227
465.44	21.997
465.79	22.053
466.14	23.418
466.49	21.819
466.84	21.849
467.19	22.070
467.54	22.089
467.89	22.441
468.24	21.971
468.59	21.674
468.94	23.151
469.29	22.157
469.64	22.305
469.99	23.295
470.34	22.378
470.68	23.765
471.03	23.744
471.38	21.736
471.73	22.797
472.08	23.829
472.43	22.394
472.78	23.200
473.13	20.875
473.48	22.080
473.83	21.960
474.17	22.166
474.52	23.018
474.87	22.552
475.22	22.183
475.57	22.278
475.92	23.002
476.27	22.571
476.61	22.592
476.96	22.415
477.31	22.820
477.66	22.302
478.01	22.690
478.36	22.630
478.70	22.210
479.05	23.202
479.40	22.228
479.75	23.038
480.10	22.222
480.45	21.615
480.79	22.409
481.14	23.131
481.49	23.621
481.84	22.654
482.19	22.476
482.53	22.680
482.88	21.927
483.23	22.864
483.58	22.895
483.92	22.981
484.27	22.286
484.62	22.808
484.97	22.447
485.31	22.176
485.66	21.871
486.01	22.169
486.36	22.305
486.70	22.740
487.05	22.330
487.40	22.623
487.75	22.515
488.09	21.804
488.44	22.023
488.79	22.639
489.13	21.529
489.48	23.573
489.83	23.319
490.17	22.856
490.52	23.641
490.87	21.709
491.22	22.840
491.56	23.241
491.91	23.235
492.26	23.019
492.60	22.645
492.95	22.703
493.30	22.392
493.64	22.238
493.99	22.706
494.34	22.810
494.68	23.689
495.03	23.040
495.37	22.566
495.72	23.281
496.07	23.088
496.41	23.205
496.76	22.877
497.11	22.939
497.45	23.084
497.80	23.712
498.14	23.281
498.49	22.501
498.84	23.155
499.18	23.538
499.53	23.039
499.87	22.587
500.22	22.451
500.56	21.861
500.91	22.266
501.26	23.144
501.60	22.340
501.95	23.237
502.29	22.910
502.64	23.621
502.98	22.952
503.33	22.885
503.67	22.893
504.02	23.225
504.36	23.186
504.71	22.898
505.06	23.065
505.40	23.503
505.75	22.917
506.09	23.559
506.44	23.108
506.78	23.332
507.13	22.812
507.47	23.526
507.82	23.593
508.16	23.161
508.51	22.205
508.85	23.292
509.19	22.658
509.54	22.780
509.88	23.564
510.23	23.480
510.57	24.180
510.92	23.953
511.26	22.807
511.61	22.840
511.95	22.845
512.30	23.035
512.64	22.649
512.98	23.707
513.33	23.723
513.67	22.781
514.02	22.763
514.36	23.435
514.70	23.543
515.05	23.328
515.39	23.356
515.74	24.782
516.08	24.092
516.42	22.890
516.77	24.148
517.11	23.970
517.46	24.462
517.80	24.428
518.14	23.430
518.49	23.849
518.83	23.917
519.17	23.801
519.52	23.135
519.86	24.074
520.20	24.205
520.55	24.554
520.89	22.730
521.23	24.115
521.58	23.762
521.92	24.763
522.26	24.063
522.61	24.778
522.95	23.803
523.29	23.762
523.64	22.986
523.98	23.870
524.32	23.884
524.66	23.292
525.01	22.929
525.35	25.258
525.69	23.682
526.04	24.804
526.38	24.761
526.72	22.542
527.06	23.633
527.41	23.036
527.75	23.564
528.09	23.230
528.43	24.197
528.78	23.618
529.12	24.968
529.46	23.454
529.80	24.274
530.15	23.954
530.49	24.838
530.83	24.885
531.17	23.906
531.51	23.845
531.86	23.502
532.20	24.561
532.54	24.599
532.88	24.111
533.22	23.663
533.57	23.499
533.91	23.596
534.25	23.256
534.59	23.860
534.93	22.962
535.27	24.166
535.62	24.552
535.96	23.594
536.30	22.709
536.64	24.236
536.98	24.576
537.32	23.428
537.66	24.576
538.01	23.918
538.35	24.730
538.69	23.930
539.03	24.509
539.37	24.817
539.71	24.216
540.05	23.783
540.39	23.892
540.73	23.981
541.07	23.770
541.42	23.498
541.76	22.458
542.10	24.240
542.44	23.917
542.78	23.948
543.12	24.440
543.46	23.493
543.80	23.612
544.14	22.968
544.48	24.278
544.82	23.275
545.16	23.608
545.50	22.678
545.84	24.478
546.18	23.232
546.52	23.755
546.86	23.291
547.20	24.332
547.54	23.623
547.88	22.760
548.22	22.084
548.56	23.313
548.90	24.326
549.24	22.845
549.58	24.206
549.92	23.604
550.26	23.988
550.60	23.969
550.94	23.942
551.28	23.777
551.62	24.298
551.96	23.517
552.30	23.554
552.64	22.942
552.98	23.616
553.32	24.459
553.66	24.802
554.00	24.662
554.34	22.744
554.68	23.611
555.02	24.385
555.36	23.436
555.69	23.854
556.03	23.930
556.37	24.609
556.71	23.622
557.05	24.169
557.39	23.014
557.73	24.289
558.07	23.060
558.41	24.084
558.75	24.487
559.08	23.035
559.42	23.966
559.76	23.313
560.10	24.310
560.44	24.061
560.78	23.034
561.12	23.326
561.45	23.699
561.79	23.345
562.13	23.422
562.47	23.319
562.81	24.116
563.15	23.513
563.48	23.704
563.82	22.786
564.16	23.394
564.50	23.387
564.84	23.479
565.17	24.005
565.51	24.707
565.85	24.070
566.19	24.374
566.52	23.483
566.86	22.756
567.20	23.850
567.54	24.040
567.88	23.953
568.21	23.043
568.55	23.330
568.89	23.111
569.23	23.508
569.56	22.741
569.90	23.210
570.24	23.675
570.57	22.707
570.91	22.339
571.25	23.573
571.59	23.384
571.92	22.619
572.26	23.158
572.60	22.805
572.93	22.174
573.27	22.226
573.61	22.139
573.95	22.272
574.28	22.087
574.62	22.420
574.96	22.408
575.29	21.824
575.63	22.299
575.97	21.737
576.30	22.362
576.64	22.533
576.98	21.772
577.31	22.002
577.65	22.612
577.98	22.171
578.32	21.574
578.66	21.579
578.99	22.427
579.33	22.155
579.67	22.369
580.00	22.024
580.34	22.652
580.67	22.285
581.01	21.892
581.35	22.070
581.68	22.004
582.02	22.581
582.35	22.021
582.69	22.278
583.02	22.325
583.36	21.926
583.70	22.171
584.03	22.495
584.37	22.219
584.70	22.469
585.04	21.899
585.37	21.408
585.71	21.746
586.04	22.188
586.38	21.732
586.72	22.492
587.05	22.288
587.39	22.453
587.72	22.671
588.06	22.036
588.39	22.017
588.73	22.480
589.06	22.858
589.40	22.810
589.73	21.990
590.07	22.360
590.40	22.177
590.73	22.511
591.07	22.090
591.40	22.704
591.74	22.415
592.07	22.568
592.41	22.378
592.74	23.059
593.08	23.069
593.41	22.664
593.75	21.991
594.08	22.394
594.41	23.142
594.75	22.461
595.08	22.519
595.42	22.435
595.75	22.308
596.09	22.429
596.42	22.545
596.75	22.682
597.09	23.108
597.42	22.174
597.75	22.498
598.09	23.000
598.42	22.006
598.76	22.757
599.09	22.652
599.42	21.992
599.76	21.895
600.09	23.092
600.42	23.092
600.76	22.712
601.09	23.054
601.42	22.359
601.76	22.508
602.09	22.209
602.42	22.551
602.76	22.102
603.09	22.540
603.42	22.724
603.76	22.896
604.09	22.988
604.42	22.606
604.76	22.285
605.09	23.282
605.42	22.695
605.75	22.208
606.09	22.416
606.42	22.120
606.75	22.542
607.09	22.541
607.42	22.931
607.75	22.163
608.08	23.000
608.42	23.699
608.75	21.963
609.08	23.039
609.41	23.069
609.75	22.867
610.08	23.382
610.41	22.506
610.74	22.872
611.07	22.465
611.41	22.693
611.74	22.879
612.07	23.147
612.40	22.601
612.73	22.833
613.07	22.289
613.40	23.536
613.73	22.943
614.06	22.680
614.39	23.732
614.72	22.626
615.06	22.935
615.39	23.440
615.72	23.520
616.05	22.860
616.38	23.331
616.71	22.703
617.05	23.221
617.38	23.220
617.71	21.867
618.04	23.292
618.37	22.516
618.70	23.990
619.03	23.426
619.36	23.890
619.69	23.546
620.03	23.209
620.36	23.136
620.69	23.833
621.02	23.440
621.35	22.903
621.68	23.607
622.01	24.029
622.34	23.447
622.67	24.063
623.00	23.795
623.33	23.657
623.66	22.674
623.99	22.932
624.32	23.735
624.65	23.915
624.99	23.226
625.32	23.653
625.65	23.465
625.98	22.692
626.31	23.491
626.64	23.096
626.97	24.572
627.30	23.064
627.63	22.539
627.96	24.021
628.29	24.357
628.62	24.164
628.95	24.606
629.28	24.060
629.61	24.043
629.94	24.764
630.26	24.652
630.59	23.719
630.92	23.624
631.25	25.302
631.58	25.503
631.91	21.064
632.24	24.778
632.57	24.889
632.90	24.023
633.23	24.299
633.56	23.275
633.89	23.821
634.22	25.030
634.55	23.798
634.88	24.426
635.20	22.846
635.53	23.791
