SpectraSuite Data File
++++++++++++++++++++++++++++++++++++
Date: Sat May 16 11:10:58 PDT 2015
User: schluterlab
Dark Spectrum Present: Yes
Reference Spectrum Present: Yes
Number of Sampled Component Spectra: 1
Spectrometers: USB2E3373
Integration Time (usec): 3000 (USB2E3373)
Spectra Averaged: 3 (USB2E3373)
Boxcar Smoothing: 0 (USB2E3373)
Correct for Electrical Dark: No (USB2E3373)
Strobe/Lamp Enabled: No (USB2E3373)
Correct for Detector Non-linearity: No (USB2E3373)
Correct for Stray Light: No (USB2E3373)
Number of Pixels in Processed Spectrum: 2048
>>>>>Begin Processed Spectral Data<<<<<
178.53	0.000
178.91	33.333
179.29	233.333
179.67	-100.000
180.04	-15.385
180.42	-800.000
180.80	25.000
181.18	300.000
181.56	-112.500
181.94	200.000
182.31	275.000
182.69	53.846
183.07	-600.000
183.45	1150.000
183.83	33.333
184.20	-142.857
184.58	-62.500
184.96	-25.000
185.34	87.500
185.72	-300.000
186.09	116.667
186.47	-37.500
186.85	-125.000
187.23	137.500
187.61	-275.000
187.98	-250.000
188.36	-75.000
188.74	-150.000
189.12	500.000
189.49	285.714
189.87	16.667
190.25	25.000
190.63	-50.000
191.00	-77.778
191.38	180.000
191.76	73.333
192.14	300.000
192.51	-180.000
192.89	-233.333
193.27	0.000
193.65	11.111
194.02	-128.571
194.40	166.667
194.78	40.000
195.15	0.000
195.53	-18.182
195.91	-250.000
196.29	40.000
196.66	-366.667
197.04	1900.000
197.42	275.000
197.79	60.000
198.17	-266.667
198.55	-650.000
198.92	-1000.000
199.30	175.000
199.68	250.000
200.05	-133.333
200.43	-33.333
200.81	-800.000
201.18	-58.333
201.56	114.286
201.94	-40.000
202.31	40.909
202.69	100.000
203.07	-40.000
203.44	400.000
203.82	-200.000
204.19	-25.000
204.57	0.000
204.95	200.000
205.32	6.250
205.70	300.000
206.08	-500.000
206.45	22.222
206.83	-50.000
207.20	0.000
207.58	-400.000
207.96	-66.667
208.33	-62.500
208.71	11.111
209.08	70.000
209.46	-57.143
209.84	650.000
210.21	0.000
210.59	90.000
210.96	400.000
211.34	-116.667
211.71	-100.000
212.09	75.000
212.46	500.000
212.84	-1500.000
213.22	133.333
213.59	33.333
213.97	-88.889
214.34	30.000
214.72	0.000
215.09	-133.333
215.47	33.333
215.84	-20.000
216.22	-20.000
216.59	26.667
216.97	-325.000
217.34	150.000
217.72	-128.571
218.09	-150.000
218.47	-157.143
218.84	142.857
219.22	-71.429
219.59	0.000
219.97	28.571
220.34	350.000
220.72	87.500
221.09	53.846
221.47	0.000
221.84	66.667
222.22	-400.000
222.59	1200.000
222.97	-125.000
223.34	-50.000
223.72	-266.667
224.09	-14.286
224.46	-275.000
224.84	-14.286
225.21	-157.143
225.59	-54.545
225.96	-125.000
226.34	-114.286
226.71	-88.889
227.08	-5.000
227.46	300.000
227.83	-142.857
228.21	-25.000
228.58	50.000
228.95	87.500
229.33	-1200.000
229.70	0.000
230.08	-800.000
230.45	25.000
230.82	-33.333
231.20	200.000
231.57	-100.000
231.95	900.000
232.32	57.143
232.69	-66.667
233.07	-171.429
233.44	-300.000
233.81	6.667
234.19	22.222
234.56	-50.000
234.93	37.500
235.31	-171.429
235.68	-21.429
236.05	-47.059
236.43	-27.273
236.80	-48.387
237.17	8.333
237.55	-38.095
237.92	-18.182
238.29	-8.571
238.67	-20.588
239.04	5.556
239.41	-12.903
239.79	-43.590
240.16	-16.667
240.53	-18.182
240.91	-10.256
241.28	7.273
241.65	0.000
242.02	4.918
242.40	-21.311
242.77	4.545
243.14	-11.864
243.51	-32.857
243.89	-6.329
244.26	-17.978
244.63	-3.158
245.00	0.000
245.38	3.390
245.75	-4.425
246.12	-4.800
246.49	7.874
246.87	-10.569
247.24	-3.390
247.61	-11.864
247.98	-7.042
248.36	0.000
248.73	-2.532
249.10	-2.548
249.47	0.000
249.84	-0.568
250.22	-1.786
250.59	0.000
250.96	2.618
251.33	-0.948
251.70	-2.404
252.08	-1.896
252.45	-4.265
252.82	-8.571
253.19	0.851
253.56	0.806
253.94	-0.422
254.31	-5.579
254.68	-3.659
255.05	-5.242
255.42	-0.397
255.79	-5.018
256.16	-4.314
256.54	-1.103
256.91	-1.894
257.28	-3.663
257.65	1.773
258.02	2.516
258.39	-1.338
258.76	-0.676
259.14	-3.395
259.51	2.951
259.88	0.305
260.25	4.037
260.62	-3.859
260.99	-2.374
261.36	1.220
261.73	0.289
262.10	3.333
262.47	0.000
262.85	2.286
263.22	-0.860
263.59	-2.154
263.96	-1.159
264.33	-1.626
264.70	-1.934
265.07	-2.198
265.44	-1.809
265.81	-1.550
266.18	-2.785
266.55	-2.206
266.92	2.519
267.29	0.242
267.66	-1.481
268.03	3.140
268.40	0.939
268.77	1.687
269.14	-0.232
269.51	1.379
269.88	-2.523
270.25	-2.797
270.62	-1.831
270.99	0.676
271.36	-2.098
271.73	1.345
272.10	-2.288
272.47	-2.444
272.84	2.444
273.21	1.147
273.58	0.879
273.95	-0.219
274.32	-1.357
274.69	0.000
275.06	-0.204
275.43	-2.455
275.80	0.407
276.17	0.837
276.54	1.222
276.91	-1.852
277.28	-1.217
277.65	-2.273
278.02	-0.209
278.39	-0.786
278.76	-1.594
279.13	-3.360
279.50	-0.398
279.87	0.846
280.23	-0.405
280.60	-1.789
280.97	-2.718
281.34	-3.482
281.71	-1.346
282.08	0.202
282.45	-4.684
282.82	-0.969
283.19	-1.091
283.56	2.381
283.92	0.530
284.29	-0.186
284.66	0.540
285.03	2.496
285.40	1.107
285.77	-0.877
286.14	-0.542
286.51	-1.243
286.87	1.089
287.24	-0.853
287.61	1.322
287.98	-0.173
288.35	-0.331
288.72	-1.019
289.08	-2.034
289.45	-0.168
289.82	-1.730
290.19	1.478
290.56	0.165
290.93	-0.954
291.29	-1.621
291.66	-0.966
292.03	0.157
292.40	-0.452
292.77	-0.776
293.13	0.488
293.50	1.634
293.87	2.147
294.24	-0.151
294.60	0.758
294.97	1.669
295.34	-0.296
295.71	-0.446
296.08	-2.304
296.44	-0.286
296.81	0.855
297.18	-0.282
297.55	-0.424
297.91	0.697
298.28	0.822
298.65	0.418
299.02	1.070
299.38	-0.535
299.75	-0.136
300.12	0.769
300.48	0.895
300.85	-1.311
301.22	0.000
301.59	-1.821
301.95	1.134
302.32	0.000
302.69	1.102
303.05	1.099
303.42	0.250
303.79	-0.120
304.15	-0.118
304.52	0.817
304.89	0.945
305.25	-0.611
305.62	-0.353
305.99	1.178
306.35	1.554
306.72	-1.253
307.09	1.930
307.45	1.589
307.82	-0.447
308.19	0.336
308.55	0.000
308.92	-0.215
309.29	-0.649
309.65	-0.318
310.02	0.756
310.38	0.432
310.75	0.615
311.12	-0.207
311.48	-0.522
311.85	0.515
312.22	0.721
312.58	1.221
312.95	1.019
313.31	1.399
313.68	1.206
314.05	1.978
314.41	1.006
314.78	0.300
315.14	1.678
315.51	1.013
315.87	1.549
316.24	1.652
316.61	1.919
316.97	1.393
317.34	0.578
317.70	0.742
318.07	1.493
318.43	2.247
318.80	2.723
319.16	0.750
319.53	1.222
319.89	1.317
320.26	1.471
320.62	1.731
320.99	2.388
321.35	1.084
321.72	1.228
322.08	1.484
322.45	1.485
322.81	2.402
323.18	2.498
323.54	3.235
323.91	3.244
324.27	3.042
324.64	2.468
325.00	5.061
325.37	4.344
325.73	5.162
326.10	4.163
326.46	4.904
326.83	4.000
327.19	5.838
327.56	6.644
327.92	6.372
328.29	6.580
328.65	6.182
329.01	7.420
329.38	7.315
329.74	8.059
330.11	8.522
330.47	8.629
330.84	11.091
331.20	9.386
331.56	10.301
331.93	10.391
332.29	11.872
332.66	12.028
333.02	11.946
333.38	12.276
333.75	11.754
334.11	11.911
334.48	12.268
334.84	14.873
335.20	13.475
335.57	13.267
335.93	15.309
336.29	13.552
336.66	13.744
337.02	14.505
337.38	12.923
337.75	13.784
338.11	13.506
338.47	13.879
338.84	14.882
339.20	14.675
339.56	15.597
339.93	13.580
340.29	13.109
340.65	14.773
341.02	15.008
341.38	14.659
341.74	14.310
342.11	13.993
342.47	13.648
342.83	14.274
343.20	14.688
343.56	13.143
343.92	15.192
344.28	14.466
344.65	14.274
345.01	14.034
345.37	14.452
345.73	13.748
346.10	13.164
346.46	12.673
346.82	13.152
347.19	12.654
347.55	13.242
347.91	13.937
348.27	12.411
348.63	14.782
349.00	13.683
349.36	12.568
349.72	15.127
350.08	13.232
350.45	13.396
350.81	14.411
351.17	12.781
351.53	13.445
351.89	14.632
352.26	14.651
352.62	14.363
352.98	14.478
353.34	14.069
353.70	12.432
354.07	13.926
354.43	14.387
354.79	13.154
355.15	14.058
355.51	13.281
355.87	13.281
356.24	13.423
356.60	15.552
356.96	14.242
357.32	13.539
357.68	14.406
358.04	14.088
358.40	12.838
358.77	13.833
359.13	14.690
359.49	14.286
359.85	13.872
360.21	14.764
360.57	14.834
360.93	14.815
361.29	14.200
361.66	13.034
362.02	14.127
362.38	14.674
362.74	14.139
363.10	13.630
363.46	14.957
363.82	13.921
364.18	13.965
364.54	16.011
364.90	14.955
365.26	13.695
365.62	14.612
365.98	14.580
366.35	14.296
366.71	14.376
367.07	15.102
367.43	16.060
367.79	15.120
368.15	14.225
368.51	14.895
368.87	15.797
369.23	15.368
369.59	15.139
369.95	14.024
370.31	15.823
370.67	15.112
371.03	15.671
371.39	13.791
371.75	16.166
372.11	16.284
372.47	14.606
372.83	15.647
373.19	15.286
373.55	15.271
373.91	15.434
374.27	15.400
374.63	15.321
374.99	16.342
375.35	15.680
375.71	15.935
376.07	17.180
376.42	15.563
376.78	17.255
377.14	16.746
377.50	16.054
377.86	16.645
378.22	16.018
378.58	16.986
378.94	15.906
379.30	16.941
379.66	16.636
380.02	16.518
380.38	17.221
380.74	17.057
381.09	17.926
381.45	17.542
381.81	17.302
382.17	18.233
382.53	17.568
382.89	17.644
383.25	18.122
383.61	17.394
383.97	18.187
384.32	17.522
384.68	18.380
385.04	17.693
385.40	17.955
385.76	18.476
386.12	18.551
386.48	18.812
386.83	18.405
387.19	18.290
387.55	18.534
387.91	18.376
388.27	18.396
388.62	18.930
388.98	18.474
389.34	18.115
389.70	18.636
390.06	18.894
390.42	19.808
390.77	19.558
391.13	19.814
391.49	18.964
391.85	19.389
392.20	18.386
392.56	19.304
392.92	19.281
393.28	19.805
393.64	20.505
393.99	20.062
394.35	18.796
394.71	19.642
395.07	20.402
395.42	19.249
395.78	19.736
396.14	20.312
396.50	20.245
396.85	19.432
397.21	20.352
397.57	19.757
397.92	19.789
398.28	19.889
398.64	19.929
399.00	20.506
399.35	19.053
399.71	20.383
400.07	19.821
400.42	20.316
400.78	19.618
401.14	19.521
401.49	19.752
401.85	19.585
402.21	19.845
402.57	20.388
402.92	21.020
403.28	19.975
403.63	19.113
403.99	20.447
404.35	20.048
404.70	20.246
405.06	19.839
405.42	19.127
405.77	19.796
406.13	19.307
406.49	19.832
406.84	19.676
407.20	20.377
407.55	19.633
407.91	19.430
408.27	20.650
408.62	19.784
408.98	20.497
409.34	19.622
409.69	19.597
410.05	19.830
410.40	19.436
410.76	19.621
411.11	20.574
411.47	19.501
411.83	20.293
412.18	20.235
412.54	20.073
412.89	19.259
413.25	19.008
413.60	19.563
413.96	19.901
414.31	20.122
414.67	19.429
415.03	19.405
415.38	19.974
415.74	20.168
416.09	19.949
416.45	19.444
416.80	20.286
417.16	19.269
417.51	19.961
417.87	19.547
418.22	19.595
418.58	20.411
418.93	20.785
419.29	19.511
419.64	19.410
420.00	21.324
420.35	20.343
420.71	20.288
421.06	20.533
421.42	19.965
421.77	20.659
422.12	20.369
422.48	20.470
422.83	20.103
423.19	20.434
423.54	19.942
423.90	20.069
424.25	20.192
424.61	20.989
424.96	20.304
425.31	20.067
425.67	20.860
426.02	19.851
426.38	20.871
426.73	21.040
427.09	20.282
427.44	20.909
427.79	20.174
428.15	20.706
428.50	21.056
428.85	21.283
429.21	20.033
429.56	20.833
429.92	20.441
430.27	21.087
430.62	21.369
430.98	20.753
431.33	21.238
431.68	21.448
432.04	21.321
432.39	20.570
432.74	20.204
433.10	20.934
433.45	20.495
433.80	20.941
434.16	20.473
434.51	21.753
434.86	21.617
435.22	21.214
435.57	21.114
435.92	20.868
436.28	22.255
436.63	21.820
436.98	21.191
437.34	21.264
437.69	21.354
438.04	20.023
438.39	22.202
438.75	20.955
439.10	21.988
439.45	20.579
439.81	21.084
440.16	21.635
440.51	21.353
440.86	21.689
441.22	21.282
441.57	21.000
441.92	21.228
442.27	20.779
442.63	21.245
442.98	20.147
443.33	21.197
443.68	21.261
444.03	21.562
444.39	21.782
444.74	21.861
445.09	20.614
445.44	22.285
445.79	21.724
446.15	22.070
446.50	21.285
446.85	21.755
447.20	21.553
447.55	21.823
447.91	22.010
448.26	21.229
448.61	21.619
448.96	22.129
449.31	21.702
449.66	22.324
450.02	21.939
450.37	21.333
450.72	20.960
451.07	21.307
451.42	21.499
451.77	22.023
452.12	22.884
452.47	21.977
452.83	21.666
453.18	22.264
453.53	21.580
453.88	22.667
454.23	21.826
454.58	21.939
454.93	23.048
455.28	22.945
455.63	22.973
455.98	22.771
456.34	21.792
456.69	22.452
457.04	22.557
457.39	22.129
457.74	21.796
458.09	21.636
458.44	22.921
458.79	20.908
459.14	22.362
459.49	22.380
459.84	22.372
460.19	22.494
460.54	22.263
460.89	21.469
461.24	22.040
461.59	22.509
461.94	21.897
462.29	22.394
462.64	21.542
462.99	22.423
463.34	22.215
463.69	21.692
464.04	20.797
464.39	21.804
464.74	21.158
465.09	20.866
465.44	21.094
465.79	22.053
466.14	22.267
466.49	23.028
466.84	22.089
467.19	22.631
467.54	22.342
467.89	22.380
468.24	23.100
468.59	21.924
468.94	22.251
469.29	21.572
469.64	22.170
469.99	22.687
470.34	21.510
470.68	23.038
471.03	22.712
471.38	21.667
471.73	21.678
472.08	21.084
472.43	21.943
472.78	22.800
473.13	21.272
473.48	22.208
473.83	21.898
474.17	21.210
474.52	23.210
474.87	22.028
475.22	22.183
475.57	21.444
475.92	21.652
476.27	21.143
476.61	20.901
476.96	21.632
477.31	22.228
477.66	21.251
478.01	21.610
478.36	21.372
478.70	22.104
479.05	22.607
479.40	21.917
479.75	22.171
480.10	22.222
480.45	21.470
480.79	22.261
481.14	21.927
481.49	22.120
481.84	20.758
482.19	22.248
482.53	21.449
482.88	21.452
483.23	21.878
483.58	22.710
483.92	22.026
484.27	21.577
484.62	21.857
484.97	21.746
485.31	21.248
485.66	21.160
486.01	20.790
486.36	21.350
486.70	21.385
487.05	21.455
487.40	21.928
487.75	21.308
488.09	21.618
488.44	21.854
488.79	22.108
489.13	21.757
489.48	21.656
489.83	21.790
490.17	21.376
490.52	22.011
490.87	21.755
491.22	21.298
491.56	22.037
491.91	22.185
492.26	21.557
492.60	21.884
492.95	22.370
493.30	21.725
493.64	21.204
493.99	21.463
494.34	21.857
494.68	21.723
495.03	21.845
495.37	21.436
495.72	22.102
496.07	22.243
496.41	22.557
496.76	22.329
497.11	21.950
497.45	22.079
497.80	21.861
498.14	21.415
498.49	21.848
498.84	21.311
499.18	22.758
499.53	21.529
499.87	21.091
500.22	22.108
500.56	22.011
500.91	21.724
501.26	22.125
501.60	21.618
501.95	22.367
502.29	21.351
502.64	22.018
502.98	22.089
503.33	22.227
503.67	22.031
504.02	21.584
504.36	22.157
504.71	21.581
505.06	21.068
505.40	22.255
505.75	21.545
506.09	21.739
506.44	22.155
506.78	22.077
507.13	21.576
507.47	22.170
507.82	22.044
508.16	22.124
508.51	21.329
508.85	21.843
509.19	21.612
509.54	22.040
509.88	21.543
510.23	22.432
510.57	21.005
510.92	21.805
511.26	21.159
511.61	20.248
511.95	21.175
512.30	21.550
512.64	21.202
512.98	21.782
513.33	21.746
513.67	21.496
514.02	21.588
514.36	21.773
514.70	22.298
515.05	21.955
515.39	21.280
515.74	22.397
516.08	22.017
516.42	22.323
516.77	22.068
517.11	22.140
517.46	22.309
517.80	22.503
518.14	21.377
518.49	21.937
518.83	21.543
519.17	21.670
519.52	22.094
519.86	21.565
520.20	21.577
520.55	21.108
520.89	21.353
521.23	21.917
521.58	21.191
521.92	22.609
522.26	21.587
522.61	20.406
522.95	21.378
523.29	21.693
523.64	21.986
523.98	21.642
524.32	21.873
524.66	21.925
525.01	21.195
525.35	21.778
525.69	21.275
526.04	21.018
526.38	22.915
526.72	21.328
527.06	22.266
527.41	22.112
527.75	21.452
528.09	22.171
528.43	21.639
528.78	21.859
529.12	21.831
529.46	21.327
529.80	20.852
530.15	22.601
530.49	21.863
530.83	22.331
531.17	20.673
531.51	21.098
531.86	21.132
532.20	21.525
532.54	20.187
532.88	21.410
533.22	21.123
533.57	21.671
533.91	20.474
534.25	20.805
534.59	20.487
534.93	20.411
535.27	22.278
535.62	21.419
535.96	21.849
536.30	19.830
536.64	20.784
536.98	21.116
537.32	20.111
537.66	21.317
538.01	21.100
538.35	21.216
538.69	20.187
539.03	21.124
539.37	21.357
539.71	20.680
540.05	20.973
540.39	21.330
540.73	21.562
541.07	21.107
541.42	21.202
541.76	19.136
542.10	21.404
542.44	21.519
542.78	21.167
543.12	20.502
543.46	19.658
543.80	20.000
544.14	21.155
544.48	21.522
544.82	20.501
545.16	20.389
545.50	19.717
545.84	19.958
546.18	21.359
546.52	20.982
546.86	21.011
547.20	21.871
547.54	20.661
547.88	20.902
548.22	19.921
548.56	20.708
548.90	19.744
549.24	20.463
549.58	20.466
549.92	20.424
550.26	21.604
550.60	19.772
550.94	20.657
551.28	21.144
551.62	21.049
551.96	20.767
552.30	20.697
552.64	20.056
552.98	22.004
553.32	20.130
553.66	21.125
554.00	20.967
554.34	20.361
554.68	20.468
555.02	21.274
555.36	20.489
555.69	20.989
556.03	20.702
556.37	19.986
556.71	20.616
557.05	20.251
557.39	20.267
557.73	20.788
558.07	20.497
558.41	20.793
558.75	20.608
559.08	19.922
559.42	22.052
559.76	21.012
560.10	20.134
560.44	20.520
560.78	20.390
561.12	19.738
561.45	20.479
561.79	20.348
562.13	20.477
562.47	19.678
562.81	20.085
563.15	20.434
563.48	21.285
563.82	20.757
564.16	19.405
564.50	19.220
564.84	20.304
565.17	20.557
565.51	20.209
565.85	20.081
566.19	19.631
566.52	19.569
566.86	18.837
567.20	20.823
567.54	20.791
567.88	19.654
568.21	19.855
568.55	19.724
568.89	19.235
569.23	19.158
569.56	18.958
569.90	19.630
570.24	19.091
570.57	18.805
570.91	18.123
571.25	19.261
571.59	19.232
571.92	18.631
572.26	18.814
572.60	18.802
572.93	18.891
573.27	18.415
573.61	18.469
573.95	18.600
574.28	18.488
574.62	18.582
574.96	18.245
575.29	18.623
575.63	18.264
575.97	18.069
576.30	18.498
576.64	18.747
576.98	18.114
577.31	18.546
577.65	18.788
577.98	18.206
578.32	17.954
578.66	18.483
578.99	17.817
579.33	18.287
579.67	18.362
580.00	18.775
580.34	18.028
580.67	18.191
581.01	17.870
581.35	18.115
581.68	17.977
582.02	17.900
582.35	17.753
582.69	18.213
583.02	18.214
583.36	18.518
583.70	18.024
584.03	18.427
584.37	17.943
584.70	18.134
585.04	18.025
585.37	17.828
585.71	18.045
586.04	18.288
586.38	17.749
586.72	18.038
587.05	18.125
587.39	18.082
587.72	18.211
588.06	18.074
588.39	18.513
588.73	18.497
589.06	18.095
589.40	18.825
589.73	18.484
590.07	17.917
590.40	18.893
590.73	18.193
591.07	18.770
591.40	18.934
591.74	18.636
592.07	18.333
592.41	18.386
592.74	18.793
593.08	18.469
593.41	17.697
593.75	17.409
594.08	18.440
594.41	18.189
594.75	18.384
595.08	18.383
595.42	18.064
595.75	18.339
596.09	17.967
596.42	18.249
596.75	18.327
597.09	18.878
597.42	18.114
597.75	19.088
598.09	17.939
598.42	18.427
598.76	18.189
599.09	17.837
599.42	17.801
599.76	17.516
600.09	18.282
600.42	18.306
600.76	17.589
601.09	17.812
601.42	17.491
601.76	18.107
602.09	18.200
602.42	18.107
602.76	17.324
603.09	18.024
603.42	17.728
603.76	18.349
604.09	18.462
604.42	17.902
604.76	17.662
605.09	18.354
605.42	18.484
605.75	17.076
606.09	17.352
606.42	17.553
606.75	17.862
607.09	18.041
607.42	18.794
607.75	18.102
608.08	17.939
608.42	18.543
608.75	18.131
609.08	17.828
609.41	17.887
609.75	18.040
610.08	19.020
610.41	17.831
610.74	18.037
611.07	18.458
611.41	17.600
611.74	18.201
612.07	17.830
612.40	17.484
612.73	18.309
613.07	17.942
613.40	18.938
613.73	18.038
614.06	17.079
614.39	17.926
614.72	16.704
615.06	18.261
615.39	17.363
615.72	17.871
616.05	18.332
616.38	18.398
616.71	18.739
617.05	19.059
617.38	16.966
617.71	17.813
618.04	18.075
618.37	17.044
618.70	18.579
619.03	18.416
619.36	18.111
619.69	18.952
620.03	18.457
620.36	18.214
620.69	18.162
621.02	17.580
621.35	18.387
621.68	17.869
622.01	19.013
622.34	18.478
622.67	17.109
623.00	18.669
623.33	18.433
623.66	18.168
623.99	18.571
624.32	17.262
624.65	17.660
624.99	17.924
625.32	17.365
625.65	18.493
625.98	17.449
626.31	19.168
626.64	17.908
626.97	18.151
627.30	18.723
627.63	16.753
627.96	18.451
628.29	17.279
628.62	18.529
628.95	19.193
629.28	17.199
629.61	18.253
629.94	18.053
630.26	18.986
630.59	19.598
630.92	17.718
631.25	18.750
631.58	18.942
631.91	17.447
632.24	18.667
632.57	18.556
632.90	18.621
633.23	17.991
633.56	18.713
633.89	18.868
634.22	18.418
634.55	18.389
634.88	18.863
635.20	16.105
635.53	18.575
635.86	17.506
