SpectraSuite Data File
++++++++++++++++++++++++++++++++++++
Date: Sat May 16 11:36:19 PDT 2015
User: schluterlab
Dark Spectrum Present: Yes
Reference Spectrum Present: Yes
Number of Sampled Component Spectra: 1
Spectrometers: USB2E3373
Integration Time (usec): 3000 (USB2E3373)
Spectra Averaged: 3 (USB2E3373)
Boxcar Smoothing: 0 (USB2E3373)
Correct for Electrical Dark: No (USB2E3373)
Strobe/Lamp Enabled: No (USB2E3373)
Correct for Detector Non-linearity: No (USB2E3373)
Correct for Stray Light: No (USB2E3373)
Number of Pixels in Processed Spectrum: 2048
>>>>>Begin Processed Spectral Data<<<<<
178.53	0.000
178.91	133.333
179.29	633.333
179.67	-1700.000
180.04	-161.538
180.42	700.000
180.80	225.000
181.18	475.000
181.56	-125.000
181.94	1400.000
182.31	550.000
182.69	-115.385
183.07	-566.667
183.45	1850.000
183.83	366.667
184.20	-242.857
184.58	-237.500
184.96	-475.000
185.34	193.750
185.72	-500.000
186.09	250.000
186.47	-162.500
186.85	-237.500
187.23	-50.000
187.61	-100.000
187.98	-325.000
188.36	-200.000
188.74	-125.000
189.12	1800.000
189.49	371.429
189.87	-83.333
190.25	475.000
190.63	-114.286
191.00	-144.444
191.38	540.000
191.76	-93.333
192.14	640.000
192.51	-440.000
192.89	-633.333
193.27	0.000
193.65	-211.111
194.02	-214.286
194.40	733.333
194.78	-180.000
195.15	-1200.000
195.53	-145.455
195.91	-250.000
196.29	280.000
196.66	-566.667
197.04	2000.000
197.42	-275.000
197.79	-13.333
198.17	-433.333
198.55	-950.000
198.92	-2400.000
199.30	362.500
199.68	-1000.000
200.05	-100.000
200.43	-122.222
200.81	-1900.000
201.18	-125.000
201.56	257.143
201.94	-26.667
202.31	-9.091
202.69	-10.000
203.07	-60.000
203.44	600.000
203.82	-333.333
204.19	-325.000
204.57	-225.000
204.95	-1700.000
205.32	-62.500
205.70	1400.000
206.08	-1300.000
206.45	-61.111
206.83	-1100.000
207.20	-600.000
207.58	-466.667
207.96	-566.667
208.33	-75.000
208.71	-244.444
209.08	160.000
209.46	-342.857
209.84	700.000
210.21	0.000
210.59	40.000
210.96	700.000
211.34	-333.333
211.71	-166.667
212.09	350.000
212.46	1400.000
212.84	-2500.000
213.22	766.667
213.59	183.333
213.97	0.000
214.34	90.000
214.72	-160.000
215.09	-433.333
215.47	-250.000
215.84	-80.000
216.22	-40.000
216.59	-13.333
216.97	-600.000
217.34	1050.000
217.72	-357.143
218.09	-400.000
218.47	-300.000
218.84	128.571
219.22	-257.143
219.59	0.000
219.97	385.714
220.34	375.000
220.72	250.000
221.09	-84.615
221.47	0.000
221.84	233.333
222.22	-900.000
222.59	2000.000
222.97	-175.000
223.34	-750.000
223.72	-733.333
224.09	-71.429
224.46	-525.000
224.84	35.714
225.21	-357.143
225.59	-100.000
225.96	-262.500
226.34	-242.857
226.71	-177.778
227.08	5.000
227.46	2400.000
227.83	-85.714
228.21	-225.000
228.58	600.000
228.95	-56.250
229.33	-1200.000
229.70	-280.000
230.08	-1150.000
230.45	-75.000
230.82	-183.333
231.20	-1100.000
231.57	-850.000
231.95	200.000
232.32	-19.048
232.69	-144.444
233.07	-271.429
233.44	-1050.000
233.81	-126.667
234.19	-233.333
234.56	-93.750
234.93	-9.375
235.31	-214.286
235.68	-121.429
236.05	-70.588
236.43	-59.091
236.80	-54.839
237.17	-66.667
237.55	-76.190
237.92	-72.727
238.29	-57.143
238.67	-20.588
239.04	-16.667
239.41	-41.935
239.79	-48.718
240.16	-50.000
240.53	-21.818
240.91	-17.949
241.28	-14.545
241.65	3.077
242.02	-18.033
242.40	-26.230
242.77	-19.697
243.14	-18.644
243.51	-15.714
243.89	-12.658
244.26	-10.112
244.63	-5.263
245.00	-9.474
245.38	-3.390
245.75	-2.655
246.12	-2.400
246.49	-0.787
246.87	-11.382
247.24	-10.169
247.61	-5.085
247.98	-7.746
248.36	-7.692
248.73	1.899
249.10	-12.102
249.47	-1.754
249.84	7.955
250.22	-14.286
250.59	-3.955
250.96	4.188
251.33	2.844
251.70	-4.327
252.08	0.948
252.45	0.474
252.82	3.333
253.19	-0.426
253.56	0.403
253.94	-1.688
254.31	-1.288
254.68	3.252
255.05	-3.629
255.42	0.794
255.79	-2.509
256.16	-3.137
256.54	1.103
256.91	1.136
257.28	-1.832
257.65	0.709
258.02	7.862
258.39	0.334
258.76	-1.014
259.14	1.543
259.51	4.262
259.88	3.659
260.25	7.453
260.62	5.788
260.99	0.297
261.36	3.659
261.73	4.046
262.10	3.611
262.47	0.855
262.85	7.429
263.22	4.298
263.59	-1.231
263.96	1.739
264.33	5.420
264.70	3.315
265.07	3.297
265.44	1.550
265.81	3.618
266.18	3.291
266.55	3.186
266.92	5.290
267.29	2.421
267.66	2.716
268.03	4.106
268.40	2.582
268.77	2.651
269.14	4.408
269.51	4.138
269.88	2.294
270.25	2.331
270.62	1.602
270.99	4.279
271.36	2.564
271.73	4.036
272.10	3.890
272.47	2.667
272.84	3.778
273.21	2.523
273.58	2.857
273.95	1.974
274.32	2.941
274.69	5.252
275.06	7.362
275.43	2.232
275.80	6.314
276.17	4.603
276.54	5.703
276.91	3.498
277.28	3.854
277.65	2.273
278.02	5.219
278.39	4.715
278.76	4.382
279.13	3.557
279.50	3.579
279.87	2.326
280.23	5.061
280.60	4.175
280.97	3.689
281.34	2.515
281.71	5.192
282.08	3.226
282.45	0.000
282.82	4.070
283.19	3.273
283.56	6.410
283.92	1.767
284.29	3.903
284.66	4.137
285.03	3.387
285.40	5.535
285.77	5.263
286.14	5.776
286.51	3.730
286.87	2.359
287.24	4.778
287.61	6.116
287.98	2.426
288.35	3.306
288.72	1.358
289.08	2.034
289.45	5.219
289.82	3.114
290.19	6.240
290.56	3.140
290.93	2.067
291.29	2.755
291.66	3.221
292.03	4.239
292.40	4.217
292.77	4.193
293.13	5.854
293.50	4.458
293.87	3.681
294.24	6.335
294.60	2.121
294.97	5.311
295.34	2.815
295.71	3.125
296.08	2.611
296.44	3.720
296.81	5.271
297.18	3.239
297.55	4.661
297.91	3.068
298.28	2.740
298.65	3.626
299.02	6.150
299.38	4.545
299.75	2.582
300.12	3.077
300.48	3.836
300.85	3.014
301.22	5.045
301.59	3.511
301.95	5.919
302.32	3.520
302.69	4.896
303.05	3.419
303.42	3.250
303.79	4.306
304.15	3.318
304.52	4.201
304.89	4.486
305.25	2.564
305.62	4.230
305.99	6.125
306.35	5.327
306.72	3.075
307.09	4.654
307.45	4.086
307.82	2.682
308.19	2.796
308.55	4.139
308.92	4.296
309.29	4.216
309.65	4.772
310.02	4.536
310.38	3.676
310.75	5.225
311.12	5.682
311.48	3.549
311.85	5.149
312.22	5.046
312.58	5.392
312.95	3.874
313.31	5.195
313.68	5.025
314.05	5.737
314.41	3.622
314.78	3.796
315.14	5.035
315.51	3.951
315.87	5.421
316.24	4.568
316.61	6.334
316.97	4.179
317.34	5.684
317.70	5.473
318.07	5.690
318.43	4.682
318.80	5.258
319.16	3.940
319.53	5.639
319.89	4.610
320.26	5.490
320.62	3.750
320.99	5.771
321.35	4.236
321.72	3.378
322.08	5.836
322.45	4.851
322.81	5.476
323.18	5.668
323.54	5.915
323.91	6.302
324.27	5.133
324.64	5.667
325.00	5.410
325.37	5.792
325.73	6.649
326.10	5.049
326.46	5.517
326.83	5.872
327.19	5.671
327.56	7.496
327.92	5.862
328.29	5.974
328.65	5.000
329.01	5.830
329.38	5.620
329.74	7.143
330.11	5.530
330.47	6.176
330.84	6.783
331.20	5.144
331.56	4.831
331.93	6.217
332.29	7.215
332.66	6.848
333.02	5.249
333.38	6.631
333.75	6.500
334.11	6.044
334.48	4.590
334.84	6.824
335.20	7.004
335.57	5.957
335.93	6.804
336.29	6.377
336.66	6.344
337.02	6.126
337.38	6.417
337.75	6.760
338.11	6.082
338.47	5.605
338.84	6.352
339.20	6.415
339.56	7.041
339.93	5.115
340.29	6.732
340.65	7.692
341.02	7.589
341.38	5.981
341.74	7.536
342.11	5.973
342.47	5.923
342.83	6.717
343.20	6.405
343.56	5.796
343.92	7.012
344.28	7.401
344.65	5.858
345.01	5.882
345.37	6.894
345.73	6.056
346.10	5.969
346.46	6.661
346.82	6.255
347.19	5.423
347.55	6.501
347.91	6.299
348.27	5.251
348.63	6.462
349.00	7.160
349.36	4.996
349.72	7.166
350.08	5.854
350.45	6.147
350.81	7.245
351.17	6.190
351.53	5.012
351.89	6.548
352.26	6.977
352.62	7.604
352.98	5.459
353.34	6.315
353.70	6.795
354.07	5.822
354.43	6.245
354.79	6.022
355.15	5.431
355.51	5.547
355.87	5.929
356.24	7.387
356.60	6.044
356.96	7.544
357.32	6.017
357.68	6.054
358.04	6.851
358.40	6.265
358.77	5.641
359.13	7.116
359.49	8.088
359.85	6.174
360.21	7.002
360.57	7.455
360.93	7.407
361.29	6.203
361.66	4.497
362.02	6.435
362.38	7.263
362.74	6.813
363.10	6.241
363.46	7.835
363.82	6.924
364.18	7.381
364.54	7.648
364.90	5.870
365.26	6.277
365.62	7.484
365.98	7.824
366.35	6.056
366.71	5.920
367.07	6.351
367.43	7.962
367.79	7.285
368.15	6.117
368.51	7.762
368.87	7.349
369.23	7.018
369.59	8.125
369.95	6.483
370.31	7.243
370.67	6.363
371.03	7.216
371.39	6.365
371.75	6.223
372.11	7.245
372.47	6.797
372.83	7.650
373.19	6.357
373.55	7.811
373.91	6.686
374.27	7.255
374.63	6.832
374.99	8.206
375.35	6.797
375.71	7.968
376.07	6.639
376.42	6.755
376.78	8.235
377.14	7.322
377.50	7.995
377.86	7.607
378.22	7.538
378.58	7.350
378.94	7.522
379.30	7.678
379.66	8.257
380.02	8.378
380.38	7.795
380.74	7.913
381.09	8.143
381.45	8.234
381.81	8.046
382.17	7.456
382.53	7.599
382.89	7.835
383.25	8.489
383.61	8.255
383.97	8.879
384.32	7.635
384.68	7.981
385.04	8.454
385.40	7.851
385.76	8.902
386.12	8.245
386.48	8.478
386.83	8.282
387.19	8.488
387.55	8.359
387.91	8.002
388.27	7.780
388.62	8.774
388.98	8.359
389.34	8.446
389.70	9.257
390.06	7.831
390.42	8.269
390.77	8.644
391.13	9.441
391.49	8.734
391.85	8.666
392.20	9.223
392.56	7.758
392.92	8.329
393.28	9.587
393.64	8.298
393.99	9.600
394.35	8.820
394.71	9.265
395.07	8.161
395.42	7.807
395.78	8.045
396.14	9.097
396.50	9.541
396.85	8.513
397.21	8.566
397.57	8.936
397.92	9.309
398.28	9.500
398.64	9.221
399.00	9.101
399.35	8.343
399.71	8.827
400.07	8.657
400.42	8.698
400.78	8.527
401.14	8.802
401.49	8.903
401.85	9.152
402.21	8.641
402.57	9.405
402.92	8.936
403.28	9.252
403.63	8.987
403.99	9.758
404.35	8.333
404.70	9.538
405.06	8.593
405.42	8.979
405.77	8.767
406.13	8.915
406.49	8.928
406.84	8.218
407.20	9.305
407.55	9.500
407.91	8.420
408.27	9.498
408.62	9.260
408.98	9.218
409.34	9.141
409.69	9.389
410.05	9.218
410.40	7.971
410.76	9.366
411.11	8.603
411.47	8.440
411.83	9.352
412.18	9.653
412.54	9.213
412.89	9.356
413.25	8.442
413.60	8.809
413.96	8.133
414.31	9.052
414.67	8.889
415.03	9.702
415.38	8.979
415.74	8.698
416.09	9.527
416.45	8.995
416.80	9.493
417.16	8.837
417.51	10.046
417.87	8.803
418.22	9.924
418.58	8.986
418.93	8.768
419.29	9.661
419.64	9.045
420.00	10.146
420.35	9.403
420.71	9.124
421.06	9.941
421.42	8.665
421.77	9.213
422.12	9.849
422.48	9.460
422.83	10.080
423.19	9.521
423.54	9.856
423.90	9.138
424.25	9.219
424.61	10.133
424.96	9.713
425.31	9.391
425.67	10.086
426.02	9.581
426.38	9.921
426.73	9.994
427.09	10.294
427.44	10.000
427.79	9.709
428.15	10.114
428.50	9.677
428.85	10.012
429.21	9.629
429.56	9.688
429.92	9.569
430.27	9.671
430.62	10.554
430.98	9.984
431.33	10.139
431.68	10.241
432.04	10.520
432.39	10.085
432.74	10.312
433.10	9.904
433.45	9.326
433.80	9.966
434.16	10.156
434.51	9.699
434.86	10.252
435.22	10.189
435.57	9.914
435.92	10.317
436.28	10.623
436.63	10.006
436.98	10.023
437.34	9.273
437.69	10.152
438.04	10.153
438.39	10.650
438.75	10.361
439.10	10.161
439.45	10.139
439.81	9.940
440.16	10.733
440.51	11.235
440.86	10.179
441.22	10.006
441.57	9.895
441.92	10.588
442.27	10.119
442.63	10.515
442.98	10.045
443.33	9.665
443.68	9.693
444.03	10.658
444.39	10.426
444.74	9.967
445.09	9.814
445.44	10.355
445.79	10.250
446.15	10.570
446.50	10.071
446.85	11.237
447.20	10.266
447.55	10.276
447.91	10.668
448.26	10.335
448.61	9.791
448.96	10.756
449.31	9.977
449.66	10.647
450.02	9.861
450.37	10.261
450.72	10.452
451.07	11.565
451.42	10.285
451.77	10.892
452.12	11.263
452.47	10.705
452.83	10.425
453.18	10.942
453.53	10.323
453.88	11.663
454.23	10.762
454.58	10.752
454.93	10.642
455.28	10.325
455.63	10.504
455.98	11.145
456.34	10.673
456.69	11.632
457.04	11.616
457.39	10.108
457.74	10.573
458.09	11.311
458.44	11.547
458.79	10.987
459.14	11.010
459.49	11.249
459.84	11.580
460.19	11.277
460.54	10.345
460.89	10.370
461.24	11.475
461.59	11.372
461.94	10.694
462.29	11.316
462.64	10.804
462.99	11.647
463.34	11.006
463.69	10.051
464.04	10.955
464.39	11.171
464.74	11.288
465.09	11.004
465.44	10.603
465.79	11.111
466.14	11.047
466.49	11.457
466.84	11.164
467.19	11.908
467.54	10.759
467.89	11.776
468.24	11.223
468.59	10.993
468.94	10.997
469.29	12.151
469.64	12.129
469.99	11.479
470.34	11.957
470.68	11.337
471.03	11.906
471.38	10.694
471.73	12.028
472.08	10.442
472.43	11.004
472.78	12.533
473.13	11.332
473.48	12.061
473.83	12.159
474.17	11.274
474.52	12.276
474.87	12.063
475.22	10.914
475.57	12.167
475.92	12.257
476.27	12.057
476.61	11.944
476.96	11.738
477.31	11.625
477.66	11.511
478.01	12.966
478.36	12.205
478.70	11.586
479.05	11.844
479.40	12.332
479.75	12.742
480.10	12.500
480.45	11.799
480.79	12.043
481.14	12.444
481.49	11.907
481.84	12.298
482.19	12.563
482.53	12.689
482.88	11.865
483.23	12.160
483.58	12.812
483.92	12.183
484.27	11.874
484.62	12.181
484.97	12.237
485.31	11.616
485.66	10.890
486.01	11.158
486.36	11.908
486.70	11.750
487.05	11.481
487.40	11.859
487.75	12.296
488.09	11.859
488.44	12.246
488.79	12.982
489.13	12.438
489.48	12.194
489.83	12.533
490.17	12.843
490.52	12.772
490.87	12.379
491.22	12.518
491.56	12.685
491.91	12.929
492.26	13.113
492.60	12.417
492.95	13.184
493.30	13.054
493.64	12.459
493.99	12.763
494.34	12.429
494.68	13.109
495.03	13.337
495.37	12.389
495.72	13.212
496.07	12.905
496.41	13.247
496.76	12.968
497.11	12.906
497.45	13.266
497.80	12.956
498.14	13.998
498.49	12.808
498.84	12.718
499.18	13.450
499.53	12.811
499.87	12.452
500.22	13.971
500.56	13.107
500.91	13.498
501.26	13.828
501.60	12.470
501.95	13.913
502.29	12.659
502.64	13.814
502.98	13.225
503.33	12.923
503.67	12.596
504.02	13.037
504.36	13.676
504.71	13.121
505.06	12.681
505.40	13.523
505.75	13.364
506.09	14.560
506.44	13.333
506.78	14.501
507.13	13.543
507.47	14.815
507.82	13.268
508.16	14.404
508.51	14.116
508.85	13.665
509.19	13.291
509.54	13.636
509.88	14.149
510.23	14.623
510.57	13.915
510.92	13.856
511.26	14.301
511.61	14.309
511.95	14.386
512.30	14.294
512.64	13.856
512.98	14.686
513.33	14.223
513.67	14.517
514.02	14.597
514.36	14.792
514.70	14.431
515.05	15.037
515.39	14.533
515.74	16.056
516.08	15.159
516.42	15.977
516.77	15.713
517.11	14.874
517.46	15.251
517.80	14.501
518.14	14.734
518.49	15.421
518.83	15.549
519.17	16.223
519.52	15.789
519.86	16.368
520.20	16.443
520.55	15.446
520.89	14.966
521.23	16.300
521.58	15.987
521.92	15.896
522.26	16.254
522.61	16.096
522.95	14.422
523.29	16.489
523.64	15.303
523.98	16.805
524.32	16.279
524.66	15.466
525.01	15.864
525.35	17.075
525.69	15.810
526.04	16.645
526.38	16.996
526.72	15.837
527.06	16.862
527.41	16.106
527.75	16.304
528.09	16.612
528.43	16.787
528.78	16.332
529.12	16.581
529.46	16.237
529.80	16.269
530.15	16.935
530.49	16.624
530.83	17.682
531.17	16.431
531.51	16.477
531.86	16.392
532.20	16.667
532.54	16.845
532.88	16.535
533.22	16.176
533.57	16.906
533.91	15.481
534.25	15.965
534.59	16.115
534.93	15.930
535.27	16.425
535.62	16.496
535.96	15.643
536.30	15.838
536.64	17.131
536.98	16.596
537.32	15.757
537.66	16.225
538.01	16.495
538.35	16.014
538.69	15.307
539.03	16.994
539.37	16.434
539.71	16.411
540.05	16.038
540.39	16.690
540.73	16.932
541.07	16.872
541.42	16.273
541.76	16.611
542.10	17.353
542.44	16.256
542.78	16.757
543.12	16.836
543.46	15.753
543.80	15.719
544.14	15.715
544.48	16.798
544.82	16.644
545.16	16.432
545.50	15.949
545.84	17.663
546.18	16.574
546.52	17.212
546.86	16.880
547.20	15.893
547.54	15.840
547.88	16.324
548.22	14.024
548.56	15.698
548.90	16.442
549.24	16.188
549.58	16.443
549.92	16.890
550.26	17.269
550.60	17.283
550.94	16.934
551.28	17.607
551.62	16.174
551.96	16.425
552.30	16.446
552.64	16.467
552.98	16.468
553.32	16.522
553.66	16.655
554.00	16.560
554.34	16.318
554.68	17.178
555.02	17.294
555.36	16.822
555.69	15.831
556.03	17.053
556.37	17.070
556.71	16.535
557.05	17.073
557.39	16.036
557.73	17.870
558.07	17.408
558.41	15.707
558.75	16.882
559.08	15.798
559.42	17.305
559.76	17.255
560.10	16.928
560.44	17.124
560.78	16.632
561.12	16.494
561.45	16.301
561.79	16.098
562.13	16.480
562.47	15.896
562.81	17.185
563.15	16.655
563.48	16.862
563.82	16.430
564.16	15.686
564.50	17.204
564.84	16.270
565.17	15.650
565.51	15.385
565.85	16.565
566.19	17.128
566.52	16.504
566.86	15.487
567.20	16.707
567.54	16.598
567.88	15.745
568.21	15.436
568.55	16.278
568.89	15.358
569.23	15.363
569.56	15.048
569.90	15.264
570.24	14.619
570.57	14.165
570.91	14.519
571.25	14.916
571.59	14.393
571.92	14.643
572.26	14.110
572.60	14.831
572.93	14.401
573.27	14.055
573.61	13.421
573.95	14.130
574.28	13.827
574.62	14.159
574.96	13.858
575.29	13.872
575.63	14.016
575.97	13.943
576.30	14.086
576.64	14.021
576.98	14.033
577.31	14.064
577.65	14.292
577.98	13.847
578.32	13.471
578.66	14.106
578.99	14.354
579.33	14.243
579.67	13.999
580.00	13.690
580.34	13.503
580.67	13.680
581.01	13.551
581.35	13.970
581.68	13.607
582.02	13.677
582.35	13.560
582.69	13.665
583.02	13.793
583.36	13.680
583.70	13.518
584.03	14.520
584.37	14.046
584.70	13.693
585.04	14.000
585.37	13.270
585.71	14.103
586.04	13.906
586.38	13.526
586.72	14.008
587.05	13.849
587.39	13.767
587.72	13.990
588.06	13.893
588.39	14.070
588.73	14.605
589.06	14.546
589.40	14.909
589.73	14.518
590.07	13.984
590.40	14.723
590.73	13.954
591.07	14.590
591.40	14.081
591.74	14.770
592.07	14.595
592.41	14.352
592.74	14.143
593.08	14.349
593.41	14.013
593.75	13.485
594.08	13.947
594.41	14.787
594.75	14.383
595.08	14.699
595.42	14.270
595.75	14.149
596.09	14.591
596.42	14.403
596.75	14.446
597.09	15.361
597.42	14.622
597.75	14.482
598.09	14.596
598.42	14.803
598.76	14.743
599.09	13.970
599.42	13.649
599.76	14.307
600.09	14.160
600.42	14.432
600.76	14.275
601.09	14.432
601.42	13.732
601.76	14.914
602.09	14.560
602.42	14.609
602.76	13.793
603.09	14.234
603.42	14.625
603.76	14.799
604.09	14.978
604.42	14.238
604.76	14.392
605.09	14.331
605.42	14.628
605.75	14.834
606.09	14.487
606.42	13.741
606.75	14.684
607.09	15.086
607.42	13.996
607.75	14.305
608.08	14.912
608.42	14.948
608.75	14.766
609.08	14.272
609.41	14.101
609.75	13.749
610.08	15.098
610.41	14.988
610.74	14.555
611.07	14.757
611.41	14.423
611.74	15.835
612.07	15.682
612.40	14.499
612.73	14.809
613.07	14.144
613.40	14.833
613.73	15.095
614.06	14.388
614.39	16.460
614.72	13.520
615.06	13.913
615.39	14.487
615.72	15.426
616.05	13.805
616.38	15.786
616.71	15.195
617.05	14.656
617.38	15.789
617.71	15.541
618.04	15.404
618.37	15.535
618.70	16.362
619.03	15.708
619.36	16.209
619.69	16.870
620.03	15.978
620.36	15.893
620.69	15.506
621.02	16.058
621.35	16.048
621.68	16.066
622.01	16.586
622.34	15.839
622.67	15.000
623.00	15.149
623.33	16.418
623.66	15.436
623.99	16.241
624.32	15.551
624.65	14.864
624.99	16.206
625.32	14.970
625.65	17.016
625.98	15.571
626.31	16.476
626.64	15.565
626.97	16.182
627.30	16.511
627.63	14.767
627.96	17.493
628.29	16.452
628.62	16.237
628.95	16.831
629.28	15.883
629.61	16.094
629.94	16.730
630.26	16.899
630.59	17.186
630.92	16.416
631.25	16.935
631.58	16.825
631.91	14.681
632.24	17.667
632.57	16.667
632.90	16.782
633.23	17.991
633.56	16.023
633.89	18.160
634.22	18.772
634.55	18.630
634.88	17.170
635.20	16.479
635.53	17.176
635.86	17.506
636.19	17.460
636.52	17.802
636.85	16.005
637.18	14.875
637.51	18.340
637.83	17.177
638.16	17.632
638.49	17.655
638.82	18.147
639.15	17.121
639.48	15.824
639.81	18.949
640.13	16.757
640.46	18.091
640.79	20.168
641.12	17.772
641.45	19.225
