SpectraSuite Data File
++++++++++++++++++++++++++++++++++++
Date: Sat May 16 11:41:27 PDT 2015
User: schluterlab
Dark Spectrum Present: Yes
Reference Spectrum Present: Yes
Number of Sampled Component Spectra: 1
Spectrometers: USB2E3373
Integration Time (usec): 3000 (USB2E3373)
Spectra Averaged: 3 (USB2E3373)
Boxcar Smoothing: 0 (USB2E3373)
Correct for Electrical Dark: No (USB2E3373)
Strobe/Lamp Enabled: No (USB2E3373)
Correct for Detector Non-linearity: No (USB2E3373)
Correct for Stray Light: No (USB2E3373)
Number of Pixels in Processed Spectrum: 2048
>>>>>Begin Processed Spectral Data<<<<<
178.53	0.000
178.91	146.667
179.29	966.667
179.67	-1600.000
180.04	-15.385
180.42	1200.000
180.80	375.000
181.18	425.000
181.56	-100.000
181.94	800.000
182.31	400.000
182.69	-123.077
183.07	-600.000
183.45	1200.000
183.83	666.667
184.20	-157.143
184.58	-187.500
184.96	-300.000
185.34	137.500
185.72	-425.000
186.09	266.667
186.47	-225.000
186.85	-137.500
187.23	-137.500
187.61	-300.000
187.98	-275.000
188.36	-175.000
188.74	-187.500
189.12	1800.000
189.49	371.429
189.87	-116.667
190.25	450.000
190.63	-28.571
191.00	-177.778
191.38	300.000
191.76	-20.000
192.14	480.000
192.51	-300.000
192.89	-600.000
193.27	0.000
193.65	-222.222
194.02	-257.143
194.40	466.667
194.78	-160.000
195.15	-600.000
195.53	-109.091
195.91	-350.000
196.29	260.000
196.66	-300.000
197.04	1800.000
197.42	-125.000
197.79	40.000
198.17	-600.000
198.55	-900.000
198.92	-1300.000
199.30	212.500
199.68	-700.000
200.05	-166.667
200.43	-100.000
200.81	-1700.000
201.18	-141.667
201.56	300.000
201.94	-86.667
202.31	-27.273
202.69	-20.000
203.07	-70.000
203.44	433.333
203.82	-450.000
204.19	-575.000
204.57	-350.000
204.95	-1000.000
205.32	-6.250
205.70	600.000
206.08	-1100.000
206.45	-66.667
206.83	-1300.000
207.20	150.000
207.58	-1000.000
207.96	-400.000
208.33	-112.500
208.71	-77.778
209.08	150.000
209.46	-314.286
209.84	1050.000
210.21	0.000
210.59	15.000
210.96	700.000
211.34	-166.667
211.71	-266.667
212.09	375.000
212.46	850.000
212.84	-1300.000
213.22	500.000
213.59	183.333
213.97	-77.778
214.34	150.000
214.72	-100.000
215.09	-200.000
215.47	-66.667
215.84	-100.000
216.22	-70.000
216.59	-33.333
216.97	-300.000
217.34	750.000
217.72	-128.571
218.09	-266.667
218.47	-14.286
218.84	228.571
219.22	0.000
219.59	0.000
219.97	328.571
220.34	200.000
220.72	350.000
221.09	-61.538
221.47	0.000
221.84	366.667
222.22	-750.000
222.59	1200.000
222.97	-162.500
223.34	-700.000
223.72	-333.333
224.09	-100.000
224.46	-225.000
224.84	0.000
225.21	-300.000
225.59	-36.364
225.96	-262.500
226.34	-14.286
226.71	-33.333
227.08	-5.000
227.46	1900.000
227.83	-114.286
228.21	-150.000
228.58	800.000
228.95	-37.500
229.33	-1300.000
229.70	-400.000
230.08	-800.000
230.45	25.000
230.82	-216.667
231.20	-1700.000
231.57	-500.000
231.95	2200.000
232.32	-9.524
232.69	-77.778
233.07	-300.000
233.44	-1200.000
233.81	-126.667
234.19	-88.889
234.56	-43.750
234.93	25.000
235.31	-257.143
235.68	-92.857
236.05	-64.706
236.43	-90.909
236.80	-32.258
237.17	-29.167
237.55	-38.095
237.92	-104.545
238.29	-20.000
238.67	-26.471
239.04	-16.667
239.41	6.452
239.79	-30.769
240.16	-35.714
240.53	-21.818
240.91	-20.513
241.28	0.000
241.65	4.615
242.02	-8.197
242.40	-13.115
242.77	-12.121
243.14	0.000
243.51	-7.143
243.89	-5.063
244.26	-5.618
244.63	8.421
245.00	0.000
245.38	9.322
245.75	12.389
246.12	9.600
246.49	12.598
246.87	1.626
247.24	-4.237
247.61	0.000
247.98	5.634
248.36	4.895
248.73	9.494
249.10	14.013
249.47	3.509
249.84	11.932
250.22	7.143
250.59	14.689
250.96	8.377
251.33	16.588
251.70	10.577
252.08	12.322
252.45	9.479
252.82	10.952
253.19	13.617
253.56	6.048
253.94	10.127
254.31	15.021
254.68	11.382
255.05	8.065
255.42	12.302
255.79	12.545
256.16	11.373
256.54	8.456
256.91	9.470
257.28	8.059
257.65	10.993
258.02	15.723
258.39	11.706
258.76	9.122
259.14	10.185
259.51	13.443
259.88	9.756
260.25	14.596
260.62	12.862
260.99	9.199
261.36	15.549
261.73	11.272
262.10	13.889
262.47	9.687
262.85	14.000
263.22	10.029
263.59	12.923
263.96	14.493
264.33	11.111
264.70	14.365
265.07	8.242
265.44	8.527
265.81	10.078
266.18	12.911
266.55	12.990
266.92	13.602
267.29	10.654
267.66	12.346
268.03	13.285
268.40	11.033
268.77	11.084
269.14	12.529
269.51	11.494
269.88	9.174
270.25	10.490
270.62	13.043
270.99	12.162
271.36	11.422
271.73	10.987
272.10	10.526
272.47	11.111
272.84	14.222
273.21	12.615
273.58	12.088
273.95	12.719
274.32	11.991
274.69	13.786
275.06	13.906
275.43	10.045
275.80	14.257
276.17	10.879
276.54	13.238
276.91	11.934
277.28	12.576
277.65	11.983
278.02	12.317
278.39	13.556
278.76	11.155
279.13	12.846
279.50	14.513
279.87	10.571
280.23	13.765
280.60	12.525
280.97	10.291
281.34	11.219
281.71	12.885
282.08	9.274
282.45	9.980
282.82	12.016
283.19	11.455
283.56	13.736
283.92	13.428
284.29	11.710
284.66	10.791
285.03	12.478
285.40	11.255
285.77	14.035
286.14	12.274
286.51	10.124
286.87	11.797
287.24	12.799
287.61	12.397
287.98	9.879
288.35	10.083
288.72	10.866
289.08	9.153
289.45	12.963
289.82	10.035
290.19	11.987
290.56	11.405
290.93	10.493
291.29	8.428
291.66	9.501
292.03	10.832
292.40	9.187
292.77	10.870
293.13	9.593
293.50	11.738
293.87	9.663
294.24	10.256
294.60	7.879
294.97	10.774
295.34	8.593
295.71	11.905
296.08	8.602
296.44	8.011
296.81	9.402
297.18	10.282
297.55	11.158
297.91	12.134
298.28	9.589
298.65	10.460
299.02	8.824
299.38	10.963
299.75	9.647
300.12	10.000
300.48	10.742
300.85	7.864
301.22	8.279
301.59	9.883
301.95	9.572
302.32	7.562
302.69	9.670
303.05	9.402
303.42	9.500
303.79	9.569
304.15	10.190
304.52	9.102
304.89	8.028
305.25	8.791
305.62	8.578
305.99	11.307
306.35	9.767
306.72	8.428
307.09	9.194
307.45	9.081
307.82	7.486
308.19	8.725
308.55	10.566
308.92	8.163
309.29	8.108
309.65	8.696
310.02	8.747
310.38	9.081
310.75	9.016
311.12	10.950
311.48	9.916
311.85	9.681
312.22	9.475
312.58	10.275
312.95	10.194
313.31	10.490
313.68	10.251
314.05	10.485
314.41	9.457
314.78	9.890
315.14	10.563
315.51	10.537
315.87	12.004
316.24	11.079
316.61	12.284
316.97	11.741
317.34	11.368
317.70	11.874
318.07	11.847
318.43	12.266
318.80	15.117
319.16	13.133
319.53	12.688
319.89	12.794
320.26	14.510
320.62	14.423
320.99	13.632
321.35	13.596
321.72	14.432
322.08	16.024
322.45	14.356
322.81	15.658
323.18	17.195
323.54	17.468
323.91	16.867
324.27	17.871
324.64	17.824
325.00	18.586
325.37	16.923
325.73	20.735
326.10	18.069
326.46	18.739
326.83	19.915
327.19	20.767
327.56	21.891
327.92	20.646
328.29	21.212
328.65	21.273
329.01	21.908
329.38	23.550
329.74	23.901
330.11	22.756
330.47	23.433
330.84	24.381
331.20	24.639
331.56	25.068
331.93	25.044
332.29	26.027
332.66	26.163
333.02	25.611
333.38	26.523
333.75	27.427
334.11	27.467
334.48	26.302
334.84	27.997
335.20	26.773
335.57	27.076
335.93	29.275
336.29	27.369
336.66	27.577
337.02	29.009
337.38	28.431
337.75	28.797
338.11	28.354
338.47	29.448
338.84	29.401
339.20	28.032
339.56	30.214
339.93	29.012
340.29	29.318
340.65	29.283
341.02	30.860
341.38	29.992
341.74	28.112
342.11	28.925
342.47	29.013
342.83	29.219
343.20	29.804
343.56	27.837
343.92	29.215
344.28	31.791
344.65	29.208
345.01	30.336
345.37	30.648
345.73	28.478
346.10	28.536
346.46	29.245
346.82	29.350
347.19	29.417
347.55	29.615
347.91	28.740
348.27	29.912
348.63	29.160
349.00	29.435
349.36	27.791
349.72	29.857
350.08	30.233
350.45	29.393
350.81	30.892
351.17	29.984
351.53	29.515
351.89	29.507
352.26	29.767
352.62	31.413
352.98	30.222
353.34	30.136
353.70	29.344
354.07	29.740
354.43	30.040
354.79	30.745
355.15	29.952
355.51	31.328
355.87	29.565
356.24	30.421
356.60	31.426
356.96	31.255
357.32	30.325
357.68	31.954
358.04	30.947
358.40	30.626
358.77	30.835
359.13	30.681
359.49	32.048
359.85	31.555
360.21	31.735
360.57	33.057
360.93	30.889
361.29	32.362
361.66	32.241
362.02	31.065
362.38	31.695
362.74	31.648
363.10	31.707
363.46	32.051
363.82	33.017
364.18	32.417
364.54	34.239
364.90	32.984
365.26	31.526
365.62	33.856
365.98	33.642
366.35	32.817
366.71	33.545
367.07	34.651
367.43	34.454
367.79	34.639
368.15	33.428
368.51	34.755
368.87	35.440
369.23	35.018
369.59	34.444
369.95	34.743
370.31	34.951
370.67	33.839
371.03	35.058
371.39	35.502
371.75	35.837
372.11	35.653
372.47	36.226
372.83	36.300
373.19	36.429
373.55	36.453
373.91	36.842
374.27	37.235
374.63	37.060
374.99	35.814
375.35	36.743
375.71	36.867
376.07	37.577
376.42	36.159
376.78	38.889
377.14	38.237
377.50	38.749
377.86	38.362
378.22	39.573
378.58	38.481
378.94	39.642
379.30	39.122
379.66	40.012
380.02	39.097
380.38	40.363
380.74	39.156
381.09	40.246
381.45	40.036
381.81	40.411
382.17	40.789
382.53	40.729
382.89	40.311
383.25	41.120
383.61	42.217
383.97	41.825
384.32	42.428
384.68	43.108
385.04	42.331
385.40	44.127
385.76	43.537
386.12	42.973
386.48	44.245
386.83	43.436
387.19	44.351
387.55	44.640
387.91	44.043
388.27	44.089
388.62	44.171
388.98	45.003
389.34	44.920
389.70	44.884
390.06	44.251
390.42	45.705
390.77	45.300
391.13	47.019
391.49	46.413
391.85	45.511
392.20	45.328
392.56	45.449
392.92	46.492
393.28	47.187
393.64	46.723
393.99	47.569
394.35	47.141
394.71	46.757
395.07	47.520
395.42	46.663
395.78	46.260
396.14	48.287
396.50	48.318
396.85	47.810
397.21	47.023
397.57	47.112
397.92	47.600
398.28	47.444
398.64	46.996
399.00	49.551
399.35	48.309
399.71	48.722
400.07	47.642
400.42	48.236
400.78	48.539
401.14	48.144
401.49	48.231
401.85	48.505
402.21	48.451
402.57	48.544
402.92	50.094
403.28	48.958
403.63	47.873
403.99	47.856
404.35	49.517
404.70	49.093
405.06	49.423
405.42	49.016
405.77	48.247
406.13	49.688
406.49	49.910
406.84	49.370
407.20	49.117
407.55	48.638
407.91	48.575
408.27	50.061
408.62	50.331
408.98	50.030
409.34	49.604
409.69	48.960
410.05	49.727
410.40	49.847
410.76	49.793
411.11	51.309
411.47	50.128
411.83	50.856
412.18	50.371
412.54	49.786
412.89	50.668
413.25	48.996
413.60	49.089
413.96	50.339
414.31	51.315
414.67	50.349
415.03	50.259
415.38	51.269
415.74	51.095
416.09	50.703
416.45	49.405
416.80	51.430
417.16	51.561
417.51	51.412
417.87	51.003
418.22	51.454
418.58	50.963
418.93	51.257
419.29	51.129
419.64	50.314
420.00	51.337
420.35	51.567
420.71	51.200
421.06	50.828
421.42	50.703
421.77	50.586
422.12	51.763
422.48	51.416
422.83	50.513
423.19	51.169
423.54	51.643
423.90	51.822
424.25	50.905
424.61	53.498
424.96	51.668
425.31	50.978
425.67	51.347
426.02	51.348
426.38	53.418
426.73	52.601
427.09	52.512
427.44	51.705
427.79	52.558
428.15	52.184
428.50	52.903
428.85	52.878
429.21	52.739
429.56	52.292
429.92	52.004
430.27	52.493
430.62	53.866
430.98	51.072
431.33	53.629
431.68	53.137
432.04	53.050
432.39	52.991
432.74	52.938
433.10	53.461
433.45	52.504
433.80	53.527
434.16	53.842
434.51	53.699
434.86	54.189
435.22	53.675
435.57	53.550
435.92	53.927
436.28	54.362
436.63	52.685
436.98	53.322
437.34	52.924
437.69	52.684
438.04	53.829
438.39	53.851
438.75	53.143
439.10	53.748
439.45	54.134
439.81	54.277
440.16	53.663
440.51	53.647
440.86	54.135
441.22	54.118
441.57	54.632
441.92	54.731
442.27	53.301
442.63	53.755
442.98	54.233
443.33	54.091
443.68	53.986
444.03	53.733
444.39	53.500
444.74	56.112
445.09	54.770
445.44	53.967
445.79	55.788
446.15	54.545
446.50	53.729
446.85	54.541
447.20	55.005
447.55	55.359
447.91	55.025
448.26	54.637
448.61	53.707
448.96	54.566
449.31	54.679
449.66	54.780
450.02	53.296
450.37	55.304
450.72	55.311
451.07	55.185
451.42	52.974
451.77	54.518
452.12	54.589
452.47	54.534
452.83	54.863
453.18	55.661
453.53	55.473
453.88	56.160
454.23	53.809
454.58	56.619
454.93	56.108
455.28	55.959
455.63	55.713
455.98	56.566
456.34	55.019
456.69	54.909
457.04	54.333
457.39	54.725
457.74	55.405
458.09	55.278
458.44	55.658
458.79	54.484
459.14	55.847
459.49	55.477
459.84	54.300
460.19	55.668
460.54	53.842
460.89	55.325
461.24	54.463
461.59	55.979
461.94	55.506
462.29	55.033
462.64	56.126
462.99	56.894
463.34	55.436
463.69	56.107
464.04	54.013
464.39	55.496
464.74	54.905
465.09	54.901
465.44	55.330
465.79	56.176
466.14	56.617
466.49	56.016
466.84	55.282
467.19	55.923
467.54	54.620
467.89	55.055
468.24	54.394
468.59	55.465
468.94	56.334
469.29	55.166
469.64	54.852
469.99	57.731
470.34	55.845
470.68	57.413
471.03	54.921
471.38	55.486
471.73	56.993
472.08	57.229
472.43	56.242
472.78	55.867
473.13	56.528
473.48	56.477
473.83	55.335
474.17	57.516
474.52	56.650
474.87	54.895
475.22	55.752
475.57	56.611
475.92	55.940
476.27	56.229
476.61	56.169
476.96	56.680
477.31	56.136
477.66	56.281
478.01	55.808
478.36	54.426
478.70	57.501
479.05	56.301
479.40	56.218
479.75	55.301
480.10	56.597
480.45	55.706
480.79	56.811
481.14	57.100
481.49	56.147
481.84	55.294
482.19	56.647
482.53	56.487
482.88	55.956
483.23	55.869
483.58	57.169
483.92	57.191
484.27	55.871
484.62	55.248
484.97	55.612
485.31	54.080
485.66	53.118
486.01	54.430
486.36	55.233
486.70	56.882
487.05	55.534
487.40	56.223
487.75	55.138
488.09	54.910
488.44	55.041
488.79	55.005
489.13	55.953
489.48	56.770
489.83	56.332
490.17	55.899
490.52	56.159
490.87	56.628
491.22	56.983
491.56	56.481
491.91	57.061
492.26	57.925
492.60	57.088
492.95	56.830
493.30	55.264
493.64	56.559
493.99	57.696
494.34	57.571
494.68	57.912
495.03	56.119
495.37	57.227
495.72	57.711
496.07	58.189
496.41	58.407
496.76	56.621
497.11	57.466
497.45	57.807
497.80	56.978
498.14	57.466
498.49	58.564
498.84	56.456
499.18	59.357
499.53	57.526
499.87	57.529
500.22	58.578
500.56	58.379
500.91	58.276
501.26	58.079
501.60	56.957
501.95	58.116
502.29	57.959
502.64	58.180
502.98	57.643
503.33	57.707
503.67	57.950
504.02	58.329
504.36	57.843
504.71	58.257
505.06	57.763
505.40	59.681
505.75	58.232
506.09	58.392
506.44	59.148
506.78	58.605
507.13	58.342
507.47	60.250
507.82	58.596
508.16	59.326
508.51	58.423
508.85	58.644
509.19	58.556
509.54	59.567
509.88	58.989
510.23	58.491
510.57	60.529
510.92	59.398
511.26	59.224
511.61	58.477
511.95	59.429
512.30	60.253
512.64	59.154
512.98	60.121
513.33	60.297
513.67	59.743
514.02	60.067
514.36	59.335
514.70	59.819
515.05	59.806
515.39	59.746
515.74	60.733
516.08	59.308
516.42	60.623
516.77	62.565
517.11	60.469
517.46	63.636
517.80	61.853
518.14	60.568
518.49	61.745
518.83	61.721
519.17	61.516
519.52	60.324
519.86	61.589
520.20	62.653
520.55	60.185
520.89	61.803
521.23	61.966
521.58	61.254
521.92	62.255
522.26	60.889
522.61	62.674
522.95	61.200
523.29	62.445
523.64	62.211
523.98	61.744
524.32	62.099
524.66	62.298
525.01	61.978
525.35	62.564
525.69	62.589
526.04	63.577
526.38	62.635
526.72	61.047
527.06	64.714
527.41	64.224
527.75	62.178
528.09	63.600
528.43	63.803
528.78	62.186
529.12	63.060
529.46	63.660
529.80	63.267
530.15	63.104
530.49	61.902
530.83	63.785
531.17	63.569
531.51	62.894
531.86	62.870
532.20	63.225
532.54	63.904
532.88	63.768
533.22	64.706
533.57	64.426
533.91	61.985
534.25	61.282
534.59	62.773
534.93	62.850
535.27	62.555
535.62	62.852
535.96	64.641
536.30	63.613
536.64	63.081
536.98	65.537
537.32	62.889
537.66	62.458
538.01	63.780
538.35	64.189
538.69	64.305
539.03	63.439
539.37	63.872
539.71	63.442
540.05	64.633
540.39	63.781
540.73	64.271
541.07	64.208
541.42	64.146
541.76	61.661
542.10	64.483
542.44	63.291
542.78	63.772
543.12	63.476
543.46	61.781
543.80	63.746
544.14	63.533
544.48	63.451
544.82	62.923
545.16	62.844
545.50	62.315
545.84	64.325
546.18	64.008
546.52	63.514
546.86	63.177
547.20	64.557
547.54	61.983
547.88	62.177
548.22	62.975
548.56	63.393
548.90	63.073
549.24	61.668
549.58	62.950
549.92	63.958
550.26	64.812
550.60	62.233
550.94	64.599
551.28	64.485
551.62	64.180
551.96	64.472
552.30	62.300
552.64	64.462
552.98	63.770
553.32	62.771
553.66	64.095
554.00	62.118
554.34	64.332
554.68	63.231
555.02	63.893
555.36	63.120
555.69	63.181
556.03	63.298
556.37	64.723
556.71	65.569
557.05	65.854
557.39	65.776
557.73	63.749
558.07	65.185
558.41	64.847
558.75	64.639
559.08	63.191
559.42	64.701
559.76	65.414
560.10	66.070
560.44	64.884
560.78	63.187
561.12	64.527
561.45	63.014
561.79	64.878
562.13	64.586
562.47	62.815
562.81	63.720
563.15	62.841
563.48	63.787
563.82	64.300
564.16	63.083
564.50	64.852
564.84	64.153
565.17	63.926
565.51	63.559
565.85	66.531
566.19	65.679
566.52	62.231
566.86	63.211
567.20	64.165
567.54	63.733
567.88	62.312
568.21	63.870
568.55	63.468
568.89	62.773
569.23	62.240
569.56	61.286
569.90	61.644
570.24	62.420
570.57	60.492
570.91	60.592
571.25	60.895
571.59	61.037
571.92	59.940
572.26	59.617
572.60	60.099
572.93	58.842
573.27	59.207
573.61	59.621
573.95	59.792
574.28	58.830
574.62	60.320
574.96	58.898
575.29	58.968
575.63	59.623
575.97	59.466
576.30	58.701
576.64	59.713
576.98	59.045
577.31	59.261
577.65	58.488
577.98	58.771
578.32	59.840
578.66	59.761
578.99	59.518
579.33	58.779
579.67	59.168
580.00	59.449
580.34	59.516
580.67	59.328
581.01	58.524
581.35	58.952
581.68	58.569
582.02	59.537
582.35	59.566
582.69	59.992
583.02	60.875
583.36	59.914
583.70	60.292
584.03	60.129
584.37	60.162
584.70	59.820
585.04	59.089
585.37	58.926
585.71	59.313
586.04	59.422
586.38	59.102
586.72	59.357
587.05	60.379
587.39	59.574
587.72	59.676
588.06	59.972
588.39	60.439
588.73	59.958
589.06	60.262
589.40	60.598
589.73	60.482
590.07	60.379
590.40	60.480
590.73	60.456
591.07	61.680
591.40	61.958
591.74	60.426
592.07	61.622
592.41	60.467
592.74	60.684
593.08	61.140
593.41	60.789
593.75	60.501
594.08	61.359
594.41	61.331
594.75	60.513
595.08	61.992
595.42	60.910
595.75	61.080
596.09	60.924
596.42	62.439
596.75	62.096
597.09	61.932
597.42	60.890
597.75	60.939
598.09	61.907
598.42	60.672
598.76	60.299
599.09	60.852
599.42	60.900
599.76	60.023
600.09	61.298
600.42	60.160
600.76	61.657
601.09	60.122
601.42	60.348
601.76	61.721
602.09	60.409
602.42	61.605
602.76	61.030
603.09	61.129
603.42	61.402
603.76	61.428
604.09	61.634
604.42	61.699
604.76	60.794
605.09	60.986
605.42	61.879
605.75	61.363
606.09	60.648
606.42	61.332
606.75	61.142
607.09	62.020
607.42	61.400
607.75	61.104
608.08	62.675
608.42	62.583
608.75	59.720
609.08	61.227
609.41	61.933
609.75	60.556
610.08	62.745
610.41	61.205
610.74	62.573
611.07	62.880
611.41	61.624
611.74	62.005
612.07	63.158
612.40	62.207
612.73	61.605
613.07	62.356
613.40	63.109
613.73	62.834
614.06	62.383
614.39	64.149
614.72	60.670
615.06	60.380
615.39	61.693
615.72	61.706
616.05	62.010
616.38	63.088
616.71	61.682
617.05	63.088
617.38	62.291
617.71	63.329
618.04	62.981
618.37	63.208
618.70	63.559
619.03	62.695
619.36	63.777
619.69	63.029
620.03	62.466
620.36	63.994
620.69	65.327
621.02	64.079
621.35	65.645
621.68	65.738
622.01	65.291
622.34	64.596
622.67	65.703
623.00	65.111
623.33	66.343
623.66	64.180
623.99	64.586
624.32	64.360
624.65	63.135
624.99	64.600
625.32	63.698
625.65	65.890
625.98	64.397
626.31	66.395
626.64	64.937
626.97	66.353
627.30	66.298
627.63	65.630
627.96	65.709
628.29	65.993
628.62	65.521
628.95	66.732
629.28	64.192
629.61	66.340
629.94	65.784
630.26	67.793
630.59	67.236
630.92	67.267
631.25	66.734
631.58	68.571
631.91	65.426
632.24	66.889
632.57	68.222
632.90	69.885
