SpectraSuite Data File
++++++++++++++++++++++++++++++++++++
Date: Sat May 16 11:30:34 PDT 2015
User: schluterlab
Dark Spectrum Present: Yes
Reference Spectrum Present: Yes
Number of Sampled Component Spectra: 1
Spectrometers: USB2E3373
Integration Time (usec): 3000 (USB2E3373)
Spectra Averaged: 3 (USB2E3373)
Boxcar Smoothing: 0 (USB2E3373)
Correct for Electrical Dark: No (USB2E3373)
Strobe/Lamp Enabled: No (USB2E3373)
Correct for Detector Non-linearity: No (USB2E3373)
Correct for Stray Light: No (USB2E3373)
Number of Pixels in Processed Spectrum: 2048
>>>>>Begin Processed Spectral Data<<<<<
178.53	0.000
178.91	120.000
179.29	533.333
179.67	-900.000
180.04	-53.846
180.42	200.000
180.80	300.000
181.18	275.000
181.56	-187.500
181.94	100.000
182.31	475.000
182.69	-38.462
183.07	-166.667
183.45	1250.000
183.83	400.000
184.20	-228.571
184.58	-75.000
184.96	-375.000
185.34	118.750
185.72	-575.000
186.09	250.000
186.47	-325.000
186.85	-137.500
187.23	-75.000
187.61	-300.000
187.98	-362.500
188.36	-75.000
188.74	-162.500
189.12	1800.000
189.49	428.571
189.87	-91.667
190.25	525.000
190.63	-64.286
191.00	-177.778
191.38	300.000
191.76	-46.667
192.14	560.000
192.51	-120.000
192.89	-233.333
193.27	0.000
193.65	-177.778
194.02	-228.571
194.40	266.667
194.78	-70.000
195.15	-1700.000
195.53	-154.545
195.91	-450.000
196.29	320.000
196.66	-533.333
197.04	2200.000
197.42	-175.000
197.79	20.000
198.17	-566.667
198.55	-350.000
198.92	-1100.000
199.30	250.000
199.68	-850.000
200.05	-155.556
200.43	-166.667
200.81	-1500.000
201.18	-125.000
201.56	171.429
201.94	6.667
202.31	13.636
202.69	-60.000
203.07	-60.000
203.44	766.667
203.82	-266.667
204.19	-300.000
204.57	-225.000
204.95	-900.000
205.32	-43.750
205.70	200.000
206.08	-2200.000
206.45	0.000
206.83	-1350.000
207.20	-600.000
207.58	-566.667
207.96	-700.000
208.33	-250.000
208.71	-177.778
209.08	200.000
209.46	-200.000
209.84	400.000
210.21	0.000
210.59	15.000
210.96	300.000
211.34	-183.333
211.71	-200.000
212.09	400.000
212.46	1200.000
212.84	-2100.000
213.22	600.000
213.59	208.333
213.97	-44.444
214.34	130.000
214.72	-100.000
215.09	-400.000
215.47	-116.667
215.84	-150.000
216.22	-120.000
216.59	-13.333
216.97	-500.000
217.34	600.000
217.72	0.000
218.09	-166.667
218.47	-214.286
218.84	157.143
219.22	57.143
219.59	0.000
219.97	157.143
220.34	450.000
220.72	287.500
221.09	-7.692
221.47	0.000
221.84	133.333
222.22	-700.000
222.59	900.000
222.97	-212.500
223.34	-700.000
223.72	-600.000
224.09	-100.000
224.46	-325.000
224.84	-92.857
225.21	-185.714
225.59	-190.909
225.96	-62.500
226.34	-42.857
226.71	-111.111
227.08	5.000
227.46	2600.000
227.83	-57.143
228.21	-250.000
228.58	450.000
228.95	-31.250
229.33	-1000.000
229.70	-340.000
230.08	-750.000
230.45	-125.000
230.82	-266.667
231.20	-600.000
231.57	-350.000
231.95	800.000
232.32	28.571
232.69	-166.667
233.07	-171.429
233.44	-550.000
233.81	-73.333
234.19	-133.333
234.56	6.250
234.93	-9.375
235.31	-185.714
235.68	-142.857
236.05	-52.941
236.43	-31.818
236.80	-45.161
237.17	-8.333
237.55	0.000
237.92	-13.636
238.29	-20.000
238.67	38.235
239.04	41.667
239.41	29.032
239.79	-30.769
240.16	23.810
240.53	-3.636
240.91	15.385
241.28	20.000
241.65	29.231
242.02	26.230
242.40	19.672
242.77	12.121
243.14	32.203
243.51	25.714
243.89	24.051
244.26	22.472
244.63	37.895
245.00	28.421
245.38	33.898
245.75	36.283
246.12	30.400
246.49	32.283
246.87	22.764
247.24	27.966
247.61	35.593
247.98	37.324
248.36	31.469
248.73	36.709
249.10	34.395
249.47	40.351
249.84	36.932
250.22	28.571
250.59	40.113
250.96	30.890
251.33	41.706
251.70	31.731
252.08	37.915
252.45	41.706
252.82	37.143
253.19	37.021
253.56	33.871
253.94	36.287
254.31	35.193
254.68	40.650
255.05	37.500
255.42	38.492
255.79	31.541
256.16	43.922
256.54	38.603
256.91	39.015
257.28	36.264
257.65	35.816
258.02	41.195
258.39	39.130
258.76	36.486
259.14	37.963
259.51	44.590
259.88	38.720
260.25	39.752
260.62	40.836
260.99	37.982
261.36	37.805
261.73	40.462
262.10	38.333
262.47	39.316
262.85	41.714
263.22	34.384
263.59	35.692
263.96	43.188
264.33	37.398
264.70	40.055
265.07	39.560
265.44	37.468
265.81	39.276
266.18	36.203
266.55	37.500
266.92	39.547
267.29	42.131
267.66	39.259
268.03	41.787
268.40	40.845
268.77	40.964
269.14	38.747
269.51	39.080
269.88	38.991
270.25	37.529
270.62	37.986
270.99	36.712
271.36	37.529
271.73	40.135
272.10	40.503
272.47	40.444
272.84	40.000
273.21	38.532
273.58	37.802
273.95	35.307
274.32	41.629
274.69	40.919
275.06	39.877
275.43	39.509
275.80	40.530
276.17	39.121
276.54	39.919
276.91	36.831
277.28	37.120
277.65	40.083
278.02	39.875
278.39	38.703
278.76	41.036
279.13	38.933
279.50	37.177
279.87	36.575
280.23	39.879
280.60	37.972
280.97	38.252
281.34	39.845
281.71	38.462
282.08	39.516
282.45	37.475
282.82	37.791
283.19	37.273
283.56	37.729
283.92	40.106
284.29	35.688
284.66	37.590
285.03	38.859
285.40	35.609
285.77	37.895
286.14	36.823
286.51	35.524
286.87	37.931
287.24	36.689
287.61	35.702
287.98	36.222
288.35	36.033
288.72	34.635
289.08	34.746
289.45	34.007
289.82	32.353
290.19	33.826
290.56	33.719
290.93	34.022
291.29	34.360
291.66	33.011
292.03	34.694
292.40	33.886
292.77	31.988
293.13	33.821
293.50	33.432
293.87	33.896
294.24	31.825
294.60	30.606
294.97	33.080
295.34	31.556
295.71	30.952
296.08	30.415
296.44	30.186
296.81	31.054
297.18	29.718
297.55	30.932
297.91	30.962
298.28	30.137
298.65	28.731
299.02	29.947
299.38	29.813
299.75	27.174
300.12	29.359
300.48	29.028
300.85	28.571
301.22	29.366
301.59	28.349
301.95	29.345
302.32	27.510
302.69	26.316
303.05	27.350
303.42	27.250
303.79	27.512
304.15	27.133
304.52	26.954
304.89	27.155
305.25	28.449
305.62	25.264
305.99	27.915
306.35	26.082
306.72	26.310
307.09	27.128
307.45	27.128
307.82	24.693
308.19	25.615
308.55	25.926
308.92	25.349
309.29	25.405
309.65	24.920
310.02	26.566
310.38	24.000
310.75	25.205
311.12	25.930
311.48	25.992
311.85	26.571
312.22	25.129
312.58	26.043
312.95	25.076
313.31	25.175
313.68	25.829
314.05	25.420
314.41	24.145
314.78	24.675
315.14	26.259
315.51	25.025
315.87	24.492
316.24	23.518
316.61	24.760
316.97	24.478
317.34	24.759
317.70	23.284
318.07	23.601
318.43	25.000
318.80	24.695
319.16	23.827
319.53	23.214
319.89	22.295
320.26	24.510
320.62	23.365
320.99	23.582
321.35	21.872
321.72	22.825
322.08	24.233
322.45	23.267
322.81	23.727
323.18	23.919
323.54	23.198
323.91	24.282
324.27	23.194
324.64	24.040
325.00	23.298
325.37	23.439
325.73	24.759
326.10	24.269
326.46	23.818
326.83	23.489
327.19	23.353
327.56	24.446
327.92	24.554
328.29	23.723
328.65	22.909
329.01	23.057
329.38	23.818
329.74	23.993
330.11	24.207
330.47	24.705
330.84	24.473
331.20	23.285
331.56	23.883
331.93	23.446
332.29	23.105
332.66	23.442
333.02	23.801
333.38	23.746
333.75	23.954
334.11	22.667
334.48	22.948
334.84	24.409
335.20	23.404
335.57	22.924
335.93	23.993
336.29	22.586
336.66	21.762
337.02	23.153
337.38	22.103
337.75	21.861
338.11	23.435
338.47	22.954
338.84	24.229
339.20	22.759
339.56	24.510
339.93	23.280
340.29	22.055
340.65	22.640
341.02	23.440
341.38	22.831
341.74	23.116
342.11	22.526
342.47	22.489
342.83	21.579
343.20	23.057
343.56	21.224
343.92	23.205
344.28	23.802
344.65	22.525
345.01	22.689
345.37	23.588
345.73	22.177
346.10	20.850
346.46	21.690
346.82	21.732
347.19	21.857
347.55	21.188
347.91	21.417
348.27	21.877
348.63	22.617
349.00	22.912
349.36	21.155
349.72	22.771
350.08	21.973
350.45	22.065
350.81	22.850
351.17	22.026
351.53	22.514
351.89	22.231
352.26	21.783
352.62	23.425
352.98	21.440
353.34	22.542
353.70	22.085
354.07	22.738
354.43	22.292
354.79	21.870
355.15	21.166
355.51	22.031
355.87	21.818
356.24	22.002
356.60	21.998
356.96	20.939
357.32	20.507
357.68	21.073
358.04	21.709
358.40	21.964
358.77	21.716
359.13	22.494
359.49	22.751
359.85	20.655
360.21	22.146
360.57	22.590
360.93	22.519
361.29	23.019
361.66	20.579
362.02	21.302
362.38	21.203
362.74	22.198
363.10	22.310
363.46	23.077
363.82	23.324
364.18	22.214
364.54	24.232
364.90	21.523
365.26	21.897
365.62	22.737
365.98	22.973
366.35	21.549
366.71	21.494
367.07	21.383
367.43	22.443
367.79	21.856
368.15	21.124
368.51	22.098
368.87	22.871
369.23	22.175
369.59	22.361
369.95	22.199
370.31	21.519
370.67	21.837
371.03	21.939
371.39	21.924
371.75	21.960
372.11	22.956
372.47	21.620
372.83	22.392
373.19	21.714
373.55	22.871
373.91	23.115
374.27	22.040
374.63	22.222
374.99	21.349
375.35	22.140
375.71	22.755
376.07	22.040
376.42	21.656
376.78	21.961
377.14	22.712
377.50	21.986
377.86	22.367
378.22	22.613
378.58	22.977
378.94	21.640
379.30	22.730
379.66	23.133
380.02	22.460
380.38	22.054
380.74	22.802
381.09	22.906
381.45	22.613
381.81	22.626
382.17	22.180
382.53	22.128
382.89	22.368
383.25	23.179
383.61	22.524
383.97	23.331
384.32	22.966
384.68	23.700
385.04	22.645
385.40	23.372
385.76	23.049
386.12	23.735
386.48	23.577
386.83	23.804
387.19	23.431
387.55	23.137
387.91	24.244
388.27	22.799
388.62	23.738
388.98	23.561
389.34	23.868
389.70	23.386
390.06	23.306
390.42	24.038
390.77	23.091
391.13	24.410
391.49	24.579
391.85	24.314
392.20	24.393
392.56	23.824
392.92	24.016
393.28	24.627
393.64	23.091
393.99	24.246
394.35	23.905
394.71	24.027
395.07	24.482
395.42	23.719
395.78	23.696
396.14	24.922
396.50	24.159
396.85	24.676
397.21	23.390
397.57	24.498
397.92	24.649
398.28	24.389
398.64	25.045
399.00	24.719
399.35	24.183
399.71	25.377
400.07	25.373
400.42	25.304
400.78	24.210
401.14	24.850
401.49	24.410
401.85	24.527
402.21	24.732
402.57	25.303
402.92	24.795
403.28	25.061
403.63	23.847
403.99	24.363
404.35	24.457
404.70	25.395
405.06	24.683
405.42	24.108
405.77	24.943
406.13	25.327
406.49	24.266
406.84	24.835
407.20	25.206
407.55	24.889
407.91	24.417
408.27	24.877
408.62	25.616
408.98	23.893
409.34	25.533
409.69	25.079
410.05	24.439
410.40	24.096
410.76	25.489
411.11	24.751
411.47	24.872
411.83	25.367
412.18	25.000
412.54	23.856
412.89	25.638
413.25	24.439
413.60	24.241
413.96	24.214
414.31	25.321
414.67	24.444
415.03	25.097
415.38	24.593
415.74	25.644
416.09	24.488
416.45	24.074
416.80	24.577
417.16	24.385
417.51	25.607
417.87	25.113
418.22	25.727
418.58	25.353
418.93	25.690
419.29	23.714
419.64	24.435
420.00	25.213
420.35	24.660
420.71	24.850
421.06	25.089
421.42	24.707
421.77	25.126
422.12	25.070
422.48	24.532
422.83	26.139
423.19	24.722
423.54	25.014
423.90	25.043
424.25	24.038
424.61	25.030
424.96	25.805
425.31	25.321
425.67	24.126
426.02	24.613
426.38	25.529
426.73	25.015
427.09	25.306
427.44	25.114
427.79	24.593
428.15	24.476
428.50	25.865
428.85	24.820
429.21	25.955
429.56	24.844
429.92	25.401
430.27	25.274
430.62	25.496
430.98	24.412
431.33	25.454
431.68	25.684
432.04	25.630
432.39	25.128
432.74	25.659
433.10	25.267
433.45	24.583
433.80	25.084
434.16	25.631
434.51	25.479
434.86	25.893
435.22	25.612
435.57	25.092
435.92	24.736
436.28	25.460
436.63	25.777
436.98	24.685
437.34	25.635
437.69	24.329
438.04	25.978
438.39	25.752
438.75	25.204
439.10	25.430
439.45	24.381
439.81	25.422
440.16	26.292
440.51	26.059
440.86	25.217
441.22	24.157
441.57	25.579
441.92	25.524
442.27	26.245
442.63	25.161
442.98	24.774
443.33	25.371
443.68	25.899
444.03	25.000
444.39	26.138
444.74	25.496
445.09	25.822
445.44	26.393
445.79	25.242
446.15	26.616
446.50	23.190
446.85	25.911
447.20	25.792
447.55	25.912
447.91	25.940
448.26	25.196
448.61	25.410
448.96	25.770
449.31	25.028
449.66	27.075
450.02	25.374
450.37	25.681
450.72	25.311
451.07	25.770
451.42	24.473
451.77	26.152
452.12	25.745
452.47	26.196
452.83	25.160
453.18	26.565
453.53	25.560
453.88	25.538
454.23	24.426
454.58	26.165
454.93	24.685
455.28	25.558
455.63	26.167
455.98	26.566
456.34	25.921
456.69	25.829
457.04	25.630
457.39	25.299
457.74	25.753
458.09	26.624
458.44	25.520
458.79	25.112
459.14	26.070
459.49	26.288
459.84	25.913
460.19	26.611
460.54	24.864
460.89	25.112
461.24	26.412
461.59	25.967
461.94	25.461
462.29	25.015
462.64	25.823
462.99	25.636
463.34	25.996
463.69	27.163
464.04	25.249
464.39	26.464
464.74	25.650
465.09	25.857
465.44	25.606
465.79	26.114
466.14	26.237
466.49	25.792
466.84	26.831
467.19	25.998
467.54	25.506
467.89	26.264
468.24	26.366
468.59	26.671
468.94	26.367
469.29	24.951
469.64	26.011
469.99	26.266
470.34	26.587
470.68	26.163
471.03	25.602
471.38	24.861
471.73	27.832
472.08	26.439
472.43	26.190
472.78	25.933
473.13	25.712
473.48	26.739
473.83	26.365
474.17	27.261
474.52	26.598
474.87	25.699
475.22	26.490
475.57	26.444
475.92	25.432
476.27	25.943
476.61	25.634
476.96	26.160
477.31	27.018
477.66	26.231
478.01	26.634
478.36	27.082
478.70	26.375
479.05	26.879
479.40	25.699
479.75	25.943
480.10	26.190
480.45	25.242
480.79	27.196
481.14	26.292
481.49	27.880
481.84	26.722
482.19	27.364
482.53	26.563
482.88	26.626
483.23	26.808
483.58	26.920
483.92	26.326
484.27	26.451
484.62	26.263
484.97	26.461
485.31	26.560
485.66	27.029
486.01	27.482
486.36	28.033
486.70	28.184
487.05	27.974
487.40	27.297
487.75	26.811
488.09	26.590
488.44	26.996
488.79	26.459
489.13	26.436
489.48	26.468
489.83	26.812
490.17	26.643
490.52	27.174
490.87	25.820
491.22	26.623
491.56	26.713
491.91	26.527
492.26	27.264
492.60	27.165
492.95	25.702
493.30	26.251
493.64	26.704
493.99	26.864
494.34	27.333
494.68	27.247
495.03	26.625
495.37	26.254
495.72	27.358
496.07	27.358
496.41	27.652
496.76	27.306
497.11	27.697
497.45	26.724
497.80	27.914
498.14	27.358
498.49	27.574
498.84	27.379
499.18	28.606
499.53	27.862
499.87	27.510
500.22	26.961
500.56	27.364
500.91	28.424
501.26	27.996
501.60	27.588
501.95	27.874
502.29	27.775
502.64	28.006
502.98	27.887
503.33	28.008
503.67	27.634
504.02	27.668
504.36	28.824
504.71	27.862
505.06	28.108
505.40	28.343
505.75	28.354
506.09	28.918
506.44	29.073
506.78	28.851
507.13	28.373
507.47	28.638
507.82	28.498
508.16	28.964
508.51	27.615
508.85	28.571
509.19	27.839
509.54	29.387
509.88	29.202
510.23	29.560
510.57	29.524
510.92	29.968
511.26	29.293
511.61	28.672
511.95	28.825
512.30	29.357
512.64	28.881
512.98	29.043
513.33	28.556
513.67	29.257
514.02	28.635
514.36	28.532
514.70	29.542
515.05	29.274
515.39	29.412
515.74	30.716
516.08	29.568
516.42	29.575
516.77	30.791
517.11	29.748
517.46	30.562
517.80	30.144
518.14	28.986
518.49	29.827
518.83	29.258
519.17	30.551
519.52	29.844
519.86	31.183
520.20	29.829
520.55	29.538
520.89	29.743
521.23	30.830
521.58	30.219
521.92	30.716
522.26	30.286
522.61	30.228
522.95	30.185
523.29	29.843
523.64	30.356
523.98	30.299
524.32	30.358
524.66	30.000
525.01	30.122
525.35	29.897
525.69	31.295
526.04	31.136
526.38	30.936
526.72	29.821
527.06	30.729
527.41	30.561
527.75	31.089
528.09	30.907
528.43	30.426
528.78	30.842
529.12	32.266
529.46	31.314
529.80	31.311
530.15	31.165
530.49	30.401
530.83	31.696
531.17	31.044
531.51	30.676
531.86	30.876
532.20	30.229
532.54	31.484
532.88	29.908
533.22	30.882
533.57	31.723
533.91	30.462
534.25	31.552
534.59	31.043
534.93	30.678
535.27	31.466
535.62	31.458
535.96	30.511
536.30	30.825
536.64	30.744
536.98	32.203
537.32	31.237
537.66	30.686
538.01	30.447
538.35	31.486
538.69	30.682
539.03	31.618
539.37	31.670
539.71	32.088
540.05	31.597
540.39	33.241
540.73	31.928
541.07	31.762
541.42	31.128
541.76	30.831
542.10	32.005
542.44	31.845
542.78	31.411
543.12	32.111
543.46	31.781
543.80	30.702
544.14	30.087
544.48	31.955
544.82	32.138
545.16	31.522
545.50	29.677
545.84	31.780
546.18	31.207
546.52	31.437
546.86	32.194
547.20	32.911
547.54	30.716
547.88	31.851
548.22	30.865
548.56	31.329
548.90	32.008
549.24	31.254
549.58	32.110
549.92	30.954
550.26	33.020
550.60	30.512
550.94	31.825
551.28	30.700
551.62	30.650
551.96	31.404
552.30	31.359
552.64	30.964
552.98	31.955
553.32	31.890
553.66	31.939
554.00	31.699
554.34	31.552
554.68	32.018
555.02	31.331
555.36	31.272
555.69	31.447
556.03	31.509
556.37	31.650
556.71	32.498
557.05	32.077
557.39	31.923
557.73	32.458
558.07	31.952
558.41	31.563
558.75	33.384
559.08	30.506
559.42	31.776
559.76	32.822
560.10	32.289
560.44	31.936
560.78	32.289
561.12	32.022
561.45	32.329
561.79	32.195
562.13	32.679
562.47	31.653
562.81	31.683
563.15	31.421
563.48	32.205
563.82	31.913
564.16	32.387
564.50	32.527
564.84	32.011
565.17	31.764
565.51	31.747
565.85	32.995
566.19	33.004
566.52	32.746
566.86	32.554
567.20	32.748
567.54	33.314
567.88	32.663
568.21	34.340
568.55	32.344
568.89	31.759
569.23	32.578
569.56	32.156
569.90	33.871
570.24	34.310
570.57	31.951
570.91	32.914
571.25	33.333
571.59	32.875
571.92	33.036
572.26	32.954
572.60	32.113
572.93	32.146
573.27	32.317
573.61	32.033
573.95	32.384
574.28	32.626
574.62	32.867
574.96	33.026
575.29	32.622
575.63	32.599
575.97	31.823
576.30	32.502
576.64	32.977
576.98	32.297
577.31	32.443
577.65	32.879
577.98	32.967
578.32	32.751
578.66	32.810
578.99	32.362
579.33	32.077
579.67	32.184
580.00	32.564
580.34	32.192
580.67	32.532
581.01	32.267
581.35	32.863
581.68	32.805
582.02	33.009
582.35	32.729
582.69	33.347
583.02	32.670
583.36	32.579
583.70	32.744
584.03	32.651
584.37	32.124
584.70	32.250
585.04	32.430
585.37	31.527
585.71	32.656
586.04	33.080
586.38	31.943
586.72	33.005
587.05	33.248
587.39	32.778
587.72	33.024
588.06	32.930
588.39	31.928
588.73	32.861
589.06	32.737
589.40	32.944
589.73	31.941
590.07	32.229
590.40	32.878
590.73	32.187
591.07	32.295
591.40	32.626
591.74	31.842
592.07	33.018
592.41	32.229
592.74	32.552
593.08	33.505
593.41	33.454
593.75	33.399
594.08	33.034
594.41	33.457
594.75	32.918
595.08	32.895
595.42	33.056
595.75	32.819
596.09	32.518
596.42	32.733
596.75	31.910
597.09	33.749
597.42	32.082
597.75	32.152
598.09	33.484
598.42	32.391
598.76	32.475
599.09	33.149
599.42	32.411
599.76	32.276
600.09	32.634
600.42	32.928
600.76	33.220
601.09	32.510
601.42	32.370
601.76	33.606
602.09	33.047
602.42	32.305
602.76	32.655
603.09	32.863
603.42	33.320
603.76	33.107
604.09	32.759
604.42	31.557
604.76	33.232
605.09	33.318
605.42	31.915
605.75	32.687
606.09	32.337
606.42	31.965
606.75	32.117
607.09	33.172
607.42	32.262
607.75	32.494
608.08	33.484
608.42	33.113
608.75	31.776
609.08	33.025
609.41	32.935
609.75	32.569
610.08	32.696
610.41	32.916
610.74	32.640
611.07	32.911
611.41	31.669
611.74	32.596
612.07	32.868
612.40	32.676
612.73	32.526
613.07	31.591
613.40	32.512
613.73	32.044
614.06	31.521
614.39	33.878
614.72	31.508
615.06	31.685
615.39	31.308
615.72	32.428
616.05	32.027
616.38	32.443
616.71	32.673
617.05	32.811
617.38	32.322
617.71	31.634
618.04	32.050
618.37	32.013
618.70	32.855
619.03	31.347
619.36	33.051
619.69	32.233
620.03	31.474
620.36	32.982
620.69	32.233
621.02	31.431
621.35	32.097
621.68	31.803
622.01	32.767
622.34	32.686
622.67	32.109
623.00	32.594
623.33	33.060
623.66	31.758
623.99	32.406
624.32	31.548
624.65	32.450
624.99	32.338
625.32	32.260
625.65	31.857
625.98	31.690
626.31	32.790
626.64	31.130
626.97	31.592
627.30	31.660
627.63	30.829
627.96	32.463
628.29	32.904
628.62	30.564
628.95	32.776
629.28	30.545
629.61	32.581
629.94	31.758
630.26	33.400
630.59	32.864
630.92	31.832
631.25	31.048
631.58	29.841
