SpectraSuite Data File
++++++++++++++++++++++++++++++++++++
Date: Sat May 16 11:19:04 PDT 2015
User: schluterlab
Dark Spectrum Present: Yes
Reference Spectrum Present: Yes
Number of Sampled Component Spectra: 1
Spectrometers: USB2E3373
Integration Time (usec): 3000 (USB2E3373)
Spectra Averaged: 3 (USB2E3373)
Boxcar Smoothing: 0 (USB2E3373)
Correct for Electrical Dark: No (USB2E3373)
Strobe/Lamp Enabled: No (USB2E3373)
Correct for Detector Non-linearity: No (USB2E3373)
Correct for Stray Light: No (USB2E3373)
Number of Pixels in Processed Spectrum: 2048
>>>>>Begin Processed Spectral Data<<<<<
178.53	0.000
178.91	86.667
179.29	533.333
179.67	-900.000
180.04	-100.000
180.42	900.000
180.80	450.000
181.18	500.000
181.56	-125.000
181.94	300.000
182.31	425.000
182.69	-46.154
183.07	-333.333
183.45	1050.000
183.83	266.667
184.20	-100.000
184.58	50.000
184.96	-225.000
185.34	75.000
185.72	-450.000
186.09	316.667
186.47	-225.000
186.85	-12.500
187.23	12.500
187.61	-200.000
187.98	-262.500
188.36	-50.000
188.74	-75.000
189.12	1400.000
189.49	242.857
189.87	-75.000
190.25	225.000
190.63	-14.286
191.00	-233.333
191.38	440.000
191.76	6.667
192.14	660.000
192.51	-260.000
192.89	-333.333
193.27	0.000
193.65	-111.111
194.02	-214.286
194.40	600.000
194.78	-90.000
195.15	-1200.000
195.53	-72.727
195.91	-516.667
196.29	160.000
196.66	-400.000
197.04	2800.000
197.42	-275.000
197.79	86.667
198.17	33.333
198.55	-400.000
198.92	-500.000
199.30	175.000
199.68	-250.000
200.05	-66.667
200.43	-122.222
200.81	-1400.000
201.18	-58.333
201.56	157.143
201.94	6.667
202.31	-18.182
202.69	50.000
203.07	-40.000
203.44	466.667
203.82	-200.000
204.19	-350.000
204.57	-125.000
204.95	-300.000
205.32	-37.500
205.70	700.000
206.08	-2600.000
206.45	-11.111
206.83	-1200.000
207.20	100.000
207.58	-633.333
207.96	-166.667
208.33	-87.500
208.71	-11.111
209.08	210.000
209.46	-185.714
209.84	300.000
210.21	0.000
210.59	50.000
210.96	1200.000
211.34	-133.333
211.71	-66.667
212.09	150.000
212.46	950.000
212.84	-900.000
213.22	366.667
213.59	-8.333
213.97	55.556
214.34	130.000
214.72	20.000
215.09	-233.333
215.47	50.000
215.84	-80.000
216.22	30.000
216.59	46.667
216.97	-150.000
217.34	400.000
217.72	-42.857
218.09	-33.333
218.47	-257.143
218.84	171.429
219.22	14.286
219.59	0.000
219.97	171.429
220.34	325.000
220.72	175.000
221.09	-53.846
221.47	0.000
221.84	233.333
222.22	-600.000
222.59	-0.000
222.97	-212.500
223.34	-300.000
223.72	-66.667
224.09	-7.143
224.46	-50.000
224.84	14.286
225.21	-171.429
225.59	27.273
225.96	-100.000
226.34	0.000
226.71	11.111
227.08	40.000
227.46	1000.000
227.83	-71.429
228.21	-75.000
228.58	100.000
228.95	-12.500
229.33	-900.000
229.70	-180.000
230.08	-450.000
230.45	0.000
230.82	-216.667
231.20	200.000
231.57	-400.000
231.95	700.000
232.32	9.524
232.69	-33.333
233.07	-314.286
233.44	-950.000
233.81	-93.333
234.19	-11.111
234.56	-6.250
234.93	53.125
235.31	-200.000
235.68	-100.000
236.05	0.000
236.43	-18.182
236.80	12.903
237.17	37.500
237.55	0.000
237.92	-27.273
238.29	-14.286
238.67	23.529
239.04	13.889
239.41	-6.452
239.79	-10.256
240.16	2.381
240.53	14.545
240.91	35.897
241.28	25.455
241.65	29.231
242.02	9.836
242.40	16.393
242.77	25.758
243.14	10.169
243.51	28.571
243.89	20.253
244.26	28.090
244.63	30.526
245.00	21.053
245.38	21.186
245.75	18.584
246.12	18.400
246.49	22.835
246.87	19.512
247.24	21.186
247.61	18.644
247.98	23.239
248.36	17.483
248.73	24.684
249.10	20.382
249.47	27.485
249.84	26.136
250.22	16.071
250.59	27.684
250.96	28.796
251.33	34.123
251.70	24.519
252.08	23.697
252.45	22.749
252.82	22.857
253.19	26.383
253.56	25.000
253.94	25.316
254.31	25.751
254.68	27.642
255.05	27.419
255.42	22.222
255.79	26.523
256.16	28.235
256.54	24.632
256.91	25.000
257.28	26.374
257.65	24.823
258.02	26.730
258.39	27.425
258.76	24.324
259.14	21.914
259.51	26.230
259.88	22.866
260.25	30.745
260.62	25.402
260.99	23.739
261.36	27.744
261.73	23.988
262.10	25.556
262.47	24.786
262.85	27.714
263.22	28.367
263.59	21.846
263.96	28.406
264.33	27.100
264.70	33.149
265.07	26.648
265.44	28.165
265.81	28.165
266.18	21.772
266.55	24.510
266.92	27.456
267.29	27.361
267.66	25.185
268.03	27.295
268.40	24.178
268.77	24.337
269.14	24.130
269.51	25.517
269.88	24.312
270.25	22.611
270.62	29.519
270.99	22.973
271.36	27.040
271.73	27.130
272.10	25.400
272.47	26.000
272.84	27.556
273.21	25.229
273.58	25.275
273.95	24.781
274.32	27.376
274.69	27.133
275.06	27.812
275.43	22.545
275.80	26.069
276.17	27.197
276.54	25.255
276.91	24.691
277.28	25.963
277.65	26.653
278.02	25.470
278.39	23.576
278.76	26.892
279.13	23.913
279.50	26.441
279.87	26.216
280.23	26.518
280.60	25.646
280.97	25.049
281.34	25.725
281.71	25.769
282.08	27.621
282.45	24.033
282.82	26.938
283.19	24.364
283.56	26.190
283.92	22.968
284.29	23.234
284.66	24.460
285.03	27.451
285.40	24.723
285.77	27.018
286.14	23.646
286.51	25.044
286.87	26.497
287.24	24.915
287.61	25.289
287.98	24.263
288.35	21.818
288.72	23.430
289.08	22.881
289.45	23.906
289.82	22.664
290.19	24.959
290.56	22.645
290.93	22.893
291.29	23.825
291.66	24.799
292.03	23.705
292.40	22.892
292.77	22.516
293.13	22.927
293.50	21.100
293.87	21.626
294.24	21.569
294.60	20.303
294.97	21.093
295.34	21.481
295.71	22.173
296.08	20.123
296.44	20.029
296.81	22.934
297.18	20.563
297.55	21.751
297.91	22.315
298.28	20.411
298.65	20.084
299.02	21.123
299.38	19.519
299.75	22.011
300.12	22.051
300.48	21.228
300.85	20.052
301.22	20.310
301.59	19.636
301.95	22.040
302.32	18.905
302.69	20.930
303.05	20.269
303.42	20.625
303.79	20.335
304.15	19.905
304.52	20.887
304.89	20.779
305.25	20.391
305.62	18.801
305.99	22.615
306.35	20.977
306.72	20.387
307.09	21.112
307.45	20.318
307.82	19.218
308.19	20.470
308.55	22.331
308.92	19.764
309.29	20.324
309.65	21.103
310.02	21.058
310.38	21.405
310.75	22.029
311.12	22.624
311.48	22.651
311.85	21.627
312.22	21.318
312.58	21.770
312.95	21.611
313.31	23.177
313.68	22.814
314.05	23.442
314.41	22.133
314.78	22.278
315.14	23.396
315.51	23.202
315.87	22.749
316.24	22.449
316.61	23.896
316.97	23.085
317.34	24.277
317.70	23.098
318.07	23.881
318.43	23.783
318.80	26.103
319.16	24.578
319.53	24.248
319.89	23.801
320.26	23.431
320.62	24.519
320.99	25.274
321.35	24.532
321.72	26.203
322.08	26.508
322.45	27.129
322.81	29.491
323.18	28.818
323.54	29.020
323.91	28.082
324.27	29.278
324.64	28.702
325.00	29.058
325.37	30.045
325.73	30.534
326.10	30.735
326.46	30.648
326.83	31.489
327.19	32.193
327.56	33.560
327.92	34.410
328.29	33.333
328.65	34.000
329.01	35.071
329.38	35.593
329.74	35.623
330.11	35.539
330.47	35.332
330.84	36.022
331.20	37.004
331.56	37.375
331.93	37.034
332.29	37.078
332.66	37.138
333.02	36.380
333.38	37.455
333.75	38.468
334.11	37.511
334.48	38.482
334.84	37.620
335.20	36.791
335.57	39.531
335.93	40.913
336.29	38.707
336.66	37.797
337.02	38.468
337.38	37.433
337.75	38.367
338.11	37.835
338.47	38.345
338.84	38.475
339.20	37.698
339.56	40.731
339.93	38.360
340.29	38.973
340.65	38.462
341.02	38.702
341.38	36.900
341.74	39.204
342.11	40.273
342.47	38.970
342.83	38.203
343.20	38.599
343.56	37.714
343.92	37.813
344.28	39.361
344.65	39.274
345.01	39.076
345.37	39.037
345.73	37.971
346.10	37.694
346.46	38.343
346.82	36.969
347.19	38.784
347.55	38.122
347.91	39.055
348.27	38.743
348.63	39.015
349.00	39.220
349.36	35.988
349.72	39.172
350.08	39.294
350.45	38.771
350.81	40.127
351.17	38.344
351.53	38.982
351.89	38.399
352.26	38.605
352.62	38.940
352.98	38.370
353.34	38.849
353.70	37.606
354.07	39.339
354.43	38.735
354.79	38.748
355.15	36.821
355.51	38.672
355.87	39.289
356.24	39.635
356.60	40.048
356.96	39.415
357.32	40.063
357.68	38.314
358.04	38.414
358.40	38.979
358.77	39.258
359.13	38.332
359.49	40.438
359.85	38.796
360.21	38.965
360.57	40.437
360.93	40.667
361.29	40.284
361.66	38.948
362.02	38.388
362.38	40.279
362.74	41.172
363.10	39.670
363.46	41.168
363.82	40.379
364.18	40.304
364.54	39.528
364.90	39.972
365.26	41.298
365.62	41.483
365.98	42.532
366.35	41.620
366.71	41.508
367.07	40.226
367.43	42.141
367.79	41.237
368.15	41.181
368.51	42.308
368.87	41.552
369.23	41.474
369.59	42.083
369.95	43.058
370.31	43.671
370.67	42.155
371.03	42.274
371.39	41.796
371.75	42.918
372.11	42.683
372.47	43.167
372.83	43.394
373.19	43.214
373.55	42.435
373.91	43.528
374.27	43.395
374.63	43.823
374.99	43.602
375.35	43.809
375.71	43.349
376.07	43.258
376.42	43.377
376.78	44.314
377.14	45.831
377.50	44.616
377.86	44.213
378.22	45.477
378.58	44.719
378.94	45.253
379.30	45.582
379.66	45.173
380.02	44.029
380.38	45.680
380.74	45.897
381.09	45.050
381.45	46.897
381.81	45.675
382.17	46.554
382.53	45.957
382.89	46.591
383.25	46.899
383.61	46.050
383.97	47.704
384.32	48.060
384.68	48.609
385.04	48.007
385.40	48.387
385.76	47.805
386.12	48.470
386.48	47.772
386.83	48.282
387.19	48.296
387.55	47.850
387.91	48.963
388.27	46.803
388.62	48.137
388.98	47.244
389.34	48.042
389.70	49.695
390.06	49.658
390.42	50.256
390.77	48.833
391.13	49.193
391.49	48.846
391.85	49.377
392.20	48.847
392.56	49.114
392.92	50.770
393.28	50.057
393.64	49.970
393.99	50.092
394.35	50.608
394.71	49.784
395.07	51.036
395.42	50.775
395.78	50.597
396.14	50.966
396.50	49.725
396.85	50.648
397.21	51.154
397.57	50.821
397.92	51.054
398.28	51.889
398.64	51.279
399.00	53.764
399.35	50.395
399.71	51.336
400.07	52.119
400.42	51.521
400.78	51.282
401.14	51.497
401.49	51.179
401.85	52.471
402.21	51.669
402.57	51.578
402.92	53.493
403.28	52.145
403.63	50.869
403.99	53.574
404.35	50.845
404.70	51.726
405.06	52.191
405.42	51.476
405.77	51.810
406.13	52.073
406.49	52.367
406.84	52.789
407.20	52.591
407.55	53.198
407.91	51.490
408.27	52.451
408.62	51.594
408.98	52.638
409.34	51.798
409.69	51.355
410.05	51.304
410.40	52.790
410.76	53.053
411.11	52.868
411.47	52.046
411.83	52.751
412.18	52.723
412.54	51.373
412.89	53.767
413.25	52.774
413.60	52.552
413.96	52.126
414.31	52.232
414.67	51.937
415.03	53.169
415.38	53.025
415.74	55.026
416.09	54.028
416.45	52.183
416.80	54.096
417.16	52.890
417.51	54.957
417.87	52.686
418.22	53.982
418.58	52.760
418.93	53.893
419.29	53.764
419.64	53.894
420.00	54.374
420.35	54.228
420.71	54.682
421.06	54.734
421.42	53.981
421.77	54.327
422.12	54.057
422.48	55.051
422.83	54.897
423.19	53.285
423.54	53.890
423.90	54.945
424.25	54.751
424.61	55.368
424.96	54.652
425.31	54.835
425.67	54.670
426.02	53.930
426.38	55.233
426.73	55.056
427.09	55.515
427.44	55.568
427.79	55.349
428.15	55.236
428.50	55.543
428.85	55.995
429.21	54.787
429.56	56.615
429.92	55.711
430.27	55.733
430.62	55.799
430.98	54.522
431.33	55.550
431.68	55.871
432.04	55.344
432.39	56.923
432.74	56.475
433.10	56.331
433.45	54.922
433.80	56.999
434.16	55.185
434.51	57.644
434.86	57.528
435.22	57.572
435.57	57.466
435.92	56.975
436.28	58.220
436.63	56.868
436.98	57.331
437.34	56.054
437.69	56.943
438.04	56.551
438.39	57.341
438.75	57.392
439.10	56.247
439.45	57.091
439.81	56.325
440.16	56.616
440.51	57.824
440.86	56.796
441.22	57.877
441.57	57.579
441.92	57.954
442.27	57.143
442.63	57.511
442.98	58.014
443.33	58.375
443.68	57.999
444.03	57.564
444.39	57.611
444.74	58.921
445.09	58.059
445.44	58.301
445.79	58.440
446.15	58.708
446.50	57.267
446.85	58.030
447.20	58.274
447.55	59.171
447.91	59.012
448.26	58.156
448.61	57.442
448.96	59.440
449.31	58.568
449.66	59.473
450.02	56.676
450.37	59.188
450.72	58.644
451.07	60.151
451.42	58.116
451.77	58.767
452.12	57.569
452.47	58.816
452.83	58.008
453.18	58.254
453.53	58.520
453.88	59.868
454.23	58.041
454.58	60.659
454.93	59.509
455.28	58.891
455.63	59.521
455.98	58.133
456.34	59.339
456.69	58.912
457.04	59.250
457.39	59.928
457.74	59.539
458.09	57.483
458.44	60.681
458.79	59.865
459.14	59.726
459.49	60.036
459.84	59.584
460.19	60.263
460.54	59.649
460.89	60.202
461.24	59.199
461.59	59.906
461.94	58.943
462.29	59.797
462.64	59.750
462.99	60.710
463.34	59.892
463.69	59.796
464.04	58.992
464.39	59.677
464.74	58.333
465.09	58.148
465.44	58.827
465.79	59.560
466.14	60.299
466.49	59.585
466.84	59.364
467.19	59.663
467.54	58.734
467.89	60.727
468.24	60.154
468.59	61.149
468.94	59.486
469.29	60.364
469.64	59.771
469.99	59.959
470.34	60.855
470.68	61.119
471.03	62.147
471.38	59.792
471.73	62.308
472.08	60.375
472.43	62.420
472.78	60.133
473.13	60.769
473.48	60.817
473.83	61.352
474.17	62.357
474.52	63.107
474.87	59.499
475.22	60.295
475.57	61.222
475.92	61.717
476.27	60.343
476.61	60.563
476.96	61.151
477.31	62.271
477.66	60.542
478.01	61.534
478.36	60.241
478.70	61.185
479.05	61.493
479.40	60.984
479.75	61.264
480.10	60.466
480.45	60.058
480.79	61.155
481.14	61.214
481.49	61.084
481.84	60.564
482.19	60.895
482.53	60.653
482.88	60.275
483.23	60.704
483.58	61.193
483.92	60.726
484.27	60.035
484.62	59.525
484.97	59.353
485.31	58.336
485.66	56.786
486.01	57.849
486.36	59.660
486.70	60.210
487.05	59.158
487.40	59.108
487.75	59.629
488.09	58.524
488.44	59.641
488.79	58.967
489.13	60.213
489.48	60.400
489.83	61.092
490.17	59.164
490.52	59.647
490.87	59.584
491.22	61.140
491.56	60.370
491.91	60.639
492.26	60.802
492.60	60.609
492.95	61.114
493.30	58.695
493.64	60.085
493.99	60.229
494.34	60.095
494.68	60.955
495.03	59.465
495.37	60.619
495.72	60.462
496.07	60.253
496.41	60.908
496.76	60.320
497.11	59.538
497.45	61.303
497.80	59.230
498.14	60.363
498.49	60.824
498.84	59.417
499.18	61.452
499.53	60.887
499.87	60.425
500.22	60.882
500.56	60.230
500.91	60.443
501.26	59.486
501.60	59.942
501.95	61.401
502.29	58.810
502.64	59.925
502.98	60.134
503.33	59.258
503.67	60.680
504.02	58.860
504.36	60.245
504.71	60.436
505.06	58.412
505.40	60.479
505.75	60.213
506.09	60.718
506.44	61.053
506.78	59.659
507.13	59.732
507.47	60.981
507.82	60.506
508.16	60.466
508.51	60.124
508.85	60.611
509.19	61.015
509.54	61.152
509.88	59.681
510.23	61.164
510.57	60.794
510.92	60.526
511.26	60.659
511.61	61.177
511.95	59.537
512.30	61.187
512.64	60.768
512.98	61.221
513.33	60.791
513.67	60.246
514.02	60.459
514.36	60.166
514.70	60.838
515.05	60.206
515.39	59.689
515.74	61.606
516.08	61.671
516.42	60.170
516.77	61.641
517.11	60.183
517.46	62.799
517.80	63.057
518.14	61.292
518.49	62.224
518.83	61.306
519.17	61.456
519.52	61.712
519.86	62.724
520.20	62.714
520.55	62.462
520.89	62.304
521.23	61.966
521.58	62.006
521.92	63.331
522.26	61.778
522.61	61.407
522.95	63.114
523.29	63.323
523.64	61.587
523.98	61.680
524.32	60.528
524.66	60.124
525.01	61.143
525.35	62.500
525.69	61.874
526.04	63.120
526.38	62.635
526.72	61.558
527.06	63.477
527.41	62.112
527.75	59.604
528.09	61.416
528.43	62.098
528.78	60.427
529.12	62.420
529.46	61.856
529.80	61.072
530.15	61.623
530.49	60.931
530.83	61.297
531.17	60.943
531.51	60.884
531.86	59.908
532.20	62.348
532.54	61.497
532.88	59.552
533.22	61.430
533.57	60.966
533.91	58.302
534.25	59.208
534.59	59.088
534.93	58.805
535.27	59.031
535.62	61.189
535.96	60.504
536.30	59.817
536.64	58.898
536.98	62.429
537.32	61.092
537.66	60.828
538.01	61.649
538.35	60.068
538.69	60.160
539.03	60.190
539.37	59.681
539.71	59.506
540.05	60.110
540.39	59.834
540.73	59.157
541.07	59.495
541.42	58.879
541.76	58.538
542.10	59.689
542.44	59.760
542.78	59.498
543.12	58.520
543.46	58.630
543.80	58.863
544.14	57.690
544.48	59.186
544.82	59.608
545.16	58.685
545.50	58.614
545.84	60.223
546.18	58.114
546.52	58.606
546.86	57.977
547.20	59.212
547.54	56.336
547.88	57.996
548.22	57.274
548.56	57.114
548.90	56.873
549.24	57.603
549.58	57.869
549.92	59.152
550.26	57.803
550.60	56.117
550.94	57.664
551.28	58.164
551.62	57.755
551.96	56.078
552.30	55.192
552.64	56.087
552.98	56.692
553.32	57.359
553.66	59.553
554.00	57.214
554.34	56.534
554.68	57.164
555.02	57.019
555.36	57.369
555.69	56.375
556.03	55.439
556.37	58.037
556.71	55.691
557.05	57.132
557.39	57.238
557.73	56.601
558.07	56.895
558.41	56.619
558.75	56.350
559.08	55.097
559.42	56.355
559.76	57.055
560.10	57.196
560.44	55.347
560.78	55.602
561.12	55.003
561.45	55.068
561.79	54.983
562.13	54.769
562.47	54.902
562.81	55.516
563.15	54.724
563.48	55.079
563.82	54.767
564.16	55.984
564.50	55.376
564.84	54.696
565.17	53.846
565.51	54.628
565.85	56.592
566.19	55.468
566.52	53.816
566.86	53.793
567.20	53.269
567.54	53.574
567.88	52.150
568.21	55.089
568.55	52.704
568.89	51.789
569.23	52.892
569.56	50.694
569.90	51.928
570.24	50.846
570.57	50.404
570.91	50.629
571.25	50.357
571.59	51.233
571.92	49.762
572.26	50.000
572.60	49.426
572.93	49.768
573.27	48.598
573.61	48.781
573.95	49.441
574.28	48.472
574.62	50.127
574.96	48.928
575.29	48.374
575.63	48.951
575.97	48.679
576.30	48.287
576.64	48.695
576.98	47.972
577.31	48.176
577.65	48.669
577.98	48.412
578.32	48.200
578.66	47.933
578.99	49.224
579.33	48.581
579.67	48.060
580.00	47.793
580.34	48.973
580.67	48.615
581.01	47.692
581.35	48.727
581.68	47.118
582.02	47.916
582.35	47.441
582.69	48.098
583.02	48.121
583.36	48.499
583.70	47.901
584.03	48.949
584.37	48.309
584.70	48.269
585.04	47.494
585.37	47.232
585.71	47.412
586.04	47.948
586.38	47.928
586.72	47.463
587.05	48.145
587.39	47.391
587.72	47.465
588.06	47.263
588.39	47.593
588.73	48.008
589.06	48.242
589.40	48.437
589.73	47.096
590.07	47.123
590.40	47.970
590.73	47.981
591.07	48.566
591.40	48.787
591.74	48.871
592.07	49.009
592.41	48.450
592.74	47.886
593.08	47.545
593.41	47.533
593.75	46.785
594.08	47.304
594.41	47.652
594.75	47.037
595.08	47.293
595.42	47.146
595.75	46.637
596.09	47.808
596.42	48.159
596.75	47.520
597.09	48.798
597.42	47.447
597.75	48.140
598.09	47.808
598.42	47.945
598.76	46.802
599.09	47.080
599.42	46.597
599.76	46.697
600.09	47.366
600.42	46.981
600.76	46.667
601.09	47.209
601.42	46.814
601.76	46.456
602.09	46.994
602.42	46.955
602.76	47.237
603.09	46.815
603.42	47.260
603.76	47.228
604.09	47.177
604.42	47.002
604.76	46.577
605.09	47.107
605.42	47.340
605.75	46.744
606.09	46.575
606.42	46.753
606.75	46.071
607.09	47.287
607.42	46.655
607.75	46.137
608.08	47.176
608.42	48.013
608.75	46.355
609.08	46.420
609.41	46.986
609.75	46.026
610.08	47.745
610.41	47.904
610.74	47.969
611.07	48.174
611.41	45.991
611.74	47.147
612.07	48.443
612.40	47.015
612.73	47.119
613.07	48.046
613.40	47.455
613.73	47.084
614.06	46.787
614.39	48.534
614.72	46.648
615.06	47.174
615.39	46.066
615.72	47.148
616.05	46.715
616.38	46.779
616.71	46.847
617.05	47.527
617.38	48.173
617.71	46.622
618.04	47.081
618.37	47.610
618.70	49.478
619.03	46.784
619.36	48.203
619.69	48.528
620.03	46.074
620.36	47.961
620.69	47.739
621.02	48.174
621.35	48.065
621.68	48.852
622.01	50.405
622.34	47.360
622.67	47.734
623.00	48.738
623.33	48.881
623.66	47.120
623.99	46.692
624.32	47.768
624.65	47.756
624.99	48.693
625.32	48.204
625.65	49.495
625.98	47.183
626.31	48.777
626.64	48.536
626.97	49.572
627.30	50.213
627.63	49.050
627.96	48.564
628.29	49.908
628.62	48.711
628.95	49.114
629.28	49.812
629.61	49.166
629.94	50.095
630.26	50.795
630.59	49.950
630.92	49.650
631.25	49.597
631.58	50.476
631.91	49.255
632.24	51.889
632.57	50.000
