SpectraSuite Data File
++++++++++++++++++++++++++++++++++++
Date: Sat May 16 11:30:45 PDT 2015
User: schluterlab
Dark Spectrum Present: Yes
Reference Spectrum Present: Yes
Number of Sampled Component Spectra: 1
Spectrometers: USB2E3373
Integration Time (usec): 3000 (USB2E3373)
Spectra Averaged: 3 (USB2E3373)
Boxcar Smoothing: 0 (USB2E3373)
Correct for Electrical Dark: No (USB2E3373)
Strobe/Lamp Enabled: No (USB2E3373)
Correct for Detector Non-linearity: No (USB2E3373)
Correct for Stray Light: No (USB2E3373)
Number of Pixels in Processed Spectrum: 2048
>>>>>Begin Processed Spectral Data<<<<<
178.53	0.000
178.91	153.333
179.29	733.333
179.67	-900.000
180.04	-23.077
180.42	700.000
180.80	200.000
181.18	325.000
181.56	25.000
181.94	2000.000
182.31	400.000
182.69	30.769
183.07	-466.667
183.45	1000.000
183.83	166.667
184.20	-114.286
184.58	-175.000
184.96	-425.000
185.34	118.750
185.72	-525.000
186.09	233.333
186.47	-162.500
186.85	-175.000
187.23	-187.500
187.61	25.000
187.98	-200.000
188.36	-300.000
188.74	-187.500
189.12	1000.000
189.49	214.286
189.87	8.333
190.25	550.000
190.63	-92.857
191.00	-44.444
191.38	420.000
191.76	-93.333
192.14	380.000
192.51	-100.000
192.89	-366.667
193.27	0.000
193.65	-144.444
194.02	-128.571
194.40	733.333
194.78	-70.000
195.15	-600.000
195.53	-63.636
195.91	-466.667
196.29	260.000
196.66	-600.000
197.04	2000.000
197.42	-175.000
197.79	-53.333
198.17	-266.667
198.55	-900.000
198.92	-1500.000
199.30	150.000
199.68	-850.000
200.05	-88.889
200.43	-233.333
200.81	-2400.000
201.18	-150.000
201.56	200.000
201.94	-60.000
202.31	18.182
202.69	-30.000
203.07	-180.000
203.44	400.000
203.82	-316.667
204.19	-525.000
204.57	-200.000
204.95	-1900.000
205.32	-12.500
205.70	1400.000
206.08	-2500.000
206.45	-44.444
206.83	-1100.000
207.20	-150.000
207.58	-700.000
207.96	-300.000
208.33	-137.500
208.71	-144.444
209.08	300.000
209.46	-128.571
209.84	1000.000
210.21	0.000
210.59	15.000
210.96	1700.000
211.34	-250.000
211.71	-266.667
212.09	475.000
212.46	700.000
212.84	-1900.000
213.22	466.667
213.59	83.333
213.97	11.111
214.34	220.000
214.72	-130.000
215.09	-166.667
215.47	-100.000
215.84	-80.000
216.22	-70.000
216.59	-40.000
216.97	-225.000
217.34	1350.000
217.72	-100.000
218.09	-233.333
218.47	-228.571
218.84	214.286
219.22	-114.286
219.59	0.000
219.97	171.429
220.34	450.000
220.72	287.500
221.09	-46.154
221.47	0.000
221.84	633.333
222.22	-300.000
222.59	1200.000
222.97	-200.000
223.34	-1100.000
223.72	-566.667
224.09	-85.714
224.46	-425.000
224.84	-85.714
225.21	-128.571
225.59	-81.818
225.96	-187.500
226.34	-157.143
226.71	-155.556
227.08	-30.000
227.46	1600.000
227.83	-342.857
228.21	-400.000
228.58	-50.000
228.95	-43.750
229.33	-2100.000
229.70	-80.000
230.08	-850.000
230.45	-125.000
230.82	-233.333
231.20	-800.000
231.57	-350.000
231.95	1700.000
232.32	42.857
232.69	-177.778
233.07	-285.714
233.44	-900.000
233.81	-86.667
234.19	-44.444
234.56	-75.000
234.93	-15.625
235.31	-228.571
235.68	-150.000
236.05	-58.824
236.43	-45.455
236.80	-29.032
237.17	0.000
237.55	-38.095
237.92	-68.182
238.29	-31.429
238.67	-11.765
239.04	-36.111
239.41	-45.161
239.79	-25.641
240.16	-16.667
240.53	-14.545
240.91	-25.641
241.28	10.909
241.65	1.538
242.02	1.639
242.40	-11.475
242.77	1.515
243.14	-16.949
243.51	-8.571
243.89	-2.532
244.26	1.124
244.63	15.789
245.00	5.263
245.38	17.797
245.75	5.310
246.12	12.000
246.49	11.811
246.87	4.065
247.24	2.542
247.61	14.407
247.98	10.563
248.36	6.993
248.73	13.924
249.10	9.554
249.47	8.187
249.84	14.773
250.22	2.976
250.59	10.169
250.96	6.283
251.33	12.796
251.70	8.654
252.08	10.427
252.45	8.531
252.82	4.762
253.19	10.213
253.56	10.887
253.94	14.768
254.31	10.300
254.68	17.480
255.05	10.081
255.42	10.317
255.79	10.394
256.16	12.941
256.54	11.765
256.91	12.879
257.28	9.890
257.65	12.766
258.02	17.296
258.39	12.040
258.76	8.446
259.14	15.123
259.51	15.410
259.88	14.939
260.25	13.975
260.62	14.148
260.99	10.089
261.36	10.976
261.73	10.983
262.10	14.722
262.47	12.251
262.85	16.857
263.22	16.905
263.59	10.462
263.96	15.652
264.33	13.008
264.70	12.707
265.07	14.286
265.44	11.628
265.81	12.661
266.18	9.620
266.55	13.480
266.92	15.617
267.29	14.528
267.66	13.333
268.03	13.768
268.40	16.667
268.77	13.012
269.14	16.473
269.51	15.172
269.88	15.138
270.25	12.821
270.62	13.730
270.99	13.739
271.36	13.753
271.73	13.453
272.10	14.874
272.47	12.889
272.84	15.333
273.21	14.450
273.58	12.527
273.95	14.035
274.32	14.027
274.69	14.223
275.06	17.178
275.43	14.286
275.80	17.108
276.17	15.063
276.54	16.090
276.91	13.992
277.28	14.807
277.65	11.983
278.02	13.361
278.39	15.521
278.76	13.147
279.13	13.636
279.50	12.922
279.87	13.108
280.23	16.802
280.60	14.314
280.97	11.845
281.34	14.120
281.71	15.577
282.08	15.524
282.45	13.442
282.82	14.147
283.19	15.091
283.56	14.469
283.92	15.724
284.29	14.684
284.66	12.770
285.03	15.508
285.40	14.576
285.77	14.561
286.14	15.343
286.51	15.098
286.87	16.697
287.24	16.724
287.61	15.868
287.98	12.305
288.35	13.223
288.72	12.903
289.08	13.390
289.45	13.131
289.82	13.322
290.19	12.808
290.56	12.562
290.93	12.878
291.29	12.480
291.66	14.171
292.03	14.443
292.40	13.554
292.77	13.509
293.13	14.634
293.50	14.562
293.87	12.730
294.24	13.424
294.60	11.212
294.97	13.505
295.34	11.259
295.71	13.095
296.08	11.214
296.44	12.017
296.81	13.960
297.18	12.113
297.55	12.712
297.91	12.831
298.28	12.877
298.65	12.413
299.02	12.968
299.38	12.299
299.75	13.723
300.12	11.410
300.48	12.276
300.85	10.878
301.22	12.807
301.59	10.663
301.95	13.476
302.32	10.039
302.69	12.118
303.05	12.210
303.42	12.750
303.79	12.201
304.15	13.033
304.52	11.785
304.89	11.452
305.25	12.210
305.62	12.808
305.99	12.721
306.35	13.208
306.72	11.845
307.09	13.734
307.45	12.032
307.82	11.061
308.19	11.857
308.55	13.072
308.92	9.989
309.29	12.649
309.65	11.877
310.02	11.987
310.38	12.000
310.75	11.988
311.12	12.810
311.48	12.109
311.85	12.770
312.22	13.285
312.58	13.327
312.95	12.742
313.31	13.686
313.68	15.075
314.05	13.254
314.41	11.670
314.78	12.088
315.14	13.129
315.51	11.651
315.87	13.069
316.24	13.120
316.61	13.436
316.97	12.736
317.34	12.717
317.70	12.523
318.07	13.526
318.43	13.764
318.80	14.178
319.16	12.946
319.53	14.192
319.89	13.170
320.26	15.588
320.62	13.942
320.99	14.527
321.35	13.399
321.72	12.999
322.08	14.837
322.45	12.772
322.81	14.890
323.18	13.160
323.54	14.972
323.91	15.755
324.27	14.924
324.64	14.351
325.00	15.532
325.37	16.471
325.73	16.010
326.10	14.792
326.46	15.149
326.83	16.170
327.19	14.762
327.56	16.269
327.92	16.058
328.29	16.190
328.65	15.545
329.01	16.519
329.38	15.611
329.74	16.850
330.11	15.775
330.47	17.439
330.84	16.682
331.20	15.975
331.56	16.955
331.93	15.542
332.29	16.438
332.66	16.418
333.02	16.380
333.38	17.294
333.75	17.453
334.11	16.711
334.48	16.858
334.84	19.510
335.20	17.465
335.57	17.329
335.93	18.353
336.29	17.183
336.66	16.388
337.02	18.288
337.38	16.845
337.75	16.681
338.11	16.547
338.47	17.171
338.84	17.332
339.20	17.750
339.56	18.895
339.93	17.549
340.29	17.449
340.65	17.395
341.02	16.863
341.38	16.681
341.74	18.967
342.11	17.150
342.47	16.996
342.83	16.793
343.20	16.482
343.56	16.735
343.92	17.780
344.28	17.998
344.65	16.254
345.01	16.471
345.37	17.359
345.73	17.594
346.10	16.926
346.46	16.897
346.82	16.840
347.19	16.105
347.55	17.576
347.91	16.850
348.27	16.706
348.63	18.821
349.00	18.218
349.36	16.393
349.72	18.710
350.08	16.279
350.45	16.154
350.81	18.312
351.17	17.444
351.53	16.070
351.89	16.977
352.26	16.822
352.62	17.819
352.98	18.196
353.34	17.826
353.70	16.988
354.07	18.175
354.43	17.866
354.79	18.067
355.15	17.412
355.51	17.734
355.87	18.261
356.24	17.554
356.60	17.647
356.96	18.245
357.32	17.340
357.68	18.008
358.04	18.168
358.40	17.169
358.77	18.702
359.13	17.751
359.49	18.292
359.85	17.226
360.21	17.656
360.57	17.846
360.93	18.222
361.29	18.161
361.66	17.378
362.02	18.121
362.38	19.222
362.74	17.875
363.10	17.360
363.46	19.729
363.82	18.076
364.18	18.669
364.54	18.370
364.90	17.750
365.26	18.545
365.62	19.244
365.98	19.132
366.35	18.732
366.71	18.957
367.07	18.701
367.43	19.355
367.79	19.107
368.15	18.350
368.51	19.371
368.87	19.780
369.23	20.070
369.59	19.653
369.95	19.168
370.31	19.620
370.67	18.366
371.03	20.408
371.39	20.297
371.75	19.886
372.11	20.086
372.47	20.029
372.83	19.958
373.19	19.786
373.55	20.408
373.91	20.555
374.27	21.013
374.63	20.359
374.99	21.488
375.35	20.861
375.71	21.742
376.07	20.534
376.42	20.265
376.78	22.680
377.14	21.695
377.50	21.921
377.86	21.001
378.22	21.106
378.58	21.433
378.94	21.948
379.30	22.121
379.66	22.222
380.02	21.687
380.38	21.752
380.74	22.040
381.09	22.261
381.45	23.091
381.81	21.537
382.17	23.559
382.53	21.581
382.89	22.548
383.25	23.660
383.61	22.583
383.97	24.005
384.32	23.217
384.68	24.184
385.04	22.585
385.40	23.676
385.76	24.024
386.12	24.422
386.48	24.196
386.83	23.742
387.19	24.925
387.55	24.955
387.91	25.015
388.27	23.764
388.62	23.558
388.98	23.561
389.34	23.929
389.70	24.300
390.06	25.233
390.42	25.705
390.77	24.669
391.13	24.720
391.49	25.265
391.85	24.314
392.20	24.697
392.56	25.962
392.92	25.328
393.28	26.119
393.64	25.376
393.99	26.215
394.35	25.669
394.71	26.004
395.07	25.487
395.42	25.089
395.78	25.016
396.14	26.355
396.50	25.872
396.85	25.910
397.21	24.970
397.57	25.289
397.92	27.049
398.28	26.222
398.64	25.818
399.00	26.573
399.35	25.874
399.71	26.365
400.07	26.269
400.42	26.764
400.78	25.283
401.14	26.347
401.49	26.592
401.85	26.968
402.21	26.758
402.57	26.760
402.92	27.439
403.28	26.777
403.63	26.603
403.99	27.160
404.35	26.993
404.70	26.858
405.06	26.990
405.42	25.830
405.77	26.584
406.13	26.803
406.49	27.442
406.84	26.695
407.20	28.033
407.55	26.029
407.91	25.907
408.27	27.696
408.62	26.819
408.98	27.047
409.34	26.752
409.69	26.780
410.05	26.986
410.40	26.977
410.76	26.023
411.11	28.491
411.47	26.279
411.83	27.567
412.18	26.918
412.54	26.236
412.89	27.217
413.25	27.450
413.60	26.792
413.96	26.309
414.31	26.972
414.67	27.429
415.03	26.843
415.38	27.586
415.74	28.028
416.09	27.813
416.45	27.050
416.80	28.218
417.16	27.973
417.51	27.774
417.87	28.738
418.22	28.255
418.58	28.113
418.93	28.817
419.29	27.729
419.64	28.266
420.00	27.704
420.35	27.972
420.71	28.691
421.06	28.284
421.42	27.986
421.77	27.917
422.12	28.931
422.48	28.808
422.83	28.132
423.19	28.452
423.54	28.646
423.90	29.034
424.25	28.394
424.61	29.252
424.96	29.608
425.31	30.017
425.67	29.398
426.02	28.858
426.38	29.885
426.73	29.515
427.09	30.208
427.44	29.148
427.79	30.000
428.15	30.221
428.50	29.326
428.85	30.156
429.21	30.382
429.56	29.844
429.92	29.810
430.27	30.409
430.62	30.930
430.98	30.005
431.33	30.309
431.68	31.260
432.04	30.890
432.39	31.168
432.74	30.576
433.10	31.289
433.45	30.743
433.80	30.907
434.16	30.790
434.51	31.014
434.86	31.752
435.22	31.904
435.57	30.967
435.92	31.301
436.28	31.513
436.63	30.752
436.98	31.214
437.34	31.601
437.69	30.863
438.04	31.707
438.39	32.431
438.75	32.189
439.10	32.038
439.45	33.011
439.81	31.446
440.16	31.346
440.51	32.824
440.86	31.290
441.22	32.946
441.57	32.211
441.92	32.532
442.27	32.305
442.63	32.725
442.98	32.336
443.33	33.498
443.68	32.673
444.03	32.318
444.39	32.452
444.74	33.590
445.09	31.414
445.44	33.089
445.79	32.942
446.15	33.406
446.50	32.880
446.85	33.453
447.20	33.350
447.55	32.707
447.91	34.082
448.26	32.514
448.61	32.767
448.96	33.838
449.31	33.258
449.66	34.058
450.02	32.355
450.37	32.986
450.72	33.785
451.07	34.129
451.42	32.342
451.77	34.411
452.12	34.386
452.47	34.887
452.83	33.314
453.18	34.915
453.53	34.142
453.88	34.988
454.23	33.434
454.58	36.358
454.93	34.446
455.28	34.672
455.63	34.398
455.98	35.783
456.34	34.435
456.69	35.335
457.04	34.604
457.39	34.629
457.74	34.259
458.09	34.687
458.44	35.162
458.79	34.922
459.14	35.425
459.49	35.524
459.84	35.469
460.19	35.084
460.54	35.269
460.89	34.809
461.24	36.248
461.59	36.518
461.94	35.773
462.29	35.497
462.64	35.310
462.99	36.145
463.34	35.719
463.69	35.560
464.04	35.032
464.39	35.663
464.74	35.047
465.09	34.576
465.44	35.871
465.79	36.210
466.14	36.306
466.49	35.636
466.84	36.615
467.19	36.409
467.54	34.620
467.89	36.498
468.24	36.223
468.59	35.603
468.94	37.814
469.29	36.257
469.64	36.725
469.99	37.137
470.34	37.341
470.68	38.445
471.03	36.752
471.38	36.458
471.73	38.112
472.08	37.282
472.43	37.194
472.78	37.000
473.13	35.984
473.48	37.141
473.83	37.221
474.17	37.898
474.52	38.683
474.87	36.830
475.22	36.637
475.57	37.000
475.92	37.365
476.27	37.086
476.61	37.465
476.96	37.339
477.31	37.029
477.66	38.462
478.01	37.493
478.36	37.087
478.70	38.601
479.05	38.615
479.40	37.565
479.75	37.920
480.10	37.996
480.45	37.669
480.79	37.907
481.14	36.879
481.49	38.141
481.84	37.587
482.19	37.780
482.53	38.494
482.88	38.016
483.23	37.512
483.58	38.205
483.92	38.796
484.27	36.996
484.62	37.495
484.97	37.451
485.31	36.032
485.66	34.823
486.01	34.945
486.36	36.053
486.70	37.017
487.05	36.001
487.40	36.619
487.75	36.103
488.09	35.979
488.44	37.415
488.79	37.248
489.13	36.858
489.48	38.214
489.83	38.908
490.17	39.007
490.52	39.629
490.87	39.030
491.22	39.187
491.56	38.843
491.91	40.315
492.26	38.585
492.60	40.390
492.95	39.505
493.30	39.114
493.64	39.633
493.99	38.958
494.34	40.095
494.68	39.373
495.03	39.293
495.37	39.823
495.72	39.931
496.07	39.840
496.41	40.019
496.76	40.137
497.11	40.650
497.45	40.230
497.80	39.570
498.14	39.784
498.49	40.784
498.84	39.612
499.18	40.351
499.53	40.477
499.87	39.624
500.22	40.343
500.56	40.320
500.91	40.197
501.26	40.029
501.60	39.961
501.95	41.546
502.29	39.915
502.64	41.254
502.98	39.818
503.33	39.474
503.67	40.374
504.02	39.498
504.36	40.784
504.71	40.324
505.06	40.389
505.40	41.168
505.75	40.498
506.09	41.658
506.44	41.253
506.78	42.148
507.13	40.628
507.47	41.367
507.82	41.301
508.16	41.451
508.51	41.834
508.85	41.408
509.19	42.020
509.54	42.072
509.88	41.011
510.23	42.348
510.57	42.963
510.92	43.663
511.26	41.680
511.61	41.523
511.95	40.841
512.30	43.321
512.64	42.126
512.98	43.674
513.33	42.724
513.67	42.993
514.02	42.002
514.36	42.936
514.70	42.332
515.05	42.996
515.39	42.157
515.74	44.095
516.08	42.767
516.42	43.116
516.77	45.234
517.11	43.478
517.46	44.677
517.80	43.682
518.14	42.874
518.49	44.112
518.83	43.145
519.17	44.109
519.52	43.320
519.86	44.026
520.20	44.010
520.55	44.185
520.89	45.022
521.23	44.689
521.58	45.643
521.92	45.725
522.26	44.063
522.61	44.613
522.95	45.246
523.29	45.580
523.64	44.535
523.98	45.894
524.32	43.935
524.66	44.534
525.01	45.022
525.35	45.296
525.69	45.543
526.04	45.300
526.38	45.194
526.72	45.530
527.06	44.922
527.41	45.215
527.75	44.026
528.09	46.062
528.43	45.902
528.78	45.226
529.12	46.095
529.46	44.330
529.80	45.255
530.15	45.976
530.49	45.408
530.83	44.925
531.17	45.253
531.51	46.149
531.86	43.515
532.20	45.479
532.54	44.786
532.88	44.203
533.22	46.324
533.57	47.389
533.91	43.571
534.25	45.129
534.59	44.972
534.93	44.306
535.27	44.808
535.62	44.437
535.96	43.762
536.30	44.503
536.64	45.086
536.98	45.833
537.32	44.713
537.66	45.485
538.01	45.155
538.35	43.919
538.69	44.251
539.03	45.159
539.37	44.578
539.71	45.097
540.05	44.688
540.39	44.391
540.73	45.335
541.07	45.150
541.42	43.349
541.76	44.651
542.10	45.577
542.44	44.570
542.78	46.404
543.12	45.825
543.46	42.877
543.80	44.080
544.14	44.325
544.48	44.882
544.82	45.670
545.16	44.333
545.50	44.415
545.84	45.132
546.18	45.354
546.52	45.661
546.86	44.801
547.20	46.414
547.54	45.248
547.88	44.061
548.22	43.119
548.56	43.821
548.90	44.946
549.24	44.429
549.58	43.613
549.92	45.088
550.26	45.159
550.60	43.528
550.94	46.058
551.28	45.222
551.62	44.387
551.96	45.731
552.30	44.808
552.64	43.561
552.98	44.709
553.32	44.517
553.66	45.566
554.00	45.060
554.34	45.632
554.68	44.883
555.02	45.007
555.36	44.069
555.69	44.341
556.03	44.702
556.37	44.808
556.71	44.810
557.05	46.120
557.39	45.805
557.73	45.368
558.07	45.893
558.41	45.400
558.75	46.160
559.08	45.681
559.42	45.482
559.76	46.933
560.10	45.563
560.44	45.303
560.78	45.094
561.12	43.823
561.45	45.548
561.79	45.784
562.13	45.021
562.47	45.308
562.81	44.908
563.15	44.857
563.48	45.335
563.82	44.625
564.16	44.692
564.50	44.758
564.84	44.577
565.17	44.098
565.51	44.980
565.85	46.045
566.19	45.916
566.52	45.075
566.86	43.110
567.20	44.492
567.54	45.363
567.88	42.937
568.21	42.785
568.55	43.319
568.89	41.998
569.23	40.676
569.56	40.227
569.90	40.677
570.24	40.887
570.57	39.543
570.91	39.238
571.25	39.040
571.59	39.307
571.92	39.196
572.26	38.826
572.60	38.598
572.93	37.906
573.27	38.323
573.61	37.654
573.95	38.159
574.28	37.519
574.62	38.739
574.96	37.488
575.29	37.678
575.63	37.882
575.97	37.756
576.30	37.709
576.64	38.068
576.98	37.397
577.31	37.688
577.65	37.352
577.98	37.451
578.32	37.255
578.66	37.099
578.99	38.046
579.33	36.976
579.67	37.484
580.00	36.954
580.34	37.158
580.67	37.436
581.01	36.700
581.35	37.261
581.68	36.393
582.02	36.901
582.35	36.695
582.69	37.392
583.02	37.798
583.36	37.679
583.70	37.455
584.03	38.416
584.37	38.187
584.70	38.462
585.04	37.873
585.37	36.754
585.71	37.542
586.04	37.665
586.38	37.610
586.72	38.444
587.05	38.148
587.39	38.459
587.72	37.616
588.06	38.294
588.39	38.337
588.73	38.745
589.06	39.418
589.40	39.608
589.73	38.916
590.07	39.039
590.40	39.299
590.73	39.904
591.07	39.631
591.40	39.818
591.74	39.444
592.07	39.324
592.41	39.575
592.74	38.932
593.08	38.998
593.41	38.914
593.75	37.784
594.08	39.504
594.41	39.667
594.75	39.071
595.08	39.699
595.42	39.921
595.75	39.324
596.09	39.503
596.42	40.057
596.75	40.707
597.09	40.294
597.42	40.070
597.75	40.523
598.09	40.714
598.42	40.389
598.76	39.327
599.09	38.122
599.42	38.870
599.76	38.883
600.09	39.618
600.42	39.651
600.76	38.945
601.09	38.701
601.42	39.335
601.76	39.213
602.09	39.182
602.42	39.588
602.76	38.762
603.09	40.161
603.42	39.363
603.76	39.888
604.09	39.007
604.42	39.883
604.76	39.250
605.09	41.049
605.42	39.716
605.75	40.319
606.09	39.311
606.42	38.668
606.75	39.287
607.09	39.568
607.42	40.053
607.75	39.779
608.08	40.443
608.42	40.161
608.75	39.533
609.08	40.088
609.41	39.462
609.75	39.834
610.08	39.902
610.41	40.675
610.74	40.571
611.07	40.619
611.41	40.343
611.74	41.028
612.07	41.944
612.40	40.192
612.73	41.465
613.07	42.212
613.40	42.255
613.73	41.035
614.06	40.692
614.39	41.995
614.72	40.838
615.06	41.033
615.39	38.958
615.72	42.260
616.05	40.585
616.38	41.788
616.71	39.700
617.05	42.159
617.38	42.477
617.71	42.015
618.04	42.919
618.37	41.761
618.70	43.220
619.03	43.060
619.36	43.904
619.69	43.216
620.03	42.080
620.36	43.671
620.69	44.078
621.02	44.597
621.35	42.419
621.68	44.508
622.01	44.417
622.34	45.186
622.67	42.969
623.00	44.300
623.33	46.119
623.66	42.910
623.99	44.586
624.32	43.750
624.65	43.709
624.99	43.839
625.32	43.039
625.65	44.367
625.98	43.975
626.31	44.780
626.64	44.854
626.97	45.548
627.30	45.021
627.63	44.819
627.96	46.301
628.29	45.680
628.62	44.890
628.95	46.457
629.28	46.523
629.61	45.829
629.94	46.408
630.26	47.316
630.59	48.141
630.92	46.346
631.25	49.093
631.58	48.254
