SpectraSuite Data File
++++++++++++++++++++++++++++++++++++
Date: Sat May 16 11:44:49 PDT 2015
User: schluterlab
Dark Spectrum Present: Yes
Reference Spectrum Present: Yes
Number of Sampled Component Spectra: 1
Spectrometers: USB2E3373
Integration Time (usec): 3000 (USB2E3373)
Spectra Averaged: 3 (USB2E3373)
Boxcar Smoothing: 0 (USB2E3373)
Correct for Electrical Dark: No (USB2E3373)
Strobe/Lamp Enabled: No (USB2E3373)
Correct for Detector Non-linearity: No (USB2E3373)
Correct for Stray Light: No (USB2E3373)
Number of Pixels in Processed Spectrum: 2048
>>>>>Begin Processed Spectral Data<<<<<
178.53	0.000
178.91	126.667
179.29	833.333
179.67	-1000.000
180.04	-38.462
180.42	200.000
180.80	200.000
181.18	350.000
181.56	-125.000
181.94	700.000
182.31	500.000
182.69	-84.615
183.07	-1033.333
183.45	1400.000
183.83	400.000
184.20	-414.286
184.58	-150.000
184.96	-425.000
185.34	106.250
185.72	-350.000
186.09	116.667
186.47	-212.500
186.85	-187.500
187.23	-175.000
187.61	-175.000
187.98	-250.000
188.36	-100.000
188.74	-50.000
189.12	1800.000
189.49	300.000
189.87	-75.000
190.25	400.000
190.63	-50.000
191.00	-177.778
191.38	360.000
191.76	-40.000
192.14	320.000
192.51	-140.000
192.89	-233.333
193.27	0.000
193.65	-122.222
194.02	-57.143
194.40	500.000
194.78	-150.000
195.15	-800.000
195.53	-127.273
195.91	-483.333
196.29	200.000
196.66	-766.667
197.04	2500.000
197.42	-450.000
197.79	53.333
198.17	-366.667
198.55	-900.000
198.92	-700.000
199.30	175.000
199.68	-800.000
200.05	-144.444
200.43	-155.556
200.81	-100.000
201.18	-41.667
201.56	214.286
201.94	-13.333
202.31	9.091
202.69	50.000
203.07	-50.000
203.44	466.667
203.82	-316.667
204.19	-350.000
204.57	-275.000
204.95	-1400.000
205.32	-43.750
205.70	900.000
206.08	-1800.000
206.45	-38.889
206.83	-1150.000
207.20	-250.000
207.58	-533.333
207.96	-333.333
208.33	-162.500
208.71	-77.778
209.08	140.000
209.46	-128.571
209.84	500.000
210.21	0.000
210.59	40.000
210.96	1000.000
211.34	-283.333
211.71	-133.333
212.09	325.000
212.46	1300.000
212.84	-1000.000
213.22	533.333
213.59	158.333
213.97	-33.333
214.34	180.000
214.72	-130.000
215.09	-366.667
215.47	-116.667
215.84	30.000
216.22	-90.000
216.59	6.667
216.97	-500.000
217.34	1250.000
217.72	-42.857
218.09	-316.667
218.47	-300.000
218.84	300.000
219.22	-42.857
219.59	0.000
219.97	214.286
220.34	525.000
220.72	250.000
221.09	-46.154
221.47	0.000
221.84	566.667
222.22	-450.000
222.59	400.000
222.97	-237.500
223.34	-800.000
223.72	-433.333
224.09	-57.143
224.46	-500.000
224.84	0.000
225.21	-200.000
225.59	-54.545
225.96	-175.000
226.34	-157.143
226.71	-144.444
227.08	0.000
227.46	1900.000
227.83	-242.857
228.21	-262.500
228.58	850.000
228.95	-62.500
229.33	-800.000
229.70	-100.000
230.08	-1000.000
230.45	-41.667
230.82	33.333
231.20	-1800.000
231.57	-600.000
231.95	500.000
232.32	71.429
232.69	-111.111
233.07	-142.857
233.44	-600.000
233.81	-80.000
234.19	-133.333
234.56	-50.000
234.93	9.375
235.31	-257.143
235.68	-192.857
236.05	-76.471
236.43	-72.727
236.80	-9.677
237.17	-54.167
237.55	-57.143
237.92	-81.818
238.29	-31.429
238.67	-8.824
239.04	-16.667
239.41	-38.710
239.79	-33.333
240.16	-26.190
240.53	-1.818
240.91	7.692
241.28	-23.636
241.65	15.385
242.02	-18.033
242.40	-3.279
242.77	-3.030
243.14	-22.034
243.51	-24.286
243.89	3.797
244.26	-7.865
244.63	6.316
245.00	-7.368
245.38	7.627
245.75	5.310
246.12	10.400
246.49	10.236
246.87	0.813
247.24	-5.932
247.61	-5.085
247.98	4.930
248.36	-1.399
248.73	5.063
249.10	1.911
249.47	7.018
249.84	3.409
250.22	2.381
250.59	3.390
250.96	4.712
251.33	10.427
251.70	4.808
252.08	9.005
252.45	4.739
252.82	0.000
253.19	6.809
253.56	6.048
253.94	6.751
254.31	4.721
254.68	7.317
255.05	5.242
255.42	5.952
255.79	6.452
256.16	8.627
256.54	5.882
256.91	5.682
257.28	6.593
257.65	8.865
258.02	7.547
258.39	7.358
258.76	3.716
259.14	7.407
259.51	8.525
259.88	6.402
260.25	8.696
260.62	3.215
260.99	8.605
261.36	6.402
261.73	7.803
262.10	10.278
262.47	5.983
262.85	11.429
263.22	5.444
263.59	3.385
263.96	6.667
264.33	9.485
264.70	6.906
265.07	9.341
265.44	8.527
265.81	5.943
266.18	4.810
266.55	8.824
266.92	7.809
267.29	6.780
267.66	5.679
268.03	11.594
268.40	8.216
268.77	8.193
269.14	7.657
269.51	9.655
269.88	4.587
270.25	5.594
270.62	7.323
270.99	8.559
271.36	6.760
271.73	7.175
272.10	9.382
272.47	7.333
272.84	10.000
273.21	7.569
273.58	9.231
273.95	8.333
274.32	6.109
274.69	8.096
275.06	10.225
275.43	5.804
275.80	10.387
276.17	7.741
276.54	7.332
276.91	8.230
277.28	8.114
277.65	8.058
278.02	6.263
278.39	9.430
278.76	10.956
279.13	9.881
279.50	8.549
279.87	8.245
280.23	6.275
280.60	10.537
280.97	6.602
281.34	8.317
281.71	10.769
282.08	7.258
282.45	6.110
282.82	8.915
283.19	8.000
283.56	9.158
283.92	8.127
284.29	7.621
284.66	6.295
285.03	10.517
285.40	8.303
285.77	9.123
286.14	10.108
286.51	7.105
286.87	10.889
287.24	9.556
287.61	8.595
287.98	7.452
288.35	7.934
288.72	8.659
289.08	8.983
289.45	8.418
289.82	8.824
290.19	10.509
290.56	8.430
290.93	10.175
291.29	8.914
291.66	7.568
292.03	10.518
292.40	8.886
292.77	10.248
293.13	9.756
293.50	9.658
293.87	9.969
294.24	8.899
294.60	8.485
294.97	10.926
295.34	10.519
295.71	9.226
296.08	8.756
296.44	8.441
296.81	9.829
297.18	9.155
297.55	10.028
297.91	12.273
298.28	9.863
298.65	9.902
299.02	11.497
299.38	9.358
299.75	9.783
300.12	9.872
300.48	10.230
300.85	8.388
301.22	9.961
301.59	10.923
301.95	11.335
302.32	9.387
302.69	9.792
303.05	10.867
303.42	9.500
303.79	10.407
304.15	12.085
304.52	11.085
304.89	10.626
305.25	10.623
305.62	9.753
305.99	13.428
306.35	12.875
306.72	11.162
307.09	11.464
307.45	11.010
307.82	10.279
308.19	11.857
308.55	11.547
308.92	10.204
309.29	11.568
309.65	12.725
310.02	11.123
310.38	11.027
310.75	13.217
311.12	13.120
311.48	12.839
311.85	13.800
312.22	12.873
312.58	13.835
312.95	13.863
313.31	14.286
313.68	14.372
314.05	14.243
314.41	12.777
314.78	13.586
315.14	14.511
315.51	13.982
315.87	15.489
316.24	15.258
316.61	15.643
316.97	15.522
317.34	15.800
317.70	15.028
318.07	16.604
318.43	15.356
318.80	17.653
319.16	15.385
319.53	17.293
319.89	14.581
320.26	15.784
320.62	15.962
320.99	16.716
321.35	16.355
321.72	17.400
322.08	16.419
322.45	17.327
322.81	19.789
323.18	19.789
323.54	19.316
323.91	19.741
324.27	19.677
324.64	20.201
325.00	20.942
325.37	20.724
325.73	22.485
326.10	20.638
326.46	22.680
326.83	22.383
327.19	22.435
327.56	25.298
327.92	24.809
328.29	24.242
328.65	23.909
329.01	25.530
329.38	25.513
329.74	26.740
330.11	27.199
330.47	26.703
330.84	28.231
331.20	28.249
331.56	27.803
331.93	28.330
332.29	29.315
332.66	30.114
333.02	29.140
333.38	30.376
333.75	29.653
334.11	29.156
334.48	30.715
334.84	30.796
335.20	31.472
335.57	31.679
335.93	32.766
336.29	31.178
336.66	31.806
337.02	33.243
337.38	32.264
337.75	33.363
338.11	31.574
338.47	33.363
338.84	33.394
339.20	32.689
339.56	33.690
339.93	32.981
340.29	32.152
340.65	33.042
341.02	32.968
341.38	32.856
341.74	32.345
342.11	33.447
342.47	33.047
342.83	33.081
343.20	33.219
343.56	31.837
343.92	33.890
344.28	34.399
344.65	33.746
345.01	33.950
345.37	35.797
345.73	32.406
346.10	31.889
346.46	32.575
346.82	34.002
347.19	32.786
347.55	33.467
347.91	33.228
348.27	32.538
348.63	33.926
349.00	33.890
349.36	31.928
349.72	35.748
350.08	34.082
350.45	33.097
350.81	33.280
351.17	33.441
351.53	32.617
351.89	32.902
352.26	33.721
352.62	33.717
352.98	33.861
353.34	33.253
353.70	32.201
354.07	32.966
354.43	33.281
354.79	33.756
355.15	33.946
355.51	34.219
355.87	33.992
356.24	33.598
356.60	34.972
356.96	35.643
357.32	34.521
357.68	33.640
358.04	33.333
358.40	33.411
358.77	32.998
359.13	33.818
359.49	34.014
359.85	33.918
360.21	33.638
360.57	34.488
360.93	34.296
361.29	35.575
361.66	34.375
362.02	34.246
362.38	35.143
362.74	33.993
363.10	34.146
363.46	35.043
363.82	35.423
364.18	35.239
364.54	36.097
364.90	35.010
365.26	34.736
365.62	35.638
365.98	34.495
366.35	35.704
366.71	35.518
367.07	36.838
367.43	36.857
367.79	35.052
368.15	34.922
368.51	36.224
368.87	35.371
369.23	35.789
369.59	36.806
369.95	35.800
370.31	36.357
370.67	36.732
371.03	35.860
371.39	36.139
371.75	36.552
372.11	37.446
372.47	36.876
372.83	36.579
373.19	36.143
373.55	37.016
373.91	37.767
374.27	36.482
374.63	36.508
374.99	37.065
375.35	36.339
375.71	37.542
376.07	37.303
376.42	36.954
376.78	37.712
377.14	38.983
377.50	38.491
377.86	37.581
378.22	38.128
378.58	37.678
378.94	37.670
379.30	38.330
379.66	38.009
380.02	38.859
380.38	39.094
380.74	38.804
381.09	38.547
381.45	39.737
381.81	38.596
382.17	39.286
382.53	38.237
382.89	39.115
383.25	39.615
383.61	38.502
383.97	39.314
384.32	39.237
384.68	39.601
385.04	38.949
385.40	39.562
385.76	40.610
386.12	39.975
386.48	40.223
386.83	40.491
387.19	39.331
387.55	40.218
387.91	40.130
388.27	39.445
388.62	39.964
388.98	38.704
389.34	41.310
389.70	40.438
390.06	40.522
390.42	42.244
390.77	40.063
391.13	41.304
391.49	40.611
391.85	40.461
392.20	40.291
392.56	40.134
392.92	40.046
393.28	41.274
393.64	41.191
393.99	41.108
394.35	41.180
394.71	41.878
395.07	41.243
395.42	39.690
395.78	40.541
396.14	41.931
396.50	41.774
396.85	41.086
397.21	40.462
397.57	40.061
397.92	41.276
398.28	41.722
398.64	41.820
399.00	41.348
399.35	41.150
399.71	40.592
400.07	41.075
400.42	40.633
400.78	40.906
401.14	41.078
401.49	40.802
401.85	41.977
402.21	41.836
402.57	40.473
402.92	42.542
403.28	41.789
403.63	39.904
403.99	40.895
404.35	40.036
404.70	41.018
405.06	41.176
405.42	38.991
405.77	40.498
406.13	39.409
406.49	41.043
406.84	40.432
407.20	41.284
407.55	40.405
407.91	40.350
408.27	40.748
408.62	40.770
408.98	41.298
409.34	40.341
409.69	40.517
410.05	40.085
410.40	40.589
410.76	41.020
411.11	40.835
411.47	41.624
411.83	42.176
412.18	41.460
412.54	39.536
412.89	41.130
413.25	39.847
413.60	40.279
413.96	40.604
414.31	41.162
414.67	40.825
415.03	41.009
415.38	40.599
415.74	42.139
416.09	42.327
416.45	40.476
416.80	42.003
417.16	40.598
417.51	42.351
417.87	42.913
418.22	43.047
418.58	43.004
418.93	43.164
419.29	42.033
419.64	42.776
420.00	42.710
420.35	43.347
420.71	43.457
421.06	42.426
421.42	42.447
421.77	42.881
422.12	43.984
422.48	42.758
422.83	42.882
423.19	42.984
423.54	43.746
423.90	44.130
424.25	44.796
424.61	45.597
424.96	46.401
425.31	45.836
425.67	44.871
426.02	44.349
426.38	45.977
426.73	45.354
427.09	45.404
427.44	46.420
427.79	45.698
428.15	46.499
428.50	46.804
428.85	47.062
429.21	46.043
429.56	47.031
429.92	46.643
430.27	46.710
430.62	47.492
430.98	47.569
431.33	48.026
431.68	48.472
432.04	48.405
432.39	48.376
432.74	48.082
433.10	49.128
433.45	46.690
433.80	47.144
434.16	47.179
434.51	49.151
434.86	49.209
435.22	48.552
435.57	49.143
435.92	49.238
436.28	49.318
436.63	49.802
436.98	48.912
437.34	50.148
437.69	49.008
438.04	51.049
438.39	49.819
438.75	50.175
439.10	50.639
439.45	49.970
439.81	51.205
440.16	50.539
440.51	50.882
440.86	50.781
441.22	51.078
441.57	50.263
441.92	50.946
442.27	51.353
442.63	51.717
442.98	51.862
443.33	51.620
443.68	51.954
444.03	51.572
444.39	51.640
444.74	51.707
445.09	51.974
445.44	52.504
445.79	52.830
446.15	52.683
446.50	51.932
446.85	52.181
447.20	52.349
447.55	52.597
447.91	53.341
448.26	52.570
448.61	52.066
448.96	54.230
449.31	54.059
449.66	52.891
450.02	52.687
450.37	53.159
450.72	52.712
451.07	54.494
451.42	52.169
451.77	54.937
452.12	54.231
452.47	53.652
452.83	53.582
453.18	55.155
453.53	54.726
453.88	55.024
454.23	54.293
454.58	55.376
454.93	55.290
455.28	54.685
455.63	56.265
455.98	55.663
456.34	54.574
456.69	56.410
457.04	56.116
457.39	55.144
457.74	55.641
458.09	56.032
458.44	56.409
458.79	56.390
459.14	55.619
459.49	55.181
459.84	54.413
460.19	55.191
460.54	55.717
460.89	55.549
461.24	55.434
461.59	56.624
461.94	56.906
462.29	56.939
462.64	56.588
462.99	56.426
463.34	56.921
463.69	56.361
464.04	56.298
464.39	56.033
464.74	55.615
465.09	55.201
465.44	55.556
465.79	56.289
466.14	57.940
466.49	56.649
466.84	55.882
467.19	56.733
467.54	57.152
467.89	56.967
468.24	57.185
468.59	56.527
468.94	59.164
469.29	56.920
469.64	57.817
469.99	59.284
470.34	58.317
470.68	59.157
471.03	58.568
471.38	57.083
471.73	58.531
472.08	58.768
472.43	58.687
472.78	57.667
473.13	58.516
473.48	59.285
473.83	58.995
474.17	59.490
474.52	59.655
474.87	58.974
475.22	57.581
475.57	57.722
475.92	59.179
476.27	58.229
476.61	59.606
476.96	58.468
477.31	59.096
477.66	58.937
478.01	59.211
478.36	57.727
478.70	60.224
479.05	60.249
479.40	59.741
479.75	58.206
480.10	58.284
480.45	59.236
480.79	59.822
481.14	60.110
481.49	58.955
481.84	58.807
482.19	59.434
482.53	59.801
482.88	59.136
483.23	59.061
483.58	58.557
483.92	60.487
484.27	58.972
484.62	58.531
484.97	58.106
485.31	56.288
485.66	55.273
486.01	55.478
486.36	56.813
486.70	58.854
487.05	57.018
487.40	57.505
487.75	57.861
488.09	56.980
488.44	58.593
488.79	58.437
489.13	59.604
489.48	60.073
489.83	59.825
490.17	61.123
490.52	60.553
490.87	61.062
491.22	60.299
491.56	60.880
491.91	61.546
492.26	60.849
492.60	60.990
492.95	60.543
493.30	59.600
493.64	60.602
493.99	61.185
494.34	61.333
494.68	61.751
495.03	60.373
495.37	61.947
495.72	61.346
496.07	61.567
496.41	63.363
496.76	61.416
497.11	62.789
497.45	61.686
497.80	62.231
498.14	60.658
498.49	62.933
498.84	61.748
499.18	62.232
499.53	61.861
499.87	61.921
500.22	61.569
500.56	62.481
500.91	62.808
501.26	62.737
501.60	61.675
501.95	62.174
502.29	62.305
502.64	62.565
502.98	61.667
503.33	61.795
503.67	60.776
504.02	62.337
504.36	62.598
504.71	62.513
505.06	61.308
505.40	63.124
505.75	62.703
506.09	63.448
506.44	61.855
506.78	63.322
507.13	62.410
507.47	62.911
507.82	63.294
508.16	63.679
508.51	63.472
508.85	64.130
509.19	63.579
509.54	63.795
509.88	63.085
510.23	62.998
510.57	64.550
510.92	64.178
511.26	64.062
511.61	62.581
511.95	64.009
512.30	65.695
512.64	63.773
512.98	64.411
513.33	63.317
513.67	63.596
514.02	64.765
514.36	64.211
514.70	64.403
515.05	65.866
515.39	64.129
515.74	64.980
516.08	65.245
516.42	65.382
516.77	65.222
517.11	64.874
517.46	66.268
517.80	66.968
518.14	66.184
518.49	66.707
518.83	64.985
519.17	65.187
519.52	63.389
519.86	65.890
520.20	66.993
520.55	67.077
520.89	66.374
521.23	65.018
521.58	66.332
521.92	67.511
522.26	67.111
522.61	66.730
522.95	67.071
523.29	66.270
523.64	67.395
523.98	67.027
524.32	65.556
524.66	65.466
525.01	65.639
525.35	66.044
525.69	67.274
526.04	66.971
526.38	66.264
526.72	65.262
527.06	66.406
527.41	67.525
527.75	66.139
528.09	68.365
528.43	66.098
528.78	65.766
529.12	67.093
529.46	66.753
529.80	66.236
530.15	65.808
530.49	66.171
530.83	66.077
531.17	67.407
531.51	65.171
531.86	65.569
532.20	66.397
532.54	66.176
532.88	65.876
533.22	66.377
533.57	67.689
533.91	64.419
534.25	64.111
534.59	64.585
534.93	63.597
535.27	64.884
535.62	66.432
535.96	65.094
536.30	65.183
536.64	65.671
536.98	67.655
537.32	66.275
537.66	66.395
538.01	66.048
538.35	66.419
538.69	65.374
539.03	64.794
539.37	65.536
539.71	64.910
540.05	66.210
540.39	65.789
540.73	66.206
541.07	66.598
541.42	65.496
541.76	63.787
542.10	65.969
542.44	64.957
542.78	65.807
543.12	65.716
543.46	64.863
543.80	64.682
544.14	64.338
544.48	65.092
544.82	65.562
545.16	66.398
545.50	62.921
545.84	64.882
546.18	66.644
546.52	64.794
546.86	65.242
547.20	67.440
547.54	63.154
547.88	64.698
548.22	64.679
548.56	63.594
548.90	62.871
549.24	64.401
549.58	65.420
549.92	65.088
550.26	64.812
550.60	64.723
550.94	64.891
551.28	64.936
551.62	65.066
551.96	65.195
552.30	64.181
552.64	66.080
552.98	64.821
553.32	64.646
553.66	66.402
554.00	65.387
554.34	64.477
554.68	66.228
555.02	64.978
555.36	63.695
555.69	65.258
556.03	64.982
556.37	66.216
556.71	64.639
557.05	66.593
557.39	66.370
557.73	65.864
558.07	67.144
558.41	65.146
558.75	66.920
559.08	65.447
559.42	66.692
559.76	65.874
560.10	66.518
560.44	66.185
560.78	65.553
561.12	63.630
561.45	66.164
561.79	65.645
562.13	64.797
562.47	63.866
562.81	63.720
563.15	64.171
563.48	65.100
563.82	64.233
564.16	63.556
564.50	64.583
564.84	63.823
565.17	64.191
565.51	63.820
565.85	66.261
566.19	65.679
566.52	63.340
566.86	62.769
567.20	62.349
567.54	62.611
567.88	63.540
568.21	62.248
568.55	62.619
568.89	61.183
569.23	59.972
569.56	59.269
569.90	58.851
570.24	59.263
570.57	57.329
570.91	57.565
571.25	57.685
571.59	57.946
571.92	56.548
572.26	56.471
572.60	55.880
572.93	55.931
573.27	55.305
573.61	55.521
573.95	55.349
574.28	55.101
574.62	55.465
574.96	54.835
575.29	55.259
575.63	55.084
575.97	55.016
576.30	55.440
576.64	55.117
576.98	53.969
577.31	54.470
577.65	54.887
577.98	54.121
578.32	54.767
578.66	54.610
578.99	54.836
579.33	54.660
579.67	54.857
580.00	54.712
580.34	54.966
580.67	54.793
581.01	53.496
581.35	54.597
581.68	53.282
582.02	53.828
582.35	53.900
582.69	54.880
583.02	54.841
583.36	54.457
583.70	55.479
584.03	55.981
584.37	55.291
584.70	55.564
585.04	54.304
585.37	53.675
585.71	53.895
586.04	55.420
586.38	54.771
586.72	55.468
587.05	56.471
587.39	55.176
587.72	55.376
588.06	55.626
588.39	55.882
588.73	56.035
589.06	57.065
589.40	55.926
589.73	56.728
590.07	57.174
590.40	57.232
590.73	56.857
591.07	58.279
591.40	59.315
591.74	57.385
592.07	58.288
592.41	58.344
592.74	56.879
593.08	56.196
593.41	56.447
593.75	55.984
594.08	57.764
594.41	57.523
594.75	56.776
595.08	57.594
595.42	56.647
595.75	56.523
596.09	57.392
596.42	59.124
596.75	57.395
597.09	58.415
597.42	58.053
597.75	57.440
598.09	57.569
598.42	57.932
598.76	57.060
599.09	56.511
599.42	56.055
599.76	55.681
600.09	57.061
600.42	56.362
600.76	57.702
601.09	56.210
601.42	57.420
601.76	56.620
602.09	57.382
602.42	57.160
602.76	57.416
603.09	57.298
603.42	57.655
603.76	57.399
604.09	56.628
604.42	56.869
604.76	57.130
605.09	57.052
605.42	57.979
605.75	57.352
606.09	56.787
606.42	57.185
606.75	56.720
607.09	58.094
607.42	58.055
607.75	57.395
608.08	57.433
608.42	58.231
608.75	56.589
609.08	58.792
609.41	58.495
609.75	58.264
610.08	58.431
610.41	58.458
610.74	58.269
611.07	57.961
611.41	57.791
611.74	59.023
612.07	60.150
612.40	58.635
612.73	57.674
613.07	59.218
613.40	59.606
613.73	59.128
614.06	57.770
614.39	60.034
614.72	58.101
615.06	58.043
615.39	58.058
615.72	58.284
616.05	57.703
616.38	58.793
616.71	59.459
617.05	60.374
617.38	60.495
617.71	60.319
618.04	60.559
618.37	61.321
618.70	61.082
619.03	60.122
619.36	61.875
619.69	61.809
620.03	60.675
620.36	61.392
620.69	63.819
621.02	62.557
621.35	62.823
621.68	63.197
622.01	62.864
622.34	63.121
622.67	62.734
623.00	64.346
623.33	62.463
623.66	62.112
623.99	61.203
624.32	62.202
624.65	61.369
624.99	62.733
625.32	61.826
625.65	61.849
625.98	62.911
626.31	64.029
626.64	62.343
626.97	63.613
627.30	63.745
627.63	62.090
627.96	65.013
628.29	63.603
628.62	63.992
628.95	65.650
629.28	64.286
629.61	64.475
629.94	65.784
630.26	66.998
630.59	66.935
630.92	66.266
631.25	65.927
631.58	67.725
631.91	67.340
632.24	69.333
632.57	66.222
632.90	67.126
633.23	68.107
633.56	65.263
633.89	68.750
634.22	69.185
