SpectraSuite Data File
++++++++++++++++++++++++++++++++++++
Date: Sat May 16 11:11:03 PDT 2015
User: schluterlab
Dark Spectrum Present: Yes
Reference Spectrum Present: Yes
Number of Sampled Component Spectra: 1
Spectrometers: USB2E3373
Integration Time (usec): 3000 (USB2E3373)
Spectra Averaged: 3 (USB2E3373)
Boxcar Smoothing: 0 (USB2E3373)
Correct for Electrical Dark: No (USB2E3373)
Strobe/Lamp Enabled: No (USB2E3373)
Correct for Detector Non-linearity: No (USB2E3373)
Correct for Stray Light: No (USB2E3373)
Number of Pixels in Processed Spectrum: 2048
>>>>>Begin Processed Spectral Data<<<<<
178.53	0.000
178.91	53.333
179.29	266.667
179.67	500.000
180.04	-30.769
180.42	-300.000
180.80	-125.000
181.18	-75.000
181.56	75.000
181.94	-500.000
182.31	325.000
182.69	76.923
183.07	-33.333
183.45	1000.000
183.83	333.333
184.20	-14.286
184.58	-187.500
184.96	-75.000
185.34	112.500
185.72	-375.000
186.09	-0.000
186.47	-100.000
186.85	25.000
187.23	-137.500
187.61	150.000
187.98	-200.000
188.36	-12.500
188.74	-112.500
189.12	900.000
189.49	157.143
189.87	-25.000
190.25	175.000
190.63	100.000
191.00	-144.444
191.38	420.000
191.76	26.667
192.14	360.000
192.51	80.000
192.89	-200.000
193.27	0.000
193.65	-77.778
194.02	-71.429
194.40	166.667
194.78	20.000
195.15	-400.000
195.53	-90.909
195.91	-300.000
196.29	80.000
196.66	-433.333
197.04	800.000
197.42	-75.000
197.79	113.333
198.17	-133.333
198.55	-600.000
198.92	-400.000
199.30	100.000
199.68	50.000
200.05	-88.889
200.43	-88.889
200.81	-1700.000
201.18	-50.000
201.56	14.286
201.94	60.000
202.31	22.727
202.69	60.000
203.07	60.000
203.44	566.667
203.82	-33.333
204.19	-325.000
204.57	75.000
204.95	-600.000
205.32	37.500
205.70	500.000
206.08	-600.000
206.45	-22.222
206.83	-200.000
207.20	800.000
207.58	-400.000
207.96	-400.000
208.33	-112.500
208.71	-111.111
209.08	180.000
209.46	57.143
209.84	250.000
210.21	0.000
210.59	55.000
210.96	1700.000
211.34	50.000
211.71	133.333
212.09	-25.000
212.46	900.000
212.84	-1100.000
213.22	233.333
213.59	66.667
213.97	33.333
214.34	60.000
214.72	-30.000
215.09	-133.333
215.47	0.000
215.84	70.000
216.22	-10.000
216.59	40.000
216.97	-475.000
217.34	500.000
217.72	0.000
218.09	-16.667
218.47	-142.857
218.84	200.000
219.22	28.571
219.59	0.000
219.97	142.857
220.34	500.000
220.72	212.500
221.09	-84.615
221.47	0.000
221.84	166.667
222.22	0.000
222.59	800.000
222.97	-125.000
223.34	100.000
223.72	-433.333
224.09	-35.714
224.46	-400.000
224.84	0.000
225.21	-85.714
225.59	9.091
225.96	-50.000
226.34	-28.571
226.71	-11.111
227.08	90.000
227.46	1500.000
227.83	14.286
228.21	-75.000
228.58	-500.000
228.95	-18.750
229.33	0.000
229.70	-240.000
230.08	-300.000
230.45	41.667
230.82	-16.667
231.20	-1500.000
231.57	50.000
231.95	500.000
232.32	19.048
232.69	-66.667
233.07	-114.286
233.44	-1000.000
233.81	6.667
234.19	-133.333
234.56	-18.750
234.93	34.375
235.31	-214.286
235.68	-142.857
236.05	11.765
236.43	-63.636
236.80	3.226
237.17	-41.667
237.55	19.048
237.92	-54.545
238.29	14.286
238.67	11.765
239.04	-13.889
239.41	-38.710
239.79	-41.026
240.16	2.381
240.53	-29.091
240.91	5.128
241.28	1.818
241.65	16.923
242.02	-18.033
242.40	-19.672
242.77	0.000
243.14	-11.864
243.51	-17.143
243.89	-2.532
244.26	-2.247
244.63	8.421
245.00	6.316
245.38	2.542
245.75	4.425
246.12	5.600
246.49	-3.150
246.87	-0.813
247.24	-5.085
247.61	4.237
247.98	-4.225
248.36	-2.797
248.73	1.899
249.10	3.185
249.47	0.585
249.84	6.250
250.22	-10.119
250.59	1.695
250.96	1.571
251.33	8.531
251.70	2.404
252.08	7.109
252.45	-3.318
252.82	-1.429
253.19	2.128
253.56	2.823
253.94	2.954
254.31	1.717
254.68	-0.407
255.05	0.806
255.42	3.175
255.79	0.358
256.16	4.314
256.54	2.941
256.91	-0.758
257.28	1.465
257.65	1.418
258.02	5.031
258.39	-0.669
258.76	-0.338
259.14	-2.778
259.51	2.951
259.88	0.610
260.25	6.522
260.62	4.502
260.99	2.374
261.36	0.915
261.73	0.867
262.10	3.056
262.47	-0.285
262.85	4.857
263.22	-0.860
263.59	-0.923
263.96	1.159
264.33	3.794
264.70	2.486
265.07	0.549
265.44	2.067
265.81	2.842
266.18	2.785
266.55	0.000
266.92	3.778
267.29	0.484
267.66	3.457
268.03	4.106
268.40	2.113
268.77	-1.446
269.14	2.784
269.51	3.908
269.88	-2.752
270.25	3.263
270.62	1.144
270.99	3.378
271.36	1.399
271.73	2.242
272.10	0.686
272.47	2.222
272.84	3.556
273.21	2.752
273.58	1.978
273.95	2.851
274.32	2.262
274.69	5.470
275.06	0.818
275.43	-0.446
275.80	5.499
276.17	2.510
276.54	5.092
276.91	0.823
277.28	2.028
277.65	2.686
278.02	2.714
278.39	1.768
278.76	0.199
279.13	3.755
279.50	1.392
279.87	2.114
280.23	1.619
280.60	0.994
280.97	0.971
281.34	2.901
281.71	1.538
282.08	1.411
282.45	0.815
282.82	0.969
283.19	3.455
283.56	2.564
283.92	1.943
284.29	0.743
284.66	1.978
285.03	3.387
285.40	2.399
285.77	3.509
286.14	2.527
286.51	1.599
286.87	1.996
287.24	2.730
287.61	1.653
287.98	1.733
288.35	1.322
288.72	3.056
289.08	-0.339
289.45	2.189
289.82	0.000
290.19	4.105
290.56	1.818
290.93	0.795
291.29	0.324
291.66	1.449
292.03	2.669
292.40	1.054
292.77	2.795
293.13	2.764
293.50	2.080
293.87	1.534
294.24	0.603
294.60	0.606
294.97	1.062
295.34	-0.296
295.71	2.381
296.08	1.536
296.44	0.143
296.81	0.997
297.18	0.986
297.55	1.977
297.91	2.929
298.28	2.740
298.65	3.208
299.02	4.278
299.38	3.209
299.75	2.038
300.12	3.333
300.48	3.836
300.85	1.835
301.22	3.234
301.59	3.121
301.95	3.401
302.32	0.652
302.69	2.815
303.05	1.587
303.42	1.125
303.79	2.033
304.15	3.555
304.52	0.817
304.89	2.952
305.25	3.053
305.62	3.055
305.99	3.416
306.35	3.108
306.72	2.620
307.09	3.519
307.45	3.065
307.82	3.352
308.19	2.461
308.55	3.159
308.92	1.933
309.29	1.405
309.65	2.969
310.02	2.484
310.38	3.135
310.75	2.561
311.12	4.545
311.48	3.967
311.85	3.296
312.22	3.090
312.58	4.680
312.95	3.670
313.31	4.296
313.68	4.824
314.05	4.451
314.41	2.918
314.78	2.897
315.14	4.442
315.51	3.546
315.87	5.034
316.24	4.179
316.61	4.990
316.97	5.373
317.34	3.854
317.70	5.380
318.07	5.037
318.43	3.464
318.80	6.948
319.16	3.659
319.53	4.699
319.89	4.327
320.26	4.608
320.62	5.000
320.99	5.373
321.35	5.320
321.72	4.197
322.08	5.539
322.45	4.356
322.81	6.052
323.18	6.052
323.54	6.654
323.91	6.024
324.27	5.894
324.64	5.484
325.00	6.719
325.37	6.244
325.73	8.574
326.10	5.049
326.46	7.531
326.83	5.787
327.19	7.840
327.56	8.518
327.92	7.052
328.29	8.052
328.65	6.727
329.01	7.244
329.38	8.118
329.74	8.700
330.11	7.616
330.47	6.994
330.84	8.341
331.20	7.942
331.56	7.657
331.93	7.993
332.29	8.037
332.66	8.692
333.02	7.964
333.38	8.692
333.75	8.192
334.11	7.911
334.48	7.855
334.84	8.399
335.20	7.801
335.57	8.484
335.93	9.311
336.29	7.883
336.66	7.665
337.02	8.198
337.38	8.289
337.75	8.428
338.11	8.497
338.47	7.384
338.84	8.167
339.20	8.172
339.56	8.824
339.93	7.672
340.29	8.149
340.65	7.955
341.02	9.191
341.38	9.014
341.74	8.721
342.11	7.338
342.47	7.382
342.83	8.480
343.20	8.369
343.56	7.429
343.92	8.598
344.28	8.579
344.65	7.013
345.01	7.815
345.37	8.721
345.73	8.020
346.10	7.277
346.46	7.392
346.82	8.099
347.19	7.888
347.55	7.865
347.91	7.717
348.27	7.637
348.63	9.370
349.00	8.433
349.36	6.870
349.72	7.962
350.08	8.019
350.45	7.565
350.81	8.121
351.17	7.556
351.53	7.558
351.89	8.327
352.26	7.984
352.62	9.140
352.98	7.753
353.34	7.914
353.70	7.954
354.07	7.396
354.43	7.352
354.79	7.211
355.15	7.109
355.51	7.891
355.87	6.957
356.24	7.307
356.60	8.139
356.96	8.006
357.32	7.047
357.68	7.586
358.04	7.390
358.40	8.121
358.77	7.651
359.13	7.498
359.49	7.937
359.85	7.317
360.21	7.610
360.57	9.262
360.93	7.556
361.29	8.146
361.66	6.555
362.02	7.692
362.38	7.850
362.74	8.059
363.10	7.174
363.46	9.188
363.82	7.580
364.18	7.598
364.54	8.792
364.90	7.966
365.26	7.418
365.62	9.195
365.98	8.108
366.35	7.042
366.71	7.822
367.07	7.339
367.43	8.511
367.79	7.079
368.15	5.974
368.51	7.902
368.87	8.791
369.23	8.140
369.59	8.403
369.95	8.245
370.31	9.212
370.67	7.809
371.03	7.799
371.39	7.779
371.75	8.226
372.11	8.106
372.47	8.388
372.83	7.580
373.19	7.643
373.55	8.726
373.91	7.824
374.27	7.598
374.63	7.937
374.99	8.901
375.35	7.873
375.71	9.115
376.07	8.350
376.42	7.748
376.78	8.366
377.14	8.339
377.50	8.833
377.86	8.973
378.22	7.977
378.58	7.350
378.94	7.583
379.30	8.470
379.66	8.865
380.02	8.259
380.38	7.976
380.74	8.617
381.09	9.315
381.45	8.532
381.81	8.167
382.17	8.521
382.53	8.389
382.89	8.911
383.25	9.813
383.61	9.729
383.97	8.634
384.32	8.761
384.68	9.915
385.04	8.696
385.40	7.912
385.76	8.659
386.12	9.182
386.48	8.973
386.83	9.018
387.19	9.384
387.55	9.328
387.91	8.239
388.27	8.685
388.62	8.173
388.98	8.843
389.34	9.302
389.70	8.404
390.06	8.701
390.42	8.654
390.77	8.644
391.13	9.938
391.49	9.482
391.85	8.915
392.20	8.617
392.56	9.896
392.92	9.355
393.28	8.955
393.64	8.599
393.99	9.908
394.35	9.185
394.71	9.512
395.07	9.353
395.42	8.641
395.78	8.485
396.14	9.657
396.50	8.930
396.85	9.130
397.21	9.113
397.57	9.179
397.92	9.602
398.28	9.500
398.64	8.685
399.00	10.225
399.35	9.414
399.71	9.814
400.07	9.791
400.42	10.158
400.78	9.183
401.14	9.521
401.49	10.200
401.85	8.664
402.21	9.178
402.57	10.012
402.92	10.132
403.28	9.681
403.63	9.287
403.99	9.820
404.35	9.722
404.70	9.538
405.06	10.438
405.42	9.348
405.77	9.559
406.13	9.426
406.49	9.467
406.84	8.998
407.20	10.483
407.55	9.943
407.91	9.197
408.27	10.478
408.62	9.741
408.98	9.521
409.34	9.445
409.69	8.885
410.05	9.885
410.40	9.749
410.76	10.018
411.11	8.915
411.47	10.742
411.83	9.902
412.18	9.592
412.54	9.091
412.89	10.936
413.25	9.445
413.60	9.052
413.96	9.673
414.31	9.725
414.67	10.222
415.03	9.897
415.38	10.020
415.74	10.052
416.09	9.719
416.45	10.119
416.80	9.623
417.16	9.568
417.51	10.506
417.87	9.838
418.22	10.051
418.58	10.141
418.93	10.055
419.29	10.038
419.64	9.611
420.00	10.875
420.35	10.112
420.71	10.024
421.06	10.533
421.42	10.831
421.77	10.441
422.12	9.905
422.48	10.529
422.83	10.706
423.19	9.633
423.54	10.663
423.90	9.659
424.25	10.407
424.61	10.555
424.96	11.059
425.31	10.900
425.67	10.544
426.02	9.868
426.38	11.434
426.73	10.988
427.09	10.110
427.44	9.773
427.79	10.116
428.15	11.011
428.50	10.850
428.85	11.211
429.21	10.515
429.56	10.885
429.92	11.072
430.27	10.169
430.62	10.449
430.98	10.612
431.33	10.352
431.68	11.367
432.04	11.136
432.39	10.826
432.74	10.671
433.10	10.467
433.45	10.190
433.80	10.806
434.16	9.995
434.51	10.795
434.86	11.599
435.22	10.690
435.57	11.322
435.92	11.137
436.28	10.742
436.63	10.288
436.98	11.397
437.34	10.573
437.69	10.502
438.04	11.004
438.39	11.432
438.75	10.070
439.10	10.994
439.45	10.078
439.81	11.747
440.16	11.187
440.51	11.235
440.86	9.659
441.22	10.614
441.57	11.368
441.92	11.714
442.27	11.255
442.63	10.730
442.98	10.271
443.33	11.038
443.68	11.569
444.03	10.314
444.39	11.209
444.74	11.233
445.09	10.965
445.44	10.805
445.79	11.219
446.15	11.172
446.50	10.016
446.85	11.134
447.20	10.623
447.55	10.994
447.91	11.005
448.26	10.670
448.61	11.092
448.96	11.877
449.31	10.485
449.66	11.505
450.02	10.360
450.37	10.435
450.72	11.073
451.07	11.565
451.42	10.223
451.77	10.772
452.12	11.085
452.47	11.398
452.83	10.425
453.18	11.575
453.53	11.692
453.88	11.543
454.23	10.822
454.58	11.871
454.93	11.335
455.28	10.771
455.63	11.241
455.98	11.084
456.34	10.546
456.69	12.008
457.04	11.125
457.39	11.423
457.74	11.400
458.09	11.369
458.44	11.316
458.79	10.650
459.14	12.094
459.49	12.137
459.84	11.298
460.19	11.993
460.54	11.010
460.89	11.379
461.24	11.354
461.59	12.544
461.94	11.203
462.29	12.329
462.64	11.989
462.99	11.981
463.34	11.344
463.69	10.242
464.04	11.424
464.39	11.350
464.74	10.875
465.09	10.944
465.44	11.168
465.79	11.732
466.14	11.162
466.49	11.744
466.84	11.345
467.19	12.282
467.54	10.633
467.89	11.221
468.24	11.461
468.59	10.868
468.94	11.061
469.29	11.436
469.64	11.927
469.99	11.951
470.34	11.757
470.68	11.555
471.03	11.562
471.38	10.417
471.73	11.119
472.08	10.710
472.43	11.068
472.78	12.200
473.13	10.802
473.48	10.976
473.83	10.856
474.17	11.146
474.52	11.509
474.87	11.830
475.22	11.032
475.57	11.556
475.92	11.393
476.27	12.000
476.61	11.155
476.96	11.683
477.31	11.087
477.66	11.123
478.01	11.183
478.36	11.577
478.70	11.319
479.05	11.790
479.40	11.295
479.75	12.181
480.10	11.012
480.45	10.348
480.79	11.550
481.14	10.888
481.49	11.520
481.84	11.928
482.19	11.695
482.53	11.316
482.88	11.106
483.23	11.268
483.58	11.471
483.92	11.085
484.27	11.431
484.62	10.886
484.97	10.951
485.31	10.784
485.66	10.821
486.01	10.882
486.36	11.179
486.70	11.545
487.05	11.335
487.40	11.218
487.75	11.005
488.09	10.562
488.44	11.333
488.79	11.532
489.13	11.639
489.48	11.501
489.83	11.441
490.17	11.754
490.52	11.368
490.87	9.792
491.22	10.929
491.56	11.204
491.91	11.880
492.26	11.179
492.60	10.704
492.95	11.614
493.30	10.767
493.64	11.236
493.99	10.660
494.34	11.238
494.68	11.704
495.03	10.994
495.37	11.209
495.72	11.690
496.07	12.013
496.41	12.043
496.76	11.096
497.11	11.634
497.45	11.686
497.80	11.656
498.14	11.542
498.49	11.100
498.84	11.456
499.18	12.865
499.53	11.398
499.87	10.618
500.22	11.373
500.56	10.855
500.91	11.182
501.26	12.130
501.60	11.363
501.95	11.836
502.29	11.101
502.64	11.551
502.98	10.541
503.33	11.842
503.67	10.249
504.02	10.864
504.36	11.912
504.71	10.588
505.06	11.083
505.40	11.477
505.75	11.026
506.09	12.184
506.44	10.576
506.78	11.942
507.13	11.689
507.47	11.685
507.82	11.306
508.16	11.192
508.51	11.077
508.85	11.025
509.19	10.204
509.54	10.835
509.88	11.064
510.23	11.111
510.57	11.323
510.92	11.010
511.26	10.845
511.61	10.313
511.95	11.422
512.30	11.160
512.64	10.518
512.98	10.836
513.33	11.532
513.67	11.558
514.02	10.962
514.36	11.080
514.70	11.205
515.05	11.321
515.39	10.842
515.74	11.518
516.08	11.470
516.42	11.388
516.77	11.670
517.11	11.442
517.46	11.124
517.80	10.890
518.14	10.205
518.49	10.819
518.83	10.682
519.17	11.072
519.52	11.394
519.86	11.410
520.20	11.614
520.55	11.200
520.89	10.207
521.23	11.538
521.58	11.223
521.92	11.906
522.26	11.746
522.61	10.710
522.95	9.572
523.29	11.348
523.64	10.618
523.98	10.376
524.32	11.125
524.66	10.621
525.01	10.019
525.35	10.696
525.69	10.540
526.04	11.162
526.38	10.821
526.72	10.600
527.06	10.807
527.41	10.495
527.75	9.901
528.09	10.920
528.43	10.557
528.78	10.553
529.12	11.780
529.46	11.018
529.80	10.910
530.15	10.560
530.49	10.543
530.83	12.246
531.17	10.505
531.51	10.114
531.86	10.994
532.20	10.594
532.54	10.963
532.88	11.397
533.22	11.297
533.57	11.162
533.91	10.424
534.25	10.622
534.59	10.618
534.93	10.081
535.27	10.699
535.62	11.189
535.96	11.248
536.30	9.817
536.64	11.222
536.98	10.805
537.32	10.850
537.66	10.862
538.01	10.103
538.35	11.892
538.69	10.294
539.03	11.442
539.37	10.313
539.71	11.007
540.05	10.555
540.39	10.042
540.73	10.712
541.07	11.544
541.42	9.858
541.76	10.631
542.10	11.816
542.44	11.259
542.78	10.651
543.12	10.998
543.46	10.753
543.80	10.033
544.14	9.872
544.48	11.877
544.82	10.690
545.16	10.597
545.50	10.162
545.84	11.335
546.18	11.165
546.52	10.882
546.86	10.399
547.20	10.900
547.54	9.780
547.88	10.418
548.22	10.223
548.56	10.087
548.90	11.186
549.24	9.951
549.58	10.797
549.92	10.601
550.26	10.621
550.60	10.669
550.94	10.949
551.28	10.760
551.62	10.266
551.96	10.564
552.30	10.383
552.64	11.330
552.98	10.862
553.32	10.678
553.66	10.598
554.00	11.443
554.34	10.830
554.68	10.161
555.02	10.999
555.36	10.424
555.69	9.599
556.03	10.596
556.37	11.024
556.71	10.379
557.05	10.052
557.39	10.542
557.73	9.993
558.07	10.399
558.41	10.396
558.75	9.886
559.08	9.105
559.42	11.026
559.76	9.893
560.10	10.515
560.44	10.838
560.78	10.230
561.12	10.490
561.45	10.959
561.79	10.523
562.13	11.010
562.47	10.644
562.81	9.760
563.15	10.707
563.48	10.574
563.82	10.074
564.16	10.074
564.50	10.282
564.84	10.450
565.17	11.008
565.51	10.300
565.85	10.751
566.19	10.935
566.52	10.307
566.86	9.671
567.20	11.138
567.54	10.927
567.88	10.385
568.21	9.955
568.55	10.180
568.89	10.189
569.23	9.949
569.56	9.668
569.90	9.913
570.24	10.560
570.57	9.982
570.91	10.269
571.25	10.279
571.59	10.272
571.92	10.000
572.26	10.216
572.60	9.836
572.93	9.631
573.27	10.274
573.61	10.037
573.95	10.484
574.28	9.788
574.62	10.219
574.96	9.870
575.29	10.010
575.63	10.353
575.97	10.140
576.30	10.167
576.64	9.817
576.98	10.301
577.31	9.750
577.65	10.333
577.98	9.985
578.32	9.766
578.66	10.038
578.99	10.079
579.33	10.249
579.67	9.637
580.00	10.069
580.34	10.176
580.67	9.831
581.01	9.849
581.35	10.036
581.68	9.828
582.02	10.244
582.35	9.934
582.69	10.384
583.02	10.256
583.36	10.224
583.70	10.138
584.03	10.048
584.37	10.149
584.70	9.833
585.04	9.671
585.37	9.594
585.71	10.063
586.04	9.878
586.38	10.265
586.72	9.921
587.05	9.969
587.39	10.216
587.72	9.743
588.06	9.821
588.39	9.855
588.73	10.169
589.06	10.550
589.40	10.271
589.73	10.198
590.07	9.869
590.40	10.369
590.73	9.356
591.07	9.262
591.40	10.529
591.74	10.078
592.07	10.000
592.41	10.106
592.74	10.300
593.08	9.990
593.41	9.803
593.75	9.496
594.08	10.496
594.41	10.499
594.75	10.532
595.08	10.226
595.42	10.007
595.75	10.217
596.09	9.856
596.42	10.065
596.75	10.263
597.09	10.597
597.42	10.476
597.75	10.585
598.09	9.896
598.42	10.075
598.76	10.091
599.09	9.747
599.42	9.612
599.76	9.777
600.09	10.305
600.42	10.596
600.76	10.546
601.09	10.103
601.42	9.814
601.76	10.280
602.09	10.061
602.42	10.412
602.76	10.096
603.09	10.242
603.42	10.032
603.76	9.972
604.09	10.252
604.42	9.867
604.76	9.943
605.09	9.901
605.42	10.372
605.75	9.832
606.09	10.378
606.42	10.096
606.75	10.520
607.09	9.925
607.42	10.167
607.75	10.155
608.08	10.664
608.42	9.650
608.75	10.280
609.08	10.083
609.41	10.214
609.75	10.093
610.08	10.784
610.41	10.313
610.74	10.542
611.07	10.446
611.41	9.884
611.74	10.746
612.07	10.795
612.40	10.235
612.73	10.070
613.07	10.402
613.40	10.619
613.73	9.537
614.06	10.379
614.39	10.992
614.72	9.944
615.06	10.761
615.39	9.550
615.72	10.538
616.05	10.160
616.38	10.505
616.71	10.330
617.05	10.977
617.38	11.146
617.71	9.705
618.04	9.876
618.37	10.314
618.70	11.473
619.03	10.291
619.36	10.994
619.69	10.625
620.03	10.193
620.36	11.111
620.69	10.696
621.02	10.578
621.35	10.403
621.68	10.984
622.01	10.761
622.34	11.491
622.67	9.375
623.00	10.406
623.33	10.896
623.66	9.897
623.99	9.925
624.32	10.938
624.65	10.302
624.99	9.634
625.32	10.479
625.65	10.800
625.98	9.937
626.31	11.256
626.64	10.209
626.97	10.274
627.30	10.979
627.63	9.931
627.96	10.792
628.29	9.835
628.62	9.838
628.95	10.630
629.28	10.338
629.61	9.814
629.94	10.775
630.26	10.537
630.59	11.960
630.92	10.210
631.25	11.694
631.58	10.794
631.91	8.511
632.24	10.778
632.57	11.667
632.90	10.805
633.23	9.813
633.56	10.058
633.89	10.613
634.22	9.563
634.55	11.899
634.88	10.399
635.20	8.864
635.53	11.450
635.86	9.698
636.19	10.745
636.52	9.677
636.85	9.868
637.18	9.875
637.51	11.648
637.83	9.987
638.16	10.658
638.49	11.034
638.82	10.811
639.15	12.451
639.48	10.895
639.81	11.342
640.13	12.027
640.46	9.829
640.79	10.784
641.12	12.130
641.45	11.765
641.77	9.431
642.10	9.970
642.43	10.926
642.76	10.394
643.09	10.635
643.41	11.111
643.74	10.175
644.07	11.076
644.40	10.697
644.73	10.561
