SpectraSuite Data File
++++++++++++++++++++++++++++++++++++
Date: Sat May 16 11:07:22 PDT 2015
User: schluterlab
Dark Spectrum Present: Yes
Reference Spectrum Present: Yes
Number of Sampled Component Spectra: 1
Spectrometers: USB2E3373
Integration Time (usec): 3000 (USB2E3373)
Spectra Averaged: 3 (USB2E3373)
Boxcar Smoothing: 0 (USB2E3373)
Correct for Electrical Dark: No (USB2E3373)
Strobe/Lamp Enabled: No (USB2E3373)
Correct for Detector Non-linearity: No (USB2E3373)
Correct for Stray Light: No (USB2E3373)
Number of Pixels in Processed Spectrum: 2048
>>>>>Begin Processed Spectral Data<<<<<
178.53	0.000
178.91	20.000
179.29	-266.667
179.67	500.000
180.04	-61.538
180.42	-800.000
180.80	-25.000
181.18	175.000
181.56	-37.500
181.94	-100.000
182.31	75.000
182.69	130.769
183.07	0.000
183.45	650.000
183.83	200.000
184.20	-14.286
184.58	-12.500
184.96	125.000
185.34	68.750
185.72	-175.000
186.09	-33.333
186.47	-87.500
186.85	25.000
187.23	137.500
187.61	-125.000
187.98	-112.500
188.36	112.500
188.74	-37.500
189.12	2000.000
189.49	42.857
189.87	41.667
190.25	-75.000
190.63	14.286
191.00	44.444
191.38	60.000
191.76	66.667
192.14	280.000
192.51	60.000
192.89	66.667
193.27	0.000
193.65	-55.556
194.02	-71.429
194.40	200.000
194.78	50.000
195.15	400.000
195.53	-27.273
195.91	-283.333
196.29	80.000
196.66	-366.667
197.04	400.000
197.42	225.000
197.79	166.667
198.17	400.000
198.55	0.000
198.92	-400.000
199.30	187.500
199.68	-50.000
200.05	-44.444
200.43	11.111
200.81	200.000
201.18	16.667
201.56	28.571
201.94	6.667
202.31	59.091
202.69	180.000
203.07	40.000
203.44	100.000
203.82	-66.667
204.19	100.000
204.57	75.000
204.95	300.000
205.32	-12.500
205.70	-300.000
206.08	-800.000
206.45	33.333
206.83	-650.000
207.20	750.000
207.58	-166.667
207.96	133.333
208.33	25.000
208.71	-22.222
209.08	20.000
209.46	-71.429
209.84	400.000
210.21	0.000
210.59	90.000
210.96	700.000
211.34	-83.333
211.71	166.667
212.09	-75.000
212.46	-0.000
212.84	-400.000
213.22	400.000
213.59	16.667
213.97	177.778
214.34	20.000
214.72	-50.000
215.09	-133.333
215.47	-83.333
215.84	-10.000
216.22	0.000
216.59	60.000
216.97	-350.000
217.34	100.000
217.72	0.000
218.09	16.667
218.47	71.429
218.84	57.143
219.22	57.143
219.59	0.000
219.97	85.714
220.34	350.000
220.72	-50.000
221.09	7.692
221.47	0.000
221.84	-233.333
222.22	600.000
222.59	-0.000
222.97	12.500
223.34	50.000
223.72	33.333
224.09	50.000
224.46	150.000
224.84	-14.286
225.21	-85.714
225.59	18.182
225.96	75.000
226.34	14.286
226.71	66.667
227.08	30.000
227.46	100.000
227.83	85.714
228.21	-87.500
228.58	-200.000
228.95	-6.250
229.33	-800.000
229.70	-80.000
230.08	-250.000
230.45	100.000
230.82	66.667
231.20	300.000
231.57	150.000
231.95	800.000
232.32	33.333
232.69	33.333
233.07	-42.857
233.44	-150.000
233.81	-13.333
234.19	11.111
234.56	12.500
234.93	34.375
235.31	-14.286
235.68	7.143
236.05	-41.176
236.43	-77.273
236.80	41.935
237.17	25.000
237.55	9.524
237.92	-22.727
238.29	2.857
238.67	5.882
239.04	5.556
239.41	6.452
239.79	-35.897
240.16	-26.190
240.53	-14.545
240.91	5.128
241.28	7.273
241.65	26.154
242.02	22.951
242.40	-18.033
242.77	0.000
243.14	-8.475
243.51	-4.286
243.89	-8.861
244.26	-6.742
244.63	4.211
245.00	6.316
245.38	-6.780
245.75	-0.885
246.12	1.600
246.49	3.150
246.87	-1.626
247.24	-5.932
247.61	-16.102
247.98	5.634
248.36	-4.196
248.73	0.633
249.10	3.185
249.47	1.754
249.84	7.386
250.22	-2.976
250.59	-2.260
250.96	0.000
251.33	6.161
251.70	-0.962
252.08	1.422
252.45	-0.948
252.82	-1.429
253.19	0.851
253.56	-1.210
253.94	-1.266
254.31	-0.858
254.68	5.691
255.05	-4.032
255.42	0.000
255.79	-1.792
256.16	1.569
256.54	1.103
256.91	-1.894
257.28	-4.029
257.65	0.709
258.02	1.258
258.39	-1.003
258.76	0.676
259.14	0.926
259.51	1.967
259.88	2.439
260.25	0.621
260.62	-0.643
260.99	0.000
261.36	-0.915
261.73	-1.734
262.10	2.778
262.47	-0.570
262.85	3.143
263.22	-2.579
263.59	-4.000
263.96	-0.870
264.33	-0.813
264.70	1.105
265.07	-3.846
265.44	-0.517
265.81	-0.775
266.18	-1.013
266.55	2.206
266.92	1.763
267.29	-0.726
267.66	0.247
268.03	1.208
268.40	0.469
268.77	1.687
269.14	-1.160
269.51	1.149
269.88	-3.440
270.25	-1.865
270.62	-2.288
270.99	-0.225
271.36	0.699
271.73	-1.345
272.10	-2.059
272.47	-3.111
272.84	3.111
273.21	-1.147
273.58	1.099
273.95	-1.096
274.32	-0.679
274.69	0.000
275.06	2.045
275.43	-3.348
275.80	2.037
276.17	1.674
276.54	2.037
276.91	0.000
277.28	-1.217
277.65	-0.620
278.02	-0.835
278.39	1.375
278.76	-1.594
279.13	1.383
279.50	1.392
279.87	0.423
280.23	0.202
280.60	-0.994
280.97	0.583
281.34	-1.741
281.71	1.731
282.08	1.411
282.45	-4.684
282.82	-0.194
283.19	0.909
283.56	2.747
283.92	0.883
284.29	0.372
284.66	1.439
285.03	1.248
285.40	-1.107
285.77	1.228
286.14	-1.083
286.51	-0.178
286.87	0.726
287.24	0.853
287.61	2.149
287.98	-2.773
288.35	-0.331
288.72	-0.849
289.08	-1.525
289.45	0.337
289.82	-1.211
290.19	1.314
290.56	-2.975
290.93	0.000
291.29	-2.431
291.66	-0.161
292.03	1.413
292.40	0.000
292.77	0.000
293.13	1.138
293.50	0.892
293.87	0.460
294.24	-0.452
294.60	-1.212
294.97	1.062
295.34	-1.185
295.71	-0.595
296.08	-2.611
296.44	-2.146
296.81	-1.282
297.18	-0.986
297.55	-0.565
297.91	1.674
298.28	-0.959
298.65	0.558
299.02	2.406
299.38	1.337
299.75	0.408
300.12	0.513
300.48	0.895
300.85	-0.393
301.22	0.259
301.59	0.130
301.95	1.889
302.32	-1.434
302.69	0.490
303.05	-0.122
303.42	-0.375
303.79	-1.435
304.15	0.118
304.52	0.700
304.89	-0.590
305.25	-0.488
305.62	-0.353
305.99	0.471
306.35	1.332
306.72	0.228
307.09	1.362
307.45	0.341
307.82	0.223
308.19	-0.224
308.55	-0.327
308.92	-0.859
309.29	0.000
309.65	0.106
310.02	-0.648
310.38	-0.108
310.75	0.410
311.12	0.517
311.48	0.209
311.85	0.515
312.22	0.412
312.58	1.322
312.95	0.306
313.31	0.899
313.68	0.804
314.05	1.187
314.41	-0.805
314.78	-1.199
315.14	0.395
315.51	-0.304
315.87	1.742
316.24	0.875
316.61	1.344
316.97	0.100
317.34	-0.385
317.70	0.278
318.07	1.586
318.43	0.936
318.80	1.502
319.16	0.281
319.53	-0.470
319.89	-0.941
320.26	0.196
320.62	-0.673
320.99	0.597
321.35	-0.887
321.72	-0.102
322.08	-0.198
322.45	-0.990
322.81	0.672
323.18	0.480
323.54	0.462
323.91	0.556
324.27	-0.285
324.64	-0.548
325.00	1.832
325.37	0.633
325.73	2.275
326.10	-0.797
326.46	0.263
326.83	0.426
327.19	0.334
327.56	1.704
327.92	0.340
328.29	1.558
328.65	-1.364
329.01	1.148
329.38	1.249
329.74	1.282
330.11	1.179
330.47	-0.091
330.84	2.383
331.20	0.632
331.56	0.091
331.93	0.444
332.29	0.457
332.66	-0.615
333.02	0.814
333.38	1.254
333.75	1.781
334.11	0.711
334.48	-0.441
334.84	1.662
335.20	0.975
335.57	-0.090
335.93	2.417
336.29	0.177
336.66	0.088
337.02	1.532
337.38	1.337
337.75	0.878
338.11	0.626
338.47	0.356
338.84	-0.091
339.20	1.142
339.56	1.515
339.93	1.852
340.29	-0.089
340.65	1.311
341.02	1.602
341.38	1.432
341.74	1.524
342.11	1.365
342.47	0.773
342.83	0.756
343.20	0.171
343.56	0.327
343.92	2.337
344.28	1.346
344.65	1.650
345.01	0.336
345.37	2.658
345.73	0.245
346.10	0.000
346.46	0.812
346.82	1.844
347.19	-0.164
347.55	1.284
347.91	1.732
348.27	0.080
348.63	2.666
349.00	1.591
349.36	-0.234
349.72	1.274
350.08	1.363
350.45	0.315
350.81	0.637
351.17	0.080
351.53	-0.159
351.89	1.374
352.26	1.008
352.62	2.765
352.98	1.028
353.34	1.599
353.70	1.236
354.07	1.338
354.43	1.581
354.79	0.951
355.15	1.038
355.51	1.250
355.87	0.000
356.24	1.191
356.60	1.612
356.96	2.002
357.32	0.554
357.68	1.379
358.04	1.386
358.40	1.237
358.77	1.082
359.13	0.842
359.49	1.965
359.85	0.610
360.21	1.142
360.57	1.054
360.93	1.333
361.29	1.794
361.66	0.152
362.02	0.296
362.38	1.174
362.74	0.952
363.10	0.502
363.46	1.781
363.82	1.239
364.18	1.809
364.54	2.430
364.90	1.398
365.26	0.927
365.62	1.853
365.98	1.280
366.35	0.704
366.71	0.705
367.07	1.482
367.43	1.647
367.79	1.512
368.15	0.711
368.51	1.329
368.87	2.473
369.23	1.263
369.59	1.389
369.95	2.678
370.31	1.688
370.67	0.506
371.03	0.802
371.39	1.556
371.75	2.003
372.11	1.220
372.47	1.157
372.83	0.417
373.19	1.929
373.55	1.759
373.91	0.640
374.27	1.095
374.63	1.173
374.99	1.599
375.35	0.942
375.71	1.621
376.07	0.616
376.42	0.331
376.78	1.895
377.14	1.559
377.50	1.870
377.86	1.821
378.22	1.005
378.58	0.741
378.94	1.418
379.30	1.584
379.66	1.639
380.02	0.357
380.38	0.785
380.74	0.996
381.09	2.109
381.45	1.850
381.81	1.149
382.17	1.441
382.53	0.790
382.89	1.675
383.25	1.866
383.61	1.297
383.97	1.592
384.32	1.126
384.68	1.814
385.04	1.268
385.40	1.096
385.76	1.341
386.12	1.249
386.48	1.609
386.83	1.840
387.19	1.375
387.55	1.333
387.91	1.245
388.27	0.543
388.62	1.562
388.98	0.909
389.34	1.469
389.70	1.827
390.06	1.057
390.42	1.026
390.77	1.136
391.13	1.553
391.49	1.871
391.85	1.870
392.20	1.396
392.56	0.794
392.92	1.141
393.28	1.493
393.64	1.203
393.99	1.538
394.35	1.277
394.71	1.050
395.07	1.758
395.42	0.477
395.78	0.440
396.14	1.994
396.50	1.407
396.85	1.604
397.21	2.126
397.57	2.006
397.92	1.698
398.28	1.167
398.64	1.428
399.00	1.742
399.35	1.297
399.71	2.381
400.07	1.791
400.42	2.007
400.78	1.252
401.14	1.018
401.49	1.474
401.85	1.037
402.21	1.907
402.57	1.517
402.92	1.385
403.28	1.409
403.63	1.678
403.99	2.051
404.35	1.268
404.70	1.580
405.06	1.615
405.42	0.677
405.77	0.566
406.13	1.817
406.49	1.138
406.84	1.260
407.20	1.178
407.55	1.077
407.91	1.425
408.27	2.022
408.62	1.143
408.98	2.244
409.34	0.792
409.69	2.079
410.05	1.698
410.40	1.165
410.76	1.897
411.11	1.309
411.47	1.407
411.83	1.528
412.18	1.361
412.54	0.854
412.89	1.701
413.25	0.708
413.60	1.276
413.96	0.739
414.31	1.590
414.67	1.016
415.03	1.811
415.38	1.106
415.74	1.546
416.09	1.151
416.45	0.661
416.80	1.365
417.16	1.462
417.51	2.626
417.87	0.906
418.22	1.454
418.58	1.861
418.93	1.901
419.29	1.757
419.64	1.005
420.00	2.005
420.35	0.355
420.71	1.261
421.06	2.189
421.42	0.937
421.77	1.898
422.12	1.343
422.48	1.497
422.83	1.822
423.19	1.114
423.54	1.326
423.90	1.446
424.25	1.188
424.61	1.689
424.96	1.112
425.31	1.733
425.67	0.917
426.02	1.033
426.38	1.633
426.73	1.520
427.09	1.532
427.44	1.761
427.79	1.337
428.15	1.616
428.50	2.229
428.85	2.338
429.21	1.494
429.56	1.406
429.92	1.703
430.27	1.097
430.62	1.463
430.98	2.091
431.33	1.654
431.68	1.340
432.04	1.511
432.39	1.766
432.74	1.799
433.10	1.688
433.45	1.439
433.80	1.568
434.16	1.827
434.51	1.753
434.86	2.109
435.22	1.893
435.57	2.509
435.92	2.345
436.28	2.433
436.63	1.979
436.98	1.947
437.34	2.776
437.69	1.459
438.04	2.326
438.39	2.046
438.75	1.746
439.10	1.999
439.45	1.811
439.81	2.108
440.16	1.817
440.51	2.059
440.86	1.966
441.22	0.995
441.57	1.789
441.92	1.995
442.27	1.840
442.63	2.253
442.98	0.677
443.33	1.647
443.68	1.668
444.03	1.768
444.39	1.517
444.74	1.652
445.09	1.700
445.44	1.688
445.79	1.530
446.15	2.136
446.50	1.143
446.85	1.950
447.20	2.196
447.55	2.155
447.91	1.516
448.26	1.732
448.61	1.585
448.96	1.401
449.31	2.086
449.66	2.061
450.02	1.440
450.37	1.391
450.72	1.243
451.07	2.074
451.42	1.301
451.77	2.214
452.12	1.788
452.47	2.267
452.83	1.864
453.18	2.467
453.53	2.239
453.88	2.153
454.23	1.088
454.58	1.802
454.93	2.456
455.28	1.721
455.63	2.211
455.98	1.928
456.34	0.508
456.69	2.126
457.04	2.704
457.39	1.974
457.74	1.477
458.09	2.494
458.44	1.963
458.79	1.570
459.14	2.054
459.49	1.954
459.84	1.686
460.19	1.492
460.54	1.815
460.89	1.233
461.24	2.793
461.59	1.817
461.94	1.973
462.29	2.918
462.64	2.767
462.99	2.410
463.34	2.093
463.69	1.527
464.04	1.992
464.39	2.151
464.74	2.187
465.09	2.105
465.44	1.241
465.79	2.256
466.14	2.071
466.49	1.900
466.84	2.881
467.19	2.244
467.54	1.013
467.89	1.850
468.24	2.257
468.59	2.249
468.94	1.543
469.29	1.235
469.64	2.358
469.99	1.958
470.34	1.603
470.68	2.035
471.03	3.235
471.38	2.014
471.73	2.448
472.08	1.673
472.43	1.609
472.78	2.533
473.13	0.663
473.48	1.978
473.83	2.233
474.17	1.592
474.52	2.685
474.87	1.981
475.22	2.242
475.57	1.611
475.92	2.214
476.27	2.000
476.61	2.535
476.96	2.292
477.31	1.722
477.66	1.771
478.01	2.323
478.36	1.886
478.70	2.136
479.05	1.839
479.40	1.917
479.75	1.988
480.10	2.431
480.45	1.112
480.79	1.629
481.14	2.057
481.49	2.227
481.84	1.618
482.19	2.101
482.53	1.799
482.88	1.804
483.23	2.113
483.58	3.006
483.92	1.959
484.27	1.595
484.62	2.073
484.97	2.416
485.31	1.856
485.66	2.017
486.01	1.985
486.36	2.187
486.70	1.931
487.05	2.092
487.40	2.270
487.75	2.190
488.09	1.791
488.44	2.436
488.79	2.618
489.13	2.130
489.48	2.732
489.83	2.795
490.17	2.743
490.52	2.582
490.87	2.402
491.22	2.382
491.56	2.685
491.91	2.672
492.26	2.642
492.60	2.141
492.95	2.761
493.30	2.811
493.64	2.445
493.99	2.151
494.34	2.333
494.68	3.418
495.03	2.103
495.37	1.426
495.72	2.063
496.07	2.487
496.41	2.918
496.76	2.374
497.11	2.308
497.45	2.538
497.80	2.351
498.14	2.308
498.49	1.758
498.84	1.845
499.18	2.290
499.53	2.094
499.87	1.786
500.22	2.059
500.56	1.901
500.91	2.512
501.26	2.717
501.60	1.444
501.95	2.271
502.29	2.126
502.64	2.216
502.98	1.677
503.33	2.538
503.67	1.341
504.02	1.883
504.36	2.647
504.71	1.418
505.06	1.448
505.40	1.896
505.75	1.524
506.09	1.972
506.44	2.256
506.78	2.107
507.13	1.339
507.47	2.139
507.82	2.220
508.16	2.280
508.51	1.546
508.85	1.915
509.19	1.675
509.54	2.008
509.88	2.021
510.23	1.887
510.57	2.381
510.92	2.309
511.26	1.861
511.61	1.674
511.95	1.886
512.30	1.539
512.64	1.447
512.98	2.255
513.33	1.922
513.67	1.675
514.02	0.951
514.36	2.881
514.70	1.698
515.05	1.715
515.39	2.134
515.74	3.083
516.08	1.960
516.42	2.380
516.77	2.022
517.11	2.059
517.46	2.273
517.80	1.625
518.14	1.630
518.49	1.255
518.83	1.958
519.17	2.013
519.52	1.909
519.86	2.031
520.20	1.467
520.55	1.662
520.89	1.315
521.23	2.686
521.58	1.755
521.92	1.837
522.26	1.841
522.61	1.901
522.95	1.468
523.29	2.006
523.64	1.811
523.98	1.273
524.32	1.823
524.66	1.304
525.01	1.349
525.35	1.804
525.69	1.757
526.04	2.089
526.38	2.355
526.72	1.341
527.06	1.367
527.41	1.650
527.75	1.056
528.09	1.324
528.43	2.426
528.78	1.947
529.12	1.472
529.46	0.838
529.80	1.549
530.15	1.996
530.49	2.135
530.83	2.947
531.17	1.481
531.51	1.273
531.86	1.580
532.20	2.159
532.54	2.072
532.88	2.108
533.22	0.936
533.57	2.611
533.91	2.060
534.25	2.451
534.59	1.749
534.93	1.493
535.27	2.643
535.62	2.174
535.96	2.262
536.30	1.767
536.64	2.457
536.98	1.836
537.32	1.728
537.66	1.426
538.01	1.856
538.35	2.500
538.69	0.869
539.03	3.047
539.37	2.595
539.71	2.402
540.05	1.988
540.39	2.978
540.73	2.764
541.07	2.732
541.42	2.971
541.76	3.522
542.10	5.874
542.44	6.063
542.78	5.767
543.12	6.178
543.46	6.370
543.80	5.953
544.14	6.380
544.48	7.087
544.82	6.225
545.16	6.573
545.50	6.191
545.84	7.232
546.18	7.143
546.52	6.188
546.86	5.556
547.20	5.415
547.54	3.857
547.88	4.180
548.22	3.014
548.56	3.206
548.90	4.245
549.24	2.663
549.58	3.670
549.92	3.604
550.26	3.613
550.60	2.703
550.94	3.066
551.28	3.311
551.62	2.806
551.96	2.533
552.30	2.997
552.64	2.463
552.98	2.943
553.32	2.309
553.66	2.596
554.00	2.914
554.34	1.661
554.68	2.778
555.02	2.460
555.36	1.797
555.69	1.862
556.03	2.386
556.37	1.565
556.71	2.362
557.05	1.404
557.39	1.856
557.73	1.896
558.07	1.206
558.41	1.870
558.75	1.521
559.08	0.311
559.42	1.302
559.76	2.147
560.10	1.939
560.44	2.168
560.78	1.809
561.12	1.449
561.45	1.849
561.79	0.836
562.13	2.244
562.47	2.101
562.81	1.485
563.15	2.169
563.48	2.073
563.82	1.893
564.16	1.961
564.50	2.285
564.84	1.587
565.17	2.122
565.51	2.151
565.85	1.623
566.19	1.120
566.52	2.022
566.86	1.201
567.20	2.966
567.54	1.949
567.88	1.619
568.21	1.846
568.55	1.803
568.89	0.795
569.23	0.925
569.56	1.639
569.90	1.967
570.24	1.841
570.57	1.441
570.91	2.074
571.25	1.978
571.59	1.998
571.92	1.875
572.26	1.558
572.60	1.800
572.93	1.610
573.27	1.524
573.61	1.577
573.95	2.155
574.28	1.683
574.62	1.983
574.96	1.645
575.29	1.423
575.63	1.726
575.97	1.564
576.30	1.699
576.64	1.906
576.98	1.791
577.31	1.669
577.65	2.214
577.98	2.076
578.32	1.515
578.66	1.924
578.99	1.672
579.33	2.085
579.67	2.080
580.00	1.835
580.34	1.859
580.67	1.839
581.01	1.897
581.35	1.683
581.68	1.851
582.02	1.983
582.35	1.851
582.69	1.952
583.02	1.901
583.36	2.169
583.70	1.997
584.03	1.994
584.37	2.246
584.70	1.824
585.04	1.975
585.37	1.909
585.71	2.032
586.04	2.102
586.38	1.844
586.72	2.255
587.05	2.209
587.39	1.830
587.72	2.442
588.06	2.201
588.39	2.108
588.73	2.052
589.06	2.462
589.40	2.164
589.73	2.514
590.07	1.602
590.40	2.657
590.73	1.799
591.07	2.090
591.40	2.166
591.74	2.693
592.07	1.847
592.41	2.420
592.74	2.229
593.08	2.472
593.41	1.513
593.75	1.583
594.08	2.049
594.41	2.366
594.75	2.190
595.08	1.617
595.42	1.951
595.75	1.874
596.09	1.940
596.42	1.923
596.75	1.768
597.09	1.915
597.42	1.921
597.75	2.170
598.09	2.124
598.42	2.121
598.76	2.035
599.09	1.855
599.42	1.769
599.76	1.586
600.09	2.176
600.42	2.203
600.76	2.072
601.09	2.013
601.42	1.345
601.76	2.804
602.09	1.554
602.42	1.728
602.76	1.828
603.09	1.895
603.42	1.813
603.76	1.516
604.09	2.123
604.42	2.082
604.76	1.352
605.09	1.673
605.42	2.261
605.75	1.380
606.09	1.993
606.42	1.047
606.75	2.147
607.09	1.676
607.42	2.113
607.75	1.854
608.08	2.531
608.42	1.845
608.75	1.355
609.08	2.143
609.41	1.644
609.75	1.950
610.08	2.696
610.41	2.506
610.74	3.433
611.07	4.057
611.41	4.539
611.74	6.015
612.07	5.371
612.40	4.264
612.73	4.362
613.07	3.742
613.40	3.886
613.73	3.651
614.06	3.295
614.39	3.608
614.72	3.184
615.06	3.804
615.39	2.876
615.72	3.150
616.05	2.871
616.38	2.902
616.71	2.342
617.05	2.593
617.38	3.344
617.71	1.597
618.04	1.304
618.37	1.761
618.70	2.934
619.03	2.437
619.36	3.312
619.69	3.015
620.03	1.653
620.36	2.180
620.69	2.441
621.02	2.664
621.35	2.419
621.68	1.803
622.01	1.861
622.34	2.562
622.67	1.328
623.00	3.366
623.33	3.060
623.66	0.739
623.99	2.406
624.32	2.381
624.65	1.987
624.99	2.315
625.32	1.871
625.65	1.865
625.98	1.643
626.31	2.610
626.64	3.347
626.97	1.969
627.30	2.468
627.63	1.382
627.96	2.437
628.29	1.838
628.62	1.815
628.95	2.657
629.28	2.350
629.61	1.570
629.94	1.418
630.26	1.889
630.59	3.015
630.92	2.703
631.25	4.335
631.58	2.857
631.91	0.638
632.24	1.000
632.57	2.222
632.90	1.839
633.23	2.336
633.56	1.520
633.89	2.358
634.22	1.653
634.55	2.644
634.88	2.418
635.20	0.125
635.53	1.527
635.86	0.252
636.19	2.564
636.52	2.270
636.85	0.842
637.18	0.250
637.51	2.230
637.83	0.799
638.16	0.263
638.49	0.828
638.82	2.059
639.15	2.075
639.48	0.778
639.81	2.351
640.13	0.676
640.46	3.134
640.79	2.661
641.12	3.385
641.45	1.865
641.77	1.347
642.10	0.906
642.43	2.580
642.76	2.992
643.09	0.476
643.41	2.540
643.74	2.067
644.07	3.120
644.40	1.459
644.73	0.825
645.05	-0.501
645.38	2.152
645.71	2.234
646.04	3.025
646.36	0.698
646.69	3.114
647.02	0.542
647.35	1.444
647.67	2.190
648.00	3.339
648.33	3.035
648.66	0.161
648.98	3.185
649.31	0.462
649.64	2.031
649.96	2.983
650.29	1.639
650.62	0.516
650.94	1.855
651.27	1.386
651.60	2.249
651.92	2.397
652.25	1.669
652.58	1.193
652.90	0.482
653.23	2.258
653.56	1.338
653.88	1.803
654.21	1.342
654.54	2.824
654.86	0.000
655.19	0.716
655.52	1.814
655.84	1.558
656.17	1.679
656.49	2.380
656.82	2.671
657.15	2.087
657.47	1.515
657.80	1.079
