SpectraSuite Data File
++++++++++++++++++++++++++++++++++++
Date: Sat May 16 11:39:57 PDT 2015
User: schluterlab
Dark Spectrum Present: Yes
Reference Spectrum Present: Yes
Number of Sampled Component Spectra: 1
Spectrometers: USB2E3373
Integration Time (usec): 3000 (USB2E3373)
Spectra Averaged: 3 (USB2E3373)
Boxcar Smoothing: 0 (USB2E3373)
Correct for Electrical Dark: No (USB2E3373)
Strobe/Lamp Enabled: No (USB2E3373)
Correct for Detector Non-linearity: No (USB2E3373)
Correct for Stray Light: No (USB2E3373)
Number of Pixels in Processed Spectrum: 2048
>>>>>Begin Processed Spectral Data<<<<<
178.53	0.000
178.91	100.000
179.29	1000.000
179.67	-1400.000
180.04	-146.154
180.42	1100.000
180.80	525.000
181.18	175.000
181.56	-112.500
181.94	1500.000
182.31	550.000
182.69	30.769
183.07	-333.333
183.45	1300.000
183.83	500.000
184.20	-57.143
184.58	-87.500
184.96	-325.000
185.34	100.000
185.72	-375.000
186.09	216.667
186.47	-250.000
186.85	-225.000
187.23	125.000
187.61	-150.000
187.98	-287.500
188.36	-87.500
188.74	-125.000
189.12	1600.000
189.49	242.857
189.87	-75.000
190.25	500.000
190.63	-7.143
191.00	-233.333
191.38	360.000
191.76	-26.667
192.14	560.000
192.51	-380.000
192.89	-500.000
193.27	0.000
193.65	-155.556
194.02	-171.429
194.40	600.000
194.78	-30.000
195.15	-2300.000
195.53	-209.091
195.91	-383.333
196.29	340.000
196.66	-300.000
197.04	2100.000
197.42	-125.000
197.79	13.333
198.17	-433.333
198.55	-600.000
198.92	-1700.000
199.30	225.000
199.68	-750.000
200.05	-200.000
200.43	-255.556
200.81	-1000.000
201.18	-100.000
201.56	157.143
201.94	-53.333
202.31	22.727
202.69	-120.000
203.07	-60.000
203.44	533.333
203.82	-133.333
204.19	-150.000
204.57	50.000
204.95	-800.000
205.32	-50.000
205.70	400.000
206.08	-2400.000
206.45	-66.667
206.83	-1200.000
207.20	-500.000
207.58	-633.333
207.96	-533.333
208.33	-87.500
208.71	-166.667
209.08	140.000
209.46	-242.857
209.84	1250.000
210.21	0.000
210.59	-15.000
210.96	600.000
211.34	-333.333
211.71	66.667
212.09	575.000
212.46	600.000
212.84	-2500.000
213.22	500.000
213.59	158.333
213.97	-88.889
214.34	160.000
214.72	-100.000
215.09	-400.000
215.47	-183.333
215.84	-40.000
216.22	10.000
216.59	33.333
216.97	-475.000
217.34	850.000
217.72	-171.429
218.09	-333.333
218.47	-214.286
218.84	314.286
219.22	-200.000
219.59	0.000
219.97	185.714
220.34	450.000
220.72	162.500
221.09	-53.846
221.47	0.000
221.84	500.000
222.22	-700.000
222.59	1900.000
222.97	-200.000
223.34	-1100.000
223.72	-500.000
224.09	-135.714
224.46	-550.000
224.84	-64.286
225.21	-271.429
225.59	-63.636
225.96	-112.500
226.34	-142.857
226.71	-133.333
227.08	-35.000
227.46	1600.000
227.83	-142.857
228.21	-137.500
228.58	500.000
228.95	-43.750
229.33	-2300.000
229.70	-320.000
230.08	-1300.000
230.45	-100.000
230.82	-100.000
231.20	-400.000
231.57	-350.000
231.95	1500.000
232.32	28.571
232.69	-88.889
233.07	-85.714
233.44	-700.000
233.81	-53.333
234.19	-88.889
234.56	-81.250
234.93	-21.875
235.31	-242.857
235.68	-107.143
236.05	-94.118
236.43	-104.545
236.80	-61.290
237.17	-29.167
237.55	-71.429
237.92	-68.182
238.29	-40.000
238.67	-23.529
239.04	-19.444
239.41	-41.935
239.79	-51.282
240.16	-38.095
240.53	-27.273
240.91	-38.462
241.28	-32.727
241.65	6.154
242.02	-14.754
242.40	-24.590
242.77	-18.182
243.14	-30.508
243.51	-22.857
243.89	-13.924
244.26	-11.236
244.63	-8.421
245.00	-3.158
245.38	-7.627
245.75	-8.850
246.12	-9.600
246.49	-1.575
246.87	-13.821
247.24	-16.102
247.61	-5.085
247.98	-5.634
248.36	-6.294
248.73	-0.633
249.10	-8.280
249.47	-1.170
249.84	-3.977
250.22	-8.333
250.59	-7.345
250.96	-7.853
251.33	-2.844
251.70	-3.365
252.08	-8.057
252.45	-3.791
252.82	-4.286
253.19	-2.128
253.56	-6.855
253.94	-4.219
254.31	-6.438
254.68	-3.252
255.05	-7.258
255.42	-1.190
255.79	-5.018
256.16	-4.706
256.54	-4.412
256.91	-2.652
257.28	-6.227
257.65	-6.028
258.02	3.459
258.39	-4.682
258.76	-6.757
259.14	-4.938
259.51	-2.295
259.88	-5.488
260.25	-1.863
260.62	-1.929
260.99	-4.451
261.36	0.915
261.73	-2.312
262.10	-1.944
262.47	-0.855
262.85	-0.286
263.22	-2.579
263.59	-7.385
263.96	-0.290
264.33	0.000
264.70	1.934
265.07	-3.571
265.44	-0.775
265.81	-0.258
266.18	-1.519
266.55	-0.245
266.92	-0.252
267.29	0.484
267.66	-1.481
268.03	0.483
268.40	-0.235
268.77	-1.205
269.14	-2.552
269.51	0.920
269.88	-4.128
270.25	-4.662
270.62	-0.229
270.99	0.000
271.36	0.233
271.73	-3.363
272.10	-2.517
272.47	-0.889
272.84	2.667
273.21	-0.229
273.58	-0.440
273.95	-1.535
274.32	-0.905
274.69	-0.656
275.06	1.227
275.43	-4.018
275.80	1.222
276.17	-0.628
276.54	1.018
276.91	-2.263
277.28	0.000
277.65	-0.413
278.02	-1.670
278.39	0.393
278.76	-1.195
279.13	-0.198
279.50	-0.994
279.87	-0.423
280.23	-0.405
280.60	-0.398
280.97	-2.913
281.34	0.000
281.71	0.192
282.08	-2.419
282.45	-3.259
282.82	-0.775
283.19	-2.545
283.56	-1.282
283.92	1.590
284.29	0.186
284.66	-0.360
285.03	0.713
285.40	-0.554
285.77	0.000
286.14	-1.444
286.51	-2.309
286.87	0.000
287.24	0.853
287.61	2.314
287.98	-1.560
288.35	-2.975
288.72	-1.528
289.08	-1.017
289.45	-0.337
289.82	-0.173
290.19	1.642
290.56	-0.826
290.93	-1.272
291.29	-1.459
291.66	-3.865
292.03	1.884
292.40	1.054
292.77	0.776
293.13	-0.650
293.50	-0.297
293.87	1.687
294.24	0.905
294.60	-1.970
294.97	0.607
295.34	-0.889
295.71	-0.298
296.08	-1.229
296.44	-1.001
296.81	0.997
297.18	-0.423
297.55	-0.282
297.91	1.813
298.28	1.096
298.65	-0.139
299.02	1.738
299.38	-0.134
299.75	0.679
300.12	1.154
300.48	1.790
300.85	-0.262
301.22	0.517
301.59	-0.130
301.95	1.511
302.32	-0.782
302.69	-0.122
303.05	0.000
303.42	0.500
303.79	1.077
304.15	1.185
304.52	0.817
304.89	1.653
305.25	1.099
305.62	1.293
305.99	2.356
306.35	1.332
306.72	1.025
307.09	1.703
307.45	1.249
307.82	1.676
308.19	1.566
308.55	0.763
308.92	1.289
309.29	1.622
309.65	2.015
310.02	2.052
310.38	1.405
310.75	3.689
311.12	3.822
311.48	2.296
311.85	3.502
312.22	2.884
312.58	4.374
312.95	2.446
313.31	3.896
313.68	4.724
314.05	5.143
314.41	3.018
314.78	2.997
315.14	2.665
315.51	5.268
315.87	5.421
316.24	4.859
316.61	6.622
316.97	5.771
317.34	5.491
317.70	4.731
318.07	6.437
318.43	5.056
318.80	6.573
319.16	5.816
319.53	6.955
319.89	5.833
320.26	6.569
320.62	6.538
320.99	7.960
321.35	6.108
321.72	7.369
322.08	9.693
322.45	6.832
322.81	9.606
323.18	8.549
323.54	9.242
323.91	9.824
324.27	9.506
324.64	10.420
325.00	11.606
325.37	11.403
325.73	13.648
326.10	11.337
326.46	12.872
326.83	14.213
327.19	13.678
327.56	16.269
327.92	15.973
328.29	15.498
328.65	15.455
329.01	17.403
329.38	16.325
329.74	18.681
330.11	17.316
330.47	17.620
330.84	19.248
331.20	17.780
331.56	17.411
331.93	18.828
332.29	19.635
332.66	18.964
333.02	19.729
333.38	20.161
333.75	21.015
334.11	20.711
334.48	19.859
334.84	21.610
335.20	21.277
335.57	20.939
335.93	23.008
336.29	22.055
336.66	21.057
337.02	21.892
337.38	21.212
337.75	22.037
338.11	21.646
338.47	22.331
338.84	22.414
339.20	22.320
339.56	22.282
339.93	21.164
340.29	21.169
340.65	21.678
341.02	22.344
341.38	22.409
341.74	21.931
342.11	24.317
342.47	21.373
342.83	21.495
343.20	22.374
343.56	21.551
343.92	23.289
344.28	23.213
344.65	22.112
345.01	22.689
345.37	23.339
345.73	22.422
346.10	20.196
346.46	21.933
346.82	21.652
347.19	21.364
347.55	21.268
347.91	21.654
348.27	22.037
348.63	23.344
349.00	22.434
349.36	21.546
349.72	22.691
350.08	22.374
350.45	21.592
350.81	22.930
351.17	22.347
351.53	21.082
351.89	22.393
352.26	21.860
352.62	23.656
352.98	22.547
353.34	22.462
353.70	21.622
354.07	22.817
354.43	23.320
354.79	21.949
355.15	22.923
355.51	22.031
355.87	22.055
356.24	21.763
356.60	24.335
356.96	22.787
357.32	23.199
357.68	22.835
358.04	23.403
358.40	23.047
358.77	22.798
359.13	23.183
359.49	23.734
359.85	22.866
360.21	23.212
360.57	22.892
360.93	23.481
361.29	23.767
361.66	22.332
362.02	23.521
362.38	22.891
362.74	23.590
363.10	22.884
363.46	24.003
363.82	24.052
364.18	23.806
364.54	26.162
364.90	23.829
365.26	24.251
365.62	25.089
365.98	25.391
366.35	24.718
366.71	24.454
367.07	24.841
367.43	25.669
367.79	24.124
368.15	23.329
368.51	26.084
368.87	25.069
369.23	24.140
369.59	25.347
369.95	24.806
370.31	26.512
370.67	24.584
371.03	26.020
371.39	24.187
371.75	26.395
372.11	26.614
372.47	25.524
372.83	26.217
373.19	26.500
373.55	26.812
373.91	27.240
374.27	26.215
374.63	27.122
374.99	26.426
375.35	26.918
375.71	27.954
376.07	26.146
376.42	24.834
376.78	27.974
377.14	28.475
377.50	28.111
377.86	27.438
378.22	28.204
378.58	27.733
378.94	27.805
379.30	29.007
379.66	28.294
380.02	28.283
380.38	28.822
380.74	29.015
381.09	29.701
381.45	28.759
381.81	28.494
382.17	29.762
382.53	28.936
382.89	29.007
383.25	30.283
383.61	29.894
383.97	30.067
384.32	30.350
384.68	29.565
385.04	30.616
385.40	29.884
385.76	30.671
386.12	30.543
386.48	32.054
386.83	30.736
387.19	31.560
387.55	30.830
387.91	31.832
388.27	29.433
388.62	30.889
388.98	32.526
389.34	31.457
389.70	31.242
390.06	30.640
390.42	31.474
390.77	31.420
391.13	32.733
391.49	32.314
391.85	31.858
392.20	31.189
392.56	31.277
392.92	32.230
393.28	32.951
393.64	32.291
393.99	32.615
394.35	32.299
394.71	33.292
395.07	32.078
395.42	31.883
395.78	32.495
396.14	33.333
396.50	31.988
396.85	31.215
397.21	32.442
397.57	33.070
397.92	33.080
398.28	31.722
398.64	32.243
399.00	32.640
399.35	32.413
399.71	31.707
400.07	32.716
400.42	33.455
400.78	32.856
401.14	32.635
401.49	31.840
401.85	32.825
402.21	31.406
402.57	33.070
402.92	33.103
403.28	31.250
403.63	31.037
403.99	31.635
404.35	31.099
404.70	32.768
405.06	32.180
405.42	31.119
405.77	31.391
406.13	30.437
406.49	33.074
406.84	31.194
407.20	31.743
407.55	31.159
407.91	31.023
408.27	31.434
408.62	30.968
408.98	32.686
409.34	31.627
409.69	31.884
410.05	31.837
410.40	32.066
410.76	31.417
411.11	32.294
411.47	30.882
411.83	31.479
412.18	31.002
412.54	30.445
412.89	31.531
413.25	30.933
413.60	30.802
413.96	30.622
414.31	32.171
414.67	31.556
415.03	31.436
415.38	32.661
415.74	32.603
416.09	32.673
416.45	31.548
416.80	32.380
417.16	31.694
417.51	32.633
417.87	32.298
418.22	33.186
418.58	31.322
418.93	32.925
419.29	32.120
419.64	31.784
420.00	32.928
420.35	32.052
420.71	33.553
421.06	34.260
421.42	32.963
421.77	33.557
422.12	34.415
422.48	34.153
422.83	33.998
423.19	33.519
423.54	34.755
423.90	34.182
424.25	34.502
424.61	35.042
424.96	35.108
425.31	35.718
425.67	34.728
426.02	35.284
426.38	36.661
426.73	36.061
427.09	36.091
427.44	36.534
427.79	36.047
428.15	36.266
428.50	37.302
428.85	36.271
429.21	36.027
429.56	37.813
429.92	36.673
430.27	36.540
430.62	37.304
430.98	37.846
431.33	37.247
431.68	37.534
432.04	37.437
432.39	38.689
432.74	38.969
433.10	39.280
433.45	37.075
433.80	38.690
434.16	38.689
434.51	39.397
434.86	40.012
435.22	38.920
435.57	39.780
435.92	39.039
436.28	39.228
436.63	37.931
436.98	38.488
437.34	39.575
437.69	39.440
438.04	40.442
438.39	40.253
438.75	39.581
439.10	39.700
439.45	39.348
439.81	40.482
440.16	39.864
440.51	41.000
440.86	41.180
441.22	39.027
441.57	40.737
441.92	40.716
442.27	41.017
442.63	41.738
442.98	40.181
443.33	40.362
443.68	41.428
444.03	42.043
444.39	41.410
444.74	41.795
445.09	42.379
445.44	42.825
445.79	42.172
446.15	42.169
446.50	41.971
446.85	41.868
447.20	41.318
447.55	42.320
447.91	43.515
448.26	41.341
448.61	42.218
448.96	42.465
449.31	42.841
449.66	42.873
450.02	43.324
450.37	42.029
450.72	43.220
451.07	43.369
451.42	41.884
451.77	43.028
452.12	44.160
452.47	43.640
452.83	43.681
453.18	42.758
453.53	43.843
453.88	44.079
454.23	43.047
454.58	44.748
454.93	43.703
455.28	43.850
455.63	44.226
455.98	44.819
456.34	42.821
456.69	44.903
457.04	43.884
457.39	43.481
457.74	44.891
458.09	43.968
458.44	44.111
458.79	43.498
459.14	44.666
459.49	44.464
459.84	44.519
460.19	44.391
460.54	44.949
460.89	44.675
461.24	45.234
461.59	44.138
461.94	46.085
462.29	46.099
462.64	45.652
462.99	45.047
463.34	45.375
463.69	45.738
464.04	44.405
464.39	45.281
464.74	44.031
465.09	43.656
465.44	45.178
465.79	45.347
466.14	45.627
466.49	45.078
466.84	46.218
467.19	45.636
467.54	45.759
467.89	44.945
468.24	45.784
468.59	45.659
468.94	45.788
469.29	45.744
469.64	45.957
469.99	46.523
470.34	46.293
470.68	47.238
471.03	46.249
471.38	45.694
471.73	47.692
472.08	47.122
472.43	45.753
472.78	46.133
473.13	45.858
473.48	46.586
473.83	45.720
474.17	46.497
474.52	48.018
474.87	47.028
475.22	46.490
475.57	45.944
475.92	47.192
476.27	46.514
476.61	46.648
476.96	46.618
477.31	47.417
477.66	47.537
478.01	48.244
478.36	46.202
478.70	47.624
479.05	46.890
479.40	47.358
479.75	47.146
480.10	46.181
480.45	46.373
480.79	47.779
481.14	47.617
481.49	46.805
481.84	47.018
482.19	47.236
482.53	48.485
482.88	47.034
483.23	47.277
483.58	47.872
483.92	48.256
484.27	46.611
484.62	46.652
484.97	46.999
485.31	44.800
485.66	44.062
486.01	44.504
486.36	45.305
486.70	46.672
487.05	46.096
487.40	46.554
487.75	46.042
488.09	46.541
488.44	46.482
488.79	46.763
489.13	46.862
489.48	47.838
489.83	48.908
490.17	48.063
490.52	48.234
490.87	47.529
491.22	47.968
491.56	48.333
491.91	48.950
492.26	47.972
492.60	47.954
492.95	49.215
493.30	47.880
493.64	49.083
493.99	48.470
494.34	48.857
494.68	49.438
495.03	48.231
495.37	49.213
495.72	48.035
496.07	48.850
496.41	48.865
496.76	48.630
497.11	49.882
497.45	48.994
497.80	49.575
498.14	48.477
498.49	49.724
498.84	48.058
499.18	49.708
499.53	50.024
499.87	49.035
500.22	49.559
500.56	48.824
500.91	49.557
501.26	50.024
501.60	48.676
501.95	49.275
502.29	48.040
502.64	48.656
502.98	49.018
503.33	48.073
503.67	48.755
504.02	48.672
504.36	50.441
504.71	48.936
505.06	49.626
505.40	50.100
505.75	49.848
506.09	49.545
506.44	49.875
506.78	49.875
507.13	49.691
507.47	50.078
507.82	50.284
508.16	50.777
508.51	49.820
508.85	50.155
509.19	50.654
509.54	50.264
509.88	51.011
510.23	49.266
510.57	51.164
510.92	51.396
511.26	50.399
511.61	50.378
511.95	49.892
512.30	51.732
512.64	49.638
512.98	50.935
513.33	50.577
513.67	50.251
514.02	51.734
514.36	51.413
514.70	51.783
515.05	51.229
515.39	51.672
515.74	52.705
516.08	50.605
516.42	51.331
516.77	51.415
517.11	52.288
517.46	52.811
517.80	52.347
518.14	52.234
518.49	53.915
518.83	50.979
519.17	52.812
519.52	50.723
519.86	52.808
520.20	52.934
520.55	52.431
520.89	51.597
521.23	51.648
521.58	52.163
521.92	51.678
522.26	52.889
522.61	51.584
522.95	51.755
523.29	52.853
523.64	52.155
523.98	52.833
524.32	52.986
524.66	51.429
525.01	52.794
525.35	52.577
525.69	53.351
526.04	53.264
526.38	53.596
526.72	51.852
527.06	53.516
527.41	51.551
527.75	51.947
528.09	53.541
528.43	51.934
528.78	51.696
529.12	53.713
529.46	52.448
529.80	51.775
530.15	52.093
530.49	51.876
530.83	52.063
531.17	52.593
531.51	52.311
531.86	52.930
532.20	51.957
532.54	52.807
532.88	52.108
533.22	53.209
533.57	52.742
533.91	50.811
534.25	51.980
534.59	50.531
534.93	50.156
535.27	50.787
535.62	51.918
535.96	51.454
536.30	53.207
536.64	51.660
536.98	52.825
537.32	51.970
537.66	51.120
538.01	53.333
538.35	51.892
538.69	51.404
539.03	51.997
539.37	51.830
539.71	51.101
540.05	51.748
540.39	53.047
540.73	51.693
541.07	51.844
541.42	51.249
541.76	50.233
542.10	52.262
542.44	50.566
542.78	51.628
543.12	52.003
543.46	50.959
543.80	50.836
544.14	50.638
544.48	52.034
544.82	51.894
545.16	51.911
545.50	51.615
545.84	51.460
546.18	52.358
546.52	49.573
546.86	52.920
547.20	53.305
547.54	51.584
547.88	51.360
548.22	50.590
548.56	50.768
548.90	52.291
549.24	51.857
549.58	51.729
549.92	53.428
550.26	51.662
550.60	50.925
550.94	51.533
551.28	51.994
551.62	52.880
551.96	51.520
552.30	51.080
552.64	52.920
552.98	52.558
553.32	52.165
553.66	52.704
554.00	53.660
554.34	51.697
554.68	52.412
555.02	53.473
555.36	52.121
555.69	52.292
556.03	51.930
556.37	53.414
556.71	52.398
557.05	52.402
557.39	53.304
557.73	52.808
558.07	53.429
558.41	52.880
558.75	53.308
559.08	52.840
559.42	53.522
559.76	54.985
560.10	54.959
560.44	53.829
560.78	53.097
561.12	53.140
561.45	52.329
561.79	54.216
562.13	52.805
562.47	52.801
562.81	52.122
563.15	53.184
563.48	52.039
563.82	53.212
564.16	52.130
564.50	51.277
564.84	51.984
565.17	51.857
565.51	52.282
565.85	52.671
566.19	52.701
566.52	52.381
566.86	51.517
567.20	52.542
567.54	52.392
567.88	50.530
568.21	50.168
568.55	50.106
568.89	49.652
569.23	47.941
569.56	48.340
569.90	48.072
570.24	48.703
570.57	47.241
570.91	46.855
571.25	47.211
571.59	46.769
571.92	46.429
572.26	46.435
572.60	46.944
572.93	45.618
573.27	46.372
573.61	45.655
573.95	45.902
574.28	46.297
574.62	46.009
574.96	45.489
575.29	45.300
575.63	45.925
575.97	45.658
576.30	45.793
576.64	45.770
576.98	45.185
577.31	45.077
577.65	45.381
577.98	44.862
578.32	45.148
578.66	44.948
578.99	45.044
579.33	45.165
579.67	44.332
580.00	45.213
580.34	45.768
580.67	45.697
581.01	44.470
581.35	45.592
581.68	44.580
582.02	44.924
582.35	44.646
582.69	45.804
583.02	45.756
583.36	44.995
583.70	45.853
584.03	46.255
584.37	46.360
584.70	45.704
585.04	45.899
585.37	45.012
585.71	45.864
586.04	45.719
586.38	46.030
586.72	46.223
587.05	47.125
587.39	45.998
587.72	46.801
588.06	46.300
588.39	47.081
588.73	46.620
589.06	47.410
589.40	48.162
589.73	47.096
590.07	47.524
590.40	47.085
590.73	48.341
591.07	48.033
591.40	49.393
591.74	48.610
592.07	49.054
592.41	47.813
592.74	48.002
593.08	46.928
593.41	46.875
593.75	46.851
594.08	48.275
594.41	46.654
594.75	47.414
595.08	47.143
595.42	47.471
595.75	47.666
596.09	48.467
596.42	48.404
596.75	48.081
597.09	49.377
597.42	47.665
597.75	49.114
598.09	48.441
598.42	48.299
598.76	48.048
599.09	48.106
599.42	47.559
599.76	48.056
600.09	47.595
600.42	47.322
600.76	48.211
601.09	47.360
601.42	48.358
601.76	47.547
602.09	48.425
602.42	48.848
602.76	47.653
603.09	48.226
603.42	48.550
603.76	48.504
604.09	47.857
604.42	48.751
604.76	48.452
605.09	49.503
605.42	49.025
605.75	48.081
606.09	48.236
606.42	48.680
606.75	48.433
607.09	49.007
607.42	48.548
607.75	48.653
608.08	49.254
608.42	50.095
608.75	48.178
609.08	49.732
609.41	48.331
609.75	48.074
610.08	48.676
610.41	49.446
610.74	49.710
611.07	48.986
611.41	48.865
611.74	49.049
612.07	50.752
612.40	48.881
612.73	49.111
613.07	49.092
613.40	50.465
613.73	50.518
614.06	50.247
614.39	51.184
614.72	50.000
615.06	49.293
615.39	48.291
615.72	49.647
616.05	49.586
616.38	50.784
616.71	50.691
617.05	50.181
617.38	51.517
617.71	50.921
618.04	51.863
618.37	52.201
618.70	52.282
619.03	50.643
619.36	52.925
619.69	52.548
620.03	52.273
620.36	51.688
620.69	52.046
621.02	52.892
621.35	52.661
621.68	54.344
622.01	52.832
622.34	52.407
622.67	52.656
623.00	53.022
623.33	53.209
623.66	52.585
623.99	51.729
624.32	51.786
624.65	51.876
624.99	52.278
625.32	52.096
625.65	52.914
625.98	51.878
626.31	54.323
626.64	53.891
626.97	54.195
627.30	53.617
627.63	52.332
627.96	53.438
628.29	54.779
628.62	53.964
628.95	55.709
629.28	53.665
629.61	54.171
629.94	53.970
630.26	54.374
630.59	56.382
630.92	54.955
631.25	55.746
631.58	56.085
631.91	56.277
632.24	56.444
632.57	57.333
632.90	55.517
633.23	58.178
