SpectraSuite Data File
++++++++++++++++++++++++++++++++++++
Date: Sat May 16 11:13:18 PDT 2015
User: schluterlab
Dark Spectrum Present: Yes
Reference Spectrum Present: Yes
Number of Sampled Component Spectra: 1
Spectrometers: USB2E3373
Integration Time (usec): 3000 (USB2E3373)
Spectra Averaged: 3 (USB2E3373)
Boxcar Smoothing: 0 (USB2E3373)
Correct for Electrical Dark: No (USB2E3373)
Strobe/Lamp Enabled: No (USB2E3373)
Correct for Detector Non-linearity: No (USB2E3373)
Correct for Stray Light: No (USB2E3373)
Number of Pixels in Processed Spectrum: 2048
>>>>>Begin Processed Spectral Data<<<<<
178.53	0.000
178.91	120.000
179.29	533.333
179.67	-200.000
180.04	-15.385
180.42	1400.000
180.80	300.000
181.18	200.000
181.56	-12.500
181.94	-100.000
182.31	250.000
182.69	-23.077
183.07	-200.000
183.45	1100.000
183.83	200.000
184.20	-114.286
184.58	-62.500
184.96	-325.000
185.34	56.250
185.72	-225.000
186.09	100.000
186.47	-112.500
186.85	-212.500
187.23	37.500
187.61	25.000
187.98	-237.500
188.36	50.000
188.74	-200.000
189.12	800.000
189.49	185.714
189.87	41.667
190.25	150.000
190.63	35.714
191.00	-177.778
191.38	220.000
191.76	86.667
192.14	220.000
192.51	-20.000
192.89	-333.333
193.27	0.000
193.65	-111.111
194.02	-114.286
194.40	233.333
194.78	-40.000
195.15	-600.000
195.53	-36.364
195.91	-483.333
196.29	-40.000
196.66	-400.000
197.04	1500.000
197.42	100.000
197.79	53.333
198.17	-133.333
198.55	-400.000
198.92	-600.000
199.30	200.000
199.68	-400.000
200.05	-22.222
200.43	-133.333
200.81	-800.000
201.18	-91.667
201.56	28.571
201.94	0.000
202.31	0.000
202.69	-40.000
203.07	-40.000
203.44	166.667
203.82	-166.667
204.19	-75.000
204.57	-75.000
204.95	900.000
205.32	31.250
205.70	-200.000
206.08	-300.000
206.45	38.889
206.83	-550.000
207.20	300.000
207.58	-433.333
207.96	-266.667
208.33	-37.500
208.71	22.222
209.08	160.000
209.46	-28.571
209.84	150.000
210.21	0.000
210.59	20.000
210.96	300.000
211.34	-66.667
211.71	-300.000
212.09	275.000
212.46	550.000
212.84	-1400.000
213.22	333.333
213.59	16.667
213.97	33.333
214.34	10.000
214.72	-100.000
215.09	-333.333
215.47	-100.000
215.84	-20.000
216.22	-20.000
216.59	73.333
216.97	-350.000
217.34	-150.000
217.72	-171.429
218.09	-233.333
218.47	-57.143
218.84	300.000
219.22	85.714
219.59	0.000
219.97	114.286
220.34	300.000
220.72	112.500
221.09	7.692
221.47	0.000
221.84	33.333
222.22	-500.000
222.59	500.000
222.97	-75.000
223.34	-400.000
223.72	-300.000
224.09	-28.571
224.46	25.000
224.84	-100.000
225.21	28.571
225.59	-81.818
225.96	-12.500
226.34	-157.143
226.71	-22.222
227.08	-5.000
227.46	400.000
227.83	42.857
228.21	-262.500
228.58	600.000
228.95	-31.250
229.33	-1100.000
229.70	-20.000
230.08	-850.000
230.45	83.333
230.82	-16.667
231.20	100.000
231.57	-100.000
231.95	100.000
232.32	52.381
232.69	-66.667
233.07	-57.143
233.44	-650.000
233.81	-33.333
234.19	-100.000
234.56	-68.750
234.93	34.375
235.31	-228.571
235.68	-64.286
236.05	-11.765
236.43	-45.455
236.80	19.355
237.17	4.167
237.55	-28.571
237.92	-54.545
238.29	-2.857
238.67	20.588
239.04	-8.333
239.41	-19.355
239.79	-25.641
240.16	-14.286
240.53	-18.182
240.91	-7.692
241.28	16.364
241.65	4.615
242.02	6.557
242.40	-13.115
242.77	-1.515
243.14	-10.169
243.51	0.000
243.89	5.063
244.26	-10.112
244.63	-4.211
245.00	-11.579
245.38	-0.847
245.75	2.655
246.12	-5.600
246.49	3.937
246.87	-4.878
247.24	-8.475
247.61	-2.542
247.98	2.817
248.36	-7.692
248.73	-1.266
249.10	-11.465
249.47	0.000
249.84	3.409
250.22	-10.714
250.59	0.000
250.96	2.618
251.33	1.422
251.70	0.962
252.08	1.896
252.45	-5.687
252.82	-2.857
253.19	-2.128
253.56	-2.823
253.94	-1.688
254.31	-1.717
254.68	0.000
255.05	0.000
255.42	-5.159
255.79	-1.075
256.16	3.922
256.54	-1.838
256.91	-2.652
257.28	-2.564
257.65	-1.773
258.02	1.258
258.39	-1.003
258.76	-4.054
259.14	-1.852
259.51	3.279
259.88	-1.220
260.25	2.484
260.62	1.286
260.99	-2.671
261.36	-2.134
261.73	2.023
262.10	2.222
262.47	-1.994
262.85	2.857
263.22	0.287
263.59	-3.077
263.96	0.000
264.33	1.897
264.70	0.276
265.07	-3.846
265.44	-2.326
265.81	-1.292
266.18	-2.532
266.55	0.000
266.92	1.259
267.29	2.421
267.66	0.000
268.03	-0.242
268.40	1.408
268.77	-0.241
269.14	-0.464
269.51	-0.230
269.88	-3.440
270.25	-2.331
270.62	0.686
270.99	-0.225
271.36	-0.932
271.73	-0.448
272.10	-4.348
272.47	0.000
272.84	2.222
273.21	0.000
273.58	1.538
273.95	-0.439
274.32	-2.036
274.69	1.094
275.06	0.818
275.43	-1.786
275.80	1.833
276.17	0.209
276.54	0.000
276.91	1.029
277.28	-0.203
277.65	0.000
278.02	0.000
278.39	1.768
278.76	-0.398
279.13	0.395
279.50	0.000
279.87	1.691
280.23	0.810
280.60	0.994
280.97	0.388
281.34	-1.934
281.71	1.538
282.08	-2.218
282.45	-2.240
282.82	-2.132
283.19	0.909
283.56	1.282
283.92	-0.707
284.29	-2.788
284.66	0.360
285.03	0.713
285.40	0.000
285.77	-1.404
286.14	-0.361
286.51	-0.710
286.87	0.907
287.24	1.536
287.61	1.488
287.98	-3.120
288.35	-1.488
288.72	-1.019
289.08	-0.339
289.45	1.684
289.82	-0.692
290.19	1.642
290.56	-3.471
290.93	-2.067
291.29	-1.135
291.66	-2.093
292.03	1.570
292.40	1.657
292.77	0.466
293.13	0.163
293.50	0.594
293.87	-1.994
294.24	-0.603
294.60	-2.727
294.97	-0.607
295.34	0.444
295.71	0.595
296.08	-1.382
296.44	-0.572
296.81	0.855
297.18	-0.986
297.55	0.424
297.91	0.697
298.28	-1.233
298.65	-1.674
299.02	1.471
299.38	-0.134
299.75	-0.272
300.12	1.410
300.48	0.128
300.85	-0.262
301.22	0.517
301.59	0.650
301.95	0.126
302.32	-0.913
302.69	0.245
303.05	-0.122
303.42	-0.625
303.79	0.359
304.15	0.474
304.52	0.583
304.89	0.708
305.25	0.855
305.62	0.000
305.99	1.885
306.35	0.555
306.72	0.000
307.09	0.681
307.45	0.114
307.82	-0.112
308.19	1.230
308.55	0.545
308.92	-1.396
309.29	0.865
309.65	0.636
310.02	1.296
310.38	0.324
310.75	1.537
311.12	2.789
311.48	1.461
311.85	2.472
312.22	1.442
312.58	3.357
312.95	1.223
313.31	1.898
313.68	2.513
314.05	2.275
314.41	1.207
314.78	1.698
315.14	2.962
315.51	2.229
315.87	3.098
316.24	3.304
316.61	3.071
316.97	2.587
317.34	2.890
317.70	3.154
318.07	4.478
318.43	3.839
318.80	6.197
319.16	3.565
319.53	4.887
319.89	5.080
320.26	5.784
320.62	5.865
320.99	6.567
321.35	6.010
321.72	7.369
322.08	6.330
322.45	6.535
322.81	7.973
323.18	8.549
323.54	9.057
323.91	9.639
324.27	10.076
324.64	10.329
325.00	11.257
325.37	12.670
325.73	15.311
326.10	13.375
326.46	15.849
326.83	16.340
327.19	16.013
327.56	17.802
327.92	17.842
328.29	19.307
328.65	18.909
329.01	19.523
329.38	20.339
329.74	21.886
330.11	22.393
330.47	22.343
330.84	23.556
331.20	23.375
331.56	24.886
331.93	23.268
332.29	25.205
332.66	26.339
333.02	25.339
333.38	26.792
333.75	27.516
334.11	26.311
334.48	26.390
334.84	27.909
335.20	27.216
335.57	27.708
335.93	28.111
336.29	27.369
336.66	27.753
337.02	28.378
337.38	26.649
337.75	28.622
338.11	28.980
338.47	29.093
338.84	28.766
339.20	29.701
339.56	30.214
339.93	28.395
340.29	28.875
340.65	30.070
341.02	29.089
341.38	29.570
341.74	29.721
342.11	29.522
342.47	28.584
342.83	28.799
343.20	30.231
343.56	29.469
343.92	30.801
344.28	31.287
344.65	30.116
345.01	30.756
345.37	31.478
345.73	29.296
346.10	28.863
346.46	28.920
346.82	30.874
347.19	29.992
347.55	30.016
347.91	30.236
348.27	30.231
348.63	31.018
349.00	31.424
349.36	28.884
349.72	31.449
350.08	30.313
350.45	30.418
350.81	31.688
351.17	30.949
351.53	29.435
351.89	30.315
352.26	30.698
352.62	32.258
352.98	30.459
353.34	31.335
353.70	30.888
354.07	30.842
354.43	32.016
354.79	32.488
355.15	31.789
355.51	32.422
355.87	32.253
356.24	31.454
356.60	32.957
356.96	33.102
357.32	32.779
357.68	32.184
358.04	31.948
358.40	32.637
358.77	32.844
359.13	33.129
359.49	34.165
359.85	32.241
360.21	32.953
360.57	33.283
360.93	33.630
361.29	34.230
361.66	33.232
362.02	34.098
362.38	34.189
362.74	35.092
363.10	34.362
363.46	35.114
363.82	34.694
364.18	34.588
364.54	36.883
364.90	34.661
365.26	34.165
365.62	36.493
365.98	35.704
366.35	34.437
366.71	34.320
367.07	35.074
367.43	36.651
367.79	36.151
368.15	36.415
368.51	36.364
368.87	37.843
369.23	35.930
369.59	36.667
369.95	37.421
370.31	37.131
370.67	37.816
371.03	37.828
371.39	36.563
371.75	36.838
372.11	38.881
372.47	37.744
372.83	38.526
373.19	39.500
373.55	39.479
373.91	39.545
374.27	38.946
374.63	38.440
374.99	40.334
375.35	39.300
375.71	40.108
376.07	38.535
376.42	38.543
376.78	39.869
377.14	41.695
377.50	40.490
377.86	39.207
378.22	40.704
378.58	42.063
378.94	41.554
379.30	41.438
379.66	42.077
380.02	42.068
380.38	43.082
380.74	41.032
381.09	41.418
381.45	42.303
381.81	42.166
382.17	42.669
382.53	42.249
382.89	41.866
383.25	43.347
383.61	42.335
383.97	43.233
384.32	44.869
384.68	43.954
385.04	42.814
385.40	44.370
385.76	44.268
386.12	44.285
386.48	45.606
386.83	44.785
387.19	45.666
387.55	44.276
387.91	44.221
388.27	44.150
388.62	45.072
388.98	44.821
389.34	45.104
389.70	46.163
390.06	44.624
390.42	46.859
390.77	46.183
391.13	46.708
391.49	46.600
391.85	46.010
392.20	45.934
392.56	45.693
392.92	46.834
393.28	45.982
393.64	46.783
393.99	46.338
394.35	47.445
394.71	46.140
395.07	47.395
395.42	45.709
395.78	46.826
396.14	46.978
396.50	47.278
396.85	47.316
397.21	47.448
397.57	47.234
397.92	47.365
398.28	48.500
398.64	47.769
399.00	48.427
399.35	47.407
399.71	48.490
400.07	48.418
400.42	48.662
400.78	47.645
401.14	47.246
401.49	47.524
401.85	49.420
402.21	47.557
402.57	47.755
402.92	49.843
403.28	48.591
403.63	48.173
403.99	48.415
404.35	48.611
404.70	47.572
405.06	48.674
405.42	47.970
405.77	47.568
406.13	46.451
406.49	49.011
406.84	47.750
407.20	48.351
407.55	49.272
407.91	47.927
408.27	49.449
408.62	49.068
408.98	48.878
409.34	48.080
409.69	48.078
410.05	48.150
410.40	48.620
410.76	48.726
411.11	49.127
411.47	49.041
411.83	48.778
412.18	48.824
412.54	48.505
412.89	48.420
413.25	49.941
413.60	48.177
413.96	48.244
414.31	48.624
414.67	48.381
415.03	49.159
415.38	48.861
415.74	50.193
416.09	48.785
416.45	48.611
416.80	49.155
417.16	49.302
417.51	49.245
417.87	48.867
418.22	48.293
418.58	49.230
418.93	50.337
419.29	48.871
419.64	49.686
420.00	50.608
420.35	49.320
420.71	50.600
421.06	48.935
421.42	49.063
421.77	49.135
422.12	49.356
422.48	49.118
422.83	49.431
423.19	48.497
423.54	48.415
423.90	48.583
424.25	49.265
424.61	49.638
424.96	50.965
425.31	49.357
425.67	50.372
426.02	48.766
426.38	49.425
426.73	50.614
427.09	49.816
427.44	49.375
427.79	49.942
428.15	50.329
428.50	50.616
428.85	50.600
429.21	49.474
429.56	50.313
429.92	49.549
430.27	49.053
430.62	50.000
430.98	49.451
431.33	49.787
431.68	49.866
432.04	51.595
432.39	50.655
432.74	50.120
433.10	50.141
433.45	49.799
433.80	50.000
434.16	51.478
434.51	49.808
434.86	49.854
435.22	50.724
435.57	50.857
435.92	51.055
436.28	50.623
436.63	49.746
436.98	50.687
437.34	49.734
437.69	50.933
438.04	50.085
438.39	51.625
438.75	50.815
439.10	49.639
439.45	51.418
439.81	50.241
440.16	51.051
440.51	50.471
440.86	49.798
441.22	49.254
441.57	50.316
441.92	51.202
442.27	50.812
442.63	51.288
442.98	50.734
443.33	51.181
443.68	50.703
444.03	51.719
444.39	50.416
444.74	51.432
445.09	50.822
445.44	51.491
445.79	51.555
446.15	49.452
446.50	50.408
446.85	50.282
447.20	51.124
447.55	51.547
447.91	51.039
448.26	49.777
448.61	50.424
448.96	51.373
449.31	50.507
449.66	51.345
450.02	49.861
450.37	51.130
450.72	49.435
451.07	51.414
451.42	49.690
451.77	51.706
452.12	50.179
452.47	50.756
452.83	52.126
453.18	50.285
453.53	50.187
453.88	51.675
454.23	48.851
454.58	51.274
454.93	52.015
455.28	51.434
455.63	50.614
455.98	50.241
456.34	50.191
456.69	51.532
457.04	50.645
457.39	48.744
457.74	50.620
458.09	50.348
458.44	50.866
458.79	49.496
459.14	50.542
459.49	50.740
459.84	50.759
460.19	49.284
460.54	49.667
460.89	50.336
461.24	50.395
461.59	49.766
461.94	49.395
462.29	49.911
462.64	49.934
462.99	49.866
463.34	49.291
463.69	49.618
464.04	48.623
464.39	49.164
464.74	48.995
465.09	49.308
465.44	49.295
465.79	49.915
466.14	49.597
466.49	49.799
466.84	50.780
467.19	48.815
467.54	50.696
467.89	49.260
468.24	48.634
468.59	49.656
468.94	49.389
469.29	48.278
469.64	49.865
469.99	49.088
470.34	49.031
470.68	49.564
471.03	48.107
471.38	49.097
471.73	50.210
472.08	50.201
472.43	49.421
472.78	49.200
473.13	49.636
473.48	49.458
473.83	48.511
474.17	50.127
474.52	50.959
474.87	48.834
475.22	48.968
475.57	48.889
475.92	48.758
476.27	48.857
476.61	49.014
476.96	49.916
477.31	48.601
477.66	48.201
478.01	49.325
478.36	47.774
478.70	48.905
479.05	49.054
479.40	48.238
479.75	49.439
480.10	48.115
480.45	47.969
480.79	49.210
481.14	49.272
481.49	48.887
481.84	47.989
482.19	48.333
482.53	48.485
482.88	48.268
483.23	48.545
483.58	49.121
483.92	48.973
484.27	46.832
484.62	47.559
484.97	46.726
485.31	45.664
485.66	45.209
486.01	45.129
486.36	45.964
486.70	46.878
487.05	46.728
487.40	46.154
487.75	46.519
488.09	46.232
488.44	46.346
488.79	46.834
489.13	47.052
489.48	47.145
489.83	48.166
490.17	47.279
490.52	48.007
490.87	47.067
491.22	47.595
491.56	47.731
491.91	46.803
492.26	47.689
492.60	47.859
492.95	47.644
493.30	46.689
493.64	46.685
493.99	46.941
494.34	46.857
494.68	48.315
495.03	47.180
495.37	47.788
495.72	48.084
496.07	46.692
496.41	47.661
496.76	47.260
497.11	47.009
497.45	47.701
497.80	48.274
498.14	47.151
498.49	46.710
498.84	46.165
499.18	46.930
499.53	47.199
499.87	47.008
500.22	47.647
500.56	47.174
500.91	47.537
501.26	48.180
501.60	46.846
501.95	47.246
502.29	46.245
502.64	47.006
502.98	46.766
503.33	46.992
503.67	47.126
504.02	47.224
504.36	47.353
504.71	47.518
505.06	46.231
505.40	47.455
505.75	46.545
506.09	47.118
506.44	46.767
506.78	46.964
507.13	45.778
507.47	46.948
507.82	47.599
508.16	47.254
508.51	46.574
508.85	45.963
509.19	46.782
509.54	47.463
509.88	47.394
510.23	47.694
510.57	47.513
510.92	47.368
511.26	46.305
511.61	46.328
511.95	45.744
512.30	48.268
512.64	46.967
512.98	47.305
513.33	46.787
513.67	47.236
514.02	47.595
514.36	47.978
514.70	46.293
515.05	47.399
515.39	47.463
515.74	48.109
516.08	46.686
516.42	47.875
516.77	48.642
517.11	47.483
517.46	48.983
517.80	49.338
518.14	47.645
518.49	47.998
518.83	47.656
519.17	47.425
519.52	47.773
519.86	48.626
520.20	47.861
520.55	47.815
520.89	48.215
521.23	47.436
521.58	48.652
521.92	49.398
522.26	48.381
522.61	48.289
522.95	47.543
523.29	49.404
523.64	47.158
523.98	48.759
524.32	48.900
524.66	47.391
525.01	49.133
525.35	48.582
525.69	47.365
526.04	48.695
526.38	49.332
526.72	47.829
527.06	49.219
527.41	48.251
527.75	47.327
528.09	48.379
528.43	49.246
528.78	46.734
529.12	49.168
529.46	48.582
529.80	47.063
530.15	47.843
530.49	47.154
530.83	49.247
531.17	48.552
531.51	48.225
531.86	47.992
532.20	47.976
532.54	50.067
532.88	47.365
533.22	49.265
533.57	47.063
533.91	48.502
534.25	47.266
534.59	47.845
534.93	46.795
535.27	47.829
535.62	48.018
535.96	48.287
536.30	46.793
536.64	47.875
536.98	49.435
537.32	48.100
537.66	47.047
538.01	49.278
538.35	48.311
538.69	48.463
539.03	48.477
539.37	48.237
539.71	46.965
540.05	48.047
540.39	47.438
540.73	48.238
541.07	47.883
541.42	47.670
541.76	46.312
542.10	48.413
542.44	47.169
542.78	48.100
543.12	49.898
543.46	48.014
543.80	46.957
544.14	47.616
544.48	48.163
544.82	48.106
545.16	47.753
545.50	47.847
545.84	46.662
546.18	47.157
546.52	48.862
546.86	47.507
547.20	48.453
547.54	46.625
547.88	48.175
548.22	46.789
548.56	46.827
548.90	47.642
549.24	48.143
549.58	48.412
549.92	47.986
550.26	48.772
550.60	47.440
550.94	48.394
551.28	48.984
551.62	47.563
551.96	48.625
552.30	47.805
552.64	48.135
552.98	47.512
553.32	47.475
553.66	47.801
554.00	48.756
554.34	46.426
554.68	46.564
555.02	48.263
555.36	46.873
555.69	47.206
556.03	47.228
556.37	47.368
556.71	47.459
557.05	47.450
557.39	47.068
557.73	48.505
558.07	48.229
558.41	46.223
558.75	46.008
559.08	46.615
559.42	47.550
559.76	47.623
560.10	48.322
560.44	47.832
560.78	48.017
561.12	46.377
561.45	47.466
561.79	47.666
562.13	46.914
562.47	45.798
562.81	46.818
563.15	46.116
563.48	46.164
563.82	48.276
564.16	46.518
564.50	46.237
564.84	45.106
565.17	47.215
565.51	46.675
565.85	47.667
566.19	46.113
566.52	44.814
566.86	46.207
567.20	47.215
567.54	46.545
567.88	44.333
568.21	45.302
568.55	45.334
568.89	43.986
569.23	43.869
569.56	42.665
569.90	43.706
570.24	43.668
570.57	41.898
570.91	42.299
571.25	42.121
571.59	42.648
571.92	42.589
572.26	42.271
572.60	41.235
572.93	41.623
573.27	42.104
573.61	41.440
573.95	42.123
574.28	41.403
574.62	42.145
574.96	41.027
575.29	41.794
575.63	42.288
575.97	41.478
576.30	40.915
576.64	41.932
576.98	40.955
577.31	41.812
577.65	40.998
577.98	40.793
578.32	40.539
578.66	41.322
578.99	41.032
579.33	41.271
579.67	41.060
580.00	41.245
580.34	41.194
580.67	40.892
581.01	40.745
581.35	41.321
581.68	40.382
582.02	40.683
582.35	40.510
582.69	41.276
583.02	41.004
583.36	41.420
583.70	40.988
584.03	40.975
584.37	40.974
584.70	40.629
585.04	41.165
585.37	40.692
585.71	40.663
586.04	40.552
586.38	40.150
586.72	40.333
587.05	40.782
587.39	40.535
587.72	40.881
588.06	40.468
588.39	40.815
588.73	41.370
589.06	41.208
589.40	42.047
589.73	41.856
590.07	42.207
590.40	41.328
590.73	41.303
591.07	41.352
591.40	42.504
591.74	41.659
592.07	40.901
592.41	42.166
592.74	41.545
593.08	40.954
593.41	40.888
593.75	40.950
594.08	41.661
594.41	41.331
594.75	41.450
595.08	41.429
595.42	41.691
595.75	40.904
596.09	41.560
596.42	42.308
596.75	41.742
597.09	42.965
597.42	40.506
597.75	41.364
598.09	42.521
598.42	41.449
598.76	40.656
599.09	41.042
599.42	41.023
599.76	40.997
600.09	41.641
600.42	40.866
600.76	40.414
601.09	40.068
601.42	40.404
601.76	40.771
602.09	40.900
602.42	40.453
602.76	40.465
603.09	40.806
603.42	41.217
603.76	41.484
604.09	40.529
604.42	41.424
604.76	41.430
605.09	41.501
605.42	41.534
605.75	40.664
606.09	40.722
606.42	40.637
606.75	40.275
607.09	41.861
607.42	41.681
607.75	40.927
608.08	41.573
608.42	41.627
608.75	40.888
609.08	41.305
609.41	41.006
609.75	41.589
610.08	41.961
610.41	40.434
610.74	42.408
611.07	41.379
611.41	40.998
611.74	40.720
612.07	42.213
612.40	40.352
612.73	41.357
613.07	41.222
613.40	42.748
613.73	41.417
614.06	40.527
614.39	42.503
614.72	42.291
615.06	41.467
615.39	40.749
615.72	41.608
616.05	40.861
616.38	41.730
616.71	40.721
617.05	43.245
617.38	42.786
617.71	41.216
618.04	42.112
618.37	42.201
618.70	42.112
619.03	41.638
619.36	43.481
619.69	43.719
620.03	41.391
620.36	41.842
620.69	42.139
621.02	42.998
621.35	44.194
621.68	43.361
622.01	42.395
622.34	42.547
622.67	43.594
623.00	42.158
623.33	42.761
623.66	42.614
623.99	42.632
624.32	43.304
624.65	42.458
624.99	43.316
625.32	42.590
625.65	42.890
625.98	42.175
626.31	43.638
626.64	42.092
626.97	43.579
627.30	42.979
627.63	42.487
627.96	43.081
628.29	44.577
628.62	43.457
628.95	44.094
629.28	43.515
629.61	44.848
629.94	43.100
630.26	45.129
630.59	45.327
630.92	43.043
631.25	43.145
631.58	43.386
631.91	44.574
632.24	44.111
632.57	45.000
632.90	44.138
633.23	45.911
633.56	44.211
633.89	45.047
634.22	45.573
634.55	45.072
634.88	44.982
635.20	44.569
635.53	44.020
