SpectraSuite Data File
++++++++++++++++++++++++++++++++++++
Date: Sat May 16 11:41:12 PDT 2015
User: schluterlab
Dark Spectrum Present: Yes
Reference Spectrum Present: Yes
Number of Sampled Component Spectra: 1
Spectrometers: USB2E3373
Integration Time (usec): 3000 (USB2E3373)
Spectra Averaged: 3 (USB2E3373)
Boxcar Smoothing: 0 (USB2E3373)
Correct for Electrical Dark: No (USB2E3373)
Strobe/Lamp Enabled: No (USB2E3373)
Correct for Detector Non-linearity: No (USB2E3373)
Correct for Stray Light: No (USB2E3373)
Number of Pixels in Processed Spectrum: 2048
>>>>>Begin Processed Spectral Data<<<<<
178.53	0.000
178.91	186.667
179.29	833.333
179.67	-900.000
180.04	-100.000
180.42	1200.000
180.80	175.000
181.18	425.000
181.56	-112.500
181.94	1700.000
182.31	325.000
182.69	-92.308
183.07	-700.000
183.45	1650.000
183.83	466.667
184.20	-100.000
184.58	-275.000
184.96	-350.000
185.34	93.750
185.72	-575.000
186.09	350.000
186.47	-212.500
186.85	-212.500
187.23	-50.000
187.61	-300.000
187.98	-162.500
188.36	-112.500
188.74	-125.000
189.12	1900.000
189.49	285.714
189.87	-66.667
190.25	250.000
190.63	-35.714
191.00	-177.778
191.38	320.000
191.76	0.000
192.14	360.000
192.51	-120.000
192.89	-366.667
193.27	0.000
193.65	11.111
194.02	-428.571
194.40	333.333
194.78	-150.000
195.15	-1000.000
195.53	-81.818
195.91	-333.333
196.29	320.000
196.66	-600.000
197.04	2200.000
197.42	-250.000
197.79	-40.000
198.17	-166.667
198.55	-1350.000
198.92	-1800.000
199.30	300.000
199.68	-950.000
200.05	-244.444
200.43	-177.778
200.81	-1300.000
201.18	-116.667
201.56	228.571
201.94	-6.667
202.31	22.727
202.69	-70.000
203.07	-70.000
203.44	533.333
203.82	-416.667
204.19	-425.000
204.57	-200.000
204.95	-1500.000
205.32	0.000
205.70	2100.000
206.08	-2700.000
206.45	-72.222
206.83	-1250.000
207.20	-400.000
207.58	-700.000
207.96	-366.667
208.33	-237.500
208.71	-55.556
209.08	160.000
209.46	-200.000
209.84	850.000
210.21	0.000
210.59	-40.000
210.96	1300.000
211.34	-400.000
211.71	-300.000
212.09	175.000
212.46	2000.000
212.84	-2800.000
213.22	633.333
213.59	141.667
213.97	-100.000
214.34	200.000
214.72	-140.000
215.09	-300.000
215.47	-383.333
215.84	-130.000
216.22	-40.000
216.59	-40.000
216.97	-375.000
217.34	650.000
217.72	-85.714
218.09	-383.333
218.47	-271.429
218.84	228.571
219.22	-57.143
219.59	0.000
219.97	271.429
220.34	425.000
220.72	262.500
221.09	-7.692
221.47	0.000
221.84	166.667
222.22	-650.000
222.59	1000.000
222.97	-212.500
223.34	-400.000
223.72	-500.000
224.09	-64.286
224.46	-50.000
224.84	-64.286
225.21	-171.429
225.59	-100.000
225.96	-100.000
226.34	-200.000
226.71	-133.333
227.08	5.000
227.46	1800.000
227.83	-257.143
228.21	-125.000
228.58	550.000
228.95	-37.500
229.33	-2400.000
229.70	-320.000
230.08	-700.000
230.45	-16.667
230.82	-116.667
231.20	-900.000
231.57	-150.000
231.95	100.000
232.32	57.143
232.69	-133.333
233.07	-328.571
233.44	-1200.000
233.81	-100.000
234.19	-100.000
234.56	-31.250
234.93	-12.500
235.31	-228.571
235.68	-157.143
236.05	-17.647
236.43	-72.727
236.80	-25.806
237.17	-33.333
237.55	-19.048
237.92	-81.818
238.29	20.000
238.67	0.000
239.04	-13.889
239.41	0.000
239.79	-41.026
240.16	-16.667
240.53	-29.091
240.91	25.641
241.28	-5.455
241.65	6.154
242.02	4.918
242.40	4.918
242.77	24.242
243.14	5.085
243.51	-1.429
243.89	16.456
244.26	16.854
244.63	14.737
245.00	8.421
245.38	11.864
245.75	23.894
246.12	12.000
246.49	15.748
246.87	9.756
247.24	14.407
247.61	7.627
247.98	16.197
248.36	18.881
248.73	16.456
249.10	14.650
249.47	15.789
249.84	23.295
250.22	8.929
250.59	23.164
250.96	15.183
251.33	20.379
251.70	18.269
252.08	20.379
252.45	15.166
252.82	22.857
253.19	17.021
253.56	16.935
253.94	17.722
254.31	19.742
254.68	25.203
255.05	20.161
255.42	17.063
255.79	15.054
256.16	27.059
256.54	21.324
256.91	22.348
257.28	16.850
257.65	19.149
258.02	22.013
258.39	22.408
258.76	15.878
259.14	17.901
259.51	24.262
259.88	21.037
260.25	23.913
260.62	20.579
260.99	18.398
261.36	21.037
261.73	22.832
262.10	23.611
262.47	19.943
262.85	23.429
263.22	20.630
263.59	20.000
263.96	21.449
264.33	21.680
264.70	21.547
265.07	22.802
265.44	22.739
265.81	19.897
266.18	17.722
266.55	21.324
266.92	24.433
267.29	22.034
267.66	22.222
268.03	21.256
268.40	24.648
268.77	23.133
269.14	20.882
269.51	22.529
269.88	19.954
270.25	19.580
270.62	20.824
270.99	22.072
271.36	22.378
271.73	21.300
272.10	22.883
272.47	20.000
272.84	24.667
273.21	21.101
273.58	21.538
273.95	21.711
274.32	23.529
274.69	22.319
275.06	21.677
275.43	22.321
275.80	21.792
276.17	19.456
276.54	21.996
276.91	20.988
277.28	21.298
277.65	23.347
278.02	21.503
278.39	22.397
278.76	22.709
279.13	20.949
279.50	23.062
279.87	22.199
280.23	21.660
280.60	22.664
280.97	20.777
281.34	22.244
281.71	20.962
282.08	21.371
282.45	20.978
282.82	22.868
283.19	21.818
283.56	22.161
283.92	21.201
284.29	20.818
284.66	21.942
285.03	21.747
285.40	20.849
285.77	22.105
286.14	20.578
286.51	21.670
286.87	21.597
287.24	22.867
287.61	18.017
287.98	21.144
288.35	18.678
288.72	22.411
289.08	18.983
289.45	21.717
289.82	21.799
290.19	20.361
290.56	19.669
290.93	20.986
291.29	19.773
291.66	18.680
292.03	20.722
292.40	19.428
292.77	20.497
293.13	19.187
293.50	19.316
293.87	17.485
294.24	18.552
294.60	16.061
294.97	19.727
295.34	18.370
295.71	17.708
296.08	17.972
296.44	16.452
296.81	17.379
297.18	17.887
297.55	17.514
297.91	19.526
298.28	16.575
298.65	17.155
299.02	18.449
299.38	15.909
299.75	17.663
300.12	16.667
300.48	18.286
300.85	16.907
301.22	17.206
301.59	16.775
301.95	17.758
302.32	15.906
302.69	17.013
303.05	15.629
303.42	15.875
303.79	16.029
304.15	15.758
304.52	16.803
304.89	16.765
305.25	17.705
305.62	15.746
305.99	18.139
306.35	16.426
306.72	16.515
307.09	17.480
307.45	17.140
307.82	16.313
308.19	15.436
308.55	16.013
308.92	16.327
309.29	15.784
309.65	17.073
310.02	15.767
310.38	15.784
310.75	16.189
311.12	16.839
311.48	17.328
311.85	16.787
312.22	15.345
312.58	17.599
312.95	17.329
313.31	17.582
313.68	18.392
314.05	18.200
314.41	17.203
314.78	16.084
315.14	17.473
315.51	17.021
315.87	17.909
316.24	18.270
316.61	17.179
316.97	17.711
317.34	17.726
317.70	18.275
318.07	17.351
318.43	17.884
318.80	19.249
319.16	18.105
319.53	18.891
319.89	19.003
320.26	18.725
320.62	19.231
320.99	20.398
321.35	18.030
321.72	18.424
322.08	19.486
322.45	21.089
322.81	19.885
323.18	20.749
323.54	20.795
323.91	21.131
324.27	20.627
324.64	20.384
325.00	21.204
325.37	21.629
325.73	21.960
326.10	19.309
326.46	21.891
326.83	20.426
327.19	21.351
327.56	22.487
327.92	21.410
328.29	22.251
328.65	21.636
329.01	22.527
329.38	22.748
329.74	23.810
330.11	22.937
330.47	24.342
330.84	23.740
331.20	22.834
331.56	23.610
331.93	22.469
332.29	24.018
332.66	23.968
333.02	22.805
333.38	24.104
333.75	23.954
334.11	24.089
334.48	23.831
334.84	24.059
335.20	25.266
335.57	25.361
335.93	24.530
336.29	24.978
336.66	24.670
337.02	25.405
337.38	24.777
337.75	24.934
338.11	24.419
338.47	24.822
338.84	24.682
339.20	24.517
339.56	25.045
339.93	25.485
340.29	24.889
340.65	24.126
341.02	24.958
341.38	25.274
341.74	25.064
342.11	25.427
342.47	25.150
342.83	24.433
343.20	24.338
343.56	23.673
343.92	25.376
344.28	25.484
344.65	25.578
345.01	24.034
345.37	26.495
345.73	24.468
346.10	24.939
346.46	23.883
346.82	25.180
347.19	25.883
347.55	25.040
347.91	24.961
348.27	24.185
348.63	26.333
349.00	25.139
349.36	23.419
349.72	25.478
350.08	25.020
350.45	25.217
350.81	25.955
351.17	25.241
351.53	24.662
351.89	25.384
352.26	25.426
352.62	26.805
352.98	25.633
353.34	25.739
353.70	24.633
354.07	25.728
354.43	25.850
354.79	25.357
355.15	25.160
355.51	25.000
355.87	26.640
356.24	27.006
356.60	26.914
356.96	25.558
357.32	26.207
357.68	25.594
358.04	26.174
358.40	26.605
358.77	26.507
359.13	26.014
359.49	25.397
359.85	25.915
360.21	26.788
360.57	26.355
360.93	27.778
361.29	27.429
361.66	26.220
362.02	25.814
362.38	27.439
362.74	28.352
363.10	27.044
363.46	27.208
363.82	28.134
364.18	26.773
364.54	26.876
364.90	27.533
365.26	26.961
365.62	27.441
365.98	28.094
366.35	27.254
366.71	26.498
367.07	27.664
367.43	28.140
367.79	28.660
368.15	27.027
368.51	27.483
368.87	28.846
369.23	28.070
369.59	28.264
369.95	28.612
370.31	29.606
370.67	27.983
371.03	28.790
371.39	27.864
371.75	29.041
372.11	28.838
372.47	28.706
372.83	29.207
373.19	29.786
373.55	29.346
373.91	28.947
374.27	28.337
374.63	29.262
374.99	29.624
375.35	29.139
375.71	30.790
376.07	30.801
376.42	28.808
376.78	31.373
377.14	30.441
377.50	30.239
377.86	30.234
378.22	31.470
378.58	30.389
378.94	31.258
379.30	31.688
379.66	31.208
380.02	30.541
380.38	31.118
380.74	30.657
381.09	31.400
381.45	31.742
381.81	31.216
382.17	31.078
382.53	32.036
382.89	31.220
383.25	31.547
383.61	31.840
383.97	33.190
384.32	33.354
384.68	33.918
385.04	32.367
385.40	32.867
385.76	32.683
386.12	33.104
386.48	33.540
386.83	32.638
387.19	33.712
387.55	33.010
387.91	32.958
388.27	33.414
388.62	33.173
388.98	32.707
389.34	33.109
389.70	33.678
390.06	33.623
390.42	33.782
390.77	33.817
391.13	34.037
391.49	35.059
391.85	33.229
392.20	33.981
392.56	34.270
392.92	34.455
393.28	34.673
393.64	34.937
393.99	35.015
394.35	35.280
394.71	34.033
395.07	35.844
395.42	33.850
395.78	33.375
396.14	35.140
396.50	34.373
396.85	34.732
397.21	35.055
397.57	35.137
397.92	35.773
398.28	35.167
398.64	34.920
399.00	35.787
399.35	35.118
399.71	35.656
400.07	36.239
400.42	35.827
400.78	35.361
401.14	34.671
401.49	35.436
401.85	35.876
402.21	35.518
402.57	35.740
402.92	36.123
403.28	35.968
403.63	35.830
403.99	36.544
404.35	35.809
404.70	35.810
405.06	36.390
405.42	36.162
405.77	35.464
406.13	37.365
406.49	36.609
406.84	35.333
407.20	36.808
407.55	37.682
407.91	35.298
408.27	37.377
408.62	36.681
408.98	35.840
409.34	37.172
409.69	36.421
410.05	35.719
410.40	36.419
410.76	37.937
411.11	36.970
411.47	36.317
411.83	37.286
412.18	37.252
412.54	37.950
412.89	37.971
413.25	36.187
413.60	36.817
413.96	36.476
414.31	37.737
414.67	37.460
415.03	37.516
415.38	37.866
415.74	38.402
416.09	37.020
416.45	36.442
416.80	37.906
417.16	37.874
417.51	38.608
417.87	38.058
418.22	37.927
418.58	37.548
418.93	38.872
419.29	38.645
419.64	38.568
420.00	38.700
420.35	38.616
420.71	38.836
421.06	37.811
421.42	39.110
421.77	39.643
422.12	39.843
422.48	39.177
422.83	39.636
423.19	39.811
423.54	39.827
423.90	39.503
424.25	39.762
424.61	40.290
424.96	41.603
425.31	39.296
425.67	39.771
426.02	39.931
426.38	41.379
426.73	41.321
427.09	40.809
427.44	41.591
427.79	40.756
428.15	42.549
428.50	41.994
428.85	42.086
429.21	41.118
429.56	42.240
429.92	41.383
430.27	42.223
430.62	42.059
430.98	41.558
431.33	41.782
431.68	43.056
432.04	42.865
432.39	43.191
432.74	43.585
433.10	43.782
433.45	43.351
433.80	43.281
434.16	43.041
434.51	43.562
434.86	43.702
435.22	44.042
435.57	44.002
435.92	43.728
436.28	44.273
436.63	44.375
436.98	43.414
437.34	44.832
437.69	43.466
438.04	44.016
438.39	44.404
438.75	44.703
439.10	44.864
439.45	44.780
439.81	44.337
440.16	44.747
440.51	46.059
440.86	45.228
441.22	44.223
441.57	46.368
441.92	45.013
442.27	45.725
442.63	46.030
442.98	44.808
443.33	45.689
443.68	46.014
444.03	46.071
444.39	45.521
444.74	47.907
445.09	46.711
445.44	46.652
445.79	46.405
446.15	45.400
446.50	45.999
446.85	45.664
447.20	47.242
447.55	45.912
447.91	46.940
448.26	46.704
448.61	46.350
448.96	46.162
449.31	46.223
449.66	47.167
450.02	46.371
450.37	46.203
450.72	46.328
451.07	47.643
451.42	45.911
451.77	47.397
452.12	47.139
452.47	46.348
452.83	47.467
453.18	47.565
453.53	48.134
453.88	49.103
454.23	47.461
454.58	49.161
454.93	46.851
455.28	47.674
455.63	47.727
455.98	48.434
456.34	47.332
456.69	48.218
457.04	48.248
457.39	47.249
457.74	47.490
458.09	48.376
458.44	49.769
458.79	48.094
459.14	49.287
459.49	47.661
459.84	47.667
460.19	48.150
460.54	48.034
460.89	47.814
461.24	48.391
461.59	49.414
461.94	48.950
462.29	47.767
462.64	48.946
462.99	48.996
463.34	48.818
463.69	48.791
464.04	48.682
464.39	47.790
464.74	47.754
465.09	47.805
465.44	49.013
465.79	48.675
466.14	49.425
466.49	49.568
466.84	49.700
467.19	49.439
467.54	48.608
467.89	49.877
468.24	49.822
468.59	49.469
468.94	49.711
469.29	49.448
469.64	49.394
469.99	50.641
470.34	50.701
470.68	51.453
471.03	51.273
471.38	49.653
471.73	51.818
472.08	50.268
472.43	51.223
472.78	50.267
473.13	49.370
473.48	50.925
473.83	51.675
474.17	50.064
474.52	51.215
474.87	49.942
475.22	50.147
475.57	51.056
475.92	50.648
476.27	50.000
476.61	51.155
476.96	50.922
477.31	50.861
477.66	49.972
478.01	51.432
478.36	49.974
478.70	51.255
479.05	51.595
479.40	52.073
479.75	49.847
480.10	49.504
480.45	49.420
480.79	51.283
481.14	51.179
481.49	51.452
481.84	51.179
482.19	50.662
482.53	51.089
482.88	51.068
483.23	51.455
483.58	51.526
483.92	51.505
484.27	49.668
484.62	50.324
484.97	49.221
485.31	47.808
485.66	46.401
486.01	46.213
486.36	47.978
486.70	49.322
487.05	48.553
487.40	48.317
487.75	49.158
488.09	49.506
488.44	49.865
488.79	49.982
489.13	50.209
489.48	50.367
489.83	51.747
490.17	51.197
490.52	51.812
490.87	50.716
491.22	52.312
491.56	51.667
491.91	51.622
492.26	52.123
492.60	51.522
492.95	51.547
493.30	52.263
493.64	52.139
493.99	52.055
494.34	52.333
494.68	52.575
495.03	51.769
495.37	53.736
495.72	52.947
496.07	53.355
496.41	52.339
496.76	52.648
497.11	53.038
497.45	52.443
497.80	52.376
498.14	52.652
498.49	52.587
498.84	52.136
499.18	53.850
499.53	53.434
499.87	52.027
500.22	51.912
500.56	53.477
500.91	53.153
501.26	53.906
501.60	53.442
501.95	54.541
502.29	52.574
502.64	52.758
502.98	52.324
503.33	52.350
503.67	52.778
504.02	53.211
504.36	54.314
504.71	54.661
505.06	53.070
505.40	54.790
505.75	55.285
506.09	55.106
506.44	54.436
506.78	55.996
507.13	54.428
507.47	55.347
507.82	55.188
508.16	55.959
508.51	54.766
508.85	53.727
509.19	55.730
509.54	54.968
509.88	56.064
510.23	55.765
510.57	56.614
510.92	56.015
511.26	55.875
511.61	56.156
511.95	55.819
512.30	56.185
512.64	56.594
512.98	56.051
513.33	55.958
513.67	56.896
514.02	57.327
514.36	56.011
514.70	56.480
515.05	58.148
515.39	57.382
515.74	58.581
516.08	57.406
516.42	57.620
516.77	58.810
517.11	57.723
517.46	60.287
517.80	59.206
518.14	59.964
518.49	58.279
518.83	58.754
519.17	58.674
519.52	57.548
519.86	59.618
520.20	61.064
520.55	58.462
520.89	59.737
521.23	59.768
521.58	59.624
521.92	60.101
522.26	59.746
522.61	59.949
522.95	60.179
523.29	60.815
523.64	60.462
523.98	61.808
524.32	60.905
524.66	58.634
525.01	60.694
525.35	60.631
525.69	61.093
526.04	61.423
526.38	61.426
526.72	59.898
527.06	61.458
527.41	60.792
527.75	59.736
528.09	61.482
528.43	60.393
528.78	59.548
529.12	61.524
529.46	60.438
529.80	60.684
530.15	61.108
530.49	59.961
530.83	60.969
531.17	62.020
531.51	61.621
531.86	60.171
532.20	60.864
532.54	60.628
532.88	61.265
533.22	61.631
533.57	61.488
533.91	60.362
534.25	61.094
534.59	59.213
534.93	60.797
535.27	60.352
535.62	60.870
535.96	61.215
536.30	59.097
536.64	60.292
536.98	62.147
537.32	60.608
537.66	61.914
538.01	62.268
538.35	61.081
538.69	62.299
539.03	60.393
539.37	61.344
539.71	60.307
540.05	60.864
540.39	62.050
540.73	61.230
541.07	61.817
541.42	59.689
541.76	59.668
542.10	61.107
542.44	60.293
542.78	61.330
543.12	61.982
543.46	59.863
543.80	59.599
544.14	59.973
544.48	61.483
544.82	61.299
545.16	61.234
545.50	61.171
545.84	61.613
546.18	61.096
546.52	63.727
546.86	61.538
547.20	61.533
547.54	60.813
547.88	61.447
548.22	58.650
548.56	61.790
548.90	61.658
549.24	61.528
549.58	62.526
549.92	61.767
550.26	62.572
550.60	60.882
550.94	62.044
551.28	63.431
551.62	62.260
551.96	62.301
552.30	60.906
552.64	63.899
552.98	63.069
553.32	62.121
553.66	63.663
554.00	62.758
554.34	61.083
554.68	62.135
555.02	63.097
555.36	62.329
555.69	61.748
556.03	61.754
556.37	62.162
556.71	63.493
557.05	63.341
557.39	63.549
557.73	61.926
558.07	65.185
558.41	64.099
558.75	63.422
559.08	63.268
559.42	63.706
559.76	65.031
560.10	63.236
560.44	64.017
560.78	62.909
561.12	61.974
561.45	62.055
561.79	62.927
562.13	61.851
562.47	63.095
562.81	62.447
563.15	63.191
563.48	61.437
563.82	63.354
564.16	63.016
564.50	62.836
564.84	62.037
565.17	60.743
565.51	63.103
565.85	63.692
566.19	62.253
566.52	62.100
566.86	61.568
567.20	61.743
567.54	62.256
567.88	60.134
568.21	61.353
568.55	59.544
568.89	59.245
569.23	59.000
569.56	57.083
569.90	57.238
570.24	57.648
570.57	55.606
570.91	55.559
571.25	55.674
571.59	56.385
571.92	54.524
572.26	54.913
572.60	55.166
572.93	55.342
573.27	54.238
573.61	53.599
573.95	54.098
574.28	53.055
574.62	54.474
574.96	53.141
575.29	54.167
575.63	53.730
575.97	53.155
576.30	53.631
576.64	54.099
576.98	53.844
577.31	53.564
577.65	53.232
577.98	53.373
578.32	53.378
578.66	52.974
578.99	54.144
579.33	53.379
579.67	52.802
580.00	53.919
580.34	53.841
580.67	54.572
581.01	52.925
581.35	53.356
581.68	52.977
582.02	53.571
582.35	53.314
582.69	53.975
583.02	54.797
583.36	54.385
583.70	53.994
584.03	55.415
584.37	54.750
584.70	55.062
585.04	54.101
585.37	53.795
585.71	54.161
586.04	55.066
586.38	54.691
586.72	54.707
587.05	54.970
587.39	55.586
587.72	54.712
588.06	54.580
588.39	56.366
588.73	56.759
589.06	56.042
589.40	57.266
589.73	56.728
590.07	56.591
590.40	57.306
590.73	57.057
591.07	57.951
591.40	59.055
591.74	57.385
592.07	58.378
592.41	58.726
592.74	56.879
593.08	55.853
593.41	56.020
593.75	55.292
594.08	57.441
594.41	58.189
594.75	57.456
595.08	57.481
595.42	57.225
595.75	57.185
596.09	58.168
596.42	58.142
596.75	58.603
597.09	59.350
597.42	57.660
597.75	58.237
598.09	59.196
598.42	58.418
598.76	57.973
599.09	57.143
599.42	57.862
599.76	56.625
600.09	58.168
600.42	57.235
600.76	58.041
601.09	56.703
601.42	57.657
601.76	56.931
602.09	57.628
602.42	57.860
602.76	58.039
603.09	57.661
603.42	57.937
603.76	58.117
604.09	56.828
604.42	57.993
604.76	58.918
605.09	59.403
605.42	58.599
605.75	58.862
606.09	57.368
606.42	58.651
606.75	57.578
607.09	59.374
607.42	58.187
607.75	59.294
608.08	59.150
608.42	59.082
608.75	58.411
609.08	60.546
609.41	60.837
609.75	58.654
610.08	60.539
610.41	59.036
610.74	59.526
611.07	60.396
611.41	59.758
611.74	60.411
612.07	61.547
612.40	59.915
612.73	60.151
613.07	59.604
613.40	61.303
613.73	61.907
614.06	60.242
614.39	61.838
614.72	60.559
615.06	60.435
615.39	59.848
615.72	61.380
616.05	61.237
616.38	61.985
616.71	62.042
617.05	61.942
617.38	64.149
617.71	63.268
618.04	63.851
618.37	63.145
618.70	63.950
619.03	62.559
619.36	64.553
619.69	64.537
620.03	63.292
620.36	64.698
620.69	65.973
621.02	64.460
621.35	66.290
621.68	67.049
622.01	67.071
622.34	66.382
622.67	65.234
623.00	65.570
623.33	65.373
623.66	64.623
623.99	66.992
624.32	63.095
624.65	66.814
624.99	65.422
625.32	64.746
625.65	66.434
625.98	65.649
626.31	67.700
626.64	67.531
626.97	67.723
627.30	67.234
627.63	66.235
627.96	68.407
628.29	69.301
628.62	68.768
628.95	71.260
629.28	67.857
629.61	69.872
629.94	69.849
630.26	70.278
630.59	71.457
630.92	70.270
631.25	70.867
631.58	71.534
