SpectraSuite Data File
++++++++++++++++++++++++++++++++++++
Date: Sat May 16 11:47:38 PDT 2015
User: schluterlab
Dark Spectrum Present: Yes
Reference Spectrum Present: Yes
Number of Sampled Component Spectra: 1
Spectrometers: USB2E3373
Integration Time (usec): 3000 (USB2E3373)
Spectra Averaged: 3 (USB2E3373)
Boxcar Smoothing: 0 (USB2E3373)
Correct for Electrical Dark: No (USB2E3373)
Strobe/Lamp Enabled: No (USB2E3373)
Correct for Detector Non-linearity: No (USB2E3373)
Correct for Stray Light: No (USB2E3373)
Number of Pixels in Processed Spectrum: 2048
>>>>>Begin Processed Spectral Data<<<<<
178.53	0.000
178.91	40.000
179.29	200.000
179.67	-400.000
180.04	-61.538
180.42	1400.000
180.80	275.000
181.18	400.000
181.56	-37.500
181.94	700.000
182.31	450.000
182.69	-23.077
183.07	-366.667
183.45	1450.000
183.83	566.667
184.20	0.000
184.58	-137.500
184.96	-200.000
185.34	118.750
185.72	-675.000
186.09	166.667
186.47	-25.000
186.85	-162.500
187.23	-162.500
187.61	-175.000
187.98	-275.000
188.36	-87.500
188.74	-87.500
189.12	1200.000
189.49	271.429
189.87	-33.333
190.25	375.000
190.63	-114.286
191.00	-155.556
191.38	120.000
191.76	13.333
192.14	480.000
192.51	-180.000
192.89	-200.000
193.27	0.000
193.65	-188.889
194.02	-228.571
194.40	1000.000
194.78	-50.000
195.15	-1300.000
195.53	-18.182
195.91	-366.667
196.29	420.000
196.66	-366.667
197.04	2500.000
197.42	0.000
197.79	6.667
198.17	-233.333
198.55	-400.000
198.92	-1700.000
199.30	250.000
199.68	-850.000
200.05	-200.000
200.43	-155.556
200.81	-1700.000
201.18	-150.000
201.56	185.714
201.94	-26.667
202.31	13.636
202.69	-120.000
203.07	20.000
203.44	833.333
203.82	-300.000
204.19	-350.000
204.57	-100.000
204.95	-1300.000
205.32	-25.000
205.70	1400.000
206.08	-1200.000
206.45	-55.556
206.83	-1150.000
207.20	50.000
207.58	-366.667
207.96	-433.333
208.33	-212.500
208.71	-188.889
209.08	250.000
209.46	-100.000
209.84	450.000
210.21	0.000
210.59	30.000
210.96	300.000
211.34	-316.667
211.71	-366.667
212.09	75.000
212.46	1000.000
212.84	-2200.000
213.22	700.000
213.59	41.667
213.97	22.222
214.34	-40.000
214.72	-90.000
215.09	-166.667
215.47	-216.667
215.84	-30.000
216.22	-60.000
216.59	33.333
216.97	-550.000
217.34	950.000
217.72	-142.857
218.09	-283.333
218.47	-200.000
218.84	185.714
219.22	-100.000
219.59	0.000
219.97	385.714
220.34	550.000
220.72	225.000
221.09	-92.308
221.47	0.000
221.84	466.667
222.22	-800.000
222.59	1100.000
222.97	-200.000
223.34	-400.000
223.72	-233.333
224.09	-92.857
224.46	-250.000
224.84	-107.143
225.21	-228.571
225.59	-63.636
225.96	-175.000
226.34	-114.286
226.71	-11.111
227.08	-25.000
227.46	1600.000
227.83	-142.857
228.21	-250.000
228.58	150.000
228.95	-43.750
229.33	-2800.000
229.70	-260.000
230.08	-800.000
230.45	-108.333
230.82	83.333
231.20	-1500.000
231.57	-650.000
231.95	2100.000
232.32	14.286
232.69	-100.000
233.07	-314.286
233.44	-1000.000
233.81	-53.333
234.19	-177.778
234.56	-81.250
234.93	53.125
235.31	-314.286
235.68	-171.429
236.05	-76.471
236.43	-63.636
236.80	-35.484
237.17	-20.833
237.55	-100.000
237.92	-77.273
238.29	-40.000
238.67	-44.118
239.04	19.444
239.41	-12.903
239.79	-25.641
240.16	-16.667
240.53	-27.273
240.91	20.513
241.28	0.000
241.65	1.538
242.02	6.557
242.40	6.557
242.77	0.000
243.14	-11.864
243.51	-18.571
243.89	-10.127
244.26	-5.618
244.63	-6.316
245.00	0.000
245.38	-0.847
245.75	3.540
246.12	0.800
246.49	13.386
246.87	0.000
247.24	-0.847
247.61	2.542
247.98	6.338
248.36	3.497
248.73	4.430
249.10	3.822
249.47	7.018
249.84	13.068
250.22	-1.190
250.59	2.825
250.96	6.283
251.33	11.848
251.70	3.846
252.08	4.739
252.45	2.844
252.82	6.190
253.19	8.936
253.56	1.613
253.94	7.595
254.31	9.013
254.68	7.317
255.05	3.226
255.42	8.333
255.79	4.301
256.16	9.412
256.54	7.721
256.91	7.955
257.28	3.663
257.65	5.319
258.02	9.748
258.39	9.365
258.76	3.378
259.14	4.938
259.51	12.459
259.88	5.793
260.25	9.938
260.62	6.752
260.99	4.748
261.36	10.366
261.73	9.538
262.10	10.000
262.47	6.268
262.85	10.857
263.22	4.298
263.59	4.923
263.96	10.435
264.33	8.672
264.70	9.392
265.07	9.341
265.44	8.010
265.81	7.235
266.18	5.823
266.55	6.863
266.92	10.076
267.29	10.169
267.66	9.383
268.03	10.145
268.40	7.512
268.77	8.434
269.14	6.265
269.51	10.115
269.88	7.339
270.25	6.760
270.62	6.636
270.99	9.009
271.36	7.925
271.73	7.399
272.10	6.865
272.47	9.333
272.84	10.444
273.21	7.339
273.58	8.132
273.95	7.456
274.32	8.597
274.69	8.753
275.06	10.225
275.43	7.366
275.80	9.980
276.17	7.113
276.54	11.202
276.91	9.465
277.28	9.128
277.65	9.711
278.02	7.724
278.39	9.430
278.76	8.566
279.13	8.893
279.50	8.748
279.87	6.765
280.23	10.931
280.60	7.356
280.97	7.573
281.34	8.511
281.71	9.231
282.08	9.274
282.45	7.128
282.82	9.690
283.19	8.727
283.56	9.707
283.92	10.071
284.29	8.364
284.66	10.432
285.03	9.804
285.40	8.672
285.77	10.877
286.14	9.928
286.51	7.282
286.87	8.711
287.24	9.386
287.61	10.909
287.98	5.199
288.35	7.934
288.72	5.942
289.08	7.458
289.45	7.071
289.82	7.958
290.19	9.688
290.56	7.934
290.93	6.995
291.29	6.483
291.66	6.119
292.03	8.477
292.40	8.283
292.77	7.453
293.13	8.130
293.50	8.172
293.87	7.822
294.24	8.748
294.60	6.818
294.97	8.194
295.34	6.222
295.71	7.440
296.08	6.759
296.44	7.010
296.81	10.256
297.18	6.620
297.55	6.638
297.91	7.671
298.28	7.671
298.65	7.531
299.02	7.754
299.38	8.289
299.75	6.250
300.12	7.051
300.48	7.033
300.85	6.422
301.22	8.797
301.59	7.022
301.95	9.572
302.32	5.476
302.69	7.589
303.05	7.570
303.42	6.375
303.79	6.938
304.15	7.938
304.52	7.818
304.89	8.264
305.25	8.303
305.62	5.758
305.99	8.481
306.35	6.548
306.72	6.378
307.09	8.286
307.45	6.243
307.82	6.927
308.19	7.830
308.55	6.645
308.92	6.767
309.29	7.135
309.65	7.847
310.02	7.343
310.38	6.486
310.75	8.709
311.12	8.264
311.48	7.933
311.85	8.342
312.22	7.621
312.58	9.563
312.95	6.524
313.31	7.692
313.68	7.940
314.05	7.715
314.41	7.243
314.78	6.993
315.14	7.897
315.51	7.396
315.87	8.035
316.24	7.872
316.61	9.021
316.97	8.358
317.34	8.285
317.70	7.885
318.07	8.116
318.43	7.397
318.80	9.390
319.16	7.223
319.53	7.989
319.89	8.184
320.26	7.745
320.62	7.596
320.99	9.254
321.35	7.389
321.72	8.086
322.08	8.309
322.45	8.317
322.81	8.742
323.18	8.165
323.54	9.797
323.91	8.434
324.27	9.125
324.64	8.044
325.00	9.860
325.37	8.507
325.73	10.324
326.10	8.503
326.46	9.545
326.83	8.766
327.19	10.092
327.56	10.818
327.92	9.431
328.29	10.216
328.65	10.364
329.01	10.247
329.38	9.367
329.74	12.179
330.11	10.154
330.47	10.082
330.84	11.457
331.20	9.025
331.56	9.572
331.93	10.480
332.29	10.411
332.66	11.414
333.02	10.317
333.38	11.649
333.75	11.309
334.11	10.844
334.48	10.150
334.84	11.286
335.20	11.879
335.57	10.740
335.93	11.996
336.29	11.072
336.66	10.661
337.02	11.892
337.38	10.784
337.75	11.414
338.11	10.912
338.47	11.655
338.84	11.615
339.20	11.072
339.56	11.586
339.93	10.847
340.29	11.426
340.65	10.402
341.02	11.551
341.38	10.531
341.74	11.008
342.11	11.433
342.47	10.730
342.83	10.999
343.20	11.358
343.56	10.204
343.92	12.521
344.28	12.700
344.65	10.644
345.01	11.681
345.37	11.960
345.73	10.393
346.10	10.711
346.46	11.292
346.82	11.628
347.19	10.846
347.55	10.995
347.91	11.732
348.27	10.501
348.63	10.985
349.00	12.411
349.36	10.773
349.72	11.704
350.08	11.307
350.45	10.087
350.81	10.908
351.17	9.646
351.53	10.660
351.89	11.641
352.26	12.093
352.62	12.826
352.98	11.551
353.34	12.310
353.70	10.965
354.07	11.880
354.43	10.198
354.79	11.886
355.15	12.141
355.51	10.937
355.87	10.909
356.24	11.597
356.60	12.893
356.96	11.855
357.32	10.926
357.68	11.724
358.04	11.624
358.40	12.142
358.77	11.283
359.13	11.171
359.49	12.018
359.85	11.662
360.21	12.405
360.57	12.199
360.93	12.815
361.29	12.257
361.66	11.280
362.02	12.426
362.38	12.913
362.74	12.088
363.10	11.263
363.46	13.034
363.82	12.755
364.18	12.808
364.54	12.580
364.90	11.950
365.26	11.983
365.62	12.758
365.98	13.016
366.35	12.254
366.71	11.628
367.07	12.562
367.43	13.452
367.79	12.921
368.15	11.664
368.51	12.867
368.87	12.569
369.23	12.702
369.59	12.639
369.95	12.333
370.31	13.221
370.67	13.232
371.03	14.140
371.39	11.810
371.75	13.376
372.11	13.989
372.47	13.160
372.83	14.186
373.19	13.143
373.55	13.723
373.91	14.509
374.27	13.347
374.63	13.596
374.99	13.491
375.35	12.584
375.71	14.517
376.07	13.758
376.42	13.046
376.78	14.183
377.14	13.898
377.50	14.378
377.86	13.849
378.22	14.196
378.58	13.897
378.94	14.427
379.30	14.381
379.66	14.390
380.02	14.023
380.38	14.260
380.74	13.834
381.09	14.880
381.45	14.976
381.81	14.519
382.17	15.038
382.53	14.590
382.89	15.311
383.25	16.135
383.61	15.035
383.97	15.370
384.32	15.457
384.68	14.813
385.04	14.976
385.40	15.581
385.76	16.159
386.12	15.553
386.48	15.780
386.83	15.706
387.19	16.079
387.55	15.566
387.91	16.420
388.27	15.742
388.62	16.346
388.98	16.051
389.34	16.524
389.70	15.773
390.06	16.346
390.42	16.987
390.77	16.215
391.13	17.702
391.49	16.157
391.85	16.272
392.20	16.383
392.56	16.921
392.92	16.657
393.28	16.361
393.64	17.078
393.99	17.538
394.35	17.701
394.71	16.553
395.07	17.514
395.42	16.985
395.78	17.033
396.14	17.570
396.50	16.881
396.85	16.841
397.21	17.193
397.57	18.055
397.92	17.272
398.28	17.389
398.64	17.371
399.00	18.258
399.35	17.024
399.71	18.002
400.07	17.910
400.42	17.762
400.78	17.114
401.14	18.263
401.49	17.276
401.85	17.816
402.21	17.223
402.57	17.718
402.92	19.069
403.28	17.770
403.63	17.436
403.99	18.086
404.35	17.995
404.70	18.315
405.06	17.532
405.42	18.143
405.77	17.873
406.13	17.206
406.49	18.095
406.84	18.176
407.20	18.492
407.55	18.429
407.91	19.041
408.27	19.424
408.62	19.302
408.98	17.647
409.34	18.647
409.69	18.084
410.05	18.314
410.40	18.945
410.76	18.435
411.11	18.392
411.47	18.031
411.83	18.399
412.18	18.317
412.54	18.487
412.89	18.591
413.25	17.769
413.60	18.530
413.96	18.238
414.31	19.266
414.67	18.540
415.03	18.499
415.38	20.169
415.74	19.459
416.09	18.926
416.45	18.915
416.80	18.531
417.16	17.874
417.51	19.829
417.87	20.194
418.22	19.659
418.58	19.576
418.93	19.313
419.29	19.197
419.64	19.284
420.00	19.259
420.35	19.101
420.71	19.268
421.06	19.645
421.42	18.384
421.77	19.319
422.12	19.866
422.48	19.241
422.83	20.103
423.19	18.987
423.54	19.366
423.90	20.069
424.25	19.853
424.61	20.084
424.96	20.070
425.31	20.235
425.67	19.771
426.02	19.793
426.38	20.932
426.73	20.281
427.09	20.772
427.44	20.795
427.79	20.465
428.15	19.808
428.50	20.293
428.85	20.324
429.21	20.089
429.56	20.885
429.92	20.641
430.27	20.289
430.62	20.899
430.98	20.073
431.33	20.544
431.68	20.751
432.04	21.041
432.39	20.684
432.74	20.084
433.10	20.597
433.45	20.841
433.80	20.773
434.16	20.365
434.51	20.877
434.86	22.496
435.22	20.267
435.57	20.441
435.92	20.750
436.28	20.475
436.63	21.085
436.98	20.447
437.34	21.796
437.69	21.820
438.04	20.647
438.39	22.142
438.75	21.595
439.10	21.988
439.45	21.002
439.81	21.627
440.16	21.522
440.51	22.118
440.86	21.168
441.22	20.674
441.57	21.316
441.92	21.688
442.27	21.374
442.63	21.459
442.98	21.219
443.33	21.856
443.68	21.261
444.03	21.758
444.39	21.439
444.74	22.357
445.09	21.217
445.44	22.904
445.79	21.469
446.15	22.399
446.50	21.502
446.85	21.344
447.20	21.399
447.55	22.818
447.91	22.347
448.26	21.620
448.61	21.505
448.96	22.241
449.31	21.984
449.66	23.011
450.02	21.330
450.37	22.435
450.72	21.808
451.07	23.382
451.42	21.871
451.77	22.262
452.12	22.646
452.47	23.048
452.83	22.073
453.18	22.897
453.53	22.326
453.88	22.727
454.23	21.705
454.58	22.498
454.93	22.544
455.28	23.327
455.63	23.833
455.98	23.072
456.34	22.363
456.69	22.326
457.04	23.110
457.39	22.249
457.74	22.623
458.09	23.028
458.44	23.383
458.79	22.646
459.14	23.103
459.49	23.091
459.84	23.609
460.19	22.255
460.54	23.533
460.89	22.309
461.24	22.526
461.59	22.978
461.94	23.616
462.29	23.169
462.64	23.320
462.99	22.825
463.34	22.485
463.69	22.964
464.04	22.554
464.39	22.521
464.74	22.991
465.09	22.610
465.44	22.279
465.79	23.012
466.14	23.245
466.49	22.280
466.84	23.890
467.19	23.691
467.54	22.595
467.89	23.551
468.24	23.872
468.59	23.923
468.94	22.958
469.29	22.807
469.64	23.854
469.99	23.430
470.34	24.716
470.68	24.564
471.03	24.570
471.38	25.139
471.73	24.266
472.08	23.159
472.43	22.716
472.78	24.133
473.13	23.526
473.48	24.442
473.83	23.945
474.17	24.331
474.52	25.512
474.87	24.417
475.22	23.658
475.57	23.889
475.92	23.812
476.27	23.257
476.61	23.549
476.96	24.148
477.31	24.812
477.66	25.125
478.01	24.581
478.36	24.149
478.70	24.079
479.05	24.770
479.40	24.715
479.75	24.312
480.10	23.413
480.45	23.888
480.79	24.284
481.14	24.235
481.49	24.637
481.84	24.873
482.19	24.623
482.53	24.148
482.88	24.110
483.23	24.178
483.58	25.116
483.92	25.131
484.27	23.881
484.62	25.140
484.97	23.928
485.31	23.584
485.66	22.490
486.01	22.868
486.36	23.121
486.70	23.829
487.05	23.668
487.40	23.878
487.75	22.852
488.09	23.749
488.44	23.342
488.79	24.690
489.13	24.838
489.48	25.000
489.83	25.328
490.17	24.597
490.52	24.909
490.87	24.619
491.22	24.988
491.56	24.676
491.91	25.477
492.26	25.189
492.60	24.405
492.95	25.416
493.30	25.012
493.64	24.871
493.99	24.809
494.34	25.286
494.68	25.468
495.03	24.904
495.37	25.172
495.72	25.688
496.07	26.091
496.41	25.706
496.76	25.023
497.11	25.671
497.45	26.197
497.80	25.813
498.14	25.786
498.49	24.912
498.84	24.806
499.18	25.877
499.53	24.890
499.87	25.386
500.22	25.588
500.56	25.313
500.91	25.616
501.26	26.929
501.60	25.036
501.95	25.749
502.29	25.555
502.64	26.308
502.98	26.018
503.33	25.470
503.67	24.952
504.02	25.592
504.36	26.520
504.71	25.329
505.06	25.262
505.40	26.946
505.75	26.118
506.09	26.795
506.44	25.915
506.78	26.994
507.13	26.313
507.47	27.334
507.82	26.433
508.16	27.098
508.51	26.945
508.85	26.087
509.19	26.583
509.54	27.326
509.88	27.287
510.23	26.468
510.57	26.931
510.92	27.981
511.26	26.794
511.61	26.512
511.95	27.586
512.30	26.663
512.64	26.155
512.98	27.558
513.33	27.567
513.67	27.806
514.02	27.237
514.36	28.089
514.70	27.165
515.05	27.902
515.39	27.220
515.74	28.912
516.08	27.839
516.42	27.875
516.77	28.250
517.11	28.318
517.46	29.366
517.80	28.339
518.14	28.804
518.49	29.468
518.83	29.555
519.17	28.538
519.52	28.745
519.86	29.152
520.20	29.340
520.55	29.785
520.89	28.303
521.23	29.915
521.58	28.213
521.92	29.386
522.26	30.159
522.61	28.834
522.95	29.292
523.29	30.157
523.64	28.357
523.98	30.045
524.32	29.981
524.66	29.814
525.01	29.544
525.35	31.186
525.69	29.863
526.04	29.700
526.38	30.299
526.72	29.055
527.06	30.664
527.41	30.165
527.75	29.307
528.09	30.311
528.43	29.770
528.78	30.402
529.12	30.346
529.46	30.284
529.80	29.309
530.15	29.684
530.49	29.884
530.83	30.517
531.17	30.034
531.51	30.007
531.86	30.020
532.20	30.432
532.54	30.949
532.88	30.303
533.22	30.281
533.57	30.352
533.91	28.464
534.25	29.164
534.59	29.294
534.93	29.994
535.27	30.271
535.62	30.243
535.96	29.994
536.30	29.516
536.64	30.677
536.98	31.709
537.32	29.302
537.66	29.735
538.01	30.103
538.35	29.865
538.69	30.214
539.03	29.316
539.37	30.672
539.71	29.820
540.05	29.678
540.39	29.017
540.73	30.270
541.07	30.464
541.42	29.777
541.76	28.173
542.10	30.655
542.44	30.380
542.78	29.783
543.12	30.346
543.46	28.699
543.80	29.030
544.14	29.214
544.48	30.381
544.82	28.755
545.16	30.181
545.50	29.139
545.84	29.764
546.18	30.444
546.52	30.725
546.86	30.698
547.20	30.872
547.54	29.201
547.88	29.330
548.22	28.440
548.56	30.194
548.90	29.447
549.24	30.554
549.58	30.628
549.92	29.965
550.26	29.986
550.60	30.441
550.94	29.781
551.28	30.399
551.62	29.616
551.96	30.391
552.30	29.268
552.64	30.331
552.98	30.484
553.32	30.592
553.66	31.363
554.00	30.490
554.34	30.830
554.68	29.751
555.02	30.318
555.36	29.907
555.69	30.158
556.03	30.596
556.37	30.228
556.71	30.923
557.05	30.229
557.39	30.958
557.73	30.051
558.07	30.746
558.41	30.965
558.75	30.114
559.08	30.817
559.42	31.394
559.76	31.595
560.10	31.022
560.44	31.864
560.78	30.271
561.12	29.952
561.45	29.521
561.79	30.314
562.13	30.014
562.47	30.112
562.81	30.269
563.15	30.301
563.48	30.408
563.82	31.102
564.16	29.344
564.50	29.839
564.84	30.159
565.17	28.249
565.51	29.987
565.85	30.291
566.19	30.567
566.52	30.463
566.86	29.583
567.20	30.085
567.54	30.597
567.88	29.481
568.21	28.579
568.55	29.003
568.89	27.883
569.23	28.690
569.56	28.121
569.90	28.127
570.24	28.523
570.57	26.889
570.91	26.930
571.25	26.978
571.59	26.663
571.92	26.696
572.26	26.393
572.60	26.063
572.93	26.107
573.27	25.915
573.61	25.781
573.95	26.344
574.28	25.660
574.62	26.207
574.96	25.972
575.29	25.889
575.63	25.723
575.97	26.133
576.30	26.035
576.64	25.039
576.98	25.255
577.31	25.101
577.65	25.520
577.98	25.597
578.32	25.510
578.66	25.647
578.99	25.412
579.33	26.049
579.67	25.691
580.00	25.050
580.34	25.563
580.67	25.570
581.01	25.160
581.35	24.700
581.68	25.134
582.02	25.096
582.35	25.212
582.69	25.719
583.02	25.464
583.36	25.715
583.70	25.397
584.03	25.970
584.37	26.035
584.70	25.482
585.04	26.025
585.37	24.988
585.71	25.665
586.04	25.785
586.38	25.742
586.72	25.958
587.05	26.140
587.39	25.813
587.72	26.042
588.06	26.492
588.39	26.004
588.73	26.524
589.06	26.662
589.40	27.001
589.73	26.416
590.07	26.147
590.40	27.122
590.73	27.269
591.07	27.172
591.40	27.686
591.74	27.454
592.07	26.441
592.41	27.219
592.74	27.248
593.08	27.360
593.41	26.184
593.75	25.849
594.08	27.139
594.41	27.357
594.75	26.916
595.08	26.842
595.42	27.276
595.75	26.534
596.09	27.163
596.42	27.496
596.75	27.210
597.09	27.471
597.42	26.713
597.75	27.679
598.09	26.977
598.42	27.265
598.76	26.537
599.09	26.519
599.42	26.836
599.76	27.180
600.09	27.710
600.42	27.193
600.76	26.930
601.09	25.978
601.42	26.553
601.76	26.636
602.09	26.585
602.42	27.037
602.76	25.841
603.09	26.855
603.42	27.156
603.76	27.323
604.09	26.592
604.42	27.019
604.76	27.562
605.09	27.215
605.42	27.172
605.75	26.822
606.09	27.065
606.42	26.770
606.75	26.793
607.09	27.217
607.42	27.201
607.75	26.711
608.08	28.061
608.42	27.389
608.75	27.850
609.08	27.034
609.41	27.603
609.75	27.499
610.08	27.402
610.41	27.036
610.74	27.466
611.07	27.181
611.41	27.635
611.74	28.123
612.07	27.981
612.40	26.972
612.73	28.487
613.07	28.123
613.40	28.845
613.73	29.046
614.06	27.567
614.39	28.129
614.72	28.156
615.06	27.391
615.39	27.021
615.72	28.734
616.05	27.278
616.38	28.787
616.71	28.168
617.05	28.951
617.38	28.359
617.71	27.580
618.04	29.193
618.37	28.302
618.70	28.944
619.03	28.504
619.36	30.162
619.69	29.146
620.03	28.650
620.36	29.536
620.69	30.294
621.02	29.985
621.35	30.645
621.68	30.000
622.01	30.421
622.34	29.348
622.67	29.375
623.00	30.069
623.33	29.552
623.66	28.804
623.99	29.098
624.32	29.315
624.65	29.065
624.99	29.425
625.32	28.967
625.65	30.925
625.98	30.360
626.31	29.935
626.64	30.628
626.97	29.709
627.30	29.106
627.63	29.534
627.96	30.287
628.29	29.871
628.62	29.417
628.95	30.906
629.28	30.451
629.61	31.109
629.94	30.624
630.26	31.113
630.59	30.754
630.92	31.431
631.25	31.351
631.58	31.323
631.91	30.213
632.24	33.111
632.57	31.222
632.90	33.218
633.23	32.243
633.56	30.760
633.89	31.958
634.22	31.287
634.55	31.971
634.88	31.802
635.20	32.584
635.53	32.824
635.86	32.872
