SpectraSuite Data File
++++++++++++++++++++++++++++++++++++
Date: Sat May 16 11:25:41 PDT 2015
User: schluterlab
Dark Spectrum Present: Yes
Reference Spectrum Present: Yes
Number of Sampled Component Spectra: 1
Spectrometers: USB2E3373
Integration Time (usec): 3000 (USB2E3373)
Spectra Averaged: 3 (USB2E3373)
Boxcar Smoothing: 0 (USB2E3373)
Correct for Electrical Dark: No (USB2E3373)
Strobe/Lamp Enabled: No (USB2E3373)
Correct for Detector Non-linearity: No (USB2E3373)
Correct for Stray Light: No (USB2E3373)
Number of Pixels in Processed Spectrum: 2048
>>>>>Begin Processed Spectral Data<<<<<
178.53	0.000
178.91	106.667
179.29	433.333
179.67	-1500.000
180.04	61.538
180.42	1000.000
180.80	350.000
181.18	325.000
181.56	-150.000
181.94	1400.000
182.31	325.000
182.69	-38.462
183.07	-566.667
183.45	1450.000
183.83	533.333
184.20	-257.143
184.58	-200.000
184.96	-350.000
185.34	125.000
185.72	-350.000
186.09	216.667
186.47	-275.000
186.85	-300.000
187.23	0.000
187.61	-75.000
187.98	-262.500
188.36	-237.500
188.74	-175.000
189.12	1600.000
189.49	271.429
189.87	-91.667
190.25	500.000
190.63	-50.000
191.00	-111.111
191.38	460.000
191.76	-53.333
192.14	620.000
192.51	-100.000
192.89	-566.667
193.27	0.000
193.65	-66.667
194.02	-128.571
194.40	533.333
194.78	-80.000
195.15	-1300.000
195.53	-72.727
195.91	-366.667
196.29	260.000
196.66	-233.333
197.04	3100.000
197.42	-125.000
197.79	60.000
198.17	-366.667
198.55	-600.000
198.92	-1900.000
199.30	187.500
199.68	-100.000
200.05	-177.778
200.43	-200.000
200.81	-1400.000
201.18	-75.000
201.56	285.714
201.94	-33.333
202.31	9.091
202.69	40.000
203.07	0.000
203.44	666.667
203.82	-300.000
204.19	-325.000
204.57	-300.000
204.95	-1400.000
205.32	-56.250
205.70	500.000
206.08	-1600.000
206.45	-11.111
206.83	-1250.000
207.20	50.000
207.58	-800.000
207.96	-333.333
208.33	-162.500
208.71	-66.667
209.08	150.000
209.46	-214.286
209.84	1100.000
210.21	0.000
210.59	-15.000
210.96	600.000
211.34	-266.667
211.71	-400.000
212.09	250.000
212.46	1500.000
212.84	-1900.000
213.22	633.333
213.59	66.667
213.97	-100.000
214.34	160.000
214.72	-150.000
215.09	-366.667
215.47	16.667
215.84	-140.000
216.22	-110.000
216.59	-26.667
216.97	-700.000
217.34	800.000
217.72	-100.000
218.09	-350.000
218.47	-314.286
218.84	171.429
219.22	-200.000
219.59	0.000
219.97	171.429
220.34	400.000
220.72	162.500
221.09	-38.462
221.47	0.000
221.84	166.667
222.22	-650.000
222.59	1900.000
222.97	-200.000
223.34	-550.000
223.72	-266.667
224.09	-57.143
224.46	-175.000
224.84	-57.143
225.21	-257.143
225.59	-54.545
225.96	-112.500
226.34	-200.000
226.71	-177.778
227.08	15.000
227.46	500.000
227.83	-157.143
228.21	-187.500
228.58	950.000
228.95	31.250
229.33	-2200.000
229.70	-420.000
230.08	-950.000
230.45	33.333
230.82	-66.667
231.20	-1000.000
231.57	-450.000
231.95	1100.000
232.32	-28.571
232.69	-100.000
233.07	-285.714
233.44	-700.000
233.81	-66.667
234.19	-100.000
234.56	-6.250
234.93	6.250
235.31	-128.571
235.68	-121.429
236.05	-17.647
236.43	-45.455
236.80	-12.903
237.17	-29.167
237.55	-66.667
237.92	-27.273
238.29	-5.714
238.67	-5.882
239.04	36.111
239.41	-19.355
239.79	-33.333
240.16	-11.905
240.53	-34.545
240.91	20.513
241.28	-3.636
241.65	15.385
242.02	1.639
242.40	-9.836
242.77	-13.636
243.14	-6.780
243.51	-10.000
243.89	-13.924
244.26	5.618
244.63	2.105
245.00	5.263
245.38	11.017
245.75	8.850
246.12	5.600
246.49	7.087
246.87	4.065
247.24	5.085
247.61	-2.542
247.98	6.338
248.36	4.895
248.73	7.595
249.10	3.185
249.47	4.094
249.84	10.795
250.22	4.167
250.59	11.864
250.96	10.995
251.33	8.531
251.70	15.865
252.08	7.109
252.45	9.005
252.82	11.905
253.19	16.170
253.56	8.468
253.94	10.127
254.31	12.876
254.68	11.789
255.05	10.887
255.42	12.698
255.79	11.470
256.16	14.902
256.54	9.559
256.91	10.606
257.28	8.059
257.65	14.184
258.02	17.296
258.39	13.712
258.76	9.797
259.14	11.728
259.51	13.443
259.88	14.329
260.25	13.043
260.62	13.183
260.99	12.760
261.36	13.110
261.73	16.474
262.10	12.222
262.47	17.094
262.85	13.714
263.22	13.754
263.59	12.000
263.96	12.464
264.33	11.111
264.70	13.260
265.07	12.637
265.44	11.370
265.81	13.437
266.18	8.354
266.55	12.990
266.92	14.861
267.29	11.138
267.66	11.358
268.03	15.942
268.40	14.085
268.77	13.976
269.14	11.137
269.51	14.253
269.88	11.927
270.25	12.121
270.62	14.416
270.99	11.036
271.36	11.888
271.73	13.229
272.10	12.357
272.47	12.667
272.84	15.556
273.21	14.679
273.58	13.407
273.95	12.500
274.32	13.575
274.69	13.567
275.06	14.315
275.43	12.054
275.80	15.479
276.17	10.460
276.54	13.442
276.91	12.346
277.28	14.807
277.65	13.843
278.02	14.196
278.39	13.360
278.76	13.944
279.13	12.451
279.50	13.718
279.87	11.628
280.23	14.980
280.60	14.115
280.97	12.039
281.34	12.959
281.71	14.038
282.08	14.113
282.45	10.794
282.82	13.372
283.19	12.909
283.56	13.919
283.92	13.604
284.29	12.639
284.66	12.230
285.03	13.904
285.40	12.731
285.77	14.561
286.14	12.996
286.51	11.190
286.87	13.430
287.24	13.481
287.61	13.388
287.98	13.172
288.35	11.405
288.72	11.885
289.08	11.525
289.45	11.279
289.82	10.208
290.19	11.823
290.56	9.752
290.93	12.083
291.29	12.318
291.66	10.628
292.03	11.931
292.40	11.295
292.77	11.801
293.13	12.683
293.50	11.738
293.87	12.117
294.24	10.256
294.60	8.939
294.97	13.050
295.34	10.815
295.71	11.310
296.08	8.756
296.44	11.016
296.81	10.399
297.18	10.000
297.55	12.006
297.91	12.552
298.28	9.041
298.65	9.344
299.02	11.898
299.38	11.898
299.75	10.870
300.12	10.128
300.48	10.614
300.85	10.092
301.22	10.867
301.59	8.713
301.95	12.217
302.32	8.083
302.69	10.037
303.05	10.134
303.42	9.500
303.79	10.885
304.15	9.953
304.52	9.218
304.89	9.917
305.25	11.844
305.62	9.753
305.99	10.130
306.35	11.987
306.72	9.453
307.09	11.351
307.45	9.989
307.82	9.832
308.19	9.955
308.55	11.002
308.92	10.634
309.29	9.081
309.65	9.968
310.02	10.907
310.38	10.486
310.75	11.270
311.12	11.157
311.48	11.587
311.85	10.608
312.22	13.079
312.58	11.699
312.95	11.519
313.31	11.289
313.68	11.960
314.05	12.364
314.41	11.469
314.78	11.688
315.14	14.413
315.51	13.171
315.87	13.746
316.24	13.508
316.61	13.820
316.97	14.925
317.34	13.873
317.70	13.729
318.07	14.739
318.43	14.513
318.80	17.371
319.16	15.666
319.53	15.977
319.89	17.027
320.26	17.451
320.62	17.596
320.99	18.109
321.35	17.833
321.72	17.503
322.08	20.277
322.45	18.812
322.81	19.500
323.18	20.557
323.54	19.963
323.91	20.760
324.27	21.673
324.64	23.218
325.00	23.298
325.37	23.439
325.73	24.759
326.10	22.409
326.46	24.781
326.83	25.872
327.19	26.355
327.56	27.768
327.92	26.763
328.29	28.658
328.65	28.273
329.01	28.710
329.38	29.795
329.74	32.326
330.11	30.734
330.47	32.243
330.84	32.997
331.20	32.671
331.56	32.817
331.93	34.281
332.29	35.525
332.66	35.470
333.02	36.833
333.38	37.455
333.75	37.934
334.11	37.067
334.48	37.599
334.84	38.320
335.20	38.830
335.57	38.718
335.93	41.540
336.29	39.858
336.66	40.088
337.02	41.261
337.38	39.929
337.75	40.299
338.11	42.487
338.47	42.972
338.84	43.103
339.20	41.301
339.56	43.316
339.93	43.122
340.29	42.073
340.65	42.220
341.02	41.737
341.38	43.134
341.74	41.914
342.11	43.259
342.47	43.948
342.83	44.500
343.20	44.833
343.56	43.020
343.92	43.740
344.28	44.491
344.65	42.657
345.01	45.210
345.37	43.937
345.73	42.635
346.10	42.437
346.46	43.704
346.82	44.026
347.19	44.043
347.55	45.345
347.91	45.276
348.27	45.107
348.63	44.750
349.00	45.028
349.36	44.106
349.72	45.541
350.08	45.870
350.45	44.287
350.81	46.019
351.17	46.141
351.53	46.460
351.89	45.109
352.26	45.039
352.62	46.160
352.98	45.570
353.34	44.684
353.70	44.865
354.07	45.869
354.43	46.957
354.79	46.355
355.15	46.645
355.51	46.250
355.87	48.063
356.24	45.989
356.60	47.462
356.96	47.498
357.32	47.110
357.68	46.590
358.04	46.728
358.40	46.790
358.77	46.909
359.13	47.437
359.49	46.561
359.85	47.027
360.21	48.478
360.57	47.139
360.93	49.185
361.29	48.281
361.66	47.637
362.02	47.929
362.38	48.716
362.74	49.011
363.10	46.413
363.46	48.006
363.82	47.157
364.18	48.770
364.54	48.463
364.90	48.987
365.26	50.214
365.62	51.033
365.98	49.004
366.35	48.451
366.71	49.049
367.07	51.023
367.43	50.240
367.79	50.241
368.15	50.142
368.51	50.839
368.87	51.442
369.23	49.263
369.59	50.000
369.95	50.881
370.31	51.406
370.67	50.325
371.03	50.510
371.39	50.636
371.75	52.217
372.11	52.080
372.47	52.567
372.83	53.199
373.19	51.643
373.55	51.865
373.91	53.201
374.27	51.882
374.63	51.346
374.99	54.242
375.35	52.557
375.71	53.410
376.07	53.730
376.42	52.053
376.78	52.353
377.14	52.881
377.50	54.739
377.86	52.406
378.22	53.455
378.58	54.231
378.94	53.021
379.30	54.052
379.66	54.098
380.02	53.298
380.38	55.347
380.74	53.751
381.09	53.896
381.45	54.893
381.81	54.325
382.17	54.950
382.53	54.225
382.89	55.443
383.25	55.148
383.61	55.601
383.97	56.093
384.32	57.760
384.68	56.892
385.04	56.884
385.40	56.239
385.76	55.854
386.12	56.777
386.48	56.869
386.83	56.871
387.19	56.485
387.55	57.601
387.91	57.854
388.27	56.454
388.62	56.430
388.98	58.510
389.34	56.732
389.70	57.430
390.06	56.246
390.42	58.910
390.77	58.423
391.13	59.130
391.49	58.203
391.85	57.793
392.20	57.282
392.56	57.117
392.92	58.471
393.28	58.037
393.64	60.433
393.99	59.138
394.35	59.185
394.71	57.999
395.07	58.694
395.42	57.986
395.78	58.517
396.14	60.125
396.50	58.532
396.85	58.606
397.21	58.262
397.57	58.237
397.92	58.841
398.28	59.611
398.64	59.012
399.00	60.449
399.35	59.357
399.71	60.801
400.07	59.821
400.42	60.523
400.78	58.676
401.14	59.880
401.49	58.844
401.85	61.074
402.21	60.429
402.57	60.316
402.92	60.478
403.28	58.517
403.63	57.939
403.99	59.664
404.35	60.447
404.70	59.333
405.06	59.746
405.42	60.086
405.77	59.050
406.13	59.284
406.49	61.055
406.84	60.168
407.20	60.542
407.55	59.975
407.91	58.484
408.27	60.233
408.62	59.771
408.98	60.279
409.34	60.451
409.69	59.357
410.05	59.369
410.40	60.699
410.76	60.759
411.11	61.222
411.47	60.678
411.83	60.941
412.18	60.334
412.54	59.121
412.89	60.328
413.25	59.563
413.60	60.814
413.96	61.060
414.31	60.550
414.67	59.937
415.03	60.220
415.38	61.158
415.74	60.438
416.09	60.230
416.45	60.185
416.80	60.923
417.16	60.797
417.51	62.508
417.87	61.424
418.22	61.504
418.58	61.297
418.93	61.189
419.29	62.171
419.64	61.307
420.00	62.576
420.35	62.567
420.71	61.405
421.06	61.479
421.42	62.763
421.77	61.753
422.12	62.675
422.48	62.159
422.83	61.902
423.19	63.586
423.54	63.055
423.90	61.828
424.25	61.765
424.61	63.510
424.96	63.546
425.31	62.996
425.67	62.980
426.02	62.536
426.38	64.186
426.73	63.705
427.09	63.419
427.44	62.841
427.79	64.767
428.15	64.273
428.50	64.868
428.85	65.588
429.21	63.531
429.56	64.427
429.92	63.677
430.27	63.310
430.62	64.786
430.98	64.088
431.33	65.101
431.68	65.416
432.04	64.969
432.39	65.413
432.74	65.468
433.10	65.560
433.45	64.824
433.80	66.237
434.16	66.308
434.51	66.630
434.86	67.721
435.22	66.370
435.57	66.218
435.92	65.768
436.28	67.300
436.63	66.478
436.98	66.094
437.34	66.155
437.69	66.861
438.04	66.761
438.39	67.509
438.75	66.647
439.10	66.963
439.45	66.989
439.81	67.470
440.16	66.440
440.51	67.824
440.86	67.727
441.22	67.938
441.57	66.737
441.92	68.645
442.27	67.154
442.63	68.079
442.98	67.043
443.33	69.028
443.68	68.421
444.03	68.713
444.39	68.918
444.74	68.888
445.09	68.037
445.44	69.668
445.79	69.097
446.15	69.113
446.50	68.318
446.85	68.753
447.20	68.284
447.55	68.398
447.91	71.028
448.26	67.263
448.61	68.930
448.96	69.580
449.31	69.786
449.66	70.063
450.02	69.086
450.37	70.145
450.72	69.774
451.07	71.213
451.42	69.827
451.77	70.257
452.12	70.858
452.47	70.151
452.83	70.239
453.18	71.347
453.53	70.025
453.88	72.428
454.23	70.375
454.58	72.530
454.93	70.718
455.28	71.638
455.63	71.560
455.98	71.928
456.34	72.236
456.69	72.483
457.04	71.481
457.39	71.112
457.74	72.120
458.09	71.462
458.44	72.806
458.79	71.749
459.14	72.504
459.49	71.226
459.84	71.501
460.19	71.599
460.54	72.232
460.89	71.693
461.24	71.403
461.59	72.450
461.94	73.647
462.29	72.960
462.64	73.320
462.99	74.230
463.34	72.519
463.69	72.964
464.04	71.002
464.39	72.103
464.74	73.050
465.09	72.159
465.44	73.040
465.79	73.209
466.14	73.705
466.49	73.230
466.84	72.989
467.19	73.067
467.54	73.987
467.89	73.613
468.24	73.872
468.59	73.704
468.94	74.791
469.29	74.139
469.64	73.315
469.99	75.354
470.34	75.418
470.68	75.291
471.03	74.742
471.38	73.958
471.73	78.042
472.08	75.502
472.43	74.968
472.78	75.933
473.13	75.812
473.48	76.516
473.83	75.000
474.17	76.051
474.52	77.621
474.87	74.825
475.22	73.097
475.57	76.000
475.92	75.378
476.27	75.486
476.61	76.113
476.96	75.964
477.31	77.018
477.66	76.204
478.01	77.093
478.36	74.804
478.70	76.028
479.05	76.474
479.40	76.010
479.75	75.790
480.10	76.339
480.45	75.822
480.79	77.246
481.14	78.726
481.49	77.299
481.84	76.560
482.19	76.884
482.53	77.367
482.88	75.415
483.23	76.620
483.58	77.613
483.92	77.210
484.27	75.676
484.62	75.810
484.97	75.877
485.31	72.384
485.66	71.687
486.01	71.618
486.36	73.546
486.70	75.842
487.05	74.824
487.40	74.973
487.75	74.116
488.09	75.417
488.44	76.590
488.79	75.310
489.13	77.254
489.48	77.569
489.83	79.345
490.17	76.317
490.52	79.303
490.87	78.430
491.22	79.776
491.56	77.593
491.91	80.010
492.26	79.104
492.60	79.829
492.95	79.058
493.30	78.942
493.64	78.749
493.99	80.449
494.34	80.571
494.68	81.929
495.03	79.398
495.37	81.908
495.72	81.729
496.07	81.089
496.41	80.824
496.76	80.959
497.11	81.959
497.45	81.082
497.80	80.390
498.14	81.483
498.49	81.065
498.84	80.388
499.18	82.115
499.53	82.270
499.87	82.143
500.22	82.157
500.56	82.291
500.91	82.365
501.26	82.678
501.60	82.138
501.95	83.816
502.29	82.097
502.64	82.933
502.98	81.744
503.33	82.049
503.67	82.088
504.02	83.003
504.36	84.363
504.71	83.891
505.06	83.575
505.40	83.533
505.75	84.045
506.09	83.569
506.44	84.311
506.78	83.944
507.13	83.728
507.47	85.498
507.82	84.874
508.16	84.508
508.51	84.338
508.85	84.576
509.19	85.610
509.54	85.042
509.88	87.128
510.23	84.958
510.57	84.868
510.92	86.412
511.26	85.061
511.61	86.285
511.95	84.321
512.30	87.301
512.64	87.201
512.98	87.734
513.33	86.601
513.67	87.102
514.02	86.298
514.36	87.202
514.70	87.946
515.05	88.508
515.39	86.736
515.74	88.714
516.08	88.415
516.42	87.195
516.77	89.024
517.11	87.471
517.46	90.670
517.80	89.832
518.14	89.493
518.49	90.078
518.83	88.249
519.17	89.520
519.52	87.854
519.86	89.367
520.20	91.076
520.55	91.015
520.89	90.920
521.23	89.805
521.58	89.718
521.92	92.084
522.26	90.286
522.61	90.875
522.95	91.130
523.29	90.408
523.64	90.256
523.98	91.789
524.32	90.949
524.66	89.689
525.01	91.201
525.35	92.204
525.69	91.542
526.04	91.514
526.38	92.680
526.72	90.868
527.06	92.904
527.41	91.815
527.75	92.277
528.09	92.257
528.43	92.787
528.78	89.447
529.12	93.086
529.46	93.363
529.80	92.382
530.15	91.951
530.49	92.561
530.83	93.189
531.17	92.862
531.51	92.029
531.86	91.047
532.20	93.455
532.54	93.048
532.88	92.095
533.22	91.979
533.57	92.820
533.91	91.011
534.25	91.326
534.59	92.192
534.93	90.230
535.27	91.630
535.62	93.350
535.96	92.178
536.30	92.997
536.64	93.559
536.98	95.904
537.32	94.264
537.66	92.125
538.01	93.402
538.35	93.716
538.69	93.182
539.03	91.875
539.37	92.881
539.71	91.861
540.05	94.517
540.39	93.767
540.73	94.817
541.07	94.945
541.42	93.180
541.76	91.894
542.10	93.788
542.44	93.271
542.78	93.216
543.12	94.569
543.46	93.082
543.80	91.639
544.14	92.680
544.48	93.963
544.82	93.843
545.16	93.427
545.50	91.925
545.84	92.837
546.18	93.967
546.52	94.239
546.86	95.299
547.20	95.921
547.54	92.562
547.88	93.165
548.22	92.136
548.56	92.051
548.90	91.375
549.24	93.903
549.58	94.072
549.92	95.548
550.26	95.087
550.60	92.817
550.94	95.985
551.28	96.388
551.62	94.978
551.96	95.586
552.30	92.474
552.64	95.285
552.98	95.585
553.32	96.392
553.66	97.549
554.00	96.944
554.34	96.390
554.68	95.322
555.02	94.211
555.36	93.674
555.69	94.628
556.03	96.070
556.37	96.515
556.71	96.492
557.05	97.931
557.39	94.655
557.73	97.082
558.07	100.075
558.41	97.083
558.75	97.719
559.08	96.965
559.42	98.775
559.76	97.316
560.10	97.315
560.44	96.171
560.78	96.381
561.12	96.894
561.45	96.781
561.79	97.561
562.13	94.741
562.47	95.238
562.81	95.969
563.15	95.871
563.48	97.581
563.82	96.552
564.16	95.740
564.50	97.245
564.84	95.172
565.17	95.690
565.51	94.720
565.85	99.459
566.19	96.640
566.52	96.347
566.86	95.702
567.20	95.884
567.54	94.448
567.88	92.462
568.21	94.799
568.55	92.736
568.89	91.849
569.23	91.115
569.56	89.660
569.90	89.575
570.24	89.590
570.57	87.417
570.91	87.623
571.25	88.813
571.59	88.323
571.92	86.310
572.26	86.339
572.60	86.534
572.93	86.435
573.27	85.823
573.61	85.231
573.95	85.205
574.28	85.060
574.62	85.765
574.96	84.397
575.29	84.350
575.63	85.108
575.97	85.194
576.30	85.119
576.64	85.222
576.98	83.503
577.31	85.340
577.65	83.807
577.98	84.223
578.32	84.277
578.66	84.214
578.99	84.500
579.33	84.602
579.67	84.935
580.00	84.722
580.34	84.956
580.67	85.021
581.01	82.884
581.35	84.410
581.68	83.511
582.02	84.065
582.35	83.551
582.69	84.745
583.02	86.870
583.36	85.558
583.70	85.074
584.03	86.395
584.37	86.225
584.70	85.752
585.04	85.772
585.37	84.487
585.71	84.083
586.04	86.044
586.38	87.169
586.72	86.415
587.05	87.086
587.39	87.326
587.72	86.302
588.06	87.538
588.39	87.069
588.73	86.934
589.06	88.587
589.40	88.629
589.73	89.023
590.07	88.201
590.40	88.118
590.73	90.964
591.07	89.590
591.40	91.551
591.74	90.487
592.07	90.135
592.41	90.149
592.74	89.739
593.08	89.633
593.41	88.191
593.75	88.164
594.08	90.654
594.41	90.758
594.75	89.656
595.08	90.038
595.42	90.535
595.75	88.497
596.09	89.367
596.42	91.694
596.75	90.987
597.09	91.719
597.42	91.314
597.75	91.408
598.09	91.776
598.42	90.809
598.76	90.615
599.09	88.003
599.42	89.773
599.76	89.845
600.09	91.183
600.42	90.429
600.76	89.831
601.09	91.113
601.42	90.582
601.76	89.174
602.09	90.716
602.42	91.111
602.76	90.860
603.09	91.653
603.42	91.861
603.76	90.746
604.09	90.789
604.42	91.007
604.76	91.496
605.09	93.083
605.42	93.218
605.75	92.842
606.09	91.905
606.42	92.208
606.75	90.597
607.09	91.972
607.42	92.518
607.75	93.377
608.08	91.414
608.42	94.182
608.75	91.121
609.08	93.863
609.41	93.274
609.75	92.296
610.08	94.853
610.41	92.434
610.74	93.230
611.07	93.966
611.41	93.596
611.74	93.162
612.07	95.918
612.40	94.350
612.73	93.430
613.07	94.221
613.40	95.512
613.73	95.749
614.06	95.167
614.39	97.520
614.72	94.078
615.06	94.891
615.39	94.628
615.72	95.329
616.05	94.257
616.38	96.808
616.71	97.297
617.05	95.356
617.38	96.966
617.71	97.113
618.04	97.391
618.37	98.239
618.70	99.674
619.03	98.646
619.36	99.084
619.69	100.072
620.03	99.380
620.36	100.141
620.69	101.579
621.02	101.598
621.35	102.984
621.68	102.869
622.01	103.479
622.34	101.475
622.67	100.391
623.00	100.918
623.33	100.448
623.66	98.818
623.99	100.677
624.32	100.372
624.65	99.706
624.99	101.419
625.32	100.973
625.65	102.253
625.98	100.156
626.31	103.589
626.64	104.435
626.97	104.366
627.30	103.745
627.63	104.231
627.96	103.307
628.29	109.283
628.62	106.399
628.95	106.890
629.28	105.545
629.61	107.949
629.94	106.427
630.26	109.841
630.59	108.241
630.92	106.807
631.25	108.065
631.58	109.312
