SpectraSuite Data File
++++++++++++++++++++++++++++++++++++
Date: Sat May 16 11:13:53 PDT 2015
User: schluterlab
Dark Spectrum Present: Yes
Reference Spectrum Present: Yes
Number of Sampled Component Spectra: 1
Spectrometers: USB2E3373
Integration Time (usec): 3000 (USB2E3373)
Spectra Averaged: 3 (USB2E3373)
Boxcar Smoothing: 0 (USB2E3373)
Correct for Electrical Dark: No (USB2E3373)
Strobe/Lamp Enabled: No (USB2E3373)
Correct for Detector Non-linearity: No (USB2E3373)
Correct for Stray Light: No (USB2E3373)
Number of Pixels in Processed Spectrum: 2048
>>>>>Begin Processed Spectral Data<<<<<
178.53	0.000
178.91	80.000
179.29	166.667
179.67	-800.000
180.04	7.692
180.42	-800.000
180.80	475.000
181.18	250.000
181.56	25.000
181.94	1700.000
182.31	500.000
182.69	-15.385
183.07	100.000
183.45	1150.000
183.83	433.333
184.20	-71.429
184.58	-212.500
184.96	-100.000
185.34	50.000
185.72	-475.000
186.09	166.667
186.47	-137.500
186.85	-187.500
187.23	25.000
187.61	50.000
187.98	-100.000
188.36	75.000
188.74	-112.500
189.12	800.000
189.49	242.857
189.87	-41.667
190.25	150.000
190.63	28.571
191.00	-111.111
191.38	400.000
191.76	-20.000
192.14	300.000
192.51	-140.000
192.89	-266.667
193.27	0.000
193.65	-66.667
194.02	-14.286
194.40	500.000
194.78	-50.000
195.15	-600.000
195.53	-72.727
195.91	-383.333
196.29	120.000
196.66	-33.333
197.04	400.000
197.42	-25.000
197.79	-6.667
198.17	-100.000
198.55	-350.000
198.92	-900.000
199.30	87.500
199.68	-750.000
200.05	-22.222
200.43	-77.778
200.81	-600.000
201.18	-50.000
201.56	128.571
201.94	-60.000
202.31	50.000
202.69	30.000
203.07	70.000
203.44	266.667
203.82	-166.667
204.19	-150.000
204.57	250.000
204.95	-800.000
205.32	37.500
205.70	700.000
206.08	-1200.000
206.45	5.556
206.83	-550.000
207.20	400.000
207.58	-200.000
207.96	-233.333
208.33	-12.500
208.71	77.778
209.08	230.000
209.46	-114.286
209.84	400.000
210.21	0.000
210.59	100.000
210.96	900.000
211.34	-183.333
211.71	-233.333
212.09	300.000
212.46	700.000
212.84	-1700.000
213.22	366.667
213.59	16.667
213.97	33.333
214.34	150.000
214.72	20.000
215.09	-366.667
215.47	133.333
215.84	-50.000
216.22	30.000
216.59	26.667
216.97	-100.000
217.34	950.000
217.72	-28.571
218.09	-100.000
218.47	-57.143
218.84	-42.857
219.22	14.286
219.59	0.000
219.97	128.571
220.34	225.000
220.72	125.000
221.09	-30.769
221.47	0.000
221.84	300.000
222.22	-450.000
222.59	1400.000
222.97	-150.000
223.34	-400.000
223.72	-300.000
224.09	-35.714
224.46	-50.000
224.84	-7.143
225.21	-42.857
225.59	45.455
225.96	-212.500
226.34	-14.286
226.71	-77.778
227.08	60.000
227.46	2500.000
227.83	-157.143
228.21	-237.500
228.58	450.000
228.95	12.500
229.33	-1000.000
229.70	-80.000
230.08	-900.000
230.45	25.000
230.82	16.667
231.20	-600.000
231.57	-250.000
231.95	-100.000
232.32	9.524
232.69	-100.000
233.07	-85.714
233.44	-750.000
233.81	-26.667
234.19	-88.889
234.56	12.500
234.93	21.875
235.31	-85.714
235.68	-114.286
236.05	-17.647
236.43	-18.182
236.80	-29.032
237.17	25.000
237.55	-47.619
237.92	-50.000
238.29	0.000
238.67	2.941
239.04	13.889
239.41	3.226
239.79	-7.692
240.16	-2.381
240.53	-5.455
240.91	25.641
241.28	20.000
241.65	23.077
242.02	8.197
242.40	-11.475
242.77	21.212
243.14	20.339
243.51	15.714
243.89	10.127
244.26	5.618
244.63	9.474
245.00	16.842
245.38	21.186
245.75	15.044
246.12	4.800
246.49	25.197
246.87	13.821
247.24	5.085
247.61	14.407
247.98	7.042
248.36	19.580
248.73	17.089
249.10	16.561
249.47	15.205
249.84	18.182
250.22	6.548
250.59	16.384
250.96	14.660
251.33	17.536
251.70	14.423
252.08	11.848
252.45	16.588
252.82	14.762
253.19	18.298
253.56	16.532
253.94	16.456
254.31	17.167
254.68	11.382
255.05	11.290
255.42	13.889
255.79	14.337
256.16	13.725
256.54	16.176
256.91	13.636
257.28	8.791
257.65	13.121
258.02	16.667
258.39	18.395
258.76	9.459
259.14	16.975
259.51	19.016
259.88	17.073
260.25	13.665
260.62	13.826
260.99	13.056
261.36	14.939
261.73	16.474
262.10	15.000
262.47	16.239
262.85	17.143
263.22	13.754
263.59	12.000
263.96	17.101
264.33	14.363
264.70	15.193
265.07	15.659
265.44	14.729
265.81	15.504
266.18	11.139
266.55	13.971
266.92	17.128
267.29	16.949
267.66	12.593
268.03	16.667
268.40	15.962
268.77	16.386
269.14	14.385
269.51	17.011
269.88	11.697
270.25	15.152
270.62	14.874
270.99	14.640
271.36	17.249
271.73	16.368
272.10	15.103
272.47	12.444
272.84	16.000
273.21	14.450
273.58	15.165
273.95	12.719
274.32	16.742
274.69	15.317
275.06	15.746
275.43	13.839
275.80	15.275
276.17	15.481
276.54	16.497
276.91	16.667
277.28	15.416
277.65	15.289
278.02	14.196
278.39	16.306
278.76	18.327
279.13	13.636
279.50	16.103
279.87	16.068
280.23	16.397
280.60	14.115
280.97	14.951
281.34	15.087
281.71	17.115
282.08	15.927
282.45	14.053
282.82	16.085
283.19	16.000
283.56	18.132
283.92	14.841
284.29	14.312
284.66	15.288
285.03	16.399
285.40	15.683
285.77	16.667
286.14	15.523
286.51	15.453
286.87	13.430
287.24	15.700
287.61	17.355
287.98	14.731
288.35	13.884
288.72	13.922
289.08	13.898
289.45	13.131
289.82	12.457
290.19	16.092
290.56	12.397
290.93	12.560
291.29	15.235
291.66	13.366
292.03	14.914
292.40	13.253
292.77	15.062
293.13	13.496
293.50	13.819
293.87	13.804
294.24	14.630
294.60	12.424
294.97	14.871
295.34	15.111
295.71	14.732
296.08	12.289
296.44	12.446
296.81	13.390
297.18	13.239
297.55	14.124
297.91	14.923
298.28	12.466
298.65	13.668
299.02	14.305
299.38	14.572
299.75	12.500
300.12	15.256
300.48	14.450
300.85	12.451
301.22	14.101
301.59	13.784
301.95	14.106
302.32	12.256
302.69	13.341
303.05	13.187
303.42	13.625
303.79	13.995
304.15	14.336
304.52	13.186
304.89	13.459
305.25	13.675
305.62	12.221
305.99	14.488
306.35	13.541
306.72	12.415
307.09	14.983
307.45	14.642
307.82	14.525
308.19	13.087
308.55	15.033
308.92	13.104
309.29	13.514
309.65	13.680
310.02	13.067
310.38	13.946
310.75	14.344
311.12	13.946
311.48	13.779
311.85	13.903
312.22	13.285
312.58	16.175
312.95	14.169
313.31	14.486
313.68	15.980
314.05	16.024
314.41	15.191
314.78	13.487
315.14	15.499
315.51	14.691
315.87	15.973
316.24	15.549
316.61	16.027
316.97	16.517
317.34	16.378
317.70	15.955
318.07	16.138
318.43	16.199
318.80	18.216
319.16	16.510
319.53	17.575
319.89	16.463
320.26	17.059
320.62	16.058
320.99	16.020
321.35	15.862
321.72	17.093
322.08	17.705
322.45	17.525
322.81	19.020
323.18	18.060
323.54	19.316
323.91	17.794
324.27	18.631
324.64	18.007
325.00	18.150
325.37	18.190
325.73	19.160
326.10	18.601
326.46	18.651
326.83	18.298
327.19	19.349
327.56	20.869
327.92	18.946
328.29	20.519
328.65	18.818
329.01	18.816
329.38	18.733
329.74	20.055
330.11	19.674
330.47	20.618
330.84	21.357
331.20	20.307
331.56	19.781
331.93	20.693
332.29	19.543
332.66	19.842
333.02	20.633
333.38	19.355
333.75	19.412
334.11	20.000
334.48	20.918
334.84	20.910
335.20	18.972
335.57	19.765
335.93	21.397
336.29	19.309
336.66	20.088
337.02	21.081
337.38	20.856
337.75	20.105
338.11	20.751
338.47	20.907
338.84	21.416
339.20	18.805
339.56	20.766
339.93	19.136
340.29	20.461
340.65	19.930
341.02	20.236
341.38	20.809
341.74	20.491
342.11	20.051
342.47	20.000
342.83	18.976
343.20	19.898
343.56	19.673
343.92	20.033
344.28	21.278
344.65	19.059
345.01	19.328
345.37	19.767
345.73	18.985
346.10	17.907
346.46	19.090
346.82	18.524
347.19	20.214
347.55	20.225
347.91	19.685
348.27	19.014
348.63	20.113
349.00	20.446
349.36	18.345
349.72	20.621
350.08	19.727
350.45	18.125
350.81	19.984
351.17	19.373
351.53	18.377
351.89	19.725
352.26	20.775
352.62	20.814
352.98	18.987
353.34	18.705
353.70	18.764
354.07	20.142
354.43	19.842
354.79	20.761
355.15	19.010
355.51	19.922
355.87	18.814
356.24	19.222
356.60	19.259
356.96	20.400
357.32	19.240
357.68	19.464
358.04	18.707
358.40	19.180
358.77	19.165
359.13	19.893
359.49	19.350
359.85	19.512
360.21	19.559
360.57	19.729
360.93	20.148
361.29	20.030
361.66	19.665
362.02	19.675
362.38	20.103
362.74	19.414
363.10	19.225
363.46	19.729
363.82	19.752
364.18	20.622
364.54	20.086
364.90	19.357
365.26	19.116
365.62	19.815
365.98	20.128
366.35	19.718
366.71	19.380
367.07	19.760
367.43	20.247
367.79	20.000
368.15	19.203
368.51	20.699
368.87	20.261
369.23	20.281
369.59	20.139
369.95	20.507
370.31	19.972
370.67	19.884
371.03	21.064
371.39	20.368
371.75	20.172
372.11	21.019
372.47	19.740
372.83	20.376
373.19	21.000
373.55	20.830
373.91	20.910
374.27	20.055
374.63	20.704
374.99	20.793
375.35	21.736
375.71	21.202
376.07	21.697
376.42	20.132
376.78	21.373
377.14	21.085
377.50	21.212
377.86	21.782
378.22	21.734
378.58	21.865
378.94	21.270
379.30	21.816
379.66	21.797
380.02	21.272
380.38	21.873
380.74	21.747
381.09	22.437
381.45	21.539
381.81	21.416
382.17	21.491
382.53	21.884
382.89	21.292
383.25	22.216
383.61	22.229
383.97	23.209
384.32	22.403
384.68	23.035
385.04	21.558
385.40	22.215
385.76	22.561
386.12	22.986
386.48	23.144
386.83	22.086
387.19	23.132
387.55	21.744
387.91	22.170
388.27	22.256
388.62	21.935
388.98	22.350
389.34	23.072
389.70	21.803
390.06	22.250
390.42	23.013
390.77	22.587
391.13	23.354
391.49	23.269
391.85	23.317
392.20	22.633
392.56	22.114
392.92	22.875
393.28	23.134
393.64	22.850
393.99	23.508
394.35	22.689
394.71	23.410
395.07	23.729
395.42	23.063
395.78	22.564
396.14	23.801
396.50	22.752
396.85	22.949
397.21	23.086
397.57	23.222
397.92	22.424
398.28	22.667
398.64	23.438
399.00	23.483
399.35	22.773
399.71	23.345
400.07	24.000
400.42	23.905
400.78	22.600
401.14	23.054
401.49	22.700
401.85	23.795
402.21	23.421
402.57	22.694
402.92	22.970
403.28	23.162
403.63	22.588
403.99	23.120
404.35	21.981
404.70	23.288
405.06	24.164
405.42	22.817
405.77	23.020
406.13	21.976
406.49	23.607
406.84	22.975
407.20	23.322
407.55	22.989
407.91	23.575
408.27	23.407
408.62	23.632
408.98	22.984
409.34	22.669
409.69	22.936
410.05	22.741
410.40	22.624
410.76	22.584
411.11	22.693
411.47	23.913
411.83	23.044
412.18	23.700
412.54	22.575
412.89	23.147
413.25	22.432
413.60	22.479
413.96	22.612
414.31	24.037
414.67	22.603
415.03	23.803
415.38	22.902
415.74	23.518
416.09	23.402
416.45	22.288
416.80	24.187
417.16	22.924
417.51	23.769
417.87	22.395
418.22	23.009
418.58	23.427
418.93	23.421
419.29	23.588
419.64	22.173
420.00	24.787
420.35	23.714
420.71	23.589
421.06	23.787
421.42	22.834
421.77	23.171
422.12	23.951
422.48	23.303
422.83	22.380
423.19	22.996
423.54	23.343
423.90	23.829
424.25	23.020
424.61	24.005
424.96	24.342
425.31	23.812
425.67	23.725
426.02	23.293
426.38	23.412
426.73	23.027
427.09	24.571
427.44	23.466
427.79	23.140
428.15	24.357
428.50	23.988
428.85	23.741
429.21	23.575
429.56	23.698
429.92	23.898
430.27	23.480
430.62	24.399
430.98	24.307
431.33	23.533
431.68	24.129
432.04	24.175
432.39	24.274
432.74	23.741
433.10	24.592
433.45	23.949
433.80	23.684
434.16	23.751
434.51	24.548
434.86	24.136
435.22	23.831
435.57	23.745
435.92	25.029
436.28	23.917
436.63	23.968
436.98	23.482
437.34	24.099
437.69	24.271
438.04	24.107
438.39	24.248
438.75	23.632
439.10	24.320
439.45	23.416
439.81	24.940
440.16	24.759
440.51	24.529
440.86	24.349
441.22	24.323
441.57	24.474
441.92	24.655
442.27	23.647
442.63	24.785
442.98	24.097
443.33	24.712
443.68	24.023
444.03	24.705
444.39	24.082
444.74	25.165
445.09	24.452
445.44	25.042
445.79	24.324
446.15	24.808
446.50	23.789
446.85	24.115
447.20	24.157
447.55	24.309
447.91	24.424
448.26	24.637
448.61	24.052
448.96	24.314
449.31	24.126
449.66	24.442
450.02	24.654
450.37	23.768
450.72	23.842
451.07	25.016
451.42	24.721
451.77	23.998
452.12	24.732
452.47	24.811
452.83	24.461
453.18	24.352
453.53	23.570
453.88	25.478
454.23	23.700
454.58	24.922
454.93	24.937
455.28	24.156
455.63	24.447
455.98	24.398
456.34	23.698
456.69	25.203
457.04	24.585
457.39	23.565
457.74	24.572
458.09	25.522
458.44	25.346
458.79	23.823
459.14	25.499
459.49	24.985
459.84	24.340
460.19	24.463
460.54	24.198
460.89	25.056
461.24	24.408
461.59	24.443
461.94	26.098
462.29	24.598
462.64	24.572
462.99	24.766
463.34	25.118
463.69	25.382
464.04	24.136
464.39	24.791
464.74	24.468
465.09	23.873
465.44	24.591
465.79	24.647
466.14	25.374
466.49	24.352
466.84	25.210
467.19	24.439
467.54	24.873
467.89	23.983
468.24	23.694
468.59	24.610
468.94	24.887
469.29	24.561
469.64	24.326
469.99	25.928
470.34	24.716
470.68	24.927
471.03	24.363
471.38	24.514
471.73	25.594
472.08	24.565
472.43	23.102
472.78	24.467
473.13	23.923
473.48	24.378
473.83	24.628
474.17	25.287
474.52	26.087
474.87	24.825
475.22	24.720
475.57	24.500
475.92	25.162
476.27	24.629
476.61	24.620
476.96	25.433
477.31	25.619
477.66	24.848
478.01	25.122
478.36	24.201
478.70	24.987
479.05	25.257
479.40	25.078
479.75	24.771
480.10	24.603
480.45	23.356
480.79	25.025
481.14	25.038
481.49	25.121
481.84	24.226
482.19	24.029
482.53	25.000
482.88	24.347
483.23	24.413
483.58	25.856
483.92	24.462
484.27	24.280
484.62	24.104
484.97	24.006
485.31	23.840
485.66	23.155
486.01	23.051
486.36	24.024
486.70	24.918
487.05	24.301
487.40	24.733
487.75	24.284
488.09	24.182
488.44	24.357
488.79	25.009
489.13	24.762
489.48	24.429
489.83	24.585
490.17	23.640
490.52	24.366
490.87	24.249
491.22	24.334
491.56	24.028
491.91	24.380
492.26	24.858
492.60	24.167
492.95	24.941
493.30	24.535
493.64	23.789
493.99	24.426
494.34	24.905
494.68	24.204
495.03	24.187
495.37	24.189
495.72	24.509
496.07	24.730
496.41	25.197
496.76	24.749
497.11	24.070
497.45	25.000
497.80	24.912
498.14	24.165
498.49	24.460
498.84	24.272
499.18	24.708
499.53	24.890
499.87	24.566
500.22	25.000
500.56	25.363
500.91	24.384
501.26	24.988
501.60	24.314
501.95	24.396
502.29	24.941
502.64	24.752
502.98	24.197
503.33	24.906
503.67	23.994
504.02	24.674
504.36	24.069
504.71	24.823
505.06	25.262
505.40	24.850
505.75	24.746
506.09	25.177
506.44	24.762
506.78	24.787
507.13	24.202
507.47	25.561
507.82	25.194
508.16	25.181
508.51	24.472
508.85	24.845
509.19	24.751
509.54	24.630
509.88	25.479
510.23	25.367
510.57	25.979
510.92	25.940
511.26	25.306
511.61	24.622
511.95	25.162
512.30	25.179
512.64	24.485
512.98	25.798
513.33	25.920
513.67	25.963
514.02	25.783
514.36	26.094
514.70	26.203
515.05	25.500
515.39	26.932
515.74	26.818
516.08	25.937
516.42	26.289
516.77	27.441
517.11	25.915
517.46	27.333
517.80	27.196
518.14	25.845
518.49	26.479
518.83	26.291
519.17	26.584
519.52	25.911
519.86	27.718
520.20	27.445
520.55	27.323
520.89	25.986
521.23	27.106
521.58	27.273
521.92	27.549
522.26	27.873
522.61	26.933
522.95	26.803
523.29	28.339
523.64	27.670
523.98	28.071
524.32	28.033
524.66	26.149
525.01	26.846
525.35	27.255
525.69	27.846
526.04	28.590
526.38	28.135
526.72	27.267
527.06	27.865
527.41	27.195
527.75	27.261
528.09	28.127
528.43	27.607
528.78	28.392
529.12	28.425
529.46	27.964
529.80	27.824
530.15	27.173
530.49	27.555
530.83	29.601
531.17	28.350
531.51	27.997
531.86	27.913
532.20	28.880
532.54	28.409
532.88	27.668
533.22	28.476
533.57	29.112
533.91	27.216
534.25	27.970
534.59	27.233
534.93	27.754
535.27	28.949
535.62	28.645
535.96	27.860
536.30	27.487
536.64	28.353
536.98	29.096
537.32	28.542
537.66	29.192
538.01	28.041
538.35	28.176
538.69	27.741
539.03	27.962
539.37	28.011
539.71	28.286
540.05	28.718
540.39	27.770
540.73	28.611
541.07	28.620
541.42	28.089
541.76	27.575
542.10	29.102
542.44	29.580
542.78	28.494
543.12	28.988
543.46	27.671
543.80	28.361
544.14	28.543
544.48	29.331
544.82	28.823
545.16	28.706
545.50	28.062
545.84	28.860
546.18	29.126
546.52	28.165
546.86	29.060
547.20	29.395
547.54	28.512
547.88	28.467
548.22	27.916
548.56	28.724
548.90	28.302
549.24	28.802
549.58	28.723
549.92	28.127
550.26	29.118
550.60	27.952
550.94	28.248
551.28	29.646
551.62	28.213
551.96	29.088
552.30	28.571
552.64	28.220
552.98	29.362
553.32	27.922
553.66	29.560
554.00	28.785
554.34	28.159
554.68	29.386
555.02	29.812
555.36	28.756
555.69	28.080
556.03	28.351
556.37	28.236
556.71	29.062
557.05	29.564
557.39	28.359
557.73	29.759
558.07	29.013
558.41	27.674
558.75	28.137
559.08	28.249
559.42	29.326
559.76	28.758
560.10	29.903
560.44	28.829
560.78	27.697
561.12	28.226
561.45	30.342
561.79	29.617
562.13	28.401
562.47	28.852
562.81	28.501
563.15	29.321
563.48	28.887
563.82	28.465
564.16	28.398
564.50	28.696
564.84	28.571
565.17	28.117
565.51	28.292
565.85	28.736
566.19	28.590
566.52	28.702
566.86	27.813
567.20	29.177
567.54	29.179
567.88	28.085
568.21	27.573
568.55	28.526
568.89	27.734
569.23	28.459
569.56	27.701
569.90	28.009
570.24	28.072
570.57	27.100
570.91	27.644
571.25	27.075
571.59	27.786
571.92	26.429
572.26	26.842
572.60	27.149
572.93	27.284
573.27	27.226
573.61	26.642
573.95	26.823
574.28	27.162
574.62	27.351
574.96	26.745
575.29	26.956
575.63	27.051
575.97	27.104
576.30	26.857
576.64	27.363
576.98	26.798
577.31	26.365
577.65	27.220
577.98	27.278
578.32	26.394
578.66	26.796
578.99	26.869
579.33	26.853
579.67	26.452
580.00	26.835
580.34	26.957
580.67	26.992
581.01	26.211
581.35	27.120
581.68	26.508
582.02	26.639
582.35	26.610
582.69	27.068
583.02	27.454
583.36	26.930
583.70	27.061
584.03	28.260
584.37	27.794
584.70	27.201
585.04	26.886
585.37	26.730
585.71	27.286
586.04	27.102
586.38	26.784
586.72	26.917
587.05	27.556
587.39	26.960
587.72	26.971
588.06	26.933
588.39	27.200
588.73	26.916
589.06	27.685
589.40	27.722
589.73	27.514
590.07	26.912
590.40	27.528
590.73	28.389
591.07	27.992
591.40	28.813
591.74	28.149
592.07	28.198
592.41	28.280
592.74	28.094
593.08	27.566
593.41	27.566
593.75	27.201
594.08	27.426
594.41	27.726
594.75	27.746
595.08	27.669
595.42	27.818
595.75	27.600
596.09	28.366
596.42	28.437
596.75	27.727
597.09	28.896
597.42	28.110
597.75	28.565
598.09	28.739
598.42	27.707
598.76	27.450
599.09	27.111
599.42	27.874
599.76	27.746
600.09	28.053
600.42	28.067
600.76	27.345
601.09	27.839
601.42	27.938
601.76	27.882
602.09	27.689
602.42	28.025
602.76	27.960
603.09	27.944
603.42	28.525
603.76	28.241
604.09	27.633
604.42	27.685
604.76	28.129
605.09	27.893
605.42	28.191
605.75	27.727
606.09	27.937
606.42	29.158
606.75	27.007
607.09	28.937
607.42	28.785
607.75	27.991
608.08	28.197
608.42	28.477
608.75	27.850
609.08	28.397
609.41	28.102
609.75	27.157
610.08	28.971
610.41	28.578
610.74	29.014
611.07	28.550
611.41	27.584
611.74	29.152
612.07	28.679
612.40	28.198
612.73	28.918
613.07	27.848
613.40	28.626
613.73	29.101
614.06	28.720
614.39	29.651
614.72	27.877
615.06	28.098
615.39	27.509
615.72	28.734
616.05	27.664
616.38	29.832
616.71	29.069
617.05	29.011
617.38	29.536
617.71	27.826
618.04	29.627
618.37	29.623
618.70	29.531
619.03	27.962
619.36	30.162
619.69	30.007
620.03	29.408
620.36	28.481
620.69	29.935
621.02	29.528
621.35	30.403
621.68	29.098
622.01	29.773
622.34	28.960
622.67	29.375
623.00	29.304
623.33	30.075
623.66	28.582
623.99	30.226
624.32	27.902
624.65	28.403
624.99	29.276
625.32	28.967
625.65	29.837
625.98	29.108
626.31	28.956
626.64	29.456
626.97	30.223
627.30	30.468
627.63	29.275
627.96	30.026
628.29	30.607
628.62	29.417
628.95	29.823
629.28	30.827
629.61	30.815
629.94	30.151
630.26	30.517
630.59	30.050
630.92	30.631
631.25	30.242
631.58	30.582
631.91	29.574
632.24	31.000
632.57	30.000
632.90	31.839
