SpectraSuite Data File
++++++++++++++++++++++++++++++++++++
Date: Sat May 16 11:43:23 PDT 2015
User: schluterlab
Dark Spectrum Present: Yes
Reference Spectrum Present: Yes
Number of Sampled Component Spectra: 1
Spectrometers: USB2E3373
Integration Time (usec): 3000 (USB2E3373)
Spectra Averaged: 3 (USB2E3373)
Boxcar Smoothing: 0 (USB2E3373)
Correct for Electrical Dark: No (USB2E3373)
Strobe/Lamp Enabled: No (USB2E3373)
Correct for Detector Non-linearity: No (USB2E3373)
Correct for Stray Light: No (USB2E3373)
Number of Pixels in Processed Spectrum: 2048
>>>>>Begin Processed Spectral Data<<<<<
178.53	0.000
178.91	180.000
179.29	233.333
179.67	-2000.000
180.04	-46.154
180.42	800.000
180.80	325.000
181.18	300.000
181.56	-125.000
181.94	1100.000
182.31	475.000
182.69	46.154
183.07	-700.000
183.45	1100.000
183.83	466.667
184.20	-228.571
184.58	-62.500
184.96	-250.000
185.34	168.750
185.72	-600.000
186.09	216.667
186.47	-162.500
186.85	-100.000
187.23	-100.000
187.61	-425.000
187.98	-237.500
188.36	-200.000
188.74	-200.000
189.12	2000.000
189.49	371.429
189.87	-41.667
190.25	325.000
190.63	7.143
191.00	-133.333
191.38	640.000
191.76	13.333
192.14	540.000
192.51	-180.000
192.89	-166.667
193.27	0.000
193.65	-188.889
194.02	-314.286
194.40	700.000
194.78	-50.000
195.15	-1000.000
195.53	-118.182
195.91	-500.000
196.29	360.000
196.66	-866.667
197.04	2600.000
197.42	-275.000
197.79	-33.333
198.17	-100.000
198.55	-950.000
198.92	-1300.000
199.30	262.500
199.68	-700.000
200.05	-188.889
200.43	-211.111
200.81	-1800.000
201.18	-175.000
201.56	114.286
201.94	-60.000
202.31	13.636
202.69	-70.000
203.07	-10.000
203.44	433.333
203.82	-316.667
204.19	-525.000
204.57	-300.000
204.95	-1600.000
205.32	-18.750
205.70	1500.000
206.08	-1400.000
206.45	-27.778
206.83	-1250.000
207.20	-200.000
207.58	-766.667
207.96	-566.667
208.33	-87.500
208.71	-66.667
209.08	270.000
209.46	-328.571
209.84	1100.000
210.21	0.000
210.59	30.000
210.96	1000.000
211.34	-283.333
211.71	-466.667
212.09	300.000
212.46	700.000
212.84	-2700.000
213.22	666.667
213.59	183.333
213.97	-88.889
214.34	100.000
214.72	-100.000
215.09	-166.667
215.47	-400.000
215.84	-120.000
216.22	-70.000
216.59	-33.333
216.97	-400.000
217.34	1250.000
217.72	-257.143
218.09	-166.667
218.47	-200.000
218.84	185.714
219.22	-42.857
219.59	0.000
219.97	385.714
220.34	600.000
220.72	275.000
221.09	-76.923
221.47	0.000
221.84	600.000
222.22	-600.000
222.59	2100.000
222.97	-162.500
223.34	-550.000
223.72	-633.333
224.09	-78.571
224.46	-500.000
224.84	-85.714
225.21	-242.857
225.59	-127.273
225.96	-87.500
226.34	-157.143
226.71	-211.111
227.08	-10.000
227.46	1400.000
227.83	-100.000
228.21	-187.500
228.58	550.000
228.95	-12.500
229.33	-1000.000
229.70	-340.000
230.08	-850.000
230.45	-58.333
230.82	-166.667
231.20	-1200.000
231.57	-450.000
231.95	1400.000
232.32	-14.286
232.69	-133.333
233.07	-257.143
233.44	-850.000
233.81	0.000
234.19	-44.444
234.56	-87.500
234.93	-12.500
235.31	-300.000
235.68	-107.143
236.05	-76.471
236.43	-18.182
236.80	-9.677
237.17	16.667
237.55	-38.095
237.92	-4.545
238.29	17.143
238.67	35.294
239.04	30.556
239.41	22.581
239.79	-17.949
240.16	-14.286
240.53	9.091
240.91	53.846
241.28	34.545
241.65	41.538
242.02	19.672
242.40	31.148
242.77	22.727
243.14	42.373
243.51	24.286
243.89	29.114
244.26	38.202
244.63	38.947
245.00	38.947
245.38	39.831
245.75	49.558
246.12	39.200
246.49	44.882
246.87	42.276
247.24	37.288
247.61	40.678
247.98	40.141
248.36	39.161
248.73	50.633
249.10	42.038
249.47	45.029
249.84	44.318
250.22	48.810
250.59	44.068
250.96	42.932
251.33	40.758
251.70	46.635
252.08	45.498
252.45	37.441
252.82	48.571
253.19	44.681
253.56	44.758
253.94	45.570
254.31	40.773
254.68	50.813
255.05	45.161
255.42	49.603
255.79	44.086
256.16	47.451
256.54	45.221
256.91	48.864
257.28	45.788
257.65	43.972
258.02	44.969
258.39	47.492
258.76	43.919
259.14	43.827
259.51	49.836
259.88	49.085
260.25	50.621
260.62	49.196
260.99	45.994
261.36	48.780
261.73	50.000
262.10	48.056
262.47	46.724
262.85	51.143
263.22	48.711
263.59	48.308
263.96	49.565
264.33	47.967
264.70	48.343
265.07	49.451
265.44	46.512
265.81	45.220
266.18	45.823
266.55	46.814
266.92	52.645
267.29	48.910
267.66	49.383
268.03	46.377
268.40	46.009
268.77	47.952
269.14	43.852
269.51	48.046
269.88	44.266
270.25	45.221
270.62	47.368
270.99	46.622
271.36	47.319
271.73	45.964
272.10	45.995
272.47	45.111
272.84	47.556
273.21	48.394
273.58	48.132
273.95	45.833
274.32	47.285
274.69	50.328
275.06	51.329
275.43	47.768
275.80	45.418
276.17	46.025
276.54	47.658
276.91	45.885
277.28	47.667
277.65	46.281
278.02	45.929
278.39	47.151
278.76	46.215
279.13	48.419
279.50	48.509
279.87	46.723
280.23	44.130
280.60	47.913
280.97	45.631
281.34	44.487
281.71	47.692
282.08	47.177
282.45	45.825
282.82	44.961
283.19	46.545
283.56	47.619
283.92	45.230
284.29	44.610
284.66	43.345
285.03	44.742
285.40	45.572
285.77	46.316
286.14	46.029
286.51	44.938
286.87	46.642
287.24	44.027
287.61	43.802
287.98	44.021
288.35	40.496
288.72	42.784
289.08	40.508
289.45	41.751
289.82	41.696
290.19	42.200
290.56	39.669
290.93	40.382
291.29	41.005
291.66	40.097
292.03	39.560
292.40	38.102
292.77	39.286
293.13	40.163
293.50	38.336
293.87	39.110
294.24	39.668
294.60	37.121
294.97	38.392
295.34	37.630
295.71	38.988
296.08	36.713
296.44	35.908
296.81	37.179
297.18	35.211
297.55	37.853
297.91	38.354
298.28	35.890
298.65	34.728
299.02	36.631
299.38	35.428
299.75	34.511
300.12	33.077
300.48	33.504
300.85	33.552
301.22	33.376
301.59	34.330
301.95	34.761
302.32	32.203
302.69	34.272
303.05	32.479
303.42	31.125
303.79	34.091
304.15	34.242
304.52	33.606
304.89	33.294
305.25	31.380
305.62	33.843
305.99	33.922
306.35	31.188
306.72	30.296
307.09	32.009
307.45	31.669
307.82	32.291
308.19	32.662
308.55	31.264
308.92	30.290
309.29	31.027
309.65	31.389
310.02	30.994
310.38	31.676
310.75	30.020
311.12	29.649
311.48	30.376
311.85	30.793
312.22	29.351
312.58	30.519
312.95	29.154
313.31	30.869
313.68	31.658
314.05	31.454
314.41	28.873
314.78	29.770
315.14	30.800
315.51	28.470
315.87	30.203
316.24	30.807
316.61	28.311
316.97	30.348
317.34	28.516
317.70	29.128
318.07	29.384
318.43	28.464
318.80	29.671
319.16	28.987
319.53	29.041
319.89	28.410
320.26	29.216
320.62	27.981
320.99	28.657
321.35	26.897
321.72	29.580
322.08	29.278
322.45	27.723
322.81	28.050
323.18	27.762
323.54	28.096
323.91	28.174
324.27	28.802
324.64	28.702
325.00	27.574
325.37	28.235
325.73	29.746
326.10	26.661
326.46	28.459
326.83	28.426
327.19	28.607
327.56	28.961
327.92	27.103
328.29	28.398
328.65	26.545
329.01	27.385
329.38	28.100
329.74	27.381
330.11	26.564
330.47	27.066
330.84	27.223
331.20	27.437
331.56	25.798
331.93	26.909
332.29	26.484
332.66	26.866
333.02	26.425
333.38	25.717
333.75	26.358
334.11	26.844
334.48	26.037
334.84	26.597
335.20	25.975
335.57	25.451
335.93	27.126
336.29	26.129
336.66	26.432
337.02	25.856
337.38	25.847
337.75	26.163
338.11	26.029
338.47	27.313
338.84	26.225
339.20	25.395
339.56	26.649
339.93	24.868
340.29	24.978
340.65	25.699
341.02	24.958
341.38	25.274
341.74	27.519
342.11	25.939
342.47	24.979
342.83	24.685
343.20	25.192
343.56	22.776
343.92	25.209
344.28	27.334
344.65	24.835
345.01	24.958
345.37	26.744
345.73	24.304
346.10	23.140
346.46	25.264
346.82	26.063
347.19	24.651
347.55	23.917
347.91	25.669
348.27	25.139
348.63	24.152
349.00	26.253
349.36	23.888
349.72	24.443
350.08	24.379
350.45	24.271
350.81	23.965
351.17	23.955
351.53	23.787
351.89	24.980
352.26	24.729
352.62	25.422
352.98	24.525
353.34	24.301
353.70	23.861
354.07	24.862
354.43	25.534
354.79	25.040
355.15	24.441
355.51	24.219
355.87	24.111
356.24	24.782
356.60	24.980
356.96	24.249
357.32	23.990
357.68	24.291
358.04	23.249
358.40	23.589
358.77	23.802
359.13	24.178
359.49	24.490
359.85	23.323
360.21	24.277
360.57	23.720
360.93	23.556
361.29	24.215
361.66	23.780
362.02	23.964
362.38	24.358
362.74	24.982
363.10	23.601
363.46	24.145
363.82	23.834
364.18	24.096
364.54	25.018
364.90	22.642
365.26	23.966
365.62	24.020
365.98	24.324
366.35	23.662
366.71	23.890
367.07	22.936
367.43	23.679
367.79	23.780
368.15	22.831
368.51	24.196
368.87	25.481
369.23	24.281
369.59	24.028
369.95	23.467
370.31	23.136
370.67	23.644
371.03	24.198
371.39	23.975
371.75	23.462
372.11	23.601
372.47	23.500
372.83	23.018
373.19	24.143
373.55	23.716
373.91	24.395
374.27	22.724
374.63	23.464
374.99	24.270
375.35	23.284
375.71	24.443
376.07	23.888
376.42	22.450
376.78	24.052
377.14	24.136
377.50	23.017
377.86	22.757
378.22	23.116
378.58	23.286
378.94	23.058
379.30	23.278
379.66	23.619
380.02	23.767
380.38	22.961
380.74	23.564
381.09	23.726
381.45	24.463
381.81	23.170
382.17	23.246
382.53	22.432
382.89	23.983
383.25	23.721
383.61	23.290
383.97	24.985
384.32	24.218
384.68	23.942
385.04	23.671
385.40	23.676
385.76	23.902
386.12	23.173
386.48	25.371
386.83	24.049
387.19	24.148
387.55	24.228
387.91	23.948
388.27	24.668
388.62	23.918
388.98	23.683
389.34	24.235
389.70	23.569
390.06	23.431
390.42	24.808
390.77	24.290
391.13	24.286
391.49	23.643
391.85	24.190
392.20	23.544
392.56	24.068
392.92	24.016
393.28	24.914
393.64	23.812
393.99	23.938
394.35	24.088
394.71	24.151
395.07	24.294
395.42	22.825
395.78	23.570
396.14	24.486
396.50	24.404
396.85	23.812
397.21	23.998
397.57	24.681
397.92	23.712
398.28	24.556
398.64	24.985
399.00	24.607
399.35	24.126
399.71	24.564
400.07	24.478
400.42	24.513
400.78	23.435
401.14	23.772
401.49	24.705
401.85	24.344
402.21	23.778
402.57	24.029
402.92	24.670
403.28	23.591
403.63	23.247
403.99	24.301
404.35	24.577
404.70	24.166
405.06	23.414
405.42	23.370
405.77	24.434
406.13	24.248
406.49	24.146
406.84	23.275
407.20	24.617
407.55	24.573
407.91	23.640
408.27	24.632
408.62	24.895
408.98	23.833
409.34	24.132
409.69	24.008
410.05	24.500
410.40	23.421
410.76	24.600
411.11	24.626
411.47	23.657
411.83	23.472
412.18	23.515
412.54	23.734
412.89	23.815
413.25	24.085
413.60	23.269
413.96	23.413
414.31	24.098
414.67	23.238
415.03	23.609
415.38	24.073
415.74	24.936
416.09	23.849
416.45	23.677
416.80	24.382
417.16	23.322
417.51	23.638
417.87	23.366
418.22	24.147
418.58	23.813
418.93	24.280
419.29	23.839
419.64	22.362
420.00	24.484
420.35	24.009
420.71	24.610
421.06	24.438
421.42	23.770
421.77	24.511
422.12	23.951
422.48	24.051
422.83	24.146
423.19	23.497
423.54	24.035
423.90	23.771
424.25	23.360
424.61	23.100
424.96	25.102
425.31	24.483
425.67	23.897
426.02	24.039
426.38	24.198
426.73	23.904
427.09	23.958
427.44	24.034
427.79	23.953
428.15	24.237
428.50	24.399
428.85	24.101
429.21	23.852
429.56	24.323
429.92	24.349
430.27	23.679
430.62	24.138
430.98	23.262
431.33	24.493
431.68	24.826
432.04	25.182
432.39	24.274
432.74	23.501
433.10	24.029
433.45	23.546
433.80	24.412
434.16	24.610
434.51	24.712
434.86	24.663
435.22	23.497
435.57	23.868
435.92	24.385
436.28	24.629
436.63	24.138
436.98	24.341
437.34	24.158
437.69	23.804
438.04	24.163
438.39	23.887
438.75	24.272
439.10	24.264
439.45	23.838
439.81	24.398
440.16	23.907
440.51	25.176
440.86	24.581
441.22	23.438
441.57	23.632
441.92	25.166
442.27	24.188
442.63	24.517
442.98	23.081
443.33	24.547
443.68	23.762
444.03	24.558
444.39	23.299
444.74	25.275
445.09	24.123
445.44	24.536
445.79	24.069
446.15	24.261
446.50	24.115
446.85	23.807
447.20	24.055
447.55	24.862
447.91	24.537
448.26	24.078
448.61	23.599
448.96	25.210
449.31	23.393
449.66	23.927
450.02	23.823
450.37	23.652
450.72	23.107
451.07	24.261
451.42	23.110
451.77	24.476
452.12	23.540
452.47	23.929
452.83	24.228
453.18	24.921
453.53	24.316
453.88	23.983
454.23	23.821
454.58	24.425
454.93	23.866
455.28	22.881
455.63	25.061
455.98	24.458
456.34	24.460
456.69	25.328
457.04	24.278
457.39	23.684
457.74	24.276
458.09	24.536
458.44	24.942
458.79	23.823
459.14	24.130
459.49	24.097
459.84	24.227
460.19	23.986
460.54	24.259
460.89	23.711
461.24	24.287
461.59	25.029
461.94	24.061
462.29	24.181
462.64	23.650
462.99	25.100
463.34	23.633
463.69	24.809
464.04	23.902
464.39	22.879
464.74	24.054
465.09	23.632
465.44	25.381
465.79	23.519
466.14	24.281
466.49	24.525
466.84	24.010
467.19	24.439
467.54	22.785
467.89	24.044
468.24	23.812
468.59	23.735
468.94	24.180
469.29	24.301
469.64	23.383
469.99	24.646
470.34	22.578
470.68	24.782
471.03	23.606
471.38	23.750
471.73	24.825
472.08	23.963
472.43	23.552
472.78	24.467
473.13	23.260
473.48	23.803
473.83	23.821
474.17	24.268
474.52	25.192
474.87	24.476
475.22	23.422
475.57	23.778
475.92	23.542
476.27	23.657
476.61	23.775
476.96	23.756
477.31	23.950
477.66	24.682
478.01	24.851
478.36	24.306
478.70	25.093
479.05	24.770
479.40	24.301
479.75	24.363
480.10	23.810
480.45	23.017
480.79	24.827
481.14	24.887
481.49	24.685
481.84	24.133
482.19	24.532
482.53	24.337
482.88	23.968
483.23	24.178
483.58	25.162
483.92	24.558
484.27	23.261
484.62	23.672
484.97	23.461
485.31	23.840
485.66	24.209
486.01	23.971
486.36	24.666
486.70	25.205
487.05	24.374
487.40	23.985
487.75	23.582
488.09	23.533
488.44	22.936
488.79	23.099
489.13	23.051
489.48	24.062
489.83	23.799
490.17	23.465
490.52	24.547
490.87	23.926
491.22	23.774
491.56	23.704
491.91	23.712
492.26	24.151
492.60	24.548
492.95	23.893
493.30	23.964
493.64	23.272
493.99	24.140
494.34	23.905
494.68	24.766
495.03	23.040
495.37	23.500
495.72	24.312
496.07	23.745
496.41	24.965
496.76	23.836
497.11	25.106
497.45	25.096
497.80	23.662
498.14	24.509
498.49	23.506
498.84	24.272
499.18	24.854
499.53	24.403
499.87	22.828
500.22	24.608
500.56	24.062
500.91	24.729
501.26	24.406
501.60	23.977
501.95	24.686
502.29	24.232
502.64	24.564
502.98	25.347
503.33	24.060
503.67	23.994
504.02	24.674
504.36	23.971
504.71	23.607
505.06	24.264
505.40	24.701
505.75	24.593
506.09	25.430
506.44	25.013
506.78	24.134
507.13	24.562
507.47	25.404
507.82	24.781
508.16	25.130
508.51	23.802
508.85	24.534
509.19	24.333
509.54	24.154
509.88	25.585
510.23	24.581
510.57	24.497
510.92	25.081
511.26	23.870
511.61	23.542
511.95	23.653
512.30	25.289
512.64	24.151
512.98	24.972
513.33	24.822
513.67	25.126
514.02	23.826
514.36	24.377
514.70	24.731
515.05	25.214
515.39	24.394
515.74	24.549
516.08	24.496
516.42	24.986
516.77	25.419
517.11	24.371
517.46	25.538
517.80	25.391
518.14	25.543
518.49	25.224
518.83	24.095
519.17	25.755
519.52	23.771
519.86	25.687
520.20	24.878
520.55	24.862
520.89	24.922
521.23	25.153
521.58	24.577
521.92	25.459
522.26	24.889
522.61	26.046
522.95	24.952
523.29	24.702
523.64	24.547
523.98	25.525
524.32	25.267
524.66	24.286
525.01	24.534
525.35	25.515
525.69	24.984
526.04	24.869
526.38	25.398
526.72	25.351
527.06	26.172
527.41	25.611
527.75	24.290
528.09	24.884
528.43	25.508
528.78	26.005
529.12	25.864
529.46	25.838
529.80	25.307
530.15	25.950
530.49	24.774
530.83	26.457
531.17	25.320
531.51	25.117
531.86	25.411
532.20	25.236
532.54	25.067
532.88	24.506
533.22	24.866
533.57	24.935
533.91	25.281
534.25	24.513
534.59	23.923
534.93	24.642
535.27	25.110
535.62	25.767
535.96	25.339
536.30	23.560
536.64	24.303
536.98	24.788
537.32	25.985
537.66	23.897
538.01	24.948
538.35	26.014
538.69	24.332
539.03	25.457
539.37	24.884
539.71	26.484
540.05	25.428
540.39	25.000
540.73	25.570
541.07	25.615
541.42	24.308
541.76	24.252
542.10	25.321
542.44	24.250
542.78	25.102
543.12	24.508
543.46	24.589
543.80	25.017
544.14	24.312
544.48	25.591
544.82	24.425
545.16	25.889
545.50	23.217
545.84	24.896
546.18	24.896
546.52	25.391
546.86	25.142
547.20	24.684
547.54	24.931
547.88	24.552
548.22	24.115
548.56	24.582
548.90	24.933
549.24	23.896
549.58	24.347
549.92	24.806
550.26	26.012
550.60	24.751
550.94	25.036
551.28	25.207
551.62	24.225
551.96	24.674
552.30	24.460
552.64	24.349
552.98	25.228
553.32	23.810
553.66	25.523
554.00	25.373
554.34	24.332
554.68	25.950
555.02	24.891
555.36	24.802
555.69	23.854
556.03	24.561
556.37	24.751
556.71	24.839
557.05	25.129
557.39	24.573
557.73	25.456
558.07	24.642
558.41	24.607
558.75	24.335
559.08	23.346
559.42	24.962
559.76	24.693
560.10	26.249
560.44	24.277
560.78	24.217
561.12	24.914
561.45	24.452
561.79	24.321
562.13	24.264
562.47	24.580
562.81	24.540
563.15	24.283
563.48	24.257
563.82	24.746
564.16	23.935
564.50	24.798
564.84	24.471
565.17	24.934
565.51	25.033
565.85	24.206
566.19	25.296
566.52	24.397
566.86	24.589
567.20	25.363
567.54	25.930
567.88	25.405
568.21	25.391
568.55	24.125
568.89	23.111
569.23	24.433
569.56	24.842
569.90	25.885
570.24	24.953
570.57	24.605
570.91	24.379
571.25	24.968
571.59	24.383
571.92	23.512
572.26	24.026
572.60	24.077
572.93	23.784
573.27	23.902
573.61	23.373
573.95	24.428
574.28	24.055
574.62	23.869
574.96	23.430
575.29	23.679
575.63	23.679
575.97	23.490
576.30	23.458
576.64	23.786
576.98	23.712
577.31	24.219
577.65	23.820
577.98	23.978
578.32	23.827
578.66	23.701
578.99	23.071
579.33	23.788
579.67	23.459
580.00	23.487
580.34	23.312
580.67	22.800
581.01	23.172
581.35	23.943
581.68	23.550
582.02	24.197
582.35	23.834
582.69	24.049
583.02	23.718
583.36	23.904
583.70	23.579
584.03	23.276
584.37	23.139
584.70	23.421
585.04	22.785
585.37	23.413
585.71	23.246
586.04	23.506
586.38	23.309
586.72	23.506
587.05	23.874
587.39	23.354
587.72	23.759
588.06	23.989
588.39	23.754
588.73	23.959
589.06	23.625
589.40	22.947
589.73	23.831
590.07	23.125
590.40	23.210
590.73	23.671
591.07	23.443
591.40	23.657
591.74	22.893
592.07	22.613
592.41	24.076
592.74	24.289
593.08	24.133
593.41	24.112
593.75	23.244
594.08	23.940
594.41	24.067
594.75	23.707
595.08	24.023
595.42	23.952
595.75	23.925
596.09	23.593
596.42	23.609
596.75	23.846
597.09	24.577
597.42	24.618
597.75	23.472
598.09	23.498
598.42	23.553
598.76	22.882
599.09	23.402
599.42	23.529
599.76	23.707
600.09	24.237
600.42	24.231
600.76	24.256
601.09	23.623
601.42	23.744
601.76	23.988
602.09	23.272
602.42	23.498
602.76	23.265
603.09	23.548
603.42	23.892
603.76	23.694
604.09	23.668
604.42	23.439
604.76	23.594
605.09	23.734
605.42	23.537
605.75	22.725
606.09	23.495
606.42	23.712
606.75	22.757
607.09	23.864
607.42	23.592
607.75	23.002
608.08	24.130
608.42	22.848
608.75	22.056
609.08	23.673
609.41	22.870
609.75	23.257
610.08	24.118
610.41	23.614
610.74	24.371
611.07	24.290
611.41	22.945
611.74	23.907
612.07	24.168
612.40	23.401
612.73	24.071
613.07	23.390
613.40	24.576
613.73	23.597
614.06	22.790
614.39	23.732
614.72	23.799
615.06	23.261
615.39	23.766
615.72	24.443
616.05	22.971
616.38	23.564
616.71	23.363
617.05	24.608
617.38	24.272
617.71	22.543
618.04	23.789
618.37	22.579
618.70	24.511
619.03	23.155
619.36	24.313
619.69	24.192
620.03	24.931
620.36	23.699
620.69	23.403
621.02	23.744
621.35	23.629
621.68	22.377
622.01	23.139
622.34	25.466
622.67	23.906
623.00	23.565
623.33	23.806
623.66	22.674
623.99	24.361
624.32	24.330
624.65	23.547
624.99	23.898
625.32	24.027
625.65	24.165
625.98	23.318
626.31	23.491
626.64	23.264
626.97	23.801
627.30	23.489
627.63	23.661
627.96	23.847
628.29	23.713
628.62	23.400
628.95	23.720
629.28	22.556
629.61	23.160
629.94	24.291
630.26	24.553
630.59	24.322
630.92	23.323
631.25	23.488
