SpectraSuite Data File
++++++++++++++++++++++++++++++++++++
Date: Sat May 16 11:07:29 PDT 2015
User: schluterlab
Dark Spectrum Present: Yes
Reference Spectrum Present: Yes
Number of Sampled Component Spectra: 1
Spectrometers: USB2E3373
Integration Time (usec): 3000 (USB2E3373)
Spectra Averaged: 3 (USB2E3373)
Boxcar Smoothing: 0 (USB2E3373)
Correct for Electrical Dark: No (USB2E3373)
Strobe/Lamp Enabled: No (USB2E3373)
Correct for Detector Non-linearity: No (USB2E3373)
Correct for Stray Light: No (USB2E3373)
Number of Pixels in Processed Spectrum: 2048
>>>>>Begin Processed Spectral Data<<<<<
178.53	0.000
178.91	-26.667
179.29	33.333
179.67	1200.000
180.04	23.077
180.42	-200.000
180.80	-125.000
181.18	50.000
181.56	62.500
181.94	-700.000
182.31	225.000
182.69	76.923
183.07	133.333
183.45	800.000
183.83	-0.000
184.20	0.000
184.58	-12.500
184.96	25.000
185.34	18.750
185.72	-375.000
186.09	133.333
186.47	-75.000
186.85	-100.000
187.23	125.000
187.61	25.000
187.98	-112.500
188.36	75.000
188.74	37.500
189.12	500.000
189.49	128.571
189.87	166.667
190.25	-25.000
190.63	21.429
191.00	-88.889
191.38	240.000
191.76	46.667
192.14	400.000
192.51	80.000
192.89	-200.000
193.27	0.000
193.65	-33.333
194.02	57.143
194.40	400.000
194.78	20.000
195.15	-200.000
195.53	72.727
195.91	-216.667
196.29	-120.000
196.66	-300.000
197.04	500.000
197.42	200.000
197.79	86.667
198.17	-166.667
198.55	-200.000
198.92	1000.000
199.30	87.500
199.68	-200.000
200.05	-11.111
200.43	-55.556
200.81	100.000
201.18	-50.000
201.56	57.143
201.94	-33.333
202.31	72.727
202.69	30.000
203.07	30.000
203.44	-0.000
203.82	-16.667
204.19	-175.000
204.57	125.000
204.95	-600.000
205.32	112.500
205.70	300.000
206.08	-900.000
206.45	22.222
206.83	-650.000
207.20	250.000
207.58	-233.333
207.96	133.333
208.33	87.500
208.71	88.889
209.08	60.000
209.46	57.143
209.84	50.000
210.21	0.000
210.59	65.000
210.96	200.000
211.34	33.333
211.71	100.000
212.09	175.000
212.46	150.000
212.84	-700.000
213.22	66.667
213.59	83.333
213.97	66.667
214.34	110.000
214.72	90.000
215.09	-100.000
215.47	83.333
215.84	-30.000
216.22	-10.000
216.59	100.000
216.97	-225.000
217.34	-250.000
217.72	-14.286
218.09	-66.667
218.47	-42.857
218.84	-42.857
219.22	-71.429
219.59	0.000
219.97	114.286
220.34	150.000
220.72	-12.500
221.09	15.385
221.47	0.000
221.84	433.333
222.22	400.000
222.59	-500.000
222.97	25.000
223.34	0.000
223.72	33.333
224.09	-7.143
224.46	25.000
224.84	-42.857
225.21	-85.714
225.59	-27.273
225.96	25.000
226.34	157.143
226.71	55.556
227.08	65.000
227.46	900.000
227.83	-14.286
228.21	-75.000
228.58	-950.000
228.95	75.000
229.33	-100.000
229.70	-140.000
230.08	-250.000
230.45	83.333
230.82	233.333
231.20	400.000
231.57	300.000
231.95	-400.000
232.32	38.095
232.69	66.667
233.07	-114.286
233.44	-600.000
233.81	13.333
234.19	0.000
234.56	0.000
234.93	37.500
235.31	0.000
235.68	-28.571
236.05	35.294
236.43	-36.364
236.80	38.710
237.17	-12.500
237.55	9.524
237.92	-59.091
238.29	-2.857
238.67	17.647
239.04	13.889
239.41	-25.806
239.79	-15.385
240.16	-9.524
240.53	-1.818
240.91	10.256
241.28	30.909
241.65	15.385
242.02	6.557
242.40	-4.918
242.77	7.576
243.14	8.475
243.51	-2.857
243.89	-10.127
244.26	4.494
244.63	5.263
245.00	6.316
245.38	8.475
245.75	8.850
246.12	3.200
246.49	10.236
246.87	4.065
247.24	-6.780
247.61	-2.542
247.98	5.634
248.36	-1.399
248.73	10.127
249.10	2.548
249.47	4.094
249.84	2.273
250.22	-4.762
250.59	4.520
250.96	11.518
251.33	7.109
251.70	4.808
252.08	10.900
252.45	5.687
252.82	0.476
253.19	6.809
253.56	7.258
253.94	3.797
254.31	3.433
254.68	6.911
255.05	2.016
255.42	6.746
255.79	2.509
256.16	7.451
256.54	5.515
256.91	3.030
257.28	0.000
257.65	3.546
258.02	8.491
258.39	4.013
258.76	4.054
259.14	1.543
259.51	6.885
259.88	4.573
260.25	5.901
260.62	6.431
260.99	6.231
261.36	4.268
261.73	6.358
262.10	5.556
262.47	5.128
262.85	6.000
263.22	4.585
263.59	2.769
263.96	4.638
264.33	7.859
264.70	7.459
265.07	4.396
265.44	6.202
265.81	2.584
266.18	4.304
266.55	4.412
266.92	7.053
267.29	4.358
267.66	3.457
268.03	7.246
268.40	6.573
268.77	3.373
269.14	4.408
269.51	4.138
269.88	4.358
270.25	1.399
270.62	3.890
270.99	6.081
271.36	4.196
271.73	6.054
272.10	3.890
272.47	4.222
272.84	7.556
273.21	5.275
273.58	5.495
273.95	4.605
274.32	4.977
274.69	8.534
275.06	7.771
275.43	2.679
275.80	4.888
276.17	4.812
276.54	6.721
276.91	3.292
277.28	6.085
277.65	6.198
278.02	6.263
278.39	6.287
278.76	4.183
279.13	4.545
279.50	5.567
279.87	4.228
280.23	6.478
280.60	4.175
280.97	3.301
281.34	3.482
281.71	5.000
282.08	4.839
282.45	3.055
282.82	4.070
283.19	6.000
283.56	6.044
283.92	7.774
284.29	3.532
284.66	5.396
285.03	6.061
285.40	5.720
285.77	5.088
286.14	5.235
286.51	5.151
286.87	5.445
287.24	5.461
287.61	5.620
287.98	2.946
288.35	2.479
288.72	4.075
289.08	3.559
289.45	6.566
289.82	2.595
290.19	6.404
290.56	3.802
290.93	4.134
291.29	2.269
291.66	3.704
292.03	6.279
292.40	4.669
292.77	5.124
293.13	4.553
293.50	4.903
293.87	5.521
294.24	3.620
294.60	2.424
294.97	6.677
295.34	3.407
295.71	4.613
296.08	3.226
296.44	4.292
296.81	3.989
297.18	1.972
297.55	4.661
297.91	4.045
298.28	4.521
298.65	3.487
299.02	5.214
299.38	3.342
299.75	3.940
300.12	5.128
300.48	4.987
300.85	3.670
301.22	4.787
301.59	3.901
301.95	5.416
302.32	2.608
302.69	5.630
303.05	3.297
303.42	3.750
303.79	3.708
304.15	4.147
304.52	5.018
304.89	3.542
305.25	4.518
305.62	4.700
305.99	5.300
306.35	4.772
306.72	4.100
307.09	4.881
307.45	4.200
307.82	3.352
308.19	4.139
308.55	4.248
308.92	3.115
309.29	4.108
309.65	3.606
310.02	3.888
310.38	3.135
310.75	4.816
311.12	6.302
311.48	4.697
311.85	5.046
312.22	4.222
312.58	5.900
312.95	4.179
313.31	5.495
313.68	6.131
314.05	5.242
314.41	4.427
314.78	4.396
315.14	5.726
315.51	4.762
315.87	5.808
316.24	6.025
316.61	6.238
316.97	6.269
317.34	6.647
317.70	5.937
318.07	7.090
318.43	6.367
318.80	8.075
319.16	6.848
319.53	7.049
319.89	7.056
320.26	6.863
320.62	6.731
320.99	6.169
321.35	7.882
321.72	7.267
322.08	8.309
322.45	7.327
322.81	7.877
323.18	8.934
323.54	8.041
323.91	9.546
324.27	7.795
324.64	9.232
325.00	7.941
325.37	8.688
325.73	10.936
326.10	7.617
326.46	9.282
326.83	9.277
327.19	9.675
327.56	10.392
327.92	10.365
328.29	9.264
328.65	8.818
329.01	10.689
329.38	9.723
329.74	11.264
330.11	10.698
330.47	9.537
330.84	10.266
331.20	10.108
331.56	9.936
331.93	10.480
332.29	11.598
332.66	10.272
333.02	10.679
333.38	11.290
333.75	11.576
334.11	10.489
334.48	10.503
334.84	11.986
335.20	11.436
335.57	10.018
335.93	11.012
336.29	10.806
336.66	10.661
337.02	11.171
337.38	10.784
337.75	11.677
338.11	11.538
338.47	12.278
338.84	11.706
339.20	11.775
339.56	12.389
339.93	11.552
340.29	10.363
340.65	11.014
341.02	12.479
341.38	11.373
341.74	11.770
342.11	11.177
342.47	10.386
342.83	11.503
343.20	12.041
343.56	10.041
343.92	11.519
344.28	12.952
344.65	11.634
345.01	10.840
345.37	12.209
345.73	11.375
346.10	9.567
346.46	10.885
346.82	11.387
347.19	10.189
347.55	11.798
347.91	10.866
348.27	10.501
348.63	12.359
349.00	12.251
349.36	10.148
349.72	11.943
350.08	12.670
350.45	10.954
350.81	11.943
351.17	11.656
351.53	10.342
351.89	11.156
352.26	11.628
352.62	12.750
352.98	12.184
353.34	12.150
353.70	11.351
354.07	10.543
354.43	11.779
354.79	10.777
355.15	10.623
355.51	10.781
355.87	10.672
356.24	11.358
356.60	12.248
356.96	11.701
357.32	11.797
357.68	12.031
358.04	11.932
358.40	11.292
358.77	10.974
359.13	12.395
359.49	11.640
359.85	11.357
360.21	12.253
360.57	12.349
360.93	11.926
361.29	11.360
361.66	11.280
362.02	11.538
362.38	11.959
362.74	11.355
363.10	11.980
363.46	11.823
363.82	12.172
364.18	11.505
364.54	12.223
364.90	11.461
365.26	11.698
365.62	12.972
365.98	12.589
366.35	12.394
366.71	11.487
367.07	12.703
367.43	12.972
367.79	12.165
368.15	12.233
368.51	12.937
368.87	13.255
369.23	13.263
369.59	12.361
369.95	12.262
370.31	12.588
370.67	11.497
371.03	12.464
371.39	11.952
371.75	12.589
372.11	12.626
372.47	11.641
372.83	13.282
373.19	12.786
373.55	13.160
373.91	12.660
374.27	13.279
374.63	12.836
374.99	13.004
375.35	12.719
375.71	13.639
376.07	12.799
376.42	12.119
376.78	13.203
377.14	13.763
377.50	13.604
377.86	13.979
378.22	13.191
378.58	13.589
378.94	12.762
379.30	14.016
379.66	13.358
380.02	13.072
380.38	13.172
380.74	14.302
381.09	14.470
381.45	14.021
381.81	13.491
382.17	13.659
382.53	14.407
382.89	14.175
383.25	14.088
383.61	13.561
383.97	14.146
384.32	14.268
384.68	15.417
385.04	13.647
385.40	14.181
385.76	14.329
386.12	14.428
386.48	13.800
386.83	15.031
387.19	14.704
387.55	14.537
387.91	14.582
388.27	13.329
388.62	14.603
388.98	14.294
389.34	14.504
389.70	14.982
390.06	14.854
390.42	14.551
390.77	14.385
391.13	15.590
391.49	14.722
391.85	14.090
392.20	14.442
392.56	14.844
392.92	14.661
393.28	14.753
393.64	15.093
393.99	15.938
394.35	15.024
394.71	14.268
395.07	15.380
395.42	14.660
395.78	14.959
396.14	14.766
396.50	15.535
396.85	15.978
397.21	15.371
397.57	15.319
397.92	15.808
398.28	15.111
398.64	15.526
399.00	15.899
399.35	15.896
399.71	16.318
400.07	16.299
400.42	16.363
400.78	15.206
401.14	16.347
401.49	15.448
401.85	15.863
402.21	16.091
402.57	16.383
402.92	16.803
403.28	16.176
403.63	15.099
403.99	16.532
404.35	15.882
404.70	15.799
405.06	16.551
405.42	15.191
405.77	15.667
406.13	15.503
406.49	16.657
406.84	16.077
407.20	16.254
407.55	16.403
407.91	16.127
408.27	17.341
408.62	16.356
408.98	17.829
409.34	15.539
409.69	16.950
410.05	15.949
410.40	16.002
410.76	16.716
411.11	16.584
411.47	16.368
411.83	16.870
412.18	16.708
412.54	16.168
412.89	16.829
413.25	15.466
413.60	15.917
413.96	15.588
414.31	17.125
414.67	16.762
415.03	16.559
415.38	16.851
415.74	17.526
416.09	16.816
416.45	16.270
416.80	16.515
417.16	16.478
417.51	17.334
417.87	16.634
418.22	17.004
418.58	17.137
418.93	16.983
419.29	17.189
419.64	16.583
420.00	17.315
420.35	17.504
420.71	16.927
421.06	17.219
421.42	17.155
421.77	18.146
422.12	17.068
422.48	17.157
422.83	17.369
423.19	16.370
423.54	16.888
423.90	17.351
424.25	17.817
424.61	17.793
424.96	18.198
425.31	17.943
425.67	16.963
426.02	17.097
426.38	17.725
426.73	17.592
427.09	18.260
427.44	18.068
427.79	17.267
428.15	17.475
428.50	18.065
428.85	17.626
429.21	17.100
429.56	17.604
429.92	18.236
430.27	17.149
430.62	17.085
430.98	18.557
431.33	17.716
431.68	17.909
432.04	18.187
432.39	18.177
432.74	18.345
433.10	17.783
433.45	18.192
433.80	17.805
434.16	17.571
434.51	17.808
434.86	18.629
435.22	18.486
435.57	18.605
435.92	18.757
436.28	19.110
436.63	18.146
436.98	17.698
437.34	18.606
437.69	18.203
438.04	18.264
438.39	18.532
438.75	18.393
439.10	18.046
439.45	17.924
439.81	18.373
440.16	18.115
440.51	19.059
440.86	17.525
441.22	18.297
441.57	18.368
441.92	18.517
442.27	18.669
442.63	18.991
442.98	18.059
443.33	18.671
443.68	18.395
444.03	18.762
444.39	18.551
444.74	18.998
445.09	18.640
445.44	18.965
445.79	18.256
446.15	18.729
446.50	18.563
446.85	18.471
447.20	19.254
447.55	18.619
447.91	18.754
448.26	18.827
448.61	18.223
448.96	19.664
449.31	18.658
449.66	19.748
450.02	18.393
450.37	18.783
450.72	18.023
451.07	19.610
451.42	17.658
451.77	18.851
452.12	18.713
452.47	18.703
452.83	18.229
453.18	18.975
453.53	18.657
453.88	19.258
454.23	18.319
454.58	19.267
454.93	19.584
455.28	18.547
455.63	19.595
455.98	19.458
456.34	18.615
456.69	19.387
457.04	18.869
457.39	18.720
457.74	18.901
458.09	18.910
458.44	19.515
458.79	18.722
459.14	19.795
459.49	19.657
459.84	18.606
460.19	19.033
460.54	18.451
460.89	19.395
461.24	19.429
461.59	19.168
461.94	18.587
462.29	19.357
462.64	19.236
462.99	20.147
463.34	18.906
463.69	18.702
464.04	18.746
464.39	18.280
464.74	18.794
465.09	19.062
465.44	18.500
465.79	19.064
466.14	19.333
466.49	18.710
466.84	19.088
467.19	18.392
467.54	18.291
467.89	19.482
468.24	19.359
468.59	18.176
468.94	19.293
469.29	19.298
469.64	19.137
469.99	19.919
470.34	19.372
470.68	20.058
471.03	18.858
471.38	19.167
471.73	19.930
472.08	18.876
472.43	18.533
472.78	20.333
473.13	18.357
473.48	19.209
473.83	19.107
474.17	18.599
474.52	19.629
474.87	19.289
475.22	18.289
475.57	19.778
475.92	18.737
476.27	18.057
476.61	19.380
476.96	18.949
477.31	18.730
477.66	18.539
478.01	19.719
478.36	18.596
478.70	19.274
479.05	19.037
479.40	19.326
479.75	18.909
480.10	18.552
480.45	18.472
480.79	18.707
481.14	19.017
481.49	19.264
481.84	19.001
482.19	18.958
482.53	19.129
482.88	18.510
483.23	18.920
483.58	20.028
483.92	18.872
484.27	18.166
484.62	18.099
484.97	18.940
485.31	18.336
485.66	18.340
486.01	17.923
486.36	18.434
486.70	18.303
487.05	18.536
487.40	18.803
487.75	18.782
488.09	17.789
488.44	18.945
488.79	18.712
489.13	19.551
489.48	19.005
489.83	18.952
490.17	18.720
490.52	19.067
490.87	18.753
491.22	18.543
491.56	18.796
491.91	19.418
492.26	18.396
492.60	18.506
492.95	18.753
493.30	18.676
493.64	18.571
493.99	18.738
494.34	19.714
494.68	19.288
495.03	18.738
495.37	18.682
495.72	18.566
496.07	18.817
496.41	19.222
496.76	18.402
497.11	19.595
497.45	19.397
497.80	18.809
498.14	18.713
498.49	18.634
498.84	18.981
499.18	19.103
499.53	18.802
499.87	18.485
500.22	18.480
500.56	18.559
500.91	18.818
501.26	19.020
501.60	18.729
501.95	19.517
502.29	18.706
502.64	19.095
502.98	18.160
503.33	19.126
503.67	18.295
504.02	18.542
504.36	19.167
504.71	18.997
505.06	18.972
505.40	19.261
505.75	18.394
506.09	19.616
506.44	18.897
506.78	18.414
507.13	18.383
507.47	19.197
507.82	18.585
508.16	18.135
508.51	19.165
508.85	18.892
509.19	18.367
509.54	19.450
509.88	19.681
510.23	18.816
510.57	19.365
510.92	18.851
511.26	18.713
511.61	17.981
511.95	18.642
512.30	18.637
512.64	18.475
512.98	18.592
513.33	19.275
513.67	18.705
514.02	19.463
514.36	18.781
514.70	18.280
515.05	19.554
515.39	19.319
515.74	19.779
516.08	19.308
516.42	18.924
516.77	18.833
517.11	18.707
517.46	19.677
517.80	19.916
518.14	18.780
518.49	19.366
518.83	18.694
519.17	19.361
519.52	18.971
519.86	19.534
520.20	18.949
520.55	19.077
520.89	18.472
521.23	19.170
521.58	18.182
521.92	19.063
522.26	18.540
522.61	19.138
522.95	18.315
523.29	19.060
523.64	19.176
523.98	18.778
524.32	19.359
524.66	18.882
525.01	18.369
525.35	19.394
525.69	18.673
526.04	19.909
526.38	18.523
526.72	18.646
527.06	19.010
527.41	18.812
527.75	18.416
528.09	19.259
528.43	19.541
528.78	18.844
529.12	19.974
529.46	19.459
529.80	18.270
530.15	18.738
530.49	19.599
530.83	19.974
531.17	18.249
531.51	18.285
531.86	20.079
532.20	19.231
532.54	19.920
532.88	19.631
533.22	19.051
533.57	18.407
533.91	18.352
534.25	18.416
534.59	18.926
534.93	18.295
535.27	18.880
535.62	18.862
535.96	19.005
536.30	18.979
536.64	19.522
536.98	19.209
537.32	18.659
537.66	18.601
538.01	20.000
538.35	19.662
538.69	18.717
539.03	19.364
539.37	19.694
539.71	19.213
540.05	18.917
540.39	19.806
540.73	19.005
541.07	19.604
541.42	18.569
541.76	18.073
542.10	20.122
542.44	18.854
542.78	17.978
543.12	18.805
543.46	19.178
543.80	18.194
544.14	18.670
544.48	19.488
544.82	18.742
545.16	18.913
545.50	18.237
545.84	18.985
546.18	19.695
546.52	18.990
546.86	19.373
547.20	19.058
547.54	18.251
547.88	17.983
548.22	18.349
548.56	19.372
548.90	19.609
549.24	19.411
549.58	19.831
549.92	19.505
550.26	19.581
550.60	18.990
550.94	19.489
551.28	20.015
551.62	19.793
551.96	18.234
552.30	18.885
552.64	18.578
552.98	18.220
553.32	19.192
553.66	20.332
554.00	19.616
554.34	18.628
554.68	19.006
555.02	19.103
555.36	19.339
555.69	18.410
556.03	17.474
556.37	18.634
556.71	19.685
557.05	18.847
557.39	18.560
557.73	19.621
558.07	20.121
558.41	18.923
558.75	19.468
559.08	18.054
559.42	19.755
559.76	19.172
560.10	20.134
560.44	19.509
560.78	18.511
561.12	19.186
561.45	19.521
561.79	20.070
562.13	18.583
562.47	19.328
562.81	19.165
563.15	19.104
563.48	19.074
563.82	19.067
564.16	19.540
564.50	19.288
564.84	19.180
565.17	18.302
565.51	18.383
565.85	19.405
566.19	20.026
566.52	19.048
566.86	18.837
567.20	19.492
567.54	19.846
567.88	18.258
568.21	18.400
568.55	19.088
568.89	18.539
569.23	18.556
569.56	18.159
569.90	18.411
570.24	17.775
570.57	18.137
570.91	17.987
571.25	18.320
571.59	18.264
571.92	18.185
572.26	18.514
572.60	18.275
572.93	18.086
573.27	18.354
573.61	17.924
573.95	18.281
574.28	17.711
574.62	17.768
574.96	17.622
575.29	17.708
575.63	18.344
575.97	17.368
576.30	17.676
576.64	17.937
576.98	17.840
577.31	17.735
577.65	17.983
577.98	17.646
578.32	17.807
578.66	17.953
578.99	17.674
579.33	18.036
579.67	18.032
580.00	17.783
580.34	18.053
580.67	17.749
581.01	17.802
581.35	17.926
581.68	17.996
582.02	17.606
582.35	18.168
582.69	18.012
583.02	18.236
583.36	17.993
583.70	17.512
584.03	18.103
584.37	18.512
584.70	18.266
585.04	18.000
585.37	17.757
585.71	17.755
586.04	18.414
586.38	17.535
586.72	18.038
587.05	18.748
587.39	18.328
587.72	18.370
588.06	18.129
588.39	18.285
588.73	18.105
589.06	18.862
589.40	18.688
589.73	18.166
590.07	18.500
590.40	18.635
590.73	18.473
591.07	17.664
591.40	18.977
591.74	18.810
592.07	18.468
592.41	18.259
592.74	18.332
593.08	18.297
593.41	17.895
593.75	17.639
594.08	18.081
594.41	18.299
594.75	19.064
595.08	18.083
595.42	18.605
595.75	18.118
596.09	18.704
596.42	18.781
596.75	17.766
597.09	19.635
597.42	18.813
597.75	18.512
598.09	18.662
598.42	18.427
598.76	17.982
599.09	17.601
599.42	18.378
599.76	18.460
600.09	19.008
600.42	18.382
600.76	18.154
601.09	18.002
601.42	17.847
601.76	18.380
602.09	18.609
602.42	17.737
602.76	18.114
603.09	18.992
603.42	18.695
603.76	19.107
604.09	18.222
604.42	18.276
604.76	18.796
605.09	18.354
605.42	18.528
605.75	18.241
606.09	18.265
606.42	17.930
606.75	18.162
607.09	18.703
607.42	18.398
607.75	18.455
608.08	18.979
608.42	18.780
608.75	18.785
609.08	18.997
609.41	18.435
609.75	18.528
610.08	19.461
610.41	18.699
610.74	18.907
611.07	18.205
611.41	18.608
611.74	19.794
612.07	19.066
612.40	17.644
612.73	18.740
613.07	18.877
613.40	19.212
613.73	19.019
614.06	18.451
614.39	18.715
614.72	18.492
615.06	18.967
615.39	18.177
615.72	18.848
616.05	18.388
616.38	19.617
616.71	18.799
617.05	18.938
617.38	19.319
617.71	18.243
618.04	19.006
618.37	18.176
618.70	19.426
619.03	19.634
619.36	19.873
619.69	19.670
620.03	19.008
620.36	18.354
620.69	19.454
621.02	19.406
621.35	18.306
621.68	19.754
622.01	20.307
622.34	19.953
622.67	19.297
623.00	19.893
623.33	20.075
623.66	18.316
623.99	18.346
624.32	19.420
624.65	17.954
624.99	19.193
625.32	19.162
625.65	19.503
625.98	18.779
626.31	19.494
626.64	19.414
626.97	19.863
627.30	19.574
627.63	18.912
627.96	19.321
628.29	19.210
628.62	19.866
628.95	20.472
629.28	18.515
629.61	19.921
629.94	20.038
630.26	19.781
630.59	20.804
630.92	20.320
631.25	20.968
631.58	19.894
631.91	18.085
632.24	20.222
632.57	21.556
632.90	20.345
633.23	20.210
633.56	20.000
633.89	21.344
634.22	19.717
634.55	19.591
634.88	20.193
635.20	19.600
635.53	19.847
635.86	18.514
636.19	19.658
636.52	18.280
636.85	18.652
637.18	19.000
637.51	20.446
637.83	20.506
638.16	18.158
638.49	18.759
638.82	20.849
