SpectraSuite Data File
++++++++++++++++++++++++++++++++++++
Date: Sat May 16 11:25:29 PDT 2015
User: schluterlab
Dark Spectrum Present: Yes
Reference Spectrum Present: Yes
Number of Sampled Component Spectra: 1
Spectrometers: USB2E3373
Integration Time (usec): 3000 (USB2E3373)
Spectra Averaged: 3 (USB2E3373)
Boxcar Smoothing: 0 (USB2E3373)
Correct for Electrical Dark: No (USB2E3373)
Strobe/Lamp Enabled: No (USB2E3373)
Correct for Detector Non-linearity: No (USB2E3373)
Correct for Stray Light: No (USB2E3373)
Number of Pixels in Processed Spectrum: 2048
>>>>>Begin Processed Spectral Data<<<<<
178.53	0.000
178.91	93.333
179.29	266.667
179.67	-1900.000
180.04	46.154
180.42	600.000
180.80	450.000
181.18	375.000
181.56	-137.500
181.94	1300.000
182.31	525.000
182.69	-15.385
183.07	-333.333
183.45	1100.000
183.83	400.000
184.20	-142.857
184.58	-125.000
184.96	-275.000
185.34	87.500
185.72	-475.000
186.09	300.000
186.47	-100.000
186.85	-175.000
187.23	-50.000
187.61	-200.000
187.98	-137.500
188.36	-62.500
188.74	-100.000
189.12	1700.000
189.49	314.286
189.87	-41.667
190.25	225.000
190.63	-64.286
191.00	-188.889
191.38	380.000
191.76	-33.333
192.14	480.000
192.51	-260.000
192.89	-633.333
193.27	0.000
193.65	-177.778
194.02	-271.429
194.40	400.000
194.78	-130.000
195.15	-900.000
195.53	-209.091
195.91	-450.000
196.29	340.000
196.66	-400.000
197.04	2300.000
197.42	-500.000
197.79	33.333
198.17	-266.667
198.55	-650.000
198.92	-1300.000
199.30	250.000
199.68	-900.000
200.05	-111.111
200.43	-255.556
200.81	-1000.000
201.18	-50.000
201.56	100.000
201.94	6.667
202.31	-13.636
202.69	-110.000
203.07	-140.000
203.44	733.333
203.82	-133.333
204.19	-350.000
204.57	-225.000
204.95	-1400.000
205.32	-56.250
205.70	1700.000
206.08	-1600.000
206.45	11.111
206.83	-1100.000
207.20	-150.000
207.58	-700.000
207.96	-400.000
208.33	-150.000
208.71	-177.778
209.08	260.000
209.46	-142.857
209.84	350.000
210.21	0.000
210.59	-5.000
210.96	800.000
211.34	-350.000
211.71	-400.000
212.09	575.000
212.46	750.000
212.84	-1300.000
213.22	566.667
213.59	150.000
213.97	-77.778
214.34	90.000
214.72	-170.000
215.09	-100.000
215.47	-16.667
215.84	-150.000
216.22	0.000
216.59	46.667
216.97	-500.000
217.34	1000.000
217.72	0.000
218.09	-383.333
218.47	-142.857
218.84	185.714
219.22	42.857
219.59	0.000
219.97	200.000
220.34	200.000
220.72	262.500
221.09	-176.923
221.47	0.000
221.84	800.000
222.22	-750.000
222.59	1200.000
222.97	-150.000
223.34	-1150.000
223.72	-766.667
224.09	-57.143
224.46	-175.000
224.84	-71.429
225.21	-300.000
225.59	-90.909
225.96	-200.000
226.34	-128.571
226.71	-244.444
227.08	-35.000
227.46	1900.000
227.83	-228.571
228.21	-237.500
228.58	650.000
228.95	-25.000
229.33	-900.000
229.70	-360.000
230.08	-1100.000
230.45	-83.333
230.82	-150.000
231.20	-1600.000
231.57	-750.000
231.95	1900.000
232.32	-47.619
232.69	-166.667
233.07	-214.286
233.44	-750.000
233.81	-86.667
234.19	-66.667
234.56	-68.750
234.93	-6.250
235.31	-342.857
235.68	-64.286
236.05	-117.647
236.43	-90.909
236.80	-9.677
237.17	-4.167
237.55	-38.095
237.92	-27.273
238.29	-28.571
238.67	0.000
239.04	0.000
239.41	-51.613
239.79	-51.282
240.16	-19.048
240.53	-32.727
240.91	-10.256
241.28	-14.545
241.65	15.385
242.02	-14.754
242.40	-13.115
242.77	12.121
243.14	-8.475
243.51	-25.714
243.89	-8.861
244.26	-6.742
244.63	7.368
245.00	1.053
245.38	4.237
245.75	9.735
246.12	-0.800
246.49	4.724
246.87	-2.439
247.24	-5.932
247.61	-13.559
247.98	4.225
248.36	-5.594
248.73	5.063
249.10	5.096
249.47	8.772
249.84	6.818
250.22	-1.786
250.59	10.734
250.96	2.618
251.33	11.848
251.70	5.288
252.08	6.635
252.45	3.318
252.82	0.000
253.19	8.085
253.56	4.435
253.94	2.110
254.31	1.288
254.68	2.439
255.05	4.032
255.42	8.333
255.79	5.376
256.16	5.882
256.54	4.779
256.91	8.333
257.28	9.158
257.65	4.610
258.02	11.635
258.39	4.013
258.76	3.716
259.14	6.790
259.51	7.541
259.88	4.268
260.25	7.143
260.62	4.502
260.99	5.935
261.36	7.622
261.73	10.694
262.10	8.333
262.47	8.832
262.85	11.429
263.22	8.023
263.59	4.923
263.96	8.986
264.33	8.401
264.70	7.459
265.07	5.495
265.44	6.977
265.81	7.494
266.18	4.810
266.55	7.598
266.92	7.305
267.29	8.475
267.66	8.395
268.03	6.763
268.40	5.869
268.77	5.301
269.14	6.961
269.51	7.356
269.88	6.651
270.25	4.895
270.62	5.263
270.99	7.432
271.36	8.625
271.73	8.072
272.10	7.323
272.47	7.333
272.84	10.000
273.21	9.404
273.58	5.714
273.95	7.675
274.32	7.692
274.69	9.409
275.06	7.771
275.43	4.688
275.80	9.572
276.17	8.577
276.54	7.128
276.91	5.761
277.28	8.519
277.65	8.264
278.02	7.098
278.39	7.269
278.76	7.769
279.13	7.312
279.50	7.555
279.87	7.400
280.23	7.490
280.60	6.759
280.97	6.796
281.34	6.770
281.71	7.692
282.08	9.476
282.45	5.295
282.82	7.364
283.19	8.545
283.56	8.242
283.92	8.304
284.29	6.320
284.66	7.554
285.03	10.160
285.40	8.487
285.77	7.368
286.14	8.303
286.51	8.171
286.87	7.623
287.24	8.703
287.61	8.099
287.98	4.853
288.35	5.620
288.72	5.093
289.08	6.441
289.45	6.734
289.82	5.536
290.19	9.031
290.56	6.777
290.93	6.995
291.29	6.483
291.66	6.602
292.03	6.279
292.40	6.928
292.77	6.366
293.13	6.667
293.50	8.767
293.87	5.982
294.24	7.391
294.60	4.697
294.97	7.284
295.34	5.037
295.71	7.589
296.08	4.916
296.44	4.864
296.81	6.980
297.18	6.620
297.55	7.062
297.91	7.252
298.28	5.890
298.65	5.579
299.02	7.620
299.38	7.620
299.75	6.114
300.12	6.667
300.48	7.289
300.85	6.422
301.22	5.563
301.59	8.322
301.95	7.179
302.32	4.694
302.69	6.977
303.05	5.739
303.42	5.750
303.79	6.579
304.15	6.161
304.52	7.001
304.89	6.966
305.25	5.495
305.62	5.993
305.99	8.127
306.35	7.436
306.72	5.239
307.09	7.832
307.45	5.675
307.82	5.922
308.19	6.488
308.55	6.972
308.92	5.800
309.29	6.811
309.65	6.363
310.02	6.911
310.38	5.838
310.75	7.070
311.12	7.438
311.48	7.203
311.85	7.827
312.22	7.209
312.58	8.749
312.95	9.072
313.31	7.692
313.68	8.241
314.05	8.803
314.41	6.539
314.78	7.692
315.14	8.193
315.51	7.801
315.87	9.003
316.24	9.038
316.61	9.597
316.97	10.348
317.34	8.574
317.70	9.462
318.07	9.328
318.43	10.019
318.80	10.892
319.16	10.507
319.53	9.680
319.89	10.160
320.26	10.980
320.62	9.615
320.99	10.448
321.35	9.951
321.72	11.054
322.08	11.869
322.45	10.693
322.81	12.008
323.18	12.296
323.54	11.553
323.91	12.326
324.27	12.072
324.64	11.517
325.00	13.700
325.37	12.398
325.73	14.961
326.10	12.135
326.46	13.835
326.83	13.021
327.19	13.428
327.56	15.503
327.92	14.698
328.29	15.065
328.65	13.182
329.01	15.636
329.38	14.451
329.74	15.568
330.11	14.597
330.47	15.259
330.84	15.949
331.20	16.426
331.56	16.500
331.93	16.341
332.29	16.986
332.66	16.418
333.02	17.104
333.38	16.667
333.75	17.275
334.11	16.444
334.48	17.123
334.84	18.023
335.20	16.667
335.57	16.065
335.93	18.174
336.29	16.740
336.66	17.709
337.02	17.928
337.38	17.380
337.75	18.701
338.11	18.873
338.47	18.594
338.84	17.604
339.20	17.663
339.56	19.340
339.93	18.254
340.29	18.601
340.65	17.657
341.02	18.465
341.38	17.776
341.74	18.544
342.11	18.515
342.47	17.768
342.83	17.884
343.20	18.873
343.56	17.388
343.92	19.616
344.28	19.849
344.65	18.069
345.01	19.160
345.37	19.934
345.73	18.740
346.10	18.806
346.46	17.872
346.82	19.487
347.19	18.324
347.55	19.181
347.91	20.236
348.27	18.616
348.63	19.063
349.00	18.695
349.36	17.252
349.72	20.064
350.08	19.246
350.45	17.809
350.81	20.541
351.17	19.855
351.53	17.900
351.89	19.159
352.26	19.535
352.62	19.585
352.98	18.987
353.34	20.464
353.70	19.614
354.07	20.063
354.43	19.921
354.79	19.493
355.15	20.527
355.51	20.391
355.87	20.711
356.24	19.857
356.60	21.112
356.96	21.170
357.32	19.794
357.68	19.617
358.04	19.707
358.40	21.114
358.77	20.556
359.13	20.811
359.49	19.803
359.85	21.265
360.21	21.157
360.57	22.139
360.93	21.481
361.29	21.749
361.66	20.579
362.02	20.340
362.38	21.203
362.74	21.905
363.10	20.947
363.46	23.006
363.82	22.230
364.18	22.214
364.54	22.159
364.90	22.152
365.26	21.113
365.62	22.666
365.98	22.262
366.35	21.972
366.71	22.269
367.07	22.230
367.43	22.375
367.79	22.749
368.15	22.688
368.51	22.727
368.87	23.558
369.23	22.877
369.59	22.847
369.95	23.467
370.31	23.347
370.67	23.644
371.03	24.125
371.39	22.772
371.75	25.179
372.11	23.386
372.47	23.933
372.83	24.339
373.19	23.857
373.55	25.053
373.91	24.751
374.27	24.641
374.63	24.845
374.99	25.730
375.35	24.563
375.71	24.578
376.07	25.599
376.42	23.245
376.78	25.294
377.14	25.898
377.50	25.338
377.86	25.488
378.22	25.754
378.58	26.313
378.94	25.401
379.30	25.960
379.66	26.047
380.02	25.966
380.38	26.888
380.74	25.967
381.09	26.303
381.45	27.446
381.81	26.800
382.17	27.694
382.53	27.599
382.89	27.691
383.25	27.453
383.61	26.533
383.97	27.189
384.32	29.537
384.68	29.021
385.04	27.597
385.40	28.971
385.76	29.146
386.12	28.420
386.48	29.208
386.83	29.325
387.19	28.930
387.55	29.255
387.91	29.046
388.27	28.649
388.62	28.005
388.98	29.073
389.34	28.152
389.70	28.867
390.06	29.459
390.42	30.192
390.77	29.274
391.13	29.876
391.49	30.505
391.85	29.115
392.20	29.369
392.56	30.238
392.92	29.492
393.28	30.253
393.64	31.088
393.99	30.831
394.35	30.414
394.71	29.957
395.07	31.387
395.42	30.215
395.78	29.541
396.14	31.963
396.50	31.131
396.85	31.585
397.21	31.652
397.57	30.821
397.92	31.323
398.28	31.667
398.64	30.874
399.00	31.910
399.35	31.567
399.71	31.707
400.07	31.045
400.42	31.387
400.78	31.366
401.14	31.317
401.49	31.250
401.85	31.910
402.21	32.658
402.57	32.646
402.92	33.606
403.28	31.679
403.63	30.857
403.99	31.759
404.35	32.065
404.70	31.714
405.06	32.757
405.42	31.611
405.77	31.335
406.13	32.198
406.49	31.995
406.84	31.914
407.20	32.862
407.55	32.996
407.91	31.865
408.27	33.088
408.62	32.231
408.98	32.626
409.34	31.871
409.69	31.695
410.05	33.232
410.40	32.557
410.76	33.076
411.11	32.668
411.47	31.841
411.83	33.802
412.18	32.611
412.54	33.984
412.89	33.597
413.25	32.349
413.60	32.746
413.96	32.717
414.31	33.578
414.67	32.889
415.03	33.053
415.38	34.027
415.74	33.634
416.09	32.992
416.45	33.069
416.80	33.550
417.16	33.223
417.51	34.209
417.87	34.239
418.22	34.450
418.58	33.055
418.93	34.948
419.29	33.689
419.64	33.543
420.00	34.386
420.35	34.418
420.71	34.214
421.06	34.260
421.42	35.246
421.77	34.171
422.12	34.471
422.48	34.260
422.83	34.795
423.19	35.301
423.54	34.928
423.90	35.628
424.25	34.333
424.61	36.188
424.96	36.396
425.31	35.495
425.67	36.160
426.02	35.341
426.38	36.479
426.73	35.418
427.09	34.865
427.44	35.795
427.79	35.465
428.15	36.385
428.50	36.598
428.85	36.091
429.21	36.525
429.56	36.146
429.92	36.072
430.27	35.892
430.62	37.304
430.98	34.710
431.33	36.286
431.68	36.944
432.04	36.766
432.39	36.353
432.74	37.290
433.10	37.479
433.45	36.960
433.80	37.290
434.16	37.184
434.51	36.548
434.86	37.258
435.22	36.915
435.57	37.760
435.92	38.218
436.28	37.151
436.63	37.592
436.98	36.712
437.34	37.035
437.69	37.515
438.04	38.287
438.39	37.726
438.75	37.194
439.10	37.146
439.45	37.900
439.81	37.952
440.16	38.047
440.51	38.529
440.86	37.478
441.22	37.369
441.57	38.105
441.92	38.363
442.27	38.041
442.63	37.446
442.98	37.190
443.33	37.781
443.68	38.822
444.03	38.016
444.39	38.571
444.74	39.317
445.09	38.596
445.44	38.098
445.79	39.368
446.15	38.719
446.50	37.289
446.85	39.148
447.20	38.355
447.55	39.669
447.91	38.518
448.26	38.212
448.61	38.370
448.96	39.888
449.31	38.613
449.66	38.409
450.02	37.895
450.37	38.899
450.72	39.661
451.07	39.723
451.42	37.794
451.77	38.181
452.12	40.048
452.47	39.295
452.83	39.837
453.18	39.848
453.53	39.303
453.88	39.952
454.23	38.875
454.58	41.454
454.93	39.798
455.28	40.089
455.63	38.636
455.98	39.578
456.34	39.136
456.69	40.775
457.04	40.074
457.39	38.337
457.74	39.398
458.09	39.211
458.44	39.145
458.79	39.350
459.14	39.304
459.49	39.432
459.84	39.460
460.19	38.663
460.54	38.717
460.89	39.182
461.24	39.162
461.59	39.625
461.94	39.656
462.29	39.250
462.64	40.580
462.99	40.295
463.34	39.365
463.69	39.249
464.04	39.602
464.39	39.546
464.74	39.066
465.09	38.064
465.44	40.271
465.79	39.538
466.14	39.356
466.49	39.666
466.84	39.376
467.19	40.461
467.54	39.367
467.89	39.889
468.24	39.489
468.59	39.475
468.94	40.643
469.29	39.896
469.64	40.027
469.99	41.931
470.34	42.552
470.68	40.843
471.03	41.225
471.38	40.625
471.73	40.839
472.08	39.759
472.43	40.798
472.78	41.067
473.13	40.292
473.48	41.417
473.83	40.757
474.17	40.637
474.52	41.816
474.87	40.093
475.22	40.885
475.57	40.500
475.92	40.227
476.27	39.771
476.61	40.676
476.96	39.855
477.31	39.989
477.66	40.786
478.01	40.843
478.36	40.440
478.70	40.737
479.05	40.671
479.40	40.725
479.75	40.826
480.10	40.377
480.45	39.458
480.79	41.214
481.14	41.696
481.49	40.126
481.84	39.760
482.19	40.384
482.53	41.525
482.88	41.243
483.23	40.939
483.58	40.981
483.92	40.707
484.27	38.901
484.62	39.568
484.97	39.867
485.31	38.080
485.66	37.231
486.01	37.812
486.36	38.743
486.70	39.688
487.05	39.261
487.40	39.370
487.75	39.107
488.09	38.450
488.44	39.783
488.79	39.901
489.13	39.331
489.48	40.294
489.83	40.742
490.17	41.054
490.52	41.304
490.87	40.647
491.22	41.663
491.56	41.019
491.91	41.269
492.26	40.519
492.60	41.437
492.95	40.409
493.30	41.115
493.64	41.561
493.99	41.109
494.34	41.571
494.68	41.199
495.03	41.539
495.37	41.740
495.72	41.749
496.07	42.046
496.41	41.362
496.76	41.781
497.11	41.686
497.45	41.715
497.80	42.021
498.14	41.749
498.49	42.089
498.84	41.893
499.18	41.618
499.53	42.426
499.87	42.181
500.22	42.010
500.56	42.521
500.91	41.823
501.26	41.970
501.60	41.213
501.95	41.981
502.29	40.907
502.64	42.244
502.98	41.639
503.33	42.199
503.67	41.427
504.02	41.091
504.36	42.549
504.71	42.452
505.06	42.137
505.40	42.665
505.75	42.378
506.09	42.720
506.44	42.807
506.78	42.499
507.13	42.739
507.47	43.714
507.82	43.263
508.16	43.057
508.51	42.658
508.85	42.754
509.19	42.177
509.54	43.499
509.88	43.564
510.23	43.816
510.57	43.915
510.92	43.502
511.26	42.743
511.61	43.197
511.95	42.672
512.30	43.705
512.64	42.738
512.98	44.224
513.33	42.998
513.67	44.054
514.02	42.617
514.36	43.767
514.70	43.463
515.05	43.625
515.39	43.887
515.74	44.910
516.08	43.919
516.42	43.229
516.77	44.945
517.11	43.936
517.46	45.694
517.80	46.390
518.14	44.384
518.49	44.650
518.83	44.154
519.17	45.115
519.52	44.592
519.86	46.057
520.20	45.049
520.55	44.923
520.89	45.523
521.23	44.444
521.58	45.831
521.92	45.662
522.26	46.222
522.61	45.311
522.95	44.097
523.29	45.580
523.64	45.846
523.98	47.167
524.32	45.317
524.66	45.714
525.01	45.922
525.35	46.198
525.69	45.673
526.04	45.692
526.38	46.658
526.72	45.019
527.06	47.461
527.41	46.997
527.75	45.083
528.09	47.386
528.43	46.754
528.78	45.352
529.12	47.375
529.46	46.843
529.80	45.384
530.15	46.877
530.49	46.636
530.83	47.544
531.17	46.330
531.51	46.149
531.86	46.346
532.20	46.154
532.54	46.390
532.88	47.036
533.22	47.393
533.57	46.671
533.91	45.131
534.25	45.569
534.59	45.784
534.93	45.551
535.27	46.507
535.62	47.315
535.96	45.701
536.30	45.288
536.64	46.348
536.98	48.023
537.32	45.543
537.66	45.350
538.01	46.667
538.35	46.081
538.69	46.524
539.03	46.649
539.37	46.707
539.71	45.897
540.05	44.825
540.39	46.537
540.73	46.372
541.07	47.473
541.42	45.847
541.76	43.654
542.10	46.117
542.44	46.169
542.78	46.811
543.12	46.096
543.46	44.658
543.80	45.686
544.14	46.474
544.48	46.522
544.82	47.226
545.16	47.284
545.50	45.760
545.84	46.523
546.18	48.405
546.52	46.302
546.86	47.151
547.20	46.906
547.54	45.110
547.88	46.450
548.22	45.806
548.56	47.829
548.90	46.900
549.24	47.582
549.58	47.848
549.92	47.703
550.26	46.676
550.60	47.368
550.94	46.423
551.28	47.479
551.62	47.046
551.96	46.454
552.30	47.247
552.64	47.080
552.98	46.531
553.32	47.186
553.66	48.378
554.00	48.045
554.34	47.726
554.68	47.515
555.02	46.599
555.36	47.592
555.69	46.920
556.03	47.228
556.37	46.302
556.71	45.956
557.05	47.820
557.39	47.365
557.73	48.359
558.07	48.531
558.41	46.971
558.75	47.757
559.08	47.393
559.42	49.464
559.76	48.390
560.10	47.651
560.44	48.338
560.78	45.790
561.12	46.239
561.45	47.808
561.79	48.153
562.13	46.213
562.47	47.199
562.81	46.818
563.15	47.866
563.48	47.961
563.82	47.194
564.16	46.518
564.50	46.505
564.84	47.156
565.17	47.016
565.51	47.327
565.85	48.141
566.19	47.101
566.52	46.380
566.86	45.828
567.20	47.276
567.54	47.608
567.88	45.059
568.21	46.924
568.55	45.334
568.89	44.583
569.23	43.915
569.56	43.211
569.90	44.178
570.24	43.480
570.57	42.847
570.91	42.809
571.25	42.931
571.59	42.523
571.92	41.994
572.26	42.451
572.60	41.948
572.93	41.902
573.27	41.951
573.61	41.296
573.95	42.150
574.28	40.704
574.62	41.256
574.96	40.429
575.29	41.260
575.63	41.465
575.97	41.370
576.30	41.189
576.64	41.697
576.98	40.756
577.31	41.025
577.65	40.975
577.98	40.170
578.32	40.707
578.66	41.565
578.99	41.533
579.33	42.175
579.67	41.491
580.00	41.543
580.34	41.341
580.67	41.064
581.01	40.197
581.35	40.816
581.68	40.305
582.02	41.124
582.35	40.623
582.69	41.437
583.02	41.490
583.36	41.206
583.70	41.270
584.03	41.595
584.37	41.678
584.70	41.634
585.04	41.544
585.37	40.931
585.71	41.122
586.04	42.047
586.38	41.513
586.72	42.080
587.05	41.886
587.39	41.983
587.72	42.235
588.06	42.228
588.39	42.068
588.73	42.396
589.06	43.350
589.40	43.834
589.73	43.201
590.07	42.607
590.40	42.435
590.73	42.783
591.07	43.033
591.40	44.541
591.74	44.787
592.07	44.279
592.41	43.864
592.74	43.543
593.08	43.220
593.41	42.697
593.75	42.499
594.08	43.422
594.41	43.993
594.75	43.941
595.08	43.346
595.42	43.316
595.75	43.403
596.09	43.267
596.42	44.517
596.75	44.071
597.09	44.880
597.42	43.300
597.75	44.287
598.09	44.465
598.42	44.233
598.76	43.729
599.09	43.528
599.42	43.714
599.76	43.752
600.09	43.855
600.42	43.600
600.76	43.503
601.09	44.056
601.42	43.886
601.76	44.276
602.09	43.599
602.42	43.374
602.76	44.080
603.09	43.871
603.42	43.997
603.76	43.638
604.09	44.253
604.42	43.006
604.76	43.916
605.09	44.620
605.42	43.307
605.75	43.596
606.09	43.670
606.42	42.857
606.75	43.881
607.09	44.243
607.42	44.190
607.75	44.238
608.08	44.374
608.42	44.702
608.75	44.439
609.08	44.910
609.41	45.640
609.75	43.735
610.08	45.000
610.41	45.253
610.74	44.874
611.07	46.095
611.41	44.276
611.74	45.604
612.07	46.133
612.40	44.616
612.73	45.450
613.07	46.285
613.40	46.086
613.73	44.741
614.06	45.195
614.39	46.449
614.72	45.363
615.06	44.620
615.39	44.710
615.72	45.301
616.05	45.831
616.38	46.605
616.71	45.646
617.05	46.924
617.38	47.183
617.71	46.130
618.04	46.646
618.37	47.673
618.70	48.175
619.03	47.732
619.36	48.062
619.69	48.959
620.03	46.419
620.36	47.750
620.69	48.098
621.02	48.630
621.35	48.145
621.68	49.508
622.01	48.301
622.34	48.602
622.67	47.344
623.00	46.825
623.33	49.254
623.66	49.040
623.99	47.895
624.32	48.810
624.65	49.007
624.99	48.320
625.32	47.305
625.65	49.728
625.98	47.027
626.31	48.858
626.64	50.042
626.97	50.771
627.30	49.106
627.63	48.791
627.96	50.044
628.29	49.816
628.62	49.952
628.95	52.264
629.28	50.376
629.61	49.558
629.94	49.905
630.26	51.392
630.59	52.362
630.92	51.752
631.25	51.714
631.58	52.063
631.91	52.234
632.24	53.000
632.57	52.556
632.90	52.989
633.23	55.257
633.56	51.696
633.89	53.420
634.22	52.538
634.55	52.885
634.88	53.325
635.20	54.557
635.53	54.453
