SpectraSuite Data File
++++++++++++++++++++++++++++++++++++
Date: Sat May 16 11:29:41 PDT 2015
User: schluterlab
Dark Spectrum Present: Yes
Reference Spectrum Present: Yes
Number of Sampled Component Spectra: 1
Spectrometers: USB2E3373
Integration Time (usec): 3000 (USB2E3373)
Spectra Averaged: 3 (USB2E3373)
Boxcar Smoothing: 0 (USB2E3373)
Correct for Electrical Dark: No (USB2E3373)
Strobe/Lamp Enabled: No (USB2E3373)
Correct for Detector Non-linearity: No (USB2E3373)
Correct for Stray Light: No (USB2E3373)
Number of Pixels in Processed Spectrum: 2048
>>>>>Begin Processed Spectral Data<<<<<
178.53	0.000
178.91	220.000
179.29	233.333
179.67	-1600.000
180.04	-61.538
180.42	1900.000
180.80	150.000
181.18	675.000
181.56	-50.000
181.94	200.000
182.31	325.000
182.69	-107.692
183.07	-333.333
183.45	1400.000
183.83	300.000
184.20	-128.571
184.58	-212.500
184.96	-475.000
185.34	143.750
185.72	-250.000
186.09	166.667
186.47	-200.000
186.85	0.000
187.23	-112.500
187.61	25.000
187.98	-300.000
188.36	37.500
188.74	-187.500
189.12	1100.000
189.49	342.857
189.87	-25.000
190.25	575.000
190.63	-21.429
191.00	-300.000
191.38	340.000
191.76	33.333
192.14	420.000
192.51	-260.000
192.89	-566.667
193.27	0.000
193.65	-66.667
194.02	-242.857
194.40	566.667
194.78	-60.000
195.15	-1600.000
195.53	-190.909
195.91	-383.333
196.29	140.000
196.66	-800.000
197.04	1900.000
197.42	-50.000
197.79	-66.667
198.17	-433.333
198.55	-600.000
198.92	-1700.000
199.30	275.000
199.68	-300.000
200.05	-122.222
200.43	-166.667
200.81	-700.000
201.18	-100.000
201.56	342.857
201.94	-46.667
202.31	-9.091
202.69	-50.000
203.07	-110.000
203.44	266.667
203.82	-250.000
204.19	-475.000
204.57	-375.000
204.95	-2000.000
205.32	0.000
205.70	2800.000
206.08	-1300.000
206.45	-72.222
206.83	-700.000
207.20	-250.000
207.58	-533.333
207.96	-466.667
208.33	-50.000
208.71	-88.889
209.08	120.000
209.46	-200.000
209.84	1000.000
210.21	0.000
210.59	-15.000
210.96	1300.000
211.34	-366.667
211.71	-300.000
212.09	450.000
212.46	950.000
212.84	-2500.000
213.22	766.667
213.59	250.000
213.97	-144.444
214.34	130.000
214.72	-20.000
215.09	-233.333
215.47	-316.667
215.84	0.000
216.22	-100.000
216.59	-60.000
216.97	-375.000
217.34	1050.000
217.72	-157.143
218.09	-483.333
218.47	-171.429
218.84	200.000
219.22	-28.571
219.59	0.000
219.97	300.000
220.34	525.000
220.72	337.500
221.09	-76.923
221.47	0.000
221.84	200.000
222.22	-550.000
222.59	900.000
222.97	-212.500
223.34	-550.000
223.72	-833.333
224.09	-100.000
224.46	-475.000
224.84	-100.000
225.21	-14.286
225.59	-127.273
225.96	-162.500
226.34	-157.143
226.71	-177.778
227.08	10.000
227.46	1800.000
227.83	-328.571
228.21	-275.000
228.58	300.000
228.95	12.500
229.33	-1800.000
229.70	-440.000
230.08	-950.000
230.45	0.000
230.82	-266.667
231.20	-700.000
231.57	-300.000
231.95	2600.000
232.32	-38.095
232.69	-211.111
233.07	-157.143
233.44	-1200.000
233.81	-33.333
234.19	-144.444
234.56	-43.750
234.93	9.375
235.31	-142.857
235.68	-78.571
236.05	-58.824
236.43	-68.182
236.80	-12.903
237.17	-33.333
237.55	-71.429
237.92	-36.364
238.29	-37.143
238.67	-44.118
239.04	-25.000
239.41	-22.581
239.79	-56.410
240.16	-23.810
240.53	-20.000
240.91	-23.077
241.28	-12.727
241.65	-4.615
242.02	-14.754
242.40	-21.311
242.77	0.000
243.14	-18.644
243.51	-14.286
243.89	-20.253
244.26	-21.348
244.63	-1.053
245.00	-11.579
245.38	-6.780
245.75	1.770
246.12	0.000
246.49	-6.299
246.87	-5.691
247.24	-17.797
247.61	-9.322
247.98	-2.817
248.36	-11.888
248.73	0.000
249.10	-7.643
249.47	0.000
249.84	3.409
250.22	-11.310
250.59	-2.260
250.96	-3.665
251.33	0.474
251.70	4.808
252.08	-1.422
252.45	-5.213
252.82	-2.381
253.19	-0.851
253.56	-0.806
253.94	-1.688
254.31	-0.429
254.68	-0.813
255.05	-2.016
255.42	1.984
255.79	0.000
256.16	0.784
256.54	1.838
256.91	-0.758
257.28	-0.366
257.65	3.191
258.02	4.403
258.39	-1.003
258.76	-2.703
259.14	-1.543
259.51	2.623
259.88	-0.915
260.25	0.621
260.62	-1.929
260.99	-3.858
261.36	1.829
261.73	2.312
262.10	2.778
262.47	0.285
262.85	6.571
263.22	0.000
263.59	-1.231
263.96	-0.580
264.33	0.000
264.70	1.657
265.07	0.275
265.44	1.034
265.81	1.550
266.18	0.506
266.55	0.490
266.92	3.778
267.29	-0.242
267.66	1.235
268.03	0.725
268.40	1.174
268.77	0.964
269.14	-1.160
269.51	4.138
269.88	1.606
270.25	-0.699
270.62	-0.229
270.99	2.252
271.36	0.000
271.73	2.018
272.10	-0.229
272.47	0.444
272.84	3.333
273.21	1.606
273.58	1.099
273.95	-0.219
274.32	2.715
274.69	3.720
275.06	3.272
275.43	-0.223
275.80	1.426
276.17	2.092
276.54	2.851
276.91	2.469
277.28	4.057
277.65	1.240
278.02	3.549
278.39	1.965
278.76	0.996
279.13	2.964
279.50	2.783
279.87	-0.423
280.23	2.632
280.60	0.398
280.97	-0.194
281.34	0.000
281.71	2.115
282.08	1.815
282.45	0.204
282.82	3.488
283.19	1.273
283.56	4.212
283.92	3.887
284.29	1.487
284.66	3.597
285.03	3.030
285.40	1.661
285.77	3.509
286.14	1.083
286.51	2.487
286.87	5.082
287.24	2.901
287.61	4.132
287.98	3.986
288.35	1.157
288.72	2.547
289.08	0.678
289.45	2.525
289.82	0.519
290.19	5.419
290.56	1.653
290.93	4.293
291.29	3.890
291.66	2.415
292.03	5.965
292.40	4.217
292.77	3.882
293.13	6.179
293.50	4.012
293.87	5.215
294.24	5.279
294.60	3.636
294.97	6.222
295.34	3.852
295.71	4.315
296.08	2.458
296.44	5.150
296.81	4.843
297.18	4.930
297.55	6.215
297.91	5.579
298.28	4.247
298.65	4.184
299.02	5.882
299.38	5.481
299.75	4.755
300.12	4.872
300.48	5.371
300.85	4.456
301.22	6.339
301.59	5.202
301.95	7.683
302.32	2.738
302.69	5.386
303.05	3.541
303.42	5.250
303.79	5.263
304.15	5.806
304.52	6.068
304.89	5.195
305.25	3.785
305.62	5.405
305.99	8.481
306.35	5.438
306.72	5.125
307.09	7.491
307.45	6.016
307.82	5.698
308.19	5.817
308.55	6.209
308.92	4.511
309.29	5.622
309.65	6.681
310.02	5.616
310.38	5.405
310.75	7.684
311.12	6.198
311.48	6.472
311.85	6.694
312.22	5.664
312.58	7.019
312.95	5.403
313.31	8.492
313.68	7.638
314.05	8.408
314.41	6.338
314.78	6.094
315.14	7.996
315.51	7.092
315.87	8.132
316.24	7.775
316.61	8.733
316.97	7.164
317.34	7.803
317.70	6.865
318.07	8.209
318.43	7.116
318.80	9.108
319.16	7.598
319.53	8.271
319.89	7.714
320.26	6.765
320.62	7.212
320.99	8.557
321.35	5.911
321.72	7.165
322.08	7.715
322.45	8.317
322.81	8.453
323.18	8.646
323.54	8.503
323.91	8.804
324.27	7.890
324.64	8.958
325.00	9.948
325.37	9.412
325.73	9.711
326.10	7.529
326.46	8.932
326.83	9.532
327.19	9.091
327.56	9.881
327.92	9.601
328.29	10.476
328.65	8.273
329.01	10.689
329.38	9.456
329.74	9.615
330.11	9.882
330.47	10.082
330.84	10.449
331.20	8.845
331.56	9.116
331.93	10.124
332.29	10.685
332.66	9.394
333.02	9.231
333.38	10.484
333.75	9.350
334.11	9.689
334.48	9.003
334.84	11.111
335.20	10.461
335.57	8.935
335.93	11.191
336.29	10.186
336.66	9.956
337.02	10.180
337.38	9.804
337.75	10.097
338.11	9.839
338.47	10.231
338.84	9.619
339.20	9.754
339.56	11.230
339.93	8.730
340.29	9.832
340.65	10.402
341.02	10.961
341.38	10.615
341.74	10.500
342.11	9.300
342.47	8.670
342.83	7.893
343.20	9.821
343.56	9.061
343.92	11.102
344.28	11.018
344.65	9.158
345.01	10.336
345.37	10.216
345.73	9.411
346.10	9.403
346.46	9.829
346.82	9.383
347.19	9.532
347.55	8.828
347.91	10.079
348.27	8.990
348.63	10.501
349.00	10.103
349.36	9.446
349.72	11.146
350.08	9.864
350.45	9.062
350.81	9.315
351.17	9.566
351.53	8.035
351.89	9.458
352.26	9.690
352.62	10.983
352.98	9.889
353.34	10.312
353.70	9.498
354.07	9.048
354.43	9.328
354.79	8.320
355.15	9.265
355.51	9.297
355.87	8.458
356.24	8.817
356.60	9.347
356.96	10.239
357.32	9.660
357.68	9.962
358.04	9.777
358.40	9.049
358.77	9.815
359.13	9.334
359.49	9.599
359.85	9.299
360.21	10.274
360.57	10.919
360.93	9.704
361.29	10.389
361.66	9.451
362.02	9.320
362.38	9.831
362.74	9.377
363.10	9.182
363.46	10.114
363.82	9.475
364.18	10.058
364.54	10.936
364.90	9.224
365.26	9.201
365.62	10.335
365.98	10.100
366.35	8.873
366.71	9.937
367.07	10.092
367.43	10.913
367.79	10.309
368.15	9.246
368.51	9.790
368.87	11.264
369.23	9.754
369.59	10.764
369.95	10.782
370.31	10.689
370.67	8.749
371.03	10.860
371.39	9.618
371.75	10.587
372.11	9.756
372.47	10.484
372.83	10.987
373.19	10.000
373.55	9.852
373.91	10.882
374.27	9.856
374.63	10.628
374.99	10.709
375.35	9.960
375.71	11.141
376.07	10.951
376.42	9.536
376.78	10.327
377.14	10.508
377.50	11.605
377.86	11.053
378.22	10.113
378.58	10.191
378.94	10.234
379.30	10.725
379.66	11.354
380.02	10.517
380.38	10.876
380.74	10.434
381.09	10.603
381.45	11.695
381.81	10.345
382.17	10.526
382.53	11.003
382.89	11.005
383.25	11.559
383.61	11.085
383.97	10.961
384.32	10.513
384.68	11.548
385.04	11.171
385.40	11.199
385.76	10.976
386.12	10.681
386.48	11.510
386.83	11.840
387.19	11.536
387.55	11.932
387.91	11.025
388.27	10.555
388.62	11.358
388.98	10.963
389.34	10.588
389.70	11.571
390.06	10.938
390.42	11.346
390.77	11.609
391.13	11.491
391.49	11.666
391.85	11.347
392.20	11.044
392.56	11.362
392.92	11.523
393.28	12.055
393.64	11.305
393.99	12.554
394.35	11.800
394.71	12.168
395.07	11.551
395.42	11.204
395.78	10.874
396.14	12.835
396.50	11.009
396.85	10.981
397.21	11.786
397.57	11.307
397.92	11.417
398.28	11.944
398.64	11.898
399.00	11.798
399.35	11.781
399.71	12.253
400.07	11.881
400.42	11.618
400.78	11.210
401.14	12.216
401.49	11.380
401.85	11.592
402.21	11.323
402.57	11.165
402.92	12.020
403.28	11.091
403.63	11.264
403.99	11.436
404.35	10.628
404.70	11.703
405.06	11.765
405.42	11.378
405.77	11.821
406.13	11.471
406.49	11.863
406.84	11.098
407.20	11.779
407.55	11.970
407.91	11.140
408.27	11.765
408.62	11.305
408.98	11.522
409.34	12.127
409.69	12.413
410.05	11.522
410.40	11.281
410.76	11.737
411.11	11.908
411.47	11.573
411.83	11.797
412.18	12.252
412.54	11.775
412.89	12.151
413.25	11.688
413.60	11.786
413.96	10.844
414.31	12.538
414.67	11.429
415.03	12.419
415.38	11.581
415.74	12.178
416.09	12.084
416.45	11.243
416.80	12.029
417.16	11.362
417.51	12.672
417.87	11.845
418.22	11.694
418.58	11.874
418.93	11.956
419.29	11.731
419.64	11.369
420.00	12.272
420.35	11.473
420.71	11.705
421.06	12.663
421.42	12.295
421.77	12.284
422.12	12.087
422.48	12.614
422.83	11.788
423.19	11.860
423.54	11.527
423.90	11.799
424.25	11.369
424.61	12.606
424.96	12.932
425.31	11.962
425.67	12.206
426.02	11.704
426.38	12.946
426.73	11.864
427.09	12.071
427.44	11.875
427.79	12.035
428.15	12.926
428.50	12.786
428.85	12.950
429.21	12.230
429.56	12.240
429.92	12.224
430.27	12.861
430.62	12.539
430.98	12.650
431.33	11.846
431.68	12.172
432.04	13.039
432.39	12.650
432.74	13.129
433.10	12.718
433.45	11.917
433.80	12.710
434.16	13.057
434.51	13.425
434.86	13.943
435.22	13.641
435.57	12.607
435.92	12.661
436.28	12.166
436.63	12.776
436.98	12.428
437.34	12.640
437.69	12.835
438.04	12.876
438.39	12.575
438.75	12.049
439.10	13.381
439.45	12.734
439.81	14.036
440.16	13.458
440.51	13.471
440.86	12.840
441.22	12.714
441.57	13.316
441.92	13.657
442.27	13.745
442.63	13.036
442.98	12.754
443.33	13.234
443.68	13.392
444.03	13.458
444.39	13.167
444.74	12.830
445.09	13.048
445.44	13.731
445.79	13.921
446.15	12.870
446.50	13.174
446.85	12.417
447.20	12.768
447.55	13.425
447.91	14.037
448.26	13.184
448.61	12.620
448.96	13.221
449.31	13.134
449.66	13.337
450.02	12.632
450.37	12.870
450.72	13.503
451.07	14.079
451.42	12.949
451.77	14.183
452.12	13.707
452.47	13.476
452.83	12.580
453.18	13.472
453.53	13.060
453.88	14.354
454.23	12.515
454.58	14.170
454.93	14.169
455.28	13.257
455.63	13.821
455.98	13.795
456.34	12.897
456.69	13.884
457.04	14.075
457.39	13.098
457.74	12.995
458.09	13.863
458.44	14.838
458.79	13.117
459.14	14.318
459.49	13.558
459.84	14.503
460.19	14.021
460.54	12.886
460.89	13.733
461.24	14.268
461.59	14.068
461.94	13.622
462.29	14.354
462.64	12.912
462.99	14.123
463.34	13.774
463.69	13.041
464.04	13.005
464.39	13.262
464.74	14.598
465.09	13.289
465.44	13.706
465.79	14.213
466.14	13.809
466.49	13.817
466.84	13.685
467.19	14.838
467.54	13.101
467.89	13.625
468.24	14.074
468.59	14.179
468.94	13.891
469.29	13.515
469.64	14.353
469.99	14.315
470.34	13.961
470.68	14.462
471.03	14.109
471.38	13.681
471.73	13.497
472.08	14.257
472.43	14.286
472.78	14.933
473.13	12.922
473.48	14.422
473.83	14.578
474.17	13.248
474.52	14.770
474.87	13.869
475.22	14.631
475.57	14.278
475.92	15.119
476.27	14.457
476.61	13.915
476.96	13.807
477.31	14.639
477.66	14.665
478.01	14.857
478.36	14.615
478.70	15.109
479.05	14.278
479.40	14.767
479.75	14.577
480.10	15.030
480.45	14.652
480.79	14.265
481.14	14.601
481.49	14.134
481.84	14.656
482.19	15.121
482.53	14.394
482.88	14.333
483.23	14.789
483.58	15.402
483.92	15.098
484.27	14.045
484.62	14.600
484.97	14.848
485.31	14.848
485.66	13.732
486.01	14.154
486.36	14.477
486.70	15.530
487.05	14.741
487.40	14.770
487.75	14.262
488.09	14.577
488.44	14.344
488.79	14.786
489.13	14.720
489.48	15.090
489.83	14.978
490.17	15.324
490.52	15.036
490.87	14.503
491.22	15.133
491.56	15.463
491.91	14.742
492.26	14.811
492.60	14.795
492.95	14.517
493.30	14.912
493.64	14.857
493.99	15.249
494.34	15.429
494.68	15.075
495.03	15.249
495.37	15.192
495.72	14.489
496.07	14.641
496.41	15.331
496.76	14.886
497.11	15.261
497.45	15.948
497.80	14.607
498.14	14.833
498.49	14.515
498.84	14.951
499.18	15.107
499.53	15.441
499.87	14.479
500.22	14.902
500.56	15.308
500.91	14.877
501.26	15.575
501.60	14.829
501.95	15.845
502.29	14.927
502.64	14.899
502.98	15.093
503.33	15.273
503.67	14.703
504.02	15.065
504.36	15.539
504.71	15.502
505.06	15.277
505.40	15.918
505.75	15.396
506.09	15.976
506.44	15.589
506.78	15.454
507.13	15.551
507.47	16.223
507.82	15.488
508.16	15.544
508.51	15.868
508.85	15.424
509.19	15.175
509.54	16.596
509.88	16.011
510.23	15.723
510.57	15.714
510.92	15.736
511.26	14.939
511.61	15.281
511.95	15.948
512.30	15.448
512.64	14.580
512.98	15.457
513.33	16.035
513.67	15.745
514.02	15.884
514.36	16.842
514.70	16.355
515.05	16.009
515.39	15.283
515.74	16.172
516.08	16.196
516.42	15.977
516.77	16.060
517.11	15.675
517.46	15.490
517.80	14.801
518.14	16.184
518.49	16.677
518.83	15.786
519.17	16.696
519.52	15.732
519.86	15.950
520.20	16.443
520.55	16.000
520.89	15.466
521.23	16.361
521.58	14.671
521.92	15.959
522.26	15.746
522.61	15.970
522.95	15.061
523.29	16.364
523.64	15.490
523.98	15.977
524.32	15.713
524.66	16.211
525.01	16.313
525.35	15.979
525.69	15.810
526.04	16.057
526.38	16.423
526.72	15.900
527.06	16.536
527.41	16.106
527.75	15.578
528.09	16.016
528.43	15.344
528.78	16.206
529.12	17.157
529.46	16.108
529.80	16.527
530.15	15.840
530.49	16.688
530.83	17.289
531.17	15.219
531.51	15.740
531.86	16.853
532.20	16.937
532.54	16.912
532.88	15.481
533.22	17.447
533.57	16.775
533.91	15.855
534.25	15.336
534.59	15.803
534.93	16.366
535.27	14.915
535.62	16.688
535.96	15.772
536.30	15.510
536.64	16.135
536.98	17.020
537.32	15.204
537.66	17.244
538.01	16.151
538.35	16.149
538.69	15.508
539.03	16.114
539.37	16.500
539.71	17.078
540.05	16.038
540.39	16.066
540.73	16.932
541.07	15.642
541.42	16.340
541.76	15.150
542.10	17.286
542.44	17.189
542.78	15.875
543.12	16.904
543.46	16.164
543.80	15.853
544.14	16.454
544.48	16.601
544.82	16.441
545.16	16.164
545.50	16.218
545.84	15.647
546.18	16.505
546.52	16.430
546.86	16.239
547.20	16.456
547.54	14.738
547.88	15.859
548.22	15.007
548.56	16.500
548.90	16.779
549.24	15.978
549.58	15.879
549.92	16.961
550.26	16.185
550.60	16.785
550.94	17.445
551.28	16.704
551.62	15.805
551.96	17.004
552.30	16.376
552.64	16.467
552.98	16.258
553.32	16.234
553.66	17.159
554.00	16.915
554.34	15.596
554.68	15.278
555.02	16.860
555.36	16.319
555.69	15.903
556.03	16.140
556.37	16.074
556.71	17.108
557.05	16.999
557.39	15.887
557.73	17.651
558.07	16.956
558.41	15.782
558.75	15.665
559.08	15.564
559.42	16.156
559.76	16.641
560.10	17.524
560.44	17.413
560.78	16.910
561.12	17.046
561.45	16.644
561.79	16.167
562.13	16.830
562.47	17.157
562.81	15.912
563.15	16.235
563.48	16.240
563.82	15.889
564.16	15.686
564.50	16.263
564.84	16.270
565.17	16.048
565.51	16.297
565.85	17.106
566.19	17.589
566.52	16.308
566.86	15.929
567.20	16.707
567.54	17.070
567.88	15.578
568.21	16.387
568.55	14.846
568.89	15.656
569.23	16.659
569.56	15.805
569.90	15.500
570.24	15.633
570.57	15.501
570.91	15.607
571.25	15.597
571.59	15.860
571.92	15.655
572.26	15.279
572.60	15.917
572.93	15.237
573.27	15.396
573.61	14.913
573.95	15.859
574.28	14.940
574.62	15.557
574.96	14.930
575.29	15.269
575.63	15.317
575.97	15.129
576.30	15.347
576.64	15.405
576.98	15.004
577.31	15.185
577.65	15.612
577.98	15.508
578.32	15.344
578.66	14.791
578.99	15.453
579.33	15.448
579.67	15.369
580.00	15.179
580.34	15.411
580.67	15.004
581.01	15.379
581.35	15.232
581.68	15.038
582.02	15.476
582.35	15.411
582.69	15.516
583.02	15.650
583.36	15.300
583.70	15.028
584.03	15.679
584.37	15.372
584.70	15.411
585.04	15.241
585.37	15.107
585.71	15.457
586.04	15.983
586.38	14.969
586.72	15.558
587.05	15.350
587.39	15.515
587.72	15.662
588.06	15.626
588.39	15.551
588.73	15.782
589.06	15.761
589.40	15.665
589.73	16.678
590.07	15.222
590.40	15.978
590.73	14.914
591.07	16.189
591.40	15.815
591.74	16.073
592.07	16.126
592.41	16.051
592.74	15.834
593.08	15.723
593.41	15.954
593.75	15.562
594.08	15.744
594.41	16.377
594.75	15.855
595.08	15.263
595.42	16.221
595.75	15.031
596.09	15.988
596.42	16.039
596.75	16.085
597.09	16.429
597.42	15.277
597.75	15.810
598.09	16.539
598.42	15.245
598.76	15.864
599.09	15.864
599.42	15.302
599.76	15.176
600.09	15.534
600.42	16.331
600.76	15.970
601.09	15.989
601.42	15.473
601.76	16.706
602.09	16.442
602.42	15.391
602.76	15.496
603.09	15.484
603.42	15.592
603.76	15.955
604.09	15.539
604.42	15.903
604.76	16.311
605.09	16.094
605.42	16.223
605.75	15.481
606.09	16.231
606.42	16.003
606.75	15.371
607.09	16.189
607.42	15.669
607.75	15.982
608.08	15.951
608.42	15.941
608.75	15.514
609.08	16.123
609.41	16.143
609.75	15.505
610.08	15.196
610.41	15.807
610.74	16.151
611.07	16.024
611.41	15.986
611.74	16.607
612.07	16.595
612.40	15.299
612.73	15.832
613.07	15.905
613.40	16.968
613.73	15.967
614.06	15.541
614.39	16.516
614.72	15.978
615.06	15.815
615.39	15.355
615.72	16.295
616.05	15.516
616.38	16.135
616.71	16.817
617.05	16.405
617.38	15.851
617.71	16.278
618.04	16.584
618.37	16.101
618.70	16.232
619.03	16.317
619.36	16.561
619.69	16.655
620.03	15.427
620.36	17.018
620.69	15.865
621.02	17.580
621.35	17.016
621.68	17.705
622.01	16.909
622.34	17.935
622.67	16.094
623.00	16.603
623.33	17.090
623.66	16.248
623.99	17.068
624.32	16.964
624.65	16.188
624.99	16.281
625.32	15.644
625.65	16.472
625.98	15.884
626.31	16.966
626.64	17.406
626.97	17.466
627.30	16.851
627.63	15.717
627.96	16.623
628.29	16.820
628.62	16.905
628.95	16.732
629.28	16.917
629.61	15.604
629.94	17.486
630.26	18.191
630.59	17.286
630.92	17.117
631.25	18.145
631.58	16.614
631.91	15.957
632.24	17.000
632.57	16.444
632.90	17.356
633.23	16.939
633.56	14.152
633.89	18.042
634.22	16.883
634.55	17.067
634.88	17.775
635.20	16.355
635.53	15.903
635.86	17.003
636.19	16.484
636.52	17.563
636.85	17.088
