SpectraSuite Data File
++++++++++++++++++++++++++++++++++++
Date: Sat May 16 11:47:44 PDT 2015
User: schluterlab
Dark Spectrum Present: Yes
Reference Spectrum Present: Yes
Number of Sampled Component Spectra: 1
Spectrometers: USB2E3373
Integration Time (usec): 3000 (USB2E3373)
Spectra Averaged: 3 (USB2E3373)
Boxcar Smoothing: 0 (USB2E3373)
Correct for Electrical Dark: No (USB2E3373)
Strobe/Lamp Enabled: No (USB2E3373)
Correct for Detector Non-linearity: No (USB2E3373)
Correct for Stray Light: No (USB2E3373)
Number of Pixels in Processed Spectrum: 2048
>>>>>Begin Processed Spectral Data<<<<<
178.53	0.000
178.91	93.333
179.29	500.000
179.67	-1200.000
180.04	-115.385
180.42	1300.000
180.80	325.000
181.18	350.000
181.56	-112.500
181.94	1200.000
182.31	475.000
182.69	-100.000
183.07	-466.667
183.45	1100.000
183.83	500.000
184.20	-171.429
184.58	-12.500
184.96	-325.000
185.34	93.750
185.72	-625.000
186.09	133.333
186.47	-137.500
186.85	-137.500
187.23	-75.000
187.61	-125.000
187.98	-225.000
188.36	-112.500
188.74	-162.500
189.12	1900.000
189.49	342.857
189.87	16.667
190.25	225.000
190.63	-21.429
191.00	-100.000
191.38	360.000
191.76	40.000
192.14	700.000
192.51	-400.000
192.89	-300.000
193.27	0.000
193.65	-188.889
194.02	-200.000
194.40	366.667
194.78	-90.000
195.15	-1200.000
195.53	-109.091
195.91	-250.000
196.29	140.000
196.66	-633.333
197.04	1600.000
197.42	-300.000
197.79	20.000
198.17	-466.667
198.55	-900.000
198.92	-900.000
199.30	225.000
199.68	-450.000
200.05	-88.889
200.43	-144.444
200.81	-200.000
201.18	-150.000
201.56	242.857
201.94	-33.333
202.31	9.091
202.69	-20.000
203.07	-20.000
203.44	633.333
203.82	-166.667
204.19	-400.000
204.57	-175.000
204.95	-1600.000
205.32	-87.500
205.70	1100.000
206.08	-2100.000
206.45	-22.222
206.83	-750.000
207.20	0.000
207.58	-400.000
207.96	-200.000
208.33	-25.000
208.71	-88.889
209.08	180.000
209.46	-171.429
209.84	900.000
210.21	0.000
210.59	40.000
210.96	900.000
211.34	-283.333
211.71	-333.333
212.09	350.000
212.46	950.000
212.84	-1300.000
213.22	666.667
213.59	133.333
213.97	-133.333
214.34	80.000
214.72	-90.000
215.09	-533.333
215.47	-83.333
215.84	-70.000
216.22	-100.000
216.59	-20.000
216.97	-600.000
217.34	1100.000
217.72	-171.429
218.09	-183.333
218.47	-114.286
218.84	100.000
219.22	-114.286
219.59	0.000
219.97	214.286
220.34	450.000
220.72	87.500
221.09	-38.462
221.47	0.000
221.84	266.667
222.22	-600.000
222.59	1600.000
222.97	-50.000
223.34	-700.000
223.72	-500.000
224.09	-64.286
224.46	-425.000
224.84	-14.286
225.21	-271.429
225.59	-81.818
225.96	-137.500
226.34	-242.857
226.71	-144.444
227.08	-40.000
227.46	1900.000
227.83	-185.714
228.21	-175.000
228.58	100.000
228.95	-6.250
229.33	-1000.000
229.70	-180.000
230.08	-750.000
230.45	-50.000
230.82	-250.000
231.20	-400.000
231.57	-100.000
231.95	1300.000
232.32	66.667
232.69	-55.556
233.07	-28.571
233.44	-950.000
233.81	-6.667
234.19	-88.889
234.56	-18.750
234.93	15.625
235.31	-71.429
235.68	-107.143
236.05	29.412
236.43	-54.545
236.80	-6.452
237.17	4.167
237.55	-52.381
237.92	-36.364
238.29	-11.429
238.67	8.824
239.04	41.667
239.41	12.903
239.79	-20.513
240.16	-7.143
240.53	1.818
240.91	12.821
241.28	0.000
241.65	26.154
242.02	11.475
242.40	8.197
242.77	24.242
243.14	28.814
243.51	22.857
243.89	31.646
244.26	21.348
244.63	25.263
245.00	29.474
245.38	27.119
245.75	30.973
246.12	24.800
246.49	27.559
246.87	19.512
247.24	24.576
247.61	23.729
247.98	27.465
248.36	30.070
248.73	38.608
249.10	24.841
249.47	30.409
249.84	29.545
250.22	21.429
250.59	25.424
250.96	23.037
251.33	27.962
251.70	26.442
252.08	29.858
252.45	26.540
252.82	28.571
253.19	31.489
253.56	27.823
253.94	29.114
254.31	30.043
254.68	32.520
255.05	33.065
255.42	30.159
255.79	28.674
256.16	35.294
256.54	33.088
256.91	32.197
257.28	28.205
257.65	31.206
258.02	34.277
258.39	30.435
258.76	30.405
259.14	30.864
259.51	34.098
259.88	29.268
260.25	34.472
260.62	29.904
260.99	29.080
261.36	29.573
261.73	32.081
262.10	33.611
262.47	29.630
262.85	33.143
263.22	36.103
263.59	30.769
263.96	30.145
264.33	30.081
264.70	30.387
265.07	36.813
265.44	31.783
265.81	34.625
266.18	31.392
266.55	30.637
266.92	31.990
267.29	32.446
267.66	32.593
268.03	36.473
268.40	32.394
268.77	32.048
269.14	29.930
269.51	30.345
269.88	28.440
270.25	27.739
270.62	31.579
270.99	30.405
271.36	30.070
271.73	28.700
272.10	31.808
272.47	30.667
272.84	30.889
273.21	30.046
273.58	28.791
273.95	28.947
274.32	33.710
274.69	31.729
275.06	33.333
275.43	29.018
275.80	31.976
276.17	29.498
276.54	32.790
276.91	30.247
277.28	29.412
277.65	34.504
278.02	31.106
278.39	31.041
278.76	31.673
279.13	31.818
279.50	30.219
279.87	32.981
280.23	33.401
280.60	32.406
280.97	30.485
281.34	29.981
281.71	32.692
282.08	35.282
282.45	30.550
282.82	31.202
283.19	29.091
283.56	33.700
283.92	31.095
284.29	31.413
284.66	29.676
285.03	29.947
285.40	31.734
285.77	30.702
286.14	29.783
286.51	30.373
286.87	32.849
287.24	32.423
287.61	30.248
287.98	29.289
288.35	28.264
288.72	30.221
289.08	26.271
289.45	29.966
289.82	27.682
290.19	29.392
290.56	28.264
290.93	26.868
291.29	26.742
291.66	27.536
292.03	27.316
292.40	27.560
292.77	27.484
293.13	28.130
293.50	27.786
293.87	28.221
294.24	26.094
294.60	25.455
294.97	26.252
295.34	28.444
295.71	29.018
296.08	25.192
296.44	24.320
296.81	28.063
297.18	24.789
297.55	26.836
297.91	28.731
298.28	26.301
298.65	25.105
299.02	27.674
299.38	25.134
299.75	25.543
300.12	26.795
300.48	24.936
300.85	23.984
301.22	25.873
301.59	24.837
301.95	26.448
302.32	23.729
302.69	24.847
303.05	23.687
303.42	24.125
303.79	25.000
304.15	23.578
304.52	25.788
304.89	25.030
305.25	26.252
305.62	23.737
305.99	26.737
306.35	24.639
306.72	24.943
307.09	25.085
307.45	24.291
307.82	23.911
308.19	23.490
308.55	24.074
308.92	23.631
309.29	24.324
309.65	24.496
310.02	24.190
310.38	24.757
310.75	24.078
311.12	25.207
311.48	24.948
311.85	22.966
312.22	25.026
312.58	24.720
312.95	24.873
313.31	23.976
313.68	25.427
314.05	25.519
314.41	23.843
314.78	23.477
315.14	25.864
315.51	25.329
315.87	26.234
316.24	26.239
316.61	26.296
316.97	26.368
317.34	26.590
317.70	24.675
318.07	26.306
318.43	25.655
318.80	26.761
319.16	25.704
319.53	25.470
319.89	26.341
320.26	27.451
320.62	25.962
320.99	27.164
321.35	25.419
321.72	27.431
322.08	27.695
322.45	27.129
322.81	28.146
323.18	29.107
323.54	28.743
323.91	28.545
324.27	28.897
324.64	28.976
325.00	29.668
325.37	30.769
325.73	31.321
326.10	29.584
326.46	30.385
326.83	31.830
327.19	31.610
327.56	33.220
327.92	33.390
328.29	33.939
328.65	34.000
329.01	34.629
329.38	34.166
329.74	34.341
330.11	35.811
330.47	36.785
330.84	36.939
331.20	36.823
331.56	36.554
331.93	36.856
332.29	38.995
332.66	37.752
333.02	38.281
333.38	38.978
333.75	40.249
334.11	39.911
334.48	39.188
334.84	40.682
335.20	41.223
335.57	40.433
335.93	41.271
336.29	40.478
336.66	40.529
337.02	42.252
337.38	41.444
337.75	39.772
338.11	42.665
338.47	41.014
338.84	41.742
339.20	41.740
339.56	42.870
339.93	41.975
340.29	41.895
340.65	42.570
341.02	41.821
341.38	42.713
341.74	42.083
342.11	43.601
342.47	42.146
342.83	41.982
343.20	42.528
343.56	40.980
343.92	41.987
344.28	43.818
344.65	41.007
345.01	42.521
345.37	42.525
345.73	40.753
346.10	40.556
346.46	42.405
346.82	40.658
347.19	41.331
347.55	41.814
347.91	42.283
348.27	40.732
348.63	42.407
349.00	42.243
349.36	39.578
349.72	42.436
350.08	41.139
350.45	41.371
350.81	41.242
351.17	42.283
351.53	39.539
351.89	40.825
352.26	41.085
352.62	41.167
352.98	41.218
353.34	42.046
353.70	38.919
354.07	41.935
354.43	41.897
354.79	42.235
355.15	42.093
355.51	41.406
355.87	41.660
356.24	40.349
356.60	42.385
356.96	42.263
357.32	41.726
357.68	42.146
358.04	40.724
358.40	41.686
358.77	39.954
359.13	41.163
359.49	40.514
359.85	40.549
360.21	41.933
360.57	42.620
360.93	41.407
361.29	41.928
361.66	40.930
362.02	41.272
362.38	41.673
362.74	42.857
363.10	41.750
363.46	42.165
363.82	42.857
364.18	41.389
364.54	42.602
364.90	42.138
365.26	42.439
365.62	43.336
365.98	42.603
366.35	41.690
366.71	41.508
367.07	42.696
367.43	43.583
367.79	41.649
368.15	42.745
368.51	41.888
368.87	42.788
369.23	42.035
369.59	41.806
369.95	40.662
370.31	42.335
370.67	41.142
371.03	42.055
371.39	41.018
371.75	43.348
372.11	42.826
372.47	42.010
372.83	43.185
373.19	44.143
373.55	42.928
373.91	42.176
374.27	43.258
374.63	42.581
374.99	43.533
375.35	43.540
375.71	43.417
376.07	43.532
376.42	41.391
376.78	43.529
377.14	43.458
377.50	43.456
377.86	43.303
378.22	44.033
378.58	42.989
378.94	44.328
379.30	43.632
379.66	43.291
380.02	42.900
380.38	43.686
380.74	43.259
381.09	44.054
381.45	44.153
381.81	42.650
382.17	43.170
382.53	43.951
382.89	43.600
383.25	44.551
383.61	43.337
383.97	43.601
384.32	45.119
384.68	44.075
385.04	43.599
385.40	43.396
385.76	44.573
386.12	44.097
386.48	45.483
386.83	44.294
387.19	45.009
387.55	44.579
387.91	44.398
388.27	43.245
388.62	43.389
388.98	43.913
389.34	43.758
389.70	43.605
390.06	43.319
390.42	45.513
390.77	44.543
391.13	44.472
391.49	43.793
391.85	43.579
392.20	43.143
392.56	44.472
392.92	43.925
393.28	44.604
393.64	44.077
393.99	44.615
394.35	44.465
394.71	43.051
395.07	45.261
395.42	43.147
395.78	43.243
396.14	44.174
396.50	43.609
396.85	43.862
397.21	43.925
397.57	42.796
397.92	42.564
398.28	43.278
398.64	42.891
399.00	43.483
399.35	43.010
399.71	44.541
400.07	44.119
400.42	43.431
400.78	42.934
401.14	43.174
401.49	42.925
401.85	42.892
402.21	43.147
402.57	43.568
402.92	42.605
403.28	42.586
403.63	42.001
403.99	43.505
404.35	43.176
404.70	42.539
405.06	42.561
405.42	41.082
405.77	40.781
406.13	42.646
406.49	42.361
406.84	42.112
407.20	42.108
407.55	41.735
407.91	41.451
408.27	41.605
408.62	42.514
408.98	41.662
409.34	41.743
409.69	40.958
410.05	42.389
410.40	42.305
410.76	42.739
411.11	42.082
411.47	42.008
411.83	42.054
412.18	41.213
412.54	41.184
412.89	41.434
413.25	41.145
413.60	41.009
413.96	41.466
414.31	41.896
414.67	41.905
415.03	41.462
415.38	41.509
415.74	41.044
416.09	40.857
416.45	41.005
416.80	41.873
417.16	41.196
417.51	41.957
417.87	42.006
418.22	42.225
418.58	42.747
418.93	42.551
419.29	41.907
419.64	41.394
420.00	43.864
420.35	43.761
420.71	43.277
421.06	42.189
421.42	42.213
421.77	43.328
422.12	43.649
422.48	43.025
422.83	44.533
423.19	43.151
423.54	44.380
423.90	44.072
424.25	43.891
424.61	44.934
424.96	45.114
425.31	44.550
425.67	44.470
426.02	44.693
426.38	45.493
426.73	45.120
427.09	46.140
427.44	45.966
427.79	45.233
428.15	46.978
428.50	45.982
428.85	46.163
429.21	45.711
429.56	46.823
429.92	46.794
430.27	46.760
430.62	46.917
430.98	46.106
431.33	46.852
431.68	48.311
432.04	48.349
432.39	48.034
432.74	47.302
433.10	47.327
433.45	47.668
433.80	48.712
434.16	48.737
434.51	48.603
434.86	50.029
435.22	48.886
435.57	49.327
435.92	49.472
436.28	48.783
436.63	48.785
436.98	49.141
437.34	48.907
437.69	49.417
438.04	50.539
438.39	51.083
438.75	49.942
439.10	50.194
439.45	50.694
439.81	51.386
440.16	51.107
440.51	51.353
440.86	50.492
441.22	50.802
441.57	50.526
441.92	49.514
442.27	51.786
442.63	51.073
442.98	51.298
443.33	52.059
443.68	51.485
444.03	50.786
444.39	51.101
444.74	51.267
445.09	50.658
445.44	52.054
445.79	52.473
446.15	51.369
446.50	51.660
446.85	51.462
447.20	52.400
447.55	52.597
447.91	54.408
448.26	52.626
448.61	52.575
448.96	53.333
449.31	51.691
449.66	53.864
450.02	51.911
450.37	53.623
450.72	53.503
451.07	53.174
451.42	52.230
451.77	53.621
452.12	52.741
452.47	54.093
452.83	52.941
453.18	54.206
453.53	54.042
453.88	56.220
454.23	53.265
454.58	55.314
454.93	54.723
455.28	55.959
455.63	54.361
455.98	55.843
456.34	54.892
456.69	56.160
457.04	55.317
457.39	55.801
457.74	55.405
458.09	54.872
458.44	55.831
458.79	55.549
459.14	55.790
459.49	55.477
459.84	55.143
460.19	55.310
460.54	55.535
460.89	55.605
461.24	55.373
461.59	55.275
461.94	56.270
462.29	56.403
462.64	56.917
462.99	56.961
463.34	56.043
463.69	56.043
464.04	54.774
464.39	55.137
464.74	55.496
465.09	55.923
465.44	56.402
465.79	56.966
466.14	57.768
466.49	57.686
466.84	57.743
467.19	57.481
467.54	57.278
467.89	56.597
468.24	56.354
468.59	57.402
468.94	57.299
469.29	56.790
469.64	57.412
469.99	58.474
470.34	58.985
470.68	58.866
471.03	58.087
471.38	57.292
471.73	58.671
472.08	58.701
472.43	59.138
472.78	58.200
473.13	56.660
473.48	58.839
473.83	59.988
474.17	59.172
474.52	60.294
474.87	58.275
475.22	57.876
475.57	58.333
475.92	60.043
476.27	56.971
476.61	57.521
476.96	59.307
477.31	59.419
477.66	59.657
478.01	59.319
478.36	58.931
478.70	59.530
479.05	59.978
479.40	59.689
479.75	59.429
480.10	59.226
480.45	58.607
480.79	60.464
481.14	59.910
481.49	60.358
481.84	59.038
482.19	59.799
482.53	60.038
482.88	59.801
483.23	59.343
483.58	60.222
483.92	60.105
484.27	59.504
484.62	60.000
484.97	58.691
485.31	58.304
485.66	57.726
486.01	57.849
486.36	58.948
486.70	59.778
487.05	59.499
487.40	58.654
487.75	59.601
488.09	58.616
488.44	58.897
488.79	59.002
489.13	59.300
489.48	60.481
489.83	61.528
490.17	60.296
490.52	61.911
490.87	61.478
491.22	62.214
491.56	62.176
491.91	61.880
492.26	62.547
492.60	62.417
492.95	61.685
493.30	62.077
493.64	61.918
493.99	63.145
494.34	64.667
494.68	61.845
495.03	62.285
495.37	62.635
495.72	62.672
496.07	62.600
496.41	62.668
496.76	63.425
497.11	62.600
497.45	63.266
497.80	64.832
498.14	63.851
498.49	63.837
498.84	62.039
499.18	63.791
499.53	64.345
499.87	63.996
500.22	64.020
500.56	64.732
500.91	64.877
501.26	64.823
501.60	63.457
501.95	65.024
502.29	63.722
502.64	64.781
502.98	64.159
503.33	64.521
503.67	63.841
504.02	64.993
504.36	64.167
504.71	66.211
505.06	64.304
505.40	65.319
505.75	65.041
506.09	65.167
506.44	64.962
506.78	66.282
507.13	65.088
507.47	65.310
507.82	64.481
508.16	66.632
508.51	65.585
508.85	66.667
509.19	65.620
509.54	66.913
509.88	67.500
510.23	66.090
510.57	66.772
510.92	68.421
511.26	66.348
511.61	66.793
511.95	67.026
512.30	67.125
512.64	67.613
512.98	67.382
513.33	66.392
513.67	67.281
514.02	67.953
514.36	66.482
514.70	67.855
515.05	67.753
515.39	67.532
515.74	70.390
516.08	67.781
516.42	68.215
516.77	69.786
517.11	67.677
517.46	69.916
517.80	70.578
518.14	69.082
518.49	69.277
518.83	69.139
519.17	70.219
519.52	67.611
519.86	69.474
520.20	69.988
520.55	69.785
520.89	70.194
521.23	69.414
521.58	70.157
521.92	69.728
522.26	68.889
522.61	70.659
522.95	69.687
523.29	70.031
523.64	69.831
523.98	70.401
524.32	69.830
524.66	68.447
525.01	70.328
525.35	71.456
525.69	70.917
526.04	72.520
526.38	71.165
526.72	69.285
527.06	71.810
527.41	69.835
527.75	69.769
528.09	70.880
528.43	68.852
528.78	68.467
529.12	71.895
529.46	71.134
529.80	68.948
530.15	71.024
530.49	69.082
530.83	71.382
531.17	71.178
531.51	71.199
531.86	70.178
532.20	71.323
532.54	69.786
532.88	72.003
533.22	71.390
533.57	71.410
533.91	68.727
534.25	68.887
534.59	69.457
534.93	69.695
535.27	70.799
535.62	70.524
535.96	68.003
536.30	69.110
536.64	70.186
536.98	72.458
537.32	71.596
537.66	70.468
538.01	70.722
538.35	71.351
538.69	69.318
539.03	70.955
539.37	69.661
539.71	69.580
540.05	70.802
540.39	72.022
540.73	74.084
541.07	71.858
541.42	70.966
541.76	67.641
542.10	71.978
542.44	69.820
542.78	70.692
543.12	71.555
543.46	70.479
543.80	70.100
544.14	71.256
544.48	72.703
544.82	72.057
545.16	71.429
545.50	70.592
545.84	71.001
546.18	71.221
546.52	71.053
546.86	71.439
547.20	72.925
547.54	69.215
547.88	71.267
548.22	69.594
548.56	71.142
548.90	70.889
549.24	70.988
549.58	71.560
549.92	72.580
550.26	72.977
550.60	70.555
550.94	71.168
551.28	73.288
551.62	72.230
551.96	72.504
552.30	71.707
552.64	72.414
552.98	71.479
553.32	73.232
553.66	73.324
554.00	72.210
554.34	72.347
554.68	71.345
555.02	72.576
555.36	72.897
555.69	70.845
556.03	72.351
556.37	72.262
556.71	72.513
557.05	73.762
557.39	73.200
557.73	73.377
558.07	74.077
558.41	73.598
558.75	72.091
559.08	73.230
559.42	74.043
559.76	74.310
560.10	74.720
560.44	73.916
560.78	72.582
561.12	72.878
561.45	72.603
561.79	72.474
562.13	72.861
562.47	71.919
562.81	72.914
563.15	72.358
563.48	72.909
563.82	71.873
564.16	71.805
564.50	72.513
564.84	72.884
565.17	72.215
565.51	72.229
565.85	75.321
566.19	73.386
566.52	71.820
566.86	71.113
567.20	72.215
567.54	72.298
567.88	70.296
568.21	71.532
568.55	70.520
568.89	68.787
569.23	69.320
569.56	67.928
569.90	68.332
570.24	68.771
570.57	67.030
570.91	67.290
571.25	67.023
571.59	67.156
571.92	65.536
572.26	65.518
572.60	65.808
572.93	64.416
573.27	64.268
573.61	64.067
573.95	65.114
574.28	64.397
574.62	64.591
574.96	63.335
575.29	64.888
575.63	64.508
575.97	63.646
576.30	64.374
576.64	64.595
576.98	63.797
577.31	63.886
577.65	64.795
577.98	63.629
578.32	63.587
578.66	64.249
578.99	64.796
579.33	63.677
579.67	64.291
580.00	63.269
580.34	64.408
580.67	64.526
581.01	63.323
581.35	63.854
581.68	62.710
582.02	63.521
582.35	63.966
582.69	64.721
583.02	66.180
583.36	64.204
583.70	64.542
584.03	65.409
584.37	64.411
584.70	64.684
585.04	65.013
585.37	63.986
585.71	64.175
586.04	65.274
586.38	64.555
586.72	65.586
587.05	66.298
587.39	65.365
587.72	64.932
588.06	65.805
588.39	65.793
588.73	66.264
589.06	66.720
589.40	66.369
589.73	65.758
590.07	67.079
590.40	66.790
590.73	67.293
591.07	67.787
591.40	68.674
591.74	67.593
592.07	69.685
592.41	68.153
592.74	68.832
593.08	66.632
593.41	66.842
593.75	66.271
594.08	69.446
594.41	67.652
594.75	67.459
595.08	68.045
595.42	69.039
595.75	67.034
596.09	67.288
596.42	68.985
596.75	67.874
597.09	69.056
597.42	67.525
597.75	68.468
598.09	67.872
598.42	68.316
598.76	66.777
599.09	66.969
599.42	68.051
599.76	66.893
600.09	68.168
600.42	67.831
600.76	67.797
601.09	67.717
601.42	67.827
601.76	66.822
602.09	68.834
602.42	68.272
602.76	67.761
603.09	68.065
603.42	68.775
603.76	68.767
604.09	67.561
604.42	67.860
604.76	69.080
605.09	68.761
605.42	68.395
605.75	67.788
606.09	68.369
606.42	67.281
606.75	67.325
607.09	68.328
607.42	68.222
607.75	68.433
608.08	68.504
608.42	69.395
608.75	68.224
609.08	68.631
609.41	68.759
609.75	68.064
610.08	69.412
610.41	69.831
610.74	68.472
611.07	69.422
611.41	67.625
611.74	69.460
612.07	71.751
612.40	68.977
612.73	69.467
613.07	70.666
613.40	71.483
613.73	70.736
614.06	69.412
614.39	71.477
614.72	69.106
615.06	67.880
615.39	68.747
615.72	69.310
616.05	69.023
616.38	70.226
616.71	69.970
617.05	70.446
617.38	70.774
617.71	70.577
618.04	70.621
618.37	71.384
618.70	72.751
619.03	70.887
619.36	71.388
619.69	71.644
620.03	70.799
620.36	71.167
620.69	74.085
621.02	73.288
621.35	73.871
621.68	74.508
622.01	74.515
622.34	74.224
622.67	74.141
623.00	73.833
623.33	72.687
623.66	72.378
623.99	74.135
624.32	72.768
624.65	73.363
624.99	72.816
625.32	72.006
625.65	73.271
625.98	74.648
626.31	74.633
626.64	73.138
626.97	73.801
627.30	75.745
627.63	75.216
627.96	73.368
628.29	75.735
628.62	77.077
628.95	75.984
629.28	76.128
629.61	76.447
629.94	75.047
630.26	78.926
630.59	78.191
630.92	76.476
631.25	76.109
631.58	77.884
631.91	75.638
