SpectraSuite Data File
++++++++++++++++++++++++++++++++++++
Date: Sat May 16 11:19:09 PDT 2015
User: schluterlab
Dark Spectrum Present: Yes
Reference Spectrum Present: Yes
Number of Sampled Component Spectra: 1
Spectrometers: USB2E3373
Integration Time (usec): 3000 (USB2E3373)
Spectra Averaged: 3 (USB2E3373)
Boxcar Smoothing: 0 (USB2E3373)
Correct for Electrical Dark: No (USB2E3373)
Strobe/Lamp Enabled: No (USB2E3373)
Correct for Detector Non-linearity: No (USB2E3373)
Correct for Stray Light: No (USB2E3373)
Number of Pixels in Processed Spectrum: 2048
>>>>>Begin Processed Spectral Data<<<<<
178.53	0.000
178.91	133.333
179.29	400.000
179.67	-500.000
180.04	-92.308
180.42	1600.000
180.80	200.000
181.18	275.000
181.56	-137.500
181.94	1100.000
182.31	400.000
182.69	-69.231
183.07	-366.667
183.45	800.000
183.83	-66.667
184.20	-200.000
184.58	-12.500
184.96	-150.000
185.34	75.000
185.72	-625.000
186.09	250.000
186.47	-187.500
186.85	-50.000
187.23	-37.500
187.61	-50.000
187.98	-275.000
188.36	-125.000
188.74	-162.500
189.12	500.000
189.49	171.429
189.87	-8.333
190.25	275.000
190.63	57.143
191.00	-222.222
191.38	380.000
191.76	13.333
192.14	540.000
192.51	-220.000
192.89	-300.000
193.27	0.000
193.65	22.222
194.02	-114.286
194.40	500.000
194.78	-20.000
195.15	-1600.000
195.53	-136.364
195.91	-383.333
196.29	220.000
196.66	-700.000
197.04	1400.000
197.42	-275.000
197.79	20.000
198.17	-433.333
198.55	-550.000
198.92	-800.000
199.30	200.000
199.68	0.000
200.05	-33.333
200.43	-88.889
200.81	-500.000
201.18	-8.333
201.56	42.857
201.94	-46.667
202.31	54.545
202.69	10.000
203.07	-50.000
203.44	766.667
203.82	-216.667
204.19	-150.000
204.57	0.000
204.95	-500.000
205.32	31.250
205.70	500.000
206.08	-1600.000
206.45	-5.556
206.83	-750.000
207.20	400.000
207.58	-900.000
207.96	-466.667
208.33	-237.500
208.71	-55.556
209.08	170.000
209.46	-128.571
209.84	300.000
210.21	0.000
210.59	80.000
210.96	1900.000
211.34	-200.000
211.71	-133.333
212.09	225.000
212.46	350.000
212.84	-1900.000
213.22	666.667
213.59	150.000
213.97	-133.333
214.34	140.000
214.72	0.000
215.09	-533.333
215.47	-100.000
215.84	-100.000
216.22	70.000
216.59	33.333
216.97	-375.000
217.34	1000.000
217.72	-71.429
218.09	-300.000
218.47	-214.286
218.84	128.571
219.22	71.429
219.59	0.000
219.97	271.429
220.34	200.000
220.72	112.500
221.09	-123.077
221.47	0.000
221.84	333.333
222.22	-50.000
222.59	400.000
222.97	-250.000
223.34	-700.000
223.72	-466.667
224.09	14.286
224.46	-100.000
224.84	21.429
225.21	-171.429
225.59	-63.636
225.96	0.000
226.34	-28.571
226.71	-44.444
227.08	15.000
227.46	1300.000
227.83	-85.714
228.21	0.000
228.58	450.000
228.95	-31.250
229.33	-500.000
229.70	-140.000
230.08	-1150.000
230.45	-75.000
230.82	-16.667
231.20	-1000.000
231.57	-400.000
231.95	500.000
232.32	61.905
232.69	-55.556
233.07	-200.000
233.44	-1200.000
233.81	-73.333
234.19	-88.889
234.56	-12.500
234.93	-25.000
235.31	-257.143
235.68	-157.143
236.05	-52.941
236.43	-59.091
236.80	-9.677
237.17	-45.833
237.55	-28.571
237.92	-68.182
238.29	-2.857
238.67	17.647
239.04	5.556
239.41	-16.129
239.79	-33.333
240.16	-38.095
240.53	-14.545
240.91	-5.128
241.28	18.182
241.65	27.692
242.02	-9.836
242.40	-11.475
242.77	-12.121
243.14	-8.475
243.51	-5.714
243.89	8.861
244.26	-3.371
244.63	9.474
245.00	3.158
245.38	12.712
245.75	0.000
246.12	7.200
246.49	13.386
246.87	0.813
247.24	4.237
247.61	-3.390
247.98	5.634
248.36	-4.196
248.73	5.063
249.10	-0.637
249.47	2.924
249.84	8.523
250.22	-5.952
250.59	6.780
250.96	6.283
251.33	5.687
251.70	10.577
252.08	8.057
252.45	5.687
252.82	8.571
253.19	8.511
253.56	6.452
253.94	4.219
254.31	8.155
254.68	9.350
255.05	6.048
255.42	9.921
255.79	7.527
256.16	8.235
256.54	9.559
256.91	7.576
257.28	8.791
257.65	3.901
258.02	13.522
258.39	8.027
258.76	7.432
259.14	5.864
259.51	8.197
259.88	7.317
260.25	11.180
260.62	8.039
260.99	9.792
261.36	14.024
261.73	8.960
262.10	11.111
262.47	11.396
262.85	15.143
263.22	6.017
263.59	2.769
263.96	8.986
264.33	6.775
264.70	9.116
265.07	9.066
265.44	5.685
265.81	8.010
266.18	5.823
266.55	9.559
266.92	9.824
267.29	7.990
267.66	7.160
268.03	10.870
268.40	9.624
268.77	9.639
269.14	9.977
269.51	12.644
269.88	7.110
270.25	6.061
270.62	10.069
270.99	9.009
271.36	9.324
271.73	6.054
272.10	9.611
272.47	7.333
272.84	10.222
273.21	9.633
273.58	6.593
273.95	7.895
274.32	8.824
274.69	10.503
275.06	9.202
275.43	6.920
275.80	12.220
276.17	8.996
276.54	10.794
276.91	10.700
277.28	8.722
277.65	8.058
278.02	9.812
278.39	10.020
278.76	8.367
279.13	8.300
279.50	10.934
279.87	9.514
280.23	9.109
280.60	8.350
280.97	7.379
281.34	9.091
281.71	8.654
282.08	9.476
282.45	6.314
282.82	9.109
283.19	10.545
283.56	11.355
283.92	10.247
284.29	8.178
284.66	8.993
285.03	11.052
285.40	8.856
285.77	9.474
286.14	10.650
286.51	8.881
286.87	12.341
287.24	9.898
287.61	9.752
287.98	6.759
288.35	7.438
288.72	10.187
289.08	6.780
289.45	9.596
289.82	7.612
290.19	10.509
290.56	6.446
290.93	8.585
291.29	9.400
291.66	7.407
292.03	8.477
292.40	8.434
292.77	8.385
293.13	7.642
293.50	8.470
293.87	9.663
294.24	8.899
294.60	7.576
294.97	8.953
295.34	8.148
295.71	7.738
296.08	7.373
296.44	9.013
296.81	8.262
297.18	7.746
297.55	10.593
297.91	9.344
298.28	8.767
298.65	9.205
299.02	9.626
299.38	7.888
299.75	6.793
300.12	7.564
300.48	8.568
300.85	9.174
301.22	9.314
301.59	7.932
301.95	9.824
302.32	6.649
302.69	9.547
303.05	8.059
303.42	7.375
303.79	10.287
304.15	9.360
304.52	9.802
304.89	9.091
305.25	8.425
305.62	6.933
305.99	9.423
306.35	9.545
306.72	7.973
307.09	9.648
307.45	7.832
307.82	7.598
308.19	9.060
308.55	7.516
308.92	9.882
309.29	9.405
309.65	8.908
310.02	9.179
310.38	8.216
310.75	9.631
311.12	10.744
311.48	8.977
311.85	9.372
312.22	10.299
312.58	10.275
312.95	9.684
313.31	10.090
313.68	10.653
314.05	11.869
314.41	8.249
314.78	8.791
315.14	9.872
315.51	10.334
315.87	10.358
316.24	11.176
316.61	11.132
316.97	10.945
317.34	10.790
317.70	10.668
318.07	11.940
318.43	10.487
318.80	11.455
319.16	10.600
319.53	10.244
319.89	10.818
320.26	11.471
320.62	10.865
320.99	11.343
321.35	10.542
321.72	11.259
322.08	13.155
322.45	11.188
322.81	11.720
323.18	13.449
323.54	12.477
323.91	11.956
324.27	12.833
324.64	11.883
325.00	12.914
325.37	13.846
325.73	13.998
326.10	12.135
326.46	13.047
326.83	14.809
327.19	14.512
327.56	14.651
327.92	15.293
328.29	14.545
328.65	15.182
329.01	14.399
329.38	15.165
329.74	17.033
330.11	15.956
330.47	14.805
330.84	16.132
331.20	15.343
331.56	14.312
331.93	16.430
332.29	15.251
332.66	15.540
333.02	15.928
333.38	17.652
333.75	15.583
334.11	17.511
334.48	15.711
334.84	17.673
335.20	15.869
335.57	16.155
335.93	17.457
336.29	17.803
336.66	16.300
337.02	17.297
337.38	17.112
337.75	16.506
338.11	15.921
338.47	16.281
338.84	16.969
339.20	16.257
339.56	17.825
339.93	16.049
340.29	15.678
340.65	17.395
341.02	17.032
341.38	17.018
341.74	16.850
342.11	16.980
342.47	16.137
342.83	15.785
343.20	17.079
343.56	16.000
343.92	17.780
344.28	17.494
344.65	15.924
345.01	15.462
345.37	18.272
345.73	15.876
346.10	15.617
346.46	16.572
346.82	15.638
347.19	17.009
347.55	16.372
347.91	16.457
348.27	16.309
348.63	16.882
349.00	17.025
349.36	14.208
349.72	17.357
350.08	15.156
350.45	15.603
350.81	16.242
351.17	15.916
351.53	15.036
351.89	15.764
352.26	16.357
352.62	16.820
352.98	16.772
353.34	17.186
353.70	15.290
354.07	16.129
354.43	16.680
354.79	15.689
355.15	15.895
355.51	15.000
355.87	15.415
356.24	15.330
356.60	17.728
356.96	16.628
357.32	15.598
357.68	16.169
358.04	15.627
358.40	16.396
358.77	16.151
359.13	16.373
359.49	16.327
359.85	15.854
360.21	16.134
360.57	16.867
360.93	16.444
361.29	16.741
361.66	15.625
362.02	15.828
362.38	16.214
362.74	16.703
363.10	15.854
363.46	18.020
363.82	16.764
364.18	15.557
364.54	18.013
364.90	15.374
365.26	16.191
365.62	17.177
365.98	16.714
366.35	15.352
366.71	16.209
367.07	16.867
367.43	17.296
367.79	17.320
368.15	16.572
368.51	16.713
368.87	18.063
369.23	16.842
369.59	16.736
369.95	16.209
370.31	17.792
370.67	15.763
371.03	18.076
371.39	17.539
371.75	17.024
372.11	17.575
372.47	17.860
372.83	18.150
373.19	17.143
373.55	18.086
373.91	17.994
374.27	18.549
374.63	17.460
374.99	18.776
375.35	18.506
375.71	18.704
376.07	17.728
376.42	16.755
376.78	18.693
377.14	18.712
377.50	19.407
377.86	18.791
378.22	19.033
378.58	18.221
378.94	19.297
379.30	19.135
379.66	19.915
380.02	18.301
380.38	18.731
380.74	18.347
381.09	19.156
381.45	19.451
381.81	19.540
382.17	18.546
382.53	20.061
382.89	19.498
383.25	20.229
383.61	19.458
383.97	20.392
384.32	20.275
384.68	21.221
385.04	19.746
385.40	21.242
385.76	20.183
386.12	20.800
386.48	21.473
386.83	20.552
387.19	20.442
387.55	20.715
387.91	20.747
388.27	20.265
388.62	20.433
388.98	20.412
389.34	20.441
389.70	21.681
390.06	20.075
390.42	21.603
390.77	21.451
391.13	21.801
391.49	21.834
391.85	20.574
392.20	20.874
392.56	21.075
392.92	21.278
393.28	22.044
393.64	21.587
393.99	22.338
394.35	21.959
394.71	21.433
395.07	22.348
395.42	20.560
395.78	21.119
396.14	22.617
396.50	22.569
396.85	21.098
397.21	22.661
397.57	22.371
397.92	22.131
398.28	22.500
398.64	22.903
399.00	22.865
399.35	22.886
399.71	22.997
400.07	22.627
400.42	22.506
400.78	21.944
401.14	22.275
401.49	22.170
401.85	24.100
402.21	22.944
402.57	22.573
402.92	23.474
403.28	23.162
403.63	22.828
403.99	22.809
404.35	22.464
404.70	22.996
405.06	22.953
405.42	23.124
405.77	22.172
406.13	23.566
406.49	22.948
406.84	22.496
407.20	23.263
407.55	23.116
407.91	22.668
408.27	24.449
408.62	23.812
408.98	22.741
409.34	22.547
409.69	23.503
410.05	23.287
410.40	23.115
410.76	24.244
411.11	24.314
411.47	23.210
411.83	22.922
412.18	23.082
412.54	22.575
412.89	23.451
413.25	23.022
413.60	23.269
413.96	22.366
414.31	24.343
414.67	22.349
415.03	23.415
415.38	23.813
415.74	24.227
416.09	23.465
416.45	23.677
416.80	22.887
417.16	23.256
417.51	24.622
417.87	22.977
418.22	23.578
418.58	24.326
418.93	24.157
419.29	24.028
419.64	23.053
420.00	25.456
420.35	24.305
420.71	24.670
421.06	24.083
421.42	23.419
421.77	23.618
422.12	23.447
422.48	23.196
422.83	24.317
423.19	24.443
423.54	24.957
423.90	23.887
424.25	24.265
424.61	24.608
424.96	25.278
425.31	24.148
425.67	24.241
426.02	23.408
426.38	25.227
426.73	25.424
427.09	24.816
427.44	24.375
427.79	23.314
428.15	24.776
428.50	24.927
428.85	25.420
429.21	23.354
429.56	24.635
429.92	24.800
430.27	24.626
430.62	24.504
430.98	24.464
431.33	24.813
431.68	25.255
432.04	25.909
432.39	24.843
432.74	24.520
433.10	25.324
433.45	24.640
433.80	24.132
434.16	24.825
434.51	24.712
434.86	26.538
435.22	25.445
435.57	25.275
435.92	25.147
436.28	24.985
436.63	25.608
436.98	24.914
437.34	24.454
437.69	25.554
438.04	25.298
438.39	25.752
438.75	24.854
439.10	27.096
439.45	25.528
439.81	25.843
440.16	25.440
440.51	25.824
440.86	24.639
441.22	24.489
441.57	25.158
441.92	25.269
442.27	26.190
442.63	26.448
442.98	25.169
443.33	25.316
443.68	25.013
444.03	25.884
444.39	26.138
444.74	26.982
445.09	25.932
445.44	26.956
445.79	26.415
446.15	25.904
446.50	26.238
446.85	26.475
447.20	26.200
447.55	25.746
447.91	27.176
448.26	25.363
448.61	25.467
448.96	27.563
449.31	26.550
449.66	26.388
450.02	25.540
450.37	26.899
450.72	24.802
451.07	26.901
451.42	25.960
451.77	26.870
452.12	25.805
452.47	26.448
452.83	25.801
453.18	27.577
453.53	26.555
453.88	26.974
454.23	26.058
454.58	26.911
454.93	26.196
455.28	26.195
455.63	26.720
455.98	27.349
456.34	25.858
456.69	28.018
457.04	26.859
457.39	25.957
457.74	27.112
458.09	26.566
458.44	27.425
458.79	26.457
459.14	26.184
459.49	27.235
459.84	26.813
460.19	26.551
460.54	26.376
460.89	26.738
461.24	27.565
461.59	26.964
461.94	27.498
462.29	26.802
462.64	27.075
462.99	27.443
463.34	26.266
463.69	27.799
464.04	26.596
464.39	26.703
464.74	26.241
465.09	26.518
465.44	26.734
465.79	28.032
466.14	27.158
466.49	27.231
466.84	26.591
467.19	28.117
467.54	26.203
467.89	26.880
468.24	27.969
468.59	26.234
468.94	26.752
469.29	27.031
469.64	27.089
469.99	28.089
470.34	28.123
470.68	27.689
471.03	28.011
471.38	26.319
471.73	28.182
472.08	26.506
472.43	27.799
472.78	27.733
473.13	27.237
473.48	27.760
473.83	27.419
474.17	26.879
474.52	28.836
474.87	26.748
475.22	27.375
475.57	27.000
475.92	28.024
476.27	27.143
476.61	27.211
476.96	27.390
477.31	27.126
477.66	26.785
478.01	28.363
478.36	27.816
478.70	28.137
479.05	27.799
479.40	28.031
479.75	26.860
480.10	27.629
480.45	26.886
480.79	27.937
481.14	27.948
481.49	28.122
481.84	27.277
482.19	28.004
482.53	27.794
482.88	27.100
483.23	28.122
483.58	27.197
483.92	27.520
484.27	26.717
484.62	26.911
484.97	27.358
485.31	26.432
485.66	25.928
486.01	26.213
486.36	26.645
486.70	27.691
487.05	26.733
487.40	27.270
487.75	26.558
488.09	26.868
488.44	27.334
488.79	27.909
489.13	27.919
489.48	28.140
489.83	27.511
490.17	26.948
490.52	28.804
490.87	26.467
491.22	26.716
491.56	27.130
491.91	27.815
492.26	27.311
492.60	27.260
492.95	27.796
493.30	27.156
493.64	27.598
493.99	27.725
494.34	27.810
494.68	28.230
495.03	26.960
495.37	27.630
495.72	27.456
496.07	27.593
496.41	27.652
496.76	27.808
497.11	27.555
497.45	27.443
497.80	27.714
498.14	27.750
498.49	26.971
498.84	27.282
499.18	27.680
499.53	27.521
499.87	26.014
500.22	27.451
500.56	27.564
500.91	27.192
501.26	27.851
501.60	27.251
501.95	27.874
502.29	26.075
502.64	28.053
502.98	26.545
503.33	27.585
503.67	27.059
504.02	27.426
504.36	27.745
504.71	27.153
505.06	27.109
505.40	27.794
505.75	27.388
506.09	27.705
506.44	27.519
506.78	27.797
507.13	28.064
507.47	28.691
507.82	27.104
508.16	28.497
508.51	27.821
508.85	27.692
509.19	28.153
509.54	27.431
509.88	28.404
510.23	28.616
510.57	27.619
510.92	28.357
511.26	27.007
511.61	27.160
511.95	27.694
512.30	28.037
512.64	28.325
512.98	28.328
513.33	28.116
513.67	27.806
514.02	27.573
514.36	28.144
514.70	27.334
515.05	27.787
515.39	27.797
515.74	28.563
516.08	28.300
516.42	28.952
516.77	27.903
517.11	27.975
517.46	28.469
517.80	29.663
518.14	28.200
518.49	28.691
518.83	27.359
519.17	28.597
519.52	27.762
519.86	28.734
520.20	28.667
520.55	28.185
520.89	28.178
521.23	28.205
521.58	27.774
521.92	28.942
522.26	29.333
522.61	28.327
522.95	28.334
523.29	27.837
523.64	28.045
523.98	28.071
524.32	28.850
524.66	28.199
525.01	28.067
525.35	29.446
525.69	28.237
526.04	29.112
526.38	29.408
526.72	27.905
527.06	28.581
527.41	28.383
527.75	28.647
528.09	28.524
528.43	27.869
528.78	27.827
529.12	28.297
529.46	28.608
529.80	28.599
530.15	28.783
530.49	27.555
530.83	29.404
531.17	28.754
531.51	27.796
531.86	28.374
532.20	27.868
532.54	28.342
532.88	27.668
533.22	28.476
533.57	28.068
533.91	26.717
534.25	28.096
534.59	28.482
534.93	28.189
535.27	27.753
535.62	28.645
535.96	27.343
536.30	27.683
536.64	27.424
536.98	28.178
537.32	27.782
537.66	27.495
538.01	27.698
538.35	28.986
538.69	28.008
539.03	27.894
539.37	26.946
539.71	27.685
540.05	29.198
540.39	28.255
540.73	28.058
541.07	28.005
541.42	26.266
541.76	27.176
542.10	28.224
542.44	28.248
542.78	28.494
543.12	28.445
543.46	25.890
543.80	27.090
544.14	27.199
544.48	27.559
544.82	26.928
545.16	27.498
545.50	26.514
545.84	27.051
546.18	27.046
546.52	26.956
546.86	26.353
547.20	27.145
547.54	26.377
547.88	27.273
548.22	26.147
548.56	26.720
548.90	27.493
549.24	26.769
549.58	26.535
549.92	27.067
550.26	27.023
550.60	27.383
550.94	26.934
551.28	26.787
551.62	26.809
551.96	26.990
552.30	27.317
552.64	26.601
552.98	26.769
553.32	25.974
553.66	27.397
554.00	27.505
554.34	25.271
554.68	25.877
555.02	26.990
555.36	25.737
555.69	26.003
556.03	26.246
556.37	26.031
556.71	26.342
557.05	26.903
557.39	26.132
557.73	26.477
558.07	27.129
558.41	26.103
558.75	25.247
559.08	24.747
559.42	27.795
559.76	26.457
560.10	26.473
560.44	27.312
560.78	25.331
561.12	25.466
561.45	25.822
561.79	25.714
562.13	25.806
562.47	25.420
562.81	25.955
563.15	26.102
563.48	26.054
563.82	26.166
564.16	25.287
564.50	25.336
564.84	26.984
565.17	25.464
565.51	25.684
565.85	25.490
566.19	26.548
566.52	24.462
566.86	23.957
567.20	26.816
567.54	26.344
567.88	25.349
568.21	24.944
568.55	24.443
568.89	23.509
569.23	25.405
569.56	24.044
569.90	24.705
570.24	24.427
570.57	24.077
570.91	24.379
571.25	24.449
571.59	23.665
571.92	23.512
572.26	23.936
572.60	23.798
572.93	23.877
573.27	23.872
573.61	22.828
573.95	23.550
574.28	23.537
574.62	23.869
574.96	23.205
575.29	23.755
575.63	23.865
575.97	23.598
576.30	23.678
576.64	23.473
576.98	23.041
577.31	23.051
577.65	22.858
577.98	23.230
578.32	23.237
578.66	22.750
578.99	23.167
579.33	23.235
579.67	23.332
580.00	22.817
580.34	22.456
580.67	23.241
581.01	22.326
581.35	22.996
581.68	22.347
582.02	22.985
582.35	23.022
582.69	23.003
583.02	23.497
583.36	22.879
583.70	22.811
584.03	23.249
584.37	23.410
584.70	23.077
585.04	23.038
585.37	22.625
585.71	23.101
586.04	22.872
586.38	22.614
586.72	22.943
587.05	23.025
587.39	23.218
587.72	23.175
588.06	22.558
588.39	23.042
588.73	23.537
589.06	22.922
589.40	24.115
589.73	23.407
590.07	23.270
590.40	22.952
590.73	23.031
591.07	22.582
591.40	23.744
591.74	23.892
592.07	23.153
592.41	23.227
592.74	23.059
593.08	22.863
593.41	22.928
593.75	22.552
594.08	23.688
594.41	23.660
594.75	22.650
595.08	23.609
595.42	24.133
595.75	23.043
596.09	23.166
596.42	23.527
596.75	23.200
597.09	23.553
597.42	23.134
597.75	23.206
598.09	23.723
598.42	23.332
598.76	22.384
599.09	21.902
599.42	23.145
599.76	22.461
600.09	22.634
600.42	23.016
600.76	22.486
601.09	23.167
601.42	22.596
601.76	22.936
602.09	23.640
602.42	23.251
602.76	22.767
603.09	22.702
603.42	22.603
603.76	23.694
604.09	22.467
604.42	23.022
604.76	23.114
605.09	22.875
605.42	23.316
605.75	22.682
606.09	23.537
606.42	22.413
606.75	23.572
607.09	23.114
607.42	23.239
607.75	23.179
608.08	23.226
608.42	22.848
608.75	22.290
609.08	22.601
609.41	22.521
609.75	22.574
610.08	23.088
610.41	23.711
610.74	23.985
611.07	23.732
611.41	22.138
611.74	23.393
612.07	23.523
612.40	22.548
612.73	23.640
613.07	23.060
613.40	23.810
613.73	22.888
614.06	22.735
614.39	23.788
614.72	22.570
615.06	22.717
615.39	22.518
615.72	23.194
616.05	22.860
616.38	23.680
616.71	23.003
617.05	24.789
617.38	23.529
617.71	22.482
618.04	23.602
618.37	22.201
618.70	24.316
619.03	22.952
619.36	23.961
619.69	23.762
620.03	23.003
620.36	23.277
620.69	23.403
621.02	23.440
621.35	23.790
621.68	24.344
622.01	24.434
622.34	24.845
622.67	24.609
623.00	23.795
623.33	24.627
623.66	22.600
623.99	23.759
624.32	23.586
624.65	23.400
624.99	22.330
625.32	23.653
625.65	24.631
625.98	22.926
626.31	24.470
626.64	22.594
626.97	25.000
627.30	24.596
627.63	24.352
627.96	22.715
628.29	24.357
628.62	24.260
628.95	24.311
629.28	24.248
629.61	24.534
629.94	24.197
630.26	25.348
630.59	26.131
630.92	24.625
631.25	24.294
631.58	24.021
631.91	23.617
632.24	25.889
632.57	24.667
632.90	25.517
633.23	23.248
633.56	24.444
633.89	26.533
634.22	23.259
634.55	24.279
634.88	25.514
635.20	25.593
635.53	24.682
