SpectraSuite Data File
++++++++++++++++++++++++++++++++++++
Date: Sat May 16 11:16:03 PDT 2015
User: schluterlab
Dark Spectrum Present: Yes
Reference Spectrum Present: Yes
Number of Sampled Component Spectra: 1
Spectrometers: USB2E3373
Integration Time (usec): 3000 (USB2E3373)
Spectra Averaged: 3 (USB2E3373)
Boxcar Smoothing: 0 (USB2E3373)
Correct for Electrical Dark: No (USB2E3373)
Strobe/Lamp Enabled: No (USB2E3373)
Correct for Detector Non-linearity: No (USB2E3373)
Correct for Stray Light: No (USB2E3373)
Number of Pixels in Processed Spectrum: 2048
>>>>>Begin Processed Spectral Data<<<<<
178.53	0.000
178.91	80.000
179.29	-133.333
179.67	-900.000
180.04	-7.692
180.42	100.000
180.80	175.000
181.18	125.000
181.56	-112.500
181.94	200.000
182.31	250.000
182.69	15.385
183.07	-533.333
183.45	500.000
183.83	333.333
184.20	-228.571
184.58	-200.000
184.96	-250.000
185.34	93.750
185.72	-350.000
186.09	200.000
186.47	-100.000
186.85	-175.000
187.23	-12.500
187.61	-250.000
187.98	-200.000
188.36	-12.500
188.74	-62.500
189.12	300.000
189.49	157.143
189.87	33.333
190.25	275.000
190.63	-28.571
191.00	22.222
191.38	160.000
191.76	33.333
192.14	380.000
192.51	-80.000
192.89	0.000
193.27	0.000
193.65	-77.778
194.02	-85.714
194.40	366.667
194.78	-110.000
195.15	-700.000
195.53	0.000
195.91	-83.333
196.29	60.000
196.66	-333.333
197.04	2000.000
197.42	150.000
197.79	100.000
198.17	-333.333
198.55	-150.000
198.92	-400.000
199.30	75.000
199.68	-250.000
200.05	-11.111
200.43	-111.111
200.81	-700.000
201.18	0.000
201.56	200.000
201.94	0.000
202.31	22.727
202.69	150.000
203.07	30.000
203.44	300.000
203.82	-183.333
204.19	-250.000
204.57	-175.000
204.95	100.000
205.32	-6.250
205.70	200.000
206.08	-1700.000
206.45	44.444
206.83	-450.000
207.20	-50.000
207.58	-633.333
207.96	33.333
208.33	-62.500
208.71	-55.556
209.08	20.000
209.46	-142.857
209.84	250.000
210.21	0.000
210.59	0.000
210.96	600.000
211.34	-100.000
211.71	-233.333
212.09	-25.000
212.46	700.000
212.84	-1600.000
213.22	333.333
213.59	108.333
213.97	111.111
214.34	100.000
214.72	-10.000
215.09	-100.000
215.47	0.000
215.84	-20.000
216.22	-20.000
216.59	13.333
216.97	-325.000
217.34	700.000
217.72	-57.143
218.09	-200.000
218.47	-214.286
218.84	214.286
219.22	57.143
219.59	0.000
219.97	285.714
220.34	150.000
220.72	112.500
221.09	30.769
221.47	0.000
221.84	-33.333
222.22	-150.000
222.59	1100.000
222.97	-75.000
223.34	-350.000
223.72	-333.333
224.09	28.571
224.46	-125.000
224.84	50.000
225.21	-157.143
225.59	-27.273
225.96	-50.000
226.34	14.286
226.71	-166.667
227.08	25.000
227.46	1000.000
227.83	-85.714
228.21	-87.500
228.58	100.000
228.95	18.750
229.33	-1000.000
229.70	-200.000
230.08	-600.000
230.45	-66.667
230.82	50.000
231.20	-700.000
231.57	-100.000
231.95	-100.000
232.32	42.857
232.69	-88.889
233.07	-128.571
233.44	-650.000
233.81	-20.000
234.19	-122.222
234.56	37.500
234.93	28.125
235.31	-142.857
235.68	-21.429
236.05	-23.529
236.43	-59.091
236.80	51.613
237.17	-20.833
237.55	-4.762
237.92	-36.364
238.29	11.429
238.67	41.176
239.04	25.000
239.41	16.129
239.79	12.821
240.16	7.143
240.53	9.091
240.91	23.077
241.28	34.545
241.65	52.308
242.02	44.262
242.40	31.148
242.77	31.818
243.14	32.203
243.51	20.000
243.89	26.582
244.26	24.719
244.63	36.842
245.00	38.947
245.38	33.051
245.75	32.743
246.12	25.600
246.49	30.709
246.87	18.699
247.24	33.051
247.61	22.881
247.98	29.577
248.36	24.476
248.73	31.013
249.10	29.936
249.47	42.105
249.84	33.523
250.22	29.167
250.59	37.288
250.96	32.461
251.33	36.493
251.70	36.538
252.08	39.336
252.45	31.280
252.82	36.190
253.19	33.191
253.56	35.887
253.94	35.443
254.31	37.768
254.68	40.244
255.05	31.855
255.42	38.889
255.79	34.050
256.16	36.471
256.54	33.088
256.91	33.712
257.28	34.432
257.65	34.043
258.02	37.107
258.39	35.117
258.76	35.135
259.14	31.481
259.51	40.984
259.88	35.366
260.25	37.267
260.62	33.762
260.99	34.718
261.36	35.671
261.73	36.705
262.10	35.833
262.47	34.188
262.85	39.429
263.22	34.957
263.59	36.923
263.96	33.913
264.33	34.417
264.70	38.122
265.07	34.341
265.44	34.625
265.81	34.625
266.18	31.646
266.55	34.314
266.92	33.753
267.29	34.867
267.66	35.556
268.03	35.266
268.40	35.681
268.77	35.663
269.14	33.411
269.51	34.943
269.88	33.716
270.25	31.702
270.62	34.554
270.99	35.586
271.36	32.634
271.73	33.857
272.10	35.240
272.47	36.222
272.84	33.556
273.21	33.716
273.58	31.868
273.95	35.088
274.32	34.389
274.69	35.886
275.06	34.356
275.43	34.152
275.80	36.049
276.17	36.402
276.54	35.234
276.91	31.893
277.28	32.860
277.65	34.711
278.02	32.150
278.39	33.006
278.76	36.454
279.13	32.609
279.50	34.791
279.87	33.192
280.23	34.211
280.60	32.008
280.97	33.981
281.34	35.783
281.71	31.923
282.08	34.677
282.45	32.383
282.82	32.558
283.19	33.091
283.56	34.982
283.92	34.982
284.29	34.572
284.66	30.755
285.03	31.016
285.40	33.210
285.77	34.035
286.14	34.116
286.51	34.636
286.87	32.849
287.24	33.276
287.61	29.587
287.98	31.889
288.35	30.744
288.72	32.258
289.08	29.661
289.45	31.145
289.82	28.893
290.19	31.691
290.56	32.231
290.93	29.889
291.29	31.442
291.66	27.375
292.03	29.984
292.40	30.271
292.77	29.658
293.13	29.919
293.50	30.312
293.87	29.448
294.24	28.205
294.60	28.636
294.97	30.956
295.34	28.000
295.71	28.274
296.08	26.728
296.44	26.753
296.81	28.348
297.18	26.761
297.55	29.379
297.91	29.568
298.28	27.808
298.65	27.476
299.02	28.209
299.38	24.599
299.75	27.038
300.12	28.077
300.48	27.494
300.85	27.523
301.22	27.684
301.59	26.658
301.95	28.589
302.32	25.163
302.69	25.459
303.05	27.106
303.42	25.125
303.79	26.435
304.15	26.185
304.52	25.671
304.89	26.092
305.25	26.618
305.62	25.852
305.99	27.797
306.35	28.191
306.72	26.196
307.09	26.901
307.45	26.334
307.82	25.028
308.19	26.398
308.55	26.253
308.92	25.027
309.29	25.730
309.65	25.875
310.02	24.730
310.38	24.973
310.75	26.844
311.12	25.723
311.48	26.931
311.85	25.438
312.22	26.674
312.58	27.060
312.95	26.707
313.31	27.273
313.68	28.844
314.05	27.300
314.41	27.062
314.78	26.474
315.14	28.036
315.51	27.457
315.87	27.590
316.24	27.502
316.61	28.023
316.97	29.950
317.34	27.842
317.70	29.128
318.07	29.944
318.43	29.307
318.80	31.925
319.16	29.268
319.53	31.109
319.89	30.480
320.26	31.471
320.62	29.712
320.99	30.846
321.35	29.458
321.72	31.525
322.08	32.740
322.45	32.970
322.81	32.757
323.18	34.774
323.54	33.641
323.91	33.828
324.27	33.745
324.64	33.729
325.00	34.380
325.37	36.018
325.73	35.783
326.10	35.252
326.46	36.690
326.83	36.255
327.19	36.697
327.56	38.586
327.92	37.128
328.29	37.662
328.65	37.909
329.01	39.399
329.38	39.251
329.74	39.560
330.11	40.617
330.47	39.964
330.84	40.880
331.20	40.794
331.56	40.839
331.93	41.563
332.29	41.279
332.66	41.967
333.02	42.534
333.38	42.832
333.75	43.722
334.11	44.178
334.48	41.748
334.84	42.257
335.20	43.706
335.57	44.134
335.93	45.658
336.29	44.110
336.66	42.026
337.02	45.045
337.38	44.385
337.75	43.284
338.11	44.454
338.47	45.107
338.84	44.918
339.20	44.464
339.56	44.029
339.93	45.238
340.29	44.376
340.65	43.794
341.02	43.929
341.38	45.577
341.74	45.131
342.11	44.198
342.47	46.438
342.83	44.752
343.20	45.687
343.56	43.265
343.92	46.327
344.28	46.089
344.65	44.554
345.01	45.210
345.37	46.761
345.73	43.617
346.10	44.154
346.46	44.435
346.82	45.790
347.19	46.015
347.55	44.864
347.91	46.378
348.27	44.789
348.63	46.446
349.00	45.028
349.36	44.106
349.72	46.338
350.08	45.309
350.45	45.311
350.81	45.462
351.17	45.418
351.53	45.028
351.89	46.807
352.26	45.736
352.62	45.238
352.98	45.411
353.34	46.283
353.70	45.097
354.07	47.443
354.43	44.348
354.79	46.355
355.15	45.447
355.51	47.422
355.87	46.087
356.24	46.783
356.60	48.509
356.96	47.498
357.32	46.002
357.68	46.667
358.04	45.958
358.40	46.945
358.77	45.904
359.13	46.213
359.49	46.334
359.85	47.104
360.21	47.717
360.57	45.934
360.93	47.333
361.29	48.281
361.66	47.256
362.02	45.784
362.38	48.202
362.74	48.205
363.10	47.561
363.46	48.433
363.82	48.105
364.18	48.191
364.54	47.891
364.90	48.567
365.26	47.361
365.62	48.111
365.98	49.644
366.35	49.155
366.71	48.485
367.07	49.400
367.43	49.211
367.79	49.072
368.15	48.009
368.51	49.860
368.87	50.893
369.23	48.491
369.59	49.375
369.95	50.317
370.31	50.352
370.67	49.241
371.03	51.458
371.39	49.222
371.75	51.288
372.11	50.861
372.47	50.976
372.83	51.530
373.19	51.571
373.55	50.598
373.91	51.707
374.27	50.445
374.63	49.896
374.99	52.643
375.35	51.009
375.71	53.207
376.07	53.593
376.42	51.325
376.78	52.614
377.14	53.966
377.50	54.094
377.86	54.681
378.22	52.764
378.58	53.922
378.94	54.254
379.30	53.260
379.66	54.706
380.02	54.367
380.38	54.924
380.74	54.924
381.09	54.833
381.45	54.654
381.81	55.354
382.17	53.697
382.53	53.617
382.89	54.067
383.25	55.629
383.61	55.130
383.97	55.787
384.32	57.509
384.68	56.227
385.04	57.548
385.40	57.273
385.76	57.134
386.12	57.214
386.48	57.611
386.83	57.423
387.19	58.099
387.55	57.359
387.91	57.558
388.27	56.634
388.62	57.332
388.98	57.965
389.34	57.895
389.70	58.952
390.06	58.856
390.42	60.192
390.77	59.621
391.13	61.553
391.49	60.823
391.85	60.287
392.20	58.799
392.56	59.682
392.92	58.985
393.28	60.505
393.64	61.155
393.99	61.108
394.35	60.036
394.71	60.593
395.07	60.954
395.42	60.072
395.78	60.717
396.14	61.433
396.50	61.896
396.85	61.567
397.21	61.543
397.57	61.459
397.92	61.183
398.28	62.833
398.64	61.154
399.00	62.809
399.35	63.021
399.71	63.937
400.07	64.239
400.42	63.564
400.78	63.327
401.14	62.515
401.49	63.149
401.85	63.392
402.21	64.005
402.57	62.621
402.92	65.702
403.28	64.583
403.63	62.253
403.99	64.139
404.35	65.036
404.70	65.418
405.06	64.879
405.42	64.514
405.77	63.971
406.13	63.714
406.49	66.207
406.84	64.187
407.20	66.196
407.55	65.611
407.91	63.212
408.27	65.380
408.62	65.725
408.98	65.252
409.34	65.082
409.69	65.217
410.05	65.009
410.40	66.830
410.76	65.679
411.11	66.771
411.47	66.368
411.83	66.137
412.18	66.337
412.54	65.406
412.89	67.801
413.25	67.473
413.60	65.796
413.96	67.529
414.31	67.217
414.67	67.683
415.03	67.335
415.38	68.445
415.74	68.170
416.09	68.159
416.45	68.452
416.80	67.295
417.16	69.302
417.51	68.549
417.87	68.026
418.22	68.205
418.58	67.908
418.93	69.221
419.29	67.252
419.64	68.907
420.00	69.137
420.35	69.131
420.71	69.868
421.06	68.935
421.42	70.667
421.77	70.073
422.12	71.740
422.48	69.428
422.83	69.248
423.19	68.820
423.54	69.971
423.90	70.561
424.25	70.023
424.61	72.859
424.96	71.972
425.31	70.878
425.67	72.264
426.02	71.543
426.38	71.627
426.73	72.648
427.09	73.223
427.44	71.136
427.79	71.221
428.15	72.711
428.50	72.258
428.85	73.141
429.21	72.607
429.56	73.802
429.92	72.345
430.27	73.031
430.62	74.033
430.98	73.183
431.33	74.013
431.68	74.745
432.04	74.762
432.39	75.214
432.74	73.981
433.10	74.958
433.45	73.690
433.80	75.476
434.16	73.455
434.51	76.877
434.86	75.923
435.22	73.998
435.57	76.255
435.92	76.260
436.28	76.202
436.63	75.636
436.98	74.685
437.34	75.724
437.69	75.496
438.04	76.858
438.39	75.451
438.75	76.019
439.10	75.902
439.45	76.222
439.81	76.145
440.16	76.775
440.51	76.235
440.86	76.923
441.22	76.506
441.57	76.368
441.92	78.210
442.27	76.245
442.63	77.253
442.98	75.734
443.33	76.991
443.68	76.186
444.03	76.670
444.39	77.435
444.74	78.689
445.09	77.741
445.44	78.447
445.79	77.970
446.15	76.889
446.50	76.157
446.85	77.065
447.20	76.353
447.55	77.569
447.91	79.169
448.26	77.374
448.61	78.268
448.96	78.936
449.31	78.241
449.66	78.306
450.02	78.061
450.37	79.420
450.72	78.136
451.07	80.830
451.42	77.819
451.77	78.875
452.12	79.678
452.47	77.708
452.83	78.334
453.18	78.748
453.53	78.856
453.88	79.904
454.23	78.597
454.58	81.106
454.93	79.345
455.28	79.286
455.63	79.853
455.98	80.120
456.34	78.145
456.69	79.174
457.04	78.857
457.39	79.127
457.74	78.145
458.09	77.726
458.44	80.139
458.79	77.803
459.14	80.034
459.49	79.633
459.84	79.314
460.19	79.594
460.54	79.250
460.89	79.092
461.24	78.385
461.59	77.784
461.94	78.485
462.29	79.333
462.64	79.249
462.99	80.656
463.34	78.798
463.69	79.707
464.04	79.086
464.39	78.913
464.74	78.428
465.09	78.413
465.44	79.301
465.79	79.357
466.14	80.955
466.49	79.562
466.84	78.571
467.19	79.988
467.54	78.671
467.89	80.703
468.24	79.929
468.59	80.575
468.94	80.386
469.29	79.857
469.64	79.111
469.99	79.811
470.34	80.428
470.68	81.032
471.03	79.215
471.38	80.833
471.73	80.839
472.08	80.723
472.43	78.958
472.78	79.533
473.13	78.794
473.48	80.281
473.83	80.211
474.17	80.255
474.52	81.330
474.87	78.380
475.22	78.525
475.57	79.278
475.92	79.158
476.27	78.857
476.61	79.549
476.96	80.715
477.31	80.624
477.66	80.576
478.01	81.145
478.36	78.261
478.70	80.406
479.05	80.043
479.40	80.207
479.75	78.287
480.10	78.026
480.45	77.418
480.79	79.516
481.14	80.532
481.49	79.574
481.84	77.670
482.19	78.620
482.53	79.640
482.88	79.449
483.23	78.263
483.58	80.435
483.92	79.599
484.27	78.334
484.62	77.581
484.97	78.722
485.31	77.184
485.66	74.713
486.01	74.779
486.36	76.983
486.70	78.451
487.05	77.378
487.40	77.751
487.75	78.186
488.09	78.351
488.44	79.161
488.79	78.670
489.13	79.270
489.48	77.855
489.83	78.384
490.17	77.797
490.52	78.759
490.87	77.552
491.22	78.842
491.56	77.778
491.91	77.433
492.26	77.594
492.60	78.497
492.95	76.963
493.30	77.084
493.64	78.279
493.99	77.533
494.34	78.000
494.68	78.184
495.03	77.294
495.37	78.761
495.72	78.242
496.07	77.382
496.41	78.555
496.76	78.311
497.11	79.039
497.45	78.831
497.80	78.439
498.14	78.831
498.49	77.649
498.84	76.942
499.18	78.899
499.53	78.568
499.87	77.606
500.22	79.069
500.56	78.339
500.91	77.931
501.26	78.117
501.60	77.227
501.95	77.585
502.29	76.854
502.64	77.699
502.98	77.288
503.33	76.786
503.67	77.155
504.02	78.416
504.36	78.284
504.71	77.862
505.06	77.184
505.40	77.745
505.75	77.795
506.09	79.070
506.44	77.694
506.78	78.726
507.13	77.291
507.47	77.778
507.82	78.988
508.16	78.549
508.51	77.486
508.85	77.588
509.19	79.121
509.54	78.118
509.88	78.723
510.23	78.092
510.57	79.259
510.92	79.377
511.26	77.778
511.61	78.942
511.95	78.610
512.30	79.054
512.64	79.188
512.98	79.538
513.33	79.187
513.67	78.894
514.02	78.859
514.36	78.947
514.70	79.626
515.05	79.931
515.39	79.239
515.74	80.803
516.08	79.078
516.42	80.850
516.77	81.051
517.11	79.634
517.46	81.400
517.80	82.732
518.14	79.771
518.49	80.096
518.83	79.050
519.17	80.225
519.52	79.988
519.86	80.944
520.20	81.663
520.55	79.631
520.89	81.027
521.23	80.342
521.58	81.881
521.92	80.874
522.26	80.000
522.61	80.608
522.95	81.429
523.29	82.571
523.64	80.450
523.98	83.195
524.32	80.013
524.66	80.683
525.01	81.952
525.35	82.088
525.69	81.327
526.04	82.376
526.38	82.304
526.72	80.715
527.06	82.161
527.41	83.036
527.75	80.858
528.09	82.197
528.43	82.230
528.78	80.905
529.12	82.074
529.46	81.572
529.80	81.988
530.15	81.133
530.49	82.083
530.83	82.515
531.17	83.300
531.51	80.978
531.86	80.250
532.20	82.659
532.54	81.417
532.88	80.962
533.22	82.553
533.57	81.201
533.91	80.275
534.25	78.630
534.59	79.388
534.93	80.958
535.27	80.491
535.62	82.864
535.96	82.999
536.30	82.330
536.64	80.943
536.98	83.475
537.32	81.824
537.66	82.145
538.01	81.856
538.35	82.568
538.69	80.882
539.03	80.772
539.37	82.102
539.71	81.254
540.05	82.248
540.39	82.133
540.73	82.516
541.07	81.967
541.42	80.689
541.76	80.797
542.10	81.904
542.44	80.879
542.78	81.682
543.12	81.942
543.46	80.137
543.80	81.405
544.14	80.658
544.48	80.184
544.82	82.003
545.16	81.824
545.50	80.417
545.84	82.267
546.18	82.108
546.52	82.788
546.86	81.838
547.20	81.435
547.54	79.959
547.88	80.690
548.22	79.685
548.56	81.563
548.90	80.997
549.24	81.990
549.58	79.675
549.92	80.919
550.26	82.803
550.60	80.797
550.94	82.555
551.28	80.963
551.62	81.019
551.96	80.608
552.30	80.557
552.64	80.436
552.98	81.500
553.32	80.952
553.66	81.975
554.00	81.521
554.34	79.711
554.68	79.386
555.02	80.753
555.36	79.799
555.69	82.092
556.03	80.281
556.37	80.228
556.71	80.100
557.05	82.409
557.39	82.108
557.73	81.692
558.07	81.989
558.41	80.628
558.75	82.586
559.08	80.778
559.42	81.087
559.76	81.212
560.10	82.028
560.44	82.081
560.78	81.489
561.12	80.262
561.45	81.233
561.79	81.185
562.13	81.487
562.47	78.852
562.81	79.491
563.15	79.426
563.48	80.304
563.82	81.812
564.16	79.310
564.50	81.116
564.84	80.026
565.17	79.509
565.51	79.922
565.85	83.232
566.19	80.435
566.52	81.474
566.86	79.077
567.20	80.327
567.54	80.862
567.88	78.504
568.21	79.978
568.55	78.738
568.89	77.634
569.23	78.343
569.56	77.217
569.90	77.577
570.24	77.565
570.57	77.012
570.91	76.981
571.25	76.524
571.59	76.834
571.92	75.476
572.26	76.213
572.60	75.178
572.93	75.751
573.27	75.701
573.61	74.935
573.95	76.158
574.28	75.142
574.62	75.953
574.96	74.526
575.29	75.279
575.63	76.161
575.97	75.108
576.30	74.788
576.64	75.405
576.98	75.044
577.31	74.684
577.65	74.771
577.98	74.673
578.32	75.374
578.66	75.017
578.99	75.137
579.33	75.785
579.67	75.171
580.00	75.322
580.34	74.388
580.67	75.337
581.01	73.789
581.35	74.879
581.68	73.836
582.02	74.133
582.35	74.372
582.69	75.146
583.02	76.127
583.36	75.667
583.70	75.141
584.03	76.778
584.37	76.590
584.70	75.575
585.04	75.620
585.37	74.224
585.71	74.770
586.04	75.355
586.38	75.809
586.72	75.056
587.05	75.927
587.39	74.706
587.72	75.073
588.06	75.296
588.39	75.961
588.73	75.860
589.06	76.055
589.40	76.915
589.73	76.346
590.07	74.982
590.40	75.683
590.73	76.769
591.07	76.680
591.40	77.556
591.74	77.237
592.07	77.297
592.41	76.815
592.74	75.788
593.08	75.832
593.41	75.329
593.75	74.942
594.08	77.858
594.41	76.340
594.75	76.255
595.08	76.466
595.42	77.348
595.75	76.038
596.09	76.678
596.42	78.273
596.75	76.628
597.09	76.803
597.42	77.084
597.75	76.484
598.09	76.367
598.42	75.475
598.76	75.374
599.09	76.046
599.42	76.240
599.76	76.482
600.09	76.832
600.42	76.035
600.76	77.213
601.09	75.427
601.42	76.217
601.76	76.168
602.09	76.973
602.42	75.679
602.76	76.568
603.09	76.774
603.42	77.357
603.76	77.024
604.09	76.332
604.42	75.937
604.76	75.665
605.09	78.029
605.42	77.482
605.75	76.930
606.09	75.716
606.42	75.744
606.75	76.514
607.09	77.150
607.42	77.641
607.75	76.556
608.08	76.819
608.42	77.247
608.75	77.150
609.08	78.178
609.41	77.578
609.75	75.622
610.08	78.235
610.41	77.060
610.74	78.772
611.07	77.941
611.41	77.761
611.74	78.509
612.07	79.646
612.40	77.292
612.73	76.737
613.07	76.995
613.40	78.763
613.73	77.929
614.06	77.265
614.39	78.805
614.72	78.212
615.06	77.120
615.39	76.017
615.72	77.729
616.05	76.532
616.38	79.164
616.71	77.477
617.05	77.744
617.38	79.505
617.71	78.378
618.04	80.124
618.37	79.245
618.70	80.378
619.03	78.605
619.36	79.634
619.69	80.187
620.03	78.375
620.36	78.903
620.69	79.469
621.02	79.680
621.35	81.452
621.68	79.590
622.01	81.068
622.34	79.658
622.67	82.109
623.00	80.566
623.33	81.045
623.66	79.173
623.99	80.226
624.32	78.125
624.65	80.206
624.99	80.807
625.32	79.940
625.65	81.119
625.98	80.595
626.31	80.832
626.64	81.925
626.97	80.308
627.30	83.319
627.63	80.570
627.96	80.418
628.29	82.813
628.62	82.904
628.95	84.252
629.28	81.861
629.61	82.728
629.94	80.718
630.26	83.499
630.59	83.920
630.92	82.983
631.25	81.956
631.58	85.397
631.91	82.128
632.24	84.556
632.57	83.889
632.90	84.598
