SpectraSuite Data File
++++++++++++++++++++++++++++++++++++
Date: Sat May 16 11:43:37 PDT 2015
User: schluterlab
Dark Spectrum Present: Yes
Reference Spectrum Present: Yes
Number of Sampled Component Spectra: 1
Spectrometers: USB2E3373
Integration Time (usec): 3000 (USB2E3373)
Spectra Averaged: 3 (USB2E3373)
Boxcar Smoothing: 0 (USB2E3373)
Correct for Electrical Dark: No (USB2E3373)
Strobe/Lamp Enabled: No (USB2E3373)
Correct for Detector Non-linearity: No (USB2E3373)
Correct for Stray Light: No (USB2E3373)
Number of Pixels in Processed Spectrum: 2048
>>>>>Begin Processed Spectral Data<<<<<
178.53	0.000
178.91	53.333
179.29	466.667
179.67	-1100.000
180.04	-153.846
180.42	200.000
180.80	500.000
181.18	200.000
181.56	-150.000
181.94	1700.000
182.31	400.000
182.69	-61.538
183.07	-433.333
183.45	1300.000
183.83	366.667
184.20	-228.571
184.58	-100.000
184.96	-450.000
185.34	143.750
185.72	-400.000
186.09	133.333
186.47	-225.000
186.85	-200.000
187.23	-212.500
187.61	-250.000
187.98	-325.000
188.36	-50.000
188.74	-212.500
189.12	1600.000
189.49	471.429
189.87	-50.000
190.25	450.000
190.63	-50.000
191.00	-144.444
191.38	460.000
191.76	-20.000
192.14	640.000
192.51	-220.000
192.89	-566.667
193.27	0.000
193.65	-122.222
194.02	-314.286
194.40	533.333
194.78	-170.000
195.15	-1100.000
195.53	-109.091
195.91	-383.333
196.29	320.000
196.66	-800.000
197.04	2800.000
197.42	-100.000
197.79	13.333
198.17	-433.333
198.55	-850.000
198.92	-800.000
199.30	162.500
199.68	-650.000
200.05	-155.556
200.43	-277.778
200.81	-2000.000
201.18	-208.333
201.56	314.286
201.94	-100.000
202.31	-31.818
202.69	-50.000
203.07	-10.000
203.44	466.667
203.82	-316.667
204.19	-550.000
204.57	-200.000
204.95	-1000.000
205.32	12.500
205.70	1400.000
206.08	-1700.000
206.45	-22.222
206.83	-750.000
207.20	-450.000
207.58	-800.000
207.96	-233.333
208.33	-225.000
208.71	-200.000
209.08	240.000
209.46	-257.143
209.84	850.000
210.21	0.000
210.59	40.000
210.96	300.000
211.34	-250.000
211.71	-500.000
212.09	425.000
212.46	950.000
212.84	-2300.000
213.22	666.667
213.59	200.000
213.97	-22.222
214.34	230.000
214.72	-70.000
215.09	-533.333
215.47	-216.667
215.84	-70.000
216.22	-40.000
216.59	-26.667
216.97	-500.000
217.34	850.000
217.72	-128.571
218.09	-433.333
218.47	-271.429
218.84	185.714
219.22	-157.143
219.59	0.000
219.97	114.286
220.34	600.000
220.72	137.500
221.09	-7.692
221.47	0.000
221.84	666.667
222.22	-1050.000
222.59	1100.000
222.97	-137.500
223.34	-1300.000
223.72	-233.333
224.09	-14.286
224.46	-400.000
224.84	-14.286
225.21	-271.429
225.59	-81.818
225.96	-125.000
226.34	-228.571
226.71	-133.333
227.08	-50.000
227.46	1900.000
227.83	-228.571
228.21	-250.000
228.58	300.000
228.95	-25.000
229.33	-2200.000
229.70	-180.000
230.08	-650.000
230.45	-100.000
230.82	-150.000
231.20	-900.000
231.57	-850.000
231.95	1700.000
232.32	33.333
232.69	-166.667
233.07	-242.857
233.44	-1350.000
233.81	-80.000
234.19	-111.111
234.56	-56.250
234.93	3.125
235.31	-428.571
235.68	-142.857
236.05	-52.941
236.43	-109.091
236.80	-29.032
237.17	-29.167
237.55	-80.952
237.92	-145.455
238.29	-5.714
238.67	-17.647
239.04	-33.333
239.41	-38.710
239.79	-61.538
240.16	-66.667
240.53	-21.818
240.91	-7.692
241.28	-10.909
241.65	12.308
242.02	-26.230
242.40	-21.311
242.77	-13.636
243.14	-30.508
243.51	-31.429
243.89	-13.924
244.26	-20.225
244.63	-7.368
245.00	-23.158
245.38	1.695
245.75	-0.885
246.12	-8.000
246.49	-2.362
246.87	0.000
247.24	-13.559
247.61	-13.559
247.98	-4.225
248.36	-6.993
248.73	-8.228
249.10	-8.280
249.47	-3.509
249.84	-2.841
250.22	-15.476
250.59	-5.650
250.96	-3.141
251.33	0.000
251.70	-7.212
252.08	-0.474
252.45	-5.213
252.82	-3.810
253.19	-3.404
253.56	-2.419
253.94	-2.532
254.31	-6.438
254.68	-5.691
255.05	-4.032
255.42	1.984
255.79	-5.018
256.16	-3.529
256.54	-0.368
256.91	-3.030
257.28	-6.227
257.65	-3.191
258.02	0.629
258.39	-2.341
258.76	-5.405
259.14	-6.481
259.51	0.000
259.88	-3.049
260.25	-2.484
260.62	-4.502
260.99	-3.264
261.36	0.915
261.73	-2.601
262.10	-1.111
262.47	-3.134
262.85	2.286
263.22	-2.865
263.59	-4.308
263.96	-1.449
264.33	-2.168
264.70	0.276
265.07	-3.022
265.44	-1.809
265.81	-2.842
266.18	-1.266
266.55	-2.451
266.92	1.259
267.29	-0.242
267.66	0.000
268.03	0.725
268.40	1.408
268.77	-1.205
269.14	-0.928
269.51	0.690
269.88	-0.459
270.25	-3.497
270.62	-2.288
270.99	-1.577
271.36	-1.166
271.73	-0.673
272.10	-2.746
272.47	-1.556
272.84	1.556
273.21	2.294
273.58	-1.099
273.95	-1.974
274.32	0.452
274.69	0.656
275.06	-0.204
275.43	-3.125
275.80	0.611
276.17	0.628
276.54	1.833
276.91	-0.823
277.28	0.000
277.65	0.000
278.02	-0.835
278.39	-0.982
278.76	-0.797
279.13	1.779
279.50	0.199
279.87	-1.268
280.23	-0.202
280.60	-0.398
280.97	-0.777
281.34	-1.547
281.71	1.154
282.08	-1.210
282.45	-3.055
282.82	-0.775
283.19	-0.727
283.56	0.733
283.92	0.530
284.29	-0.558
284.66	0.180
285.03	1.248
285.40	0.185
285.77	0.526
286.14	0.722
286.51	-0.888
286.87	-0.363
287.24	1.195
287.61	1.322
287.98	-0.520
288.35	-0.826
288.72	-1.698
289.08	0.169
289.45	-0.168
289.82	0.000
290.19	1.478
290.56	-0.331
290.93	0.000
291.29	-0.648
291.66	2.093
292.03	0.628
292.40	0.602
292.77	0.155
293.13	0.976
293.50	1.040
293.87	1.074
294.24	2.413
294.60	-0.606
294.97	1.821
295.34	-0.593
295.71	2.976
296.08	-1.075
296.44	0.572
296.81	1.709
297.18	1.690
297.55	1.977
297.91	1.813
298.28	1.233
298.65	0.697
299.02	3.476
299.38	1.337
299.75	0.951
300.12	1.795
300.48	1.790
300.85	1.311
301.22	2.070
301.59	2.471
301.95	2.771
302.32	0.652
302.69	2.570
303.05	0.000
303.42	1.500
303.79	2.871
304.15	1.659
304.52	2.684
304.89	1.181
305.25	1.954
305.62	1.880
305.99	3.534
306.35	3.663
306.72	1.139
307.09	3.746
307.45	2.497
307.82	2.570
308.19	3.468
308.55	2.397
308.92	1.719
309.29	2.270
309.65	3.712
310.02	2.916
310.38	2.703
310.75	2.971
311.12	3.306
311.48	3.340
311.85	2.369
312.22	3.708
312.58	4.171
312.95	3.568
313.31	4.496
313.68	4.322
314.05	5.935
314.41	3.320
314.78	3.796
315.14	4.245
315.51	4.357
315.87	4.356
316.24	4.956
316.61	5.566
316.97	5.473
317.34	4.432
317.70	4.174
318.07	5.037
318.43	4.588
318.80	5.822
319.16	4.221
319.53	5.545
319.89	6.303
320.26	5.588
320.62	5.096
320.99	5.871
321.35	4.138
321.72	4.401
322.08	5.836
322.45	5.347
322.81	6.628
323.18	5.668
323.54	7.301
323.91	7.136
324.27	5.513
324.64	7.038
325.00	7.417
325.37	6.787
325.73	8.661
326.10	6.643
326.46	8.932
326.83	8.681
327.19	8.924
327.56	9.881
327.92	9.261
328.29	9.870
328.65	7.364
329.01	9.894
329.38	9.188
329.74	10.073
330.11	9.610
330.47	9.991
330.84	10.724
331.20	10.199
331.56	10.483
331.93	11.012
332.29	11.872
332.66	10.272
333.02	10.136
333.38	12.814
333.75	11.398
334.11	11.111
334.48	10.415
334.84	13.123
335.20	12.234
335.57	11.913
335.93	12.534
336.29	12.666
336.66	11.718
337.02	11.441
337.38	11.497
337.75	12.643
338.11	11.986
338.47	11.477
338.84	12.160
339.20	12.214
339.56	13.102
339.93	12.081
340.29	11.337
340.65	12.850
341.02	12.395
341.38	10.868
341.74	11.600
342.11	11.860
342.47	11.931
342.83	12.175
343.20	12.041
343.56	11.429
343.92	12.771
344.28	11.943
344.65	10.974
345.01	11.176
345.37	12.708
345.73	11.948
346.10	10.630
346.46	10.967
346.82	10.746
347.19	11.093
347.55	11.316
347.91	11.496
348.27	9.944
348.63	12.520
349.00	12.092
349.36	10.929
349.72	11.624
350.08	11.468
350.45	10.481
350.81	11.385
351.17	10.531
351.53	10.501
351.89	11.479
352.26	11.705
352.62	11.290
352.98	11.788
353.34	10.312
353.70	10.656
354.07	10.858
354.43	10.751
354.79	11.807
355.15	11.422
355.51	10.547
355.87	10.751
356.24	10.326
356.60	12.409
356.96	10.624
357.32	10.055
357.68	9.962
358.04	11.547
358.40	11.292
358.77	11.128
359.13	11.018
359.49	10.658
359.85	10.518
360.21	11.035
360.57	12.199
360.93	11.111
361.29	11.809
361.66	9.680
362.02	11.095
362.38	11.519
362.74	10.623
363.10	11.549
363.46	12.251
363.82	11.370
364.18	11.650
364.54	11.866
364.90	11.321
365.26	10.271
365.62	12.046
365.98	12.233
366.35	10.986
366.71	10.500
367.07	11.150
367.43	12.217
367.79	10.447
368.15	10.953
368.51	11.399
368.87	12.500
369.23	10.737
369.59	12.569
369.95	11.769
370.31	11.392
370.67	10.195
371.03	12.172
371.39	10.750
371.75	10.944
372.11	11.621
372.47	10.991
372.83	11.961
373.19	11.286
373.55	12.315
373.91	11.664
374.27	11.225
374.63	11.594
374.99	10.848
375.35	11.440
375.71	12.289
376.07	11.294
376.42	10.795
376.78	10.980
377.14	11.458
377.50	11.476
377.86	11.638
378.22	11.307
378.58	10.933
378.94	10.727
379.30	11.517
379.66	11.658
380.02	10.814
380.38	10.997
380.74	11.782
381.09	12.068
381.45	11.456
381.81	11.494
382.17	10.526
382.53	10.517
382.89	11.065
383.25	10.837
383.61	10.790
383.97	11.758
384.32	11.139
384.68	12.273
385.04	10.870
385.40	10.834
385.76	11.037
386.12	10.931
386.48	11.819
386.83	11.534
387.19	11.118
387.55	11.448
387.91	10.492
388.27	10.615
388.62	11.058
388.98	10.418
389.34	10.710
389.70	10.536
390.06	11.063
390.42	11.218
390.77	11.356
391.13	12.422
391.49	11.104
391.85	10.786
392.20	10.498
392.56	10.018
392.92	11.067
393.28	10.850
393.64	10.463
393.99	11.385
394.35	10.827
394.71	10.994
395.07	10.923
395.42	10.489
395.78	9.617
396.14	11.215
396.50	10.826
396.85	11.043
397.21	10.632
397.57	11.003
397.92	11.651
398.28	10.889
398.64	10.648
399.00	10.674
399.35	11.048
399.71	11.324
400.07	11.104
400.42	10.341
400.78	11.091
401.14	10.000
401.49	9.670
401.85	10.006
402.21	11.144
402.57	10.922
402.92	10.573
403.28	10.417
403.63	10.186
403.99	9.882
404.35	9.722
404.70	10.298
405.06	11.188
405.42	9.902
405.77	8.824
406.13	10.505
406.49	9.527
406.84	9.958
407.20	10.660
407.55	9.880
407.91	8.873
408.27	10.172
408.62	9.922
408.98	10.855
409.34	9.506
409.69	10.523
410.05	10.127
410.40	9.565
410.76	9.959
411.11	10.100
411.47	9.783
411.83	10.086
412.18	9.406
412.54	9.213
412.89	10.085
413.25	9.327
413.60	9.660
413.96	9.550
414.31	10.581
414.67	9.397
415.03	9.832
415.38	9.954
415.74	9.923
416.09	9.719
416.45	9.458
416.80	10.143
417.16	10.100
417.51	10.900
417.87	8.867
418.22	10.240
418.58	10.462
418.93	10.116
419.29	9.787
419.64	8.920
420.00	10.450
420.35	9.758
420.71	10.684
421.06	10.947
421.42	9.778
421.77	10.106
422.12	10.688
422.48	10.369
422.83	10.592
423.19	10.468
423.54	10.663
423.90	10.006
424.25	10.407
424.61	12.002
424.96	11.761
425.31	10.844
425.67	10.774
426.02	10.212
426.38	11.010
426.73	11.689
427.09	10.662
427.44	11.591
427.79	10.233
428.15	11.191
428.50	10.557
428.85	11.811
429.21	10.625
429.56	11.406
429.92	11.723
430.27	11.117
430.62	10.711
430.98	11.657
431.33	11.580
431.68	11.743
432.04	11.360
432.39	12.308
432.74	12.110
433.10	11.761
433.45	10.823
433.80	10.750
434.16	11.553
434.51	11.671
434.86	12.244
435.22	11.804
435.57	11.934
435.92	11.489
436.28	11.691
436.63	11.702
436.98	11.627
437.34	12.109
437.69	11.844
438.04	11.912
438.39	13.117
438.75	11.874
439.10	12.937
439.45	11.889
439.81	12.410
440.16	12.379
440.51	12.765
440.86	12.146
441.22	11.056
441.57	12.737
441.92	12.379
442.27	12.933
442.63	12.876
442.98	11.795
443.33	13.015
443.68	13.445
444.03	12.819
444.39	12.677
444.74	13.601
445.09	13.048
445.44	12.493
445.79	12.137
446.15	12.432
446.50	11.813
446.85	13.084
447.20	13.432
447.55	12.983
447.91	12.858
448.26	12.346
448.61	12.903
448.96	13.389
449.31	13.360
449.66	12.650
450.02	13.241
450.37	12.522
450.72	13.164
451.07	12.885
451.42	13.259
451.77	13.285
452.12	13.409
452.47	14.295
452.83	13.920
453.18	13.915
453.53	13.495
453.88	13.696
454.23	13.664
454.58	13.487
454.93	13.917
455.28	12.811
455.63	13.636
455.98	14.518
456.34	13.405
456.69	15.197
457.04	14.136
457.39	13.337
457.74	13.113
458.09	13.979
458.44	14.607
458.79	13.285
459.14	14.546
459.49	14.091
459.84	13.435
460.19	13.902
460.54	13.672
460.89	13.565
461.24	13.722
461.59	13.892
461.94	13.431
462.29	14.294
462.64	14.097
462.99	14.056
463.34	14.382
463.69	13.995
464.04	12.654
464.39	13.501
464.74	13.534
465.09	13.590
465.44	13.818
465.79	14.213
466.14	14.442
466.49	13.759
466.84	13.986
467.19	14.152
467.54	13.228
467.89	13.687
468.24	13.599
468.59	13.804
468.94	13.891
469.29	14.035
469.64	14.218
469.99	15.260
470.34	13.627
470.68	14.826
471.03	14.797
471.38	13.750
471.73	13.217
472.08	13.588
472.43	13.900
472.78	14.467
473.13	14.049
473.48	14.486
473.83	14.082
474.17	14.586
474.52	15.281
474.87	14.161
475.22	13.864
475.57	13.722
475.92	13.391
476.27	13.943
476.61	14.197
476.96	14.198
477.31	14.586
477.66	14.721
478.01	14.371
478.36	14.405
478.70	14.202
479.05	14.657
479.40	14.093
479.75	14.220
480.10	14.484
480.45	13.491
480.79	14.413
481.14	14.350
481.49	13.698
481.84	13.962
482.19	14.984
482.53	13.873
482.88	14.143
483.23	14.178
483.58	14.385
483.92	14.381
484.27	13.735
484.62	13.780
484.97	13.874
485.31	13.184
485.66	13.297
486.01	13.456
486.36	13.661
486.70	14.400
487.05	14.060
487.40	14.022
487.75	14.346
488.09	13.650
488.44	14.547
488.79	14.114
489.13	14.226
489.48	14.927
489.83	13.843
490.17	14.367
490.52	14.764
490.87	14.042
491.22	14.666
491.56	14.398
491.91	14.552
492.26	13.679
492.60	14.225
492.95	14.327
493.30	13.721
493.64	14.010
493.99	14.532
494.34	14.571
494.68	15.215
495.03	14.293
495.37	14.258
495.72	14.047
496.07	14.500
496.41	14.729
496.76	14.064
497.11	14.225
497.45	14.751
497.80	14.157
498.14	14.391
498.49	13.410
498.84	13.932
499.18	14.376
499.53	14.369
499.87	13.851
500.22	13.627
500.56	14.307
500.91	13.695
501.26	14.750
501.60	13.481
501.95	14.348
502.29	14.218
502.64	14.427
502.98	14.135
503.33	14.051
503.67	13.841
504.02	14.389
504.36	14.412
504.71	13.880
505.06	13.530
505.40	14.172
505.75	13.618
506.09	14.257
506.44	14.386
506.78	14.150
507.13	14.109
507.47	14.032
507.82	13.991
508.16	14.093
508.51	13.653
508.85	13.975
509.19	14.704
509.54	14.059
509.88	14.628
510.23	13.784
510.57	13.968
510.92	14.823
511.26	14.141
511.61	14.093
511.95	13.685
512.30	13.964
512.64	13.133
512.98	14.576
513.33	14.552
513.67	14.015
514.02	13.814
514.36	14.404
514.70	14.205
515.05	14.008
515.39	13.495
515.74	14.311
516.08	14.697
516.42	14.221
516.77	13.576
517.11	14.416
517.46	14.175
517.80	14.140
518.14	13.647
518.49	13.628
518.83	14.125
519.17	14.446
519.52	13.939
519.86	14.397
520.20	13.631
520.55	14.277
520.89	13.713
521.23	14.164
521.58	13.229
521.92	14.123
522.26	14.032
522.61	14.766
522.95	13.593
523.29	14.608
523.64	14.116
523.98	13.304
524.32	13.891
524.66	14.224
525.01	14.579
525.35	14.111
525.69	13.728
526.04	14.164
526.38	13.622
526.72	13.410
527.06	13.737
527.41	12.739
527.75	13.135
528.09	13.898
528.43	14.098
528.78	13.693
529.12	14.469
529.46	14.046
529.80	13.686
530.15	14.488
530.49	13.519
530.83	14.538
531.17	13.737
531.51	12.257
531.86	13.759
532.20	14.912
532.54	13.102
532.88	13.439
533.22	12.968
533.57	13.251
533.91	13.421
534.25	12.948
534.59	12.804
534.93	12.508
535.27	13.153
535.62	14.450
535.96	12.928
536.30	12.304
536.64	13.878
536.98	12.924
537.32	12.992
537.66	13.238
538.01	13.265
538.35	13.378
538.69	13.168
539.03	13.135
539.37	12.974
539.71	13.409
540.05	13.365
540.39	13.019
540.73	12.992
541.07	12.773
541.42	12.627
541.76	11.694
542.10	13.032
542.44	13.857
542.78	14.179
543.12	13.170
543.46	12.740
543.80	12.910
544.14	11.954
544.48	12.467
544.82	12.720
545.16	12.542
545.50	12.248
545.84	13.630
546.18	12.483
546.52	12.518
546.86	11.823
547.20	12.729
547.54	13.085
547.88	12.409
548.22	11.796
548.56	11.289
548.90	11.995
549.24	12.824
549.58	11.785
549.92	13.004
550.26	12.428
550.60	12.660
550.94	11.898
551.28	12.716
551.62	11.817
551.96	12.735
552.30	12.822
552.64	12.597
552.98	12.964
553.32	12.049
553.66	12.617
554.00	12.651
554.34	11.841
554.68	11.915
555.02	13.025
555.36	12.581
555.69	11.605
556.03	11.439
556.37	11.735
556.71	12.026
557.05	12.565
557.39	11.433
557.73	12.400
558.07	11.831
558.41	11.294
558.75	12.167
559.08	11.751
559.42	11.715
559.76	12.193
560.10	12.901
560.44	12.861
560.78	11.343
561.12	11.594
561.45	12.466
561.79	10.941
562.13	11.220
562.47	11.625
562.81	11.810
563.15	12.316
563.48	11.748
563.82	11.359
564.16	11.089
564.50	11.559
564.84	12.037
565.17	11.671
565.51	11.538
565.85	11.359
566.19	11.528
566.52	11.481
566.86	10.936
567.20	12.167
567.54	12.758
567.88	11.893
568.21	11.186
568.55	10.604
568.89	11.332
569.23	10.689
569.56	10.593
569.90	10.976
570.24	11.086
570.57	10.721
570.91	10.813
571.25	10.765
571.59	10.646
571.92	10.268
572.26	10.665
572.60	10.425
572.93	10.406
573.27	10.457
573.61	9.808
573.95	10.617
574.28	10.228
574.62	10.320
574.96	10.070
575.29	10.645
575.63	10.433
575.97	10.113
576.30	10.359
576.64	10.261
576.98	9.903
577.31	9.988
577.65	10.154
577.98	10.214
578.32	9.808
578.66	10.104
578.99	9.959
579.33	10.023
579.67	10.018
580.00	9.648
580.34	9.956
580.67	10.150
581.01	9.621
581.35	9.762
581.68	9.676
582.02	9.969
582.35	9.669
582.69	10.123
583.02	9.881
583.36	9.843
583.70	9.626
584.03	10.210
584.37	9.445
584.70	10.071
585.04	9.873
585.37	9.809
585.71	9.773
586.04	9.980
586.38	9.489
586.72	10.428
587.05	9.657
587.39	10.325
587.72	9.981
588.06	9.381
588.39	9.570
588.73	10.109
589.06	9.879
589.40	10.031
589.73	10.340
590.07	9.578
590.40	10.074
590.73	9.436
591.07	10.000
591.40	10.182
591.74	9.904
592.07	9.910
592.41	9.469
592.74	9.646
593.08	10.093
593.41	9.704
593.75	9.561
594.08	9.921
594.41	10.388
594.75	9.966
595.08	9.925
595.42	9.935
595.75	9.519
596.09	9.468
596.42	10.065
596.75	9.056
597.09	10.419
597.42	9.646
597.75	9.787
598.09	10.212
598.42	9.501
598.76	9.136
599.09	8.998
599.42	9.112
599.76	9.626
600.09	9.733
600.42	10.027
600.76	9.454
601.09	9.533
601.42	9.300
601.76	9.891
602.09	9.489
602.42	9.506
602.76	9.015
603.09	9.556
603.42	9.468
603.76	9.613
604.09	9.331
604.42	9.242
604.76	8.897
605.09	9.539
605.42	10.062
605.75	9.056
606.09	9.381
606.42	9.468
606.75	9.747
607.09	9.881
607.42	9.331
607.75	9.272
608.08	9.851
608.42	8.893
608.75	8.364
609.08	9.644
609.41	9.666
609.75	9.654
610.08	9.804
610.41	8.964
610.74	9.671
611.07	9.483
611.41	8.422
611.74	9.769
612.07	9.989
612.40	8.849
612.73	9.101
613.07	8.531
613.40	9.962
613.73	9.319
614.06	8.731
614.39	9.076
614.72	8.436
615.06	9.130
615.39	9.170
615.72	9.017
616.05	9.332
616.38	9.925
616.71	9.249
617.05	9.650
617.38	8.978
617.71	8.968
618.04	7.826
618.37	8.931
618.70	8.866
619.03	9.614
619.36	9.514
619.69	10.122
620.03	8.884
620.36	8.439
620.69	9.332
621.02	9.209
621.35	8.468
621.68	8.115
622.01	9.951
622.34	9.161
622.67	8.906
623.00	9.258
623.33	8.731
623.66	9.453
623.99	9.098
624.32	9.077
624.65	9.272
624.99	7.842
625.32	7.859
625.65	8.314
625.98	8.372
626.31	9.543
626.64	8.703
626.97	9.503
627.30	8.596
627.63	7.340
627.96	10.270
628.29	7.996
628.62	8.500
628.95	8.071
629.28	9.962
629.61	8.930
629.94	8.885
630.26	9.145
630.59	9.146
630.92	9.009
631.25	9.476
631.58	9.418
631.91	7.234
632.24	7.667
632.57	8.556
632.90	9.425
633.23	8.879
633.56	7.602
633.89	10.967
634.22	8.501
634.55	8.774
634.88	10.157
635.20	8.864
635.53	8.906
635.86	7.431
636.19	9.280
636.52	8.005
636.85	7.461
637.18	5.625
637.51	10.037
637.83	8.389
638.16	8.553
