SpectraSuite Data File
++++++++++++++++++++++++++++++++++++
Date: Sat May 16 11:44:30 PDT 2015
User: schluterlab
Dark Spectrum Present: Yes
Reference Spectrum Present: Yes
Number of Sampled Component Spectra: 1
Spectrometers: USB2E3373
Integration Time (usec): 3000 (USB2E3373)
Spectra Averaged: 3 (USB2E3373)
Boxcar Smoothing: 0 (USB2E3373)
Correct for Electrical Dark: No (USB2E3373)
Strobe/Lamp Enabled: No (USB2E3373)
Correct for Detector Non-linearity: No (USB2E3373)
Correct for Stray Light: No (USB2E3373)
Number of Pixels in Processed Spectrum: 2048
>>>>>Begin Processed Spectral Data<<<<<
178.53	0.000
178.91	53.333
179.29	600.000
179.67	-1900.000
180.04	-30.769
180.42	500.000
180.80	50.000
181.18	250.000
181.56	-37.500
181.94	800.000
182.31	425.000
182.69	-53.846
183.07	-700.000
183.45	1450.000
183.83	333.333
184.20	-171.429
184.58	-125.000
184.96	-500.000
185.34	193.750
185.72	-625.000
186.09	166.667
186.47	-262.500
186.85	-50.000
187.23	-150.000
187.61	-100.000
187.98	-300.000
188.36	-75.000
188.74	-100.000
189.12	2100.000
189.49	300.000
189.87	-91.667
190.25	175.000
190.63	-57.143
191.00	-244.444
191.38	460.000
191.76	20.000
192.14	660.000
192.51	-280.000
192.89	-500.000
193.27	0.000
193.65	-200.000
194.02	-271.429
194.40	600.000
194.78	-60.000
195.15	-2200.000
195.53	-72.727
195.91	-416.667
196.29	160.000
196.66	-533.333
197.04	2000.000
197.42	-200.000
197.79	6.667
198.17	-466.667
198.55	-450.000
198.92	-1600.000
199.30	312.500
199.68	-1000.000
200.05	-77.778
200.43	-277.778
200.81	-900.000
201.18	-108.333
201.56	528.571
201.94	-46.667
202.31	27.273
202.69	-10.000
203.07	-110.000
203.44	600.000
203.82	-416.667
204.19	-275.000
204.57	-125.000
204.95	-1700.000
205.32	-6.250
205.70	1200.000
206.08	-2100.000
206.45	-22.222
206.83	-1150.000
207.20	100.000
207.58	-833.333
207.96	-566.667
208.33	-200.000
208.71	-100.000
209.08	210.000
209.46	-128.571
209.84	650.000
210.21	0.000
210.59	-25.000
210.96	1100.000
211.34	-183.333
211.71	-333.333
212.09	350.000
212.46	550.000
212.84	-1500.000
213.22	900.000
213.59	208.333
213.97	-155.556
214.34	110.000
214.72	0.000
215.09	-300.000
215.47	-50.000
215.84	-50.000
216.22	-40.000
216.59	-20.000
216.97	-550.000
217.34	950.000
217.72	-100.000
218.09	-433.333
218.47	-271.429
218.84	228.571
219.22	-14.286
219.59	0.000
219.97	300.000
220.34	325.000
220.72	362.500
221.09	-38.462
221.47	0.000
221.84	333.333
222.22	-750.000
222.59	1800.000
222.97	-312.500
223.34	-800.000
223.72	-666.667
224.09	-121.429
224.46	-350.000
224.84	-35.714
225.21	-300.000
225.59	-100.000
225.96	-100.000
226.34	-100.000
226.71	-188.889
227.08	0.000
227.46	2300.000
227.83	-228.571
228.21	-187.500
228.58	500.000
228.95	-56.250
229.33	-1400.000
229.70	-300.000
230.08	-1100.000
230.45	-50.000
230.82	-350.000
231.20	-1400.000
231.57	-750.000
231.95	1300.000
232.32	19.048
232.69	-55.556
233.07	-257.143
233.44	-950.000
233.81	-53.333
234.19	-33.333
234.56	-75.000
234.93	21.875
235.31	-285.714
235.68	-128.571
236.05	-17.647
236.43	-36.364
236.80	-3.226
237.17	-4.167
237.55	-42.857
237.92	-13.636
238.29	-20.000
238.67	14.706
239.04	2.778
239.41	-16.129
239.79	-20.513
240.16	-28.571
240.53	0.000
240.91	15.385
241.28	14.545
241.65	24.615
242.02	16.393
242.40	13.115
242.77	-6.061
243.14	-1.695
243.51	17.143
243.89	16.456
244.26	15.730
244.63	22.105
245.00	28.421
245.38	23.729
245.75	33.628
246.12	14.400
246.49	19.685
246.87	17.073
247.24	18.644
247.61	16.102
247.98	14.789
248.36	22.378
248.73	25.316
249.10	25.478
249.47	21.053
249.84	25.568
250.22	21.429
250.59	24.294
250.96	25.654
251.33	28.436
251.70	31.731
252.08	21.801
252.45	27.488
252.82	27.619
253.19	28.936
253.56	31.855
253.94	29.958
254.31	24.464
254.68	30.894
255.05	27.016
255.42	32.540
255.79	28.315
256.16	30.196
256.54	33.456
256.91	27.652
257.28	27.473
257.65	29.433
258.02	28.616
258.39	30.435
258.76	23.649
259.14	25.309
259.51	34.098
259.88	28.354
260.25	30.124
260.62	27.010
260.99	28.783
261.36	28.659
261.73	32.659
262.10	26.111
262.47	32.194
262.85	34.571
263.22	29.799
263.59	27.385
263.96	33.913
264.33	31.978
264.70	30.939
265.07	29.121
265.44	28.941
265.81	29.199
266.18	27.848
266.55	28.431
266.92	31.990
267.29	30.508
267.66	31.852
268.03	31.884
268.40	28.873
268.77	27.229
269.14	31.787
269.51	28.966
269.88	26.376
270.25	30.070
270.62	30.435
270.99	27.703
271.36	30.303
271.73	30.942
272.10	30.435
272.47	29.111
272.84	31.111
273.21	30.963
273.58	30.110
273.95	28.509
274.32	32.353
274.69	33.698
275.06	32.515
275.43	28.571
275.80	32.383
276.17	31.172
276.54	30.957
276.91	28.395
277.28	31.643
277.65	28.719
278.02	31.106
278.39	31.041
278.76	31.275
279.13	33.004
279.50	29.026
279.87	30.867
280.23	31.579
280.60	28.628
280.97	29.320
281.34	32.882
281.71	31.154
282.08	29.637
282.45	30.754
282.82	33.333
283.19	30.727
283.56	32.418
283.92	32.332
284.29	30.112
284.66	26.978
285.03	29.055
285.40	28.044
285.77	31.053
286.14	29.242
286.51	29.840
286.87	30.309
287.24	31.229
287.61	29.917
287.98	30.503
288.35	27.769
288.72	27.165
289.08	26.441
289.45	31.145
289.82	28.028
290.19	27.258
290.56	26.942
290.93	25.914
291.29	26.418
291.66	24.960
292.03	29.042
292.40	25.904
292.77	25.776
293.13	26.829
293.50	25.706
293.87	26.994
294.24	24.736
294.60	23.182
294.97	26.859
295.34	24.741
295.71	25.744
296.08	22.273
296.44	25.751
296.81	26.211
297.18	24.648
297.55	24.718
297.91	25.244
298.28	23.699
298.65	23.989
299.02	24.866
299.38	23.797
299.75	21.739
300.12	22.692
300.48	22.506
300.85	23.591
301.22	23.286
301.59	22.627
301.95	23.678
302.32	23.077
302.69	22.766
303.05	21.734
303.42	21.875
303.79	23.325
304.15	22.986
304.52	22.520
304.89	21.960
305.25	22.589
305.62	20.094
305.99	23.439
306.35	21.865
306.72	21.982
307.09	22.247
307.45	22.247
307.82	19.218
308.19	21.029
308.55	21.024
308.92	20.838
309.29	21.189
309.65	21.527
310.02	20.086
310.38	19.892
310.75	21.209
311.12	20.971
311.48	20.772
311.85	20.803
312.22	21.421
312.58	21.872
312.95	21.203
313.31	20.480
313.68	21.608
314.05	21.464
314.41	19.618
314.78	20.679
315.14	21.125
315.51	21.074
315.87	21.491
316.24	20.797
316.61	21.881
316.97	21.294
317.34	20.713
317.70	19.388
318.07	19.683
318.43	20.787
318.80	20.563
319.16	19.606
319.53	19.455
319.89	19.849
320.26	20.196
320.62	19.135
320.99	19.403
321.35	18.719
321.72	19.959
322.08	20.870
322.45	20.594
322.81	20.269
323.18	20.941
323.54	20.148
323.91	18.999
324.27	20.152
324.64	19.835
325.00	18.848
325.37	20.000
325.73	20.035
326.10	18.689
326.46	20.753
326.83	19.745
327.19	20.183
327.56	20.954
327.92	20.051
328.29	19.394
328.65	18.000
329.01	18.905
329.38	19.715
329.74	19.231
330.11	19.402
330.47	19.528
330.84	19.890
331.20	18.231
331.56	18.961
331.93	18.739
332.29	18.721
332.66	19.842
333.02	18.100
333.38	19.624
333.75	19.679
334.11	19.022
334.48	18.094
334.84	18.723
335.20	19.770
335.57	18.321
335.93	19.517
336.29	18.866
336.66	18.150
337.02	19.189
337.38	18.895
337.75	19.227
338.11	19.141
338.47	18.149
338.84	19.510
339.20	18.541
339.56	19.073
339.93	19.400
340.29	17.095
340.65	18.969
341.02	18.212
341.38	19.966
341.74	17.866
342.11	18.345
342.47	17.253
342.83	17.716
343.20	18.190
343.56	17.143
343.92	18.948
344.28	18.839
344.65	17.574
345.01	19.328
345.37	20.100
345.73	17.594
346.10	17.907
346.46	18.034
346.82	17.723
347.19	18.242
347.55	17.737
347.91	17.323
348.27	17.820
348.63	18.578
349.00	18.457
349.36	17.018
349.72	18.869
350.08	18.364
350.45	16.706
350.81	18.631
351.17	17.203
351.53	16.786
351.89	16.815
352.26	17.752
352.62	18.817
352.98	17.880
353.34	17.906
353.70	16.834
354.07	18.096
354.43	18.340
354.79	17.987
355.15	16.294
355.51	16.484
355.87	17.866
356.24	17.156
356.60	18.292
356.96	18.168
357.32	17.181
357.68	17.011
358.04	17.321
358.40	16.783
358.77	16.074
359.13	17.062
359.49	17.007
359.85	16.387
360.21	16.819
360.57	17.018
360.93	18.444
361.29	17.339
361.66	16.159
362.02	16.864
362.38	18.048
362.74	18.095
363.10	16.499
363.46	17.379
363.82	16.472
364.18	16.787
364.54	17.727
364.90	17.610
365.26	16.904
365.62	17.676
365.98	17.425
366.35	17.254
366.71	17.618
367.07	17.290
367.43	18.051
367.79	18.007
368.15	15.861
368.51	17.133
368.87	18.407
369.23	17.684
369.59	16.875
369.95	17.759
370.31	18.003
370.67	16.341
371.03	17.201
371.39	15.417
371.75	17.310
372.11	16.858
372.47	16.992
372.83	17.524
373.19	16.929
373.55	18.086
373.91	17.283
374.27	16.564
374.63	17.667
374.99	17.038
375.35	16.555
375.71	17.556
376.07	17.248
376.42	16.490
376.78	17.255
377.14	17.153
377.50	17.473
377.86	16.775
378.22	16.646
378.58	17.295
378.94	17.263
379.30	17.246
379.66	18.276
380.02	17.469
380.38	17.462
380.74	17.233
381.09	17.399
381.45	17.064
381.81	16.455
382.17	17.105
382.53	16.778
382.89	17.584
383.25	17.038
383.61	17.807
383.97	17.146
384.32	17.334
384.68	18.017
385.04	16.606
385.40	17.164
385.76	16.829
386.12	16.365
386.48	17.389
386.83	16.994
387.19	17.394
387.55	16.475
387.91	17.131
388.27	16.526
388.62	17.127
388.98	17.444
389.34	16.463
389.70	15.895
390.06	16.408
390.42	17.692
390.77	17.350
391.13	18.199
391.49	16.407
391.85	17.519
392.20	16.748
392.56	16.677
392.92	17.056
393.28	17.164
393.64	16.717
393.99	17.662
394.35	17.944
394.71	16.553
395.07	18.330
395.42	16.210
395.78	17.222
396.14	18.629
396.50	17.064
396.85	17.582
397.21	17.861
397.57	17.386
397.92	17.916
398.28	17.167
398.64	17.965
399.00	17.303
399.35	16.234
399.71	17.596
400.07	18.507
400.42	17.457
400.78	17.591
401.14	17.485
401.49	16.686
401.85	17.145
402.21	17.819
402.57	17.476
402.92	18.125
403.28	17.096
403.63	16.896
403.99	17.464
404.35	16.244
404.70	17.847
405.06	17.474
405.42	17.097
405.77	15.894
406.13	17.093
406.49	17.256
406.84	17.397
407.20	18.080
407.55	16.909
407.91	17.034
408.27	17.218
408.62	16.957
408.98	18.253
409.34	16.575
409.69	17.202
410.05	16.677
410.40	17.351
410.76	17.664
411.11	17.145
411.47	17.583
411.83	17.359
412.18	16.955
412.54	17.389
412.89	17.618
413.25	16.470
413.60	17.072
413.96	17.314
414.31	17.982
414.67	17.524
415.03	17.982
415.38	17.502
415.74	17.461
416.09	17.711
416.45	16.005
416.80	17.750
417.16	16.611
417.51	18.122
417.87	17.476
418.22	17.130
418.58	17.137
418.93	17.964
419.29	16.625
419.64	16.771
420.00	17.679
420.35	16.322
420.71	17.467
421.06	17.692
421.42	16.218
421.77	17.532
422.12	17.348
422.48	17.370
422.83	18.793
423.19	17.650
423.54	16.657
423.90	17.525
424.25	16.742
424.61	17.491
424.96	17.905
425.31	17.663
425.67	16.390
426.02	17.154
426.38	17.725
426.73	17.592
427.09	18.199
427.44	17.216
427.79	16.977
428.15	18.312
428.50	17.771
428.85	17.206
429.21	17.045
429.56	18.385
429.92	17.435
430.27	17.597
430.62	17.398
430.98	17.041
431.33	16.969
431.68	17.534
432.04	17.515
432.39	17.721
432.74	16.547
433.10	16.939
433.45	16.926
433.80	18.197
434.16	17.786
434.51	17.205
434.86	17.633
435.22	18.040
435.57	17.564
435.92	17.233
436.28	17.804
436.63	17.298
436.98	16.838
437.34	18.074
437.69	16.569
438.04	17.413
438.39	17.629
438.75	16.705
439.10	18.490
439.45	16.657
439.81	17.410
440.16	17.320
440.51	18.059
440.86	17.698
441.22	16.418
441.57	17.737
441.92	17.903
442.27	17.262
442.63	18.079
442.98	16.648
443.33	16.694
443.68	18.239
444.03	17.387
444.39	17.523
444.74	17.731
445.09	16.612
445.44	18.289
445.79	18.001
446.15	17.963
446.50	16.658
446.85	17.137
447.20	17.620
447.55	17.680
447.91	18.248
448.26	16.816
448.61	17.883
448.96	17.815
449.31	17.756
449.66	17.859
450.02	17.230
450.37	17.507
450.72	16.949
451.07	18.165
451.42	17.038
451.77	17.534
452.12	17.223
452.47	18.892
452.83	16.890
453.18	18.469
453.53	17.600
453.88	18.062
454.23	16.264
454.58	18.024
454.93	18.073
455.28	17.208
455.63	17.875
455.98	18.012
456.34	16.709
456.69	17.386
457.04	18.132
457.39	17.404
457.74	17.720
458.09	17.807
458.44	18.533
458.79	17.433
459.14	17.741
459.49	18.236
459.84	17.594
460.19	18.019
460.54	17.302
460.89	17.209
461.24	17.426
461.59	17.702
461.94	17.823
462.29	19.238
462.64	18.841
462.99	17.537
463.34	16.610
463.69	17.875
464.04	17.106
464.39	16.726
464.74	17.553
465.09	17.258
465.44	17.597
465.79	18.105
466.14	18.009
466.49	17.847
466.84	17.467
467.19	18.392
467.54	17.595
467.89	17.941
468.24	17.518
468.59	16.864
468.94	17.235
469.29	17.674
469.64	18.396
469.99	18.096
470.34	17.702
470.68	18.459
471.03	18.789
471.38	18.056
471.73	18.462
472.08	18.407
472.43	17.375
472.78	19.000
473.13	17.495
473.48	18.315
473.83	17.990
474.17	18.153
474.52	18.926
474.87	18.357
475.22	17.581
475.57	17.056
475.92	18.844
476.27	17.429
476.61	18.310
476.96	17.775
477.31	18.407
477.66	18.207
478.01	19.125
478.36	18.020
478.70	18.687
479.05	18.172
479.40	18.187
479.75	17.992
480.10	18.353
480.45	17.698
480.79	18.806
481.14	18.465
481.49	18.151
481.84	17.938
482.19	18.639
482.53	18.845
482.88	17.893
483.23	18.075
483.58	19.010
483.92	18.634
484.27	17.944
484.62	18.445
484.97	17.576
485.31	16.736
485.66	16.483
486.01	17.169
486.36	17.740
486.70	18.098
487.05	17.855
487.40	17.788
487.75	18.052
488.09	17.974
488.44	18.539
488.79	18.536
489.13	18.296
489.48	18.719
489.83	18.515
490.17	18.546
490.52	19.158
490.87	18.152
491.22	18.589
491.56	18.657
491.91	19.466
492.26	17.925
492.60	18.411
492.95	18.420
493.30	18.866
493.64	18.571
493.99	18.356
494.34	18.476
494.68	19.757
495.03	18.881
495.37	18.486
495.72	18.811
496.07	18.724
496.41	18.805
496.76	18.630
497.11	19.218
497.45	18.918
497.80	19.260
498.14	18.959
498.49	19.538
498.84	18.689
499.18	19.055
499.53	19.191
499.87	18.581
500.22	19.167
500.56	19.260
500.91	18.374
501.26	18.826
501.60	18.488
501.95	19.517
502.29	17.950
502.64	18.859
502.98	18.352
503.33	18.045
503.67	19.013
504.02	18.590
504.36	18.873
504.71	18.440
505.06	18.872
505.40	19.760
505.75	19.157
506.09	19.262
506.44	19.198
506.78	19.017
507.13	19.464
507.47	19.144
507.82	19.102
508.16	19.119
508.51	19.062
508.85	19.306
509.19	18.734
509.54	18.763
509.88	19.521
510.23	19.182
510.57	20.423
510.92	20.086
511.26	18.288
511.61	19.276
511.95	19.235
512.30	19.516
512.64	18.587
512.98	19.802
513.33	19.165
513.67	19.151
514.02	19.799
514.36	20.166
514.70	18.902
515.05	18.925
515.39	19.031
515.74	19.721
516.08	19.712
516.42	20.227
516.77	19.988
517.11	19.336
517.46	21.292
517.80	20.156
518.14	19.384
518.49	19.725
518.83	19.228
519.17	20.071
519.52	19.896
519.86	19.235
520.20	19.804
520.55	19.877
520.89	19.912
521.23	20.635
521.58	19.749
521.92	20.393
522.26	20.635
522.61	20.849
522.95	20.868
523.29	20.376
523.64	19.800
523.98	20.306
524.32	20.805
524.66	20.559
525.01	19.782
525.35	20.425
525.69	20.104
526.04	21.084
526.38	20.306
526.72	19.987
527.06	20.768
527.41	19.076
527.75	19.802
528.09	20.781
528.43	20.852
528.78	20.352
529.12	20.999
529.46	20.490
529.80	20.465
530.15	20.670
530.49	21.216
530.83	21.022
531.17	19.865
531.51	20.094
531.86	20.869
532.20	20.040
532.54	20.922
532.88	20.817
533.22	19.920
533.57	20.561
533.91	20.287
534.25	20.050
534.59	19.363
534.93	19.477
535.27	19.761
535.62	20.844
535.96	20.297
536.30	20.288
536.64	20.584
536.98	20.621
537.32	20.525
537.66	20.434
538.01	20.137
538.35	20.676
538.69	21.123
539.03	20.718
539.37	20.825
539.71	19.813
540.05	19.465
540.39	21.607
540.73	20.871
541.07	21.243
541.42	20.257
541.76	19.203
542.10	20.594
542.44	20.586
542.78	21.506
543.12	20.910
543.46	20.411
543.80	19.599
544.14	19.342
544.48	20.669
544.82	20.162
545.16	20.791
545.50	20.390
545.84	19.332
546.18	20.527
546.52	21.550
546.86	20.726
547.20	20.886
547.54	19.766
547.88	20.305
548.22	19.725
548.56	19.305
548.90	21.496
549.24	20.112
549.58	21.242
549.92	20.707
550.26	20.882
550.60	21.266
550.94	21.168
551.28	20.241
551.62	20.162
551.96	20.695
552.30	20.767
552.64	20.690
552.98	20.883
553.32	19.986
553.66	21.269
554.00	20.398
554.34	19.495
554.68	20.687
555.02	20.622
555.36	21.423
555.69	20.129
556.03	20.632
556.37	21.053
556.71	21.403
557.05	21.286
557.39	21.381
557.73	21.225
558.07	20.723
558.41	20.120
558.75	21.065
559.08	19.455
559.42	21.210
559.76	19.555
560.10	20.582
560.44	21.387
560.78	20.251
561.12	20.152
561.45	19.726
561.79	19.930
562.13	19.565
562.47	20.518
562.81	20.156
563.15	21.554
563.48	20.802
563.82	20.352
564.16	21.501
564.50	20.766
564.84	21.296
565.17	20.557
565.51	20.926
565.85	20.892
566.19	21.080
566.52	19.765
566.86	19.785
567.20	20.884
567.54	21.028
567.88	19.654
568.21	20.526
568.55	20.467
568.89	19.483
569.23	19.204
569.56	18.327
569.90	19.158
570.24	19.391
570.57	18.840
570.91	19.313
571.25	19.585
571.59	18.857
571.92	19.137
572.26	19.053
572.60	18.957
572.93	19.046
573.27	19.055
573.61	18.354
573.95	18.467
574.28	18.410
574.62	18.937
574.96	18.370
575.29	18.547
575.63	19.034
575.97	18.177
576.30	18.471
576.64	18.433
576.98	18.487
577.31	17.974
577.65	18.452
577.98	18.082
578.32	18.375
578.66	18.727
578.99	18.247
579.33	18.136
579.67	17.854
580.00	18.328
580.34	18.273
580.67	18.142
581.01	18.122
581.35	18.220
581.68	18.569
582.02	18.194
582.35	18.281
582.69	18.434
583.02	18.988
583.36	18.756
583.70	18.305
584.03	18.831
584.37	18.322
584.70	19.112
585.04	18.228
585.37	17.971
585.71	18.626
586.04	18.338
586.38	18.792
586.72	18.179
587.05	19.173
587.39	18.246
587.72	18.184
588.06	18.514
588.39	18.798
588.73	19.071
589.06	19.022
589.40	19.272
589.73	19.193
590.07	18.937
590.40	19.446
590.73	18.513
591.07	19.303
591.40	19.237
591.74	19.374
592.07	19.685
592.41	18.726
592.74	19.293
593.08	18.503
593.41	18.487
593.75	18.233
594.08	18.979
594.41	19.372
594.75	19.139
595.08	18.684
595.42	18.136
595.75	18.596
596.09	18.976
596.42	19.190
596.75	18.197
597.09	19.056
597.42	18.245
597.75	18.512
598.09	19.250
598.42	18.515
598.76	18.314
599.09	19.179
599.42	18.531
599.76	18.800
600.09	18.969
600.42	19.635
600.76	19.397
601.09	18.800
601.42	18.797
601.76	19.159
602.09	18.978
602.42	19.053
602.76	18.695
603.09	18.669
603.42	19.460
603.76	19.266
604.09	18.422
604.42	19.067
604.76	19.014
605.09	19.123
605.42	19.725
605.75	19.491
606.09	18.971
606.42	19.313
606.75	18.506
607.09	18.968
607.42	19.454
607.75	18.631
608.08	19.431
608.42	19.489
608.75	18.692
609.08	18.899
609.41	19.482
609.75	18.576
610.08	19.902
610.41	18.602
610.74	19.342
611.07	19.168
611.41	18.709
611.74	20.051
612.07	20.301
612.40	18.390
612.73	19.225
613.07	18.987
613.40	20.635
613.73	19.183
614.06	19.165
614.39	19.786
614.72	18.492
615.06	19.837
615.39	18.285
615.72	19.718
616.05	19.437
616.38	19.907
616.71	19.820
617.05	19.964
617.38	19.505
617.71	18.735
618.04	20.559
618.37	20.126
618.70	19.948
619.03	20.311
619.36	20.226
619.69	20.388
620.03	19.284
620.36	19.128
620.69	19.957
621.02	19.406
621.35	18.710
621.68	19.344
622.01	20.388
622.34	20.186
622.67	18.906
623.00	20.428
623.33	20.896
623.66	19.350
623.99	19.323
624.32	20.461
624.65	19.205
624.99	19.417
625.32	20.359
625.65	20.124
625.98	20.892
626.31	20.962
626.64	21.423
626.97	20.120
627.30	20.766
627.63	19.257
627.96	20.975
628.29	20.680
628.62	19.675
628.95	20.866
629.28	20.301
629.61	20.314
629.94	20.699
630.26	21.670
630.59	21.407
630.92	21.221
631.25	22.379
631.58	20.847
