SpectraSuite Data File
++++++++++++++++++++++++++++++++++++
Date: Sat May 16 11:09:57 PDT 2015
User: schluterlab
Dark Spectrum Present: Yes
Reference Spectrum Present: Yes
Number of Sampled Component Spectra: 1
Spectrometers: USB2E3373
Integration Time (usec): 3000 (USB2E3373)
Spectra Averaged: 3 (USB2E3373)
Boxcar Smoothing: 0 (USB2E3373)
Correct for Electrical Dark: No (USB2E3373)
Strobe/Lamp Enabled: No (USB2E3373)
Correct for Detector Non-linearity: No (USB2E3373)
Correct for Stray Light: No (USB2E3373)
Number of Pixels in Processed Spectrum: 2048
>>>>>Begin Processed Spectral Data<<<<<
178.53	0.000
178.91	66.667
179.29	200.000
179.67	0.000
180.04	46.154
180.42	-0.000
180.80	-25.000
181.18	275.000
181.56	12.500
181.94	100.000
182.31	225.000
182.69	0.000
183.07	-233.333
183.45	850.000
183.83	66.667
184.20	71.429
184.58	-12.500
184.96	-75.000
185.34	-25.000
185.72	-225.000
186.09	-33.333
186.47	-37.500
186.85	-50.000
187.23	0.000
187.61	50.000
187.98	-12.500
188.36	-100.000
188.74	37.500
189.12	900.000
189.49	185.714
189.87	33.333
190.25	200.000
190.63	-7.143
191.00	-100.000
191.38	300.000
191.76	66.667
192.14	340.000
192.51	160.000
192.89	-133.333
193.27	0.000
193.65	-33.333
194.02	-228.571
194.40	33.333
194.78	-80.000
195.15	0.000
195.53	-109.091
195.91	-66.667
196.29	100.000
196.66	-266.667
197.04	2100.000
197.42	50.000
197.79	100.000
198.17	0.000
198.55	50.000
198.92	0.000
199.30	-0.000
199.68	150.000
200.05	-44.444
200.43	-55.556
200.81	300.000
201.18	-33.333
201.56	14.286
201.94	0.000
202.31	59.091
202.69	140.000
203.07	30.000
203.44	200.000
203.82	0.000
204.19	-125.000
204.57	0.000
204.95	-200.000
205.32	37.500
205.70	200.000
206.08	-1600.000
206.45	66.667
206.83	-900.000
207.20	400.000
207.58	-300.000
207.96	-366.667
208.33	50.000
208.71	-44.444
209.08	120.000
209.46	-14.286
209.84	700.000
210.21	0.000
210.59	110.000
210.96	-100.000
211.34	-33.333
211.71	-100.000
212.09	-0.000
212.46	350.000
212.84	-1500.000
213.22	100.000
213.59	25.000
213.97	66.667
214.34	10.000
214.72	40.000
215.09	-66.667
215.47	83.333
215.84	0.000
216.22	-10.000
216.59	93.333
216.97	-250.000
217.34	250.000
217.72	0.000
218.09	-133.333
218.47	-85.714
218.84	85.714
219.22	100.000
219.59	0.000
219.97	28.571
220.34	75.000
220.72	187.500
221.09	61.538
221.47	0.000
221.84	300.000
222.22	550.000
222.59	-500.000
222.97	-37.500
223.34	-500.000
223.72	233.333
224.09	35.714
224.46	-400.000
224.84	28.571
225.21	-28.571
225.59	0.000
225.96	-137.500
226.34	114.286
226.71	-55.556
227.08	35.000
227.46	1300.000
227.83	-28.571
228.21	-187.500
228.58	350.000
228.95	25.000
229.33	-700.000
229.70	160.000
230.08	-300.000
230.45	8.333
230.82	16.667
231.20	600.000
231.57	-50.000
231.95	200.000
232.32	71.429
232.69	-33.333
233.07	-100.000
233.44	-400.000
233.81	-33.333
234.19	0.000
234.56	0.000
234.93	31.250
235.31	-14.286
235.68	0.000
236.05	29.412
236.43	-27.273
236.80	32.258
237.17	75.000
237.55	0.000
237.92	4.545
238.29	28.571
238.67	35.294
239.04	38.889
239.41	16.129
239.79	-12.821
240.16	9.524
240.53	16.364
240.91	48.718
241.28	38.182
241.65	33.846
242.02	37.705
242.40	26.230
242.77	36.364
243.14	32.203
243.51	11.429
243.89	34.177
244.26	20.225
244.63	43.158
245.00	22.105
245.38	26.271
245.75	24.779
246.12	34.400
246.49	35.433
246.87	21.951
247.24	27.119
247.61	24.576
247.98	26.056
248.36	23.776
248.73	25.949
249.10	30.573
249.47	26.901
249.84	30.114
250.22	25.000
250.59	23.729
250.96	31.937
251.33	31.754
251.70	31.250
252.08	29.858
252.45	26.066
252.82	25.238
253.19	29.787
253.56	26.210
253.94	29.536
254.31	27.468
254.68	27.642
255.05	25.403
255.42	30.159
255.79	26.523
256.16	29.804
256.54	29.044
256.91	28.788
257.28	25.275
257.65	26.596
258.02	30.189
258.39	27.425
258.76	24.324
259.14	23.765
259.51	25.574
259.88	25.305
260.25	31.677
260.62	26.045
260.99	24.036
261.36	30.183
261.73	28.035
262.10	31.944
262.47	26.781
262.85	30.286
263.22	25.501
263.59	26.462
263.96	28.696
264.33	28.184
264.70	27.348
265.07	30.220
265.44	27.390
265.81	26.873
266.18	27.342
266.55	23.284
266.92	27.960
267.29	25.908
267.66	27.654
268.03	26.570
268.40	27.465
268.77	27.711
269.14	28.306
269.51	28.506
269.88	26.835
270.25	27.040
270.62	26.087
270.99	25.450
271.36	26.107
271.73	26.457
272.10	27.689
272.47	28.444
272.84	28.667
273.21	26.835
273.58	26.154
273.95	24.123
274.32	26.471
274.69	29.540
275.06	31.902
275.43	27.455
275.80	29.124
276.17	27.406
276.54	30.143
276.91	23.868
277.28	25.761
277.65	27.686
278.02	29.019
278.39	27.701
278.76	27.291
279.13	28.854
279.50	26.044
279.87	24.736
280.23	29.150
280.60	26.044
280.97	26.019
281.34	26.112
281.71	26.923
282.08	28.427
282.45	26.273
282.82	24.806
283.19	27.636
283.56	29.487
283.92	27.208
284.29	24.907
284.66	25.719
285.03	27.986
285.40	27.122
285.77	26.316
286.14	26.534
286.51	25.400
286.87	27.223
287.24	26.792
287.61	23.967
287.98	25.303
288.35	24.132
288.72	25.467
289.08	22.373
289.45	22.222
289.82	25.260
290.19	26.765
290.56	21.488
290.93	24.006
291.29	23.339
291.66	23.510
292.03	24.647
292.40	23.494
292.77	23.292
293.13	24.065
293.50	24.071
293.87	22.853
294.24	23.529
294.60	21.364
294.97	23.672
295.34	22.370
295.71	23.661
296.08	21.045
296.44	21.173
296.81	22.792
297.18	22.394
297.55	22.881
297.91	24.686
298.28	21.781
298.65	22.315
299.02	23.128
299.38	20.321
299.75	19.973
300.12	20.769
300.48	21.867
300.85	20.577
301.22	21.604
301.59	19.896
301.95	22.166
302.32	20.339
302.69	21.909
303.05	19.292
303.42	20.125
303.79	20.335
304.15	21.682
304.52	20.770
304.89	20.307
305.25	21.612
305.62	20.917
305.99	21.673
306.35	20.533
306.72	20.729
307.09	21.453
307.45	21.453
307.82	20.335
308.19	20.582
308.55	20.370
308.92	20.730
309.29	21.622
309.65	21.739
310.02	21.166
310.38	21.189
310.75	21.721
311.12	22.727
311.48	21.816
311.85	22.554
312.22	22.245
312.58	22.482
312.95	21.611
313.31	23.377
313.68	23.518
314.05	24.233
314.41	21.630
314.78	22.577
315.14	23.198
315.51	22.898
315.87	23.717
316.24	23.712
316.61	25.528
316.97	26.368
317.34	23.603
317.70	24.119
318.07	25.466
318.43	25.375
318.80	27.230
319.16	25.516
319.53	25.940
319.89	25.870
320.26	25.294
320.62	25.673
320.99	25.871
321.35	26.305
321.72	26.612
322.08	28.783
322.45	27.030
322.81	29.011
323.18	28.626
323.54	28.373
323.91	27.433
324.27	27.471
324.64	27.697
325.00	28.447
325.37	29.774
325.73	29.484
326.10	29.229
326.46	28.196
326.83	27.745
327.19	29.608
327.56	29.387
327.92	29.482
328.29	29.177
328.65	29.091
329.01	28.445
329.38	29.438
329.74	30.037
330.11	30.190
330.47	29.519
330.84	31.439
331.20	30.144
331.56	29.809
331.93	31.083
332.29	31.781
332.66	30.553
333.02	29.593
333.38	31.810
333.75	31.790
334.11	31.200
334.48	29.656
334.84	32.021
335.20	31.826
335.57	32.762
335.93	31.423
336.29	30.647
336.66	31.189
337.02	32.703
337.38	30.214
337.75	32.046
338.11	31.843
338.47	31.940
338.84	30.581
339.20	30.931
339.56	31.729
339.93	31.570
340.29	31.975
340.65	30.332
341.02	31.113
341.38	30.160
341.74	31.160
342.11	30.973
342.47	30.815
342.83	30.814
343.20	32.024
343.56	29.878
343.92	32.387
344.28	32.969
344.65	29.868
345.01	31.008
345.37	30.482
345.73	30.278
346.10	29.599
346.46	30.626
346.82	30.072
347.19	30.731
347.55	29.936
347.91	30.866
348.27	29.992
348.63	31.099
349.00	31.424
349.36	29.274
349.72	31.608
350.08	30.714
350.45	30.418
350.81	29.936
351.17	29.743
351.53	29.594
351.89	29.184
352.26	29.302
352.62	30.031
352.98	31.487
353.34	30.855
353.70	29.730
354.07	30.921
354.43	30.672
354.79	30.111
355.15	30.911
355.51	30.469
355.87	30.909
356.24	31.295
356.60	31.426
356.96	29.253
357.32	30.721
357.68	30.192
358.04	31.024
358.40	30.085
358.77	29.675
359.13	31.293
359.49	31.595
359.85	30.488
360.21	29.909
360.57	31.928
360.93	29.852
361.29	31.091
361.66	30.183
362.02	30.399
362.38	30.888
362.74	31.502
363.10	30.344
363.46	31.553
363.82	30.612
364.18	31.693
364.54	32.595
364.90	31.307
365.26	31.027
365.62	32.359
365.98	31.935
366.35	30.704
366.71	30.937
367.07	30.910
367.43	32.052
367.79	30.859
368.15	31.223
368.51	30.629
368.87	32.074
369.23	31.509
369.59	32.431
369.95	31.853
370.31	31.997
370.67	31.164
371.03	32.362
371.39	32.037
371.75	32.976
372.11	31.851
372.47	31.670
372.83	31.989
373.19	32.143
373.55	32.301
373.91	31.792
374.27	31.280
374.63	32.091
374.99	32.267
375.35	31.763
375.71	34.504
376.07	33.607
376.42	31.656
376.78	33.007
377.14	33.559
377.50	32.237
377.86	33.550
378.22	33.040
378.58	31.686
378.94	32.984
379.30	33.455
379.66	32.969
380.02	33.333
380.38	33.656
380.74	33.177
381.09	33.158
381.45	35.143
381.81	32.486
382.17	34.649
382.53	33.252
382.89	33.553
383.25	34.076
383.61	33.432
383.97	34.170
384.32	34.043
384.68	34.885
385.04	34.783
385.40	34.693
385.76	34.573
386.12	34.416
386.48	36.634
386.83	34.417
387.19	35.565
387.55	34.525
387.91	35.270
388.27	33.052
388.62	34.856
388.98	34.040
389.34	35.312
389.70	34.409
390.06	34.804
390.42	35.705
390.77	34.953
391.13	36.398
391.49	35.870
391.85	35.973
392.20	35.619
392.56	35.492
392.92	35.539
393.28	36.682
393.64	36.200
393.99	35.385
394.35	35.097
394.71	35.516
395.07	36.033
395.42	36.591
395.78	35.575
396.14	36.075
396.50	36.820
396.85	35.719
397.21	36.938
397.57	36.474
397.92	36.534
398.28	36.722
398.64	36.526
399.00	37.079
399.35	35.795
399.71	36.934
400.07	36.657
400.42	37.165
400.78	37.269
401.14	36.168
401.49	36.792
401.85	37.279
402.21	38.141
402.57	36.711
402.92	36.941
403.28	36.458
403.63	35.470
403.99	36.607
404.35	37.319
404.70	37.624
405.06	37.774
405.42	36.654
405.77	37.161
406.13	37.535
406.49	37.867
406.84	37.672
407.20	37.750
407.55	36.922
407.91	37.241
408.27	37.929
408.62	37.342
408.98	37.659
409.34	38.452
409.69	37.051
410.05	37.417
410.40	37.155
410.76	37.582
411.11	38.840
411.47	37.276
411.83	38.814
412.18	38.057
412.54	36.852
412.89	38.335
413.25	36.836
413.60	37.424
413.96	36.784
414.31	38.043
414.67	38.413
415.03	38.034
415.38	39.232
415.74	38.789
416.09	39.130
416.45	37.698
416.80	38.687
417.16	38.671
417.51	39.856
417.87	39.029
418.22	40.076
418.58	39.024
418.93	38.565
419.29	38.896
419.64	38.128
420.00	39.854
420.35	39.208
420.71	39.016
421.06	40.178
421.42	39.169
421.77	39.475
422.12	40.459
422.48	39.123
422.83	39.863
423.19	40.145
423.54	40.115
423.90	38.866
424.25	39.536
424.61	39.928
424.96	39.672
425.31	40.190
425.67	40.516
426.02	40.046
426.38	41.137
426.73	40.736
427.09	40.809
427.44	41.477
427.79	41.163
428.15	41.532
428.50	41.408
428.85	41.547
429.21	40.897
429.56	41.042
429.92	40.832
430.27	40.828
430.62	41.902
430.98	40.878
431.33	41.462
431.68	41.072
432.04	41.466
432.39	41.368
432.74	42.566
433.10	40.968
433.45	42.142
433.80	41.825
434.16	41.161
434.51	41.863
434.86	43.234
435.22	41.592
435.57	41.860
435.92	42.145
436.28	41.780
436.63	41.323
436.98	41.294
437.34	41.878
437.69	42.649
438.04	42.484
438.39	42.359
438.75	41.909
439.10	42.921
439.45	42.185
439.81	42.470
440.16	41.624
440.51	44.000
440.86	42.741
441.22	40.962
441.57	42.737
441.92	42.148
442.27	42.424
442.63	44.206
442.98	42.551
443.33	42.889
443.68	42.418
444.03	42.485
444.39	42.584
444.74	43.172
445.09	41.667
445.44	44.288
445.79	42.478
446.15	42.442
446.50	43.059
446.85	43.304
447.20	42.135
447.55	43.425
447.91	42.673
448.26	42.849
448.61	41.822
448.96	43.417
449.31	42.728
449.66	44.419
450.02	42.548
450.37	43.072
450.72	42.768
451.07	43.809
451.42	42.565
451.77	43.387
452.12	42.849
452.47	43.514
452.83	43.856
453.18	43.454
453.53	43.284
453.88	42.883
454.23	43.470
454.58	44.313
454.93	43.073
455.28	44.041
455.63	43.980
455.98	43.193
456.34	42.821
456.69	43.089
457.04	44.376
457.39	43.481
457.74	43.119
458.09	44.026
458.44	43.707
458.79	42.993
459.14	43.982
459.49	44.523
459.84	42.945
460.19	43.616
460.54	42.529
460.89	43.274
461.24	43.777
461.59	43.318
461.94	43.857
462.29	44.014
462.64	43.544
462.99	44.645
463.34	43.417
463.69	43.448
464.04	43.820
464.39	43.070
464.74	43.026
465.09	42.453
465.44	43.204
465.79	42.752
466.14	44.534
466.49	42.948
466.84	43.277
467.19	43.516
467.54	42.532
467.89	43.527
468.24	43.587
468.59	44.035
468.94	44.309
469.29	43.340
469.64	44.609
469.99	43.957
470.34	43.821
470.68	43.169
471.03	43.290
471.38	42.639
471.73	43.147
472.08	42.102
472.43	42.149
472.78	42.600
473.13	43.207
473.48	43.267
473.83	42.680
474.17	42.930
474.52	44.437
474.87	41.667
475.22	43.363
475.57	42.889
475.92	44.006
476.27	41.714
476.61	43.606
476.96	43.656
477.31	42.357
477.66	43.498
478.01	42.518
478.36	42.378
478.70	44.207
479.05	42.347
479.40	43.316
479.75	41.896
480.10	41.964
480.45	41.441
480.79	42.794
481.14	43.452
481.49	43.078
481.84	41.748
482.19	42.851
482.53	42.614
482.88	42.430
483.23	41.878
483.58	42.923
483.92	42.140
484.27	42.268
484.62	42.117
484.97	42.011
485.31	41.504
485.66	40.990
486.01	40.643
486.36	41.382
486.70	41.865
487.05	41.401
487.40	41.907
487.75	41.044
488.09	41.631
488.44	42.016
488.79	41.563
489.13	42.754
489.48	42.455
489.83	43.100
490.17	42.751
490.52	42.663
490.87	41.801
491.22	42.457
491.56	42.037
491.91	43.130
492.26	41.887
492.60	41.675
492.95	41.980
493.30	41.496
493.64	42.689
493.99	42.639
494.34	42.905
494.68	42.556
495.03	41.922
495.37	42.576
495.72	42.436
496.07	42.844
496.41	42.798
496.76	42.466
497.11	42.675
497.45	42.241
497.80	42.221
498.14	42.240
498.49	42.341
498.84	42.039
499.18	42.788
499.53	43.595
499.87	41.409
500.22	42.941
500.56	41.771
500.91	42.266
501.26	42.407
501.60	41.502
501.95	42.899
502.29	41.663
502.64	41.631
502.98	41.830
503.33	42.340
503.67	41.379
504.02	41.912
504.36	41.716
504.71	41.185
505.06	42.237
505.40	42.116
505.75	42.530
506.09	41.860
506.44	43.158
506.78	42.449
507.13	41.298
507.47	42.671
507.82	41.817
508.16	42.539
508.51	41.834
508.85	40.942
509.19	41.026
509.54	41.279
509.88	42.128
510.23	41.929
510.57	41.429
510.92	43.287
511.26	42.584
511.61	41.145
511.95	42.565
512.30	42.276
512.64	40.846
512.98	42.574
513.33	42.010
513.67	42.211
514.02	42.002
514.36	41.607
514.70	41.709
515.05	42.253
515.39	41.407
515.74	43.339
516.08	43.401
516.42	41.303
516.77	43.328
517.11	41.819
517.46	42.524
517.80	42.900
518.14	41.848
518.49	41.841
518.83	41.543
519.17	42.392
519.52	40.659
519.86	42.533
520.20	43.215
520.55	42.523
520.89	41.954
521.23	41.514
521.58	41.693
521.92	42.305
522.26	42.984
522.61	42.649
522.95	41.225
523.29	41.693
523.64	41.911
523.98	41.630
524.32	42.300
524.66	40.807
525.01	42.325
525.35	42.848
525.69	42.420
526.04	42.624
526.38	43.857
526.72	40.549
527.06	43.555
527.41	41.518
527.75	42.244
528.09	42.091
528.43	42.164
528.78	41.394
529.12	43.086
529.46	41.881
529.80	42.027
530.15	41.533
530.49	42.367
530.83	42.240
531.17	41.616
531.51	40.589
531.86	41.475
532.20	41.633
532.54	41.578
532.88	41.041
533.22	42.045
533.57	41.384
533.91	41.074
534.25	40.792
534.59	41.474
534.93	41.008
535.27	40.969
535.62	40.985
535.96	41.564
536.30	41.623
536.64	41.700
536.98	42.585
537.32	41.742
537.66	41.005
538.01	42.749
538.35	42.230
538.69	41.043
539.03	41.909
539.37	41.384
539.71	41.694
540.05	41.535
540.39	42.452
540.73	42.087
541.07	42.555
541.42	40.648
541.76	40.731
542.10	41.391
542.44	42.172
542.78	41.452
543.12	41.208
543.46	40.342
543.80	40.067
544.14	40.900
544.48	42.520
544.82	40.392
545.16	41.180
545.50	40.310
545.84	41.864
546.18	41.748
546.52	41.394
546.86	41.382
547.20	43.460
547.54	40.152
547.88	41.009
548.22	40.695
548.56	40.615
548.90	40.768
549.24	40.645
549.58	41.284
549.92	40.919
550.26	41.618
550.60	41.394
550.94	41.387
551.28	40.331
551.62	40.177
551.96	40.883
552.30	40.557
552.64	41.027
552.98	41.345
553.32	39.683
553.66	43.115
554.00	41.649
554.34	40.578
554.68	40.278
555.02	42.330
555.36	41.050
555.69	41.404
556.03	40.211
556.37	41.252
556.71	41.947
557.05	40.798
557.39	40.089
557.73	41.503
558.07	41.447
558.41	41.361
558.75	41.065
559.08	39.767
559.42	41.348
559.76	42.101
560.10	41.462
560.44	40.968
560.78	41.406
561.12	41.132
561.45	40.753
561.79	40.976
562.13	40.323
562.47	41.246
562.81	40.523
563.15	39.818
563.48	40.774
563.82	40.095
564.16	40.568
564.50	39.516
564.84	41.071
565.17	39.920
565.51	40.352
565.85	41.650
566.19	40.250
566.52	40.574
566.86	40.139
567.20	41.102
567.54	40.520
567.88	39.866
568.21	40.324
568.55	39.820
568.89	38.917
569.23	39.102
569.56	38.546
569.90	39.024
570.24	39.421
570.57	37.750
570.91	37.912
571.25	38.619
571.59	37.996
571.92	37.232
572.26	37.358
572.60	37.357
572.93	37.690
573.27	37.317
573.61	36.794
573.95	36.961
574.28	37.002
574.62	38.002
574.96	37.213
575.29	36.280
575.63	37.218
575.97	36.839
576.30	37.353
576.64	37.128
576.98	37.273
577.31	36.830
577.65	37.598
577.98	36.766
578.32	37.466
578.66	37.453
578.99	37.473
579.33	36.599
579.67	37.205
580.00	37.153
580.34	36.840
580.67	37.411
581.01	36.220
581.35	37.345
581.68	36.679
582.02	37.103
582.35	36.563
582.69	37.090
583.02	37.334
583.36	36.868
583.70	37.404
584.03	37.177
584.37	37.808
584.70	37.351
585.04	37.671
585.37	36.850
585.71	37.300
586.04	37.563
586.38	36.327
586.72	37.120
587.05	37.723
587.39	36.793
587.72	37.112
588.06	36.644
588.39	37.368
588.73	37.689
589.06	38.107
589.40	38.647
589.73	37.465
590.07	38.055
590.40	37.897
590.73	37.585
591.07	38.074
591.40	38.995
591.74	38.619
592.07	38.288
592.41	37.962
592.74	37.356
593.08	37.624
593.41	37.171
593.75	36.795
594.08	38.066
594.41	37.597
594.75	37.826
595.08	37.820
595.42	37.970
595.75	37.927
596.09	38.572
596.42	38.134
596.75	37.344
597.09	38.201
597.42	38.411
597.75	37.998
598.09	38.048
598.42	38.312
598.76	37.417
599.09	36.780
599.42	37.293
599.76	37.826
600.09	38.321
600.42	37.752
600.76	37.589
601.09	36.308
601.42	37.475
601.76	38.318
602.09	37.996
602.42	37.119
602.76	37.806
603.09	38.024
603.42	38.034
603.76	37.415
604.09	37.485
604.42	37.094
604.76	37.331
605.09	38.246
605.42	37.810
605.75	38.249
606.09	37.277
606.42	37.914
606.75	37.656
607.09	38.068
607.42	37.412
607.75	37.528
608.08	38.500
608.42	38.884
608.75	37.570
609.08	37.750
609.41	37.967
609.75	37.786
610.08	38.627
610.41	38.410
610.74	38.830
611.07	37.931
611.41	37.115
611.74	38.406
612.07	38.829
612.40	38.380
612.73	37.372
613.07	38.305
613.40	40.504
613.73	39.074
614.06	37.672
614.39	38.726
614.72	37.207
615.06	38.207
615.39	37.168
615.72	39.218
616.05	37.990
616.38	39.118
616.71	37.177
617.05	39.505
617.38	38.638
617.71	38.943
618.04	38.385
618.37	38.931
618.70	40.026
619.03	38.727
619.36	40.451
619.69	39.986
620.03	38.499
620.36	38.889
620.69	39.340
621.02	39.422
621.35	39.194
621.68	40.410
622.01	39.968
622.34	39.441
622.67	38.438
623.00	39.327
623.33	39.925
623.66	38.183
623.99	38.571
624.32	39.137
624.65	38.926
624.99	39.283
625.32	38.623
625.65	40.715
625.98	38.341
626.31	39.560
626.64	40.000
626.97	39.726
627.30	40.085
627.63	39.206
627.96	38.990
628.29	39.430
628.62	39.064
628.95	40.256
629.28	38.816
629.61	39.352
629.94	39.698
630.26	41.153
630.59	41.508
630.92	39.640
631.25	39.819
631.58	40.847
631.91	38.723
632.24	39.667
632.57	42.000
632.90	41.149
633.23	40.537
633.56	40.000
633.89	41.509
634.22	40.850
