SpectraSuite Data File
++++++++++++++++++++++++++++++++++++
Date: Sat May 16 11:36:08 PDT 2015
User: schluterlab
Dark Spectrum Present: Yes
Reference Spectrum Present: Yes
Number of Sampled Component Spectra: 1
Spectrometers: USB2E3373
Integration Time (usec): 3000 (USB2E3373)
Spectra Averaged: 3 (USB2E3373)
Boxcar Smoothing: 0 (USB2E3373)
Correct for Electrical Dark: No (USB2E3373)
Strobe/Lamp Enabled: No (USB2E3373)
Correct for Detector Non-linearity: No (USB2E3373)
Correct for Stray Light: No (USB2E3373)
Number of Pixels in Processed Spectrum: 2048
>>>>>Begin Processed Spectral Data<<<<<
178.53	0.000
178.91	120.000
179.29	200.000
179.67	-1400.000
180.04	-61.538
180.42	900.000
180.80	225.000
181.18	300.000
181.56	-212.500
181.94	1300.000
182.31	725.000
182.69	-115.385
183.07	-900.000
183.45	1050.000
183.83	733.333
184.20	-171.429
184.58	-212.500
184.96	-550.000
185.34	143.750
185.72	-575.000
186.09	150.000
186.47	-137.500
186.85	-125.000
187.23	-137.500
187.61	-150.000
187.98	-350.000
188.36	-112.500
188.74	-162.500
189.12	1600.000
189.49	257.143
189.87	-91.667
190.25	700.000
190.63	-128.571
191.00	-177.778
191.38	420.000
191.76	100.000
192.14	600.000
192.51	-260.000
192.89	-333.333
193.27	0.000
193.65	-77.778
194.02	-200.000
194.40	800.000
194.78	-140.000
195.15	-2100.000
195.53	-154.545
195.91	-366.667
196.29	220.000
196.66	-733.333
197.04	2500.000
197.42	-125.000
197.79	-20.000
198.17	-233.333
198.55	100.000
198.92	-1100.000
199.30	275.000
199.68	-550.000
200.05	-100.000
200.43	-233.333
200.81	-1500.000
201.18	-100.000
201.56	214.286
201.94	-60.000
202.31	22.727
202.69	40.000
203.07	-130.000
203.44	766.667
203.82	-150.000
204.19	-500.000
204.57	-250.000
204.95	-1700.000
205.32	-43.750
205.70	2500.000
206.08	-1700.000
206.45	-77.778
206.83	-850.000
207.20	-150.000
207.58	-666.667
207.96	-400.000
208.33	-125.000
208.71	-188.889
209.08	210.000
209.46	-271.429
209.84	800.000
210.21	0.000
210.59	35.000
210.96	700.000
211.34	-383.333
211.71	-200.000
212.09	325.000
212.46	1100.000
212.84	-3500.000
213.22	833.333
213.59	175.000
213.97	-133.333
214.34	170.000
214.72	-160.000
215.09	-566.667
215.47	-166.667
215.84	-130.000
216.22	-130.000
216.59	-13.333
216.97	-450.000
217.34	850.000
217.72	-242.857
218.09	-150.000
218.47	-214.286
218.84	171.429
219.22	-185.714
219.59	0.000
219.97	300.000
220.34	525.000
220.72	300.000
221.09	-53.846
221.47	0.000
221.84	566.667
222.22	-450.000
222.59	2000.000
222.97	-200.000
223.34	-300.000
223.72	-433.333
224.09	-85.714
224.46	-375.000
224.84	-150.000
225.21	-171.429
225.59	-118.182
225.96	-137.500
226.34	-214.286
226.71	-88.889
227.08	-15.000
227.46	2100.000
227.83	-157.143
228.21	-212.500
228.58	650.000
228.95	-50.000
229.33	-400.000
229.70	-320.000
230.08	-1200.000
230.45	-8.333
230.82	-233.333
231.20	-600.000
231.57	-550.000
231.95	1700.000
232.32	0.000
232.69	-144.444
233.07	-342.857
233.44	-950.000
233.81	0.000
234.19	44.444
234.56	-75.000
234.93	-6.250
235.31	-242.857
235.68	-7.143
236.05	-29.412
236.43	-31.818
236.80	-3.226
237.17	-20.833
237.55	-38.095
237.92	-27.273
238.29	-17.143
238.67	-11.765
239.04	8.333
239.41	45.161
239.79	5.128
240.16	9.524
240.53	-1.818
240.91	12.821
241.28	23.636
241.65	33.846
242.02	36.066
242.40	32.787
242.77	28.788
243.14	25.424
243.51	30.000
243.89	39.241
244.26	30.337
244.63	37.895
245.00	40.000
245.38	38.983
245.75	34.513
246.12	40.000
246.49	33.071
246.87	27.642
247.24	30.508
247.61	38.136
247.98	41.549
248.36	27.273
248.73	38.608
249.10	38.217
249.47	39.766
249.84	39.773
250.22	30.357
250.59	38.418
250.96	40.314
251.33	39.336
251.70	40.865
252.08	41.706
252.45	43.128
252.82	43.333
253.19	43.830
253.56	40.726
253.94	40.506
254.31	39.485
254.68	42.276
255.05	38.710
255.42	40.476
255.79	37.993
256.16	42.745
256.54	42.647
256.91	45.455
257.28	40.293
257.65	43.617
258.02	47.170
258.39	39.465
258.76	40.541
259.14	43.519
259.51	47.213
259.88	42.378
260.25	46.273
260.62	39.550
260.99	40.356
261.36	46.037
261.73	43.931
262.10	45.278
262.47	42.735
262.85	47.714
263.22	41.261
263.59	44.308
263.96	41.739
264.33	42.547
264.70	44.199
265.07	43.407
265.44	43.669
265.81	43.152
266.18	40.506
266.55	42.157
266.92	43.829
267.29	45.763
267.66	47.160
268.03	46.135
268.40	43.662
268.77	46.988
269.14	46.868
269.51	43.448
269.88	43.119
270.25	41.958
270.62	45.080
270.99	40.315
271.36	46.154
271.73	45.291
272.10	45.080
272.47	42.889
272.84	43.556
273.21	44.954
273.58	42.857
273.95	43.421
274.32	47.511
274.69	45.077
275.06	42.331
275.43	41.964
275.80	46.436
276.17	43.096
276.54	45.825
276.91	42.181
277.28	42.394
277.65	43.182
278.02	45.303
278.39	40.275
278.76	44.223
279.13	41.107
279.50	43.340
279.87	42.918
280.23	43.927
280.60	44.533
280.97	42.718
281.34	43.133
281.71	45.000
282.08	44.355
282.45	44.603
282.82	42.829
283.19	44.000
283.56	44.689
283.92	42.933
284.29	41.264
284.66	40.647
285.03	42.068
285.40	42.066
285.77	44.386
286.14	44.404
286.51	42.274
286.87	41.924
287.24	40.956
287.61	42.314
287.98	42.808
288.35	39.008
288.72	41.426
289.08	40.678
289.45	39.731
289.82	39.792
290.19	42.036
290.56	36.198
290.93	37.679
291.29	38.898
291.66	38.647
292.03	39.246
292.40	37.349
292.77	38.665
293.13	38.862
293.50	38.782
293.87	36.043
294.24	36.048
294.60	34.091
294.97	35.660
295.34	36.593
295.71	34.524
296.08	34.255
296.44	33.906
296.81	36.610
297.18	33.803
297.55	35.734
297.91	36.402
298.28	33.425
298.65	34.170
299.02	32.888
299.38	32.754
299.75	34.647
300.12	33.462
300.48	33.504
300.85	32.372
301.22	33.118
301.59	30.949
301.95	33.375
302.32	31.421
302.69	32.436
303.05	32.234
303.42	30.000
303.79	31.938
304.15	33.057
304.52	32.439
304.89	30.460
305.25	31.136
305.62	30.787
305.99	31.095
306.35	30.411
306.72	30.524
307.09	32.123
307.45	29.739
307.82	30.950
308.19	30.201
308.55	30.065
308.92	29.216
309.29	28.432
309.65	30.541
310.02	29.914
310.38	28.649
310.75	29.098
311.12	29.855
311.48	29.645
311.85	29.351
312.22	29.042
312.58	29.196
312.95	29.664
313.31	29.970
313.68	30.352
314.05	29.575
314.41	28.974
314.78	26.074
315.14	28.529
315.51	29.585
315.87	29.429
316.24	28.377
316.61	29.655
316.97	28.756
317.34	28.902
317.70	27.829
318.07	29.571
318.43	29.120
318.80	29.014
319.16	26.454
319.53	27.632
319.89	26.341
320.26	29.216
320.62	27.500
320.99	27.662
321.35	25.911
321.72	25.793
322.08	28.783
322.45	27.426
322.81	28.530
323.18	28.722
323.54	27.357
323.91	27.247
324.27	26.426
324.64	28.336
325.00	27.312
325.37	27.240
325.73	28.871
326.10	27.724
326.46	28.371
326.83	27.574
327.19	27.606
327.56	28.194
327.92	27.698
328.29	29.091
328.65	26.818
329.01	26.943
329.38	27.029
329.74	28.755
330.11	28.286
330.47	27.611
330.84	28.323
331.20	27.347
331.56	27.074
331.93	26.998
332.29	27.032
332.66	26.602
333.02	27.964
333.38	27.419
333.75	27.427
334.11	26.489
334.48	26.655
334.84	28.521
335.20	27.039
335.57	27.527
335.93	27.395
336.29	26.572
336.66	26.167
337.02	27.117
337.38	26.560
337.75	26.339
338.11	27.013
338.47	26.246
338.84	26.860
339.20	25.395
339.56	28.075
339.93	26.190
340.29	26.661
340.65	26.836
341.02	26.560
341.38	25.864
341.74	26.503
342.11	26.109
342.47	26.094
342.83	26.532
343.20	26.729
343.56	24.653
343.92	26.878
344.28	27.250
344.65	25.908
345.01	26.134
345.37	26.744
345.73	25.205
346.10	25.838
346.46	25.426
346.82	25.421
347.19	25.965
347.55	26.806
347.91	25.748
348.27	25.298
348.63	25.363
349.00	26.730
349.36	24.356
349.72	25.955
350.08	25.020
350.45	24.901
350.81	24.522
351.17	25.322
351.53	24.980
351.89	26.031
352.26	25.659
352.62	26.344
352.98	25.633
353.34	24.940
353.70	24.170
354.07	25.177
354.43	25.534
354.79	25.990
355.15	25.399
355.51	25.391
355.87	24.664
356.24	24.543
356.60	26.511
356.96	26.020
357.32	25.812
357.68	24.368
358.04	25.096
358.40	24.517
358.77	24.343
359.13	24.560
359.49	24.339
359.85	25.381
360.21	23.820
360.57	26.054
360.93	24.444
361.29	24.813
361.66	23.780
362.02	24.112
362.38	25.238
362.74	24.029
363.10	24.964
363.46	24.145
363.82	25.219
364.18	24.747
364.54	24.946
364.90	24.039
365.26	23.324
365.62	24.376
365.98	25.178
366.35	24.859
366.71	24.454
367.07	24.418
367.43	25.395
367.79	24.192
368.15	24.395
368.51	25.035
368.87	25.824
369.23	24.140
369.59	24.583
369.95	24.806
370.31	24.754
370.67	24.223
371.03	24.854
371.39	23.550
371.75	24.464
372.11	25.251
372.47	24.873
372.83	24.618
373.19	24.571
373.55	25.616
373.91	24.324
374.27	24.298
374.63	24.845
374.99	24.409
375.35	24.697
375.71	23.903
376.07	24.298
376.42	22.450
376.78	25.490
377.14	23.390
377.50	24.629
377.86	23.537
378.22	24.183
378.58	24.830
378.94	24.044
379.30	24.924
379.66	25.137
380.02	24.361
380.38	24.350
380.74	24.736
381.09	24.194
381.45	25.358
381.81	23.956
382.17	23.872
382.53	23.526
382.89	23.565
383.25	24.985
383.61	23.585
383.97	23.637
384.32	23.717
384.68	25.151
385.04	24.034
385.40	23.981
385.76	23.841
386.12	23.360
386.48	23.700
386.83	24.663
387.19	24.387
387.55	24.107
387.91	23.770
388.27	22.919
388.62	23.918
388.98	23.501
389.34	23.623
389.70	23.630
390.06	23.431
390.42	23.333
390.77	24.101
391.13	24.720
391.49	24.017
391.85	24.252
392.20	22.633
392.56	23.396
392.92	23.788
393.28	24.627
393.64	24.594
393.99	24.000
394.35	23.844
394.71	22.668
395.07	24.043
395.42	23.540
395.78	23.696
396.14	24.860
396.50	23.425
396.85	23.689
397.21	24.119
397.57	24.559
397.92	23.653
398.28	24.944
398.64	23.736
399.00	24.607
399.35	23.732
399.71	24.158
400.07	24.418
400.42	23.540
400.78	23.852
401.14	23.713
401.49	22.818
401.85	23.368
402.21	23.123
402.57	24.150
402.92	24.544
403.28	23.591
403.63	24.146
403.99	23.990
404.35	23.249
404.70	24.166
405.06	24.106
405.42	23.247
405.77	23.643
406.13	23.509
406.49	24.146
406.84	23.335
407.20	24.441
407.55	24.319
407.91	23.122
408.27	24.081
408.62	23.452
408.98	23.590
409.34	23.705
409.69	23.125
410.05	23.287
410.40	23.360
410.76	23.829
411.11	23.130
411.47	24.041
411.83	23.778
412.18	22.525
412.54	24.222
412.89	23.208
413.25	22.255
413.60	23.451
413.96	22.797
414.31	23.914
414.67	23.619
415.03	23.415
415.38	23.422
415.74	23.196
416.09	22.826
416.45	21.561
416.80	23.147
417.16	22.924
417.51	24.294
417.87	22.718
418.22	23.578
418.58	23.492
418.93	22.808
419.29	23.149
419.64	23.178
420.00	24.301
420.35	23.241
420.71	23.109
421.06	23.669
421.42	23.126
421.77	23.506
422.12	23.839
422.48	23.356
422.83	23.405
423.19	23.051
423.54	23.343
423.90	23.597
424.25	22.511
424.61	23.824
424.96	23.230
425.31	22.918
425.67	23.037
426.02	22.834
426.38	22.807
426.73	22.677
427.09	22.304
427.44	23.466
427.79	22.674
428.15	23.459
428.50	23.343
428.85	22.362
429.21	23.077
429.56	22.708
429.92	22.896
430.27	22.931
430.62	23.354
430.98	22.739
431.33	23.372
431.68	23.646
432.04	23.895
432.39	23.020
432.74	23.141
433.10	22.341
433.45	23.374
433.80	23.236
434.16	23.321
434.51	23.342
434.86	24.487
435.22	22.996
435.57	23.195
435.92	23.271
436.28	22.730
436.63	23.064
436.98	21.936
437.34	22.918
437.69	22.054
438.04	22.802
438.39	22.924
438.75	22.061
439.10	22.376
439.45	21.666
439.81	22.892
440.16	23.282
440.51	22.294
440.86	22.614
441.22	22.499
441.57	21.684
441.92	22.813
442.27	21.916
442.63	23.498
442.98	22.686
443.33	23.119
443.68	21.939
444.03	22.004
444.39	22.369
444.74	23.403
445.09	21.930
445.44	22.454
445.79	22.743
446.15	22.453
446.50	21.720
446.85	22.268
447.20	22.523
447.55	22.541
447.91	22.908
448.26	22.737
448.61	21.675
448.96	22.801
449.31	21.871
449.66	22.610
450.02	22.271
450.37	22.319
450.72	22.034
451.07	22.313
451.42	21.685
451.77	22.382
452.12	22.646
452.47	22.418
452.83	22.831
453.18	22.517
453.53	21.269
453.88	23.325
454.23	21.886
454.58	23.120
454.93	23.111
455.28	22.562
455.63	22.359
455.98	22.410
456.34	22.300
456.69	23.202
457.04	22.434
457.39	21.651
457.74	22.091
458.09	22.274
458.44	21.882
458.79	22.141
459.14	22.704
459.49	22.380
459.84	22.428
460.19	22.375
460.54	22.081
460.89	21.244
461.24	21.797
461.59	22.450
461.94	21.579
462.29	21.977
462.64	21.937
462.99	21.553
463.34	21.945
463.69	22.519
464.04	21.910
464.39	22.700
464.74	21.631
465.09	21.527
465.44	22.391
465.79	22.391
466.14	22.612
466.49	22.625
466.84	22.029
467.19	21.446
467.54	20.506
467.89	21.208
468.24	21.912
468.59	21.549
468.94	21.608
469.29	21.572
469.64	21.429
469.99	21.404
470.34	22.244
470.68	21.730
471.03	21.542
471.38	20.972
471.73	21.538
472.08	20.683
472.43	21.236
472.78	21.600
473.13	20.941
473.48	22.208
473.83	22.333
474.17	21.529
474.52	22.762
474.87	22.844
475.22	21.711
475.57	21.833
475.92	22.408
476.27	21.371
476.61	21.915
476.96	22.191
477.31	21.636
477.66	21.417
478.01	22.366
478.36	22.263
478.70	21.623
479.05	21.687
479.40	21.606
479.75	21.916
480.10	22.421
480.45	21.760
480.79	22.655
481.14	22.278
481.49	22.459
481.84	21.822
482.19	21.562
482.53	22.112
482.88	21.310
483.23	21.080
483.58	22.433
483.92	21.739
484.27	20.780
484.62	21.080
484.97	21.551
485.31	21.664
485.66	22.283
486.01	23.033
486.36	23.815
486.70	23.829
487.05	22.987
487.40	22.463
487.75	22.347
488.09	21.371
488.44	21.414
488.79	21.613
489.13	21.263
489.48	21.574
489.83	21.616
490.17	21.593
490.52	21.694
490.87	21.155
491.22	20.738
491.56	21.019
491.91	21.231
492.26	21.085
492.60	21.646
492.95	21.847
493.30	21.296
493.64	20.310
493.99	20.507
494.34	21.286
494.68	21.863
495.03	21.224
495.37	20.993
495.72	21.611
496.07	21.727
496.41	22.094
496.76	21.461
497.11	21.573
497.45	21.983
497.80	21.661
498.14	20.334
498.49	21.246
498.84	21.359
499.18	21.686
499.53	21.481
499.87	21.139
500.22	20.833
500.56	21.361
500.91	21.527
501.26	22.513
501.60	20.558
501.95	22.077
502.29	20.879
502.64	21.735
502.98	20.795
503.33	21.523
503.67	21.073
504.02	21.825
504.36	21.078
504.71	20.415
505.06	20.919
505.40	21.257
505.75	20.986
506.09	21.689
506.44	21.253
506.78	20.572
507.13	21.061
507.47	20.762
507.82	21.064
508.16	20.984
508.51	21.690
508.85	20.807
509.19	21.298
509.54	20.825
509.88	21.862
510.23	20.702
510.57	21.746
510.92	21.375
511.26	20.043
511.61	20.194
511.95	21.013
512.30	21.550
512.64	19.755
512.98	21.452
513.33	21.472
513.67	20.324
514.02	20.358
514.36	20.776
514.70	20.826
515.05	20.354
515.39	20.358
515.74	21.291
516.08	20.058
516.42	20.907
516.77	20.682
517.11	20.423
517.46	20.215
517.80	20.457
518.14	20.471
518.49	21.279
518.83	20.712
519.17	21.551
519.52	20.359
519.86	21.027
520.20	20.477
520.55	19.938
520.89	20.288
521.23	20.940
521.58	19.373
521.92	20.773
522.26	20.127
522.61	19.582
522.95	20.166
523.29	20.752
523.64	19.550
523.98	19.987
524.32	20.113
524.66	19.938
525.01	20.039
525.35	20.619
525.69	20.299
526.04	19.452
526.38	21.006
526.72	18.646
527.06	20.898
527.41	19.868
527.75	19.406
528.09	20.185
528.43	20.656
528.78	19.849
529.12	20.807
529.46	20.296
529.80	20.271
530.15	20.541
530.49	19.276
530.83	21.153
531.17	19.327
531.51	20.228
531.86	20.803
532.20	21.120
532.54	20.120
532.88	20.356
533.22	20.789
533.57	20.692
533.91	19.788
534.25	19.610
534.59	20.237
534.93	20.286
535.27	20.831
535.62	21.355
535.96	20.685
536.30	20.026
536.64	21.116
536.98	20.339
537.32	19.765
537.66	19.959
538.01	20.344
538.35	20.473
538.69	19.786
539.03	20.447
539.37	20.226
539.71	20.213
540.05	19.671
540.39	20.983
540.73	20.318
541.07	21.243
541.42	20.324
541.76	19.468
542.10	21.404
542.44	20.187
542.78	20.488
543.12	19.959
543.46	19.726
543.80	19.799
544.14	19.543
544.48	20.801
544.82	21.313
545.16	20.858
545.50	19.044
545.84	21.001
546.18	20.527
546.52	19.559
546.86	19.943
547.20	20.253
547.54	19.421
547.88	20.305
548.22	19.266
548.56	20.307
548.90	20.350
549.24	19.832
549.58	19.478
549.92	19.929
550.26	21.098
550.60	20.199
550.94	20.730
551.28	20.015
551.62	19.202
551.96	19.971
552.30	20.488
552.64	20.619
552.98	21.233
553.32	20.491
553.66	19.539
554.00	19.545
554.34	19.711
554.68	19.883
555.02	20.478
555.36	19.914
555.69	19.986
556.03	20.421
556.37	19.488
556.71	20.830
557.05	19.734
557.39	19.451
557.73	19.912
558.07	20.573
558.41	20.793
558.75	20.608
559.08	19.222
559.42	19.372
559.76	19.709
560.10	19.538
560.44	20.087
560.78	19.903
561.12	19.462
561.45	19.726
561.79	20.418
562.13	19.776
562.47	19.258
562.81	19.802
563.15	19.804
563.48	19.212
563.82	19.337
564.16	20.825
564.50	20.296
564.84	21.164
565.17	19.297
565.51	20.730
565.85	20.554
566.19	20.685
566.52	20.287
566.86	20.796
567.20	21.429
567.54	21.855
567.88	21.329
568.21	20.582
568.55	20.944
568.89	21.571
569.23	21.286
569.56	21.564
569.90	22.345
570.24	22.398
570.57	22.214
570.91	22.237
571.25	22.244
571.59	22.042
571.92	22.292
572.26	22.019
572.60	21.471
572.93	21.462
573.27	21.433
573.61	21.767
573.95	22.485
574.28	21.932
574.62	22.496
574.96	21.735
575.29	22.078
575.63	22.007
575.97	21.656
576.30	21.622
576.64	22.037
576.98	21.772
577.31	22.312
577.65	22.635
577.98	22.566
578.32	22.290
578.66	22.198
578.99	22.140
579.33	22.205
579.67	21.506
580.00	21.825
580.34	21.722
580.67	21.819
581.01	21.595
581.35	22.365
581.68	22.748
582.02	23.040
582.35	22.644
582.69	22.842
583.02	22.458
583.36	22.116
583.70	21.787
584.03	21.713
584.37	21.840
584.70	21.808
585.04	21.899
585.37	21.599
585.71	21.746
586.04	21.910
586.38	21.599
586.72	21.364
587.05	22.033
587.39	22.371
587.72	21.901
588.06	21.981
588.39	21.532
588.73	22.028
589.06	21.963
589.40	22.089
589.73	21.282
590.07	21.486
590.40	21.402
590.73	20.992
591.07	21.025
591.40	21.144
591.74	21.156
592.07	20.586
592.41	20.934
592.74	22.406
593.08	22.348
593.41	21.974
593.75	21.101
594.08	22.358
594.41	22.403
594.75	21.065
595.08	22.030
595.42	21.532
595.75	21.352
596.09	21.537
596.42	21.972
596.75	20.483
597.09	21.149
597.42	21.301
597.75	21.568
598.09	20.877
598.42	21.211
598.76	21.387
599.09	21.271
599.42	21.107
599.76	21.933
600.09	21.603
600.42	21.534
600.76	22.222
601.09	21.269
601.42	20.736
601.76	21.301
602.09	21.186
602.42	20.576
602.76	21.147
603.09	20.806
603.42	21.555
603.76	21.500
604.09	21.586
604.42	20.566
604.76	21.587
605.09	20.524
605.42	21.454
605.75	21.130
606.09	20.631
606.42	21.575
606.75	20.996
607.09	21.306
607.42	21.523
607.75	20.927
608.08	21.554
608.42	21.192
608.75	20.514
609.08	21.383
609.41	20.678
609.75	19.795
610.08	21.127
610.41	20.723
610.74	21.228
611.07	20.994
611.41	20.222
611.74	21.748
612.07	20.677
612.40	20.469
612.73	20.409
613.07	20.583
613.40	21.456
613.73	20.109
614.06	19.605
614.39	20.800
614.72	19.665
615.06	20.761
615.39	20.510
615.72	20.098
616.05	20.375
616.38	20.429
616.71	20.420
617.05	20.446
617.38	20.186
617.71	19.410
618.04	19.627
618.37	19.497
618.70	20.665
619.03	20.515
619.36	20.155
619.69	20.962
620.03	19.972
620.36	19.972
620.69	20.029
621.02	19.711
621.35	19.113
621.68	19.672
622.01	18.770
622.34	19.565
622.67	19.062
623.00	20.352
623.33	20.373
623.66	20.679
623.99	20.376
624.32	19.048
624.65	19.868
624.99	19.492
625.32	19.461
625.65	19.658
625.98	18.858
626.31	18.923
626.64	19.331
626.97	18.579
627.30	18.383
627.63	18.826
627.96	19.669
628.29	18.658
628.62	18.243
628.95	19.488
629.28	18.703
629.61	17.861
629.94	19.565
630.26	19.483
630.59	19.296
630.92	19.119
631.25	18.044
