SpectraSuite Data File
++++++++++++++++++++++++++++++++++++
Date: Sat May 16 11:45:41 PDT 2015
User: schluterlab
Dark Spectrum Present: Yes
Reference Spectrum Present: Yes
Number of Sampled Component Spectra: 1
Spectrometers: USB2E3373
Integration Time (usec): 3000 (USB2E3373)
Spectra Averaged: 3 (USB2E3373)
Boxcar Smoothing: 0 (USB2E3373)
Correct for Electrical Dark: No (USB2E3373)
Strobe/Lamp Enabled: No (USB2E3373)
Correct for Detector Non-linearity: No (USB2E3373)
Correct for Stray Light: No (USB2E3373)
Number of Pixels in Processed Spectrum: 2048
>>>>>Begin Processed Spectral Data<<<<<
178.53	0.000
178.91	133.333
179.29	633.333
179.67	-1100.000
180.04	-46.154
180.42	400.000
180.80	525.000
181.18	625.000
181.56	-162.500
181.94	1900.000
182.31	475.000
182.69	-107.692
183.07	-500.000
183.45	1250.000
183.83	266.667
184.20	-285.714
184.58	-250.000
184.96	-400.000
185.34	37.500
185.72	-425.000
186.09	83.333
186.47	-250.000
186.85	-325.000
187.23	-175.000
187.61	-325.000
187.98	-312.500
188.36	-175.000
188.74	-250.000
189.12	1300.000
189.49	300.000
189.87	-175.000
190.25	300.000
190.63	64.286
191.00	-277.778
191.38	340.000
191.76	-80.000
192.14	460.000
192.51	-180.000
192.89	-600.000
193.27	0.000
193.65	-133.333
194.02	-257.143
194.40	766.667
194.78	-50.000
195.15	-1200.000
195.53	-154.545
195.91	-316.667
196.29	140.000
196.66	-700.000
197.04	2100.000
197.42	-225.000
197.79	6.667
198.17	-566.667
198.55	-500.000
198.92	-900.000
199.30	200.000
199.68	-950.000
200.05	-55.556
200.43	-144.444
200.81	-1800.000
201.18	-58.333
201.56	314.286
201.94	-80.000
202.31	-59.091
202.69	-10.000
203.07	40.000
203.44	533.333
203.82	-350.000
204.19	-450.000
204.57	-175.000
204.95	-1800.000
205.32	-43.750
205.70	1700.000
206.08	-1000.000
206.45	-5.556
206.83	-900.000
207.20	150.000
207.58	-900.000
207.96	-433.333
208.33	-175.000
208.71	-222.222
209.08	160.000
209.46	-85.714
209.84	500.000
210.21	0.000
210.59	35.000
210.96	200.000
211.34	-216.667
211.71	-366.667
212.09	275.000
212.46	900.000
212.84	-1500.000
213.22	933.333
213.59	175.000
213.97	-100.000
214.34	200.000
214.72	-110.000
215.09	-333.333
215.47	-300.000
215.84	-30.000
216.22	-120.000
216.59	-26.667
216.97	-425.000
217.34	950.000
217.72	-185.714
218.09	-183.333
218.47	-128.571
218.84	242.857
219.22	-42.857
219.59	0.000
219.97	157.143
220.34	550.000
220.72	337.500
221.09	-115.385
221.47	0.000
221.84	100.000
222.22	-750.000
222.59	1500.000
222.97	-200.000
223.34	-600.000
223.72	-233.333
224.09	-78.571
224.46	-450.000
224.84	-85.714
225.21	-285.714
225.59	-145.455
225.96	-212.500
226.34	-142.857
226.71	-177.778
227.08	10.000
227.46	1000.000
227.83	-242.857
228.21	-200.000
228.58	500.000
228.95	37.500
229.33	-1300.000
229.70	-340.000
230.08	-1100.000
230.45	33.333
230.82	-100.000
231.20	-1000.000
231.57	-200.000
231.95	1400.000
232.32	-9.524
232.69	-166.667
233.07	-200.000
233.44	-650.000
233.81	20.000
234.19	-11.111
234.56	0.000
234.93	12.500
235.31	-142.857
235.68	-135.714
236.05	-35.294
236.43	-100.000
236.80	-9.677
237.17	-16.667
237.55	-14.286
237.92	-59.091
238.29	-2.857
238.67	0.000
239.04	16.667
239.41	3.226
239.79	-12.821
240.16	4.762
240.53	20.000
240.91	35.897
241.28	27.273
241.65	35.385
242.02	19.672
242.40	32.787
242.77	10.606
243.14	20.339
243.51	35.714
243.89	20.253
244.26	26.966
244.63	36.842
245.00	27.368
245.38	29.661
245.75	23.009
246.12	28.800
246.49	33.071
246.87	37.398
247.24	28.814
247.61	24.576
247.98	33.099
248.36	30.769
248.73	34.810
249.10	33.121
249.47	36.257
249.84	35.795
250.22	35.714
250.59	32.203
250.96	31.414
251.33	37.441
251.70	30.769
252.08	41.706
252.45	36.493
252.82	39.048
253.19	40.851
253.56	31.048
253.94	37.131
254.31	36.910
254.68	44.715
255.05	39.516
255.42	38.095
255.79	36.559
256.16	39.608
256.54	38.603
256.91	39.015
257.28	36.264
257.65	40.071
258.02	41.509
258.39	41.472
258.76	33.784
259.14	33.333
259.51	42.295
259.88	39.634
260.25	42.857
260.62	37.621
260.99	37.389
261.36	43.902
261.73	39.017
262.10	41.944
262.47	39.886
262.85	42.857
263.22	37.536
263.59	38.462
263.96	44.348
264.33	39.837
264.70	43.094
265.07	39.286
265.44	39.535
265.81	36.693
266.18	37.975
266.55	41.176
266.92	40.554
267.29	40.436
267.66	38.025
268.03	39.855
268.40	42.254
268.77	36.867
269.14	39.907
269.51	38.621
269.88	37.385
270.25	36.131
270.62	37.986
270.99	39.414
271.36	40.793
271.73	38.565
272.10	39.359
272.47	40.000
272.84	41.556
273.21	41.284
273.58	39.121
273.95	40.132
274.32	39.593
274.69	40.700
275.06	42.536
275.43	39.509
275.80	40.530
276.17	37.866
276.54	39.919
276.91	40.741
277.28	38.540
277.65	40.496
278.02	39.666
278.39	39.489
278.76	38.645
279.13	41.897
279.50	38.767
279.87	37.632
280.23	41.498
280.60	37.972
280.97	38.835
281.34	37.331
281.71	38.462
282.08	41.935
282.45	39.104
282.82	37.597
283.19	38.909
283.56	40.659
283.92	37.809
284.29	38.662
284.66	38.849
285.03	39.037
285.40	43.173
285.77	38.947
286.14	40.072
286.51	39.432
286.87	39.383
287.24	38.055
287.61	37.521
287.98	36.915
288.35	36.529
288.72	35.484
289.08	34.915
289.45	36.532
289.82	32.353
290.19	38.424
290.56	34.215
290.93	35.453
291.29	35.170
291.66	34.138
292.03	35.165
292.40	34.036
292.77	34.783
293.13	33.659
293.50	34.175
293.87	33.589
294.24	33.484
294.60	31.970
294.97	34.598
295.34	30.963
295.71	30.655
296.08	31.029
296.44	32.046
296.81	31.909
297.18	30.986
297.55	33.898
297.91	31.939
298.28	28.904
298.65	30.265
299.02	31.684
299.38	31.283
299.75	29.348
300.12	30.000
300.48	30.179
300.85	28.965
301.22	28.978
301.59	30.429
301.95	31.234
302.32	28.031
302.69	29.009
303.05	27.839
303.42	29.875
303.79	30.024
304.15	28.673
304.52	28.238
304.89	27.273
305.25	28.327
305.62	27.850
305.99	29.918
306.35	27.858
306.72	26.082
307.09	28.150
307.45	29.171
307.82	27.486
308.19	26.734
308.55	25.817
308.92	26.423
309.29	28.649
309.65	26.935
310.02	24.514
310.38	26.162
310.75	25.717
311.12	26.550
311.48	27.140
311.85	25.953
312.22	26.468
312.58	25.636
312.95	25.178
313.31	26.673
313.68	27.136
314.05	27.399
314.41	24.245
314.78	25.874
315.14	26.357
315.51	24.823
315.87	26.137
316.24	26.239
316.61	25.816
316.97	26.169
317.34	25.723
317.70	25.046
318.07	25.560
318.43	25.936
318.80	26.573
319.16	25.328
319.53	26.410
319.89	24.835
320.26	25.980
320.62	23.750
320.99	23.980
321.35	24.138
321.72	26.203
322.08	24.827
322.45	25.347
322.81	25.744
323.18	25.168
323.54	25.878
323.91	25.950
324.27	25.856
324.64	24.132
325.00	24.869
325.37	25.068
325.73	26.072
326.10	23.915
326.46	24.343
326.83	24.426
327.19	24.937
327.56	25.468
327.92	25.319
328.29	25.887
328.65	23.818
329.01	25.000
329.38	24.353
329.74	23.993
330.11	24.025
330.47	24.886
330.84	25.573
331.20	25.181
331.56	23.792
331.93	25.311
332.29	25.388
332.66	24.671
333.02	24.163
333.38	24.910
333.75	24.933
334.11	22.933
334.48	23.742
334.84	24.322
335.20	23.848
335.57	24.278
335.93	24.799
336.29	23.561
336.66	22.379
337.02	24.144
337.38	23.975
337.75	22.388
338.11	23.703
338.47	23.310
338.84	24.955
339.20	23.023
339.56	23.886
339.93	23.457
340.29	22.941
340.65	23.339
341.02	23.187
341.38	22.746
341.74	23.539
342.11	22.952
342.47	23.777
342.83	23.342
343.20	23.740
343.56	22.612
343.92	24.290
344.28	24.727
344.65	22.937
345.01	24.538
345.37	23.920
345.73	22.750
346.10	22.159
346.46	22.908
346.82	22.213
347.19	21.857
347.55	21.910
347.91	21.811
348.27	21.957
348.63	23.425
349.00	23.628
349.36	21.311
349.72	23.806
350.08	22.534
350.45	22.301
350.81	23.010
351.17	21.865
351.53	22.196
351.89	22.312
352.26	21.783
352.62	23.041
352.98	21.915
353.34	22.862
353.70	21.699
354.07	22.659
354.43	23.004
354.79	22.425
355.15	22.204
355.51	21.719
355.87	21.660
356.24	21.446
356.60	23.207
356.96	22.248
357.32	21.932
357.68	21.303
358.04	22.941
358.40	21.887
358.77	23.107
359.13	21.423
359.49	21.693
359.85	20.732
360.21	21.309
360.57	23.343
360.93	21.407
361.29	22.571
361.66	21.951
362.02	21.376
362.38	21.937
362.74	22.051
363.10	21.736
363.46	21.724
363.82	20.700
364.18	22.721
364.54	22.659
364.90	21.663
365.26	21.113
365.62	21.311
365.98	22.191
366.35	21.690
366.71	20.860
367.07	22.018
367.43	22.443
367.79	21.856
368.15	21.622
368.51	22.657
368.87	23.146
369.23	22.526
369.59	21.597
369.95	21.353
370.31	21.519
370.67	20.318
371.03	21.866
371.39	21.358
371.75	21.817
372.11	21.234
372.47	21.837
372.83	22.462
373.19	21.571
373.55	21.675
373.91	21.550
374.27	21.766
374.63	21.532
374.99	21.836
375.35	20.659
375.71	22.350
376.07	21.903
376.42	20.464
376.78	21.373
377.14	21.424
377.50	20.825
377.86	20.741
378.22	21.859
378.58	20.754
378.94	21.393
379.30	21.085
379.66	21.676
380.02	20.499
380.38	21.269
380.74	21.161
381.09	21.675
381.45	21.301
381.81	20.690
382.17	21.053
382.53	20.547
382.89	21.053
383.25	21.613
383.61	20.637
383.97	21.066
384.32	20.964
384.68	21.100
385.04	21.377
385.40	20.390
385.76	21.768
386.12	20.487
386.48	21.658
386.83	21.840
387.19	21.518
387.55	20.412
387.91	20.925
388.27	20.024
388.62	20.793
388.98	20.230
389.34	21.114
389.70	21.255
390.06	20.883
390.42	22.500
390.77	20.568
391.13	22.484
391.49	20.462
391.85	20.885
392.20	20.267
392.56	20.892
392.92	21.392
393.28	21.240
393.64	20.986
393.99	21.477
394.35	20.985
394.71	20.815
395.07	21.971
395.42	20.977
395.78	20.365
396.14	21.059
396.50	20.979
396.85	21.345
397.21	21.507
397.57	21.459
397.92	21.663
398.28	21.000
398.64	21.475
399.00	21.854
399.35	21.139
399.71	21.545
400.07	21.731
400.42	22.019
400.78	21.049
401.14	21.257
401.49	20.873
401.85	21.110
402.21	20.858
402.57	21.481
402.92	22.026
403.28	21.875
403.63	20.971
403.99	21.753
404.35	20.350
404.70	21.006
405.06	21.338
405.42	21.341
405.77	20.645
406.13	20.329
406.49	21.390
406.84	21.836
407.20	21.790
407.55	21.533
407.91	21.762
408.27	21.630
408.62	20.686
408.98	21.407
409.34	20.963
409.69	21.046
410.05	20.861
410.40	20.846
410.76	21.280
411.11	21.197
411.47	21.419
411.83	21.944
412.18	21.720
412.54	20.805
412.89	21.203
413.25	20.602
413.60	20.170
413.96	20.148
414.31	21.162
414.67	20.508
415.03	20.699
415.38	21.470
415.74	21.649
416.09	21.547
416.45	20.767
416.80	21.651
417.16	20.465
417.51	20.749
417.87	20.906
418.22	21.049
418.58	20.924
418.93	21.153
419.29	21.142
419.64	20.163
420.00	21.446
420.35	21.407
420.71	20.948
421.06	21.479
421.42	21.370
421.77	21.329
422.12	20.257
422.48	19.776
422.83	20.786
423.19	20.267
423.54	21.095
423.90	20.648
424.25	21.380
424.61	21.049
424.96	21.943
425.31	22.191
425.67	20.974
426.02	20.482
426.38	21.174
426.73	20.807
427.09	20.282
427.44	20.739
427.79	21.337
428.15	21.245
428.50	21.760
428.85	21.043
429.21	20.199
429.56	21.406
429.92	21.192
430.27	21.436
430.62	21.055
430.98	20.700
431.33	20.918
431.68	21.233
432.04	21.321
432.39	21.140
432.74	21.223
433.10	21.609
433.45	21.013
433.80	20.885
434.16	21.440
434.51	20.822
434.86	21.090
435.22	21.047
435.57	20.196
435.92	21.043
436.28	20.356
436.63	20.633
436.98	20.046
437.34	21.028
437.69	21.004
438.04	21.838
438.39	21.661
438.75	19.965
439.10	21.488
439.45	20.036
439.81	21.325
440.16	20.840
440.51	21.294
440.86	20.648
441.22	20.232
441.57	21.105
441.92	21.535
442.27	20.238
442.63	20.708
442.98	20.485
443.33	21.142
443.68	21.053
444.03	21.513
444.39	21.194
444.74	21.311
445.09	21.162
445.44	21.159
445.79	21.163
446.15	21.742
446.50	20.033
446.85	20.626
447.20	21.093
447.55	21.105
447.91	20.887
448.26	20.223
448.61	20.656
448.96	21.401
449.31	20.349
449.66	21.752
450.02	20.554
450.37	21.275
450.72	21.469
451.07	21.873
451.42	20.818
451.77	20.946
452.12	21.454
452.47	20.970
452.83	21.083
453.18	22.454
453.53	21.517
453.88	21.890
454.23	21.100
454.58	21.815
454.93	21.033
455.28	21.415
455.63	21.007
455.98	20.904
456.34	20.775
456.69	21.388
457.04	21.328
457.39	20.813
457.74	20.732
458.09	21.114
458.44	21.709
458.79	20.740
459.14	21.506
459.49	21.551
459.84	21.698
460.19	21.360
460.54	20.932
460.89	21.300
461.24	21.494
461.59	21.161
461.94	21.133
462.29	22.216
462.64	21.410
462.99	21.419
463.34	20.594
463.69	21.183
464.04	21.148
464.39	21.027
464.74	20.863
465.09	20.686
465.44	21.151
465.79	22.504
466.14	21.404
466.49	21.819
466.84	21.669
467.19	19.950
467.54	21.013
467.89	21.085
468.24	21.200
468.59	22.236
468.94	22.315
469.29	21.507
469.64	21.429
469.99	22.350
470.34	21.844
470.68	21.948
471.03	21.817
471.38	21.528
471.73	21.469
472.08	21.754
472.43	21.300
472.78	21.600
473.13	20.610
473.48	21.825
473.83	21.092
474.17	21.210
474.52	22.954
474.87	20.862
475.22	20.826
475.57	20.667
475.92	21.382
476.27	21.200
476.61	21.296
476.96	20.402
477.31	21.098
477.66	20.753
478.01	21.394
478.36	21.477
478.70	21.837
479.05	21.850
479.40	21.813
479.75	21.305
480.10	21.875
480.45	21.035
480.79	21.125
481.14	21.576
481.49	21.733
481.84	21.452
482.19	21.654
482.53	21.922
482.88	21.879
483.23	21.408
483.58	21.832
483.92	22.360
484.27	21.134
484.62	21.210
484.97	20.928
485.31	20.288
485.66	19.555
486.01	20.294
486.36	21.038
486.70	21.569
487.05	20.944
487.40	21.207
487.75	21.533
488.09	21.680
488.44	22.767
488.79	21.967
489.13	22.670
489.48	21.900
489.83	22.489
490.17	21.768
490.52	21.920
490.87	21.432
491.22	21.766
491.56	21.343
491.91	21.374
492.26	21.651
492.60	20.980
492.95	21.561
493.30	21.868
493.64	21.392
493.99	20.793
494.34	22.143
494.68	22.519
495.03	22.084
495.37	22.026
495.72	21.758
496.07	21.305
496.41	23.020
496.76	21.963
497.11	22.233
497.45	22.557
497.80	21.461
498.14	22.102
498.49	21.195
498.84	21.748
499.18	22.027
499.53	21.822
499.87	21.477
500.22	21.814
500.56	21.411
500.91	22.709
501.26	22.077
501.60	21.425
501.95	22.222
502.29	21.587
502.64	22.159
502.98	21.993
503.33	21.758
503.67	21.695
504.02	21.777
504.36	22.500
504.71	21.429
505.06	22.017
505.40	22.056
505.75	21.494
506.09	21.486
506.44	22.556
506.78	22.629
507.13	21.988
507.47	21.753
507.82	22.664
508.16	22.487
508.51	21.844
508.85	22.205
509.19	21.298
509.54	22.780
509.88	22.447
510.23	22.746
510.57	22.910
510.92	22.825
511.26	21.903
511.61	22.192
511.95	21.875
512.30	21.495
512.64	22.538
512.98	22.442
513.33	22.186
513.67	22.111
514.02	21.812
514.36	22.659
514.70	22.184
515.05	22.813
515.39	22.491
515.74	23.560
516.08	22.651
516.42	22.663
516.77	22.761
517.11	21.510
517.46	22.727
517.80	22.684
518.14	22.464
518.49	22.415
518.83	22.018
519.17	23.150
519.52	22.094
519.86	23.238
520.20	23.227
520.55	22.646
520.89	22.730
521.23	23.932
521.58	22.445
521.92	22.926
522.26	24.381
522.61	22.877
522.95	22.272
523.29	24.201
523.64	22.798
523.98	22.915
524.32	22.124
524.66	22.609
525.01	22.158
525.35	22.229
525.69	22.772
526.04	23.629
526.38	23.043
526.72	22.478
527.06	23.307
527.41	23.036
527.75	23.366
528.09	22.237
528.43	22.164
528.78	22.676
529.12	23.944
529.46	21.907
529.80	23.112
530.15	23.245
530.49	23.286
530.83	24.034
531.17	22.424
531.51	22.840
531.86	22.712
532.20	23.279
532.54	22.727
532.88	22.859
533.22	22.259
533.57	22.846
533.91	22.597
534.25	23.067
534.59	21.861
534.93	22.464
535.27	22.278
535.62	23.721
535.96	23.077
536.30	22.579
536.64	23.772
536.98	23.729
537.32	23.566
537.66	24.100
538.01	23.024
538.35	22.905
538.69	22.861
539.03	22.613
539.37	22.555
539.71	22.815
540.05	22.687
540.39	24.238
540.73	22.529
541.07	23.770
541.42	23.160
541.76	22.791
542.10	23.633
542.44	22.585
542.78	23.609
543.12	23.489
543.46	23.014
543.80	22.341
544.14	21.894
544.48	23.819
544.82	23.613
545.16	23.005
545.50	21.938
545.84	24.270
546.18	23.370
546.52	23.115
546.86	22.650
547.20	23.980
547.54	22.934
547.88	22.495
548.22	21.166
548.56	22.645
548.90	23.585
549.24	23.756
549.58	22.653
549.92	24.664
550.26	24.494
550.60	23.542
550.94	23.942
551.28	23.928
551.62	23.191
551.96	23.517
552.30	23.693
552.64	23.434
552.98	22.775
553.32	23.665
553.66	23.432
554.00	23.454
554.34	22.888
554.68	23.319
555.02	24.457
555.36	23.796
555.69	22.851
556.03	23.368
556.37	23.826
556.71	23.479
557.05	23.725
557.39	23.311
557.73	24.508
558.07	24.793
558.41	25.056
558.75	23.270
559.08	21.868
559.42	22.971
559.76	23.313
560.10	23.788
560.44	24.277
560.78	23.452
561.12	24.086
561.45	23.493
561.79	23.415
562.13	22.791
562.47	22.899
562.81	23.479
563.15	23.583
563.48	24.534
563.82	22.989
564.16	23.462
564.50	23.320
564.84	24.405
565.17	22.745
565.51	23.859
565.85	24.814
566.19	23.123
566.52	23.353
566.86	23.388
567.20	23.487
567.54	23.154
567.88	23.395
568.21	23.602
568.55	22.163
568.89	22.714
569.23	22.767
569.56	21.984
569.90	22.777
570.24	23.074
570.57	21.476
570.91	21.931
571.25	22.082
571.59	22.198
571.92	22.708
572.26	21.630
572.60	22.308
572.93	21.833
573.27	21.585
573.61	21.480
573.95	22.352
574.28	21.828
574.62	21.962
574.96	21.760
575.29	21.951
575.63	22.405
575.97	22.060
576.30	21.842
576.64	21.436
576.98	21.398
577.31	22.002
577.65	21.919
577.98	21.507
578.32	21.995
578.66	21.866
578.99	21.877
579.33	21.527
579.67	21.938
580.00	21.974
580.34	21.991
580.67	22.162
581.01	22.029
581.35	21.776
581.68	21.126
582.02	21.810
582.35	21.681
582.69	21.996
583.02	21.994
583.36	22.188
583.70	22.555
584.03	22.198
584.37	22.165
584.70	22.072
585.04	22.051
585.37	21.551
585.71	22.061
586.04	22.340
586.38	21.946
586.72	22.266
587.05	22.373
587.39	21.551
587.72	22.246
588.06	22.091
588.39	22.558
588.73	22.360
589.06	22.666
589.40	22.982
589.73	22.840
590.07	22.542
590.40	22.952
590.73	22.631
591.07	22.910
591.40	23.310
591.74	23.545
592.07	22.523
592.41	21.741
592.74	22.867
593.08	22.382
593.41	22.105
593.75	21.464
594.08	22.430
594.41	22.736
594.75	22.726
595.08	22.556
595.42	22.760
595.75	22.051
596.09	22.313
596.42	23.118
596.75	22.337
597.09	22.663
597.42	22.698
597.75	22.099
598.09	22.955
598.42	22.227
598.76	22.051
599.09	21.310
599.42	21.722
599.76	21.820
600.09	22.137
600.42	22.522
600.76	22.787
601.09	22.218
601.42	22.715
601.76	23.092
602.09	22.045
602.42	22.634
602.76	22.268
603.09	22.339
603.42	22.482
603.76	22.617
604.09	22.227
604.42	22.190
604.76	22.896
605.09	22.514
605.42	22.872
605.75	22.078
606.09	22.748
606.42	22.120
606.75	22.370
607.09	22.453
607.42	22.887
607.75	22.693
608.08	23.543
608.42	22.848
608.75	22.056
609.08	21.870
609.41	22.720
609.75	21.794
610.08	22.892
610.41	22.651
610.74	23.453
611.07	23.428
611.41	21.331
611.74	21.902
612.07	23.523
612.40	22.388
612.73	22.509
613.07	23.500
613.40	22.989
613.73	22.289
614.06	22.680
614.39	22.717
614.72	22.235
615.06	22.446
615.39	22.138
615.72	22.379
616.05	22.087
616.38	23.273
616.71	23.063
617.05	22.919
617.38	23.034
617.71	22.604
618.04	23.230
618.37	22.642
618.70	23.664
619.03	23.155
619.36	23.397
619.69	23.403
620.03	22.658
620.36	23.066
620.69	23.762
621.02	23.516
621.35	22.661
621.68	23.361
622.01	23.625
622.34	23.602
622.67	23.203
623.00	23.565
623.33	24.328
623.66	22.821
623.99	22.707
624.32	22.545
624.65	23.252
624.99	23.077
625.32	23.653
625.65	22.766
625.98	23.474
626.31	23.083
626.64	24.519
626.97	24.486
627.30	24.255
627.63	22.625
627.96	23.412
628.29	23.621
628.62	24.260
628.95	24.409
629.28	23.308
629.61	23.062
629.94	23.157
630.26	25.249
630.59	24.925
630.92	23.423
631.25	23.992
631.58	24.656
