SpectraSuite Data File
++++++++++++++++++++++++++++++++++++
Date: Sat May 16 11:25:48 PDT 2015
User: schluterlab
Dark Spectrum Present: Yes
Reference Spectrum Present: Yes
Number of Sampled Component Spectra: 1
Spectrometers: USB2E3373
Integration Time (usec): 3000 (USB2E3373)
Spectra Averaged: 3 (USB2E3373)
Boxcar Smoothing: 0 (USB2E3373)
Correct for Electrical Dark: No (USB2E3373)
Strobe/Lamp Enabled: No (USB2E3373)
Correct for Detector Non-linearity: No (USB2E3373)
Correct for Stray Light: No (USB2E3373)
Number of Pixels in Processed Spectrum: 2048
>>>>>Begin Processed Spectral Data<<<<<
178.53	0.000
178.91	66.667
179.29	666.667
179.67	-1500.000
180.04	-76.923
180.42	1300.000
180.80	250.000
181.18	350.000
181.56	-50.000
181.94	1400.000
182.31	400.000
182.69	-30.769
183.07	-533.333
183.45	1250.000
183.83	600.000
184.20	-300.000
184.58	-50.000
184.96	-475.000
185.34	87.500
185.72	-525.000
186.09	233.333
186.47	-125.000
186.85	-200.000
187.23	-150.000
187.61	-125.000
187.98	-275.000
188.36	-175.000
188.74	-125.000
189.12	1600.000
189.49	114.286
189.87	-41.667
190.25	150.000
190.63	-100.000
191.00	-188.889
191.38	380.000
191.76	-20.000
192.14	340.000
192.51	-200.000
192.89	-333.333
193.27	0.000
193.65	-66.667
194.02	-300.000
194.40	466.667
194.78	-100.000
195.15	-1800.000
195.53	-118.182
195.91	-583.333
196.29	300.000
196.66	-333.333
197.04	2200.000
197.42	-325.000
197.79	33.333
198.17	-500.000
198.55	-600.000
198.92	-1700.000
199.30	250.000
199.68	-400.000
200.05	33.333
200.43	-211.111
200.81	-1900.000
201.18	-133.333
201.56	157.143
201.94	-86.667
202.31	-22.727
202.69	20.000
203.07	-90.000
203.44	766.667
203.82	-266.667
204.19	-375.000
204.57	-175.000
204.95	-1600.000
205.32	-6.250
205.70	700.000
206.08	-1900.000
206.45	-66.667
206.83	-850.000
207.20	-400.000
207.58	-333.333
207.96	-733.333
208.33	-187.500
208.71	-155.556
209.08	240.000
209.46	-114.286
209.84	850.000
210.21	0.000
210.59	-5.000
210.96	1800.000
211.34	-166.667
211.71	-366.667
212.09	375.000
212.46	1050.000
212.84	-3100.000
213.22	633.333
213.59	141.667
213.97	-22.222
214.34	80.000
214.72	-140.000
215.09	-400.000
215.47	-116.667
215.84	10.000
216.22	-90.000
216.59	-40.000
216.97	-350.000
217.34	950.000
217.72	-114.286
218.09	-233.333
218.47	-214.286
218.84	128.571
219.22	-85.714
219.59	0.000
219.97	228.571
220.34	325.000
220.72	250.000
221.09	-30.769
221.47	0.000
221.84	500.000
222.22	-200.000
222.59	600.000
222.97	-150.000
223.34	-1050.000
223.72	-600.000
224.09	-78.571
224.46	-400.000
224.84	-7.143
225.21	-142.857
225.59	-81.818
225.96	-325.000
226.34	42.857
226.71	-55.556
227.08	0.000
227.46	500.000
227.83	-214.286
228.21	-200.000
228.58	700.000
228.95	-31.250
229.33	-2000.000
229.70	-300.000
230.08	-950.000
230.45	-83.333
230.82	-116.667
231.20	-1200.000
231.57	-750.000
231.95	1700.000
232.32	19.048
232.69	-122.222
233.07	-200.000
233.44	-1050.000
233.81	-26.667
234.19	-88.889
234.56	-37.500
234.93	31.250
235.31	-328.571
235.68	-50.000
236.05	-58.824
236.43	-59.091
236.80	-35.484
237.17	-16.667
237.55	-76.190
237.92	-72.727
238.29	-37.143
238.67	-17.647
239.04	-25.000
239.41	-51.613
239.79	-58.974
240.16	-33.333
240.53	-41.818
240.91	-35.897
241.28	-9.091
241.65	0.000
242.02	-8.197
242.40	-34.426
242.77	-7.576
243.14	-30.508
243.51	-37.143
243.89	-16.456
244.26	-13.483
244.63	-3.158
245.00	-15.789
245.38	-7.627
245.75	-4.425
246.12	-3.200
246.49	-11.024
246.87	-10.569
247.24	-12.712
247.61	0.847
247.98	-4.930
248.36	-9.091
248.73	-1.899
249.10	-8.280
249.47	-5.848
249.84	-1.136
250.22	-13.690
250.59	2.260
250.96	-4.188
251.33	-3.318
251.70	-6.731
252.08	-3.318
252.45	-6.161
252.82	-9.048
253.19	0.000
253.56	-3.629
253.94	-3.797
254.31	-6.009
254.68	-0.813
255.05	-8.871
255.42	-1.190
255.79	-3.226
256.16	-1.961
256.54	-3.309
256.91	-4.545
257.28	-10.256
257.65	-1.773
258.02	2.516
258.39	-6.355
258.76	-3.378
259.14	-2.778
259.51	-2.951
259.88	-1.524
260.25	-2.174
260.62	-6.109
260.99	-3.561
261.36	0.000
261.73	-4.046
262.10	-3.056
262.47	-5.128
262.85	1.143
263.22	-1.719
263.59	-2.154
263.96	-0.290
264.33	-2.168
264.70	-2.210
265.07	-2.473
265.44	-0.517
265.81	-4.651
266.18	-4.051
266.55	-2.696
266.92	-0.504
267.29	-0.969
267.66	-3.457
268.03	1.691
268.40	1.174
268.77	-1.205
269.14	-0.232
269.51	-1.609
269.88	-2.523
270.25	-1.865
270.62	-3.890
270.99	-0.676
271.36	-2.098
271.73	-2.691
272.10	-3.661
272.47	-1.778
272.84	0.222
273.21	-0.459
273.58	-2.198
273.95	-0.877
274.32	-2.489
274.69	-1.532
275.06	0.204
275.43	-3.125
275.80	2.648
276.17	-1.464
276.54	1.426
276.91	-3.704
277.28	0.203
277.65	0.620
278.02	-0.418
278.39	-0.393
278.76	-0.996
279.13	0.198
279.50	-2.187
279.87	-1.691
280.23	-0.202
280.60	-0.596
280.97	-2.136
281.34	-1.547
281.71	-0.385
282.08	-0.806
282.45	-2.240
282.82	-3.295
283.19	-1.636
283.56	0.916
283.92	0.177
284.29	-1.301
284.66	-1.079
285.03	0.713
285.40	0.923
285.77	0.351
286.14	-1.805
286.51	-2.487
286.87	-0.907
287.24	1.536
287.61	-0.992
287.98	-0.347
288.35	-2.149
288.72	-3.565
289.08	-1.186
289.45	-1.347
289.82	-3.287
290.19	-1.149
290.56	-3.802
290.93	-2.226
291.29	-1.783
291.66	-0.644
292.03	0.471
292.40	-1.506
292.77	0.000
293.13	-0.163
293.50	0.000
293.87	-2.301
294.24	0.302
294.60	-0.303
294.97	-0.607
295.34	-1.926
295.71	-1.339
296.08	-1.382
296.44	-2.432
296.81	-0.285
297.18	-0.704
297.55	-0.141
297.91	1.395
298.28	-1.507
298.65	-0.418
299.02	0.535
299.38	-0.802
299.75	-1.495
300.12	-1.026
300.48	1.407
300.85	-1.966
301.22	-1.035
301.59	-0.390
301.95	1.889
302.32	-1.825
302.69	-0.245
303.05	-1.221
303.42	-0.750
303.79	-2.033
304.15	0.592
304.52	-0.117
304.89	-0.236
305.25	-1.343
305.62	0.470
305.99	0.942
306.35	0.222
306.72	-0.342
307.09	0.568
307.45	0.000
307.82	-1.229
308.19	-0.336
308.55	0.654
308.92	-0.107
309.29	0.865
309.65	0.212
310.02	1.080
310.38	0.757
310.75	1.537
311.12	1.343
311.48	1.357
311.85	1.545
312.22	0.824
312.58	2.543
312.95	1.733
313.31	2.697
313.68	2.613
314.05	2.770
314.41	2.012
314.78	2.298
315.14	2.172
315.51	2.938
315.87	3.969
316.24	3.013
316.61	4.415
316.97	3.881
317.34	4.239
317.70	6.215
318.07	5.037
318.43	4.963
318.80	8.169
319.16	4.784
319.53	5.263
319.89	6.021
320.26	6.863
320.62	6.827
320.99	7.761
321.35	6.798
321.72	9.417
322.08	9.298
322.45	7.030
322.81	9.606
323.18	9.990
323.54	9.704
323.91	10.658
324.27	11.787
324.64	11.426
325.00	13.089
325.37	13.303
325.73	15.048
326.10	12.135
326.46	15.412
326.83	14.723
327.19	15.513
327.56	17.291
327.92	17.162
328.29	18.095
328.65	17.182
329.01	18.993
329.38	19.001
329.74	20.788
330.11	20.852
330.47	21.617
330.84	23.465
331.20	22.834
331.56	22.881
331.93	22.824
332.29	24.292
332.66	25.549
333.02	23.620
333.38	24.910
333.75	26.180
334.11	25.956
334.48	25.949
334.84	26.947
335.20	26.596
335.57	26.805
335.93	28.738
336.29	27.015
336.66	26.520
337.02	28.108
337.38	27.540
337.75	27.568
338.11	28.980
338.47	28.737
338.84	27.949
339.20	28.383
339.56	29.501
339.93	29.630
340.29	28.787
340.65	28.497
341.02	30.438
341.38	28.981
341.74	29.213
342.11	29.352
342.47	29.356
342.83	29.471
343.20	29.889
343.56	28.816
343.92	29.800
344.28	30.950
344.65	29.538
345.01	30.504
345.37	30.980
345.73	29.542
346.10	28.700
346.46	31.032
346.82	29.431
347.19	30.567
347.55	30.016
347.91	30.157
348.27	29.833
348.63	31.502
349.00	31.504
349.36	29.118
349.72	31.210
350.08	31.275
350.45	30.969
350.81	30.494
351.17	30.707
351.53	29.674
351.89	31.690
352.26	30.853
352.62	31.106
352.98	32.278
353.34	33.333
353.70	30.965
354.07	31.786
354.43	32.964
354.79	32.884
355.15	31.709
355.51	32.422
355.87	32.174
356.24	32.724
356.60	34.488
356.96	32.487
357.32	33.333
357.68	33.027
358.04	32.179
358.40	32.715
358.77	32.689
359.13	32.441
359.49	32.200
359.85	33.155
360.21	33.866
360.57	32.455
360.93	33.852
361.29	35.501
361.66	33.003
362.02	33.506
362.38	34.263
362.74	34.066
363.10	33.644
363.46	34.117
363.82	34.621
364.18	34.443
364.54	35.168
364.90	34.032
365.26	34.094
365.62	35.495
365.98	34.708
366.35	35.070
366.71	34.813
367.07	34.439
367.43	36.033
367.79	35.395
368.15	34.851
368.51	35.734
368.87	36.401
369.23	35.930
369.59	34.722
369.95	36.364
370.31	36.146
370.67	36.298
371.03	36.953
371.39	36.704
371.75	38.627
372.11	37.374
372.47	37.889
372.83	37.691
373.19	37.500
373.55	38.001
373.91	38.691
374.27	37.303
374.63	37.888
374.99	39.499
375.35	37.752
375.71	39.433
376.07	38.809
376.42	38.543
376.78	39.608
377.14	40.271
377.50	39.201
377.86	39.857
378.22	40.829
378.58	41.260
378.94	39.889
379.30	40.951
379.66	40.194
380.02	39.394
380.38	40.242
380.74	40.973
381.09	40.598
381.45	41.826
381.81	41.198
382.17	41.040
382.53	41.337
382.89	41.866
383.25	41.601
383.61	41.392
383.97	42.927
384.32	42.866
384.68	43.833
385.04	42.089
385.40	43.214
385.76	43.354
386.12	44.285
386.48	44.431
386.83	44.110
387.19	44.232
387.55	44.397
387.91	44.458
388.27	45.115
388.62	44.471
388.98	44.337
389.34	44.186
389.70	44.458
390.06	44.251
390.42	45.000
390.77	44.606
391.13	46.273
391.49	44.978
391.85	44.950
392.20	45.388
392.56	46.060
392.92	46.321
393.28	45.637
393.64	46.903
393.99	46.400
394.35	46.655
394.71	45.769
395.07	47.332
395.42	45.173
395.78	47.454
396.14	46.978
396.50	46.728
396.85	47.378
397.21	46.598
397.57	47.477
397.92	46.838
398.28	47.778
398.64	47.412
399.00	49.326
399.35	46.505
399.71	49.245
400.07	48.896
400.42	47.263
400.78	47.346
401.14	47.605
401.49	47.347
401.85	48.444
402.21	47.557
402.57	47.087
402.92	47.325
403.28	47.794
403.63	46.495
403.99	46.986
404.35	47.705
404.70	48.274
405.06	48.039
405.42	47.355
405.77	46.210
406.13	47.871
406.49	48.472
406.84	48.290
407.20	48.704
407.55	47.942
407.91	46.567
408.27	48.775
408.62	48.226
408.98	49.303
409.34	48.873
409.69	47.448
410.05	48.817
410.40	48.130
410.76	48.192
411.11	48.067
411.47	47.251
411.83	49.144
412.18	48.205
412.54	48.688
412.89	48.724
413.25	48.701
413.60	47.813
413.96	47.628
414.31	48.930
414.67	47.746
415.03	49.677
415.38	49.577
415.74	49.485
416.09	48.913
416.45	49.074
416.80	47.984
417.16	48.904
417.51	48.720
417.87	49.838
418.22	50.695
418.58	49.551
418.93	49.847
419.29	49.059
419.64	48.932
420.00	49.635
420.35	49.497
420.71	50.180
421.06	50.000
421.42	49.590
421.77	50.251
422.12	50.364
422.48	49.706
422.83	50.854
423.19	49.443
423.54	50.317
423.90	50.492
424.25	50.622
424.61	51.025
424.96	51.200
425.31	51.537
425.67	51.117
426.02	50.316
426.38	52.148
426.73	50.380
427.09	50.490
427.44	51.136
427.79	50.814
428.15	52.304
428.50	51.672
428.85	51.739
429.21	51.909
429.56	51.354
429.92	52.455
430.27	51.994
430.62	52.194
430.98	52.744
431.33	53.522
431.68	52.332
432.04	53.386
432.39	52.764
432.74	52.398
433.10	53.348
433.45	51.929
433.80	54.143
434.16	53.949
434.51	53.699
434.86	54.071
435.22	53.619
435.57	53.978
435.92	53.107
436.28	54.184
436.63	52.742
436.98	53.666
437.34	53.514
437.69	53.617
438.04	53.772
438.39	55.535
438.75	53.492
439.10	53.748
439.45	54.436
439.81	54.398
440.16	54.003
440.51	54.529
440.86	54.887
441.22	54.339
441.57	55.316
441.92	53.862
442.27	54.329
442.63	55.579
442.98	54.402
443.33	55.299
443.68	54.716
444.03	55.354
444.39	54.821
444.74	54.901
445.09	55.373
445.44	55.037
445.79	55.380
446.15	55.312
446.50	54.927
446.85	54.746
447.20	55.363
447.55	55.138
447.91	56.036
448.26	54.693
448.61	54.556
448.96	57.311
449.31	54.284
449.66	55.695
450.02	54.072
450.37	56.464
450.72	55.706
451.07	56.254
451.42	55.762
451.77	56.314
452.12	54.350
452.47	54.975
452.83	55.329
453.18	56.546
453.53	55.659
453.88	56.280
454.23	55.018
454.58	56.805
454.93	56.738
455.28	57.935
455.63	55.467
455.98	57.289
456.34	55.146
456.69	57.036
457.04	55.808
457.39	56.100
457.74	57.236
458.09	57.309
458.44	56.467
458.79	55.493
459.14	57.102
459.49	56.069
459.84	55.087
460.19	56.146
460.54	55.959
460.89	55.661
461.24	56.163
461.59	55.275
461.94	56.652
462.29	56.700
462.64	56.851
462.99	54.886
463.34	55.436
463.69	57.506
464.04	55.126
464.39	55.854
464.74	54.905
465.09	54.961
465.44	56.796
465.79	55.386
466.14	56.789
466.49	56.419
466.84	55.882
467.19	56.671
467.54	56.203
467.89	56.473
468.24	56.116
468.59	55.215
468.94	56.849
469.29	56.530
469.64	56.334
469.99	57.529
470.34	56.580
470.68	57.049
471.03	58.018
471.38	55.000
471.73	56.294
472.08	57.229
472.43	56.178
472.78	56.000
473.13	56.991
473.48	57.116
473.83	57.506
474.17	56.497
474.52	56.841
474.87	56.119
475.22	55.693
475.57	56.944
475.92	57.397
476.27	55.600
476.61	56.225
476.96	56.736
477.31	56.997
477.66	57.388
478.01	57.861
478.36	55.265
478.70	55.953
479.05	56.571
479.40	57.150
479.75	56.014
480.10	57.093
480.45	55.368
480.79	56.762
481.14	56.949
481.49	57.260
481.84	56.033
482.19	56.967
482.53	57.434
482.88	56.668
483.23	56.385
483.58	56.799
483.92	56.856
484.27	54.807
484.62	55.119
484.97	55.885
485.31	54.848
485.66	54.585
486.01	55.368
486.36	56.535
486.70	57.683
487.05	56.385
487.40	56.757
487.75	54.632
488.09	55.744
488.44	56.055
488.79	54.439
489.13	54.698
489.48	54.976
489.83	55.895
490.17	55.333
490.52	56.703
490.87	56.120
491.22	57.170
491.56	56.204
491.91	56.345
492.26	56.132
492.60	55.852
492.95	55.545
493.30	56.646
493.64	55.101
493.99	56.071
494.34	56.000
494.68	56.835
495.03	56.071
495.37	55.949
495.72	57.711
496.07	56.828
496.41	56.091
496.76	56.667
497.11	56.053
497.45	55.987
497.80	57.529
498.14	55.354
498.49	56.354
498.84	56.117
499.18	55.750
499.53	55.821
499.87	56.853
500.22	57.206
500.56	56.978
500.91	55.764
501.26	56.963
501.60	56.235
501.95	56.908
502.29	56.353
502.64	57.426
502.98	57.163
503.33	56.250
503.67	55.316
504.02	56.156
504.36	57.010
504.71	57.194
505.06	56.166
505.40	56.936
505.75	58.181
506.09	56.673
506.44	57.744
506.78	56.749
507.13	56.334
507.47	56.808
507.82	57.099
508.16	56.580
508.51	55.848
508.85	56.884
509.19	56.672
509.54	58.087
509.88	57.606
510.23	57.023
510.57	57.196
510.92	58.271
511.26	57.204
511.61	56.695
511.95	56.950
512.30	56.734
512.64	57.262
512.98	57.316
513.33	56.562
513.67	57.789
514.02	56.711
514.36	57.285
514.70	57.159
515.05	56.661
515.39	56.920
515.74	57.243
516.08	57.810
516.42	56.317
516.77	57.539
517.11	57.723
517.46	58.254
517.80	58.303
518.14	57.790
518.49	58.338
518.83	57.270
519.17	58.022
519.52	54.714
519.86	56.810
520.20	58.496
520.55	58.462
520.89	58.485
521.23	57.937
521.58	57.618
521.92	57.505
522.26	58.413
522.61	57.605
522.95	57.243
523.29	58.495
523.64	57.214
523.98	58.434
524.32	58.768
524.66	58.075
525.01	57.868
525.35	57.925
525.69	58.426
526.04	58.486
526.38	58.243
526.72	57.216
527.06	58.529
527.41	58.218
527.75	57.954
528.09	58.703
528.43	57.705
528.78	57.538
529.12	57.746
529.46	57.281
529.80	58.489
530.15	58.081
530.49	58.150
530.83	58.350
531.17	58.990
531.51	58.674
531.86	57.340
532.20	57.018
532.54	58.021
532.88	57.181
533.22	58.155
533.57	58.290
533.91	56.679
534.25	57.448
534.59	56.527
534.93	57.685
535.27	58.087
535.62	59.143
535.96	58.242
536.30	57.330
536.64	58.566
536.98	59.322
537.32	57.015
537.66	58.045
538.01	58.419
538.35	58.311
538.69	57.487
539.03	57.888
539.37	58.350
539.71	57.972
540.05	58.465
540.39	58.657
540.73	57.775
541.07	58.333
541.42	57.394
541.76	56.811
542.10	58.001
542.44	56.962
542.78	58.005
543.12	58.384
543.46	57.466
543.80	57.659
544.14	57.488
544.48	58.399
544.82	58.931
545.16	56.942
545.50	57.470
545.84	57.371
546.18	58.530
546.52	58.037
546.86	59.972
547.20	57.384
547.54	58.196
547.88	57.133
548.22	57.208
548.56	57.515
548.90	58.491
549.24	58.234
549.58	58.504
549.92	58.163
550.26	58.960
550.60	57.681
550.94	58.175
551.28	58.089
551.62	58.124
551.96	57.308
552.30	57.143
552.64	58.339
552.98	58.094
553.32	59.380
553.66	58.760
554.00	58.280
554.34	57.690
554.68	57.383
555.02	58.611
555.36	57.009
555.69	57.880
556.03	57.965
556.37	59.317
556.71	57.767
557.05	58.610
557.39	59.614
557.73	58.789
558.07	60.739
558.41	57.517
558.75	58.555
559.08	57.354
559.42	57.734
559.76	58.972
560.10	58.762
560.44	58.815
560.78	59.638
561.12	58.247
561.45	58.836
561.79	58.467
562.13	57.994
562.47	56.793
562.81	57.214
563.15	57.663
563.48	58.535
563.82	57.809
564.16	58.485
564.50	58.401
564.84	58.995
565.17	56.897
565.51	58.149
565.85	58.553
566.19	59.223
566.52	59.361
566.86	57.206
567.20	58.414
567.54	59.716
567.88	57.175
568.21	58.277
568.55	57.953
568.89	56.710
569.23	56.687
569.56	58.218
569.90	57.868
570.24	57.009
570.57	55.888
570.91	56.783
571.25	56.777
571.59	57.727
571.92	56.845
572.26	55.842
572.60	55.911
572.93	55.962
573.27	55.762
573.61	55.865
573.95	56.280
574.28	55.541
574.62	56.838
574.96	55.658
575.29	56.250
575.63	56.119
575.97	54.908
576.30	55.824
576.64	56.449
576.98	55.860
577.31	56.520
577.65	56.318
577.98	55.553
578.32	56.346
578.66	55.826
578.99	57.105
579.33	55.564
579.67	55.516
580.00	55.680
580.34	56.067
580.67	56.509
581.01	55.324
581.35	55.880
581.68	55.878
582.02	56.545
582.35	56.582
582.69	56.691
583.02	57.294
583.36	56.387
583.70	55.812
584.03	56.816
584.37	56.536
584.70	56.146
585.04	56.152
585.37	55.632
585.71	56.072
586.04	56.763
586.38	55.680
586.72	55.891
587.05	56.188
587.39	56.433
587.72	56.809
588.06	56.396
588.39	56.850
588.73	56.759
589.06	56.809
589.40	57.369
589.73	56.551
590.07	55.899
590.40	56.125
590.73	57.337
591.07	56.393
591.40	57.496
591.74	56.994
592.07	57.838
592.41	56.900
592.74	56.995
593.08	56.849
593.41	57.664
593.75	56.116
594.08	58.447
594.41	58.115
594.75	57.305
595.08	57.293
595.42	56.864
595.75	57.810
596.09	57.354
596.42	57.733
596.75	56.835
597.09	59.172
597.42	57.268
597.75	57.706
598.09	57.659
598.42	57.269
598.76	57.101
599.09	57.064
599.42	57.401
599.76	56.814
600.09	57.901
600.42	56.855
600.76	57.213
601.09	56.893
601.42	57.499
601.76	57.321
602.09	56.810
602.42	56.708
602.76	57.333
603.09	57.056
603.42	57.695
603.76	58.835
604.09	57.349
604.42	56.578
604.76	57.959
605.09	57.776
605.42	57.979
605.75	57.999
606.09	56.496
606.42	57.520
606.75	56.376
607.09	57.433
607.42	58.231
607.75	57.219
608.08	56.665
608.42	57.663
608.75	56.869
609.08	57.526
609.41	57.997
609.75	56.558
610.08	58.284
610.41	58.120
610.74	58.317
611.07	58.266
611.41	57.741
611.74	58.046
612.07	58.485
612.40	57.409
612.73	56.597
613.07	57.017
613.40	58.238
613.73	58.365
614.06	58.539
614.39	59.188
614.72	57.095
615.06	57.228
615.39	56.755
615.72	57.740
616.05	56.599
616.38	59.141
616.71	57.838
617.05	59.168
617.38	58.824
617.71	58.784
618.04	58.199
618.37	59.119
618.70	58.996
619.03	57.955
619.36	60.183
619.69	58.363
620.03	57.507
620.36	59.353
620.69	58.866
621.02	58.676
621.35	58.629
621.68	59.098
622.01	58.981
622.34	60.637
622.67	59.063
623.00	58.761
623.33	60.000
623.66	57.976
623.99	58.797
624.32	58.482
624.65	60.118
624.99	60.344
625.32	58.683
625.65	59.207
625.98	57.668
626.31	60.685
626.64	60.335
626.97	58.219
627.30	60.596
627.63	58.463
627.96	59.704
628.29	59.375
628.62	58.739
628.95	61.122
629.28	58.835
629.61	62.022
629.94	59.546
630.26	59.841
630.59	62.010
630.92	60.060
631.25	60.484
631.58	63.598
631.91	61.064
632.24	60.333
632.57	60.889
632.90	60.690
