SpectraSuite Data File
++++++++++++++++++++++++++++++++++++
Date: Sat May 16 11:28:18 PDT 2015
User: schluterlab
Dark Spectrum Present: Yes
Reference Spectrum Present: Yes
Number of Sampled Component Spectra: 1
Spectrometers: USB2E3373
Integration Time (usec): 3000 (USB2E3373)
Spectra Averaged: 3 (USB2E3373)
Boxcar Smoothing: 0 (USB2E3373)
Correct for Electrical Dark: No (USB2E3373)
Strobe/Lamp Enabled: No (USB2E3373)
Correct for Detector Non-linearity: No (USB2E3373)
Correct for Stray Light: No (USB2E3373)
Number of Pixels in Processed Spectrum: 2048
>>>>>Begin Processed Spectral Data<<<<<
178.53	0.000
178.91	66.667
179.29	633.333
179.67	-900.000
180.04	-61.538
180.42	200.000
180.80	425.000
181.18	400.000
181.56	-50.000
181.94	1000.000
182.31	425.000
182.69	-69.231
183.07	-466.667
183.45	1700.000
183.83	566.667
184.20	-42.857
184.58	-187.500
184.96	-400.000
185.34	87.500
185.72	-725.000
186.09	166.667
186.47	-150.000
186.85	-350.000
187.23	0.000
187.61	-450.000
187.98	-237.500
188.36	-212.500
188.74	-112.500
189.12	1100.000
189.49	385.714
189.87	-33.333
190.25	500.000
190.63	-57.143
191.00	-222.222
191.38	340.000
191.76	-46.667
192.14	720.000
192.51	-340.000
192.89	-466.667
193.27	0.000
193.65	-77.778
194.02	-185.714
194.40	566.667
194.78	-30.000
195.15	-1700.000
195.53	-54.545
195.91	-516.667
196.29	200.000
196.66	-500.000
197.04	2700.000
197.42	-150.000
197.79	-33.333
198.17	-300.000
198.55	-500.000
198.92	-800.000
199.30	275.000
199.68	-600.000
200.05	-233.333
200.43	-133.333
200.81	-1500.000
201.18	-191.667
201.56	185.714
201.94	-73.333
202.31	9.091
202.69	-120.000
203.07	-80.000
203.44	266.667
203.82	-400.000
204.19	-450.000
204.57	-250.000
204.95	-2400.000
205.32	6.250
205.70	600.000
206.08	-2700.000
206.45	-33.333
206.83	-900.000
207.20	-500.000
207.58	-500.000
207.96	-733.333
208.33	0.000
208.71	-166.667
209.08	170.000
209.46	-128.571
209.84	900.000
210.21	0.000
210.59	15.000
210.96	1500.000
211.34	-283.333
211.71	-300.000
212.09	400.000
212.46	900.000
212.84	-1600.000
213.22	366.667
213.59	141.667
213.97	55.556
214.34	170.000
214.72	-110.000
215.09	-366.667
215.47	-150.000
215.84	-20.000
216.22	-140.000
216.59	-66.667
216.97	-275.000
217.34	950.000
217.72	-128.571
218.09	-333.333
218.47	-185.714
218.84	228.571
219.22	0.000
219.59	0.000
219.97	185.714
220.34	550.000
220.72	350.000
221.09	-123.077
221.47	0.000
221.84	33.333
222.22	-400.000
222.59	1900.000
222.97	-212.500
223.34	-1600.000
223.72	-533.333
224.09	-28.571
224.46	-375.000
224.84	-14.286
225.21	-171.429
225.59	-118.182
225.96	-150.000
226.34	-85.714
226.71	-166.667
227.08	-20.000
227.46	1400.000
227.83	-85.714
228.21	-287.500
228.58	650.000
228.95	-50.000
229.33	-1200.000
229.70	-240.000
230.08	-800.000
230.45	-66.667
230.82	-133.333
231.20	-2100.000
231.57	-500.000
231.95	1000.000
232.32	-23.810
232.69	-111.111
233.07	-228.571
233.44	-1000.000
233.81	-40.000
234.19	-100.000
234.56	-87.500
234.93	18.750
235.31	-271.429
235.68	-164.286
236.05	-29.412
236.43	-45.455
236.80	-6.452
237.17	-29.167
237.55	-66.667
237.92	-63.636
238.29	-11.429
238.67	-17.647
239.04	-52.778
239.41	-58.065
239.79	-41.026
240.16	-52.381
240.53	-25.455
240.91	-15.385
241.28	-12.727
241.65	-1.538
242.02	-3.279
242.40	-21.311
242.77	-28.788
243.14	-16.949
243.51	-17.143
243.89	-20.253
244.26	-15.730
244.63	-12.632
245.00	-11.579
245.38	-2.542
245.75	-8.850
246.12	-8.000
246.49	2.362
246.87	-3.252
247.24	-11.017
247.61	-20.339
247.98	-2.817
248.36	-15.385
248.73	-3.165
249.10	-8.280
249.47	-5.263
249.84	0.568
250.22	-11.905
250.59	-3.955
250.96	-5.236
251.33	1.422
251.70	-5.769
252.08	-5.687
252.45	-5.687
252.82	-5.238
253.19	-2.128
253.56	-2.419
253.94	-6.751
254.31	-5.579
254.68	-3.659
255.05	-6.048
255.42	-1.984
255.79	-5.018
256.16	-2.745
256.54	-2.941
256.91	-0.379
257.28	-0.366
257.65	-6.738
258.02	1.258
258.39	-2.341
258.76	-4.054
259.14	-0.926
259.51	0.656
259.88	-2.439
260.25	1.553
260.62	-2.251
260.99	-4.748
261.36	-1.220
261.73	1.156
262.10	-2.778
262.47	-3.134
262.85	0.571
263.22	-1.719
263.59	-4.000
263.96	-2.319
264.33	-3.252
264.70	-0.552
265.07	0.000
265.44	-2.067
265.81	-3.618
266.18	-0.759
266.55	-1.225
266.92	-1.008
267.29	-0.242
267.66	-3.704
268.03	1.449
268.40	1.878
268.77	0.482
269.14	-2.552
269.51	-1.379
269.88	-0.459
270.25	-2.797
270.62	-2.059
270.99	-0.450
271.36	-2.564
271.73	-3.587
272.10	-3.432
272.47	-3.111
272.84	1.333
273.21	-2.294
273.58	0.659
273.95	-2.412
274.32	-1.584
274.69	-1.094
275.06	-0.613
275.43	-2.679
275.80	1.629
276.17	-0.837
276.54	-0.815
276.91	-1.235
277.28	0.203
277.65	-1.653
278.02	-0.418
278.39	0.196
278.76	-2.191
279.13	-0.395
279.50	0.000
279.87	0.846
280.23	0.000
280.60	-1.392
280.97	-3.107
281.34	0.774
281.71	-1.154
282.08	-3.226
282.45	-2.037
282.82	-2.519
283.19	-0.727
283.56	0.549
283.92	-1.237
284.29	-3.717
284.66	-0.719
285.03	0.891
285.40	0.923
285.77	0.175
286.14	0.542
286.51	-2.487
286.87	-0.363
287.24	-1.365
287.61	0.165
287.98	-1.040
288.35	-0.496
288.72	-4.584
289.08	-2.034
289.45	-0.842
289.82	-2.422
290.19	0.821
290.56	-1.653
290.93	-1.431
291.29	-2.917
291.66	-0.483
292.03	-0.942
292.40	0.753
292.77	-0.155
293.13	-0.650
293.50	-0.446
293.87	0.767
294.24	-1.810
294.60	-2.727
294.97	1.517
295.34	-2.222
295.71	-0.893
296.08	-2.304
296.44	-1.574
296.81	1.282
297.18	-1.972
297.55	-0.706
297.91	0.976
298.28	-1.781
298.65	-0.418
299.02	0.000
299.38	-0.267
299.75	0.136
300.12	-0.256
300.48	-0.128
300.85	-0.917
301.22	0.000
301.59	-1.691
301.95	1.763
302.32	-1.434
302.69	0.122
303.05	-0.611
303.42	-1.500
303.79	0.598
304.15	0.355
304.52	-0.817
304.89	-0.472
305.25	-0.855
305.62	-0.940
305.99	0.942
306.35	0.222
306.72	-0.911
307.09	0.114
307.45	-1.135
307.82	-0.559
308.19	-2.013
308.55	0.327
308.92	-1.611
309.29	0.432
309.65	0.106
310.02	-0.540
310.38	-1.189
310.75	-0.102
311.12	0.517
311.48	-0.209
311.85	0.000
312.22	-0.309
312.58	0.712
312.95	-0.612
313.31	0.000
313.68	1.508
314.05	1.978
314.41	0.201
314.78	-0.899
315.14	0.888
315.51	0.507
315.87	0.871
316.24	0.583
316.61	2.015
316.97	0.597
317.34	1.060
317.70	0.742
318.07	1.493
318.43	0.843
318.80	2.347
319.16	0.469
319.53	1.316
319.89	1.129
320.26	0.686
320.62	1.731
320.99	1.990
321.35	0.394
321.72	0.000
322.08	2.275
322.45	1.188
322.81	1.345
323.18	2.305
323.54	1.941
323.91	2.966
324.27	3.232
324.64	2.559
325.00	3.927
325.37	4.253
325.73	5.074
326.10	2.746
326.46	4.641
326.83	4.681
327.19	6.339
327.56	7.411
327.92	6.032
328.29	8.571
328.65	6.455
329.01	7.067
329.38	8.831
329.74	8.791
330.11	8.885
330.47	8.084
330.84	9.991
331.20	9.296
331.56	9.389
331.93	9.769
332.29	11.416
332.66	11.940
333.02	11.222
333.38	11.649
333.75	11.843
334.11	11.289
334.48	11.827
334.84	13.911
335.20	13.032
335.57	13.357
335.93	14.145
336.29	14.172
336.66	13.744
337.02	14.144
337.38	12.923
337.75	14.311
338.11	13.148
338.47	14.680
338.84	14.156
339.20	14.675
339.56	15.330
339.93	14.727
340.29	13.906
340.65	15.035
341.02	15.093
341.38	14.575
341.74	14.818
342.11	15.017
342.47	14.592
342.83	14.190
343.20	14.091
343.56	13.469
343.92	16.027
344.28	16.232
344.65	15.429
345.01	14.118
345.37	15.449
345.73	14.894
346.10	14.146
346.46	14.785
346.82	14.916
347.19	15.530
347.55	14.848
347.91	14.409
348.27	15.354
348.63	15.913
349.00	15.672
349.36	13.895
349.72	16.481
350.08	15.397
350.45	15.997
350.81	15.207
351.17	14.550
351.53	15.593
351.89	14.632
352.26	15.659
352.62	15.284
352.98	14.953
353.34	15.747
353.70	14.595
354.07	16.050
354.43	15.968
354.79	14.818
355.15	15.176
355.51	15.078
355.87	14.783
356.24	15.647
356.60	16.197
356.96	16.551
357.32	15.439
357.68	16.015
358.04	16.012
358.40	16.319
358.77	15.920
359.13	15.991
359.49	16.629
359.85	15.930
360.21	15.297
360.57	16.416
360.93	16.889
361.29	16.816
361.66	15.244
362.02	16.346
362.38	16.508
362.74	15.971
363.10	15.710
363.46	17.165
363.82	15.671
364.18	16.064
364.54	16.369
364.90	16.282
365.26	15.977
365.62	17.391
365.98	16.927
366.35	17.254
366.71	16.490
367.07	16.725
367.43	17.708
367.79	16.976
368.15	15.932
368.51	17.343
368.87	17.926
369.23	17.474
369.59	16.875
369.95	16.772
370.31	17.300
370.67	16.197
371.03	17.055
371.39	16.832
371.75	18.026
372.11	17.217
372.47	17.137
372.83	17.663
373.19	17.357
373.55	17.171
373.91	16.714
374.27	17.043
374.63	17.736
374.99	17.942
375.35	18.035
375.71	18.096
376.07	17.728
376.42	16.954
376.78	18.431
377.14	19.119
377.50	18.311
377.86	18.791
378.22	18.279
378.58	17.789
378.94	18.681
379.30	18.830
379.66	19.854
380.02	18.122
380.38	18.429
380.74	18.406
381.09	19.508
381.45	19.033
381.81	19.419
382.17	18.421
382.53	18.845
382.89	19.557
383.25	19.266
383.61	19.222
383.97	19.473
384.32	19.962
384.68	18.682
385.04	19.505
385.40	19.537
385.76	20.183
386.12	19.363
386.48	19.678
386.83	20.552
387.19	20.562
387.55	19.503
387.91	19.146
388.27	19.300
388.62	19.591
388.98	19.503
389.34	19.645
389.70	19.854
390.06	20.385
390.42	20.769
390.77	20.000
391.13	20.000
391.49	19.401
391.85	19.140
392.20	20.449
392.56	19.304
392.92	20.137
393.28	20.781
393.64	20.505
393.99	19.815
394.35	19.951
394.71	20.445
395.07	19.523
395.42	19.309
395.78	20.113
396.14	20.062
396.50	19.694
396.85	20.111
397.21	19.137
397.57	19.635
397.92	19.848
398.28	20.222
398.64	19.155
399.00	20.112
399.35	20.011
399.71	20.557
400.07	19.821
400.42	20.012
400.78	19.678
401.14	19.880
401.49	19.399
401.85	19.402
402.21	20.024
402.57	19.539
402.92	19.383
403.28	19.730
403.63	18.634
403.99	19.391
404.35	19.082
404.70	19.193
405.06	19.031
405.42	18.573
405.77	17.817
406.13	18.626
406.49	18.814
406.84	18.536
407.20	18.787
407.55	18.113
407.91	17.681
408.27	19.485
408.62	19.002
408.98	18.981
409.34	19.317
409.69	18.967
410.05	18.921
410.40	18.332
410.76	18.672
411.11	19.140
411.47	18.798
411.83	17.848
412.18	18.564
412.54	18.243
412.89	18.044
413.25	18.536
413.60	18.287
413.96	17.991
414.31	18.532
414.67	18.540
415.03	17.853
415.38	18.608
415.74	18.814
416.09	18.734
416.45	18.188
416.80	19.636
417.16	18.272
417.51	18.844
417.87	18.900
418.22	18.900
418.58	19.127
418.93	19.375
419.29	19.197
419.64	18.593
420.00	19.198
420.35	18.332
420.71	18.667
421.06	19.704
421.42	18.326
421.77	19.598
422.12	19.922
422.48	18.974
422.83	19.761
423.19	20.045
423.54	19.366
423.90	19.491
424.25	19.910
424.61	19.059
424.96	20.421
425.31	20.123
425.67	19.312
426.02	19.621
426.38	20.569
426.73	20.222
427.09	19.914
427.44	20.227
427.79	20.465
428.15	20.287
428.50	20.469
428.85	21.523
429.21	19.314
429.56	20.052
429.92	20.291
430.27	20.738
430.62	21.003
430.98	20.857
431.33	21.345
431.68	20.697
432.04	21.041
432.39	21.254
432.74	20.024
433.10	21.441
433.45	20.725
433.80	20.661
434.16	21.548
434.51	21.589
434.86	22.144
435.22	21.437
435.57	21.420
435.92	21.747
436.28	21.484
436.63	21.255
436.98	21.821
437.34	22.268
437.69	21.529
438.04	22.178
438.39	22.202
438.75	21.071
439.10	22.488
439.45	22.692
439.81	22.048
440.16	21.749
440.51	22.235
440.86	22.614
441.22	21.227
441.57	22.053
441.92	22.916
442.27	22.186
442.63	22.103
442.98	21.840
443.33	22.405
443.68	22.251
444.03	22.888
444.39	23.054
444.74	23.128
445.09	23.300
445.44	23.748
445.79	22.998
446.15	23.932
446.50	22.591
446.85	23.089
447.20	22.574
447.55	24.199
447.91	23.807
448.26	22.793
448.61	22.920
448.96	23.473
449.31	22.999
449.66	23.927
450.02	22.770
450.37	23.478
450.72	23.729
451.07	24.324
451.42	23.854
451.77	23.698
452.12	24.136
452.47	24.244
452.83	23.821
453.18	24.288
453.53	24.316
453.88	24.821
454.23	24.244
454.58	25.420
454.93	23.866
455.28	24.793
455.63	24.631
455.98	24.940
456.34	23.062
456.69	24.828
457.04	24.093
457.39	23.744
457.74	24.158
458.09	24.362
458.44	24.538
458.79	23.879
459.14	25.556
459.49	24.512
459.84	24.564
460.19	24.702
460.54	24.259
460.89	24.103
461.24	24.226
461.59	24.443
461.94	25.971
462.29	24.479
462.64	24.769
462.99	24.766
463.34	24.308
463.69	24.873
464.04	23.784
464.39	24.910
464.74	24.468
465.09	23.632
465.44	24.478
465.79	24.196
466.14	24.971
466.49	24.525
466.84	25.570
467.19	25.062
467.54	23.987
467.89	25.092
468.24	24.466
468.59	23.485
468.94	23.987
469.29	24.042
469.64	25.000
469.99	25.321
470.34	25.718
470.68	24.128
471.03	24.914
471.38	23.750
471.73	24.476
472.08	24.297
472.43	25.225
472.78	24.333
473.13	23.194
473.48	25.207
473.83	24.566
474.17	24.713
474.52	25.192
474.87	24.942
475.22	25.015
475.57	24.111
475.92	25.270
476.27	24.229
476.61	25.070
476.96	24.874
477.31	25.081
477.66	25.401
478.01	24.689
478.36	23.625
478.70	25.093
479.05	24.337
479.40	25.285
479.75	23.751
480.10	24.405
480.45	23.356
480.79	24.580
481.14	25.289
481.49	24.879
481.84	24.457
482.19	24.440
482.53	25.237
482.88	24.252
483.23	24.460
483.58	24.422
483.92	24.415
484.27	24.147
484.62	24.838
484.97	24.630
485.31	23.840
485.66	23.361
486.01	23.787
486.36	24.058
486.70	25.103
487.05	24.787
487.40	24.092
487.75	24.340
488.09	23.935
488.44	24.154
488.79	23.877
489.13	23.887
489.48	24.674
489.83	25.284
490.17	24.510
490.52	24.683
490.87	24.296
491.22	24.101
491.56	24.444
491.91	24.475
492.26	23.585
492.60	24.215
492.95	24.131
493.30	24.440
493.64	24.260
493.99	24.283
494.34	25.190
494.68	24.719
495.03	23.662
495.37	23.943
495.72	24.411
496.07	24.730
496.41	25.197
496.76	24.749
497.11	25.294
497.45	25.431
497.80	24.412
498.14	24.460
498.49	23.707
498.84	24.126
499.18	24.756
499.53	24.744
499.87	24.131
500.22	24.559
500.56	24.662
500.91	24.335
501.26	25.473
501.60	23.929
501.95	24.396
502.29	24.374
502.64	25.365
502.98	23.766
503.33	24.342
503.67	23.898
504.02	24.384
504.36	24.461
504.71	23.556
505.06	23.665
505.40	24.501
505.75	23.476
506.09	24.115
506.44	24.160
506.78	24.134
507.13	24.717
507.47	24.935
507.82	23.748
508.16	24.870
508.51	23.338
508.85	23.706
509.19	23.757
509.54	24.630
509.88	24.202
510.23	24.004
510.57	23.968
510.92	23.899
511.26	23.658
511.61	24.190
511.95	24.731
512.30	24.629
512.64	23.762
512.98	24.312
513.33	23.668
513.67	23.395
514.02	23.490
514.36	24.598
514.70	23.599
515.05	24.528
515.39	23.875
515.74	24.549
516.08	23.170
516.42	23.853
516.77	23.859
517.11	23.741
517.46	24.522
517.80	24.850
518.14	23.671
518.49	24.567
518.83	23.739
519.17	25.222
519.52	22.903
519.86	24.791
520.20	23.533
520.55	23.385
520.89	23.607
521.23	24.420
521.58	23.260
521.92	24.826
522.26	24.444
522.61	23.954
522.95	22.591
523.29	23.072
523.64	24.110
523.98	23.425
524.32	23.759
524.66	22.857
525.01	22.993
525.35	25.064
525.69	23.097
526.04	23.890
526.38	24.125
526.72	22.669
527.06	23.112
527.41	22.244
527.75	23.168
528.09	22.502
528.43	22.623
528.78	23.430
529.12	23.431
529.46	22.938
529.80	23.112
530.15	23.245
530.49	22.704
530.83	23.445
531.17	22.020
531.51	22.036
531.86	22.910
532.20	23.887
532.54	24.064
532.88	22.859
533.22	23.195
533.57	23.629
533.91	22.409
534.25	22.502
534.59	22.049
534.93	22.589
535.27	23.033
535.62	23.465
535.96	23.012
536.30	22.251
536.64	23.240
536.98	23.658
537.32	22.322
537.66	22.743
538.01	21.787
538.35	21.824
538.69	22.259
539.03	23.087
539.37	22.023
539.71	22.015
540.05	22.618
540.39	21.676
540.73	22.253
541.07	22.199
541.42	21.540
541.76	21.595
542.10	21.877
542.44	21.985
542.78	22.456
543.12	22.675
543.46	21.027
543.80	22.475
544.14	21.827
544.48	22.047
544.82	21.516
545.16	22.334
545.50	20.929
545.84	22.323
546.18	21.983
546.52	21.479
546.86	21.652
547.20	22.082
547.54	20.523
547.88	22.097
548.22	21.166
548.56	21.176
548.90	22.035
549.24	21.584
549.58	22.159
549.92	22.756
550.26	21.965
550.60	21.622
550.94	22.263
551.28	21.746
551.62	20.901
551.96	21.852
552.30	20.976
552.64	21.816
552.98	21.444
553.32	22.078
553.66	22.062
554.00	21.962
554.34	21.444
554.68	21.199
555.02	22.504
555.36	21.423
555.69	22.063
556.03	20.842
556.37	21.764
556.71	22.405
557.05	22.247
557.39	21.158
557.73	23.049
558.07	21.778
558.41	21.690
558.75	22.357
559.08	20.700
559.42	22.129
559.76	22.853
560.10	22.222
560.44	21.604
560.78	21.851
561.12	21.325
561.45	22.055
561.79	20.418
562.13	21.459
562.47	21.429
562.81	20.297
563.15	21.064
563.48	21.147
563.82	21.298
564.16	20.487
564.50	21.102
564.84	21.230
565.17	21.684
565.51	20.535
565.85	21.771
566.19	21.871
566.52	20.548
566.86	20.228
567.20	21.671
567.54	21.796
567.88	20.045
568.21	20.302
568.55	21.050
568.89	20.030
569.23	21.240
569.56	19.966
569.90	20.496
570.24	20.707
570.57	19.684
570.91	20.095
571.25	20.655
571.59	20.293
571.92	19.881
572.26	20.192
572.60	19.330
572.93	19.666
573.27	18.963
573.61	19.587
573.95	19.665
574.28	19.705
574.62	19.522
574.96	19.118
575.29	19.639
575.63	19.857
575.97	19.579
576.30	19.704
576.64	19.347
576.98	18.686
577.31	19.523
577.65	20.085
577.98	19.701
578.32	18.922
578.66	19.235
578.99	19.561
579.33	19.794
579.67	18.996
580.00	18.502
580.34	19.447
580.67	18.755
581.01	19.333
581.35	19.083
581.68	19.008
582.02	19.075
582.35	18.848
582.69	19.602
583.02	19.651
583.36	19.447
583.70	19.304
584.03	19.019
584.37	18.972
584.70	18.953
585.04	19.114
585.37	18.807
585.71	19.231
586.04	19.326
586.38	19.219
586.72	19.419
587.05	19.116
587.39	18.875
587.72	19.352
588.06	19.312
588.39	19.311
588.73	19.584
589.06	20.332
589.40	20.199
589.73	19.405
590.07	18.864
590.40	19.446
590.73	18.792
591.07	19.590
591.40	19.757
591.74	19.157
592.07	19.505
592.41	19.321
592.74	19.600
593.08	19.773
593.41	19.507
593.75	19.321
594.08	19.482
594.41	19.667
594.75	19.970
595.08	19.398
595.42	19.220
595.75	19.258
596.09	19.014
596.42	20.295
596.75	18.801
597.09	19.768
597.42	18.900
597.75	19.575
598.09	19.611
598.42	19.178
598.76	19.601
599.09	19.179
599.42	18.454
599.76	18.762
600.09	19.427
600.42	19.749
600.76	18.682
601.09	19.180
601.42	18.757
601.76	19.470
602.09	18.855
602.42	19.424
602.76	18.862
603.09	19.637
603.42	18.815
603.76	19.027
604.09	19.143
604.42	19.484
604.76	19.058
605.09	18.897
605.42	19.947
605.75	18.758
606.09	19.220
606.42	18.475
606.75	19.021
607.09	19.409
607.42	19.366
607.75	19.029
608.08	19.611
608.42	19.016
608.75	18.692
609.08	18.461
609.41	19.482
609.75	18.381
610.08	19.069
610.41	18.651
610.74	19.536
611.07	19.726
611.41	19.012
611.74	20.103
612.07	19.817
612.40	19.030
612.73	19.817
613.07	19.318
613.40	18.883
613.73	19.074
614.06	18.671
614.39	18.940
614.72	18.771
615.06	18.533
615.39	17.797
615.72	19.283
616.05	18.609
616.38	19.385
616.71	18.078
617.05	19.421
617.38	19.690
617.71	18.366
618.04	19.068
618.37	19.371
618.70	19.426
619.03	19.025
619.36	19.309
619.69	19.383
620.03	19.008
620.36	18.495
620.69	19.885
621.02	20.091
621.35	19.113
621.68	18.934
622.01	19.417
622.34	19.876
622.67	18.984
623.00	19.740
623.33	19.776
623.66	18.685
623.99	19.850
624.32	18.750
624.65	19.058
624.99	19.044
625.32	18.713
625.65	19.814
625.98	19.327
626.31	20.065
626.64	19.247
626.97	19.092
627.30	19.574
627.63	18.739
627.96	19.321
628.29	19.210
628.62	18.434
628.95	20.472
629.28	19.549
629.61	19.921
629.94	20.605
630.26	19.284
630.59	19.698
630.92	19.620
631.25	20.262
631.58	19.365
631.91	17.766
632.24	18.444
632.57	18.667
632.90	19.425
633.23	19.042
