SpectraSuite Data File
++++++++++++++++++++++++++++++++++++
Date: Sat May 16 11:31:44 PDT 2015
User: schluterlab
Dark Spectrum Present: Yes
Reference Spectrum Present: Yes
Number of Sampled Component Spectra: 1
Spectrometers: USB2E3373
Integration Time (usec): 3000 (USB2E3373)
Spectra Averaged: 3 (USB2E3373)
Boxcar Smoothing: 0 (USB2E3373)
Correct for Electrical Dark: No (USB2E3373)
Strobe/Lamp Enabled: No (USB2E3373)
Correct for Detector Non-linearity: No (USB2E3373)
Correct for Stray Light: No (USB2E3373)
Number of Pixels in Processed Spectrum: 2048
>>>>>Begin Processed Spectral Data<<<<<
178.53	0.000
178.91	86.667
179.29	433.333
179.67	-1500.000
180.04	-38.462
180.42	300.000
180.80	325.000
181.18	200.000
181.56	37.500
181.94	1000.000
182.31	950.000
182.69	-23.077
183.07	-433.333
183.45	1000.000
183.83	133.333
184.20	-214.286
184.58	-262.500
184.96	-300.000
185.34	106.250
185.72	-325.000
186.09	283.333
186.47	-200.000
186.85	-300.000
187.23	-112.500
187.61	-350.000
187.98	-325.000
188.36	-62.500
188.74	-187.500
189.12	700.000
189.49	214.286
189.87	-75.000
190.25	525.000
190.63	-7.143
191.00	-200.000
191.38	420.000
191.76	33.333
192.14	380.000
192.51	-200.000
192.89	-600.000
193.27	0.000
193.65	-133.333
194.02	-257.143
194.40	700.000
194.78	-160.000
195.15	0.000
195.53	-200.000
195.91	-416.667
196.29	160.000
196.66	-666.667
197.04	2000.000
197.42	-425.000
197.79	13.333
198.17	-100.000
198.55	-650.000
198.92	-1600.000
199.30	237.500
199.68	-800.000
200.05	-100.000
200.43	-144.444
200.81	-1500.000
201.18	-66.667
201.56	200.000
201.94	-20.000
202.31	-9.091
202.69	80.000
203.07	-100.000
203.44	500.000
203.82	-266.667
204.19	-375.000
204.57	-200.000
204.95	-2000.000
205.32	-56.250
205.70	400.000
206.08	-2000.000
206.45	-61.111
206.83	-700.000
207.20	100.000
207.58	-733.333
207.96	-66.667
208.33	-100.000
208.71	-144.444
209.08	170.000
209.46	-214.286
209.84	800.000
210.21	0.000
210.59	-5.000
210.96	400.000
211.34	-366.667
211.71	-400.000
212.09	575.000
212.46	1150.000
212.84	-2500.000
213.22	633.333
213.59	191.667
213.97	-11.111
214.34	150.000
214.72	-90.000
215.09	-533.333
215.47	-200.000
215.84	-170.000
216.22	-90.000
216.59	46.667
216.97	-550.000
217.34	1500.000
217.72	-85.714
218.09	-350.000
218.47	-157.143
218.84	285.714
219.22	-71.429
219.59	0.000
219.97	171.429
220.34	325.000
220.72	237.500
221.09	23.077
221.47	0.000
221.84	433.333
222.22	-600.000
222.59	1300.000
222.97	-250.000
223.34	-1300.000
223.72	-500.000
224.09	-64.286
224.46	-175.000
224.84	-14.286
225.21	-200.000
225.59	-145.455
225.96	-125.000
226.34	-42.857
226.71	-100.000
227.08	45.000
227.46	1200.000
227.83	-85.714
228.21	-175.000
228.58	500.000
228.95	-12.500
229.33	-1900.000
229.70	-60.000
230.08	-950.000
230.45	-25.000
230.82	-133.333
231.20	-1100.000
231.57	-50.000
231.95	2100.000
232.32	28.571
232.69	-111.111
233.07	-171.429
233.44	-550.000
233.81	-66.667
234.19	-22.222
234.56	-93.750
234.93	-15.625
235.31	-142.857
235.68	-71.429
236.05	-17.647
236.43	9.091
236.80	19.355
237.17	16.667
237.55	23.810
237.92	-13.636
238.29	17.143
238.67	58.824
239.04	36.111
239.41	3.226
239.79	0.000
240.16	23.810
240.53	50.909
240.91	69.231
241.28	45.455
241.65	63.077
242.02	45.902
242.40	21.311
242.77	43.939
243.14	57.627
243.51	48.571
243.89	55.696
244.26	48.315
244.63	54.737
245.00	62.105
245.38	56.780
245.75	53.982
246.12	49.600
246.49	50.394
246.87	54.472
247.24	55.085
247.61	54.237
247.98	54.225
248.36	56.643
248.73	61.392
249.10	53.503
249.47	56.140
249.84	59.091
250.22	52.381
250.59	59.887
250.96	57.592
251.33	59.242
251.70	57.692
252.08	59.242
252.45	56.872
252.82	57.143
253.19	57.021
253.56	57.661
253.94	58.228
254.31	56.652
254.68	59.756
255.05	56.855
255.42	58.730
255.79	59.140
256.16	67.059
256.54	63.603
256.91	65.530
257.28	58.242
257.65	60.638
258.02	58.491
258.39	58.528
258.76	57.095
259.14	60.185
259.51	65.246
259.88	57.622
260.25	61.491
260.62	64.309
260.99	53.709
261.36	63.415
261.73	63.873
262.10	59.444
262.47	59.544
262.85	60.286
263.22	61.032
263.59	60.000
263.96	63.478
264.33	59.079
264.70	65.746
265.07	61.813
265.44	58.656
265.81	60.207
266.18	56.203
266.55	57.353
266.92	64.987
267.29	62.228
267.66	58.519
268.03	59.903
268.40	58.685
268.77	58.554
269.14	58.005
269.51	58.851
269.88	58.257
270.25	56.876
270.62	61.327
270.99	58.559
271.36	61.305
271.73	58.744
272.10	61.327
272.47	61.111
272.84	60.000
273.21	61.239
273.58	62.198
273.95	62.500
274.32	62.896
274.69	61.707
275.06	56.442
275.43	59.152
275.80	58.859
276.17	62.762
276.54	61.711
276.91	62.346
277.28	58.824
277.65	59.917
278.02	60.543
278.39	55.403
278.76	58.765
279.13	60.079
279.50	62.227
279.87	58.140
280.23	59.514
280.60	62.624
280.97	59.029
281.34	59.768
281.71	57.115
282.08	59.274
282.45	59.063
282.82	57.946
283.19	57.273
283.56	61.355
283.92	59.541
284.29	58.736
284.66	56.115
285.03	54.724
285.40	58.856
285.77	60.702
286.14	57.040
286.51	56.838
286.87	56.806
287.24	57.509
287.61	56.860
287.98	58.406
288.35	54.545
288.72	54.160
289.08	54.915
289.45	53.872
289.82	55.709
290.19	54.516
290.56	53.719
290.93	51.669
291.29	53.647
291.66	50.886
292.03	51.491
292.40	50.301
292.77	52.174
293.13	52.195
293.50	48.886
293.87	49.847
294.24	49.623
294.60	49.242
294.97	50.076
295.34	49.185
295.71	48.958
296.08	47.619
296.44	47.926
296.81	48.860
297.18	46.761
297.55	49.153
297.91	48.675
298.28	45.205
298.65	46.304
299.02	46.925
299.38	45.989
299.75	44.429
300.12	44.615
300.48	43.990
300.85	43.644
301.22	43.338
301.59	44.473
301.95	45.088
302.32	42.373
302.69	42.595
303.05	42.613
303.42	43.625
303.79	43.900
304.15	42.654
304.52	42.707
304.89	41.913
305.25	42.491
305.62	40.071
305.99	42.285
306.35	41.620
306.72	40.774
307.09	41.203
307.45	39.614
307.82	40.223
308.19	41.946
308.55	41.503
308.92	40.709
309.29	40.324
309.65	40.933
310.02	40.389
310.38	39.892
310.75	39.037
311.12	39.463
311.48	40.710
311.85	39.959
312.22	39.650
312.58	39.369
312.95	39.246
313.31	39.261
313.68	39.196
314.05	40.158
314.41	38.330
314.78	37.862
315.14	39.487
315.51	39.412
315.87	39.400
316.24	38.581
316.61	39.155
316.97	39.005
317.34	38.921
317.70	39.054
318.07	38.060
318.43	38.296
318.80	40.188
319.16	37.054
319.53	37.876
319.89	36.124
320.26	38.431
320.62	37.212
320.99	37.711
321.35	36.749
321.72	35.824
322.08	37.685
322.45	38.614
322.81	39.001
323.18	38.905
323.54	38.725
323.91	37.535
324.27	38.403
324.64	37.569
325.00	36.126
325.37	37.195
325.73	38.145
326.10	35.961
326.46	36.602
326.83	36.851
327.19	36.530
327.56	38.671
327.92	37.213
328.29	35.931
328.65	36.545
329.01	37.367
329.38	36.307
329.74	38.187
330.11	37.625
330.47	35.967
330.84	36.755
331.20	36.282
331.56	35.460
331.93	36.945
332.29	37.443
332.66	36.084
333.02	36.380
333.38	36.201
333.75	36.776
334.11	36.178
334.48	35.569
334.84	35.346
335.20	35.461
335.57	35.018
335.93	37.601
336.29	34.455
336.66	33.568
337.02	36.126
337.38	34.314
337.75	34.855
338.11	36.673
338.47	35.587
338.84	35.481
339.20	34.183
339.56	35.740
339.93	35.714
340.29	34.367
340.65	35.052
341.02	34.739
341.38	34.204
341.74	34.716
342.11	34.215
342.47	34.249
342.83	34.929
343.20	35.525
343.56	33.878
343.92	33.973
344.28	35.828
344.65	33.168
345.01	35.462
345.37	35.299
345.73	32.815
346.10	32.543
346.46	32.656
346.82	33.200
347.19	33.443
347.55	33.226
347.91	34.094
348.27	33.413
348.63	33.118
349.00	33.333
349.36	31.616
349.72	33.997
350.08	33.681
350.45	32.703
350.81	33.360
351.17	33.280
351.53	33.095
351.89	33.872
352.26	33.798
352.62	34.485
352.98	33.070
353.34	33.973
353.70	31.737
354.07	33.910
354.43	32.964
354.79	32.488
355.15	33.387
355.51	32.812
355.87	32.806
356.24	32.168
356.60	34.649
356.96	32.256
357.32	33.175
357.68	31.724
358.04	32.256
358.40	32.715
358.77	33.308
359.13	32.976
359.49	32.577
359.85	32.470
360.21	32.192
360.57	32.756
360.93	33.630
361.29	34.305
361.66	32.698
362.02	32.544
362.38	32.942
362.74	32.308
363.10	31.851
363.46	33.405
363.82	32.289
364.18	31.404
364.54	32.738
364.90	32.425
365.26	31.170
365.62	32.074
365.98	32.788
366.35	32.535
366.71	31.924
367.07	32.463
367.43	32.533
367.79	32.440
368.15	32.006
368.51	32.308
368.87	32.486
369.23	31.860
369.59	32.014
369.95	32.065
370.31	33.263
370.67	31.309
371.03	32.580
371.39	31.047
371.75	32.546
372.11	31.564
372.47	32.176
372.83	32.406
373.19	31.929
373.55	31.879
373.91	31.935
374.27	31.075
374.63	31.746
374.99	32.893
375.35	31.494
375.71	32.005
376.07	31.691
376.42	30.331
376.78	32.353
377.14	32.000
377.50	32.108
377.86	32.250
378.22	31.470
378.58	31.316
378.94	30.826
379.30	31.932
379.66	31.937
380.02	32.442
380.38	32.447
380.74	31.184
381.09	31.634
381.45	32.160
381.81	31.397
382.17	31.892
382.53	30.334
382.89	31.758
383.25	31.367
383.61	31.427
383.97	31.966
384.32	32.979
384.68	32.950
385.04	30.797
385.40	32.075
385.76	31.098
386.12	30.793
386.48	32.240
386.83	31.718
387.19	32.218
387.55	31.254
387.91	31.298
388.27	31.062
388.62	31.911
388.98	31.435
389.34	31.701
389.70	31.912
390.06	31.821
390.42	32.564
390.77	30.978
391.13	32.981
391.49	31.254
391.85	32.357
392.20	31.614
392.56	32.254
392.92	31.717
393.28	31.343
393.64	31.509
393.99	32.677
394.35	31.691
394.71	31.995
395.07	33.208
395.42	31.704
395.78	31.238
396.14	32.399
396.50	32.416
396.85	32.881
397.21	32.017
397.57	32.036
397.92	32.963
398.28	32.056
398.64	31.350
399.00	32.697
399.35	31.736
399.71	32.636
400.07	31.701
400.42	32.117
400.78	31.783
401.14	32.275
401.49	32.724
401.85	32.215
402.21	32.598
402.57	32.039
402.92	32.725
403.28	31.250
403.63	31.516
403.99	32.132
404.35	31.582
404.70	31.773
405.06	32.584
405.42	31.365
405.77	31.278
406.13	32.254
406.49	32.594
406.84	32.513
407.20	31.802
407.55	31.666
407.91	32.254
408.27	32.659
408.62	31.870
408.98	31.898
409.34	32.846
409.69	32.955
410.05	32.201
410.40	32.189
410.76	31.180
411.11	32.107
411.47	31.969
411.83	31.907
412.18	32.116
412.54	30.872
412.89	31.592
413.25	31.110
413.60	31.835
413.96	30.930
414.31	31.193
414.67	31.556
415.03	31.565
415.38	32.336
415.74	32.088
416.09	31.841
416.45	31.349
416.80	31.404
417.16	30.631
417.51	31.845
417.87	31.909
418.22	31.416
418.58	30.809
418.93	31.821
419.29	31.242
419.64	30.967
420.00	32.139
420.35	32.407
420.71	31.753
421.06	31.538
421.42	30.855
421.77	31.267
422.12	32.065
422.48	32.015
422.83	32.916
423.19	31.849
423.54	31.643
423.90	31.695
424.25	31.278
424.61	31.604
424.96	31.831
425.31	32.309
425.67	31.404
426.02	30.924
426.38	31.760
426.73	32.963
427.09	32.292
427.44	31.591
427.79	31.860
428.15	32.077
428.50	32.023
428.85	31.775
429.21	31.267
429.56	32.448
429.92	32.766
430.27	31.904
430.62	32.550
430.98	31.835
431.33	31.857
431.68	32.601
432.04	32.401
432.39	32.479
432.74	32.134
433.10	32.414
433.45	31.146
433.80	31.971
434.16	32.133
434.51	31.945
434.86	31.752
435.22	32.350
435.57	31.334
435.92	32.649
436.28	32.463
436.63	31.148
436.98	31.157
437.34	32.546
437.69	31.622
438.04	32.104
438.39	32.551
438.75	32.596
439.10	32.038
439.45	31.080
439.81	31.807
440.16	32.482
440.51	32.353
440.86	32.389
441.22	31.564
441.57	32.263
441.92	32.737
442.27	32.197
442.63	32.135
442.98	31.603
443.33	32.510
443.68	32.256
444.03	32.809
444.39	32.012
444.74	33.370
445.09	32.346
445.44	33.315
445.79	33.146
446.15	32.421
446.50	31.301
446.85	31.657
447.20	32.022
447.55	31.878
447.91	32.622
448.26	31.732
448.61	31.183
448.96	32.941
449.31	31.905
449.66	31.712
450.02	31.080
450.37	30.435
450.72	31.977
451.07	32.244
451.42	32.156
451.77	31.658
452.12	30.572
452.47	32.305
452.83	32.382
453.18	32.321
453.53	33.147
453.88	32.297
454.23	31.741
454.58	33.686
454.93	30.982
455.28	32.505
455.63	32.064
455.98	32.771
456.34	31.131
456.69	32.458
457.04	31.776
457.39	31.818
457.74	31.542
458.09	32.425
458.44	32.968
458.79	32.063
459.14	32.402
459.49	31.616
459.84	32.322
460.19	31.504
460.54	32.789
460.89	32.175
461.24	31.815
461.59	31.594
461.94	32.591
462.29	32.579
462.64	31.621
462.99	32.195
463.34	32.343
463.69	31.997
464.04	31.224
464.39	30.884
464.74	32.801
465.09	30.968
465.44	31.980
465.79	32.262
466.14	32.163
466.49	31.606
466.84	32.653
467.19	31.733
467.54	31.203
467.89	32.121
468.24	32.126
468.59	31.543
468.94	31.576
469.29	31.774
469.64	31.806
469.99	32.343
470.34	31.530
470.68	31.904
471.03	31.521
471.38	31.250
471.73	31.259
472.08	31.392
472.43	30.373
472.78	30.733
473.13	31.213
473.48	31.270
473.83	31.266
474.17	30.955
474.52	32.801
474.87	31.585
475.22	30.973
475.57	30.611
475.92	32.289
476.27	30.914
476.61	31.606
476.96	31.750
477.31	31.916
477.66	31.157
478.01	31.551
478.36	31.063
478.70	32.301
479.05	31.585
479.40	31.710
479.75	31.244
480.10	31.250
480.45	31.141
480.79	31.935
481.14	30.908
481.49	31.559
481.84	30.791
482.19	32.206
482.53	32.481
482.88	31.989
483.23	30.986
483.58	32.377
483.92	32.011
484.27	31.148
484.62	31.102
484.97	31.294
485.31	30.528
485.66	31.522
486.01	32.114
486.36	32.894
486.70	33.525
487.05	32.547
487.40	32.639
487.75	32.004
488.09	31.902
488.44	31.631
488.79	31.305
489.13	32.027
489.48	31.607
489.83	32.402
490.17	31.258
490.52	31.295
490.87	30.115
491.22	31.247
491.56	31.111
491.91	32.300
492.26	31.179
492.60	31.399
492.95	31.080
493.30	30.729
493.64	30.559
493.99	31.644
494.34	31.238
494.68	31.414
495.03	31.453
495.37	31.170
495.72	30.796
496.07	31.018
496.41	31.820
496.76	31.507
497.11	31.229
497.45	31.705
497.80	31.216
498.14	31.925
498.49	30.437
498.84	32.136
499.18	31.823
499.53	31.612
499.87	30.405
500.22	32.010
500.56	31.116
500.91	31.330
501.26	30.907
501.60	30.766
501.95	31.546
502.29	31.034
502.64	32.202
502.98	31.097
503.33	31.156
503.67	31.034
504.02	31.482
504.36	31.961
504.71	30.851
505.06	30.155
505.40	31.287
505.75	31.707
506.09	31.193
506.44	31.529
506.78	31.159
507.13	29.866
507.47	31.195
507.82	31.285
508.16	31.762
508.51	30.654
508.85	30.849
509.19	30.769
509.54	30.973
509.88	31.223
510.23	30.870
510.57	32.169
510.92	31.740
511.26	30.622
511.61	30.454
511.95	31.088
512.30	31.336
512.64	30.273
512.98	32.178
513.33	31.301
513.67	30.597
514.02	30.761
514.36	31.413
514.70	31.296
515.05	31.504
515.39	30.219
515.74	32.112
516.08	30.317
516.42	31.445
516.77	31.369
517.11	31.064
517.46	32.656
517.80	31.468
518.14	30.857
518.49	30.962
518.83	30.267
519.17	31.320
519.52	30.422
519.86	30.765
520.20	31.357
520.55	31.508
520.89	29.618
521.23	31.441
521.58	30.345
521.92	31.159
522.26	30.476
522.61	29.785
522.95	29.675
523.29	30.596
523.64	29.919
523.98	31.572
524.32	30.421
524.66	31.366
525.01	31.663
525.35	31.314
525.69	31.034
526.04	31.593
526.38	31.572
526.72	30.779
527.06	30.664
527.41	30.957
527.75	30.825
528.09	30.510
528.43	30.492
528.78	31.721
529.12	31.562
529.46	31.186
529.80	30.923
530.15	30.650
530.49	31.048
530.83	32.744
531.17	31.380
531.51	30.141
531.86	31.731
532.20	30.567
532.54	30.949
532.88	30.896
533.22	32.487
533.57	31.723
533.91	31.211
534.25	29.541
534.59	29.856
534.93	31.052
535.27	31.529
535.62	31.266
535.96	30.834
536.30	30.236
536.64	31.474
536.98	31.850
537.32	30.408
537.66	31.093
538.01	31.134
538.35	31.284
538.69	30.882
539.03	30.603
539.37	31.071
539.71	32.288
540.05	32.351
540.39	30.332
540.73	31.583
541.07	32.377
541.42	31.195
541.76	31.761
542.10	32.748
542.44	31.646
542.78	32.700
543.12	32.315
543.46	29.932
543.80	30.635
544.14	31.363
544.48	32.218
544.82	32.612
545.16	32.193
545.50	31.023
545.84	31.780
546.18	32.247
546.52	31.223
546.86	31.410
547.20	31.013
547.54	30.992
547.88	32.050
548.22	31.782
548.56	30.728
548.90	32.412
549.24	30.974
549.58	31.263
549.92	31.873
550.26	32.370
550.60	30.725
550.94	31.752
551.28	33.333
551.62	30.945
551.96	31.838
552.30	31.777
552.64	31.738
552.98	31.254
553.32	31.602
553.66	32.012
554.00	31.557
554.34	30.830
554.68	31.213
555.02	32.272
555.36	31.272
555.69	32.307
556.03	31.439
556.37	31.721
556.71	31.997
557.05	32.225
557.39	31.923
557.73	31.072
558.07	31.650
558.41	31.339
558.75	31.407
559.08	30.895
559.42	31.470
559.76	31.518
560.10	31.693
560.44	32.298
560.78	32.220
561.12	32.298
561.45	31.781
561.79	32.125
562.13	31.627
562.47	31.443
562.81	31.542
563.15	31.840
563.48	31.790
563.82	32.454
564.16	31.846
564.50	31.183
564.84	31.680
565.17	32.095
565.51	31.812
565.85	33.942
566.19	32.872
566.52	32.224
566.86	31.795
567.20	32.869
567.54	34.318
567.88	32.775
568.21	32.998
568.55	32.874
568.89	32.306
569.23	33.133
569.56	32.535
569.90	33.517
570.24	33.784
570.57	32.759
570.91	33.560
571.25	33.042
571.59	33.594
571.92	33.542
572.26	32.984
572.60	33.509
572.93	32.735
573.27	32.530
573.61	33.295
573.95	33.901
574.28	33.118
574.62	33.732
574.96	33.225
575.29	32.978
575.63	33.183
575.97	33.091
576.30	33.132
576.64	33.238
576.98	33.118
577.31	34.064
577.65	33.304
577.98	33.984
578.32	33.803
578.66	33.606
578.99	33.843
579.33	33.434
579.67	32.868
580.00	33.631
580.34	33.684
580.67	33.292
581.01	33.158
581.35	33.516
581.68	33.721
582.02	34.239
582.35	33.938
582.69	34.373
583.02	34.461
583.36	34.271
583.70	33.487
584.03	34.052
584.37	33.802
584.70	33.492
585.04	33.848
585.37	33.628
585.71	33.720
586.04	33.688
586.38	33.654
586.72	33.540
587.05	33.985
587.39	33.652
587.72	33.820
588.06	33.673
588.39	34.064
588.73	33.887
589.06	34.271
589.40	33.803
589.73	33.251
590.07	33.358
590.40	33.616
590.73	33.587
591.07	33.197
591.40	33.925
591.74	33.319
592.07	33.153
592.41	33.758
592.74	34.166
593.08	33.814
593.41	33.882
593.75	32.707
594.08	34.040
594.41	33.494
594.75	33.182
595.08	33.797
595.42	33.634
595.75	33.885
596.09	33.721
596.42	33.715
596.75	33.851
597.09	33.482
597.42	32.388
597.75	33.127
598.09	34.207
598.42	32.833
598.76	33.929
599.09	32.794
599.42	32.680
599.76	33.711
600.09	33.664
600.42	33.574
600.76	33.672
601.09	33.878
601.42	33.439
601.76	33.684
602.09	33.456
602.42	33.663
602.76	33.112
603.09	33.266
603.42	34.005
603.76	33.785
604.09	33.520
604.42	33.222
604.76	33.580
605.09	33.409
605.42	33.599
605.75	33.247
606.09	32.918
606.42	33.599
606.75	32.031
607.09	33.348
607.42	33.275
607.75	32.980
608.08	33.620
608.42	34.248
608.75	33.411
609.08	33.415
609.41	33.383
609.75	32.960
610.08	33.039
610.41	33.157
610.74	33.607
611.07	32.657
611.41	32.325
611.74	34.242
612.07	34.103
612.40	32.783
612.73	33.333
613.07	32.966
613.40	33.333
613.73	33.842
614.06	32.949
614.39	33.258
614.72	32.402
615.06	32.174
615.39	32.664
615.72	33.786
616.05	32.247
616.38	32.327
616.71	32.072
617.05	33.715
617.38	33.437
617.71	32.555
618.04	33.665
618.37	33.270
618.70	33.507
619.03	31.754
619.36	33.122
619.69	31.945
620.03	32.163
620.36	32.771
620.69	31.228
621.02	32.572
621.35	31.694
621.68	32.869
622.01	31.553
622.34	33.230
622.67	32.344
623.00	32.823
623.33	33.582
623.66	31.462
623.99	32.481
624.32	33.185
624.65	32.156
624.99	32.860
625.32	32.036
625.65	32.323
625.98	31.925
626.31	32.137
626.64	32.803
626.97	31.507
627.30	32.681
627.63	31.520
627.96	30.809
628.29	30.974
628.62	31.423
628.95	32.579
629.28	31.673
629.61	32.974
629.94	31.096
630.26	31.113
630.59	32.965
630.92	31.131
631.25	32.460
631.58	31.111
631.91	29.149
