SpectraSuite Data File
++++++++++++++++++++++++++++++++++++
Date: Sat May 16 11:43:42 PDT 2015
User: schluterlab
Dark Spectrum Present: Yes
Reference Spectrum Present: Yes
Number of Sampled Component Spectra: 1
Spectrometers: USB2E3373
Integration Time (usec): 3000 (USB2E3373)
Spectra Averaged: 3 (USB2E3373)
Boxcar Smoothing: 0 (USB2E3373)
Correct for Electrical Dark: No (USB2E3373)
Strobe/Lamp Enabled: No (USB2E3373)
Correct for Detector Non-linearity: No (USB2E3373)
Correct for Stray Light: No (USB2E3373)
Number of Pixels in Processed Spectrum: 2048
>>>>>Begin Processed Spectral Data<<<<<
178.53	0.000
178.91	153.333
179.29	633.333
179.67	-1100.000
180.04	-30.769
180.42	1100.000
180.80	400.000
181.18	450.000
181.56	-37.500
181.94	200.000
182.31	625.000
182.69	-53.846
183.07	-466.667
183.45	1000.000
183.83	500.000
184.20	-285.714
184.58	12.500
184.96	-350.000
185.34	131.250
185.72	-300.000
186.09	416.667
186.47	-187.500
186.85	-337.500
187.23	-75.000
187.61	-325.000
187.98	-300.000
188.36	-125.000
188.74	-150.000
189.12	1500.000
189.49	228.571
189.87	-33.333
190.25	275.000
190.63	0.000
191.00	-166.667
191.38	340.000
191.76	6.667
192.14	480.000
192.51	-380.000
192.89	-466.667
193.27	0.000
193.65	-100.000
194.02	-257.143
194.40	866.667
194.78	-120.000
195.15	-1300.000
195.53	-109.091
195.91	-516.667
196.29	300.000
196.66	-766.667
197.04	1900.000
197.42	-125.000
197.79	53.333
198.17	-533.333
198.55	-600.000
198.92	-700.000
199.30	212.500
199.68	-1000.000
200.05	-188.889
200.43	-266.667
200.81	-900.000
201.18	-183.333
201.56	214.286
201.94	-20.000
202.31	-22.727
202.69	10.000
203.07	-40.000
203.44	766.667
203.82	-383.333
204.19	-625.000
204.57	-350.000
204.95	-700.000
205.32	-62.500
205.70	1000.000
206.08	-1400.000
206.45	-33.333
206.83	-900.000
207.20	-50.000
207.58	-433.333
207.96	-266.667
208.33	-212.500
208.71	-133.333
209.08	250.000
209.46	-171.429
209.84	700.000
210.21	0.000
210.59	10.000
210.96	500.000
211.34	-116.667
211.71	-466.667
212.09	450.000
212.46	1250.000
212.84	-2600.000
213.22	600.000
213.59	175.000
213.97	-77.778
214.34	190.000
214.72	-80.000
215.09	-433.333
215.47	-150.000
215.84	-60.000
216.22	-90.000
216.59	-13.333
216.97	-400.000
217.34	800.000
217.72	-285.714
218.09	-166.667
218.47	-228.571
218.84	285.714
219.22	-114.286
219.59	0.000
219.97	285.714
220.34	350.000
220.72	200.000
221.09	-46.154
221.47	0.000
221.84	666.667
222.22	-150.000
222.59	2300.000
222.97	-162.500
223.34	-600.000
223.72	-400.000
224.09	-64.286
224.46	-300.000
224.84	-21.429
225.21	-214.286
225.59	-81.818
225.96	-175.000
226.34	-128.571
226.71	-233.333
227.08	-30.000
227.46	2000.000
227.83	-257.143
228.21	-187.500
228.58	500.000
228.95	-62.500
229.33	-1000.000
229.70	-260.000
230.08	-900.000
230.45	-66.667
230.82	-83.333
231.20	-2000.000
231.57	-1150.000
231.95	1600.000
232.32	-28.571
232.69	-144.444
233.07	-171.429
233.44	-1400.000
233.81	-133.333
234.19	-11.111
234.56	-56.250
234.93	9.375
235.31	-185.714
235.68	-157.143
236.05	-47.059
236.43	-95.455
236.80	-29.032
237.17	-8.333
237.55	-38.095
237.92	-68.182
238.29	-34.286
238.67	-2.941
239.04	-33.333
239.41	-41.935
239.79	-46.154
240.16	-47.619
240.53	-21.818
240.91	-15.385
241.28	-25.455
241.65	1.538
242.02	0.000
242.40	-18.033
242.77	-21.212
243.14	-30.508
243.51	-25.714
243.89	-16.456
244.26	-22.472
244.63	-5.263
245.00	-13.684
245.38	-2.542
245.75	-1.770
246.12	-8.000
246.49	-7.874
246.87	-6.504
247.24	-11.864
247.61	-16.102
247.98	-2.113
248.36	-11.888
248.73	-3.797
249.10	-10.191
249.47	-4.094
249.84	-1.136
250.22	-10.119
250.59	-3.390
250.96	-4.712
251.33	0.948
251.70	-6.731
252.08	-4.739
252.45	-1.896
252.82	-6.190
253.19	-2.128
253.56	-2.016
253.94	-8.861
254.31	-6.009
254.68	-2.033
255.05	-1.210
255.42	-3.968
255.79	-5.735
256.16	-3.137
256.54	-2.574
256.91	-3.788
257.28	-4.762
257.65	-5.674
258.02	4.088
258.39	-6.020
258.76	-4.054
259.14	-6.481
259.51	-1.311
259.88	0.305
260.25	-0.932
260.62	-3.537
260.99	-1.187
261.36	-3.354
261.73	0.000
262.10	1.111
262.47	-1.425
262.85	1.714
263.22	-3.725
263.59	-4.308
263.96	-4.928
264.33	0.271
264.70	-0.276
265.07	-1.648
265.44	-4.393
265.81	-1.809
266.18	-3.544
266.55	-3.186
266.92	-1.763
267.29	-1.937
267.66	0.247
268.03	1.449
268.40	-1.878
268.77	-0.482
269.14	-2.552
269.51	-0.920
269.88	-4.358
270.25	-2.564
270.62	-1.602
270.99	0.000
271.36	-0.233
271.73	-1.570
272.10	-1.144
272.47	-1.556
272.84	1.111
273.21	-0.688
273.58	-2.418
273.95	-1.754
274.32	-0.679
274.69	1.532
275.06	-1.022
275.43	-1.786
275.80	1.629
276.17	1.464
276.54	0.815
276.91	-0.617
277.28	-2.840
277.65	1.033
278.02	-0.418
278.39	1.375
278.76	-2.789
279.13	-0.198
279.50	-1.590
279.87	-1.480
280.23	0.202
280.60	-2.187
280.97	-1.942
281.34	-1.161
281.71	0.769
282.08	-2.016
282.45	-5.703
282.82	-1.163
283.19	1.091
283.56	1.832
283.92	0.177
284.29	-0.372
284.66	1.619
285.03	1.070
285.40	1.476
285.77	0.702
286.14	-1.083
286.51	-1.243
286.87	0.363
287.24	0.683
287.61	0.992
287.98	0.867
288.35	-0.661
288.72	-0.849
289.08	-1.186
289.45	0.842
289.82	-1.730
290.19	1.806
290.56	-1.653
290.93	-0.636
291.29	-0.486
291.66	0.000
292.03	0.942
292.40	0.904
292.77	0.932
293.13	0.813
293.50	1.783
293.87	-0.307
294.24	0.000
294.60	-1.061
294.97	1.214
295.34	-0.148
295.71	-0.298
296.08	-2.611
296.44	0.143
296.81	0.285
297.18	0.000
297.55	0.847
297.91	2.650
298.28	-0.685
298.65	0.697
299.02	2.674
299.38	1.070
299.75	0.272
300.12	-0.385
300.48	1.151
300.85	1.442
301.22	0.906
301.59	0.000
301.95	2.141
302.32	0.000
302.69	1.714
303.05	2.076
303.42	0.000
303.79	1.196
304.15	1.659
304.52	3.034
304.89	1.299
305.25	0.977
305.62	1.410
305.99	4.240
306.35	3.552
306.72	0.114
307.09	2.157
307.45	1.930
307.82	1.006
308.19	1.119
308.55	2.723
308.92	1.504
309.29	1.838
309.65	2.651
310.02	1.836
310.38	1.081
310.75	1.434
311.12	2.376
311.48	1.983
311.85	3.399
312.22	3.399
312.58	4.374
312.95	2.345
313.31	3.497
313.68	4.020
314.05	4.847
314.41	2.616
314.78	2.997
315.14	3.949
315.51	2.837
315.87	4.066
316.24	3.499
316.61	4.127
316.97	4.478
317.34	4.721
317.70	3.711
318.07	4.198
318.43	3.558
318.80	5.728
319.16	4.597
319.53	4.605
319.89	3.763
320.26	5.000
320.62	4.904
320.99	5.572
321.35	4.236
321.72	5.425
322.08	5.143
322.45	5.248
322.81	6.532
323.18	5.668
323.54	5.638
323.91	6.951
324.27	6.179
324.64	6.033
325.00	6.108
325.37	8.416
325.73	8.136
326.10	6.466
326.46	8.056
326.83	7.830
327.19	8.841
327.56	10.136
327.92	9.176
328.29	9.524
328.65	9.273
329.01	10.777
329.38	10.794
329.74	11.447
330.11	10.970
330.47	11.353
330.84	11.182
331.20	11.191
331.56	12.033
331.93	12.700
332.29	11.689
332.66	12.818
333.02	12.941
333.38	12.455
333.75	12.823
334.11	12.356
334.48	11.121
334.84	13.911
335.20	12.943
335.57	12.635
335.93	15.130
336.29	13.818
336.66	13.392
337.02	13.874
337.38	12.834
337.75	14.223
338.11	14.132
338.47	13.790
338.84	13.339
339.20	12.830
339.56	13.815
339.93	13.228
340.29	13.818
340.65	13.811
341.02	14.587
341.38	14.238
341.74	13.802
342.11	13.481
342.47	12.618
342.83	13.014
343.20	14.176
343.56	12.571
343.92	14.023
344.28	14.130
344.65	12.871
345.01	14.370
345.37	14.867
345.73	12.766
346.10	12.428
346.46	14.135
346.82	13.071
347.19	12.983
347.55	13.162
347.91	14.567
348.27	14.240
348.63	14.297
349.00	13.922
349.36	11.944
349.72	13.217
350.08	14.515
350.45	12.845
350.81	14.490
351.17	12.781
351.53	13.365
351.89	12.692
352.26	13.023
352.62	13.978
352.98	13.212
353.34	12.950
353.70	12.046
354.07	13.375
354.43	13.043
354.79	12.441
355.15	13.019
355.51	13.516
355.87	13.676
356.24	12.232
356.60	14.504
356.96	14.704
357.32	12.668
357.68	13.180
358.04	12.933
358.40	13.998
358.77	13.910
359.13	12.395
359.49	13.908
359.85	12.500
360.21	13.166
360.57	13.404
360.93	14.519
361.29	13.453
361.66	11.966
362.02	13.609
362.38	13.793
362.74	13.480
363.10	12.912
363.46	14.316
363.82	14.067
364.18	13.025
364.54	13.796
364.90	13.487
365.26	12.910
365.62	14.326
365.98	14.011
366.35	13.521
366.71	13.460
367.07	14.397
367.43	13.590
367.79	14.227
368.15	13.940
368.51	14.615
368.87	15.179
369.23	14.246
369.59	13.403
369.95	15.152
370.31	14.205
370.67	13.811
371.03	14.213
371.39	13.225
371.75	13.948
372.11	13.702
372.47	14.244
372.83	14.186
373.19	13.643
373.55	14.004
373.91	14.083
374.27	13.210
374.63	14.355
374.99	13.908
375.35	13.055
375.71	14.922
376.07	14.305
376.42	14.437
376.78	15.229
377.14	14.712
377.50	14.571
377.86	14.369
378.22	14.259
378.58	14.083
378.94	14.427
379.30	14.991
379.66	14.268
380.02	13.725
380.38	14.320
380.74	14.771
381.09	14.587
381.45	15.274
381.81	13.672
382.17	14.599
382.53	13.982
382.89	14.474
383.25	15.051
383.61	14.387
383.97	15.187
384.32	14.643
384.68	15.115
385.04	14.674
385.40	14.790
385.76	14.878
386.12	15.365
386.48	15.161
386.83	14.110
387.19	14.824
387.55	14.113
387.91	14.345
388.27	14.475
388.62	15.204
388.98	14.597
389.34	14.994
389.70	16.017
390.06	14.543
390.42	15.256
390.77	14.637
391.13	14.410
391.49	14.598
391.85	15.337
392.20	15.655
392.56	14.356
392.92	14.261
393.28	15.442
393.64	14.973
393.99	15.262
394.35	14.964
394.71	14.021
395.07	15.066
395.42	13.886
395.78	14.393
396.14	14.642
396.50	15.046
396.85	14.867
397.21	14.399
397.57	14.407
397.92	15.222
398.28	14.722
398.64	14.277
399.00	14.888
399.35	14.205
399.71	14.866
400.07	14.209
400.42	15.633
400.78	14.132
401.14	14.551
401.49	14.800
401.85	13.606
402.21	14.958
402.57	14.078
402.92	14.223
403.28	14.706
403.63	13.541
403.99	14.605
404.35	14.010
404.70	15.155
405.06	14.591
405.42	13.653
405.77	13.348
406.13	14.140
406.49	13.960
406.84	12.837
407.20	14.311
407.55	13.236
407.91	13.472
408.27	14.154
408.62	14.251
408.98	13.887
409.34	13.589
409.69	13.485
410.05	13.887
410.40	13.918
410.76	13.693
411.11	14.339
411.47	13.299
411.83	13.998
412.18	13.800
412.54	13.423
412.89	14.277
413.25	13.459
413.60	13.305
413.96	13.124
414.31	14.067
414.67	13.778
415.03	13.713
415.38	14.379
415.74	14.240
416.09	14.322
416.45	13.492
416.80	14.759
417.16	14.684
417.51	14.905
417.87	14.369
418.22	13.843
418.58	13.736
418.93	15.021
419.29	14.555
419.64	14.008
420.00	14.642
420.35	14.075
420.71	14.406
421.06	15.799
421.42	13.759
421.77	14.852
422.12	15.109
422.48	14.431
422.83	15.604
423.19	15.256
423.54	15.677
423.90	15.847
424.25	15.554
424.61	16.164
424.96	16.091
425.31	16.322
425.67	15.530
426.02	14.745
426.38	16.213
426.73	16.306
427.09	15.993
427.44	16.250
427.79	15.988
428.15	16.697
428.50	16.891
428.85	16.667
429.21	16.491
429.56	16.823
429.92	16.834
430.27	16.500
430.62	17.555
430.98	16.832
431.33	17.129
431.68	17.802
432.04	17.851
432.39	17.037
432.74	16.787
433.10	17.276
433.45	17.214
433.80	16.853
434.16	18.055
434.51	17.863
434.86	17.926
435.22	18.541
435.57	17.748
435.92	17.995
436.28	18.576
436.63	17.863
436.98	17.526
437.34	18.252
437.69	17.970
438.04	17.924
438.39	18.953
438.75	18.510
439.10	18.767
439.45	18.346
439.81	20.060
440.16	18.569
440.51	19.294
440.86	18.508
441.22	18.353
441.57	18.947
441.92	19.540
442.27	18.452
442.63	19.152
442.98	18.849
443.33	19.714
443.68	18.499
444.03	18.811
444.39	18.747
444.74	20.485
445.09	19.572
445.44	20.428
445.79	19.786
446.15	20.099
446.50	18.726
446.85	19.651
447.20	19.459
447.55	19.392
447.91	20.326
448.26	19.832
448.61	19.411
448.96	20.448
449.31	19.842
449.66	20.836
450.02	19.391
450.37	20.058
450.72	20.226
451.07	21.245
451.42	20.012
451.77	21.005
452.12	21.097
452.47	20.970
452.83	20.559
453.18	20.240
453.53	20.274
453.88	20.694
454.23	19.952
454.58	21.318
454.93	20.970
455.28	21.096
455.63	21.130
455.98	21.506
456.34	19.949
456.69	21.263
457.04	21.389
457.39	21.232
457.74	21.559
458.09	21.056
458.44	21.709
458.79	20.516
459.14	20.194
459.49	21.966
459.84	21.135
460.19	20.943
460.54	21.900
460.89	21.637
461.24	20.826
461.59	20.985
461.94	21.897
462.29	21.441
462.64	21.937
462.99	21.553
463.34	22.215
463.69	21.438
464.04	20.094
464.39	20.789
464.74	21.336
465.09	20.385
465.44	20.643
465.79	21.433
466.14	21.979
466.49	21.589
466.84	21.248
467.19	22.195
467.54	20.696
467.89	22.072
468.24	21.675
468.59	21.299
468.94	21.093
469.29	22.287
469.64	21.159
469.99	21.675
470.34	21.910
470.68	22.456
471.03	22.712
471.38	20.972
471.73	22.937
472.08	21.553
472.43	22.329
472.78	21.667
473.13	20.742
473.48	20.996
473.83	21.464
474.17	22.484
474.52	22.315
474.87	20.979
475.22	21.298
475.57	21.167
475.92	21.436
476.27	22.400
476.61	21.915
476.96	21.465
477.31	21.690
477.66	21.859
478.01	21.934
478.36	21.949
478.70	22.104
479.05	21.201
479.40	21.969
479.75	21.916
480.10	21.577
480.45	21.035
480.79	22.458
481.14	23.081
481.49	21.588
481.84	21.498
482.19	22.202
482.53	22.254
482.88	21.785
483.23	21.690
483.58	21.647
483.92	21.882
484.27	21.090
484.62	21.901
484.97	21.746
485.31	20.992
485.66	20.724
486.01	20.313
486.36	21.229
486.70	22.062
487.05	21.503
487.40	21.875
487.75	21.392
488.09	21.279
488.44	21.346
488.79	21.047
489.13	22.024
489.48	21.982
489.83	21.485
490.17	22.203
490.52	22.283
490.87	21.247
491.22	21.906
491.56	22.037
491.91	22.233
492.26	21.698
492.60	21.551
492.95	21.799
493.30	21.010
493.64	20.921
493.99	21.511
494.34	22.143
494.68	23.034
495.03	21.654
495.37	20.944
495.72	22.053
496.07	22.196
496.41	22.001
496.76	22.237
497.11	22.186
497.45	22.079
497.80	22.611
498.14	21.807
498.49	22.803
498.84	21.699
499.18	21.930
499.53	21.773
499.87	21.139
500.22	21.324
500.56	22.511
500.91	21.576
501.26	22.804
501.60	21.136
501.95	22.367
502.29	21.162
502.64	22.112
502.98	22.137
503.33	21.758
503.67	21.360
504.02	21.004
504.36	21.814
504.71	21.530
505.06	20.469
505.40	22.206
505.75	21.240
506.09	21.638
506.44	21.754
506.78	21.576
507.13	21.524
507.47	22.014
507.82	21.735
508.16	22.021
508.51	20.453
508.85	21.014
509.19	21.298
509.54	21.564
509.88	21.809
510.23	21.436
510.57	22.487
510.92	22.019
511.26	21.106
511.61	20.464
511.95	21.713
512.30	21.825
512.64	21.146
512.98	22.167
513.33	21.417
513.67	21.273
514.02	21.309
514.36	21.773
514.70	21.505
515.05	21.441
515.39	20.473
515.74	21.233
516.08	21.671
516.42	21.813
516.77	21.895
517.11	21.796
517.46	22.428
517.80	21.600
518.14	20.954
518.49	22.176
518.83	21.840
519.17	21.610
519.52	21.457
519.86	20.789
520.20	21.455
520.55	21.108
520.89	21.540
521.23	21.368
521.58	21.191
521.92	21.596
522.26	21.714
522.61	21.229
522.95	20.294
523.29	21.129
523.64	19.988
523.98	20.560
524.32	21.370
524.66	20.621
525.01	20.039
525.35	21.714
525.69	20.299
526.04	20.627
526.38	21.579
526.72	20.498
527.06	20.638
527.41	20.660
527.75	20.330
528.09	20.384
528.43	20.328
528.78	20.603
529.12	20.359
529.46	20.039
529.80	20.658
530.15	20.219
530.49	20.246
530.83	21.284
531.17	20.404
531.51	19.156
531.86	20.013
532.20	19.973
532.54	20.455
532.88	20.158
533.22	19.719
533.57	19.909
533.91	19.975
534.25	19.296
534.59	19.300
534.93	18.544
535.27	19.824
535.62	20.013
535.96	19.586
536.30	18.914
536.64	20.053
536.98	19.633
537.32	18.798
537.66	19.280
538.01	18.625
538.35	20.135
538.69	18.984
539.03	20.041
539.37	18.829
539.71	19.680
540.05	18.437
540.39	18.490
540.73	19.627
541.07	19.194
541.42	18.433
541.76	17.674
542.10	19.649
542.44	20.187
542.78	18.860
543.12	18.330
543.46	17.534
543.80	17.860
544.14	18.402
544.48	19.357
544.82	19.283
545.16	18.712
545.50	18.843
545.84	20.167
546.18	18.932
546.52	19.488
546.86	19.373
547.20	18.917
547.54	16.942
547.88	17.518
548.22	17.628
548.56	18.771
548.90	18.935
549.24	18.360
549.58	18.419
549.92	18.728
550.26	18.497
550.60	17.994
550.94	17.810
551.28	19.037
551.62	17.725
551.96	17.873
552.30	17.979
552.64	18.508
552.98	18.150
553.32	17.677
553.66	18.890
554.00	17.555
554.34	17.401
554.68	16.667
555.02	18.162
555.36	16.247
555.69	17.407
556.03	16.281
556.37	16.856
556.71	17.323
557.05	16.925
557.39	18.263
557.73	17.943
558.07	16.880
558.41	17.801
558.75	17.719
559.08	16.187
559.42	17.917
559.76	17.485
560.10	17.524
560.44	17.919
560.78	16.771
561.12	16.908
561.45	17.397
561.79	16.934
562.13	16.971
562.47	17.507
562.81	17.256
563.15	16.445
563.48	17.070
563.82	16.024
564.16	15.957
564.50	16.935
564.84	17.063
565.17	16.446
565.51	16.688
565.85	16.903
566.19	16.667
566.52	16.830
566.86	15.866
567.20	16.889
567.54	16.539
567.88	15.857
568.21	15.884
568.55	15.270
568.89	16.054
569.23	15.271
569.56	15.847
569.90	15.146
570.24	15.934
570.57	15.395
570.91	15.301
571.25	15.759
571.59	15.485
571.92	15.357
572.26	15.339
572.60	15.513
572.93	14.679
573.27	14.756
573.61	14.654
573.95	15.114
574.28	14.889
574.62	14.921
574.96	14.831
575.29	15.117
575.63	14.388
575.97	14.536
576.30	14.634
576.64	14.700
576.98	14.631
577.31	14.756
577.65	14.717
577.98	14.719
578.32	14.628
578.66	14.548
578.99	14.521
579.33	14.695
579.67	14.126
580.00	14.484
580.34	14.530
580.67	14.611
581.01	14.100
581.35	14.096
581.68	14.218
582.02	14.448
582.35	14.202
582.69	14.611
583.02	14.279
583.36	14.395
583.70	13.927
584.03	14.440
584.37	14.452
584.70	14.301
585.04	14.456
585.37	13.866
585.71	14.393
586.04	14.488
586.38	14.354
586.72	14.374
587.05	13.934
587.39	14.750
587.72	14.229
588.06	14.470
588.39	14.298
588.73	14.393
589.06	15.409
589.40	14.806
589.73	14.908
590.07	13.948
590.40	13.911
590.73	14.274
591.07	14.631
591.40	14.645
591.74	14.292
592.07	13.514
592.41	13.970
592.74	13.759
593.08	14.109
593.41	14.046
593.75	13.650
594.08	14.486
594.41	14.640
594.75	14.911
595.08	14.060
595.42	14.776
595.75	13.708
596.09	14.435
596.42	14.689
596.75	14.144
597.09	15.405
597.42	13.924
597.75	14.570
598.09	14.550
598.42	14.361
598.76	13.621
599.09	14.009
599.42	13.841
599.76	13.779
600.09	14.618
600.42	13.976
600.76	14.124
601.09	13.825
601.42	13.257
601.76	13.941
602.09	13.252
602.42	14.156
602.76	13.835
603.09	13.065
603.42	13.376
603.76	14.120
604.09	13.336
604.42	13.156
604.76	13.737
605.09	14.150
605.42	13.963
605.75	13.238
606.09	13.284
606.42	13.196
606.75	13.654
607.09	13.674
607.42	13.380
607.75	13.819
608.08	13.737
608.42	13.056
608.75	12.897
609.08	13.492
609.41	13.004
609.75	13.262
610.08	13.137
610.41	13.012
610.74	13.685
611.07	14.047
611.41	12.405
611.74	14.447
612.07	13.641
612.40	13.486
612.73	13.678
613.07	13.374
613.40	14.012
613.73	13.243
614.06	12.960
614.39	12.909
614.72	13.073
615.06	12.663
615.39	13.077
615.72	12.819
616.05	12.866
616.38	13.581
616.71	12.853
617.05	14.113
617.38	13.189
617.71	13.084
618.04	12.795
618.37	13.711
618.70	14.472
619.03	12.661
619.36	12.896
619.69	12.922
620.03	13.705
620.36	13.361
620.69	12.563
621.02	12.938
621.35	13.387
621.68	13.033
622.01	13.673
622.34	13.509
622.67	12.656
623.00	12.242
623.33	13.731
623.66	12.408
623.99	13.308
624.32	13.393
624.65	12.656
624.99	12.621
625.32	12.949
625.65	12.277
625.98	13.380
626.31	12.969
626.64	12.552
626.97	12.586
627.30	13.447
627.63	11.226
627.96	13.316
628.29	12.408
628.62	12.607
628.95	12.697
629.28	12.312
629.61	11.973
629.94	12.949
630.26	13.817
630.59	13.367
630.92	12.613
631.25	13.810
631.58	13.968
631.91	12.340
632.24	13.111
632.57	13.444
632.90	12.529
633.23	12.617
633.56	12.982
633.89	13.443
