SpectraSuite Data File
++++++++++++++++++++++++++++++++++++
Date: Sat May 16 11:13:14 PDT 2015
User: schluterlab
Dark Spectrum Present: Yes
Reference Spectrum Present: Yes
Number of Sampled Component Spectra: 1
Spectrometers: USB2E3373
Integration Time (usec): 3000 (USB2E3373)
Spectra Averaged: 3 (USB2E3373)
Boxcar Smoothing: 0 (USB2E3373)
Correct for Electrical Dark: No (USB2E3373)
Strobe/Lamp Enabled: No (USB2E3373)
Correct for Detector Non-linearity: No (USB2E3373)
Correct for Stray Light: No (USB2E3373)
Number of Pixels in Processed Spectrum: 2048
>>>>>Begin Processed Spectral Data<<<<<
178.53	0.000
178.91	86.667
179.29	266.667
179.67	0.000
180.04	-69.231
180.42	-700.000
180.80	200.000
181.18	275.000
181.56	137.500
181.94	100.000
182.31	200.000
182.69	-7.692
183.07	-233.333
183.45	1050.000
183.83	266.667
184.20	-57.143
184.58	0.000
184.96	-150.000
185.34	68.750
185.72	-450.000
186.09	116.667
186.47	-50.000
186.85	-75.000
187.23	37.500
187.61	375.000
187.98	-175.000
188.36	-62.500
188.74	-150.000
189.12	400.000
189.49	257.143
189.87	-16.667
190.25	-25.000
190.63	-35.714
191.00	-77.778
191.38	80.000
191.76	53.333
192.14	340.000
192.51	20.000
192.89	-200.000
193.27	0.000
193.65	-122.222
194.02	-28.571
194.40	300.000
194.78	-40.000
195.15	-100.000
195.53	9.091
195.91	-183.333
196.29	180.000
196.66	-266.667
197.04	1800.000
197.42	-25.000
197.79	26.667
198.17	-66.667
198.55	-550.000
198.92	-400.000
199.30	87.500
199.68	-200.000
200.05	-55.556
200.43	-44.444
200.81	900.000
201.18	-41.667
201.56	214.286
201.94	40.000
202.31	13.636
202.69	170.000
203.07	-40.000
203.44	466.667
203.82	-200.000
204.19	-300.000
204.57	125.000
204.95	-1100.000
205.32	25.000
205.70	300.000
206.08	-1300.000
206.45	66.667
206.83	-450.000
207.20	250.000
207.58	-366.667
207.96	-66.667
208.33	-87.500
208.71	33.333
209.08	250.000
209.46	-85.714
209.84	450.000
210.21	0.000
210.59	55.000
210.96	-0.000
211.34	-33.333
211.71	-133.333
212.09	325.000
212.46	650.000
212.84	-1600.000
213.22	366.667
213.59	33.333
213.97	88.889
214.34	100.000
214.72	-20.000
215.09	-66.667
215.47	100.000
215.84	-10.000
216.22	-40.000
216.59	40.000
216.97	-150.000
217.34	500.000
217.72	42.857
218.09	-133.333
218.47	-200.000
218.84	42.857
219.22	-42.857
219.59	0.000
219.97	200.000
220.34	425.000
220.72	62.500
221.09	-38.462
221.47	0.000
221.84	300.000
222.22	100.000
222.59	-600.000
222.97	-87.500
223.34	-50.000
223.72	-233.333
224.09	-28.571
224.46	-300.000
224.84	-21.429
225.21	-85.714
225.59	-36.364
225.96	-25.000
226.34	-114.286
226.71	-11.111
227.08	35.000
227.46	1100.000
227.83	-128.571
228.21	-75.000
228.58	-50.000
228.95	-6.250
229.33	-500.000
229.70	-140.000
230.08	-850.000
230.45	-25.000
230.82	33.333
231.20	0.000
231.57	-50.000
231.95	-0.000
232.32	57.143
232.69	0.000
233.07	-14.286
233.44	-500.000
233.81	-26.667
234.19	-44.444
234.56	-31.250
234.93	6.250
235.31	-142.857
235.68	-85.714
236.05	23.529
236.43	-54.545
236.80	6.452
237.17	-37.500
237.55	-28.571
237.92	-50.000
238.29	-5.714
238.67	14.706
239.04	5.556
239.41	-22.581
239.79	-10.256
240.16	2.381
240.53	-10.909
240.91	17.949
241.28	16.364
241.65	15.385
242.02	11.475
242.40	3.279
242.77	3.030
243.14	-1.695
243.51	-5.714
243.89	-8.861
244.26	4.494
244.63	8.421
245.00	8.421
245.38	10.169
245.75	4.425
246.12	12.000
246.49	7.874
246.87	-2.439
247.24	4.237
247.61	2.542
247.98	8.451
248.36	2.797
248.73	6.329
249.10	1.274
249.47	9.357
249.84	11.364
250.22	-2.381
250.59	10.734
250.96	6.283
251.33	6.161
251.70	10.096
252.08	5.687
252.45	2.370
252.82	1.905
253.19	4.681
253.56	9.274
253.94	4.219
254.31	6.438
254.68	8.537
255.05	1.613
255.42	5.159
255.79	7.527
256.16	6.275
256.54	4.412
256.91	5.682
257.28	4.396
257.65	6.028
258.02	14.151
258.39	7.692
258.76	7.432
259.14	6.173
259.51	11.148
259.88	7.317
260.25	9.006
260.62	5.145
260.99	4.451
261.36	8.232
261.73	7.803
262.10	13.333
262.47	7.123
262.85	9.143
263.22	4.585
263.59	4.308
263.96	8.986
264.33	7.046
264.70	7.735
265.07	6.868
265.44	8.527
265.81	8.010
266.18	6.076
266.55	5.882
266.92	9.320
267.29	9.685
267.66	7.654
268.03	9.662
268.40	7.746
268.77	7.952
269.14	9.977
269.51	10.345
269.88	5.963
270.25	6.294
270.62	7.551
270.99	7.883
271.36	9.091
271.73	8.520
272.10	6.407
272.47	4.667
272.84	10.889
273.21	7.110
273.58	8.352
273.95	6.798
274.32	8.145
274.69	9.628
275.06	10.634
275.43	8.259
275.80	10.591
276.17	7.950
276.54	8.554
276.91	7.407
277.28	7.708
277.65	8.264
278.02	8.142
278.39	10.020
278.76	8.167
279.13	6.126
279.50	6.561
279.87	5.708
280.23	7.287
280.60	7.952
280.97	8.544
281.34	5.803
281.71	8.462
282.08	8.266
282.45	6.517
282.82	8.333
283.19	9.455
283.56	11.538
283.92	8.127
284.29	7.063
284.66	7.374
285.03	8.734
285.40	6.458
285.77	8.421
286.14	7.220
286.51	6.039
286.87	7.985
287.24	9.215
287.61	8.760
287.98	5.719
288.35	8.264
288.72	6.621
289.08	4.237
289.45	7.744
289.82	5.709
290.19	9.195
290.56	5.950
290.93	5.087
291.29	7.455
291.66	7.246
292.03	8.634
292.40	6.777
292.77	6.988
293.13	6.992
293.50	5.795
293.87	6.902
294.24	6.033
294.60	3.939
294.97	7.284
295.34	5.333
295.71	6.548
296.08	4.608
296.44	6.724
296.81	6.125
297.18	7.746
297.55	6.638
297.91	7.671
298.28	5.753
298.65	4.603
299.02	7.487
299.38	6.417
299.75	5.571
300.12	7.308
300.48	7.928
300.85	5.636
301.22	6.856
301.59	6.762
301.95	8.564
302.32	6.128
302.69	6.854
303.05	6.960
303.42	6.125
303.79	6.579
304.15	5.806
304.52	6.534
304.89	6.494
305.25	6.471
305.62	5.523
305.99	5.889
306.35	7.325
306.72	6.264
307.09	9.762
307.45	5.335
307.82	6.369
308.19	6.488
308.55	6.209
308.92	5.908
309.29	5.405
309.65	7.317
310.02	7.559
310.38	6.703
310.75	7.684
311.12	6.302
311.48	7.724
311.85	7.518
312.22	7.106
312.58	8.952
312.95	6.422
313.31	8.691
313.68	9.146
314.05	9.496
314.41	7.746
314.78	7.393
315.14	9.773
315.51	9.321
315.87	9.390
316.24	10.593
316.61	10.365
316.97	10.647
317.34	10.501
317.70	9.833
318.07	11.287
318.43	10.861
318.80	12.488
319.16	12.383
319.53	13.064
319.89	11.665
320.26	12.255
320.62	12.212
320.99	12.239
321.35	12.709
321.72	13.715
322.08	16.123
322.45	15.050
322.81	15.178
323.18	16.715
323.54	17.098
323.91	16.219
324.27	18.061
324.64	17.824
325.00	19.110
325.37	19.548
325.73	20.910
326.10	19.663
326.46	21.541
326.83	23.319
327.19	23.520
327.56	25.554
327.92	24.724
328.29	24.416
328.65	24.455
329.01	25.707
329.38	26.673
329.74	28.388
330.11	28.105
330.47	28.338
330.84	29.606
331.20	29.422
331.56	28.441
331.93	30.462
332.29	30.594
332.66	29.587
333.02	30.950
333.38	31.541
333.75	31.612
334.11	31.822
334.48	30.891
334.84	32.896
335.20	31.560
335.57	31.769
335.93	32.587
336.29	32.595
336.66	30.573
337.02	32.523
337.38	31.996
337.75	32.660
338.11	32.469
338.47	32.918
338.84	32.396
339.20	33.568
339.56	32.888
339.93	32.804
340.29	31.975
340.65	31.556
341.02	33.305
341.38	33.193
341.74	32.769
342.11	33.618
342.47	32.361
342.83	33.165
343.20	33.134
343.56	30.939
343.92	34.391
344.28	33.978
344.65	31.931
345.01	33.109
345.37	33.970
345.73	31.997
346.10	32.625
346.46	32.494
346.82	33.440
347.19	33.443
347.55	33.387
347.91	32.992
348.27	33.095
348.63	32.956
349.00	34.208
349.36	33.021
349.72	33.917
350.08	33.280
350.45	32.624
350.81	33.599
351.17	32.717
351.53	32.220
351.89	32.902
352.26	33.256
352.62	34.409
352.98	34.019
353.34	35.092
353.70	33.745
354.07	33.832
354.43	35.415
354.79	36.212
355.15	35.064
355.51	34.297
355.87	34.704
356.24	35.107
356.60	36.019
356.96	34.334
357.32	34.679
357.68	34.483
358.04	36.105
358.40	35.654
358.77	34.544
359.13	35.654
359.49	34.845
359.85	34.909
360.21	36.073
360.57	36.822
360.93	36.519
361.29	36.996
361.66	36.052
362.02	37.056
362.38	36.610
362.74	37.070
363.10	36.729
363.46	38.319
363.82	38.120
364.18	36.975
364.54	37.741
364.90	38.085
365.26	38.017
365.62	38.632
365.98	39.474
366.35	38.099
366.71	37.562
367.07	39.802
367.43	41.318
367.79	39.244
368.15	38.549
368.51	39.860
368.87	40.797
369.23	39.789
369.59	38.958
369.95	39.605
370.31	41.280
370.67	39.913
371.03	40.015
371.39	39.958
371.75	40.057
372.11	41.392
372.47	40.781
372.83	41.238
373.19	41.643
373.55	40.957
373.91	41.607
374.27	42.231
374.63	41.477
374.99	43.394
375.35	41.723
375.71	42.809
376.07	43.121
376.42	42.517
376.78	44.118
377.14	44.068
377.50	43.585
377.86	44.148
378.22	44.095
378.58	43.792
378.94	44.143
379.30	43.876
379.66	44.991
380.02	43.969
380.38	45.257
380.74	44.431
381.09	45.226
381.45	45.406
381.81	44.041
382.17	46.303
382.53	45.532
382.89	44.856
383.25	46.659
383.61	46.521
383.97	46.785
384.32	45.995
384.68	47.037
385.04	46.498
385.40	48.022
385.76	47.622
386.12	48.095
386.48	47.772
386.83	47.730
387.19	47.400
387.55	47.547
387.91	48.251
388.27	47.708
388.62	47.416
388.98	48.455
389.34	48.654
389.70	47.929
390.06	47.732
390.42	49.679
390.77	49.274
391.13	50.000
391.49	49.345
391.85	49.314
392.20	49.515
392.56	48.137
392.92	49.116
393.28	48.507
393.64	51.173
393.99	50.277
394.35	48.601
394.71	49.104
395.07	51.287
395.42	48.629
395.78	49.906
396.14	51.090
396.50	50.336
396.85	51.203
397.21	49.696
397.57	49.179
397.92	50.527
398.28	50.389
398.64	50.208
399.00	49.944
399.35	51.240
399.71	51.103
400.07	49.552
400.42	50.912
400.78	50.626
401.14	50.060
401.49	49.469
401.85	51.678
402.21	50.060
402.57	49.879
402.92	51.164
403.28	50.429
403.63	48.892
403.99	51.150
404.35	50.543
404.70	48.742
405.06	50.519
405.42	49.754
405.77	50.566
406.13	49.858
406.49	51.348
406.84	50.690
407.20	50.471
407.55	50.792
407.91	48.575
408.27	50.061
408.62	49.248
408.98	50.697
409.34	49.482
409.69	49.023
410.05	50.879
410.40	51.502
410.76	49.318
411.11	50.062
411.47	51.343
411.83	51.161
412.18	50.062
412.54	50.214
412.89	50.122
413.25	49.587
413.60	50.365
413.96	49.969
414.31	51.682
414.67	50.603
415.03	50.712
415.38	51.464
415.74	51.289
416.09	51.151
416.45	49.669
416.80	50.390
417.16	50.299
417.51	50.164
417.87	50.874
418.22	50.822
418.58	50.000
418.93	51.318
419.29	49.875
419.64	50.565
420.00	51.640
420.35	50.798
420.71	50.360
421.06	50.710
421.42	51.581
421.77	50.977
422.12	50.588
422.48	50.241
422.83	51.025
423.19	50.501
423.54	50.432
423.90	49.508
424.25	51.018
424.61	52.171
424.96	51.960
425.31	51.258
425.67	51.175
426.02	50.201
426.38	51.664
426.73	51.081
427.09	51.716
427.44	50.966
427.79	51.512
428.15	51.885
428.50	51.848
428.85	51.379
429.21	50.747
429.56	51.406
429.92	51.553
430.27	51.645
430.62	51.097
430.98	50.549
431.33	51.761
431.68	52.654
432.04	51.987
432.39	52.536
432.74	52.698
433.10	51.604
433.45	51.468
433.80	51.736
434.16	51.155
434.51	52.877
434.86	52.548
435.22	52.784
435.57	51.652
435.92	52.814
436.28	53.472
436.63	51.441
436.98	51.432
437.34	51.861
437.69	52.509
438.04	52.864
438.39	52.828
438.75	51.979
439.10	52.915
439.45	53.168
439.81	52.470
440.16	52.243
440.51	52.824
440.86	52.169
441.22	52.515
441.57	52.158
441.92	53.504
442.27	52.489
442.63	54.399
442.98	52.144
443.33	53.487
443.68	52.579
444.03	53.389
444.39	53.157
444.74	53.249
445.09	52.467
445.44	54.192
445.79	53.034
446.15	53.834
446.50	52.150
446.85	52.129
447.20	53.371
447.55	52.707
447.91	53.509
448.26	52.961
448.61	53.254
448.96	54.454
449.31	53.100
449.66	53.291
450.02	51.967
450.37	53.275
450.72	52.881
451.07	54.305
451.42	52.292
451.77	52.843
452.12	53.039
452.47	51.952
452.83	53.349
453.18	54.143
453.53	53.047
453.88	53.589
454.23	51.330
454.58	53.698
454.93	53.904
455.28	54.111
455.63	53.870
455.98	53.313
456.34	53.113
456.69	52.846
457.04	53.288
457.39	51.555
457.74	53.042
458.09	53.016
458.44	52.887
458.79	52.635
459.14	52.995
459.49	53.108
459.84	52.277
460.19	52.804
460.54	52.511
460.89	52.354
461.24	52.216
461.59	52.696
461.94	53.533
462.29	53.365
462.64	53.557
462.99	53.012
463.34	51.519
463.69	52.926
464.04	52.314
464.39	52.210
464.74	50.827
465.09	52.014
465.44	52.453
465.79	52.961
466.14	52.359
466.49	52.389
466.84	54.322
467.19	53.117
467.54	52.468
467.89	52.898
468.24	52.138
468.59	52.592
468.94	52.605
469.29	51.592
469.64	51.482
469.99	52.330
470.34	52.906
470.68	54.288
471.03	52.581
471.38	53.125
471.73	54.336
472.08	51.941
472.43	53.153
472.78	52.933
473.13	52.684
473.48	53.733
473.83	53.412
474.17	52.994
474.52	54.092
474.87	52.331
475.22	51.917
475.57	52.722
475.92	52.700
476.27	51.829
476.61	52.789
476.96	53.102
477.31	53.660
477.66	53.514
478.01	53.106
478.36	52.122
478.70	54.351
479.05	53.434
479.40	52.642
479.75	52.243
480.10	53.472
480.45	52.128
480.79	52.468
481.14	53.838
481.49	53.243
481.84	52.011
482.19	52.216
482.53	53.030
482.88	52.112
483.23	52.300
483.58	52.868
483.92	53.655
484.27	51.839
484.62	52.138
484.97	51.403
485.31	51.584
485.66	49.771
486.01	50.662
486.36	51.241
486.70	52.198
487.05	51.593
487.40	52.137
487.75	51.516
488.09	51.421
488.44	51.556
488.79	51.362
489.13	51.921
489.48	52.121
489.83	51.528
490.17	52.242
490.52	52.944
490.87	52.425
491.22	52.172
491.56	52.407
491.91	52.624
492.26	53.302
492.60	52.569
492.95	52.213
493.30	51.120
493.64	51.481
493.99	52.677
494.34	52.952
494.68	53.137
495.03	51.625
495.37	52.901
495.72	52.898
496.07	53.496
496.41	53.729
496.76	53.379
497.11	51.813
497.45	52.299
497.80	53.427
498.14	51.572
498.49	53.491
498.84	52.039
499.18	52.534
499.53	52.606
499.87	52.413
500.22	52.990
500.56	53.377
500.91	52.414
501.26	53.178
501.60	52.383
501.95	53.671
502.29	52.716
502.64	54.125
502.98	52.372
503.33	53.148
503.67	52.107
504.02	53.356
504.36	54.167
504.71	53.951
505.06	53.120
505.40	53.743
505.75	54.268
506.09	54.348
506.44	53.684
506.78	54.491
507.13	54.119
507.47	53.938
507.82	54.208
508.16	54.870
508.51	54.714
508.85	54.348
509.19	53.846
509.54	54.123
509.88	55.532
510.23	54.403
510.57	56.243
510.92	55.961
511.26	54.811
511.61	56.102
511.95	55.226
512.30	56.679
512.64	54.758
512.98	56.326
513.33	55.409
513.67	56.616
514.02	56.264
514.36	55.956
514.70	56.763
515.05	57.233
515.39	57.670
515.74	58.464
516.08	57.867
516.42	57.394
516.77	58.752
517.11	58.410
517.46	60.287
517.80	60.048
518.14	59.118
518.49	58.816
518.83	59.585
519.17	60.391
519.52	59.456
519.86	60.514
520.20	61.614
520.55	60.985
520.89	60.614
521.23	60.012
521.58	62.069
521.92	62.191
522.26	60.889
522.61	61.724
522.95	61.774
523.29	62.633
523.64	62.711
523.98	63.144
524.32	61.974
524.66	61.491
525.01	62.685
525.35	63.595
525.69	63.045
526.04	64.034
526.38	64.354
526.72	62.261
527.06	64.844
527.41	63.366
527.75	63.762
528.09	65.255
528.43	64.590
528.78	65.138
529.12	65.813
529.46	65.915
529.80	65.268
530.15	65.229
530.49	63.389
530.83	65.684
531.17	66.061
531.51	65.707
531.86	65.438
532.20	66.262
532.54	65.775
532.88	64.888
533.22	66.979
533.57	66.319
533.91	63.920
534.25	65.305
534.59	64.772
534.93	65.277
535.27	65.513
535.62	66.176
535.96	65.676
536.30	66.558
536.64	67.795
536.98	67.938
537.32	66.482
537.66	67.142
538.01	68.385
538.35	66.014
538.69	67.112
539.03	67.299
539.37	67.066
539.71	66.778
540.05	68.334
540.39	68.421
540.73	68.487
541.07	67.964
541.42	68.400
541.76	67.841
542.10	68.197
542.44	68.021
542.78	68.046
543.12	68.907
543.46	65.822
543.80	67.023
544.14	68.368
544.48	68.570
544.82	68.809
545.16	69.349
545.50	68.304
545.84	68.289
546.18	68.932
546.52	69.346
546.86	69.516
547.20	69.198
547.54	67.700
547.88	68.082
548.22	67.104
548.56	69.539
548.90	68.801
549.24	68.886
549.58	68.596
549.92	68.481
550.26	68.931
550.60	66.856
550.94	68.248
551.28	70.278
551.62	70.606
551.96	70.333
552.30	68.990
552.64	68.051
552.98	69.446
553.32	68.831
553.66	70.944
554.00	69.723
554.34	69.025
554.68	69.664
555.02	69.609
555.36	70.022
555.69	70.272
556.03	70.737
556.37	69.844
556.71	69.578
557.05	70.953
557.39	70.601
557.73	69.657
558.07	71.741
558.41	70.307
558.75	70.266
559.08	70.661
559.42	71.440
559.76	71.702
560.10	71.066
560.44	70.665
560.78	70.494
561.12	70.876
561.45	70.274
561.79	71.638
562.13	70.196
562.47	69.538
562.81	71.499
563.15	69.699
563.48	70.076
563.82	70.791
564.16	71.129
564.50	70.296
564.84	69.180
565.17	70.292
565.51	71.512
565.85	71.062
566.19	71.607
566.52	70.841
566.86	68.458
567.20	70.218
567.54	72.357
567.88	69.012
568.21	70.470
568.55	68.770
568.89	69.036
569.23	68.672
569.56	67.802
569.90	67.585
570.24	67.569
570.57	65.764
570.91	66.746
571.25	66.569
571.59	66.500
571.92	65.238
572.26	65.728
572.60	65.250
572.93	64.757
573.27	65.305
573.61	65.644
573.95	65.753
574.28	64.863
574.62	66.523
574.96	64.681
575.29	65.346
575.63	65.357
575.97	64.428
576.30	65.306
576.64	65.796
576.98	64.892
577.31	65.697
577.65	65.198
577.98	64.895
578.32	64.955
578.66	65.090
578.99	65.273
579.33	65.386
579.67	65.990
580.00	65.129
580.34	64.750
580.67	65.899
581.01	64.488
581.35	65.327
581.68	65.057
582.02	64.825
582.35	65.666
582.69	66.170
583.02	66.313
583.36	65.658
583.70	65.259
584.03	66.487
584.37	66.955
584.70	66.244
585.04	65.949
585.37	65.704
585.71	65.578
586.04	66.033
586.38	65.918
586.72	66.122
587.05	66.893
587.39	64.709
587.72	66.047
588.06	66.190
588.39	67.160
588.73	66.868
589.06	67.008
589.40	67.468
589.73	66.785
590.07	66.497
590.40	66.753
590.73	67.853
591.07	67.418
591.40	68.501
591.74	67.941
592.07	69.234
592.41	68.068
592.74	67.371
593.08	67.319
593.41	68.059
593.75	66.535
594.08	67.829
594.41	67.911
594.75	68.139
595.08	67.820
595.42	66.980
595.75	67.585
596.09	68.490
596.42	69.313
596.75	68.650
597.09	68.210
597.42	68.180
597.75	67.936
598.09	67.826
598.42	67.742
598.76	67.650
599.09	66.811
599.42	68.166
599.76	67.799
600.09	68.511
600.42	67.983
600.76	67.797
601.09	67.641
601.42	67.788
601.76	67.913
602.09	68.221
602.42	68.025
602.76	67.802
603.09	68.831
603.42	67.607
603.76	69.286
604.09	68.322
604.42	67.902
604.76	68.426
605.09	69.349
605.42	69.326
605.75	69.556
606.09	68.120
606.42	67.658
606.75	67.797
607.09	69.916
607.42	69.014
607.75	68.521
608.08	70.086
608.42	69.584
608.75	67.477
609.08	69.118
609.41	69.606
609.75	68.259
610.08	70.686
610.41	70.120
610.74	69.778
611.07	70.132
611.41	68.533
611.74	69.409
612.07	71.267
612.40	69.563
612.73	70.059
613.07	69.785
613.40	70.826
613.73	70.463
614.06	69.852
614.39	70.575
614.72	69.553
615.06	68.370
615.39	68.475
615.72	70.940
616.05	69.740
616.38	71.967
616.71	70.571
617.05	72.678
617.38	72.074
617.71	70.823
618.04	72.671
618.37	71.698
618.70	72.881
619.03	71.835
619.36	73.784
619.69	73.080
620.03	70.799
620.36	72.222
620.69	72.936
621.02	73.212
621.35	73.065
621.68	75.246
622.01	73.786
622.34	73.370
622.67	72.578
623.00	73.833
623.33	72.537
623.66	72.157
623.99	71.504
624.32	71.949
624.65	72.701
624.99	73.488
625.32	72.231
625.65	73.970
625.98	74.491
626.31	75.285
626.64	74.895
626.97	75.856
627.30	75.234
627.63	75.216
627.96	75.979
628.29	76.562
628.62	76.409
628.95	76.476
629.28	76.128
629.61	76.644
629.94	76.843
630.26	76.839
630.59	77.487
630.92	75.776
631.25	74.899
631.58	77.778
631.91	75.106
632.24	78.778
632.57	77.778
632.90	78.161
633.23	79.907
633.56	78.480
633.89	79.953
634.22	80.165
634.55	79.327
634.88	76.421
635.20	77.029
635.53	79.771
635.86	78.338
636.19	79.609
636.52	78.017
636.85	77.256
637.18	78.375
