SpectraSuite Data File
++++++++++++++++++++++++++++++++++++
Date: Sat May 16 11:30:51 PDT 2015
User: schluterlab
Dark Spectrum Present: Yes
Reference Spectrum Present: Yes
Number of Sampled Component Spectra: 1
Spectrometers: USB2E3373
Integration Time (usec): 3000 (USB2E3373)
Spectra Averaged: 3 (USB2E3373)
Boxcar Smoothing: 0 (USB2E3373)
Correct for Electrical Dark: No (USB2E3373)
Strobe/Lamp Enabled: No (USB2E3373)
Correct for Detector Non-linearity: No (USB2E3373)
Correct for Stray Light: No (USB2E3373)
Number of Pixels in Processed Spectrum: 2048
>>>>>Begin Processed Spectral Data<<<<<
178.53	0.000
178.91	120.000
179.29	633.333
179.67	-900.000
180.04	-107.692
180.42	900.000
180.80	375.000
181.18	325.000
181.56	-150.000
181.94	1400.000
182.31	475.000
182.69	-107.692
183.07	-400.000
183.45	1200.000
183.83	500.000
184.20	-157.143
184.58	-112.500
184.96	-450.000
185.34	93.750
185.72	-675.000
186.09	183.333
186.47	-125.000
186.85	-225.000
187.23	-187.500
187.61	-75.000
187.98	-200.000
188.36	-100.000
188.74	-200.000
189.12	1400.000
189.49	314.286
189.87	-108.333
190.25	425.000
190.63	-35.714
191.00	-166.667
191.38	500.000
191.76	-6.667
192.14	600.000
192.51	-180.000
192.89	-566.667
193.27	0.000
193.65	-133.333
194.02	-114.286
194.40	700.000
194.78	-80.000
195.15	-800.000
195.53	-100.000
195.91	-350.000
196.29	100.000
196.66	-533.333
197.04	2400.000
197.42	-250.000
197.79	-13.333
198.17	-233.333
198.55	-650.000
198.92	-1100.000
199.30	225.000
199.68	-700.000
200.05	-122.222
200.43	-66.667
200.81	-2400.000
201.18	-66.667
201.56	357.143
201.94	-33.333
202.31	0.000
202.69	10.000
203.07	-50.000
203.44	600.000
203.82	-433.333
204.19	-625.000
204.57	-325.000
204.95	-1400.000
205.32	-81.250
205.70	900.000
206.08	-1900.000
206.45	-27.778
206.83	-800.000
207.20	-350.000
207.58	-833.333
207.96	-200.000
208.33	-137.500
208.71	-111.111
209.08	210.000
209.46	-271.429
209.84	1050.000
210.21	0.000
210.59	20.000
210.96	900.000
211.34	-216.667
211.71	-333.333
212.09	475.000
212.46	600.000
212.84	-2600.000
213.22	1000.000
213.59	150.000
213.97	-111.111
214.34	170.000
214.72	-100.000
215.09	-66.667
215.47	-316.667
215.84	0.000
216.22	-160.000
216.59	-46.667
216.97	-450.000
217.34	1200.000
217.72	-171.429
218.09	-183.333
218.47	-214.286
218.84	157.143
219.22	-85.714
219.59	0.000
219.97	142.857
220.34	525.000
220.72	162.500
221.09	-115.385
221.47	0.000
221.84	166.667
222.22	-550.000
222.59	2100.000
222.97	-137.500
223.34	-850.000
223.72	-766.667
224.09	-114.286
224.46	-450.000
224.84	-114.286
225.21	-142.857
225.59	-81.818
225.96	-150.000
226.34	-171.429
226.71	-166.667
227.08	-35.000
227.46	1600.000
227.83	-257.143
228.21	-287.500
228.58	350.000
228.95	-12.500
229.33	-1200.000
229.70	-420.000
230.08	-1050.000
230.45	-8.333
230.82	-83.333
231.20	-2400.000
231.57	-300.000
231.95	2600.000
232.32	0.000
232.69	-88.889
233.07	-314.286
233.44	-1150.000
233.81	-113.333
234.19	-77.778
234.56	-12.500
234.93	-9.375
235.31	-414.286
235.68	-135.714
236.05	-64.706
236.43	-50.000
236.80	-32.258
237.17	-12.500
237.55	-85.714
237.92	-100.000
238.29	-31.429
238.67	-29.412
239.04	0.000
239.41	-38.710
239.79	-58.974
240.16	-50.000
240.53	-9.091
240.91	-17.949
241.28	-9.091
241.65	3.077
242.02	-14.754
242.40	-24.590
242.77	-18.182
243.14	-13.559
243.51	-27.143
243.89	-6.329
244.26	-24.719
244.63	-4.211
245.00	-11.579
245.38	-7.627
245.75	-8.850
246.12	-11.200
246.49	-1.575
246.87	-12.195
247.24	-19.492
247.61	-12.712
247.98	-8.451
248.36	-3.497
248.73	-3.797
249.10	-8.917
249.47	-8.187
249.84	-4.545
250.22	-13.095
250.59	-0.565
250.96	-6.283
251.33	-0.948
251.70	-1.442
252.08	-3.318
252.45	-6.161
252.82	-4.762
253.19	-1.277
253.56	-4.435
253.94	-3.797
254.31	-0.858
254.68	-2.439
255.05	-3.629
255.42	-3.571
255.79	-4.659
256.16	-1.961
256.54	-3.309
256.91	-5.682
257.28	-1.832
257.65	-2.837
258.02	1.258
258.39	-3.344
258.76	-2.365
259.14	-5.247
259.51	-1.311
259.88	0.000
260.25	-0.621
260.62	-3.859
260.99	0.000
261.36	-1.829
261.73	-0.578
262.10	-0.833
262.47	-0.570
262.85	1.714
263.22	-3.152
263.59	-2.769
263.96	-1.159
264.33	-0.813
264.70	-1.381
265.07	-2.473
265.44	-1.034
265.81	-3.101
266.18	-0.759
266.55	-0.980
266.92	0.756
267.29	-0.726
267.66	-0.494
268.03	0.483
268.40	-0.235
268.77	2.169
269.14	-2.320
269.51	1.149
269.88	-2.752
270.25	-2.564
270.62	-0.915
270.99	-1.351
271.36	0.699
271.73	0.000
272.10	-2.059
272.47	-1.556
272.84	1.556
273.21	-2.523
273.58	1.978
273.95	0.219
274.32	-1.357
274.69	0.875
275.06	-2.045
275.43	-1.562
275.80	1.833
276.17	-1.674
276.54	2.240
276.91	-2.058
277.28	-0.609
277.65	0.413
278.02	-1.253
278.39	-0.393
278.76	-0.598
279.13	-1.186
279.50	0.596
279.87	-1.268
280.23	-1.215
280.60	0.199
280.97	-2.524
281.34	-0.193
281.71	1.346
282.08	0.000
282.45	-2.851
282.82	-0.194
283.19	0.727
283.56	2.930
283.92	1.413
284.29	-2.045
284.66	1.079
285.03	0.000
285.40	-0.554
285.77	1.404
286.14	-0.181
286.51	0.000
286.87	3.448
287.24	1.877
287.61	2.314
287.98	-1.213
288.35	-0.496
288.72	-1.698
289.08	-1.525
289.45	0.000
289.82	-2.768
290.19	-0.328
290.56	-2.149
290.93	0.954
291.29	-1.459
291.66	1.127
292.03	-0.471
292.40	1.205
292.77	-0.776
293.13	-0.488
293.50	-0.149
293.87	0.920
294.24	0.452
294.60	-2.121
294.97	1.669
295.34	0.148
295.71	0.298
296.08	-2.304
296.44	-1.431
296.81	0.855
297.18	-0.704
297.55	1.271
297.91	2.510
298.28	-0.822
298.65	-0.558
299.02	2.674
299.38	0.535
299.75	-0.543
300.12	-0.897
300.48	1.790
300.85	0.262
301.22	0.647
301.59	0.650
301.95	1.889
302.32	-1.043
302.69	0.734
303.05	0.855
303.42	-0.375
303.79	1.316
304.15	1.303
304.52	1.167
304.89	0.354
305.25	0.855
305.62	0.118
305.99	2.002
306.35	0.888
306.72	0.456
307.09	2.270
307.45	0.908
307.82	0.670
308.19	1.790
308.55	0.980
308.92	0.537
309.29	1.730
309.65	0.636
310.02	1.836
310.38	1.514
310.75	2.357
311.12	3.306
311.48	1.879
311.85	2.472
312.22	2.575
312.58	3.866
312.95	3.160
313.31	2.298
313.68	4.020
314.05	4.946
314.41	2.616
314.78	1.798
315.14	4.442
315.51	3.647
315.87	4.647
316.24	5.053
316.61	5.758
316.97	4.876
317.34	5.010
317.70	5.102
318.07	6.157
318.43	4.869
318.80	5.915
319.16	5.066
319.53	5.545
319.89	6.303
320.26	6.765
320.62	5.769
320.99	6.866
321.35	6.108
321.72	7.472
322.08	7.023
322.45	8.317
322.81	9.318
323.18	9.990
323.54	10.536
323.91	10.936
324.27	10.741
324.64	11.060
325.00	11.867
325.37	12.489
325.73	14.523
326.10	12.666
326.46	14.886
326.83	14.043
327.19	15.513
327.56	17.632
327.92	16.907
328.29	16.970
328.65	16.636
329.01	17.756
329.38	18.287
329.74	19.872
330.11	19.130
330.47	18.892
330.84	19.890
331.20	19.314
331.56	20.328
331.93	20.604
332.29	21.096
332.66	21.510
333.02	21.176
333.38	21.595
333.75	22.618
334.11	22.311
334.48	22.860
334.84	23.185
335.20	22.518
335.57	22.924
335.93	24.799
336.29	22.764
336.66	23.700
337.02	23.784
337.38	21.925
337.75	23.178
338.11	24.061
338.47	24.199
338.84	23.956
339.20	23.726
339.56	24.688
339.93	23.369
340.29	23.826
340.65	23.951
341.02	24.452
341.38	24.684
341.74	24.640
342.11	24.147
342.47	24.635
342.83	23.258
343.20	23.484
343.56	23.510
343.92	24.040
344.28	24.811
344.65	23.267
345.01	25.378
345.37	25.748
345.73	24.714
346.10	23.140
346.46	23.721
346.82	23.657
347.19	22.843
347.55	23.034
347.91	24.094
348.27	24.025
348.63	24.960
349.00	24.025
349.36	22.482
349.72	24.124
350.08	24.699
350.45	23.483
350.81	24.283
351.17	24.035
351.53	22.991
351.89	23.201
352.26	24.031
352.62	25.115
352.98	24.367
353.34	24.620
353.70	23.938
354.07	23.446
354.43	25.534
354.79	24.723
355.15	23.403
355.51	24.453
355.87	22.925
356.24	24.067
356.60	25.222
356.96	24.249
357.32	23.595
357.68	24.291
358.04	24.788
358.40	23.589
358.77	24.189
359.13	24.943
359.49	24.943
359.85	24.085
360.21	25.419
360.57	25.151
360.93	24.741
361.29	24.888
361.66	24.085
362.02	25.518
362.38	25.752
362.74	25.714
363.10	25.179
363.46	26.709
363.82	25.583
364.18	24.313
364.54	25.876
364.90	26.066
365.26	25.606
365.62	26.301
365.98	25.960
366.35	25.070
366.71	24.665
367.07	26.253
367.43	26.973
367.79	25.842
368.15	25.605
368.51	26.923
368.87	27.473
369.23	26.316
369.59	26.319
369.95	26.779
370.31	28.200
370.67	26.464
371.03	26.385
371.39	26.521
371.75	28.469
372.11	27.547
372.47	27.983
372.83	28.025
373.19	27.929
373.55	28.431
373.91	28.450
374.27	28.337
374.63	27.605
374.99	28.095
375.35	26.716
375.71	28.292
376.07	28.884
376.42	27.219
376.78	28.366
377.14	29.220
377.50	28.820
377.86	28.999
378.22	28.392
378.58	28.598
378.94	28.175
379.30	28.763
379.66	28.780
380.02	28.877
380.38	28.701
380.74	28.722
381.09	29.408
381.45	29.535
381.81	29.583
382.17	30.263
382.53	30.152
382.89	29.486
383.25	31.306
383.61	29.304
383.97	30.067
384.32	30.288
384.68	31.016
385.04	29.529
385.40	30.615
385.76	30.427
386.12	31.230
386.48	31.807
386.83	31.534
387.19	31.441
387.55	31.314
387.91	30.587
388.27	30.519
388.62	31.130
388.98	31.193
389.34	30.845
389.70	31.486
390.06	31.200
390.42	31.538
390.77	30.662
391.13	31.863
391.49	31.566
391.85	31.608
392.20	31.007
392.56	30.666
392.92	32.288
393.28	32.262
393.64	31.690
393.99	32.369
394.35	30.474
394.71	30.883
395.07	32.392
395.42	30.930
395.78	31.364
396.14	32.399
396.50	31.376
396.85	31.462
397.21	30.863
397.57	31.611
397.92	31.499
398.28	32.000
398.64	32.243
399.00	31.854
399.35	31.285
399.71	31.533
400.07	31.821
400.42	32.238
400.78	31.843
401.14	30.898
401.49	31.250
401.85	31.483
402.21	30.751
402.57	32.100
402.92	31.844
403.28	31.250
403.63	30.977
403.99	31.821
404.35	30.918
404.70	31.305
405.06	30.623
405.42	31.119
405.77	29.977
406.13	31.346
406.49	32.295
406.84	30.714
407.20	31.979
407.55	30.652
407.91	30.505
408.27	30.882
408.62	30.968
408.98	30.625
409.34	29.799
409.69	30.372
410.05	30.018
410.40	30.963
410.76	30.587
411.11	31.297
411.47	30.627
411.83	31.296
412.18	30.941
412.54	30.201
412.89	31.349
413.25	30.401
413.60	30.194
413.96	31.177
414.31	31.437
414.67	30.857
415.03	31.177
415.38	31.230
415.74	32.088
416.09	31.138
416.45	30.754
416.80	31.664
417.16	31.296
417.51	31.845
417.87	30.809
418.22	31.669
418.58	31.964
418.93	32.311
419.29	32.371
419.64	32.349
420.00	32.807
420.35	32.052
420.71	31.933
421.06	32.012
421.42	31.792
421.77	33.110
422.12	32.065
422.48	32.175
422.83	32.688
423.19	32.795
423.54	33.602
423.90	32.851
424.25	32.240
424.61	34.861
424.96	34.523
425.31	33.426
425.67	34.212
426.02	32.530
426.38	34.483
426.73	33.840
427.09	33.946
427.44	33.295
427.79	33.837
428.15	34.650
428.50	34.663
428.85	35.012
429.21	34.588
429.56	35.000
429.92	34.770
430.27	34.497
430.62	35.580
430.98	35.128
431.33	35.539
431.68	35.871
432.04	36.374
432.39	36.125
432.74	35.671
433.10	35.847
433.45	35.406
433.80	37.178
434.16	35.787
434.51	37.096
434.86	36.380
435.22	36.303
435.57	36.659
435.92	36.928
436.28	36.439
436.63	36.292
436.98	35.739
437.34	37.921
437.69	37.631
438.04	36.245
438.39	38.267
438.75	37.194
439.10	37.812
439.45	36.814
439.81	37.108
440.16	37.081
440.51	38.706
440.86	37.883
441.22	37.203
441.57	37.684
441.92	38.568
442.27	37.392
442.63	38.036
442.98	38.544
443.33	37.836
443.68	38.562
444.03	38.703
444.39	38.864
444.74	39.317
445.09	39.145
445.44	38.098
445.79	39.878
446.15	38.226
446.50	39.085
446.85	38.276
447.20	39.275
447.55	38.729
447.91	39.304
448.26	38.380
448.61	38.653
448.96	39.328
449.31	39.233
449.66	39.038
450.02	38.947
450.37	39.362
450.72	39.492
451.07	39.912
451.42	39.281
451.77	40.215
452.12	40.167
452.47	39.798
452.83	39.953
453.18	40.670
453.53	38.930
453.88	41.268
454.23	39.238
454.58	40.211
454.93	41.184
455.28	41.109
455.63	40.356
455.98	41.506
456.34	40.152
456.69	41.213
457.04	41.364
457.39	39.833
457.74	40.284
458.09	39.559
458.44	41.224
458.79	40.191
459.14	41.529
459.49	40.853
459.84	40.697
460.19	40.692
460.54	40.956
460.89	41.200
461.24	40.376
461.59	41.208
461.94	40.993
462.29	41.513
462.64	41.173
462.99	41.633
463.34	40.986
463.69	41.158
464.04	39.836
464.39	41.458
464.74	40.544
465.09	39.567
465.44	41.060
465.79	40.666
466.14	40.564
466.49	40.990
466.84	40.696
467.19	42.394
467.54	40.000
467.89	42.047
468.24	41.449
468.59	42.099
468.94	41.801
469.29	40.676
469.64	41.644
469.99	42.134
470.34	42.285
470.68	42.805
471.03	42.051
471.38	42.708
471.73	42.517
472.08	43.307
472.43	42.214
472.78	42.667
473.13	41.882
473.48	42.055
473.83	41.935
474.17	42.484
474.52	43.095
474.87	41.667
475.22	41.770
475.57	40.833
475.92	41.955
476.27	40.971
476.61	42.761
476.96	41.140
477.31	42.519
477.66	41.229
478.01	42.680
478.36	41.802
478.70	43.139
479.05	42.888
479.40	42.487
479.75	41.845
480.10	42.262
480.45	40.909
480.79	41.905
481.14	42.398
481.49	42.207
481.84	41.655
482.19	41.389
482.53	42.898
482.88	42.383
483.23	42.629
483.58	42.784
483.92	43.239
484.27	41.914
484.62	41.901
484.97	41.154
485.31	39.680
485.66	38.927
486.01	39.044
486.36	40.028
486.70	41.352
487.05	40.477
487.40	40.785
487.75	40.764
488.09	40.642
488.44	41.576
488.79	41.634
489.13	41.955
489.48	41.925
489.83	42.926
490.17	42.577
490.52	42.844
490.87	41.894
491.22	43.578
491.56	42.176
491.91	42.700
492.26	43.255
492.60	42.626
492.95	42.313
493.30	42.925
493.64	43.065
493.99	42.973
494.34	42.238
494.68	44.007
495.03	43.738
495.37	42.625
495.72	43.369
496.07	42.562
496.41	42.844
496.76	42.694
497.11	43.288
497.45	43.630
497.80	42.221
498.14	43.173
498.49	43.747
498.84	42.718
499.18	44.152
499.53	42.767
499.87	42.133
500.22	43.235
500.56	44.272
500.91	43.744
501.26	43.134
501.60	42.995
501.95	43.623
502.29	42.844
502.64	44.036
502.98	43.603
503.33	43.374
503.67	42.241
504.02	42.733
504.36	44.363
504.71	43.668
505.06	43.635
505.40	44.212
505.75	43.598
506.09	44.135
506.44	43.509
506.78	43.803
507.13	42.842
507.47	44.131
507.82	42.850
508.16	44.404
508.51	44.101
508.85	44.048
509.19	43.119
509.54	44.133
509.88	44.255
510.23	44.340
510.57	44.550
510.92	45.328
511.26	43.169
511.61	44.816
511.95	44.235
512.30	44.475
512.64	43.684
512.98	44.939
513.33	45.360
513.67	44.556
514.02	44.128
514.36	45.319
514.70	44.369
515.05	45.455
515.39	44.694
515.74	45.550
516.08	45.072
516.42	44.306
516.77	45.061
517.11	44.908
517.46	46.411
517.80	47.052
518.14	44.626
518.49	45.487
518.83	45.519
519.17	45.056
519.52	44.997
519.86	46.953
520.20	45.966
520.55	45.354
520.89	46.212
521.23	45.238
521.58	45.329
521.92	46.105
522.26	45.841
522.61	45.120
522.95	45.373
523.29	44.702
523.64	45.222
523.98	44.940
524.32	44.877
524.66	44.224
525.01	45.215
525.35	45.425
525.69	45.478
526.04	45.170
526.38	45.576
526.72	45.530
527.06	46.419
527.41	46.337
527.75	45.479
528.09	46.459
528.43	44.590
528.78	45.791
529.12	46.031
529.46	44.652
529.80	44.028
530.15	45.396
530.49	45.278
530.83	45.056
531.17	45.993
531.51	44.742
531.86	44.832
532.20	45.614
532.54	45.187
532.88	45.455
533.22	45.922
533.57	45.431
533.91	43.883
534.25	43.683
534.59	43.660
534.93	42.875
535.27	44.682
535.62	45.013
535.96	42.728
536.30	43.914
536.64	44.157
536.98	45.551
537.32	45.197
537.66	43.720
538.01	43.918
538.35	44.865
538.69	44.652
539.03	43.737
539.37	44.245
539.71	43.763
540.05	44.962
540.39	45.983
540.73	43.815
541.07	45.628
541.42	42.606
541.76	44.120
542.10	45.307
542.44	44.570
542.78	44.233
543.12	43.381
543.46	43.288
543.80	44.883
544.14	43.653
544.48	44.357
544.82	44.249
545.16	44.131
545.50	43.001
545.84	44.924
546.18	44.799
546.52	44.595
546.86	44.943
547.20	44.937
547.54	42.837
547.88	43.597
548.22	43.316
548.56	43.353
548.90	43.733
549.24	43.868
549.58	44.178
549.92	44.170
550.26	44.942
550.60	44.239
550.94	45.036
551.28	43.868
551.62	44.682
551.96	45.152
552.30	42.718
552.64	45.531
552.98	44.008
553.32	44.084
553.66	44.701
554.00	44.776
554.34	45.054
554.68	46.199
555.02	44.284
555.36	44.213
555.69	44.413
556.03	44.211
556.37	44.452
556.71	45.168
557.05	46.046
557.39	43.727
557.73	45.150
558.07	45.516
558.41	44.802
558.75	45.399
559.08	44.202
559.42	45.482
559.76	45.859
560.10	45.414
560.44	45.448
560.78	44.120
561.12	44.720
561.45	43.767
561.79	43.763
562.13	44.600
562.47	42.997
562.81	44.696
563.15	44.997
563.48	43.815
563.82	44.557
564.16	44.287
564.50	44.019
564.84	43.717
565.17	45.225
565.51	44.133
565.85	45.098
566.19	44.335
566.52	42.857
566.86	43.995
567.20	43.644
567.54	44.359
567.88	42.099
568.21	43.121
568.55	42.948
568.89	41.004
569.23	41.138
569.56	40.479
569.90	40.165
570.24	41.075
570.57	39.156
570.91	39.884
571.25	39.624
571.59	38.870
571.92	38.452
572.26	38.586
572.60	39.125
572.93	37.783
573.27	38.567
573.61	38.142
573.95	38.212
574.28	37.416
574.62	38.129
574.96	37.787
575.29	38.084
575.63	38.174
575.97	37.729
576.30	37.325
576.64	37.990
576.98	37.522
577.31	37.354
577.65	37.866
577.98	37.388
578.32	37.676
578.66	37.365
578.99	37.688
579.33	37.503
579.67	37.586
580.00	37.128
580.34	38.087
580.67	38.122
581.01	36.517
581.35	37.282
581.68	36.508
582.02	37.782
582.35	37.545
582.69	38.197
583.02	37.931
583.36	37.774
583.70	37.532
584.03	38.308
584.37	38.512
584.70	38.224
585.04	38.253
585.37	37.375
585.71	37.954
586.04	37.969
586.38	38.626
586.72	38.754
587.05	38.516
587.39	38.186
587.72	38.705
588.06	38.459
588.39	38.280
588.73	38.624
589.06	39.994
589.40	39.196
589.73	39.129
590.07	39.621
590.40	40.000
590.73	40.184
591.07	40.615
591.40	41.508
591.74	40.660
592.07	41.081
592.41	39.915
592.74	39.431
593.08	39.204
593.41	39.342
593.75	39.004
594.08	40.474
594.41	40.739
594.75	40.808
595.08	40.150
595.42	40.210
595.75	39.802
596.09	40.357
596.42	40.630
596.75	40.060
597.09	41.407
597.42	39.459
597.75	41.408
598.09	41.934
598.42	40.345
598.76	39.327
599.09	39.661
599.42	39.369
599.76	39.638
600.09	40.534
600.42	39.537
600.76	40.113
601.09	39.954
601.42	38.662
601.76	39.914
602.09	40.491
602.42	40.905
602.76	39.344
603.09	40.161
603.42	40.451
603.76	40.447
604.09	40.168
604.42	41.007
604.76	40.253
605.09	40.371
605.42	40.603
605.75	39.327
606.09	39.560
606.42	39.841
606.75	40.661
607.09	40.670
607.42	40.405
607.75	39.647
608.08	40.262
608.42	40.870
608.75	39.907
609.08	40.623
609.41	41.804
609.75	40.712
610.08	41.569
610.41	41.831
610.74	40.522
611.07	40.923
611.41	40.948
611.74	41.748
612.07	41.622
612.40	40.672
612.73	41.195
613.07	41.277
613.40	42.255
613.73	41.199
614.06	41.296
614.39	41.657
614.72	42.123
615.06	41.141
615.39	40.206
615.72	40.739
616.05	40.420
616.38	41.555
616.71	41.441
617.05	42.461
617.38	42.415
617.71	41.892
618.04	42.795
618.37	43.019
618.70	43.286
619.03	41.300
619.36	42.636
619.69	43.216
620.03	41.804
620.36	42.616
620.69	43.216
621.02	43.075
621.35	42.823
621.68	43.852
622.01	43.528
622.34	44.255
622.67	42.969
623.00	44.300
623.33	43.955
623.66	41.876
623.99	43.609
624.32	41.369
624.65	42.973
624.99	41.673
625.32	42.216
625.65	43.901
625.98	42.801
626.31	44.372
626.64	44.351
626.97	44.606
627.30	45.362
627.63	42.487
627.96	44.299
628.29	45.129
628.62	44.317
628.95	45.571
629.28	46.241
629.61	46.124
629.94	43.573
630.26	47.316
630.59	46.533
630.92	46.947
631.25	46.069
631.58	46.772
631.91	46.064
632.24	45.778
632.57	47.333
632.90	47.931
633.23	47.547
