SpectraSuite Data File
++++++++++++++++++++++++++++++++++++
Date: Sat May 16 11:40:11 PDT 2015
User: schluterlab
Dark Spectrum Present: Yes
Reference Spectrum Present: Yes
Number of Sampled Component Spectra: 1
Spectrometers: USB2E3373
Integration Time (usec): 3000 (USB2E3373)
Spectra Averaged: 3 (USB2E3373)
Boxcar Smoothing: 0 (USB2E3373)
Correct for Electrical Dark: No (USB2E3373)
Strobe/Lamp Enabled: No (USB2E3373)
Correct for Detector Non-linearity: No (USB2E3373)
Correct for Stray Light: No (USB2E3373)
Number of Pixels in Processed Spectrum: 2048
>>>>>Begin Processed Spectral Data<<<<<
178.53	0.000
178.91	106.667
179.29	700.000
179.67	-1900.000
180.04	0.000
180.42	900.000
180.80	400.000
181.18	500.000
181.56	-62.500
181.94	700.000
182.31	600.000
182.69	-30.769
183.07	-633.333
183.45	1650.000
183.83	333.333
184.20	-214.286
184.58	-225.000
184.96	-300.000
185.34	162.500
185.72	-300.000
186.09	216.667
186.47	-137.500
186.85	-250.000
187.23	-137.500
187.61	-125.000
187.98	-250.000
188.36	-200.000
188.74	-212.500
189.12	1400.000
189.49	385.714
189.87	-116.667
190.25	200.000
190.63	-50.000
191.00	-244.444
191.38	280.000
191.76	13.333
192.14	660.000
192.51	-240.000
192.89	-633.333
193.27	0.000
193.65	-111.111
194.02	-128.571
194.40	466.667
194.78	-130.000
195.15	-1000.000
195.53	-109.091
195.91	-516.667
196.29	280.000
196.66	-1033.333
197.04	1500.000
197.42	-425.000
197.79	-20.000
198.17	-266.667
198.55	-1050.000
198.92	-1700.000
199.30	275.000
199.68	-1250.000
200.05	-188.889
200.43	-211.111
200.81	-1600.000
201.18	33.333
201.56	271.429
201.94	-126.667
202.31	13.636
202.69	-90.000
203.07	-170.000
203.44	433.333
203.82	-283.333
204.19	-650.000
204.57	-175.000
204.95	-1400.000
205.32	18.750
205.70	1200.000
206.08	-1300.000
206.45	-38.889
206.83	-800.000
207.20	-300.000
207.58	-666.667
207.96	-366.667
208.33	-50.000
208.71	-144.444
209.08	110.000
209.46	-114.286
209.84	850.000
210.21	0.000
210.59	-10.000
210.96	900.000
211.34	-233.333
211.71	-533.333
212.09	425.000
212.46	500.000
212.84	-3100.000
213.22	333.333
213.59	158.333
213.97	-44.444
214.34	90.000
214.72	-100.000
215.09	-666.667
215.47	-166.667
215.84	-60.000
216.22	-40.000
216.59	6.667
216.97	-475.000
217.34	550.000
217.72	-85.714
218.09	-400.000
218.47	-271.429
218.84	242.857
219.22	-142.857
219.59	0.000
219.97	242.857
220.34	500.000
220.72	225.000
221.09	-46.154
221.47	0.000
221.84	533.333
222.22	-350.000
222.59	1200.000
222.97	-200.000
223.34	-1050.000
223.72	-266.667
224.09	-7.143
224.46	-300.000
224.84	-107.143
225.21	-328.571
225.59	-72.727
225.96	-300.000
226.34	-114.286
226.71	-66.667
227.08	15.000
227.46	2800.000
227.83	-142.857
228.21	-250.000
228.58	150.000
228.95	-93.750
229.33	-1100.000
229.70	-300.000
230.08	-1250.000
230.45	-91.667
230.82	-250.000
231.20	-100.000
231.57	-400.000
231.95	2100.000
232.32	-9.524
232.69	-122.222
233.07	-385.714
233.44	-600.000
233.81	-66.667
234.19	-122.222
234.56	12.500
234.93	0.000
235.31	-442.857
235.68	-192.857
236.05	-82.353
236.43	-54.545
236.80	-48.387
237.17	-8.333
237.55	-61.905
237.92	-90.909
238.29	-34.286
238.67	-23.529
239.04	-11.111
239.41	-25.806
239.79	-46.154
240.16	-40.476
240.53	-23.636
240.91	-35.897
241.28	-1.818
241.65	-7.692
242.02	8.197
242.40	-27.869
242.77	3.030
243.14	-30.508
243.51	-30.000
243.89	3.797
244.26	-5.618
244.63	9.474
245.00	0.000
245.38	-9.322
245.75	9.735
246.12	-8.800
246.49	0.000
246.87	-5.691
247.24	-7.627
247.61	-6.780
247.98	-10.563
248.36	-3.497
248.73	1.266
249.10	-6.369
249.47	0.585
249.84	1.705
250.22	-2.976
250.59	-3.955
250.96	3.665
251.33	5.213
251.70	2.885
252.08	3.791
252.45	0.000
252.82	0.476
253.19	0.851
253.56	1.210
253.94	1.266
254.31	1.288
254.68	3.659
255.05	-1.210
255.42	1.587
255.79	2.151
256.16	1.569
256.54	2.206
256.91	0.000
257.28	-2.564
257.65	3.546
258.02	6.289
258.39	5.017
258.76	-2.703
259.14	2.469
259.51	5.574
259.88	4.573
260.25	7.453
260.62	1.286
260.99	0.890
261.36	4.878
261.73	2.601
262.10	4.722
262.47	1.709
262.85	8.000
263.22	6.304
263.59	1.846
263.96	3.478
264.33	2.168
264.70	2.762
265.07	1.923
265.44	3.876
265.81	1.809
266.18	1.772
266.55	3.922
266.92	4.030
267.29	3.148
267.66	3.210
268.03	5.314
268.40	4.695
268.77	2.410
269.14	3.016
269.51	4.368
269.88	3.440
270.25	2.564
270.62	3.890
270.99	2.928
271.36	3.730
271.73	5.605
272.10	2.059
272.47	3.111
272.84	6.222
273.21	3.670
273.58	4.835
273.95	1.754
274.32	4.525
274.69	4.814
275.06	5.930
275.43	2.232
275.80	6.110
276.17	4.812
276.54	4.073
276.91	4.321
277.28	5.071
277.65	6.198
278.02	4.593
278.39	4.715
278.76	2.590
279.13	5.534
279.50	4.175
279.87	3.594
280.23	4.049
280.60	3.976
280.97	4.854
281.34	5.222
281.71	5.192
282.08	4.839
282.45	0.611
282.82	2.713
283.19	3.636
283.56	7.509
283.92	3.357
284.29	4.833
284.66	5.935
285.03	6.595
285.40	4.797
285.77	5.088
286.14	5.415
286.51	3.197
286.87	4.174
287.24	6.143
287.61	5.620
287.98	4.506
288.35	3.967
288.72	4.754
289.08	3.220
289.45	3.872
289.82	4.844
290.19	6.404
290.56	3.306
290.93	3.975
291.29	3.728
291.66	3.060
292.03	5.651
292.40	4.970
292.77	3.882
293.13	3.902
293.50	3.863
293.87	4.601
294.24	4.525
294.60	1.515
294.97	7.284
295.34	4.000
295.71	2.976
296.08	1.536
296.44	2.003
296.81	3.846
297.18	5.634
297.55	3.814
297.91	5.160
298.28	4.932
298.65	4.045
299.02	5.348
299.38	5.481
299.75	3.804
300.12	5.128
300.48	4.348
300.85	4.718
301.22	5.433
301.59	3.641
301.95	6.423
302.32	2.738
302.69	4.896
303.05	3.419
303.42	3.375
303.79	4.067
304.15	4.976
304.52	4.434
304.89	5.313
305.25	3.785
305.62	6.110
305.99	7.303
306.35	6.104
306.72	5.239
307.09	6.583
307.45	5.335
307.82	6.145
308.19	6.600
308.55	5.882
308.92	4.834
309.29	5.297
309.65	5.832
310.02	5.184
310.38	4.973
310.75	6.455
311.12	6.095
311.48	5.324
311.85	6.591
312.22	6.076
312.58	6.918
312.95	5.708
313.31	7.892
313.68	7.839
314.05	8.902
314.41	6.740
314.78	6.494
315.14	7.502
315.51	8.004
315.87	7.648
316.24	7.483
316.61	8.253
316.97	9.055
317.34	8.382
317.70	7.421
318.07	8.955
318.43	8.427
318.80	9.484
319.16	9.850
319.53	8.929
319.89	8.937
320.26	9.608
320.62	9.135
320.99	10.149
321.35	9.064
321.72	10.645
322.08	10.979
322.45	8.812
322.81	10.183
323.18	11.047
323.54	11.275
323.91	11.307
324.27	11.692
324.64	10.878
325.00	11.431
325.37	12.760
325.73	12.511
326.10	11.072
326.46	11.734
326.83	11.830
327.19	12.761
327.56	13.629
327.92	12.319
328.29	13.853
328.65	11.000
329.01	13.516
329.38	13.649
329.74	14.377
330.11	13.418
330.47	14.441
330.84	15.032
331.20	14.350
331.56	14.494
331.93	14.831
332.29	14.795
332.66	15.277
333.02	14.751
333.38	16.577
333.75	15.761
334.11	14.044
334.48	14.387
334.84	17.060
335.20	15.160
335.57	14.350
335.93	17.278
336.29	14.792
336.66	15.330
337.02	16.216
337.38	14.260
337.75	14.838
338.11	14.758
338.47	15.214
338.84	14.882
339.20	15.290
339.56	17.291
339.93	15.168
340.29	15.146
340.65	14.510
341.02	16.358
341.38	15.670
341.74	16.003
342.11	15.017
342.47	15.365
342.83	14.777
343.20	15.628
343.56	14.122
343.92	16.694
344.28	16.989
344.65	16.172
345.01	15.714
345.37	16.694
345.73	15.221
346.10	15.045
346.46	15.435
346.82	14.916
347.19	15.201
347.55	15.409
347.91	16.220
348.27	14.797
348.63	16.155
349.00	15.513
349.36	14.520
349.72	15.605
350.08	16.038
350.45	15.209
350.81	16.242
351.17	15.595
351.53	14.240
351.89	14.956
352.26	15.194
352.62	16.359
352.98	15.506
353.34	16.387
353.70	15.135
354.07	15.578
354.43	16.126
354.79	15.531
355.15	15.096
355.51	14.766
355.87	15.573
356.24	15.886
356.60	16.761
356.96	16.320
357.32	15.835
357.68	15.709
358.04	16.012
358.40	16.009
358.77	16.306
359.13	15.685
359.49	14.815
359.85	16.768
360.21	16.743
360.57	16.491
360.93	17.481
361.29	16.517
361.66	15.396
362.02	15.754
362.38	16.434
362.74	16.777
363.10	16.141
363.46	17.308
363.82	16.327
364.18	17.294
364.54	17.084
364.90	16.003
365.26	16.262
365.62	16.821
365.98	17.639
366.35	16.690
366.71	17.336
367.07	17.078
367.43	18.325
367.79	16.495
368.15	16.714
368.51	17.413
368.87	17.376
369.23	18.105
369.59	17.847
369.95	17.054
370.31	17.862
370.67	16.558
371.03	18.003
371.39	17.963
371.75	18.026
372.11	17.504
372.47	18.221
372.83	18.498
373.19	18.643
373.55	18.015
373.91	18.279
374.27	18.686
374.63	19.048
374.99	18.985
375.35	18.775
375.71	19.986
376.07	18.754
376.42	18.675
376.78	19.673
377.14	19.864
377.50	20.309
377.86	19.831
378.22	19.724
378.58	19.086
378.94	20.037
379.30	19.317
379.66	20.036
380.02	20.380
380.38	20.181
380.74	20.926
381.09	20.797
381.45	21.718
381.81	20.992
382.17	20.677
382.53	20.790
382.89	20.813
383.25	20.831
383.61	20.932
383.97	21.127
384.32	21.589
384.68	21.161
385.04	21.075
385.40	21.059
385.76	21.829
386.12	22.361
386.48	22.277
386.83	22.577
387.19	22.475
387.55	22.774
387.91	22.347
388.27	21.592
388.62	21.935
388.98	22.229
389.34	22.215
389.70	22.716
390.06	22.312
390.42	23.333
390.77	22.650
391.13	24.099
391.49	23.269
391.85	22.756
392.20	23.058
392.56	23.641
392.92	22.989
393.28	24.225
393.64	23.873
393.99	23.938
394.35	23.783
394.71	24.089
395.07	24.043
395.42	24.374
395.78	23.633
396.14	23.863
396.50	23.792
396.85	23.751
397.21	23.572
397.57	23.587
397.92	23.653
398.28	24.611
398.64	24.807
399.00	24.944
399.35	23.224
399.71	24.390
400.07	25.194
400.42	24.453
400.78	23.614
401.14	24.371
401.49	24.646
401.85	24.527
402.21	24.553
402.57	24.575
402.92	25.677
403.28	25.184
403.63	23.907
403.99	25.482
404.35	24.758
404.70	25.278
405.06	25.202
405.42	25.277
405.77	24.943
406.13	25.610
406.49	25.944
406.84	26.035
407.20	26.031
407.55	24.889
407.91	25.712
408.27	26.103
408.62	26.578
408.98	26.562
409.34	25.777
409.69	26.465
410.05	25.591
410.40	25.935
410.76	26.319
411.11	26.683
411.47	26.535
411.83	26.650
412.18	25.495
412.54	25.503
412.89	26.731
413.25	25.030
413.60	25.213
413.96	25.200
414.31	26.422
414.67	25.651
415.03	26.326
415.38	26.805
415.74	26.418
416.09	26.598
416.45	25.860
416.80	27.373
417.16	26.777
417.51	28.037
417.87	27.379
418.22	26.738
418.58	26.637
418.93	27.039
419.29	27.290
419.64	26.884
420.00	27.947
420.35	27.499
420.71	26.711
421.06	27.041
421.42	27.635
421.77	28.252
422.12	28.316
422.48	26.670
422.83	27.392
423.19	27.784
423.54	27.378
423.90	27.473
424.25	27.489
424.61	29.192
424.96	28.847
425.31	28.284
425.67	28.309
426.02	28.514
426.38	29.583
426.73	28.404
427.09	29.289
427.44	29.205
427.79	28.895
428.15	29.264
428.50	28.856
428.85	28.957
429.21	29.164
429.56	29.635
429.92	29.860
430.27	29.960
430.62	29.990
430.98	28.751
431.33	29.616
431.68	28.954
432.04	30.666
432.39	29.801
432.74	30.156
433.10	30.051
433.45	31.261
433.80	31.019
434.16	29.500
434.51	30.849
434.86	32.396
435.22	31.904
435.57	31.212
435.92	31.360
436.28	32.285
436.63	30.639
436.98	30.126
437.34	30.892
437.69	31.505
438.04	31.877
438.39	31.348
438.75	31.607
439.10	31.649
439.45	31.261
439.81	30.843
440.16	31.743
440.51	31.529
440.86	31.695
441.22	30.404
441.57	31.211
441.92	31.714
442.27	31.981
442.63	32.725
442.98	32.223
443.33	32.290
443.68	31.735
444.03	32.269
444.39	32.599
444.74	32.434
445.09	32.292
445.44	33.483
445.79	32.381
446.15	32.749
446.50	32.226
446.85	32.478
447.20	32.737
447.55	33.923
447.91	32.285
448.26	32.346
448.61	32.767
448.96	32.941
449.31	33.089
449.66	33.829
450.02	32.742
450.37	32.638
450.72	32.825
451.07	33.250
451.42	32.962
451.77	32.436
452.12	33.135
452.47	32.997
452.83	33.547
453.18	33.270
453.53	33.333
453.88	34.450
454.23	33.313
454.58	34.991
454.93	33.627
455.28	33.270
455.63	34.091
455.98	34.458
456.34	33.609
456.69	35.460
457.04	33.927
457.39	34.211
457.74	34.141
458.09	33.875
458.44	34.642
458.79	33.688
459.14	34.797
459.49	35.110
459.84	34.682
460.19	34.010
460.54	34.543
460.89	33.969
461.24	33.819
461.59	35.170
461.94	34.437
462.29	35.200
462.64	35.178
462.99	35.542
463.34	34.706
463.69	35.305
464.04	33.158
464.39	33.632
464.74	33.806
465.09	34.336
465.44	34.010
465.79	34.067
466.14	35.788
466.49	34.657
466.84	35.114
467.19	34.726
467.54	34.367
467.89	34.464
468.24	35.095
468.59	35.915
468.94	34.727
469.29	34.893
469.64	34.973
469.99	35.517
470.34	35.404
470.68	35.029
471.03	35.375
471.38	35.486
471.73	36.224
472.08	35.676
472.43	35.714
472.78	36.000
473.13	35.255
473.48	36.439
473.83	35.608
474.17	35.987
474.52	36.701
474.87	37.179
475.22	35.870
475.57	35.611
475.92	35.637
476.27	35.371
476.61	36.225
476.96	35.159
477.31	35.414
477.66	35.196
478.01	36.089
478.36	35.464
478.70	36.199
479.05	36.344
479.40	36.114
479.75	35.219
480.10	35.615
480.45	34.478
480.79	36.377
481.14	36.829
481.49	36.108
481.84	36.153
482.19	35.678
482.53	36.316
482.88	35.216
483.23	36.244
483.58	37.188
483.92	36.885
484.27	35.357
484.62	34.903
484.97	34.996
485.31	33.856
485.66	33.081
486.01	32.978
486.36	34.317
486.70	34.963
487.05	34.396
487.40	34.028
487.75	34.363
488.09	33.632
488.44	34.472
488.79	34.878
489.13	35.070
489.48	36.215
489.83	36.070
490.17	34.872
490.52	36.096
490.87	35.704
491.22	36.151
491.56	35.926
491.91	36.975
492.26	35.991
492.60	36.489
492.95	35.697
493.30	36.351
493.64	36.389
493.99	35.707
494.34	37.667
494.68	35.861
495.03	36.042
495.37	36.037
495.72	36.198
496.07	36.039
496.41	36.452
496.76	36.301
497.11	36.599
497.45	36.398
497.80	37.219
498.14	36.640
498.49	35.861
498.84	36.699
499.18	36.404
499.53	35.996
499.87	36.245
500.22	36.814
500.56	37.119
500.91	36.256
501.26	37.215
501.60	36.688
501.95	36.618
502.29	35.664
502.64	37.341
502.98	35.937
503.33	35.573
503.67	35.536
504.02	37.035
504.36	36.471
504.71	36.829
505.06	36.246
505.40	37.275
505.75	36.382
506.09	37.007
506.44	36.742
506.78	36.578
507.13	36.457
507.47	37.507
507.82	36.242
508.16	37.461
508.51	36.837
508.85	37.164
509.19	35.740
509.54	37.209
509.88	37.926
510.23	37.421
510.57	37.619
510.92	38.400
511.26	37.374
511.61	37.311
511.95	36.746
512.30	38.428
512.64	36.950
512.98	37.844
513.33	36.848
513.67	38.582
514.02	36.969
514.36	37.452
514.70	38.993
515.05	38.079
515.39	37.659
515.74	38.511
516.08	38.329
516.42	38.810
516.77	39.168
517.11	38.787
517.46	39.234
517.80	37.786
518.14	37.560
518.49	39.331
518.83	37.685
519.17	38.840
519.52	37.478
519.86	38.769
520.20	39.792
520.55	40.000
520.89	38.572
521.23	38.950
521.58	38.871
521.92	39.899
522.26	39.810
522.61	38.720
522.95	39.694
523.29	40.063
523.64	38.726
523.98	38.638
524.32	38.718
524.66	38.447
525.01	39.756
525.35	38.789
525.69	39.427
526.04	40.405
526.38	40.484
526.72	39.208
527.06	39.779
527.41	39.406
527.75	39.340
528.09	39.444
528.43	38.689
528.78	39.510
529.12	40.461
529.46	39.046
529.80	39.380
530.15	39.601
530.49	37.969
530.83	41.650
531.17	39.259
531.51	39.518
531.86	40.224
532.20	40.351
532.54	39.305
532.88	39.592
533.22	40.107
533.57	39.295
533.91	38.889
534.25	38.843
534.59	38.039
534.93	37.399
535.27	39.144
535.62	39.130
535.96	39.560
536.30	38.024
536.64	40.173
536.98	40.254
537.32	39.530
537.66	38.832
538.01	39.381
538.35	38.784
538.69	38.503
539.03	40.149
539.37	39.721
539.71	39.693
540.05	39.685
540.39	39.820
540.73	38.079
541.07	39.071
541.42	38.420
541.76	38.738
542.10	40.041
542.44	39.907
542.78	39.213
543.12	40.054
543.46	38.219
543.80	38.127
544.14	38.684
544.48	39.108
544.82	38.363
545.16	39.302
545.50	38.694
545.84	38.526
546.18	39.945
546.52	39.331
546.86	40.598
547.20	39.873
547.54	38.567
547.88	38.553
548.22	37.615
548.56	37.742
548.90	38.679
549.24	38.402
549.58	38.109
549.92	39.011
550.26	39.451
550.60	38.549
550.94	39.708
551.28	39.654
551.62	39.586
551.96	39.074
552.30	37.003
552.64	39.409
552.98	39.874
553.32	38.672
553.66	39.366
554.00	39.659
554.34	37.545
554.68	38.816
555.02	40.304
555.36	38.821
555.69	37.751
556.03	39.789
556.37	38.976
556.71	40.372
557.05	40.724
557.39	38.233
557.73	38.950
558.07	40.618
558.41	40.015
558.75	40.228
559.08	38.132
559.42	40.429
559.76	40.184
560.10	41.387
560.44	39.740
560.78	39.179
561.12	39.337
561.45	40.000
561.79	38.885
562.13	40.042
562.47	39.006
562.81	38.685
563.15	39.608
563.48	39.254
563.82	38.878
564.16	39.013
564.50	38.978
564.84	37.434
565.17	38.462
565.51	38.462
565.85	39.689
566.19	38.274
566.52	37.965
566.86	38.622
567.20	37.893
567.54	38.866
567.88	37.130
568.21	37.975
568.55	36.479
568.89	36.779
569.23	35.724
569.56	35.687
569.90	35.169
570.24	35.551
570.57	34.200
570.91	35.022
571.25	34.371
571.59	34.280
571.92	33.512
572.26	34.422
572.60	33.913
572.93	33.137
573.27	33.049
573.61	32.836
573.95	33.715
574.28	32.962
574.62	33.528
574.96	33.300
575.29	32.647
575.63	32.944
575.97	33.145
576.30	32.557
576.64	33.290
576.98	32.993
577.31	32.777
577.65	33.057
577.98	32.655
578.32	33.088
578.66	33.009
578.99	32.959
579.33	32.906
579.67	33.071
580.00	33.061
580.34	33.121
580.67	32.802
581.01	32.107
581.35	32.337
581.68	32.099
582.02	32.587
582.35	32.597
582.69	32.602
583.02	33.179
583.36	33.127
583.70	32.335
584.03	33.702
584.37	32.855
584.70	32.699
585.04	32.506
585.37	32.148
585.71	32.487
586.04	32.877
586.38	32.825
586.72	33.005
587.05	33.588
587.39	33.379
587.72	33.289
588.06	33.177
588.39	32.954
588.73	33.283
589.06	34.047
589.40	34.490
589.73	33.746
590.07	33.030
590.40	32.989
590.73	34.626
591.07	34.385
591.40	35.745
591.74	35.795
592.07	35.000
592.41	35.159
592.74	34.281
593.08	34.260
593.41	34.309
593.75	32.971
594.08	34.687
594.41	34.677
594.75	34.315
595.08	35.038
595.42	34.574
595.75	34.068
596.09	34.614
596.42	35.270
596.75	34.627
597.09	35.263
597.42	34.788
597.75	35.651
598.09	34.433
598.42	34.644
598.76	33.970
599.09	34.688
599.42	33.872
599.76	34.390
600.09	34.924
600.42	34.561
600.76	33.936
601.09	33.802
601.42	33.558
601.76	34.073
602.09	33.620
602.42	35.062
602.76	33.693
603.09	34.637
603.42	34.327
603.76	35.102
604.09	34.802
604.42	35.012
604.76	34.889
605.09	35.172
605.42	35.860
605.75	34.756
606.09	34.579
606.42	34.395
606.75	34.736
607.09	35.112
607.42	35.167
607.75	35.673
608.08	35.789
608.42	36.093
608.75	34.299
609.08	36.045
609.41	34.629
609.75	34.373
610.08	34.706
610.41	34.988
610.74	35.590
611.07	35.649
611.41	35.502
611.74	35.784
612.07	37.325
612.40	35.608
612.73	35.595
613.07	35.223
613.40	37.001
613.73	37.003
614.06	35.640
614.39	35.908
614.72	35.810
615.06	35.924
615.39	35.377
615.72	35.090
616.05	35.837
616.38	36.042
616.71	35.736
617.05	36.550
617.38	36.656
617.71	36.794
618.04	35.776
618.37	37.799
618.70	38.070
619.03	37.373
619.36	38.266
619.69	37.832
620.03	37.259
620.36	37.553
620.69	37.473
621.02	38.052
621.35	39.194
621.68	39.426
622.01	39.401
622.34	37.500
622.67	36.875
623.00	37.567
623.33	39.104
623.66	36.706
623.99	38.421
624.32	37.798
624.65	37.528
624.99	37.117
625.32	38.323
625.65	39.938
625.98	38.576
626.31	39.152
626.64	39.414
626.97	39.041
627.30	39.149
627.63	39.119
627.96	39.774
628.29	40.257
628.62	40.306
628.95	41.240
629.28	40.320
629.61	40.334
629.94	41.682
630.26	41.054
630.59	42.111
630.92	41.441
631.25	42.137
631.58	38.307
631.91	39.787
632.24	42.778
632.57	41.889
632.90	43.333
633.23	42.991
633.56	41.053
633.89	42.217
634.22	41.558
634.55	42.067
634.88	41.354
635.20	40.574
635.53	42.875
