SpectraSuite Data File
++++++++++++++++++++++++++++++++++++
Date: Sat May 16 11:24:22 PDT 2015
User: schluterlab
Dark Spectrum Present: Yes
Reference Spectrum Present: Yes
Number of Sampled Component Spectra: 1
Spectrometers: USB2E3373
Integration Time (usec): 3000 (USB2E3373)
Spectra Averaged: 3 (USB2E3373)
Boxcar Smoothing: 0 (USB2E3373)
Correct for Electrical Dark: No (USB2E3373)
Strobe/Lamp Enabled: No (USB2E3373)
Correct for Detector Non-linearity: No (USB2E3373)
Correct for Stray Light: No (USB2E3373)
Number of Pixels in Processed Spectrum: 2048
>>>>>Begin Processed Spectral Data<<<<<
178.53	0.000
178.91	133.333
179.29	466.667
179.67	-1000.000
180.04	-92.308
180.42	2400.000
180.80	475.000
181.18	475.000
181.56	-125.000
181.94	700.000
182.31	650.000
182.69	-76.923
183.07	-466.667
183.45	1250.000
183.83	466.667
184.20	-157.143
184.58	-212.500
184.96	-400.000
185.34	137.500
185.72	-400.000
186.09	416.667
186.47	-187.500
186.85	-62.500
187.23	-100.000
187.61	-325.000
187.98	-162.500
188.36	-87.500
188.74	-175.000
189.12	1900.000
189.49	371.429
189.87	0.000
190.25	575.000
190.63	-92.857
191.00	-133.333
191.38	320.000
191.76	0.000
192.14	440.000
192.51	-240.000
192.89	-166.667
193.27	0.000
193.65	-111.111
194.02	-242.857
194.40	500.000
194.78	-40.000
195.15	-1000.000
195.53	-118.182
195.91	-433.333
196.29	340.000
196.66	-566.667
197.04	1800.000
197.42	-150.000
197.79	6.667
198.17	-466.667
198.55	-800.000
198.92	-1000.000
199.30	175.000
199.68	-1000.000
200.05	-266.667
200.43	-166.667
200.81	-1300.000
201.18	-58.333
201.56	100.000
201.94	-46.667
202.31	0.000
202.69	-40.000
203.07	-70.000
203.44	300.000
203.82	-250.000
204.19	-550.000
204.57	-200.000
204.95	-600.000
205.32	-31.250
205.70	500.000
206.08	-1700.000
206.45	-77.778
206.83	-600.000
207.20	-750.000
207.58	-400.000
207.96	-500.000
208.33	-175.000
208.71	-66.667
209.08	200.000
209.46	-257.143
209.84	750.000
210.21	0.000
210.59	85.000
210.96	1600.000
211.34	-133.333
211.71	-66.667
212.09	325.000
212.46	1400.000
212.84	-2300.000
213.22	366.667
213.59	150.000
213.97	22.222
214.34	200.000
214.72	-110.000
215.09	-166.667
215.47	-16.667
215.84	-90.000
216.22	-140.000
216.59	13.333
216.97	-525.000
217.34	1000.000
217.72	-114.286
218.09	-116.667
218.47	-300.000
218.84	385.714
219.22	-114.286
219.59	0.000
219.97	157.143
220.34	475.000
220.72	275.000
221.09	0.000
221.47	0.000
221.84	700.000
222.22	-750.000
222.59	1100.000
222.97	-50.000
223.34	-600.000
223.72	-533.333
224.09	-78.571
224.46	-225.000
224.84	-35.714
225.21	-285.714
225.59	-27.273
225.96	-212.500
226.34	-200.000
226.71	-122.222
227.08	15.000
227.46	1700.000
227.83	-242.857
228.21	-237.500
228.58	600.000
228.95	-6.250
229.33	-1800.000
229.70	-220.000
230.08	-1000.000
230.45	-66.667
230.82	-250.000
231.20	-1200.000
231.57	-400.000
231.95	600.000
232.32	-14.286
232.69	-211.111
233.07	-300.000
233.44	-950.000
233.81	-73.333
234.19	-66.667
234.56	-12.500
234.93	0.000
235.31	-200.000
235.68	-185.714
236.05	-11.765
236.43	-68.182
236.80	-22.581
237.17	-25.000
237.55	0.000
237.92	-109.091
238.29	-31.429
238.67	-17.647
239.04	-8.333
239.41	-67.742
239.79	-53.846
240.16	-16.667
240.53	-21.818
240.91	-33.333
241.28	0.000
241.65	-3.077
242.02	-6.557
242.40	-27.869
242.77	-18.182
243.14	-15.254
243.51	-20.000
243.89	-21.519
244.26	-21.348
244.63	0.000
245.00	-12.632
245.38	-3.390
245.75	6.195
246.12	-5.600
246.49	2.362
246.87	-13.821
247.24	-7.627
247.61	-12.712
247.98	-9.155
248.36	-15.385
248.73	-5.063
249.10	-7.643
249.47	-2.339
249.84	0.000
250.22	-10.119
250.59	-1.695
250.96	-5.236
251.33	-2.844
251.70	1.442
252.08	-2.370
252.45	-8.057
252.82	-4.286
253.19	0.426
253.56	-6.048
253.94	-2.110
254.31	-2.575
254.68	-1.220
255.05	-3.226
255.42	-5.159
255.79	-3.584
256.16	-1.176
256.54	4.412
256.91	-3.788
257.28	-0.733
257.65	-1.064
258.02	3.145
258.39	-0.334
258.76	-4.730
259.14	-3.704
259.51	-2.295
259.88	1.524
260.25	0.311
260.62	-4.180
260.99	-2.967
261.36	-0.305
261.73	1.445
262.10	0.556
262.47	-2.564
262.85	4.571
263.22	-1.433
263.59	-3.077
263.96	-1.739
264.33	0.000
264.70	-1.657
265.07	-1.099
265.44	-1.292
265.81	-0.517
266.18	-1.013
266.55	0.490
266.92	0.504
267.29	-2.179
267.66	1.235
268.03	1.449
268.40	0.939
268.77	0.964
269.14	-0.928
269.51	1.609
269.88	-1.376
270.25	-1.166
270.62	0.229
270.99	0.676
271.36	0.466
271.73	0.897
272.10	-2.975
272.47	-1.778
272.84	1.333
273.21	0.688
273.58	1.758
273.95	-2.193
274.32	-1.357
274.69	2.626
275.06	1.636
275.43	0.000
275.80	-0.204
276.17	-0.628
276.54	3.259
276.91	-1.646
277.28	1.826
277.65	-1.446
278.02	0.418
278.39	1.179
278.76	-0.199
279.13	0.198
279.50	2.386
279.87	-1.480
280.23	1.417
280.60	0.795
280.97	-0.971
281.34	-0.580
281.71	0.769
282.08	1.613
282.45	-0.815
282.82	-1.550
283.19	0.000
283.56	2.747
283.92	1.413
284.29	-0.372
284.66	1.619
285.03	2.852
285.40	0.185
285.77	1.404
286.14	0.181
286.51	-0.710
286.87	2.359
287.24	2.218
287.61	1.488
287.98	-0.173
288.35	-0.661
288.72	-0.509
289.08	0.169
289.45	0.842
289.82	-2.249
290.19	1.149
290.56	0.496
290.93	-0.318
291.29	0.486
291.66	-0.483
292.03	1.727
292.40	1.807
292.77	0.000
293.13	0.813
293.50	2.080
293.87	0.767
294.24	1.659
294.60	-0.303
294.97	1.821
295.34	1.037
295.71	2.381
296.08	-0.461
296.44	-0.429
296.81	1.709
297.18	1.690
297.55	1.130
297.91	2.929
298.28	0.685
298.65	0.139
299.02	2.005
299.38	1.070
299.75	1.495
300.12	4.103
300.48	2.558
300.85	-0.524
301.22	1.682
301.59	1.560
301.95	2.897
302.32	1.043
302.69	3.427
303.05	0.977
303.42	1.250
303.79	2.273
304.15	2.607
304.52	1.284
304.89	2.125
305.25	1.099
305.62	1.175
305.99	3.651
306.35	2.664
306.72	1.708
307.09	3.746
307.45	1.022
307.82	1.117
308.19	2.573
308.55	2.397
308.92	1.826
309.29	2.595
309.65	2.757
310.02	2.592
310.38	3.243
310.75	3.586
311.12	4.545
311.48	4.384
311.85	3.708
312.22	4.222
312.58	4.374
312.95	5.097
313.31	5.295
313.68	5.025
314.05	5.341
314.41	4.225
314.78	4.396
315.14	5.824
315.51	4.863
315.87	6.680
316.24	7.191
316.61	6.046
316.97	6.169
317.34	6.551
317.70	6.772
318.07	7.836
318.43	7.491
318.80	8.545
319.16	7.598
319.53	7.895
319.89	8.467
320.26	9.706
320.62	9.904
320.99	10.746
321.35	8.177
321.72	9.928
322.08	11.771
322.45	11.782
322.81	12.296
323.18	11.912
323.54	13.031
323.91	13.624
324.27	14.354
324.64	15.174
325.00	15.096
325.37	17.104
325.73	18.023
326.10	17.715
326.46	18.564
326.83	19.149
327.19	21.184
327.56	21.891
327.92	22.855
328.29	23.117
328.65	23.727
329.01	23.852
329.38	25.513
329.74	26.465
330.11	27.289
330.47	26.431
330.84	27.773
331.20	27.888
331.56	28.259
331.93	30.284
332.29	31.233
332.66	31.431
333.02	29.955
333.38	30.914
333.75	31.701
334.11	32.000
334.48	31.421
334.84	32.108
335.20	32.535
335.57	33.755
335.93	33.751
336.29	32.418
336.66	34.097
337.02	34.955
337.38	33.512
337.75	33.802
338.11	34.615
338.47	34.075
338.84	36.298
339.20	33.568
339.56	35.561
339.93	35.009
340.29	33.835
340.65	34.441
341.02	35.750
341.38	35.973
341.74	35.648
342.11	35.495
342.47	36.309
342.83	34.761
343.20	35.867
343.56	34.776
343.92	35.726
344.28	36.838
344.65	35.314
345.01	37.899
345.37	35.714
345.73	36.007
346.10	34.914
346.46	34.525
346.82	34.964
347.19	35.826
347.55	35.393
347.91	35.118
348.27	36.118
348.63	36.026
349.00	36.834
349.36	35.363
349.72	37.659
350.08	36.006
350.45	35.303
350.81	38.057
351.17	36.334
351.53	35.561
351.89	36.863
352.26	35.891
352.62	38.249
352.98	36.946
353.34	37.090
353.70	36.216
354.07	37.608
354.43	38.419
354.79	38.827
355.15	37.540
355.51	37.734
355.87	37.391
356.24	37.967
356.60	40.210
356.96	38.260
357.32	36.659
357.68	37.854
358.04	37.644
358.40	38.438
358.77	37.017
359.13	37.796
359.49	37.566
359.85	37.424
360.21	39.422
360.57	39.081
360.93	40.815
361.29	39.238
361.66	38.034
362.02	40.311
362.38	39.765
362.74	40.659
363.10	39.168
363.46	41.026
363.82	39.067
364.18	40.304
364.54	40.529
364.90	39.762
365.26	40.300
365.62	41.910
365.98	41.536
366.35	39.577
366.71	39.183
367.07	41.567
367.43	41.867
367.79	40.825
368.15	40.469
368.51	41.748
368.87	42.995
369.23	42.386
369.59	41.111
369.95	42.142
370.31	43.038
370.67	40.998
371.03	42.420
371.39	42.221
371.75	42.203
372.11	42.396
372.47	43.745
372.83	42.281
373.19	43.714
373.55	43.209
373.91	43.385
374.27	42.368
374.63	42.926
374.99	43.672
375.35	44.213
375.71	45.105
376.07	44.148
376.42	42.583
376.78	44.771
377.14	46.983
377.50	45.390
377.86	45.189
378.22	44.786
378.58	45.213
378.94	44.821
379.30	45.765
379.66	45.780
380.02	45.989
380.38	46.526
380.74	45.428
381.09	45.636
381.45	46.420
381.81	46.038
382.17	45.426
382.53	45.957
382.89	46.770
383.25	46.478
383.61	46.816
383.97	47.581
384.32	47.935
384.68	47.642
385.04	47.947
385.40	46.379
385.76	46.280
386.12	47.220
386.48	47.896
386.83	46.871
387.19	48.177
387.55	47.062
387.91	47.955
388.27	47.889
388.62	47.596
388.98	47.729
389.34	46.756
389.70	46.711
390.06	48.167
390.42	48.269
390.77	48.202
391.13	48.137
391.49	47.910
391.85	47.756
392.20	47.694
392.56	47.343
392.92	47.119
393.28	49.024
393.64	49.308
393.99	48.369
394.35	48.844
394.71	48.240
395.07	49.278
395.42	47.795
395.78	48.334
396.14	48.785
396.50	48.073
396.85	48.982
397.21	47.752
397.57	48.389
397.92	48.595
398.28	49.222
398.64	47.234
399.00	49.270
399.35	48.365
399.71	47.967
400.07	49.672
400.42	48.114
400.78	47.764
401.14	49.281
401.49	47.818
401.85	48.993
402.21	47.557
402.57	49.029
402.92	50.031
403.28	48.284
403.63	47.454
403.99	47.918
404.35	48.370
404.70	47.162
405.06	47.693
405.42	47.601
405.77	46.550
406.13	47.473
406.49	47.993
406.84	47.810
407.20	47.703
407.55	47.815
407.91	46.049
408.27	46.078
408.62	46.362
408.98	47.119
409.34	47.227
409.69	46.881
410.05	46.756
410.40	48.375
410.76	46.829
411.11	48.005
411.47	46.803
411.83	46.760
412.18	46.473
412.54	46.553
412.89	47.631
413.25	46.399
413.60	47.266
413.96	46.580
414.31	46.911
414.67	47.365
415.03	47.283
415.38	47.105
415.74	48.969
416.09	49.169
416.45	46.429
416.80	48.309
417.16	47.774
417.51	47.997
417.87	46.926
418.22	47.661
418.58	48.331
418.93	48.130
419.29	47.992
419.64	47.802
420.00	49.453
420.35	48.788
420.71	49.700
421.06	48.284
421.42	48.068
421.77	48.632
422.12	48.237
422.48	49.225
422.83	48.178
423.19	49.610
423.54	50.375
423.90	49.740
424.25	48.756
424.61	50.603
424.96	51.609
425.31	50.140
425.67	51.060
426.02	48.766
426.38	50.938
426.73	50.438
427.09	51.593
427.44	51.591
427.79	51.105
428.15	52.783
428.50	53.079
428.85	52.158
429.21	50.802
429.56	52.812
429.92	51.904
430.27	52.094
430.62	53.135
430.98	52.535
431.33	52.508
431.68	53.995
432.04	53.330
432.39	53.732
432.74	53.717
433.10	53.630
433.45	54.577
433.80	54.591
434.16	54.541
434.51	55.233
434.86	54.833
435.22	54.900
435.57	54.957
435.92	54.396
436.28	55.786
436.63	53.533
436.98	55.384
437.34	54.991
437.69	54.726
438.04	54.793
438.39	56.679
438.75	55.937
439.10	56.802
439.45	56.427
439.81	56.506
440.16	56.161
440.51	55.706
440.86	56.564
441.22	55.721
441.57	56.526
441.92	56.777
442.27	57.197
442.63	57.511
442.98	56.603
443.33	56.398
443.68	56.957
444.03	57.760
444.39	56.730
444.74	58.370
445.09	56.360
445.44	57.625
445.79	58.185
446.15	57.448
446.50	57.812
446.85	57.619
447.20	58.018
447.55	56.906
447.91	58.338
448.26	57.765
448.61	57.895
448.96	60.000
449.31	58.230
449.66	58.844
450.02	57.396
450.37	57.913
450.72	57.288
451.07	59.962
451.42	58.426
451.77	58.288
452.12	58.403
452.47	58.627
452.83	57.600
453.18	58.634
453.53	59.204
453.88	61.184
454.23	59.915
454.58	60.783
454.93	60.202
455.28	59.720
455.63	58.047
455.98	61.024
456.34	59.975
456.69	58.912
457.04	59.926
457.39	59.749
457.74	60.307
458.09	58.353
458.44	60.855
458.79	60.650
459.14	60.753
459.49	61.101
459.84	61.327
460.19	59.427
460.54	60.194
460.89	60.034
461.24	59.988
461.59	60.610
461.94	61.362
462.29	61.644
462.64	61.462
462.99	61.379
463.34	59.757
463.69	61.514
464.04	60.047
464.39	60.215
464.74	60.520
465.09	58.148
465.44	60.011
465.79	60.462
466.14	61.507
466.49	60.046
466.84	60.924
467.19	61.721
467.54	60.000
467.89	61.837
468.24	60.036
468.59	60.150
468.94	62.701
469.29	61.274
469.64	60.108
469.99	61.783
470.34	62.592
470.68	61.701
471.03	62.354
471.38	60.903
471.73	64.056
472.08	61.513
472.43	61.390
472.78	61.267
473.13	61.365
473.48	61.264
473.83	61.476
474.17	61.338
474.52	62.404
474.87	61.597
475.22	60.826
475.57	60.222
475.92	61.393
476.27	59.943
476.61	62.366
476.96	61.151
477.31	62.433
477.66	61.262
478.01	61.912
478.36	60.031
478.70	62.787
479.05	61.871
479.40	62.021
479.75	61.672
480.10	60.615
480.45	61.074
480.79	61.155
481.14	62.067
481.49	61.520
481.84	60.749
482.19	62.220
482.53	61.600
482.88	61.984
483.23	61.221
483.58	60.823
483.92	61.921
484.27	60.479
484.62	60.518
484.97	59.938
485.31	58.496
485.66	57.290
486.01	58.235
486.36	59.816
486.70	60.908
487.05	60.642
487.40	59.776
487.75	59.489
488.09	59.944
488.44	61.028
488.79	60.630
489.13	60.669
489.48	61.501
489.83	61.572
490.17	61.471
490.52	62.998
490.87	61.201
491.22	62.074
491.56	61.389
491.91	61.880
492.26	61.132
492.60	61.513
492.95	61.161
493.30	61.696
493.64	61.871
493.99	61.855
494.34	62.857
494.68	63.296
495.03	61.807
495.37	61.652
495.72	61.346
496.07	61.990
496.41	62.019
496.76	61.826
497.11	61.846
497.45	63.075
497.80	62.531
498.14	62.377
498.49	62.381
498.84	61.796
499.18	63.012
499.53	62.202
499.87	62.114
500.22	62.059
500.56	62.331
500.91	62.759
501.26	62.834
501.60	60.713
501.95	62.271
502.29	61.313
502.64	62.188
502.98	61.715
503.33	61.090
503.67	61.734
504.02	61.661
504.36	61.471
504.71	61.905
505.06	61.957
505.40	61.028
505.75	62.856
506.09	62.487
506.44	62.506
506.78	62.168
507.13	61.792
507.47	62.702
507.82	62.777
508.16	62.280
508.51	62.287
508.85	63.043
509.19	62.323
509.54	61.786
509.88	63.670
510.23	61.950
510.57	62.540
510.92	63.050
511.26	61.510
511.61	61.393
511.95	62.177
512.30	62.727
512.64	63.050
512.98	62.926
513.33	62.823
513.67	63.317
514.02	62.081
514.36	62.161
514.70	61.856
515.05	63.179
515.39	62.341
515.74	63.118
516.08	62.421
516.42	62.436
516.77	62.218
517.11	63.501
517.46	64.833
517.80	65.042
518.14	62.742
518.49	63.359
518.83	63.323
519.17	62.996
519.52	62.001
519.86	62.843
520.20	64.976
520.55	62.277
520.89	63.494
521.23	62.759
521.58	63.574
521.92	63.648
522.26	62.286
522.61	63.561
522.95	63.178
523.29	63.323
523.64	62.461
523.98	64.990
524.32	63.294
524.66	61.304
525.01	62.428
525.35	62.951
525.69	63.240
526.04	63.903
526.38	62.954
526.72	60.281
527.06	62.956
527.41	63.234
527.75	61.650
528.09	63.534
528.43	61.770
528.78	61.055
529.12	63.892
529.46	62.887
529.80	62.750
530.15	61.494
530.49	61.449
530.83	62.934
531.17	62.424
531.51	62.425
531.86	61.224
532.20	62.011
532.54	62.901
532.88	61.726
533.22	61.096
533.57	62.141
533.91	59.800
534.25	61.848
534.59	60.775
534.93	61.108
535.27	61.171
535.62	61.637
535.96	61.151
536.30	62.042
536.64	61.355
536.98	63.912
537.32	62.336
537.66	59.810
538.01	61.718
538.35	61.622
538.69	61.096
539.03	61.611
539.37	62.076
539.71	62.375
540.05	61.480
540.39	61.842
540.73	61.921
541.07	62.568
541.42	61.715
541.76	59.535
542.10	62.458
542.44	61.825
542.78	61.669
543.12	62.593
543.46	60.137
543.80	60.401
544.14	60.981
544.48	60.499
544.82	61.908
545.16	61.167
545.50	60.767
545.84	61.196
546.18	61.789
546.52	61.522
546.86	60.541
547.20	61.392
547.54	59.160
547.88	59.721
548.22	58.912
548.56	60.721
548.90	61.186
549.24	60.056
549.58	60.339
549.92	61.555
550.26	62.139
550.60	60.455
550.94	61.314
551.28	62.077
551.62	60.414
551.96	62.446
552.30	61.463
552.64	59.958
552.98	61.598
553.32	62.338
553.66	63.663
554.00	62.047
554.34	60.578
554.68	60.746
555.02	62.663
555.36	60.173
555.69	59.670
556.03	60.211
556.37	61.380
556.71	61.417
557.05	63.489
557.39	62.212
557.73	62.363
558.07	62.999
558.41	61.481
558.75	61.217
559.08	61.868
559.42	61.332
559.76	61.426
560.10	62.491
560.44	61.705
560.78	59.986
561.12	59.834
561.45	62.534
561.79	61.463
562.13	61.290
562.47	59.384
562.81	60.184
563.15	60.672
563.48	61.921
563.82	60.717
564.16	60.176
564.50	61.559
564.84	61.177
565.17	59.814
565.51	60.626
565.85	60.784
566.19	61.924
566.52	59.948
566.86	61.062
567.20	60.654
567.54	60.189
567.88	58.626
568.21	60.235
568.55	58.324
568.89	57.654
569.23	57.288
569.56	56.200
569.90	57.514
570.24	57.685
570.57	54.798
570.91	56.443
571.25	55.188
571.59	55.542
571.92	54.732
572.26	56.201
572.60	55.538
572.93	54.692
573.27	54.421
573.61	54.574
573.95	54.790
574.28	53.211
574.62	54.703
574.96	53.390
575.29	53.735
575.63	53.730
575.97	53.425
576.30	54.481
576.64	53.394
576.98	53.371
577.31	54.064
577.65	54.037
577.98	53.913
578.32	53.947
578.66	54.013
578.99	54.239
579.33	53.580
579.67	54.654
580.00	53.547
580.34	53.914
580.67	54.204
581.01	53.016
581.35	54.113
581.68	52.710
582.02	53.718
582.35	53.541
582.69	54.176
583.02	54.355
583.36	54.695
583.70	55.095
584.03	54.661
584.37	54.723
584.70	54.824
585.04	54.076
585.37	53.556
585.71	53.870
586.04	54.281
586.38	54.959
586.72	54.679
587.05	55.282
587.39	55.149
587.72	54.367
588.06	54.663
588.39	55.625
588.73	55.643
589.06	55.307
589.40	55.823
589.73	55.666
590.07	56.045
590.40	55.535
590.73	56.098
591.07	56.352
591.40	56.326
591.74	56.994
592.07	57.523
592.41	56.348
592.74	55.957
593.08	55.750
593.41	55.559
593.75	55.226
594.08	57.081
594.41	57.043
594.75	56.134
595.08	57.406
595.42	56.539
595.75	56.340
596.09	56.927
596.42	57.365
596.75	56.533
597.09	57.213
597.42	56.787
597.75	57.529
598.09	55.942
598.42	56.960
598.76	55.482
599.09	56.077
599.42	56.786
599.76	55.417
600.09	55.916
600.42	55.336
600.76	56.271
601.09	56.020
601.42	56.826
601.76	55.530
602.09	55.256
602.42	54.691
602.76	56.793
603.09	56.129
603.42	56.930
603.76	56.602
604.09	56.107
604.42	55.537
604.76	56.433
605.09	55.787
605.42	56.427
605.75	56.662
606.09	56.538
606.42	56.347
606.75	55.904
607.09	56.771
607.42	56.866
607.75	55.585
608.08	57.524
608.42	56.197
608.75	55.047
609.08	57.282
609.41	56.951
609.75	56.265
610.08	57.402
610.41	56.964
610.74	57.834
611.07	57.201
611.41	54.362
611.74	57.275
612.07	58.378
612.40	56.983
612.73	56.974
613.07	56.687
613.40	58.128
613.73	58.747
614.06	56.837
614.39	58.117
614.72	56.536
615.06	56.359
615.39	56.864
615.72	57.469
616.05	55.605
616.38	57.922
616.71	58.739
617.05	56.695
617.38	57.585
617.71	56.818
618.04	59.068
618.37	58.491
618.70	60.495
619.03	56.940
619.36	59.760
619.69	58.866
620.03	57.576
620.36	58.579
620.69	59.943
621.02	59.285
621.35	60.081
621.68	59.262
622.01	60.113
622.34	59.783
622.67	60.859
623.00	59.296
623.33	58.806
623.66	59.232
623.99	60.376
624.32	59.821
624.65	59.603
624.99	59.671
625.32	59.805
625.65	60.062
625.98	59.624
626.31	61.990
626.64	58.828
626.97	61.216
627.30	60.255
627.63	58.377
627.96	59.356
628.29	60.478
628.62	59.121
628.95	63.287
629.28	61.560
629.61	61.138
629.94	60.681
630.26	62.823
630.59	63.819
630.92	60.961
631.25	62.097
631.58	62.751
631.91	60.957
632.24	65.000
632.57	63.556
632.90	62.414
633.23	63.318
633.56	63.509
633.89	63.090
634.22	63.518
