SpectraSuite Data File
++++++++++++++++++++++++++++++++++++
Date: Sat May 16 11:19:57 PDT 2015
User: schluterlab
Dark Spectrum Present: Yes
Reference Spectrum Present: Yes
Number of Sampled Component Spectra: 1
Spectrometers: USB2E3373
Integration Time (usec): 3000 (USB2E3373)
Spectra Averaged: 3 (USB2E3373)
Boxcar Smoothing: 0 (USB2E3373)
Correct for Electrical Dark: No (USB2E3373)
Strobe/Lamp Enabled: No (USB2E3373)
Correct for Detector Non-linearity: No (USB2E3373)
Correct for Stray Light: No (USB2E3373)
Number of Pixels in Processed Spectrum: 2048
>>>>>Begin Processed Spectral Data<<<<<
178.53	0.000
178.91	133.333
179.29	666.667
179.67	-700.000
180.04	-84.615
180.42	900.000
180.80	300.000
181.18	400.000
181.56	-37.500
181.94	700.000
182.31	225.000
182.69	-46.154
183.07	-500.000
183.45	1450.000
183.83	500.000
184.20	-114.286
184.58	-62.500
184.96	-325.000
185.34	112.500
185.72	-225.000
186.09	200.000
186.47	-150.000
186.85	-125.000
187.23	-150.000
187.61	-325.000
187.98	-275.000
188.36	-175.000
188.74	-162.500
189.12	500.000
189.49	285.714
189.87	-41.667
190.25	425.000
190.63	-42.857
191.00	-166.667
191.38	420.000
191.76	93.333
192.14	520.000
192.51	-200.000
192.89	-266.667
193.27	0.000
193.65	-88.889
194.02	-242.857
194.40	366.667
194.78	-100.000
195.15	-600.000
195.53	-72.727
195.91	-400.000
196.29	260.000
196.66	-33.333
197.04	1000.000
197.42	-125.000
197.79	73.333
198.17	-366.667
198.55	-450.000
198.92	-1200.000
199.30	225.000
199.68	-500.000
200.05	-133.333
200.43	-177.778
200.81	-1600.000
201.18	-16.667
201.56	157.143
201.94	-26.667
202.31	31.818
202.69	-30.000
203.07	0.000
203.44	466.667
203.82	-416.667
204.19	-450.000
204.57	-175.000
204.95	-1600.000
205.32	-68.750
205.70	400.000
206.08	-400.000
206.45	16.667
206.83	-1050.000
207.20	500.000
207.58	-566.667
207.96	-400.000
208.33	-50.000
208.71	-144.444
209.08	280.000
209.46	-171.429
209.84	550.000
210.21	0.000
210.59	35.000
210.96	600.000
211.34	-150.000
211.71	-500.000
212.09	325.000
212.46	900.000
212.84	-2000.000
213.22	633.333
213.59	208.333
213.97	-144.444
214.34	120.000
214.72	-150.000
215.09	-100.000
215.47	-66.667
215.84	-10.000
216.22	-90.000
216.59	20.000
216.97	-475.000
217.34	600.000
217.72	-228.571
218.09	-83.333
218.47	-285.714
218.84	228.571
219.22	-71.429
219.59	0.000
219.97	200.000
220.34	525.000
220.72	175.000
221.09	-53.846
221.47	0.000
221.84	166.667
222.22	-250.000
222.59	1200.000
222.97	-175.000
223.34	-300.000
223.72	-500.000
224.09	-85.714
224.46	-300.000
224.84	-78.571
225.21	-114.286
225.59	-90.909
225.96	-75.000
226.34	-157.143
226.71	-55.556
227.08	-10.000
227.46	1800.000
227.83	-28.571
228.21	-112.500
228.58	-100.000
228.95	-6.250
229.33	-700.000
229.70	-200.000
230.08	-700.000
230.45	-50.000
230.82	-100.000
231.20	-800.000
231.57	-450.000
231.95	1600.000
232.32	-28.571
232.69	-55.556
233.07	-328.571
233.44	-500.000
233.81	-120.000
234.19	-11.111
234.56	0.000
234.93	9.375
235.31	-257.143
235.68	-121.429
236.05	-111.765
236.43	-22.727
236.80	-3.226
237.17	25.000
237.55	-66.667
237.92	-54.545
238.29	2.857
238.67	14.706
239.04	25.000
239.41	-29.032
239.79	-28.205
240.16	-7.143
240.53	-5.455
240.91	10.256
241.28	7.273
241.65	10.769
242.02	8.197
242.40	11.475
242.77	12.121
243.14	11.864
243.51	-2.857
243.89	3.797
244.26	1.124
244.63	14.737
245.00	17.895
245.38	17.797
245.75	12.389
246.12	20.800
246.49	11.024
246.87	13.821
247.24	13.559
247.61	10.169
247.98	10.563
248.36	18.881
248.73	17.722
249.10	7.643
249.47	19.298
249.84	15.909
250.22	11.905
250.59	15.819
250.96	13.613
251.33	18.957
251.70	15.385
252.08	16.588
252.45	19.431
252.82	14.286
253.19	14.043
253.56	17.742
253.94	21.519
254.31	13.734
254.68	20.732
255.05	14.516
255.42	19.048
255.79	18.996
256.16	19.216
256.54	22.059
256.91	16.288
257.28	14.652
257.65	15.957
258.02	21.069
258.39	18.060
258.76	16.216
259.14	15.432
259.51	19.016
259.88	19.207
260.25	18.634
260.62	14.469
260.99	14.540
261.36	16.463
261.73	23.410
262.10	18.333
262.47	19.373
262.85	24.286
263.22	16.619
263.59	16.308
263.96	19.710
264.33	15.989
264.70	20.994
265.07	20.604
265.44	18.605
265.81	19.121
266.18	17.722
266.55	18.382
266.92	17.632
267.29	18.886
267.66	18.025
268.03	21.498
268.40	19.249
268.77	19.277
269.14	18.561
269.51	19.770
269.88	16.284
270.25	17.249
270.62	17.391
270.99	19.144
271.36	20.979
271.73	19.507
272.10	18.535
272.47	16.889
272.84	20.222
273.21	17.661
273.58	20.659
273.95	16.886
274.32	18.326
274.69	18.818
275.06	18.405
275.43	17.188
275.80	20.570
276.17	17.155
276.54	20.774
276.91	19.547
277.28	18.458
277.65	18.388
278.02	19.833
278.39	20.039
278.76	18.127
279.13	19.565
279.50	19.284
279.87	20.085
280.23	19.231
280.60	17.694
280.97	15.922
281.34	17.795
281.71	20.192
282.08	16.734
282.45	17.108
282.82	18.798
283.19	16.909
283.56	19.780
283.92	17.845
284.29	18.959
284.66	19.604
285.03	19.251
285.40	19.926
285.77	20.175
286.14	19.134
286.51	16.874
286.87	19.419
287.24	18.089
287.61	17.025
287.98	16.638
288.35	15.868
288.72	17.487
289.08	15.424
289.45	20.875
289.82	17.474
290.19	20.197
290.56	15.702
290.93	16.375
291.29	15.235
291.66	16.425
292.03	17.896
292.40	15.211
292.77	16.304
293.13	15.935
293.50	15.156
293.87	17.945
294.24	16.290
294.60	15.303
294.97	16.237
295.34	15.407
295.71	14.435
296.08	13.978
296.44	14.306
296.81	15.954
297.18	14.789
297.55	15.254
297.91	15.900
298.28	14.384
298.65	14.226
299.02	16.845
299.38	15.909
299.75	13.995
300.12	14.359
300.48	14.578
300.85	12.713
301.22	13.583
301.59	14.824
301.95	15.365
302.32	13.559
302.69	14.688
303.05	13.797
303.42	11.875
303.79	14.115
304.15	13.981
304.52	14.352
304.89	13.459
305.25	13.675
305.62	15.041
305.99	13.899
306.35	14.539
306.72	13.895
307.09	14.869
307.45	13.621
307.82	12.961
308.19	13.758
308.55	13.617
308.92	11.600
309.29	12.108
309.65	12.725
310.02	12.527
310.38	11.135
310.75	13.934
311.12	13.740
311.48	12.630
311.85	13.285
312.22	13.079
312.58	14.039
312.95	12.946
313.31	12.687
313.68	14.271
314.05	13.947
314.41	12.274
314.78	12.288
315.14	13.722
315.51	13.374
315.87	13.843
316.24	13.411
316.61	14.107
316.97	13.134
317.34	13.391
317.70	12.152
318.07	13.619
318.43	12.828
318.80	13.803
319.16	12.946
319.53	12.124
319.89	12.512
320.26	13.824
320.62	12.596
320.99	14.030
321.35	11.724
321.72	11.566
322.08	12.661
322.45	10.990
322.81	13.353
323.18	13.353
323.54	12.384
323.91	13.068
324.27	13.023
324.64	12.797
325.00	13.787
325.37	13.303
325.73	14.873
326.10	12.755
326.46	13.398
326.83	12.766
327.19	12.260
327.56	13.799
327.92	12.659
328.29	13.247
328.65	11.818
329.01	13.074
329.38	12.756
329.74	13.004
330.11	13.781
330.47	13.170
330.84	14.024
331.20	12.635
331.56	12.944
331.93	12.966
332.29	12.694
332.66	13.345
333.02	11.584
333.38	12.993
333.75	12.556
334.11	12.622
334.48	12.092
334.84	12.948
335.20	13.209
335.57	12.274
335.93	12.802
336.29	12.489
336.66	11.278
337.02	13.063
337.38	12.656
337.75	12.291
338.11	12.254
338.47	12.367
338.84	11.615
339.20	11.775
339.56	13.280
339.93	13.139
340.29	11.869
340.65	12.063
341.02	12.732
341.38	12.974
341.74	12.786
342.11	12.628
342.47	11.760
342.83	12.846
343.20	12.126
343.56	10.939
343.92	12.521
344.28	13.541
344.65	12.294
345.01	11.765
345.37	12.874
345.73	11.457
346.10	12.020
346.46	11.292
346.82	11.307
347.19	11.750
347.55	11.798
347.91	11.102
348.27	11.695
348.63	13.813
349.00	12.888
349.36	11.319
349.72	12.739
350.08	11.949
350.45	12.293
350.81	12.739
351.17	10.531
351.53	11.854
351.89	12.045
352.26	11.163
352.62	13.057
352.98	11.867
353.34	11.431
353.70	11.506
354.07	11.959
354.43	12.174
354.79	11.886
355.15	12.141
355.51	11.484
355.87	11.067
356.24	11.438
356.60	12.248
356.96	10.931
357.32	11.797
357.68	11.571
358.04	12.317
358.40	11.137
358.77	10.974
359.13	11.706
359.49	11.413
359.85	11.433
360.21	11.492
360.57	12.500
360.93	11.630
361.29	11.061
361.66	10.595
362.02	11.538
362.38	12.546
362.74	11.502
363.10	10.545
363.46	12.749
363.82	11.516
364.18	12.012
364.54	13.152
364.90	11.670
365.26	10.842
365.62	12.830
365.98	12.304
366.35	12.183
366.71	11.135
367.07	12.138
367.43	11.736
367.79	11.546
368.15	10.669
368.51	13.497
368.87	13.049
369.23	11.298
369.59	11.875
369.95	11.557
370.31	12.588
370.67	11.280
371.03	11.953
371.39	11.669
371.75	12.589
372.11	12.052
372.47	11.424
372.83	11.613
373.19	11.500
373.55	11.541
373.91	11.807
374.27	11.773
374.63	11.456
374.99	12.031
375.35	11.238
375.71	12.154
376.07	12.047
376.42	11.921
376.78	13.007
377.14	11.254
377.50	12.508
377.86	12.159
378.22	11.746
378.58	11.365
378.94	11.097
379.30	11.456
379.66	12.083
380.02	11.527
380.38	10.997
380.74	11.665
381.09	11.775
381.45	11.695
381.81	11.071
382.17	11.404
382.53	11.064
382.89	10.945
383.25	11.800
383.61	11.792
383.97	12.370
384.32	12.140
384.68	12.334
385.04	11.051
385.40	11.625
385.76	11.341
386.12	11.680
386.48	12.129
386.83	11.534
387.19	12.493
387.55	11.629
387.91	12.092
388.27	11.339
388.62	11.659
388.98	11.024
389.34	11.812
389.70	12.424
390.06	12.057
390.42	11.795
390.77	12.177
391.13	12.298
391.49	11.853
391.85	11.721
392.20	11.650
392.56	11.484
392.92	11.979
393.28	11.768
393.64	11.786
393.99	11.200
394.35	11.740
394.71	11.859
395.07	11.739
395.42	12.098
395.78	11.691
396.14	12.523
396.50	11.498
396.85	12.030
397.21	12.515
397.57	11.854
397.92	11.651
398.28	12.222
398.64	11.957
399.00	12.753
399.35	11.443
399.71	13.008
400.07	11.463
400.42	12.409
400.78	12.343
401.14	11.976
401.49	12.323
401.85	11.531
402.21	11.859
402.57	12.136
402.92	11.957
403.28	11.336
403.63	11.803
403.99	11.498
404.35	11.896
404.70	12.873
405.06	12.572
405.42	10.947
405.77	11.425
406.13	12.039
406.49	11.803
406.84	11.698
407.20	12.250
407.55	11.273
407.91	11.593
408.27	12.990
408.62	12.147
408.98	12.432
409.34	11.335
409.69	11.846
410.05	11.765
410.40	12.017
410.76	11.796
411.11	11.783
411.47	12.020
411.83	11.919
412.18	12.005
412.54	11.348
412.89	12.333
413.25	11.039
413.60	11.908
413.96	11.337
414.31	11.988
414.67	10.730
415.03	11.772
415.38	12.101
415.74	11.727
416.09	12.340
416.45	10.979
416.80	11.769
417.16	10.963
417.51	12.672
417.87	11.521
418.22	11.568
418.58	12.259
418.93	11.956
419.29	11.355
419.64	11.683
420.00	12.576
420.35	12.419
420.71	11.585
421.06	11.834
421.42	11.300
421.77	12.507
422.12	12.087
422.48	11.919
422.83	11.902
423.19	12.138
423.54	11.816
423.90	11.683
424.25	11.425
424.61	12.063
424.96	11.937
425.31	11.738
425.67	11.748
426.02	10.671
426.38	12.402
426.73	11.631
427.09	10.846
427.44	11.080
427.79	11.163
428.15	12.089
428.50	11.965
428.85	11.811
429.21	12.009
429.56	12.344
429.92	11.974
430.27	11.914
430.62	12.173
430.98	11.448
431.33	12.060
431.68	12.440
432.04	11.472
432.39	11.909
432.74	11.571
433.10	12.099
433.45	11.629
433.80	11.870
434.16	12.198
434.51	11.671
434.86	11.834
435.22	11.804
435.57	12.607
435.92	12.309
436.28	12.107
436.63	11.475
436.98	11.798
437.34	12.640
437.69	11.844
438.04	11.798
438.39	12.575
438.75	12.224
439.10	12.382
439.45	11.467
439.81	12.108
440.16	11.584
440.51	11.706
440.86	11.799
441.22	11.498
441.57	12.158
441.92	12.020
442.27	12.013
442.63	12.554
442.98	11.738
443.33	12.576
443.68	11.725
444.03	12.181
444.39	11.943
444.74	12.665
445.09	11.623
445.44	12.493
445.79	11.882
446.15	12.048
446.50	11.486
446.85	12.468
447.20	11.491
447.55	11.823
447.91	11.847
448.26	12.067
448.61	11.488
448.96	11.765
449.31	11.274
449.66	12.135
450.02	11.967
450.37	11.826
450.72	11.525
451.07	12.005
451.42	11.896
451.77	11.550
452.12	11.800
452.47	12.783
452.83	11.357
453.18	11.322
453.53	11.505
453.88	11.483
454.23	11.306
454.58	12.803
454.93	12.217
455.28	11.727
455.63	12.408
455.98	12.108
456.34	10.864
456.69	11.820
457.04	12.354
457.39	11.663
457.74	11.872
458.09	12.355
458.44	12.471
458.79	11.547
459.14	12.265
459.49	12.611
459.84	12.198
460.19	11.695
460.54	11.434
460.89	11.267
461.24	11.415
461.59	12.896
461.94	11.776
462.29	11.852
462.64	11.792
462.99	12.450
463.34	12.762
463.69	11.832
464.04	11.716
464.39	11.708
464.74	11.820
465.09	11.606
465.44	11.788
465.79	12.352
466.14	12.371
466.49	11.917
466.84	12.545
467.19	11.721
467.54	11.456
467.89	11.961
468.24	12.114
468.59	11.993
468.94	11.897
469.29	11.631
469.64	12.534
469.99	12.424
470.34	12.358
470.68	12.209
471.03	12.939
471.38	11.181
471.73	11.538
472.08	12.249
472.43	12.162
472.78	11.667
473.13	11.862
473.48	11.934
473.83	11.663
474.17	12.611
474.52	13.747
474.87	12.179
475.22	11.563
475.57	11.556
475.92	12.257
476.27	11.771
476.61	11.380
476.96	11.738
477.31	11.518
477.66	11.954
478.01	11.994
478.36	11.891
478.70	12.226
479.05	12.655
479.40	11.606
479.75	11.876
480.10	11.607
480.45	11.460
480.79	12.192
481.14	11.892
481.49	12.052
481.84	12.390
482.19	12.471
482.53	11.932
482.88	11.438
483.23	11.878
483.58	12.997
483.92	12.136
484.27	11.608
484.62	12.268
484.97	12.276
485.31	11.424
485.66	12.471
486.01	12.298
486.36	12.411
486.70	12.510
487.05	12.430
487.40	12.046
487.75	12.100
488.09	11.519
488.44	12.179
488.79	11.638
489.13	11.792
489.48	12.276
489.83	11.616
490.17	11.972
490.52	12.409
490.87	11.085
491.22	12.050
491.56	12.176
491.91	12.691
492.26	12.075
492.60	11.703
492.95	11.947
493.30	11.863
493.64	11.378
493.99	12.046
494.34	11.524
494.68	11.985
495.03	12.094
495.37	10.816
495.72	11.788
496.07	12.154
496.41	12.135
496.76	11.461
497.11	12.058
497.45	12.787
497.80	11.756
498.14	12.132
498.49	11.502
498.84	11.650
499.18	13.012
499.53	11.982
499.87	11.873
500.22	12.157
500.56	11.656
500.91	12.118
501.26	12.130
501.60	11.748
501.95	12.271
502.29	11.715
502.64	12.730
502.98	11.644
503.33	12.453
503.67	11.542
504.02	12.168
504.36	12.304
504.71	11.550
505.06	12.132
505.40	12.874
505.75	12.348
506.09	12.133
506.44	12.180
506.78	11.540
507.13	12.255
507.47	11.946
507.82	12.184
508.16	11.969
508.51	11.643
508.85	12.112
509.19	11.669
509.54	11.945
509.88	12.021
510.23	12.421
510.57	12.646
510.92	12.299
511.26	11.643
511.61	11.609
511.95	12.392
512.30	12.369
512.64	11.408
512.98	11.936
513.33	12.576
513.67	11.893
514.02	12.472
514.36	11.911
514.70	11.941
515.05	12.521
515.39	11.707
515.74	12.275
516.08	12.795
516.42	12.238
516.77	12.016
517.11	11.442
517.46	12.560
517.80	11.673
518.14	11.353
518.49	11.476
518.83	12.047
519.17	13.262
519.52	12.030
519.86	12.903
520.20	12.225
520.55	11.446
520.89	12.336
521.23	12.210
521.58	12.539
521.92	12.666
522.26	12.698
522.61	11.977
522.95	11.870
523.29	12.665
523.64	12.367
523.98	11.649
524.32	12.696
524.66	11.366
525.01	11.625
525.35	12.436
525.69	12.036
526.04	12.337
526.38	12.476
526.72	11.877
527.06	13.086
527.41	11.749
527.75	11.155
528.09	11.449
528.43	12.459
528.78	12.186
529.12	13.124
529.46	12.307
529.80	11.427
530.15	13.329
530.49	12.225
530.83	13.752
531.17	12.256
531.51	11.520
531.86	12.706
532.20	13.090
532.54	13.302
532.88	12.846
533.22	11.832
533.57	12.663
533.91	12.110
534.25	12.068
534.59	12.430
534.93	12.197
535.27	12.775
535.62	13.555
535.96	12.799
536.30	12.173
536.64	12.151
536.98	11.794
537.32	11.748
537.66	11.881
538.01	12.165
538.35	12.838
538.69	11.698
539.03	11.645
539.37	12.641
539.71	12.475
540.05	12.063
540.39	12.465
540.73	12.370
541.07	12.978
541.42	11.546
541.76	11.827
542.10	12.559
542.44	12.125
542.78	12.551
543.12	11.677
543.46	11.370
543.80	12.174
544.14	11.753
544.48	13.714
544.82	12.720
545.16	11.938
545.50	11.709
545.84	13.074
546.18	11.650
546.52	12.020
546.86	11.681
547.20	12.377
547.54	12.534
547.88	11.612
548.22	11.927
548.56	11.957
548.90	12.332
549.24	11.633
549.58	11.927
549.92	12.650
550.26	12.934
550.60	11.878
550.94	11.825
551.28	13.093
551.62	11.817
551.96	12.229
552.30	12.822
552.64	12.878
552.98	12.404
553.32	11.905
553.66	12.185
554.00	12.509
554.34	12.058
554.68	12.135
555.02	12.590
555.36	12.725
555.69	12.464
556.03	12.281
556.37	12.020
556.71	12.312
557.05	12.491
557.39	11.136
557.73	11.962
558.07	11.680
558.41	11.219
558.75	12.548
559.08	10.739
559.42	10.949
559.76	13.113
560.10	13.199
560.44	12.789
560.78	13.500
561.12	12.491
561.45	11.712
561.79	13.171
562.13	12.272
562.47	12.395
562.81	12.376
563.15	12.106
563.48	12.163
563.82	11.900
564.16	12.508
564.50	12.500
564.84	12.169
565.17	11.273
565.51	12.386
565.85	12.779
566.19	12.648
566.52	12.524
566.86	11.441
567.20	12.833
567.54	12.936
567.88	12.507
568.21	12.136
568.55	12.195
568.89	12.873
569.23	12.818
569.56	12.106
569.90	12.628
570.24	12.777
570.57	12.619
570.91	12.411
571.25	13.132
571.59	12.551
571.92	12.798
572.26	12.552
572.60	12.380
572.93	12.326
573.27	12.317
573.61	12.188
573.95	12.507
574.28	12.170
574.62	12.964
574.96	12.089
575.29	12.551
575.63	12.264
575.97	12.001
576.30	12.688
576.64	12.245
576.98	13.088
577.31	12.658
577.65	12.794
577.98	12.435
578.32	12.461
578.66	12.735
578.99	12.682
579.33	12.861
579.67	12.402
580.00	12.401
580.34	12.476
580.67	12.037
581.01	12.409
581.35	13.002
581.68	12.500
582.02	13.108
582.35	12.937
582.69	12.819
583.02	12.511
583.36	12.059
583.70	12.135
584.03	12.311
584.37	12.152
584.70	12.635
585.04	12.228
585.37	12.243
585.71	12.337
586.04	12.335
586.38	12.537
586.72	12.627
587.05	12.631
587.39	12.510
587.72	12.424
588.06	11.939
588.39	12.361
588.73	12.311
589.06	12.564
589.40	13.123
589.73	12.429
590.07	12.090
590.40	12.768
590.73	11.995
591.07	12.459
591.40	12.738
591.74	12.076
592.07	11.982
592.41	12.272
592.74	12.875
593.08	13.045
593.41	12.829
593.75	12.166
594.08	12.185
594.41	12.643
594.75	12.760
595.08	12.594
595.42	12.681
595.75	12.201
596.09	12.068
596.42	12.643
596.75	12.419
597.09	13.535
597.42	12.047
597.75	12.267
598.09	12.291
598.42	11.666
598.76	11.836
599.09	12.470
599.42	12.303
599.76	12.420
600.09	12.977
600.42	12.723
600.76	12.467
601.09	12.913
601.42	12.109
601.76	12.656
602.09	12.147
602.42	11.975
602.76	11.799
603.09	12.863
603.42	12.288
603.76	12.724
604.09	12.335
604.42	12.073
604.76	11.906
605.09	12.251
605.42	12.677
605.75	11.859
606.09	12.329
606.42	12.275
606.75	12.022
607.09	12.483
607.42	11.708
607.75	12.053
608.08	12.878
608.42	11.779
608.75	11.822
609.08	12.226
609.41	12.506
609.75	12.384
610.08	13.039
610.41	12.530
610.74	12.863
611.07	12.170
611.41	12.305
611.74	12.442
612.07	13.373
612.40	12.420
612.73	12.170
613.07	11.558
613.40	12.917
613.73	12.589
614.06	11.971
614.39	12.570
614.72	11.732
615.06	11.957
615.39	12.588
615.72	12.059
616.05	11.264
616.38	12.014
616.71	12.492
617.05	12.666
617.38	12.012
617.71	11.855
618.04	11.739
618.37	11.635
618.70	13.494
619.03	11.171
619.36	11.980
619.69	12.563
620.03	11.708
620.36	12.588
620.69	12.276
621.02	11.796
621.35	12.258
621.68	11.230
622.01	11.408
622.34	12.888
622.67	11.563
623.00	12.012
623.33	12.910
623.66	11.817
623.99	11.654
624.32	11.682
624.65	11.773
624.99	11.949
625.32	11.751
625.65	11.500
625.98	11.268
626.31	11.664
626.64	11.715
626.97	12.158
627.30	11.830
627.63	10.708
627.96	11.140
628.29	10.662
628.62	11.652
628.95	11.713
629.28	9.680
629.61	10.991
629.94	10.397
630.26	12.127
630.59	12.261
630.92	11.411
631.25	12.198
631.58	11.534
631.91	11.170
