SpectraSuite Data File
++++++++++++++++++++++++++++++++++++
Date: Sat May 16 11:10:49 PDT 2015
User: schluterlab
Dark Spectrum Present: Yes
Reference Spectrum Present: Yes
Number of Sampled Component Spectra: 1
Spectrometers: USB2E3373
Integration Time (usec): 3000 (USB2E3373)
Spectra Averaged: 3 (USB2E3373)
Boxcar Smoothing: 0 (USB2E3373)
Correct for Electrical Dark: No (USB2E3373)
Strobe/Lamp Enabled: No (USB2E3373)
Correct for Detector Non-linearity: No (USB2E3373)
Correct for Stray Light: No (USB2E3373)
Number of Pixels in Processed Spectrum: 2048
>>>>>Begin Processed Spectral Data<<<<<
178.53	0.000
178.91	-6.667
179.29	300.000
179.67	-600.000
180.04	-30.769
180.42	300.000
180.80	175.000
181.18	100.000
181.56	112.500
181.94	-100.000
182.31	50.000
182.69	69.231
183.07	-233.333
183.45	700.000
183.83	400.000
184.20	-85.714
184.58	-62.500
184.96	-450.000
185.34	43.750
185.72	-350.000
186.09	233.333
186.47	12.500
186.85	-162.500
187.23	-12.500
187.61	100.000
187.98	-25.000
188.36	50.000
188.74	-87.500
189.12	400.000
189.49	200.000
189.87	-16.667
190.25	275.000
190.63	-71.429
191.00	-44.444
191.38	140.000
191.76	53.333
192.14	200.000
192.51	-20.000
192.89	-100.000
193.27	0.000
193.65	0.000
194.02	-42.857
194.40	233.333
194.78	40.000
195.15	-700.000
195.53	63.636
195.91	-400.000
196.29	340.000
196.66	-66.667
197.04	800.000
197.42	0.000
197.79	86.667
198.17	-66.667
198.55	-150.000
198.92	-800.000
199.30	100.000
199.68	250.000
200.05	66.667
200.43	-88.889
200.81	-1600.000
201.18	-50.000
201.56	57.143
201.94	-53.333
202.31	45.455
202.69	110.000
203.07	-60.000
203.44	-166.667
203.82	-250.000
204.19	-400.000
204.57	200.000
204.95	0.000
205.32	56.250
205.70	-400.000
206.08	-900.000
206.45	16.667
206.83	-500.000
207.20	50.000
207.58	-500.000
207.96	0.000
208.33	100.000
208.71	-33.333
209.08	120.000
209.46	-142.857
209.84	300.000
210.21	0.000
210.59	15.000
210.96	400.000
211.34	-83.333
211.71	-133.333
212.09	-50.000
212.46	500.000
212.84	-1000.000
213.22	-100.000
213.59	58.333
213.97	44.444
214.34	120.000
214.72	-50.000
215.09	-333.333
215.47	-16.667
215.84	-20.000
216.22	40.000
216.59	133.333
216.97	-300.000
217.34	-150.000
217.72	42.857
218.09	-266.667
218.47	57.143
218.84	28.571
219.22	-57.143
219.59	0.000
219.97	28.571
220.34	50.000
220.72	112.500
221.09	-7.692
221.47	0.000
221.84	266.667
222.22	500.000
222.59	500.000
222.97	-87.500
223.34	-350.000
223.72	300.000
224.09	-42.857
224.46	-200.000
224.84	50.000
225.21	-42.857
225.59	63.636
225.96	-100.000
226.34	14.286
226.71	22.222
227.08	50.000
227.46	1600.000
227.83	-85.714
228.21	-150.000
228.58	500.000
228.95	-25.000
229.33	-200.000
229.70	-100.000
230.08	-650.000
230.45	91.667
230.82	-83.333
231.20	-100.000
231.57	-150.000
231.95	300.000
232.32	19.048
232.69	-22.222
233.07	-228.571
233.44	-100.000
233.81	-13.333
234.19	-55.556
234.56	-31.250
234.93	28.125
235.31	-214.286
235.68	-71.429
236.05	35.294
236.43	-18.182
236.80	-16.129
237.17	-33.333
237.55	-14.286
237.92	-31.818
238.29	8.571
238.67	20.588
239.04	5.556
239.41	-9.677
239.79	-12.821
240.16	-9.524
240.53	-21.818
240.91	10.256
241.28	-14.545
241.65	3.077
242.02	-9.836
242.40	-4.918
242.77	1.515
243.14	-8.475
243.51	-14.286
243.89	-16.456
244.26	-10.112
244.63	1.053
245.00	2.105
245.38	-6.780
245.75	1.770
246.12	-0.800
246.49	-5.512
246.87	-3.252
247.24	-3.390
247.61	-0.847
247.98	-5.634
248.36	-6.294
248.73	-0.633
249.10	-5.096
249.47	2.339
249.84	7.386
250.22	-12.500
250.59	0.000
250.96	-1.571
251.33	4.739
251.70	-0.962
252.08	-1.896
252.45	-4.739
252.82	-6.190
253.19	-2.553
253.56	-2.419
253.94	0.000
254.31	0.000
254.68	-2.439
255.05	-2.016
255.42	-1.984
255.79	0.000
256.16	-2.353
256.54	-0.368
256.91	-1.515
257.28	-3.297
257.65	-0.709
258.02	4.403
258.39	-5.017
258.76	-0.676
259.14	-3.086
259.51	3.279
259.88	0.915
260.25	3.106
260.62	-1.608
260.99	-1.484
261.36	-1.524
261.73	0.000
262.10	0.000
262.47	-1.140
262.85	4.571
263.22	0.287
263.59	-0.923
263.96	0.580
264.33	0.813
264.70	-1.105
265.07	1.099
265.44	0.517
265.81	0.775
266.18	-1.772
266.55	0.245
266.92	1.259
267.29	0.484
267.66	-0.494
268.03	2.415
268.40	1.174
268.77	-1.446
269.14	0.000
269.51	1.149
269.88	-2.752
270.25	-2.797
270.62	-0.915
270.99	1.126
271.36	0.932
271.73	-0.673
272.10	-2.059
272.47	0.444
272.84	3.111
273.21	2.064
273.58	-2.637
273.95	1.535
274.32	-0.452
274.69	2.407
275.06	0.409
275.43	-0.446
275.80	2.037
276.17	-0.628
276.54	3.666
276.91	-0.617
277.28	-0.203
277.65	0.413
278.02	0.418
278.39	2.161
278.76	0.598
279.13	-1.383
279.50	0.398
279.87	0.211
280.23	1.822
280.60	0.000
280.97	0.971
281.34	0.580
281.71	2.500
282.08	1.411
282.45	-1.426
282.82	-0.969
283.19	2.182
283.56	2.381
283.92	1.237
284.29	-0.372
284.66	0.899
285.03	2.139
285.40	1.476
285.77	1.228
286.14	3.249
286.51	-0.533
286.87	1.089
287.24	0.512
287.61	1.157
287.98	1.040
288.35	-0.496
288.72	0.000
289.08	-0.339
289.45	-1.347
289.82	-0.173
290.19	1.314
290.56	0.331
290.93	1.908
291.29	-1.135
291.66	-0.644
292.03	0.157
292.40	2.259
292.77	0.621
293.13	1.138
293.50	1.486
293.87	-0.153
294.24	0.905
294.60	-0.909
294.97	0.303
295.34	-0.444
295.71	-0.149
296.08	-1.229
296.44	0.000
296.81	2.137
297.18	0.845
297.55	0.141
297.91	1.953
298.28	0.685
298.65	1.255
299.02	2.540
299.38	1.337
299.75	0.136
300.12	2.436
300.48	1.790
300.85	1.048
301.22	2.587
301.59	1.430
301.95	3.023
302.32	-1.173
302.69	1.346
303.05	1.832
303.42	0.375
303.79	0.957
304.15	2.725
304.52	1.284
304.89	2.361
305.25	1.099
305.62	1.998
305.99	3.534
306.35	2.664
306.72	2.050
307.09	2.724
307.45	1.362
307.82	1.676
308.19	2.013
308.55	1.961
308.92	0.430
309.29	1.405
309.65	1.697
310.02	1.512
310.38	1.622
310.75	1.947
311.12	2.066
311.48	1.983
311.85	2.369
312.22	2.987
312.58	3.154
312.95	2.243
313.31	2.298
313.68	2.814
314.05	3.462
314.41	1.308
314.78	1.998
315.14	3.060
315.51	2.736
315.87	3.001
316.24	2.721
316.61	4.031
316.97	3.781
317.34	2.119
317.70	2.505
318.07	3.731
318.43	4.213
318.80	4.507
319.16	2.064
319.53	3.195
319.89	2.634
320.26	3.824
320.62	2.885
320.99	3.085
321.35	1.478
321.72	3.480
322.08	3.858
322.45	3.960
322.81	3.074
323.18	4.131
323.54	3.882
323.91	3.522
324.27	4.087
324.64	3.931
325.00	4.887
325.37	4.253
325.73	6.212
326.10	3.189
326.46	4.203
326.83	5.191
327.19	5.338
327.56	5.537
327.92	4.333
328.29	4.848
328.65	4.182
329.01	4.947
329.38	5.442
329.74	6.777
330.11	5.530
330.47	5.631
330.84	5.775
331.20	6.318
331.56	5.469
331.93	5.506
332.29	5.388
332.66	5.882
333.02	5.973
333.38	6.631
333.75	6.589
334.11	6.667
334.48	5.296
334.84	7.087
335.20	6.738
335.57	6.498
335.93	7.968
336.29	6.466
336.66	7.313
337.02	7.838
337.38	6.328
337.75	7.375
338.11	6.351
338.47	7.295
338.84	7.350
339.20	7.557
339.56	7.932
339.93	6.614
340.29	6.732
340.65	6.818
341.02	6.830
341.38	7.919
341.74	7.028
342.11	7.509
342.47	7.124
342.83	6.969
343.20	6.917
343.56	6.531
343.92	7.429
344.28	8.158
344.65	7.013
345.01	7.059
345.37	8.056
345.73	5.565
346.10	6.378
346.46	5.930
346.82	7.698
347.19	6.491
347.55	6.501
347.91	8.268
348.27	7.001
348.63	7.593
349.00	7.796
349.36	6.089
349.72	7.882
350.08	7.538
350.45	7.013
350.81	7.086
351.17	7.556
351.53	6.921
351.89	6.629
352.26	7.132
352.62	8.295
352.98	7.120
353.34	7.754
353.70	7.413
354.07	7.789
354.43	7.431
354.79	6.260
355.15	6.070
355.51	6.328
355.87	5.771
356.24	6.751
356.60	7.494
356.96	7.621
357.32	6.255
357.68	6.207
358.04	7.698
358.40	6.961
358.77	6.955
359.13	7.651
359.49	7.029
359.85	6.707
360.21	7.763
360.57	8.133
360.93	7.407
361.29	6.726
361.66	6.098
362.02	8.062
362.38	6.970
362.74	7.033
363.10	6.887
363.46	7.764
363.82	7.070
364.18	7.308
364.54	8.649
364.90	7.477
365.26	7.133
365.62	8.553
365.98	7.610
366.35	8.028
366.71	7.611
367.07	8.116
367.43	8.785
367.79	7.973
368.15	6.970
368.51	8.042
368.87	8.448
369.23	8.561
369.59	7.917
369.95	8.739
370.31	9.634
370.67	7.158
371.03	8.673
371.39	8.699
371.75	9.156
372.11	7.604
372.47	7.737
372.83	8.414
373.19	8.429
373.55	9.078
373.91	7.681
374.27	8.145
374.63	8.006
374.99	9.110
375.35	9.287
375.71	9.791
376.07	8.898
376.42	7.748
376.78	9.150
377.14	8.949
377.50	9.607
377.86	9.103
378.22	9.108
378.58	8.771
378.94	8.570
379.30	8.775
379.66	9.593
380.02	8.734
380.38	9.003
380.74	9.555
381.09	10.193
381.45	10.203
381.81	9.437
382.17	9.023
382.53	9.119
382.89	10.766
383.25	10.175
383.61	9.670
383.97	9.920
384.32	9.637
384.68	10.339
385.04	9.601
385.40	10.225
385.76	10.244
386.12	9.744
386.48	10.396
386.83	10.675
387.19	10.281
387.55	10.478
387.91	10.136
388.27	10.072
388.62	10.517
388.98	10.660
389.34	10.710
389.70	11.267
390.06	11.187
390.42	11.538
390.77	11.041
391.13	11.988
391.49	11.167
391.85	11.097
392.20	10.801
392.56	10.568
392.92	11.067
393.28	11.424
393.64	11.726
393.99	10.769
394.35	11.557
394.71	11.056
395.07	11.111
395.42	10.727
395.78	10.434
396.14	12.399
396.50	11.254
396.85	12.585
397.21	11.543
397.57	11.611
397.92	11.066
398.28	12.167
398.64	11.422
399.00	12.416
399.35	11.330
399.71	11.208
400.07	12.179
400.42	11.436
400.78	11.091
401.14	11.317
401.49	10.967
401.85	11.470
402.21	11.621
402.57	12.561
402.92	12.649
403.28	11.581
403.63	11.624
403.99	12.119
404.35	11.594
404.70	12.171
405.06	11.707
405.42	11.993
405.77	11.029
406.13	11.641
406.49	11.504
406.84	11.518
407.20	12.603
407.55	11.843
407.91	11.658
408.27	12.010
408.62	11.185
408.98	12.614
409.34	11.517
409.69	12.035
410.05	12.371
410.40	11.772
410.76	11.974
411.11	12.032
411.47	12.404
411.83	12.103
412.18	12.067
412.54	12.081
412.89	12.272
413.25	11.452
413.60	11.361
413.96	12.446
414.31	11.743
414.67	11.810
415.03	12.354
415.38	12.101
415.74	12.500
416.09	12.340
416.45	11.442
416.80	12.354
417.16	11.628
417.51	12.147
417.87	11.974
418.22	12.516
418.58	11.938
418.93	11.895
419.29	11.920
419.64	11.621
420.00	13.609
420.35	12.478
420.71	11.945
421.06	12.663
421.42	12.119
421.77	12.228
422.12	12.143
422.48	12.079
422.83	12.130
423.19	12.194
423.54	13.487
423.90	12.204
424.25	12.104
424.61	12.907
424.96	12.639
425.31	12.521
425.67	12.665
426.02	12.679
426.38	12.341
426.73	12.800
427.09	11.826
427.44	12.614
427.79	12.965
428.15	12.926
428.50	13.959
428.85	13.010
429.21	13.005
429.56	13.021
429.92	12.776
430.27	12.712
430.62	12.957
430.98	13.434
431.33	13.287
431.68	13.137
432.04	13.766
432.39	12.991
432.74	12.590
433.10	12.831
433.45	13.011
433.80	12.990
434.16	13.165
434.51	13.151
434.86	14.294
435.22	13.307
435.57	13.403
435.92	13.599
436.28	13.116
436.63	12.663
436.98	12.486
437.34	14.117
437.69	12.252
438.04	12.309
438.39	14.320
438.75	14.377
439.10	14.270
439.45	12.130
439.81	13.434
440.16	13.345
440.51	14.059
440.86	13.013
441.22	12.935
441.57	13.526
441.92	13.248
442.27	13.799
442.63	13.358
442.98	12.585
443.33	13.948
443.68	13.445
444.03	13.703
444.39	13.216
444.74	13.381
445.09	12.774
445.44	13.112
445.79	13.616
446.15	14.129
446.50	12.956
446.85	13.751
447.20	12.972
447.55	14.088
447.91	13.700
448.26	13.408
448.61	13.299
448.96	13.782
449.31	13.641
449.66	14.139
450.02	13.407
450.37	13.333
450.72	13.503
451.07	14.016
451.42	13.259
451.77	14.123
452.12	13.707
452.47	14.798
452.83	14.269
453.18	14.295
453.53	14.614
453.88	14.115
454.23	12.696
454.58	14.854
454.93	13.917
455.28	13.894
455.63	14.005
455.98	14.157
456.34	13.024
456.69	14.447
457.04	14.136
457.39	13.158
457.74	13.940
458.09	14.385
458.44	14.492
458.79	13.397
459.14	13.292
459.49	13.618
459.84	13.940
460.19	14.379
460.54	13.370
460.89	14.182
461.24	14.633
461.59	14.654
461.94	15.404
462.29	14.116
462.64	13.636
462.99	14.458
463.34	14.247
463.69	14.059
464.04	14.001
464.39	13.978
464.74	13.712
465.09	14.552
465.44	14.552
465.79	14.721
466.14	14.845
466.49	14.105
466.84	13.926
467.19	15.087
467.54	13.734
467.89	14.982
468.24	14.371
468.59	14.803
468.94	14.277
469.29	14.490
469.64	15.027
469.99	14.990
470.34	14.429
470.68	15.770
471.03	14.591
471.38	13.472
471.73	15.105
472.08	14.859
472.43	15.444
472.78	14.933
473.13	12.591
473.48	14.422
473.83	14.516
474.17	14.395
474.52	15.281
474.87	14.336
475.22	14.041
475.57	14.056
475.92	14.525
476.27	14.400
476.61	13.972
476.96	14.477
477.31	14.532
477.66	14.887
478.01	14.911
478.36	14.982
478.70	14.309
479.05	15.035
479.40	14.974
479.75	14.781
480.10	14.732
480.45	14.313
480.79	15.597
481.14	14.701
481.49	14.618
481.84	14.055
482.19	14.390
482.53	14.962
482.88	14.238
483.23	14.225
483.58	15.495
483.92	15.002
484.27	13.957
484.62	14.557
484.97	14.380
485.31	14.272
485.66	14.282
486.01	13.897
486.36	14.407
486.70	14.318
487.05	13.914
487.40	14.557
487.75	14.486
488.09	14.484
488.44	14.445
488.79	15.140
489.13	14.835
489.48	14.682
489.83	14.803
490.17	14.802
490.52	15.308
490.87	14.642
491.22	14.853
491.56	14.630
491.91	14.599
492.26	15.189
492.60	15.033
492.95	14.993
493.30	15.198
493.64	14.951
493.99	14.771
494.34	15.667
494.68	15.637
495.03	14.914
495.37	14.749
495.72	15.226
496.07	15.439
496.41	15.609
496.76	15.388
497.11	14.885
497.45	15.709
497.80	14.857
498.14	15.275
498.49	14.616
498.84	14.903
499.18	14.815
499.53	14.710
499.87	14.768
500.22	15.735
500.56	15.508
500.91	15.123
501.26	15.963
501.60	14.877
501.95	15.411
502.29	15.541
502.64	15.370
502.98	15.285
503.33	15.367
503.67	14.943
504.02	15.017
504.36	15.000
504.71	14.894
505.06	14.678
505.40	15.170
505.75	15.193
506.09	15.066
506.44	14.536
506.78	15.304
507.13	15.911
507.47	15.806
507.82	16.107
508.16	15.959
508.51	14.786
508.85	15.269
509.19	15.071
509.54	14.905
509.88	15.745
510.23	16.038
510.57	16.138
510.92	16.058
511.26	15.949
511.61	14.471
511.95	15.733
512.30	15.613
512.64	15.526
512.98	15.732
513.33	16.090
513.67	15.857
514.02	15.884
514.36	15.956
514.70	16.186
515.05	15.838
515.39	15.340
515.74	15.998
516.08	15.908
516.42	16.147
516.77	16.753
517.11	15.789
517.46	15.849
517.80	16.125
518.14	15.338
518.49	17.095
518.83	15.846
519.17	16.163
519.52	15.269
519.86	15.890
520.20	15.526
520.55	15.446
520.89	15.404
521.23	16.484
521.58	16.238
521.92	16.403
522.26	15.111
522.61	16.033
522.95	14.678
523.29	17.053
523.64	16.177
523.98	14.959
524.32	15.651
524.66	14.845
525.01	15.478
525.35	16.173
525.69	16.591
526.04	16.384
526.38	16.359
526.72	15.581
527.06	16.341
527.41	16.304
527.75	15.116
528.09	16.281
528.43	15.148
528.78	15.955
529.12	17.350
529.46	16.044
529.80	16.720
530.15	15.776
530.49	16.624
530.83	17.027
531.17	16.431
531.51	15.338
531.86	16.129
532.20	16.532
532.54	15.842
532.88	16.535
533.22	16.578
533.57	16.775
533.91	15.356
534.25	15.839
534.59	14.678
534.93	15.744
535.27	16.300
535.62	16.496
535.96	14.997
536.30	15.183
536.64	16.335
536.98	15.325
537.32	15.273
537.66	16.293
538.01	16.014
538.35	16.622
538.69	15.909
539.03	16.181
539.37	15.436
539.71	16.077
540.05	15.559
540.39	15.789
540.73	15.826
541.07	15.369
541.42	14.517
541.76	15.150
542.10	16.948
542.44	16.189
542.78	16.147
543.12	16.701
543.46	14.932
543.80	15.518
544.14	15.111
544.48	15.814
544.82	15.494
545.16	15.560
545.50	16.016
545.84	15.716
546.18	16.990
546.52	15.718
546.86	15.456
547.20	16.807
547.54	15.152
547.88	15.793
548.22	15.007
548.56	15.097
548.90	15.431
549.24	15.417
549.58	15.879
549.92	15.689
550.26	16.185
550.60	16.074
550.94	17.007
551.28	17.231
551.62	15.953
551.96	15.702
552.30	15.610
552.64	15.623
552.98	16.048
553.32	16.089
553.66	15.573
554.00	15.281
554.34	15.235
554.68	14.620
555.02	16.281
555.36	14.881
555.69	15.401
556.03	15.509
556.37	16.785
556.71	15.820
557.05	15.743
557.39	15.293
557.73	17.360
558.07	15.901
558.41	15.931
558.75	16.806
559.08	15.175
559.42	16.003
559.76	15.721
560.10	16.480
560.44	16.691
560.78	15.240
561.12	15.735
561.45	15.137
561.79	15.261
562.13	15.288
562.47	16.176
562.81	16.124
563.15	15.395
563.48	15.619
563.82	15.754
564.16	15.619
564.50	15.054
564.84	15.410
565.17	15.915
565.51	15.450
565.85	15.281
566.19	16.337
566.52	16.308
566.86	15.992
567.20	17.070
567.54	15.948
567.88	15.969
568.21	15.380
568.55	15.536
568.89	14.463
569.23	14.808
569.56	14.754
569.90	15.460
570.24	14.506
570.57	14.482
570.91	14.825
571.25	14.948
571.59	14.393
571.92	14.286
572.26	13.811
572.60	14.365
572.93	14.215
573.27	14.177
573.61	14.138
573.95	14.768
574.28	14.656
574.62	14.235
574.96	14.482
575.29	13.872
575.63	14.441
575.97	13.970
576.30	14.196
576.64	14.125
576.98	14.332
577.31	14.088
577.65	14.471
577.98	14.117
578.32	13.871
578.66	14.017
578.99	13.781
579.33	14.243
579.67	13.923
580.00	14.211
580.34	13.992
580.67	13.925
581.01	13.825
581.35	14.307
581.68	14.065
582.02	13.953
582.35	13.957
582.69	14.228
583.02	14.478
583.36	14.180
583.70	14.260
584.03	14.601
584.37	14.208
584.70	13.904
585.04	14.354
585.37	13.842
585.71	14.199
586.04	13.931
586.38	14.194
586.72	14.064
587.05	14.528
587.39	14.122
587.72	14.149
588.06	13.783
588.39	14.298
588.73	14.001
589.06	14.354
589.40	14.703
589.73	14.943
590.07	14.385
590.40	14.723
590.73	14.474
591.07	14.836
591.40	14.948
591.74	14.639
592.07	14.054
592.41	14.820
592.74	14.028
593.08	14.281
593.41	14.375
593.75	13.782
594.08	14.306
594.41	14.381
594.75	14.723
595.08	14.286
595.42	14.342
595.75	14.333
596.09	14.746
596.42	14.525
596.75	14.532
597.09	14.559
597.42	13.968
597.75	14.836
598.09	14.189
598.42	14.627
598.76	14.120
599.09	14.009
599.42	14.110
599.76	14.345
600.09	14.618
600.42	14.774
600.76	14.237
601.09	14.090
601.42	13.692
601.76	14.525
602.09	14.151
602.42	14.650
602.76	14.209
603.09	14.153
603.42	14.182
603.76	14.519
604.09	14.738
604.42	14.238
604.76	14.086
605.09	14.693
605.42	15.204
605.75	14.403
606.09	14.280
606.42	13.867
606.75	14.813
607.09	14.645
607.42	15.053
607.75	14.172
608.08	14.957
608.42	14.853
608.75	14.159
609.08	14.174
609.41	14.599
609.75	14.676
610.08	15.147
610.41	14.410
610.74	15.087
611.07	15.467
611.41	13.666
611.74	15.373
612.07	15.682
612.40	14.819
612.73	14.755
613.07	15.465
613.40	16.420
613.73	15.313
614.06	14.882
614.39	15.107
614.72	14.302
615.06	14.728
615.39	15.355
615.72	15.263
616.05	14.743
616.38	15.322
616.71	15.495
617.05	15.259
617.38	15.604
617.71	15.602
618.04	14.658
618.37	15.094
618.70	14.342
619.03	16.452
619.36	15.927
619.69	16.655
620.03	15.565
620.36	15.190
620.69	15.075
621.02	16.134
621.35	15.323
621.68	15.164
622.01	15.939
622.34	15.839
622.67	15.469
623.00	15.761
623.33	15.522
623.66	14.476
623.99	15.188
624.32	15.625
624.65	15.747
624.99	15.161
625.32	15.045
625.65	16.084
625.98	15.258
626.31	15.824
626.64	16.234
626.97	15.668
627.30	15.149
627.63	14.680
627.96	15.840
628.29	14.706
628.62	15.759
628.95	16.142
629.28	16.353
629.61	15.211
629.94	15.217
630.26	17.097
630.59	16.784
630.92	15.115
631.25	16.935
631.58	16.614
631.91	17.021
632.24	16.556
632.57	15.444
632.90	15.402
633.23	16.238
633.56	15.789
633.89	16.981
634.22	16.057
634.55	16.587
634.88	15.599
635.20	16.729
635.53	16.285
635.86	15.995
636.19	15.629
636.52	16.010
636.85	15.644
637.18	15.750
637.51	16.976
637.83	15.979
638.16	17.105
638.49	15.448
638.82	16.731
639.15	16.732
639.48	14.786
639.81	17.704
640.13	17.703
