SpectraSuite Data File
++++++++++++++++++++++++++++++++++++
Date: Sat May 16 11:14:44 PDT 2015
User: schluterlab
Dark Spectrum Present: Yes
Reference Spectrum Present: Yes
Number of Sampled Component Spectra: 1
Spectrometers: USB2E3373
Integration Time (usec): 3000 (USB2E3373)
Spectra Averaged: 3 (USB2E3373)
Boxcar Smoothing: 0 (USB2E3373)
Correct for Electrical Dark: No (USB2E3373)
Strobe/Lamp Enabled: No (USB2E3373)
Correct for Detector Non-linearity: No (USB2E3373)
Correct for Stray Light: No (USB2E3373)
Number of Pixels in Processed Spectrum: 2048
>>>>>Begin Processed Spectral Data<<<<<
178.53	0.000
178.91	46.667
179.29	266.667
179.67	-100.000
180.04	0.000
180.42	200.000
180.80	200.000
181.18	250.000
181.56	-12.500
181.94	300.000
182.31	250.000
182.69	-46.154
183.07	-533.333
183.45	800.000
183.83	500.000
184.20	-28.571
184.58	-50.000
184.96	-25.000
185.34	18.750
185.72	-450.000
186.09	33.333
186.47	-162.500
186.85	-62.500
187.23	0.000
187.61	100.000
187.98	-175.000
188.36	25.000
188.74	0.000
189.12	200.000
189.49	100.000
189.87	-41.667
190.25	75.000
190.63	7.143
191.00	-177.778
191.38	280.000
191.76	6.667
192.14	240.000
192.51	-200.000
192.89	-100.000
193.27	0.000
193.65	-111.111
194.02	-157.143
194.40	333.333
194.78	-60.000
195.15	-400.000
195.53	-63.636
195.91	-333.333
196.29	240.000
196.66	-166.667
197.04	2400.000
197.42	-75.000
197.79	-6.667
198.17	-133.333
198.55	0.000
198.92	-200.000
199.30	75.000
199.68	-450.000
200.05	-33.333
200.43	-133.333
200.81	-1300.000
201.18	-58.333
201.56	142.857
201.94	-13.333
202.31	45.455
202.69	70.000
203.07	-40.000
203.44	500.000
203.82	-116.667
204.19	-50.000
204.57	300.000
204.95	-600.000
205.32	-31.250
205.70	1300.000
206.08	-800.000
206.45	44.444
206.83	-600.000
207.20	450.000
207.58	-266.667
207.96	-233.333
208.33	-150.000
208.71	33.333
209.08	210.000
209.46	-171.429
209.84	400.000
210.21	0.000
210.59	70.000
210.96	1300.000
211.34	-16.667
211.71	-33.333
212.09	200.000
212.46	700.000
212.84	-2100.000
213.22	266.667
213.59	58.333
213.97	-11.111
214.34	150.000
214.72	-70.000
215.09	-233.333
215.47	-16.667
215.84	-130.000
216.22	-40.000
216.59	13.333
216.97	-175.000
217.34	250.000
217.72	71.429
218.09	-116.667
218.47	-85.714
218.84	171.429
219.22	-57.143
219.59	0.000
219.97	157.143
220.34	225.000
220.72	237.500
221.09	23.077
221.47	0.000
221.84	300.000
222.22	-50.000
222.59	300.000
222.97	-162.500
223.34	-650.000
223.72	-133.333
224.09	-35.714
224.46	-75.000
224.84	14.286
225.21	-171.429
225.59	-54.545
225.96	-87.500
226.34	-57.143
226.71	-166.667
227.08	0.000
227.46	700.000
227.83	-71.429
228.21	-250.000
228.58	50.000
228.95	-12.500
229.33	-700.000
229.70	-200.000
230.08	-750.000
230.45	0.000
230.82	66.667
231.20	0.000
231.57	-50.000
231.95	-0.000
232.32	66.667
232.69	22.222
233.07	-128.571
233.44	-450.000
233.81	-20.000
234.19	-33.333
234.56	-18.750
234.93	75.000
235.31	-42.857
235.68	-57.143
236.05	64.706
236.43	36.364
236.80	6.452
237.17	0.000
237.55	33.333
237.92	22.727
238.29	45.714
238.67	32.353
239.04	44.444
239.41	29.032
239.79	33.333
240.16	33.333
240.53	20.000
240.91	61.538
241.28	58.182
241.65	36.923
242.02	39.344
242.40	59.016
242.77	50.000
243.14	54.237
243.51	54.286
243.89	41.772
244.26	56.180
244.63	51.579
245.00	47.368
245.38	41.525
245.75	53.982
246.12	44.000
246.49	55.906
246.87	51.220
247.24	49.153
247.61	49.153
247.98	45.775
248.36	43.357
248.73	50.633
249.10	47.771
249.47	47.368
249.84	57.386
250.22	44.048
250.59	51.412
250.96	52.880
251.33	49.289
251.70	45.673
252.08	48.815
252.45	47.867
252.82	55.238
253.19	49.362
253.56	49.194
253.94	50.211
254.31	51.073
254.68	53.659
255.05	52.823
255.42	53.968
255.79	52.330
256.16	60.000
256.54	52.206
256.91	52.273
257.28	51.282
257.65	53.546
258.02	55.660
258.39	50.502
258.76	53.041
259.14	51.543
259.51	57.705
259.88	52.439
260.25	54.969
260.62	55.305
260.99	52.819
261.36	56.707
261.73	54.335
262.10	52.778
262.47	49.858
262.85	53.714
263.22	54.728
263.59	54.769
263.96	54.203
264.33	56.911
264.70	57.459
265.07	54.945
265.44	54.005
265.81	55.297
266.18	50.380
266.55	50.000
266.92	54.912
267.29	50.847
267.66	53.827
268.03	58.454
268.40	53.052
268.77	53.253
269.14	53.828
269.51	52.414
269.88	51.376
270.25	54.312
270.62	52.860
270.99	53.153
271.36	52.914
271.73	51.570
272.10	55.378
272.47	54.222
272.84	54.222
273.21	55.734
273.58	53.846
273.95	52.412
274.32	55.204
274.69	55.142
275.06	51.738
275.43	52.009
275.80	54.786
276.17	54.812
276.54	53.360
276.91	51.646
277.28	50.710
277.65	53.512
278.02	55.741
278.39	52.849
278.76	54.582
279.13	51.976
279.50	51.491
279.87	54.334
280.23	51.012
280.60	52.087
280.97	51.650
281.34	53.578
281.71	51.154
282.08	52.419
282.45	52.546
282.82	54.264
283.19	51.273
283.56	52.930
283.92	53.004
284.29	50.743
284.66	50.540
285.03	49.198
285.40	51.107
285.77	50.877
286.14	51.444
286.51	50.444
286.87	50.454
287.24	49.829
287.61	47.438
287.98	49.740
288.35	48.760
288.72	49.066
289.08	47.797
289.45	47.306
289.82	49.308
290.19	48.768
290.56	47.769
290.93	48.331
291.29	45.867
291.66	48.148
292.03	46.782
292.40	45.030
292.77	43.789
293.13	44.715
293.50	45.171
293.87	45.552
294.24	43.439
294.60	43.788
294.97	44.917
295.34	41.630
295.71	39.881
296.08	40.860
296.44	40.629
296.81	43.162
297.18	40.563
297.55	41.949
297.91	41.562
298.28	38.904
298.65	41.980
299.02	42.781
299.38	39.840
299.75	38.723
300.12	38.718
300.48	39.258
300.85	38.532
301.22	39.715
301.59	36.931
301.95	39.547
302.32	36.767
302.69	36.965
303.05	38.217
303.42	38.125
303.79	38.397
304.15	37.322
304.52	36.873
304.89	37.190
305.25	37.118
305.62	36.898
305.99	38.869
306.35	36.515
306.72	35.535
307.09	36.663
307.45	36.436
307.82	34.860
308.19	36.242
308.55	34.205
308.92	33.942
309.29	35.351
309.65	34.995
310.02	34.125
310.38	35.243
310.75	34.324
311.12	35.434
311.48	33.403
311.85	35.530
312.22	34.706
312.58	34.893
312.95	33.741
313.31	33.467
313.68	34.472
314.05	34.322
314.41	31.791
314.78	32.567
315.14	34.353
315.51	33.435
315.87	33.204
316.24	32.167
316.61	32.917
316.97	34.826
317.34	32.177
317.70	31.076
318.07	33.955
318.43	32.772
318.80	33.991
319.16	32.645
319.53	33.459
319.89	32.455
320.26	32.255
320.62	31.154
320.99	31.343
321.35	32.709
321.72	32.549
322.08	32.740
322.45	31.188
322.81	32.181
323.18	32.853
323.54	31.146
323.91	32.437
324.27	32.510
324.64	32.724
325.00	31.588
325.37	33.303
325.73	34.821
326.10	31.532
326.46	32.925
326.83	32.426
327.19	30.859
327.56	31.601
327.92	32.285
328.29	32.468
328.65	31.091
329.01	31.714
329.38	31.401
329.74	32.509
330.11	32.276
330.47	31.880
330.84	32.264
331.20	30.325
331.56	31.996
331.93	32.238
332.29	32.146
332.66	31.168
333.02	31.131
333.38	29.928
333.75	31.434
334.11	30.667
334.48	29.303
334.84	32.721
335.20	31.560
335.57	33.213
335.93	32.766
336.29	31.089
336.66	29.956
337.02	31.261
337.38	30.749
337.75	31.870
338.11	29.070
338.47	29.626
338.84	29.038
339.20	29.525
339.56	31.373
339.93	29.541
340.29	30.027
340.65	29.808
341.02	30.691
341.38	29.065
341.74	29.975
342.11	30.205
342.47	29.957
342.83	27.960
343.20	29.804
343.56	27.673
343.92	29.883
344.28	30.698
344.65	29.703
345.01	29.160
345.37	31.561
345.73	28.805
346.10	28.209
346.46	28.595
346.82	29.030
347.19	29.663
347.55	29.133
347.91	29.291
348.27	28.003
348.63	28.998
349.00	28.878
349.36	27.869
349.72	30.096
350.08	28.709
350.45	28.290
350.81	29.379
351.17	28.537
351.53	28.481
351.89	28.941
352.26	29.457
352.62	29.186
352.98	28.244
353.34	27.898
353.70	27.181
354.07	28.482
354.43	28.696
354.79	27.496
355.15	28.594
355.51	29.297
355.87	27.510
356.24	28.594
356.60	30.540
356.96	28.945
357.32	28.504
357.68	27.126
358.04	28.176
358.40	26.991
358.77	27.125
359.13	27.927
359.49	28.571
359.85	27.363
360.21	27.854
360.57	28.389
360.93	28.296
361.29	28.475
361.66	27.515
362.02	27.737
362.38	26.706
362.74	27.473
363.10	26.542
363.46	28.063
363.82	27.624
364.18	27.713
364.54	27.305
364.90	27.673
365.26	26.748
365.62	27.299
365.98	27.667
366.35	27.394
366.71	28.118
367.07	27.876
367.43	27.591
367.79	26.942
368.15	26.956
368.51	27.552
368.87	27.610
369.23	27.579
369.59	27.083
369.95	26.568
370.31	27.989
370.67	26.103
371.03	26.822
371.39	26.803
371.75	28.040
372.11	28.049
372.47	26.970
372.83	27.191
373.19	27.429
373.55	26.882
373.91	27.098
374.27	26.762
374.63	26.984
374.99	27.399
375.35	26.178
375.71	27.481
376.07	27.447
376.42	26.026
376.78	26.601
377.14	26.780
377.50	26.821
377.86	26.463
378.22	27.638
378.58	27.054
378.94	26.202
379.30	26.143
379.66	27.262
380.02	26.797
380.38	26.586
380.74	27.374
381.09	26.245
381.45	26.372
381.81	26.013
382.17	26.629
382.53	26.383
382.89	27.273
383.25	26.610
383.61	26.769
383.97	27.189
384.32	26.345
384.68	26.542
385.04	26.329
385.40	27.693
385.76	25.915
386.12	25.984
386.48	26.671
386.83	26.626
387.19	26.539
387.55	26.893
387.91	26.556
388.27	26.055
388.62	26.743
388.98	27.196
389.34	26.193
389.70	26.370
390.06	25.917
390.42	26.603
390.77	25.110
391.13	26.832
391.49	25.702
391.85	26.559
392.20	25.121
392.56	25.779
392.92	26.583
393.28	26.292
393.64	26.999
393.99	25.785
394.35	25.912
394.71	25.942
395.07	26.742
395.42	25.745
395.78	25.456
396.14	26.293
396.50	26.116
396.85	26.342
397.21	25.759
397.57	26.930
397.92	26.698
398.28	26.444
398.64	26.294
399.00	26.517
399.35	25.648
399.71	27.352
400.07	26.567
400.42	25.669
400.78	26.535
401.14	25.749
401.49	26.238
401.85	26.968
402.21	26.758
402.57	25.971
402.92	26.495
403.28	26.716
403.63	25.285
403.99	25.668
404.35	25.242
404.70	26.214
405.06	26.067
405.42	25.215
405.77	25.735
406.13	25.838
406.49	26.842
406.84	25.135
407.20	26.384
407.55	26.536
407.91	25.907
408.27	26.409
408.62	25.857
408.98	25.531
409.34	25.777
409.69	25.268
410.05	26.440
410.40	25.812
410.76	26.319
411.11	26.434
411.47	25.767
411.83	26.161
412.18	25.186
412.54	25.930
412.89	26.245
413.25	26.387
413.60	25.091
413.96	25.508
414.31	25.749
414.67	24.698
415.03	26.326
415.38	25.504
415.74	25.838
416.09	25.575
416.45	25.066
416.80	25.943
417.16	26.113
417.51	26.855
417.87	25.566
418.22	25.537
418.58	26.829
418.93	26.180
419.29	25.659
419.64	24.749
420.00	25.759
420.35	25.429
420.71	25.330
421.06	25.562
421.42	25.234
421.77	25.516
422.12	26.357
422.48	25.334
422.83	26.367
423.19	25.501
423.54	25.072
423.90	26.258
424.25	25.339
424.61	26.176
424.96	25.980
425.31	25.601
425.67	26.132
426.02	24.842
426.38	25.711
426.73	25.482
427.09	25.245
427.44	25.909
427.79	25.988
428.15	26.092
428.50	25.513
428.85	24.880
429.21	26.397
429.56	25.885
429.92	25.701
430.27	25.324
430.62	26.176
430.98	25.666
431.33	25.507
431.68	25.469
432.04	25.797
432.39	26.097
432.74	26.259
433.10	25.436
433.45	24.986
433.80	24.916
434.16	26.437
434.51	25.918
434.86	26.303
435.22	25.891
435.57	25.581
435.92	26.553
436.28	25.223
436.63	24.929
436.98	25.029
437.34	25.576
437.69	25.554
438.04	25.865
438.39	26.715
438.75	25.029
439.10	26.097
439.45	25.709
439.81	26.807
440.16	25.383
440.51	25.941
440.86	25.275
441.22	25.871
441.57	25.632
441.92	25.831
442.27	24.946
442.63	25.483
442.98	24.887
443.33	25.261
443.68	24.752
444.03	25.737
444.39	25.110
444.74	26.156
445.09	25.713
445.44	26.449
445.79	25.293
446.15	25.794
446.50	24.823
446.85	24.987
447.20	25.792
447.55	26.188
447.91	26.053
448.26	25.251
448.61	25.354
448.96	26.106
449.31	24.972
449.66	24.843
450.02	26.150
450.37	24.928
450.72	25.254
451.07	25.707
451.42	25.465
451.77	26.212
452.12	26.103
452.47	25.756
452.83	25.626
453.18	25.870
453.53	26.493
453.88	26.854
454.23	24.184
454.58	26.725
454.93	26.196
455.28	25.749
455.63	25.860
455.98	26.506
456.34	24.968
456.69	26.829
457.04	25.937
457.39	25.060
457.74	25.635
458.09	24.942
458.44	26.097
458.79	25.448
459.14	25.784
459.49	26.169
459.84	26.363
460.19	25.477
460.54	25.287
460.89	25.841
461.24	25.987
461.59	25.733
461.94	26.544
462.29	26.444
462.64	27.404
462.99	26.171
463.34	26.334
463.69	26.018
464.04	25.600
464.39	26.045
464.74	24.941
465.09	25.616
465.44	25.212
465.79	26.114
466.14	26.352
466.49	25.619
466.84	25.510
467.19	25.686
467.54	25.000
467.89	25.956
468.24	25.416
468.59	26.046
468.94	25.466
469.29	25.666
469.64	26.078
469.99	26.063
470.34	25.451
470.68	27.326
471.03	26.566
471.38	25.625
471.73	25.944
472.08	26.238
472.43	26.062
472.78	25.933
473.13	24.718
473.48	25.973
473.83	24.628
474.17	25.987
474.52	27.110
474.87	25.874
475.22	24.602
475.57	25.000
475.92	26.026
476.27	25.143
476.61	25.183
476.96	25.042
477.31	25.081
477.66	25.346
478.01	26.418
478.36	25.301
478.70	26.108
479.05	25.203
479.40	25.959
479.75	26.045
480.10	24.901
480.45	25.048
480.79	25.913
481.14	26.342
481.49	26.331
481.84	26.029
482.19	25.628
482.53	25.805
482.88	26.436
483.23	25.775
483.58	25.671
483.92	25.514
484.27	24.989
484.62	25.227
484.97	25.058
485.31	24.704
485.66	24.599
486.01	25.662
486.36	25.864
486.70	26.253
487.05	25.347
487.40	26.442
487.75	25.632
488.09	25.139
488.44	25.677
488.79	25.044
489.13	25.637
489.48	26.223
489.83	25.895
490.17	25.816
490.52	26.540
490.87	24.665
491.22	25.736
491.56	25.926
491.91	26.097
492.26	24.811
492.60	25.404
492.95	26.178
493.30	25.250
493.64	25.905
493.99	25.956
494.34	25.810
494.68	25.468
495.03	25.908
495.37	25.172
495.72	25.639
496.07	26.044
496.41	27.327
496.76	26.530
497.11	26.189
497.45	26.149
497.80	25.463
498.14	25.884
498.49	25.314
498.84	25.485
499.18	26.072
499.53	25.816
499.87	26.303
500.22	26.961
500.56	25.713
500.91	26.502
501.26	26.346
501.60	25.325
501.95	26.184
502.29	25.508
502.64	26.450
502.98	25.252
503.33	26.457
503.67	25.383
504.02	25.592
504.36	26.127
504.71	25.836
505.06	24.863
505.40	25.948
505.75	26.118
506.09	26.188
506.44	25.464
506.78	26.342
507.13	25.644
507.47	26.135
507.82	26.123
508.16	25.699
508.51	25.863
508.85	26.035
509.19	25.641
509.54	26.057
509.88	25.745
510.23	25.577
510.57	26.772
510.92	25.779
511.26	25.306
511.61	25.486
511.95	26.401
512.30	25.838
512.64	26.266
512.98	27.008
513.33	26.689
513.67	27.024
514.02	26.230
514.36	26.537
514.70	25.806
515.05	25.901
515.39	26.125
515.74	27.225
516.08	26.110
516.42	26.572
516.77	26.921
517.11	26.259
517.46	27.333
517.80	27.196
518.14	25.966
518.49	26.240
518.83	26.291
519.17	26.584
519.52	25.853
519.86	27.300
520.20	25.917
520.55	25.538
520.89	24.984
521.23	27.289
521.58	26.897
521.92	27.486
522.26	26.032
522.61	26.996
522.95	26.101
523.29	26.897
523.64	26.234
523.98	26.289
524.32	27.404
524.66	25.590
525.01	26.525
525.35	26.869
525.69	27.066
526.04	26.567
526.38	27.689
526.72	26.181
527.06	26.042
527.41	25.083
527.75	25.875
528.09	27.002
528.43	25.574
528.78	26.696
529.12	27.337
529.46	26.611
529.80	26.210
530.15	27.624
530.49	25.485
530.83	28.291
531.17	25.993
531.51	25.452
531.86	26.070
532.20	25.978
532.54	25.735
532.88	25.626
533.22	26.203
533.57	26.697
533.91	26.467
534.25	26.021
534.59	25.047
534.93	26.198
535.27	26.872
535.62	26.790
535.96	27.860
536.30	25.851
536.64	25.033
536.98	27.189
537.32	26.192
537.66	26.205
538.01	25.773
538.35	26.554
538.69	25.802
539.03	26.134
539.37	26.414
539.71	26.684
540.05	25.977
540.39	25.900
540.73	26.745
541.07	26.230
541.42	25.726
541.76	25.648
542.10	26.266
542.44	27.049
542.78	27.069
543.12	27.291
543.46	26.370
543.80	26.488
544.14	25.789
544.48	25.131
544.82	25.372
545.16	27.364
545.50	26.043
545.84	26.982
546.18	26.283
546.52	26.458
546.86	26.282
547.20	27.356
547.54	25.551
547.88	26.808
548.22	24.836
548.56	26.052
548.90	27.224
549.24	25.929
549.58	25.829
549.92	25.583
550.26	26.445
550.60	26.529
550.94	26.350
551.28	26.712
551.62	26.514
551.96	27.062
552.30	25.505
552.64	25.827
552.98	27.050
553.32	25.830
553.66	26.748
554.00	26.368
554.34	26.209
554.68	26.535
555.02	26.411
555.36	25.593
555.69	25.931
556.03	26.596
556.37	26.671
556.71	25.483
557.05	26.090
557.39	25.241
557.73	26.842
558.07	26.677
558.41	26.328
558.75	26.540
559.08	25.447
559.42	26.646
559.76	26.150
560.10	25.876
560.44	26.662
560.78	25.748
561.12	26.018
561.45	25.616
561.79	26.829
562.13	26.017
562.47	25.140
562.81	26.733
563.15	26.382
563.48	26.607
563.82	27.113
564.16	25.963
564.50	26.344
564.84	25.661
565.17	26.194
565.51	25.750
565.85	27.181
566.19	26.350
566.52	26.354
566.86	26.043
567.20	27.482
567.54	26.108
567.88	25.907
568.21	26.454
568.55	26.193
568.89	25.547
569.23	26.099
569.56	25.893
569.90	26.436
570.24	25.817
570.57	25.905
570.91	25.264
571.25	25.389
571.59	26.225
571.92	25.714
572.26	25.584
572.60	25.535
572.93	24.497
573.27	25.122
573.61	25.122
573.95	26.104
574.28	25.375
574.62	25.623
574.96	24.826
575.29	25.381
575.63	25.378
575.97	25.405
576.30	25.349
576.64	25.692
576.98	24.981
577.31	25.292
577.65	25.475
577.98	25.223
578.32	24.690
578.66	25.293
578.99	25.316
579.33	25.396
579.67	25.209
580.00	25.099
580.34	24.976
580.67	25.104
581.01	25.091
581.35	25.142
581.68	25.153
582.02	25.317
582.35	25.269
582.69	25.679
583.02	25.840
583.36	25.357
583.70	24.680
584.03	25.700
584.37	25.061
584.70	25.086
585.04	24.709
585.37	24.654
585.71	25.375
586.04	24.873
586.38	24.352
586.72	24.775
587.05	25.489
587.39	25.294
587.72	25.723
588.06	25.117
588.39	24.551
588.73	24.955
589.06	25.703
589.40	25.661
589.73	24.929
590.07	25.710
590.40	26.052
590.73	25.070
591.07	25.697
591.40	25.997
591.74	25.891
592.07	25.766
592.41	25.605
592.74	25.365
593.08	25.266
593.41	25.888
593.75	24.860
594.08	25.737
594.41	25.176
594.75	25.066
595.08	25.038
595.42	26.084
595.75	24.293
596.09	24.680
596.42	25.655
596.75	24.881
597.09	26.625
597.42	25.404
597.75	25.775
598.09	25.938
598.42	26.027
598.76	25.914
599.09	24.783
599.42	25.375
599.76	25.217
600.09	25.763
600.42	26.130
600.76	25.047
601.09	25.066
601.42	24.931
601.76	25.467
602.09	25.317
602.42	24.938
602.76	25.550
603.09	25.605
603.42	25.584
603.76	25.848
604.09	24.830
604.42	24.729
604.76	25.905
605.09	24.955
605.42	25.133
605.75	25.226
606.09	25.114
606.42	25.262
606.75	24.989
607.09	24.923
607.42	24.648
607.75	25.077
608.08	26.390
608.42	25.260
608.75	24.953
609.08	25.134
609.41	25.561
609.75	25.451
610.08	25.441
610.41	25.349
610.74	25.919
611.07	24.391
611.41	24.760
611.74	24.730
612.07	26.316
612.40	25.053
612.73	25.417
613.07	23.665
613.40	25.725
613.73	25.068
614.06	25.096
614.39	25.648
614.72	24.358
615.06	25.707
615.39	24.471
615.72	25.964
616.05	25.345
616.38	25.711
616.71	25.706
617.05	25.814
617.38	25.820
617.71	24.570
618.04	25.342
618.37	24.906
618.70	25.554
619.03	24.848
619.36	26.498
619.69	25.915
620.03	25.275
620.36	25.738
620.69	25.772
621.02	24.277
621.35	25.403
621.68	25.164
622.01	25.728
622.34	25.388
622.67	25.000
623.00	25.937
623.33	25.597
623.66	25.037
623.99	25.564
624.32	26.711
624.65	24.430
624.99	24.944
625.32	25.000
625.65	25.486
625.98	23.396
626.31	26.101
626.64	25.188
626.97	25.171
627.30	25.702
627.63	25.302
627.96	24.978
628.29	25.000
628.62	24.260
628.95	25.098
629.28	25.282
629.61	24.436
629.94	25.898
630.26	24.453
630.59	25.829
630.92	25.025
631.25	25.000
631.58	25.079
631.91	23.936
632.24	24.667
632.57	25.889
632.90	26.322
633.23	25.818
