SpectraSuite Data File
++++++++++++++++++++++++++++++++++++
Date: Sat May 16 11:47:26 PDT 2015
User: schluterlab
Dark Spectrum Present: Yes
Reference Spectrum Present: Yes
Number of Sampled Component Spectra: 1
Spectrometers: USB2E3373
Integration Time (usec): 3000 (USB2E3373)
Spectra Averaged: 3 (USB2E3373)
Boxcar Smoothing: 0 (USB2E3373)
Correct for Electrical Dark: No (USB2E3373)
Strobe/Lamp Enabled: No (USB2E3373)
Correct for Detector Non-linearity: No (USB2E3373)
Correct for Stray Light: No (USB2E3373)
Number of Pixels in Processed Spectrum: 2048
>>>>>Begin Processed Spectral Data<<<<<
178.53	0.000
178.91	120.000
179.29	800.000
179.67	-1500.000
180.04	-53.846
180.42	1300.000
180.80	175.000
181.18	350.000
181.56	25.000
181.94	1100.000
182.31	650.000
182.69	-7.692
183.07	-433.333
183.45	1650.000
183.83	100.000
184.20	-257.143
184.58	-300.000
184.96	-350.000
185.34	200.000
185.72	-325.000
186.09	200.000
186.47	-112.500
186.85	-162.500
187.23	-37.500
187.61	-250.000
187.98	-275.000
188.36	-112.500
188.74	-175.000
189.12	400.000
189.49	414.286
189.87	-50.000
190.25	200.000
190.63	-42.857
191.00	-200.000
191.38	400.000
191.76	0.000
192.14	520.000
192.51	-300.000
192.89	-300.000
193.27	0.000
193.65	-166.667
194.02	-242.857
194.40	266.667
194.78	-150.000
195.15	-1200.000
195.53	-154.545
195.91	-366.667
196.29	280.000
196.66	-633.333
197.04	2400.000
197.42	-300.000
197.79	13.333
198.17	-533.333
198.55	-350.000
198.92	-1700.000
199.30	275.000
199.68	-100.000
200.05	-266.667
200.43	-322.222
200.81	-600.000
201.18	-91.667
201.56	242.857
201.94	-46.667
202.31	-9.091
202.69	50.000
203.07	-50.000
203.44	700.000
203.82	-266.667
204.19	-350.000
204.57	-425.000
204.95	-1000.000
205.32	-62.500
205.70	700.000
206.08	-1200.000
206.45	-27.778
206.83	-550.000
207.20	-100.000
207.58	-700.000
207.96	-333.333
208.33	-75.000
208.71	-55.556
209.08	210.000
209.46	-228.571
209.84	650.000
210.21	0.000
210.59	70.000
210.96	-100.000
211.34	-433.333
211.71	-300.000
212.09	175.000
212.46	800.000
212.84	-1500.000
213.22	800.000
213.59	141.667
213.97	0.000
214.34	100.000
214.72	-140.000
215.09	-200.000
215.47	-166.667
215.84	-40.000
216.22	-50.000
216.59	26.667
216.97	-400.000
217.34	700.000
217.72	-85.714
218.09	-216.667
218.47	-142.857
218.84	242.857
219.22	-100.000
219.59	0.000
219.97	185.714
220.34	450.000
220.72	162.500
221.09	30.769
221.47	0.000
221.84	366.667
222.22	-750.000
222.59	1600.000
222.97	-212.500
223.34	-1000.000
223.72	-400.000
224.09	-28.571
224.46	-350.000
224.84	-64.286
225.21	-157.143
225.59	-109.091
225.96	-212.500
226.34	-157.143
226.71	-144.444
227.08	-15.000
227.46	2700.000
227.83	-214.286
228.21	-137.500
228.58	650.000
228.95	-18.750
229.33	-1300.000
229.70	-300.000
230.08	-750.000
230.45	-33.333
230.82	16.667
231.20	-1000.000
231.57	-450.000
231.95	400.000
232.32	-57.143
232.69	-100.000
233.07	-157.143
233.44	-800.000
233.81	-46.667
234.19	-66.667
234.56	-50.000
234.93	3.125
235.31	-157.143
235.68	-64.286
236.05	-47.059
236.43	-36.364
236.80	-16.129
237.17	29.167
237.55	0.000
237.92	-59.091
238.29	-11.429
238.67	32.353
239.04	2.778
239.41	-9.677
239.79	-35.897
240.16	28.571
240.53	3.636
240.91	5.128
241.28	5.455
241.65	26.154
242.02	29.508
242.40	24.590
242.77	27.273
243.14	22.034
243.51	8.571
243.89	18.987
244.26	24.719
244.63	36.842
245.00	27.368
245.38	27.119
245.75	46.018
246.12	28.000
246.49	21.260
246.87	28.455
247.24	32.203
247.61	25.424
247.98	33.803
248.36	34.266
248.73	43.038
249.10	33.758
249.47	33.918
249.84	38.068
250.22	33.929
250.59	36.158
250.96	35.602
251.33	41.232
251.70	36.058
252.08	36.493
252.45	32.701
252.82	40.000
253.19	38.298
253.56	33.871
253.94	37.553
254.31	35.622
254.68	34.553
255.05	35.484
255.42	40.476
255.79	34.050
256.16	40.000
256.54	40.074
256.91	39.015
257.28	39.927
257.65	39.362
258.02	41.195
258.39	36.120
258.76	36.149
259.14	36.420
259.51	40.000
259.88	38.720
260.25	40.994
260.62	38.907
260.99	37.092
261.36	36.280
261.73	40.462
262.10	39.722
262.47	40.741
262.85	38.857
263.22	35.244
263.59	36.000
263.96	38.551
264.33	38.753
264.70	40.608
265.07	40.110
265.44	39.276
265.81	35.659
266.18	37.215
266.55	37.990
266.92	40.554
267.29	38.015
267.66	39.753
268.03	38.889
268.40	37.559
268.77	40.482
269.14	37.587
269.51	39.310
269.88	33.028
270.25	34.965
270.62	38.215
270.99	36.712
271.36	38.462
271.73	35.426
272.10	40.503
272.47	33.778
272.84	40.000
273.21	38.532
273.58	36.484
273.95	37.061
274.32	38.688
274.69	37.856
275.06	39.059
275.43	38.839
275.80	38.289
276.17	38.912
276.54	37.882
276.91	37.654
277.28	37.525
277.65	39.050
278.02	38.205
278.39	39.686
278.76	38.845
279.13	37.154
279.50	37.773
279.87	33.827
280.23	35.628
280.60	39.761
280.97	37.476
281.34	40.426
281.71	36.923
282.08	40.927
282.45	38.697
282.82	37.016
283.19	35.091
283.56	39.011
283.92	37.279
284.29	39.033
284.66	37.050
285.03	38.503
285.40	36.716
285.77	37.544
286.14	35.560
286.51	36.945
286.87	36.479
287.24	36.519
287.61	34.215
287.98	33.102
288.35	34.545
288.72	35.993
289.08	33.051
289.45	35.017
289.82	32.872
290.19	34.647
290.56	34.050
290.93	32.114
291.29	33.225
291.66	33.977
292.03	35.322
292.40	33.283
292.77	33.540
293.13	33.171
293.50	34.027
293.87	31.442
294.24	32.127
294.60	31.212
294.97	32.018
295.34	29.630
295.71	30.506
296.08	28.879
296.44	28.469
296.81	31.624
297.18	28.732
297.55	30.367
297.91	29.149
298.28	29.863
298.65	29.707
299.02	28.342
299.38	28.743
299.75	28.125
300.12	28.333
300.48	28.005
300.85	27.523
301.22	27.555
301.59	25.358
301.95	29.093
302.32	26.597
302.69	25.949
303.05	26.618
303.42	26.625
303.79	27.751
304.15	26.185
304.52	26.954
304.89	26.564
305.25	25.519
305.62	26.087
305.99	27.208
306.35	26.526
306.72	26.310
307.09	26.674
307.45	25.539
307.82	24.469
308.19	25.280
308.55	25.599
308.92	25.349
309.29	26.054
309.65	26.087
310.02	25.270
310.38	24.000
310.75	26.639
311.12	25.517
311.48	25.261
311.85	24.717
312.22	25.232
312.58	26.653
312.95	24.465
313.31	25.674
313.68	24.724
314.05	25.717
314.41	23.541
314.78	24.276
315.14	24.877
315.51	23.911
315.87	24.395
316.24	24.198
316.61	24.952
316.97	25.174
317.34	23.988
317.70	23.284
318.07	24.720
318.43	25.187
318.80	24.413
319.16	23.921
319.53	24.248
319.89	22.954
320.26	24.118
320.62	22.212
320.99	23.881
321.35	22.167
321.72	23.746
322.08	23.838
322.45	25.248
322.81	24.207
323.18	25.168
323.54	23.383
323.91	22.984
324.27	25.475
324.64	22.669
325.00	22.600
325.37	22.896
325.73	24.584
326.10	22.055
326.46	22.592
326.83	22.979
327.19	23.603
327.56	24.702
327.92	22.940
328.29	23.203
328.65	22.273
329.01	21.908
329.38	23.283
329.74	24.725
330.11	23.028
330.47	23.342
330.84	23.373
331.20	22.834
331.56	22.060
331.93	23.535
332.29	22.466
332.66	22.651
333.02	22.986
333.38	22.401
333.75	22.796
334.11	21.156
334.48	21.712
334.84	22.397
335.20	21.543
335.57	23.736
335.93	22.829
336.29	22.498
336.66	22.907
337.02	22.342
337.38	21.123
337.75	22.651
338.11	22.361
338.47	22.064
338.84	21.960
339.20	21.441
339.56	23.708
339.93	22.222
340.29	21.258
340.65	22.290
341.02	22.850
341.38	22.662
341.74	21.592
342.11	21.928
342.47	21.116
342.83	21.159
343.20	21.264
343.56	20.408
343.92	22.120
344.28	21.615
344.65	21.040
345.01	20.924
345.37	21.761
345.73	20.295
346.10	19.787
346.46	21.446
346.82	19.888
347.19	20.049
347.55	21.108
347.91	19.843
348.27	20.207
348.63	21.244
349.00	21.480
349.36	20.765
349.72	20.939
350.08	22.374
350.45	20.016
350.81	21.815
351.17	20.498
351.53	20.048
351.89	20.049
352.26	19.767
352.62	21.275
352.98	19.937
353.34	20.384
353.70	19.923
354.07	21.007
354.43	19.526
354.79	21.395
355.15	19.888
355.51	20.625
355.87	19.684
356.24	20.810
356.60	21.757
356.96	20.246
357.32	19.794
357.68	19.770
358.04	20.631
358.40	20.108
358.77	19.629
359.13	20.199
359.49	19.955
359.85	19.055
360.21	19.863
360.57	19.880
360.93	20.444
361.29	20.703
361.66	19.436
362.02	19.527
362.38	20.396
362.74	20.659
363.10	18.867
363.46	21.296
363.82	19.606
364.18	19.175
364.54	21.229
364.90	19.497
365.26	19.686
365.62	20.314
365.98	19.701
366.35	20.070
366.71	18.816
367.07	19.901
367.43	19.561
367.79	19.588
368.15	19.203
368.51	19.720
368.87	20.604
369.23	19.719
369.59	19.792
369.95	19.803
370.31	19.550
370.67	18.944
371.03	20.044
371.39	19.095
371.75	20.029
372.11	19.297
372.47	19.667
372.83	19.958
373.19	18.857
373.55	19.775
373.91	19.986
374.27	19.644
374.63	20.704
374.99	19.332
375.35	19.179
375.71	19.649
376.07	18.960
376.42	18.146
376.78	20.458
377.14	20.000
377.50	21.212
377.86	19.311
378.22	19.975
378.58	18.777
378.94	18.866
379.30	19.317
379.66	19.490
380.02	19.489
380.38	19.154
380.74	18.523
381.09	19.274
381.45	19.690
381.81	19.298
382.17	19.486
382.53	20.000
382.89	19.617
383.25	19.326
383.61	19.045
383.97	18.922
384.32	19.524
384.68	20.133
385.04	18.901
385.40	18.381
385.76	19.085
386.12	19.363
386.48	20.173
386.83	19.202
387.19	18.888
387.55	18.655
387.91	19.087
388.27	19.059
388.62	19.111
388.98	18.353
389.34	17.442
389.70	18.270
390.06	18.521
390.42	19.551
390.77	18.675
391.13	19.255
391.49	18.465
391.85	19.015
392.20	18.022
392.56	18.448
392.92	18.426
393.28	19.346
393.64	19.122
393.99	18.831
394.35	19.282
394.71	18.530
395.07	19.900
395.42	18.653
395.78	19.547
396.14	18.692
396.50	19.021
396.85	17.952
397.21	18.044
397.57	19.088
397.92	18.618
398.28	19.056
398.64	18.322
399.00	18.371
399.35	18.715
399.71	19.280
400.07	18.328
400.42	19.769
400.78	18.068
401.14	18.922
401.49	18.514
401.85	18.914
402.21	18.653
402.57	18.811
402.92	19.257
403.28	18.627
403.63	18.874
403.99	19.267
404.35	18.780
404.70	18.549
405.06	18.800
405.42	17.589
405.77	17.647
406.13	18.569
406.49	18.754
406.84	18.476
407.20	18.846
407.55	19.063
407.91	18.329
408.27	18.934
408.62	18.461
408.98	17.768
409.34	18.221
409.69	18.715
410.05	18.193
410.40	18.026
410.76	18.554
411.11	18.516
411.47	18.542
411.83	18.888
412.18	18.007
412.54	17.938
412.89	18.469
413.25	17.060
413.60	17.315
413.96	18.115
414.31	17.676
414.67	17.651
415.03	18.823
415.38	18.347
415.74	18.428
416.09	18.031
416.45	16.931
416.80	18.075
417.16	17.674
417.51	19.173
417.87	17.476
418.22	17.889
418.58	17.779
418.93	18.394
419.29	18.005
419.64	17.651
420.00	18.165
420.35	18.214
420.71	18.007
421.06	18.166
421.42	17.330
421.77	17.867
422.12	17.739
422.48	17.370
422.83	18.166
423.19	17.762
423.54	18.213
423.90	18.103
424.25	17.647
424.61	17.853
424.96	18.724
425.31	17.999
425.67	17.192
426.02	17.613
426.38	18.512
426.73	18.352
427.09	18.689
427.44	17.784
427.79	17.500
428.15	17.594
428.50	18.416
428.85	17.926
429.21	17.654
429.56	17.396
429.92	17.685
430.27	17.996
430.62	18.130
430.98	18.244
431.33	18.036
431.68	18.660
432.04	18.299
432.39	18.689
432.74	17.866
433.10	18.064
433.45	17.444
433.80	17.469
434.16	18.109
434.51	17.863
434.86	18.805
435.22	18.374
435.57	18.237
435.92	18.875
436.28	18.042
436.63	17.807
436.98	18.328
437.34	18.193
437.69	17.853
438.04	18.378
438.39	18.532
438.75	17.229
439.10	17.934
439.45	17.864
439.81	18.313
440.16	18.228
440.51	18.471
440.86	18.161
441.22	17.579
441.57	18.158
441.92	18.261
442.27	18.344
442.63	18.348
442.98	18.002
443.33	18.067
443.68	17.874
444.03	18.271
444.39	17.474
444.74	18.612
445.09	17.708
445.44	18.120
445.79	17.950
446.15	18.456
446.50	17.148
446.85	17.855
447.20	18.386
447.55	18.343
447.91	19.483
448.26	17.598
448.61	18.280
448.96	18.543
449.31	17.700
449.66	17.974
450.02	17.230
450.37	18.029
450.72	17.288
451.07	18.228
451.42	17.100
451.77	17.893
452.12	18.296
452.47	17.569
452.83	17.997
453.18	18.849
453.53	18.221
453.88	18.481
454.23	17.533
454.58	18.645
454.93	17.128
455.28	17.973
455.63	18.059
455.98	17.952
456.34	16.836
456.69	18.261
457.04	18.562
457.39	17.404
457.74	18.488
458.09	18.155
458.44	18.014
458.79	17.601
459.14	18.711
459.49	17.880
459.84	17.763
460.19	18.914
460.54	18.209
460.89	17.881
461.24	18.519
461.59	17.644
461.94	18.078
462.29	18.225
462.64	18.379
462.99	19.277
463.34	17.893
463.69	17.875
464.04	17.282
464.39	18.339
464.74	17.849
465.09	17.498
465.44	17.823
465.79	18.161
466.14	18.182
466.49	17.962
466.84	18.547
467.19	18.204
467.54	16.835
467.89	17.941
468.24	18.587
468.59	17.177
468.94	17.170
469.29	17.674
469.64	18.127
469.99	18.366
470.34	17.568
470.68	18.314
471.03	18.789
471.38	16.944
471.73	17.413
472.08	17.336
472.43	16.731
472.78	17.533
473.13	17.164
473.48	17.486
473.83	17.804
474.17	17.707
474.52	18.670
474.87	16.900
475.22	16.460
475.57	17.389
475.92	18.143
476.27	18.571
476.61	17.296
476.96	17.496
477.31	16.792
477.66	17.764
478.01	17.882
478.36	17.915
478.70	17.565
479.05	18.496
479.40	17.306
479.75	17.023
480.10	16.915
480.45	17.408
480.79	17.917
481.14	17.913
481.49	18.248
481.84	17.846
482.19	17.816
482.53	17.850
482.88	18.178
483.23	17.793
483.58	18.224
483.92	17.582
484.27	16.704
484.62	17.840
484.97	17.771
485.31	17.280
485.66	17.652
486.01	17.960
486.36	18.382
486.70	19.371
487.05	18.438
487.40	18.723
487.75	18.529
488.09	18.623
488.44	18.268
488.79	18.783
489.13	19.019
489.48	18.719
489.83	18.122
490.17	17.675
490.52	18.161
490.87	16.952
491.22	17.375
491.56	17.824
491.91	17.271
492.26	16.981
492.60	17.364
492.95	17.706
493.30	17.437
493.64	16.925
493.99	16.730
494.34	17.810
494.68	18.118
495.03	17.352
495.37	17.011
495.72	17.485
496.07	17.363
496.41	17.554
496.76	16.895
497.11	17.664
497.45	17.864
497.80	16.458
498.14	17.338
498.49	16.976
498.84	17.039
499.18	18.080
499.53	17.681
499.87	17.133
500.22	18.137
500.56	17.509
500.91	17.586
501.26	17.661
501.60	17.670
501.95	17.633
502.29	17.430
502.64	17.680
502.98	17.010
503.33	17.434
503.67	17.146
504.02	17.286
504.36	17.451
504.71	16.565
505.06	17.174
505.40	17.216
505.75	17.124
506.09	17.290
506.44	17.243
506.78	16.608
507.13	17.147
507.47	17.267
507.82	17.605
508.16	17.306
508.51	17.311
508.85	17.288
509.19	16.170
509.54	17.548
509.88	17.606
510.23	16.929
510.57	17.407
510.92	16.702
511.26	17.225
511.61	16.685
511.95	16.433
512.30	16.767
512.64	16.361
512.98	17.107
513.33	17.243
513.67	16.639
514.02	16.163
514.36	17.562
514.70	16.582
515.05	16.467
515.39	17.416
515.74	17.277
516.08	16.772
516.42	17.960
516.77	17.331
517.11	17.162
517.46	17.045
517.80	17.329
518.14	15.519
518.49	16.557
518.83	17.092
519.17	16.400
519.52	15.442
519.86	16.487
520.20	16.687
520.55	17.046
520.89	15.153
521.23	16.422
521.58	16.238
521.92	16.529
522.26	16.825
522.61	16.096
522.95	15.826
523.29	16.552
523.64	16.177
523.98	16.295
524.32	16.970
524.66	15.839
525.01	16.378
525.35	16.688
525.69	16.591
526.04	16.188
526.38	17.250
526.72	16.156
527.06	16.341
527.41	16.568
527.75	15.644
528.09	15.950
528.43	15.803
528.78	16.457
529.12	16.901
529.46	16.237
529.80	16.527
530.15	16.355
530.49	16.235
530.83	17.551
531.17	15.623
531.51	16.477
531.86	16.195
532.20	16.667
532.54	16.912
532.88	16.667
533.22	16.377
533.57	16.645
533.91	15.918
534.25	16.405
534.59	16.177
534.93	15.806
535.27	16.111
535.62	17.008
535.96	16.613
536.30	16.165
536.64	16.667
536.98	16.243
537.32	15.895
537.66	16.972
538.01	15.808
538.35	17.027
538.69	15.909
539.03	17.062
539.37	16.900
539.71	16.678
540.05	16.107
540.39	16.343
540.73	17.001
541.07	16.325
541.42	15.598
541.76	15.349
542.10	16.678
542.44	16.855
542.78	15.875
543.12	16.293
543.46	16.301
543.80	15.853
544.14	15.648
544.48	17.323
544.82	15.562
545.16	15.627
545.50	15.410
545.84	16.690
546.18	17.198
546.52	15.932
546.86	15.456
547.20	16.315
547.54	15.220
547.88	16.457
548.22	15.072
548.56	16.299
548.90	17.318
549.24	15.417
549.58	15.667
549.92	16.890
550.26	17.052
550.60	15.647
550.94	16.788
551.28	16.027
551.62	15.879
551.96	16.570
552.30	16.028
552.64	16.960
552.98	16.118
553.32	15.801
553.66	16.583
554.00	14.854
554.34	15.884
554.68	16.813
555.02	15.557
555.36	15.744
555.69	15.473
556.03	16.281
556.37	16.501
556.71	16.106
557.05	15.669
557.39	16.110
557.73	17.433
558.07	15.599
558.41	15.408
558.75	15.589
559.08	14.708
559.42	15.773
559.76	15.951
560.10	16.779
560.44	16.185
560.78	15.658
561.12	16.080
561.45	15.753
561.79	15.610
562.13	15.989
562.47	16.807
562.81	15.417
563.15	15.815
563.48	17.208
563.82	15.889
564.16	16.092
564.50	15.860
564.84	16.534
565.17	16.114
565.51	16.688
565.85	16.430
566.19	15.942
566.52	15.982
566.86	15.803
567.20	17.070
567.54	17.247
567.88	16.806
568.21	16.890
568.55	16.967
568.89	16.600
569.23	17.075
569.56	16.646
569.90	17.231
570.24	17.850
570.57	16.837
570.91	17.341
571.25	17.737
571.59	17.234
571.92	17.946
572.26	17.525
572.60	17.685
572.93	17.745
573.27	17.622
573.61	17.752
573.95	18.361
574.28	17.607
574.62	17.946
574.96	17.597
575.29	17.785
575.63	17.653
575.97	17.557
576.30	17.539
576.64	17.807
576.98	17.666
577.31	17.878
577.65	18.273
577.98	17.646
578.32	17.807
578.66	18.041
578.99	18.128
579.33	17.860
579.67	17.702
580.00	17.808
580.34	18.297
580.67	18.068
581.01	17.733
581.35	17.989
581.68	18.073
582.02	18.065
582.35	17.960
582.69	18.656
583.02	18.700
583.36	18.279
583.70	18.536
584.03	18.292
584.37	18.674
584.70	18.239
585.04	18.329
585.37	18.210
585.71	18.699
586.04	18.161
586.38	18.257
586.72	18.038
587.05	18.578
587.39	18.301
587.72	18.344
588.06	17.772
588.39	17.915
588.73	18.196
589.06	18.702
589.40	18.585
589.73	18.591
590.07	17.917
590.40	17.897
590.73	18.193
591.07	18.648
591.40	18.198
591.74	18.202
592.07	17.342
592.41	17.962
592.74	17.256
593.08	17.714
593.41	17.368
593.75	17.441
594.08	18.404
594.41	18.447
594.75	17.743
595.08	17.669
595.42	18.136
595.75	17.677
596.09	17.656
596.42	18.208
596.75	17.853
597.09	18.477
597.42	18.114
597.75	18.291
598.09	18.753
598.42	17.764
598.76	17.483
599.09	17.956
599.42	17.416
599.76	17.441
600.09	18.282
600.42	17.850
600.76	18.154
601.09	17.698
601.42	17.610
601.76	18.302
602.09	17.260
602.42	18.066
602.76	17.200
603.09	18.105
603.42	18.251
603.76	17.950
604.09	17.781
604.42	17.277
604.76	17.837
605.09	18.354
605.42	17.908
605.75	17.508
606.09	18.223
606.42	17.470
606.75	17.647
607.09	17.865
607.42	18.266
607.75	17.395
608.08	18.617
608.42	17.550
608.75	17.383
609.08	17.097
609.41	17.788
609.75	17.552
610.08	18.137
610.41	18.217
610.74	17.553
611.07	17.444
611.41	16.238
611.74	17.686
612.07	17.830
612.40	16.684
612.73	17.178
613.07	17.061
613.40	17.953
613.73	17.221
614.06	17.133
614.39	17.869
614.72	16.648
615.06	16.630
615.39	16.603
615.72	17.871
616.05	16.897
616.38	17.644
616.71	16.637
617.05	17.189
617.38	17.214
617.71	16.278
618.04	17.205
618.37	16.667
618.70	17.927
619.03	17.197
619.36	16.843
619.69	16.798
620.03	16.391
620.36	17.792
620.69	16.583
621.02	16.286
621.35	16.129
621.68	14.836
622.01	16.343
622.34	16.848
622.67	15.703
623.00	15.685
623.33	16.418
623.66	16.322
623.99	16.015
624.32	15.253
624.65	15.673
624.99	15.459
625.32	15.344
625.65	17.249
625.98	15.571
626.31	16.803
626.64	16.318
626.97	16.438
627.30	15.915
627.63	14.680
627.96	15.318
628.29	15.441
628.62	14.995
628.95	16.535
629.28	14.662
629.61	15.211
629.94	16.068
630.26	16.302
630.59	15.980
630.92	14.615
631.25	15.827
631.58	15.979
631.91	12.872
