SpectraSuite Data File
++++++++++++++++++++++++++++++++++++
Date: Sat May 16 11:09:53 PDT 2015
User: schluterlab
Dark Spectrum Present: Yes
Reference Spectrum Present: Yes
Number of Sampled Component Spectra: 1
Spectrometers: USB2E3373
Integration Time (usec): 3000 (USB2E3373)
Spectra Averaged: 3 (USB2E3373)
Boxcar Smoothing: 0 (USB2E3373)
Correct for Electrical Dark: No (USB2E3373)
Strobe/Lamp Enabled: No (USB2E3373)
Correct for Detector Non-linearity: No (USB2E3373)
Correct for Stray Light: No (USB2E3373)
Number of Pixels in Processed Spectrum: 2048
>>>>>Begin Processed Spectral Data<<<<<
178.53	0.000
178.91	80.000
179.29	200.000
179.67	100.000
180.04	30.769
180.42	-200.000
180.80	-50.000
181.18	400.000
181.56	187.500
181.94	500.000
182.31	200.000
182.69	61.538
183.07	233.333
183.45	1250.000
183.83	100.000
184.20	0.000
184.58	-87.500
184.96	-125.000
185.34	18.750
185.72	-275.000
186.09	116.667
186.47	-12.500
186.85	-62.500
187.23	12.500
187.61	-50.000
187.98	-125.000
188.36	37.500
188.74	-137.500
189.12	-100.000
189.49	242.857
189.87	-33.333
190.25	75.000
190.63	100.000
191.00	55.556
191.38	100.000
191.76	13.333
192.14	300.000
192.51	40.000
192.89	-233.333
193.27	0.000
193.65	0.000
194.02	-142.857
194.40	200.000
194.78	-10.000
195.15	-100.000
195.53	45.455
195.91	-183.333
196.29	40.000
196.66	-300.000
197.04	700.000
197.42	100.000
197.79	66.667
198.17	33.333
198.55	250.000
198.92	-1000.000
199.30	137.500
199.68	200.000
200.05	-11.111
200.43	-133.333
200.81	-1100.000
201.18	-25.000
201.56	-0.000
201.94	-20.000
202.31	27.273
202.69	100.000
203.07	-10.000
203.44	33.333
203.82	-116.667
204.19	-225.000
204.57	-50.000
204.95	-400.000
205.32	87.500
205.70	300.000
206.08	-600.000
206.45	77.778
206.83	-150.000
207.20	150.000
207.58	-366.667
207.96	-466.667
208.33	-50.000
208.71	0.000
209.08	140.000
209.46	-171.429
209.84	150.000
210.21	0.000
210.59	95.000
210.96	200.000
211.34	-100.000
211.71	200.000
212.09	275.000
212.46	850.000
212.84	-800.000
213.22	300.000
213.59	133.333
213.97	66.667
214.34	40.000
214.72	10.000
215.09	-33.333
215.47	-33.333
215.84	20.000
216.22	-10.000
216.59	33.333
216.97	-150.000
217.34	300.000
217.72	0.000
218.09	-116.667
218.47	-28.571
218.84	-85.714
219.22	42.857
219.59	0.000
219.97	200.000
220.34	225.000
220.72	137.500
221.09	7.692
221.47	0.000
221.84	66.667
222.22	50.000
222.59	600.000
222.97	-37.500
223.34	-150.000
223.72	-233.333
224.09	28.571
224.46	-75.000
224.84	35.714
225.21	-71.429
225.59	9.091
225.96	-25.000
226.34	-71.429
226.71	-77.778
227.08	75.000
227.46	400.000
227.83	-14.286
228.21	-162.500
228.58	-300.000
228.95	-43.750
229.33	-400.000
229.70	40.000
230.08	-50.000
230.45	50.000
230.82	-116.667
231.20	200.000
231.57	-250.000
231.95	100.000
232.32	66.667
232.69	-100.000
233.07	-114.286
233.44	0.000
233.81	26.667
234.19	22.222
234.56	0.000
234.93	43.750
235.31	14.286
235.68	-28.571
236.05	11.765
236.43	-59.091
236.80	32.258
237.17	4.167
237.55	23.810
237.92	-36.364
238.29	25.714
238.67	32.353
239.04	58.333
239.41	32.258
239.79	-2.564
240.16	19.048
240.53	14.545
240.91	23.077
241.28	12.727
241.65	40.000
242.02	4.918
242.40	32.787
242.77	12.121
243.14	28.814
243.51	14.286
243.89	12.658
244.26	17.978
244.63	16.842
245.00	23.158
245.38	7.627
245.75	23.894
246.12	22.400
246.49	12.598
246.87	14.634
247.24	19.492
247.61	12.712
247.98	23.239
248.36	11.888
248.73	18.987
249.10	14.650
249.47	18.129
249.84	25.568
250.22	11.310
250.59	18.079
250.96	22.513
251.33	19.905
251.70	17.788
252.08	25.118
252.45	14.692
252.82	22.857
253.19	17.447
253.56	15.323
253.94	19.409
254.31	25.322
254.68	21.545
255.05	18.548
255.42	19.841
255.79	17.563
256.16	20.784
256.54	23.529
256.91	19.697
257.28	18.681
257.65	20.213
258.02	21.069
258.39	21.405
258.76	15.878
259.14	17.593
259.51	20.328
259.88	22.561
260.25	20.807
260.62	18.971
260.99	17.804
261.36	23.476
261.73	23.121
262.10	23.889
262.47	16.239
262.85	23.143
263.22	21.203
263.59	20.308
263.96	22.319
264.33	21.951
264.70	20.442
265.07	19.505
265.44	20.413
265.81	17.829
266.18	17.722
266.55	19.363
266.92	22.922
267.29	19.128
267.66	20.247
268.03	23.188
268.40	18.545
268.77	19.518
269.14	19.026
269.51	20.000
269.88	19.495
270.25	19.814
270.62	19.908
270.99	21.171
271.36	21.445
271.73	19.283
272.10	23.570
272.47	17.778
272.84	23.333
273.21	22.018
273.58	24.615
273.95	20.395
274.32	20.588
274.69	21.882
275.06	20.245
275.43	19.420
275.80	23.218
276.17	20.293
276.54	21.181
276.91	20.782
277.28	18.864
277.65	20.455
278.02	22.756
278.39	20.432
278.76	22.709
279.13	21.542
279.50	19.284
279.87	20.507
280.23	21.255
280.60	19.284
280.97	19.806
281.34	22.244
281.71	21.154
282.08	23.185
282.45	16.497
282.82	20.543
283.19	21.273
283.56	21.978
283.92	19.965
284.29	18.030
284.66	20.863
285.03	19.073
285.40	22.878
285.77	21.754
286.14	20.397
286.51	19.893
286.87	19.601
287.24	19.966
287.61	19.339
287.98	18.371
288.35	16.694
288.72	19.525
289.08	16.102
289.45	19.697
289.82	19.723
290.19	20.033
290.56	18.347
290.93	19.396
291.29	17.990
291.66	17.552
292.03	19.780
292.40	18.373
292.77	18.012
293.13	17.724
293.50	18.276
293.87	17.638
294.24	17.195
294.60	18.030
294.97	18.513
295.34	18.667
295.71	17.857
296.08	15.207
296.44	16.023
296.81	18.519
297.18	17.887
297.55	18.503
297.91	18.689
298.28	17.123
298.65	16.736
299.02	18.316
299.38	16.578
299.75	16.304
300.12	16.667
300.48	16.752
300.85	17.693
301.22	17.335
301.59	16.255
301.95	18.262
302.32	15.254
302.69	16.279
303.05	15.385
303.42	16.000
303.79	18.301
304.15	17.773
304.52	16.803
304.89	16.293
305.25	16.972
305.62	15.981
305.99	16.961
306.35	16.648
306.72	16.515
307.09	16.232
307.45	16.118
307.82	15.978
308.19	17.338
308.55	16.449
308.92	16.219
309.29	18.162
309.65	15.801
310.02	15.443
310.38	17.297
310.75	17.623
311.12	17.562
311.48	16.701
311.85	17.611
312.22	18.538
312.58	18.616
312.95	17.329
313.31	18.681
313.68	19.095
314.05	19.387
314.41	18.712
314.78	16.983
315.14	19.645
315.51	18.744
315.87	19.361
316.24	20.019
316.61	20.250
316.97	21.294
317.34	21.291
317.70	20.686
318.07	21.269
318.43	21.161
318.80	23.474
319.16	21.295
319.53	22.274
319.89	21.543
320.26	23.725
320.62	22.596
320.99	23.184
321.35	21.773
321.72	22.006
322.08	24.332
322.45	24.752
322.81	23.727
323.18	24.400
323.54	25.693
323.91	26.228
324.27	25.760
324.64	25.868
325.00	24.782
325.37	27.240
325.73	28.521
326.10	27.281
326.46	28.284
326.83	27.489
327.19	28.857
327.56	29.472
327.92	29.312
328.29	30.216
328.65	29.909
329.01	31.007
329.38	30.062
329.74	30.678
330.11	30.281
330.47	31.698
330.84	31.622
331.20	30.776
331.56	31.085
331.93	32.504
332.29	31.963
332.66	32.572
333.02	32.489
333.38	32.527
333.75	32.591
334.11	32.800
334.48	31.951
334.84	31.846
335.20	32.358
335.57	31.318
335.93	34.109
336.29	33.127
336.66	31.894
337.02	34.324
337.38	31.907
337.75	31.607
338.11	33.363
338.47	33.007
338.84	32.396
339.20	32.337
339.56	32.175
339.93	32.275
340.29	30.735
340.65	30.157
341.02	32.040
341.38	32.519
341.74	32.091
342.11	32.935
342.47	32.103
342.83	32.158
343.20	33.305
343.56	31.347
343.92	32.638
344.28	32.212
344.65	32.343
345.01	32.773
345.37	33.140
345.73	29.951
346.10	30.744
346.46	31.113
346.82	31.034
347.19	31.635
347.55	31.862
347.91	31.890
348.27	30.708
348.63	31.583
349.00	31.742
349.36	29.664
349.72	31.768
350.08	31.034
350.45	30.654
350.81	31.449
351.17	31.350
351.53	30.708
351.89	31.285
352.26	31.938
352.62	30.492
352.98	31.725
353.34	32.934
353.70	30.425
354.07	31.550
354.43	31.700
354.79	31.379
355.15	30.511
355.51	30.625
355.87	31.542
356.24	30.659
356.60	32.474
356.96	32.256
357.32	31.196
357.68	30.805
358.04	30.947
358.40	31.245
358.77	30.139
359.13	31.446
359.49	31.595
359.85	30.793
360.21	30.898
360.57	31.476
360.93	32.370
361.29	32.362
361.66	30.945
362.02	30.843
362.38	31.548
362.74	31.429
363.10	30.273
363.46	31.054
363.82	30.977
364.18	32.055
364.54	31.594
364.90	31.726
365.26	30.884
365.62	32.502
365.98	32.148
366.35	29.648
366.71	30.303
367.07	31.263
367.43	31.366
367.79	31.409
368.15	31.223
368.51	31.329
368.87	31.456
369.23	31.719
369.59	30.556
369.95	32.488
370.31	31.224
370.67	30.369
371.03	30.685
371.39	30.410
371.75	31.617
372.11	31.133
372.47	31.887
372.83	32.128
373.19	32.071
373.55	31.879
373.91	31.935
374.27	30.869
374.63	31.263
374.99	31.433
375.35	30.888
375.71	32.073
376.07	30.732
376.42	29.470
376.78	32.810
377.14	31.729
377.50	31.786
377.86	32.185
378.22	31.156
378.58	32.366
378.94	31.011
379.30	31.505
379.66	31.269
380.02	31.373
380.38	31.239
380.74	30.598
381.09	31.634
381.45	30.967
381.81	30.551
382.17	31.015
382.53	31.246
382.89	30.622
383.25	31.126
383.61	30.601
383.97	31.353
384.32	31.352
384.68	31.076
385.04	30.737
385.40	31.893
385.76	31.585
386.12	30.543
386.48	31.683
386.83	31.534
387.19	31.261
387.55	30.951
387.91	30.943
388.27	29.614
388.62	30.950
388.98	30.527
389.34	31.334
389.70	30.694
390.06	30.454
390.42	31.474
390.77	30.284
391.13	31.429
391.49	30.817
391.85	30.860
392.20	29.915
392.56	30.910
392.92	30.405
393.28	31.114
393.64	31.449
393.99	31.815
394.35	30.961
394.71	30.080
395.07	31.387
395.42	30.572
395.78	30.610
396.14	31.589
396.50	30.826
396.85	30.845
397.21	30.377
397.57	31.003
397.92	30.328
398.28	31.333
398.64	30.874
399.00	31.292
399.35	30.947
399.71	30.836
400.07	31.224
400.42	31.083
400.78	30.710
401.14	30.180
401.49	30.130
401.85	30.384
402.21	29.142
402.57	30.279
402.92	30.900
403.28	31.005
403.63	29.718
403.99	30.827
404.35	30.072
404.70	30.661
405.06	31.027
405.42	29.213
405.77	29.921
406.13	30.437
406.49	30.917
406.84	30.954
407.20	30.094
407.55	31.096
407.91	30.376
408.27	30.637
408.62	30.728
408.98	30.321
409.34	30.165
409.69	29.238
410.05	30.503
410.40	30.656
410.76	29.638
411.11	31.297
411.47	29.604
411.83	30.685
412.18	29.394
412.54	28.920
412.89	30.255
413.25	29.162
413.60	29.587
413.96	30.006
414.31	30.703
414.67	29.714
415.03	30.207
415.38	29.798
415.74	31.057
416.09	29.795
416.45	29.696
416.80	29.974
417.16	29.568
417.51	31.123
417.87	29.838
418.22	30.594
418.58	30.616
418.93	30.595
419.29	30.238
419.64	30.088
420.00	30.134
420.35	29.864
420.71	30.432
421.06	30.355
421.42	30.152
421.77	30.765
422.12	31.281
422.48	30.091
422.83	30.581
423.19	30.624
423.54	30.548
423.90	30.538
424.25	30.430
424.61	32.388
424.96	32.124
425.31	31.358
425.67	32.149
426.02	30.694
426.38	32.607
426.73	30.976
427.09	31.924
427.44	31.193
427.79	31.337
428.15	32.196
428.50	32.023
428.85	33.273
429.21	31.655
429.56	33.073
429.92	32.064
430.27	32.004
430.62	33.124
430.98	31.730
431.33	33.298
431.68	33.673
432.04	33.520
432.39	33.390
432.74	32.374
433.10	31.908
433.45	32.585
433.80	32.419
434.16	33.423
434.51	33.753
434.86	34.036
435.22	33.909
435.57	33.109
435.92	33.294
436.28	34.718
436.63	34.087
436.98	32.016
437.34	34.436
437.69	34.014
438.04	33.579
438.39	34.958
438.75	34.226
439.10	34.314
439.45	34.762
439.81	34.819
440.16	34.242
440.51	34.941
440.86	34.529
441.22	33.499
441.57	34.632
441.92	34.936
442.27	35.011
442.63	34.710
442.98	33.747
443.33	34.267
443.68	34.758
444.03	34.627
444.39	34.655
444.74	34.581
445.09	35.033
445.44	35.678
445.79	35.186
446.15	35.597
446.50	33.968
446.85	34.992
447.20	35.240
447.55	35.691
447.91	35.430
448.26	34.972
448.61	35.144
448.96	36.078
449.31	34.667
449.66	35.776
450.02	34.848
450.37	35.304
450.72	34.972
451.07	36.141
451.42	34.572
451.77	35.787
452.12	35.459
452.47	36.461
452.83	36.459
453.18	36.243
453.53	34.950
453.88	37.141
454.23	34.946
454.58	36.607
454.93	36.587
455.28	36.074
455.63	35.197
455.98	36.867
456.34	35.006
456.69	36.210
457.04	35.956
457.39	35.945
457.74	36.621
458.09	36.833
458.44	37.240
458.79	34.585
459.14	36.224
459.49	35.998
459.84	35.919
460.19	35.322
460.54	35.874
460.89	36.547
461.24	35.823
461.59	36.987
461.94	36.919
462.29	36.152
462.64	35.441
462.99	36.145
463.34	36.124
463.69	37.405
464.04	35.501
464.39	35.902
464.74	35.875
465.09	35.418
465.44	36.661
465.79	36.887
466.14	36.997
466.49	36.327
466.84	37.335
467.19	36.658
467.54	35.506
467.89	36.745
468.24	37.292
468.59	37.102
468.94	37.170
469.29	36.777
469.64	37.264
469.99	38.015
470.34	36.607
470.68	37.355
471.03	37.715
471.38	36.181
471.73	38.462
472.08	37.416
472.43	36.808
472.78	36.467
473.13	35.719
473.48	35.929
473.83	36.849
474.17	36.115
474.52	38.747
474.87	36.946
475.22	37.050
475.57	36.500
475.92	36.609
476.27	36.400
476.61	36.507
476.96	36.110
477.31	36.222
477.66	36.525
478.01	38.358
478.36	36.721
478.70	37.320
479.05	37.372
479.40	36.788
479.75	36.646
480.10	37.302
480.45	35.348
480.79	36.624
481.14	36.979
481.49	37.464
481.84	36.708
482.19	35.998
482.53	36.790
482.88	35.453
483.23	37.371
483.58	36.864
483.92	36.837
484.27	35.667
484.62	36.199
484.97	36.282
485.31	34.976
485.66	34.342
486.01	34.044
486.36	34.890
486.70	34.942
487.05	34.955
487.40	35.443
487.75	35.458
488.09	35.238
488.44	35.149
488.79	35.550
489.13	35.945
489.48	37.316
489.83	36.332
490.17	36.395
490.52	37.138
490.87	36.166
491.22	36.618
491.56	35.926
491.91	37.500
492.26	36.792
492.60	36.537
492.95	36.887
493.30	36.970
493.64	36.060
493.99	36.807
494.34	35.857
494.68	37.313
495.03	36.377
495.37	36.627
495.72	37.083
496.07	36.509
496.41	37.425
496.76	36.849
497.11	36.976
497.45	37.787
497.80	37.069
498.14	36.640
498.49	36.364
498.84	36.602
499.18	37.476
499.53	36.727
499.87	36.535
500.22	37.353
500.56	37.169
500.91	35.862
501.26	35.371
501.60	37.025
501.95	36.618
502.29	35.050
502.64	36.445
502.98	35.362
503.33	36.701
503.67	34.866
504.02	36.697
504.36	36.275
504.71	36.120
505.06	36.046
505.40	36.627
505.75	36.026
506.09	36.400
506.44	36.642
506.78	35.173
507.13	35.530
507.47	36.672
507.82	36.293
508.16	36.891
508.51	35.446
508.85	35.870
509.19	36.525
509.54	36.099
509.88	36.117
510.23	36.059
510.57	36.561
510.92	38.024
511.26	36.789
511.61	35.799
511.95	35.614
512.30	36.394
512.64	35.949
512.98	36.689
513.33	36.354
513.67	35.399
514.02	36.745
514.36	36.177
514.70	36.729
515.05	37.278
515.39	36.967
515.74	36.533
516.08	37.233
516.42	36.714
516.77	37.262
517.11	36.728
517.46	35.526
517.80	36.943
518.14	36.715
518.49	36.163
518.83	35.964
519.17	36.116
519.52	35.801
519.86	36.619
520.20	36.553
520.55	36.062
520.89	36.694
521.23	36.142
521.58	35.862
521.92	37.492
522.26	35.492
522.61	35.868
522.95	35.737
523.29	37.304
523.64	35.415
523.98	35.837
524.32	36.769
524.66	35.839
525.01	34.875
525.35	36.791
525.69	35.394
526.04	36.031
526.38	36.919
526.72	34.738
527.06	35.417
527.41	35.776
527.75	34.983
528.09	36.069
528.43	35.410
528.78	35.804
529.12	35.019
529.46	36.340
529.80	36.088
530.15	34.127
530.49	33.700
530.83	36.280
531.17	35.421
531.51	33.958
531.86	34.365
532.20	34.480
532.54	34.091
532.88	35.639
533.22	34.492
533.57	34.465
533.91	34.270
534.25	33.752
534.59	33.604
534.93	32.545
535.27	33.228
535.62	34.399
535.96	34.131
536.30	33.573
536.64	34.130
536.98	36.017
537.32	33.794
537.66	34.555
538.01	32.852
538.35	34.257
538.69	35.160
539.03	33.311
539.37	33.733
539.71	33.622
540.05	33.585
540.39	35.042
540.73	34.623
541.07	33.060
541.42	32.883
541.76	32.625
542.10	33.491
542.44	32.645
542.78	33.175
543.12	32.451
543.46	32.740
543.80	32.241
544.14	32.035
544.48	34.121
544.82	33.018
545.16	32.529
545.50	32.100
545.84	32.058
546.18	33.356
546.52	33.642
546.86	32.550
547.20	32.771
547.54	31.061
547.88	31.652
548.22	30.996
548.56	31.931
548.90	31.806
549.24	32.165
549.58	32.604
549.92	33.004
550.26	32.948
550.60	32.006
550.94	33.431
551.28	32.581
551.62	32.570
551.96	33.213
552.30	32.613
552.64	32.020
552.98	31.675
553.32	32.540
553.66	32.300
554.00	32.694
554.34	31.264
554.68	30.848
555.02	31.187
555.36	31.560
555.69	30.659
556.03	30.667
556.37	30.868
556.71	32.212
557.05	32.003
557.39	30.364
557.73	32.896
558.07	32.404
558.41	31.788
558.75	31.711
559.08	30.428
559.42	32.236
559.76	31.058
560.10	32.811
560.44	31.142
560.78	30.550
561.12	30.918
561.45	31.164
561.79	30.523
562.13	31.136
562.47	29.762
562.81	31.259
563.15	30.651
563.48	31.375
563.82	30.899
564.16	29.479
564.50	30.309
564.84	29.431
565.17	30.040
565.51	29.661
565.85	31.102
566.19	30.435
566.52	29.615
566.86	29.330
567.20	28.753
567.54	29.711
567.88	28.252
568.21	28.523
568.55	28.632
568.89	27.386
569.23	27.811
569.56	27.196
569.90	26.947
570.24	26.682
570.57	26.116
570.91	26.080
571.25	26.135
571.59	26.506
571.92	26.161
572.26	25.105
572.60	25.690
572.93	25.766
573.27	25.427
573.61	24.749
573.95	25.732
574.28	24.754
574.62	25.191
574.96	24.551
575.29	24.924
575.63	24.396
575.97	24.164
576.30	24.993
576.64	25.170
576.98	24.509
577.31	24.195
577.65	24.357
577.98	24.206
578.32	23.806
578.66	24.143
578.99	23.931
579.33	24.265
579.67	24.398
580.00	24.132
580.34	23.997
580.67	24.075
581.01	23.720
581.35	24.216
581.68	23.626
582.02	23.646
582.35	23.494
582.69	24.009
583.02	23.497
583.36	23.594
583.70	24.091
584.03	24.327
584.37	24.438
584.70	23.976
585.04	23.646
585.37	23.007
585.71	23.706
586.04	23.936
586.38	23.657
586.72	24.549
587.05	23.988
587.39	23.901
587.72	23.732
588.06	23.714
588.39	23.811
588.73	24.472
589.06	24.488
589.40	24.631
589.73	24.504
590.07	24.472
590.40	24.613
590.73	24.590
591.07	24.836
591.40	25.043
591.74	25.239
592.07	25.450
592.41	25.265
592.74	24.673
593.08	25.026
593.41	23.980
593.75	23.673
594.08	24.335
594.41	24.843
594.75	23.669
595.08	23.835
595.42	24.025
595.75	24.587
596.09	24.719
596.42	24.755
596.75	24.666
597.09	25.022
597.42	24.313
597.75	24.535
598.09	24.492
598.42	24.790
598.76	23.837
599.09	24.033
599.42	24.567
599.76	24.122
600.09	24.389
600.42	24.649
600.76	24.256
601.09	23.661
601.42	23.704
601.76	24.494
602.09	24.294
602.42	24.033
602.76	23.681
603.09	24.315
603.42	24.214
603.76	23.853
604.09	23.108
604.42	23.522
604.76	24.422
605.09	24.503
605.42	24.512
605.75	23.803
606.09	23.163
606.42	23.125
606.75	24.002
607.09	23.776
607.42	24.252
607.75	23.885
608.08	24.808
608.42	24.267
608.75	23.738
609.08	24.501
609.41	24.514
609.75	23.745
610.08	24.314
610.41	24.530
610.74	24.420
611.07	24.138
611.41	23.500
611.74	24.062
612.07	25.134
612.40	23.774
612.73	24.771
613.07	24.656
613.40	24.904
613.73	24.251
614.06	23.998
614.39	25.028
614.72	24.358
615.06	23.641
615.39	23.277
615.72	24.443
616.05	23.468
616.38	24.724
616.71	24.324
617.05	25.030
617.38	24.582
617.71	24.263
618.04	25.093
618.37	24.906
618.70	25.945
619.03	25.254
619.36	25.229
619.69	25.700
620.03	24.518
620.36	25.176
620.69	24.695
621.02	24.962
621.35	25.484
621.68	25.902
622.01	26.618
622.34	25.543
622.67	25.078
623.00	25.325
623.33	26.269
623.66	24.594
623.99	25.038
624.32	24.330
624.65	24.430
624.99	25.168
625.32	24.925
625.65	26.263
625.98	24.413
626.31	26.346
626.64	25.607
626.97	25.685
627.30	26.128
627.63	25.389
627.96	26.545
628.29	25.368
628.62	25.883
628.95	27.461
629.28	27.256
629.61	26.300
629.94	26.938
630.26	27.038
630.59	28.141
630.92	27.027
631.25	28.528
631.58	27.302
631.91	24.574
632.24	28.000
632.57	26.667
632.90	27.931
633.23	28.388
633.56	29.240
