SpectraSuite Data File
++++++++++++++++++++++++++++++++++++
Date: Sat May 16 11:17:12 PDT 2015
User: schluterlab
Dark Spectrum Present: Yes
Reference Spectrum Present: Yes
Number of Sampled Component Spectra: 1
Spectrometers: USB2E3373
Integration Time (usec): 3000 (USB2E3373)
Spectra Averaged: 3 (USB2E3373)
Boxcar Smoothing: 0 (USB2E3373)
Correct for Electrical Dark: No (USB2E3373)
Strobe/Lamp Enabled: No (USB2E3373)
Correct for Detector Non-linearity: No (USB2E3373)
Correct for Stray Light: No (USB2E3373)
Number of Pixels in Processed Spectrum: 2048
>>>>>Begin Processed Spectral Data<<<<<
178.53	0.000
178.91	120.000
179.29	333.333
179.67	-100.000
180.04	0.000
180.42	300.000
180.80	200.000
181.18	250.000
181.56	-12.500
181.94	1300.000
182.31	250.000
182.69	15.385
183.07	-366.667
183.45	800.000
183.83	400.000
184.20	-157.143
184.58	-100.000
184.96	-75.000
185.34	143.750
185.72	-350.000
186.09	266.667
186.47	-200.000
186.85	-125.000
187.23	100.000
187.61	-25.000
187.98	-150.000
188.36	-25.000
188.74	-212.500
189.12	1500.000
189.49	242.857
189.87	-41.667
190.25	475.000
190.63	-64.286
191.00	-44.444
191.38	280.000
191.76	33.333
192.14	420.000
192.51	-200.000
192.89	-300.000
193.27	0.000
193.65	-122.222
194.02	-57.143
194.40	133.333
194.78	0.000
195.15	300.000
195.53	-27.273
195.91	-383.333
196.29	160.000
196.66	-33.333
197.04	800.000
197.42	25.000
197.79	-6.667
198.17	-400.000
198.55	-350.000
198.92	-1500.000
199.30	125.000
199.68	0.000
200.05	-33.333
200.43	-111.111
200.81	-1200.000
201.18	-116.667
201.56	100.000
201.94	-13.333
202.31	-9.091
202.69	20.000
203.07	30.000
203.44	500.000
203.82	-66.667
204.19	-225.000
204.57	-275.000
204.95	-100.000
205.32	-31.250
205.70	1000.000
206.08	-1100.000
206.45	27.778
206.83	-400.000
207.20	250.000
207.58	-433.333
207.96	-500.000
208.33	-87.500
208.71	44.444
209.08	220.000
209.46	-114.286
209.84	-100.000
210.21	0.000
210.59	50.000
210.96	1000.000
211.34	-216.667
211.71	-200.000
212.09	150.000
212.46	850.000
212.84	-1900.000
213.22	366.667
213.59	183.333
213.97	-33.333
214.34	130.000
214.72	-30.000
215.09	-133.333
215.47	-16.667
215.84	-80.000
216.22	-50.000
216.59	-6.667
216.97	-450.000
217.34	550.000
217.72	-171.429
218.09	-200.000
218.47	-242.857
218.84	228.571
219.22	-142.857
219.59	0.000
219.97	228.571
220.34	525.000
220.72	175.000
221.09	-23.077
221.47	0.000
221.84	-133.333
222.22	-650.000
222.59	300.000
222.97	-112.500
223.34	-750.000
223.72	-666.667
224.09	-85.714
224.46	-175.000
224.84	7.143
225.21	-57.143
225.59	-90.909
225.96	-87.500
226.34	71.429
226.71	-77.778
227.08	5.000
227.46	1000.000
227.83	-114.286
228.21	-187.500
228.58	-50.000
228.95	-12.500
229.33	-700.000
229.70	-200.000
230.08	-350.000
230.45	-66.667
230.82	-83.333
231.20	300.000
231.57	100.000
231.95	500.000
232.32	19.048
232.69	-44.444
233.07	-171.429
233.44	-100.000
233.81	-106.667
234.19	66.667
234.56	-37.500
234.93	9.375
235.31	0.000
235.68	-85.714
236.05	41.176
236.43	-18.182
236.80	29.032
237.17	16.667
237.55	-23.810
237.92	-18.182
238.29	-2.857
238.67	26.471
239.04	11.111
239.41	-6.452
239.79	-2.564
240.16	11.905
240.53	23.636
240.91	51.282
241.28	34.545
241.65	27.692
242.02	21.311
242.40	27.869
242.77	48.485
243.14	23.729
243.51	22.857
243.89	25.316
244.26	26.966
244.63	31.579
245.00	45.263
245.38	32.203
245.75	30.973
246.12	24.800
246.49	38.583
246.87	30.081
247.24	33.898
247.61	38.983
247.98	35.915
248.36	25.874
248.73	32.911
249.10	35.032
249.47	34.503
249.84	39.773
250.22	31.548
250.59	34.463
250.96	39.267
251.33	38.863
251.70	36.538
252.08	40.284
252.45	33.175
252.82	34.286
253.19	36.596
253.56	35.484
253.94	36.287
254.31	33.906
254.68	41.463
255.05	37.903
255.42	38.889
255.79	32.616
256.16	37.255
256.54	37.868
256.91	40.909
257.28	36.630
257.65	39.007
258.02	35.849
258.39	39.130
258.76	36.149
259.14	38.580
259.51	38.361
259.88	39.024
260.25	40.683
260.62	36.977
260.99	34.421
261.36	37.195
261.73	39.017
262.10	35.556
262.47	41.311
262.85	38.857
263.22	39.542
263.59	32.000
263.96	35.072
264.33	35.772
264.70	40.055
265.07	37.912
265.44	40.052
265.81	40.310
266.18	37.215
266.55	37.255
266.92	39.043
267.29	37.046
267.66	38.519
268.03	41.304
268.40	38.498
268.77	38.554
269.14	40.371
269.51	37.701
269.88	35.780
270.25	37.296
270.62	37.529
270.99	37.387
271.36	38.462
271.73	38.341
272.10	37.757
272.47	36.444
272.84	39.333
273.21	39.908
273.58	35.165
273.95	35.307
274.32	37.557
274.69	40.919
275.06	38.446
275.43	38.616
275.80	37.678
276.17	35.146
276.54	39.308
276.91	38.889
277.28	36.714
277.65	36.983
278.02	34.447
278.39	38.507
278.76	37.251
279.13	38.142
279.50	37.376
279.87	38.689
280.23	39.271
280.60	37.972
280.97	35.340
281.34	38.685
281.71	38.846
282.08	38.710
282.45	35.642
282.82	37.791
283.19	37.273
283.56	37.546
283.92	37.456
284.29	34.387
284.66	34.173
285.03	36.185
285.40	39.668
285.77	38.246
286.14	35.740
286.51	36.412
286.87	38.838
287.24	37.031
287.61	35.537
287.98	35.529
288.35	34.380
288.72	35.314
289.08	34.068
289.45	36.027
289.82	31.661
290.19	34.319
290.56	31.736
290.93	30.843
291.29	34.198
291.66	33.655
292.03	34.694
292.40	31.175
292.77	31.988
293.13	33.984
293.50	31.352
293.87	32.515
294.24	32.881
294.60	30.909
294.97	31.563
295.34	32.000
295.71	29.315
296.08	28.571
296.44	30.758
296.81	30.057
297.18	29.577
297.55	31.921
297.91	31.799
298.28	30.000
298.65	29.428
299.02	29.679
299.38	29.412
299.75	28.397
300.12	28.077
300.48	29.540
300.85	28.047
301.22	30.789
301.59	28.218
301.95	30.101
302.32	26.858
302.69	28.152
303.05	27.839
303.42	26.000
303.79	28.110
304.15	29.147
304.52	26.838
304.89	26.682
305.25	28.938
305.62	25.969
305.99	28.857
306.35	25.527
306.72	26.993
307.09	28.263
307.45	25.653
307.82	25.810
308.19	25.839
308.55	26.362
308.92	24.705
309.29	26.378
309.65	25.663
310.02	26.566
310.38	25.838
310.75	25.512
311.12	26.343
311.48	25.052
311.85	26.262
312.22	25.026
312.58	25.127
312.95	25.892
313.31	25.275
313.68	26.030
314.05	24.827
314.41	24.748
314.78	24.775
315.14	24.778
315.51	25.431
315.87	24.685
316.24	24.101
316.61	25.048
316.97	25.473
317.34	24.855
317.70	22.635
318.07	24.347
318.43	23.502
318.80	25.540
319.16	23.452
319.53	24.906
319.89	23.895
320.26	23.725
320.62	23.365
320.99	24.378
321.35	23.251
321.72	23.644
322.08	25.223
322.45	22.970
322.81	23.247
323.18	24.111
323.54	23.567
323.91	24.189
324.27	22.814
324.64	23.675
325.00	23.735
325.37	25.249
325.73	24.409
326.10	22.232
326.46	23.030
326.83	23.745
327.19	23.353
327.56	24.702
327.92	24.809
328.29	22.511
328.65	22.909
329.01	25.353
329.38	23.550
329.74	24.908
330.11	23.300
330.47	23.524
330.84	25.206
331.20	23.195
331.56	23.883
331.93	21.847
332.29	24.840
332.66	23.442
333.02	21.810
333.38	23.746
333.75	24.132
334.11	23.467
334.48	21.977
334.84	23.360
335.20	22.784
335.57	23.105
335.93	23.098
336.29	22.143
336.66	22.026
337.02	23.423
337.38	22.906
337.75	22.388
338.11	22.809
338.47	22.776
338.84	22.595
339.20	22.232
339.56	22.371
339.93	21.693
340.29	22.232
340.65	21.416
341.02	22.681
341.38	21.904
341.74	21.931
342.11	22.099
342.47	22.060
342.83	20.823
343.20	21.776
343.56	21.551
343.92	22.705
344.28	23.045
344.65	21.535
345.01	20.420
345.37	22.010
345.73	22.177
346.10	20.442
346.46	21.365
346.82	20.690
347.19	21.364
347.55	21.669
347.91	22.126
348.27	20.605
348.63	21.809
349.00	21.877
349.36	21.233
349.72	22.213
350.08	20.289
350.45	21.198
350.81	21.258
351.17	21.061
351.53	20.127
351.89	21.423
352.26	21.860
352.62	22.273
352.98	21.282
353.34	21.663
353.70	21.158
354.07	22.266
354.43	20.632
354.79	22.345
355.15	20.927
355.51	20.391
355.87	20.632
356.24	21.287
356.60	21.595
356.96	21.247
357.32	20.348
357.68	20.613
358.04	21.478
358.40	20.882
358.77	20.479
359.13	20.658
359.49	21.088
359.85	20.351
360.21	21.689
360.57	21.611
360.93	22.148
361.29	21.300
361.66	19.741
362.02	20.044
362.38	21.864
362.74	21.758
363.10	20.803
363.46	21.652
363.82	21.064
364.18	20.478
364.54	21.730
364.90	20.196
365.26	20.970
365.62	21.098
365.98	21.550
366.35	21.408
366.71	19.803
367.07	20.113
367.43	21.482
367.79	20.756
368.15	20.413
368.51	21.399
368.87	21.909
369.23	20.211
369.59	20.069
369.95	20.930
370.31	21.378
370.67	20.101
371.03	21.574
371.39	20.368
371.75	20.243
372.11	21.377
372.47	20.246
372.83	20.932
373.19	20.500
373.55	20.760
373.91	21.053
374.27	20.534
374.63	19.807
374.99	21.488
375.35	20.054
375.71	22.417
376.07	20.671
376.42	20.132
376.78	20.392
377.14	21.356
377.50	21.083
377.86	21.521
378.22	20.038
378.58	19.889
378.94	20.654
379.30	20.963
379.66	21.311
380.02	20.559
380.38	20.242
380.74	21.395
381.09	20.797
381.45	20.823
381.81	19.843
382.17	21.303
382.53	19.939
382.89	20.813
383.25	21.072
383.61	20.932
383.97	21.066
384.32	20.213
384.68	20.435
385.04	20.531
385.40	20.511
385.76	21.220
386.12	22.611
386.48	21.163
386.83	21.534
387.19	21.757
387.55	20.533
387.91	20.095
388.27	19.903
388.62	20.733
388.98	20.230
389.34	20.991
389.70	20.646
390.06	21.255
390.42	20.449
390.77	20.757
391.13	21.801
391.49	20.399
391.85	21.446
392.20	20.813
392.56	21.869
392.92	20.479
393.28	21.297
393.64	21.467
393.99	20.985
394.35	21.290
394.71	20.568
395.07	21.030
395.42	19.964
395.78	19.610
396.14	21.059
396.50	20.917
396.85	21.592
397.21	20.535
397.57	21.398
397.92	21.546
398.28	21.500
398.64	21.297
399.00	20.955
399.35	20.800
399.71	21.080
400.07	20.657
400.42	20.742
400.78	20.095
401.14	20.599
401.49	20.696
401.85	20.744
402.21	20.739
402.57	20.813
402.92	20.957
403.28	21.385
403.63	19.952
403.99	21.442
404.35	20.350
404.70	21.240
405.06	20.934
405.42	20.480
405.77	20.532
406.13	21.238
406.49	21.809
406.84	20.756
407.20	21.614
407.55	20.773
407.91	19.819
408.27	21.324
408.62	20.986
408.98	21.164
409.34	20.293
409.69	20.353
410.05	20.255
410.40	21.459
410.76	20.747
411.11	21.820
411.47	20.396
411.83	20.844
412.18	20.359
412.54	20.073
412.89	19.988
413.25	20.071
413.60	20.838
413.96	19.409
414.31	21.040
414.67	20.317
415.03	20.957
415.38	21.015
415.74	20.747
416.09	20.716
416.45	19.643
416.80	21.131
417.16	20.399
417.51	21.274
417.87	20.065
418.22	20.733
418.58	21.181
418.93	20.846
419.29	21.455
419.64	20.729
420.00	20.778
420.35	19.988
420.71	21.309
421.06	20.769
421.42	20.141
421.77	20.659
422.12	21.265
422.48	20.844
422.83	21.071
423.19	20.657
423.54	20.692
423.90	20.301
424.25	20.928
424.61	21.532
424.96	21.884
425.31	20.011
425.67	20.745
426.02	20.195
426.38	20.629
426.73	19.813
427.09	20.037
427.44	20.852
427.79	19.767
428.15	21.544
428.50	20.352
428.85	20.803
429.21	20.199
429.56	20.104
429.92	20.341
430.27	20.588
430.62	21.212
430.98	20.596
431.33	20.011
431.68	20.268
432.04	20.201
432.39	20.627
432.74	20.803
433.10	20.315
433.45	19.862
433.80	20.661
434.16	21.386
434.51	20.822
434.86	21.265
435.22	20.100
435.57	20.624
435.92	21.219
436.28	20.000
436.63	20.350
436.98	20.160
437.34	20.378
437.69	20.595
438.04	20.420
438.39	20.698
438.75	20.780
439.10	21.044
439.45	20.398
439.81	19.940
440.16	21.181
440.51	20.647
440.86	20.243
441.22	19.790
441.57	20.053
441.92	20.563
442.27	20.563
442.63	20.064
442.98	21.163
443.33	19.769
443.68	20.479
444.03	21.218
444.39	20.117
444.74	20.374
445.09	20.943
445.44	20.597
445.79	19.939
446.15	21.742
446.50	19.543
446.85	20.010
447.20	19.612
447.55	20.497
447.91	21.056
448.26	20.447
448.61	20.543
448.96	20.672
449.31	20.406
449.66	20.149
450.02	19.612
450.37	19.826
450.72	19.605
451.07	19.925
451.42	19.393
451.77	20.646
452.12	20.441
452.47	20.466
452.83	20.093
453.18	20.114
453.53	20.211
453.88	21.292
454.23	20.375
454.58	20.696
454.93	19.521
455.28	20.586
455.63	20.516
455.98	20.241
456.34	19.822
456.69	20.763
457.04	20.652
457.39	19.617
457.74	20.260
458.09	19.548
458.44	20.381
458.79	20.516
459.14	20.365
459.49	20.722
459.84	21.192
460.19	20.704
460.54	20.206
460.89	19.787
461.24	20.401
461.59	20.457
461.94	19.987
462.29	21.144
462.64	20.751
462.99	21.285
463.34	19.446
463.69	20.547
464.04	20.152
464.39	20.191
464.74	20.863
465.09	19.483
465.44	20.192
465.79	20.587
466.14	21.116
466.49	20.956
466.84	20.108
467.19	20.449
467.54	19.810
467.89	21.393
468.24	20.428
468.59	20.300
468.94	19.614
469.29	20.533
469.64	20.148
469.99	21.472
470.34	20.508
470.68	20.785
471.03	20.785
471.38	19.444
471.73	21.189
472.08	20.080
472.43	20.656
472.78	20.467
473.13	19.682
473.48	20.613
473.83	20.471
474.17	20.510
474.52	21.611
474.87	20.571
475.22	20.236
475.57	19.889
475.92	20.464
476.27	20.229
476.61	20.732
476.96	21.017
477.31	20.560
477.66	20.476
478.01	21.178
478.36	20.377
478.70	21.410
479.05	20.822
479.40	20.881
479.75	20.591
480.10	20.288
480.45	20.309
480.79	20.731
481.14	21.274
481.49	20.716
481.84	20.620
482.19	20.968
482.53	21.259
482.88	20.076
483.23	20.235
483.58	20.953
483.92	20.831
484.27	20.027
484.62	20.302
484.97	19.992
485.31	20.096
485.66	20.472
486.01	20.570
486.36	20.812
486.70	21.035
487.05	20.725
487.40	20.887
487.75	19.961
488.09	19.796
488.44	20.129
488.79	20.410
489.13	19.817
489.48	21.003
489.83	20.655
490.17	20.592
490.52	20.969
490.87	20.416
491.22	19.851
491.56	20.231
491.91	20.754
492.26	20.425
492.60	20.219
492.95	20.752
493.30	20.867
493.64	20.357
493.99	20.507
494.34	21.143
494.68	21.161
495.03	20.793
495.37	20.649
495.72	20.923
496.07	21.727
496.41	20.936
496.76	21.005
497.11	21.244
497.45	20.546
497.80	20.860
498.14	20.776
498.49	20.291
498.84	21.068
499.18	21.248
499.53	20.555
499.87	20.367
500.22	20.490
500.56	21.061
500.91	21.084
501.26	20.961
501.60	20.125
501.95	21.159
502.29	21.068
502.64	21.264
502.98	21.275
503.33	21.523
503.67	21.073
504.02	21.004
504.36	21.520
504.71	20.973
505.06	20.719
505.40	21.357
505.75	20.986
506.09	21.335
506.44	20.952
506.78	20.873
507.13	21.164
507.47	21.701
507.82	21.012
508.16	21.503
508.51	21.020
508.85	21.687
509.19	21.402
509.54	21.670
509.88	21.702
510.23	21.751
510.57	21.640
510.92	22.019
511.26	21.531
511.61	21.652
511.95	21.767
512.30	20.946
512.64	20.924
512.98	21.947
513.33	21.966
513.67	21.887
514.02	20.358
514.36	21.884
514.70	22.694
515.05	21.670
515.39	21.799
515.74	22.455
516.08	21.556
516.42	21.416
516.77	22.126
517.11	22.426
517.46	23.445
517.80	21.781
518.14	21.739
518.49	21.817
518.83	20.950
519.17	22.676
519.52	21.631
519.86	21.924
520.20	22.433
520.55	21.600
520.89	21.478
521.23	22.772
521.58	22.445
521.92	22.799
522.26	22.286
522.61	21.990
522.95	21.506
523.29	22.445
523.64	22.299
523.98	22.661
524.32	22.502
524.66	22.609
525.01	22.543
525.35	22.745
525.69	22.186
526.04	22.520
526.38	23.234
526.72	22.605
527.06	22.786
527.41	22.640
527.75	21.848
528.09	21.840
528.43	22.230
528.78	23.053
529.12	22.983
529.46	22.616
529.80	22.660
530.15	23.889
530.49	22.898
530.83	23.903
531.17	22.896
531.51	22.438
531.86	23.173
532.20	23.819
532.54	23.195
532.88	22.003
533.22	21.992
533.57	22.781
533.91	22.659
534.25	22.816
534.59	22.611
534.93	22.775
535.27	22.278
535.62	23.465
535.96	22.689
536.30	22.906
536.64	21.979
536.98	22.246
537.32	22.737
537.66	23.150
538.01	23.093
538.35	22.365
538.69	23.396
539.03	23.020
539.37	22.289
539.71	22.815
540.05	22.070
540.39	22.784
540.73	22.737
541.07	23.429
541.42	22.552
541.76	21.794
542.10	23.025
542.44	23.851
542.78	22.931
543.12	22.946
543.46	22.466
543.80	22.809
544.14	21.827
544.48	23.097
544.82	22.395
545.16	23.474
545.50	21.938
545.84	22.949
546.18	22.885
546.52	22.333
546.86	23.433
547.20	22.644
547.54	21.419
547.88	23.026
548.22	21.756
548.56	22.846
548.90	22.507
549.24	22.495
549.58	23.006
549.92	22.615
550.26	23.627
550.60	22.688
550.94	23.212
551.28	23.552
551.62	23.486
551.96	23.010
552.30	22.718
552.64	23.012
552.98	22.495
553.32	21.284
553.66	22.927
554.00	22.459
554.34	22.455
554.68	22.807
555.02	22.648
555.36	22.789
555.69	22.278
556.03	23.649
556.37	22.617
556.71	22.405
557.05	22.764
557.39	22.272
557.73	22.684
558.07	22.909
558.41	23.336
558.75	22.433
559.08	21.245
559.42	22.282
559.76	23.160
560.10	22.595
560.44	22.905
560.78	23.730
561.12	22.291
561.45	22.466
561.79	22.091
562.13	22.931
562.47	22.899
562.81	22.419
563.15	21.693
563.48	23.428
563.82	23.056
564.16	22.786
564.50	22.379
564.84	23.479
565.17	23.143
565.51	22.490
565.85	23.394
566.19	23.254
566.52	23.157
566.86	22.440
567.20	24.153
567.54	22.918
567.88	22.836
568.21	22.931
568.55	22.853
568.89	23.310
569.23	22.582
569.56	21.942
569.90	23.249
570.24	22.924
570.57	21.898
570.91	22.713
571.25	22.957
571.59	22.541
571.92	22.321
572.26	22.439
572.60	22.401
572.93	22.422
573.27	22.378
573.61	21.566
573.95	22.618
574.28	22.734
574.62	22.928
574.96	22.458
575.29	22.307
575.63	22.405
575.97	21.872
576.30	22.527
576.64	22.402
576.98	22.170
577.31	22.098
577.65	22.210
577.98	22.296
578.32	21.869
578.66	22.131
578.99	22.737
579.33	22.080
579.67	22.141
580.00	21.677
580.34	21.893
580.67	22.187
581.01	21.846
581.35	21.965
581.68	21.889
582.02	22.177
582.35	21.926
582.69	22.399
583.02	22.701
583.36	22.378
583.70	22.222
584.03	22.360
584.37	22.246
584.70	22.998
585.04	22.304
585.37	21.838
585.71	22.279
586.04	22.138
586.38	22.053
586.72	21.956
587.05	22.345
587.39	22.180
587.72	22.432
588.06	22.063
588.39	22.216
588.73	22.752
589.06	22.538
589.40	22.741
589.73	22.380
590.07	22.469
590.40	22.214
590.73	22.871
591.07	23.197
591.40	22.964
591.74	22.328
592.07	22.703
592.41	22.972
592.74	22.137
593.08	23.035
593.41	23.092
593.75	21.761
594.08	23.077
594.41	22.699
594.75	23.065
595.08	22.481
595.42	22.290
595.75	22.198
596.09	22.119
596.42	21.809
596.75	21.518
597.09	23.108
597.42	21.912
597.75	22.409
598.09	22.458
598.42	22.448
598.76	22.093
599.09	22.218
599.42	22.645
599.76	22.046
600.09	22.405
600.42	22.560
600.76	22.373
601.09	22.294
601.42	22.873
601.76	23.170
602.09	22.372
602.42	23.169
602.76	22.102
603.09	22.137
603.42	22.522
603.76	22.537
604.09	21.986
604.42	21.982
604.76	22.678
605.09	22.514
605.42	22.518
605.75	22.337
606.09	22.499
606.42	22.497
606.75	22.155
607.09	22.541
607.42	22.447
607.75	22.517
608.08	22.458
608.42	22.469
608.75	21.402
609.08	22.163
609.41	22.272
609.75	21.989
610.08	22.696
610.41	22.361
610.74	23.066
611.07	22.211
611.41	21.583
611.74	23.033
612.07	22.288
612.40	21.482
612.73	22.240
613.07	22.124
613.40	22.934
613.73	22.398
614.06	21.527
614.39	23.168
614.72	22.011
615.06	22.337
615.39	21.758
615.72	22.922
616.05	22.419
616.38	22.751
616.71	22.643
617.05	22.014
617.38	22.167
617.71	21.990
618.04	21.491
618.37	22.264
618.70	22.947
619.03	22.613
619.36	23.326
619.69	22.757
620.03	22.521
620.36	22.574
620.69	22.828
621.02	23.516
621.35	22.581
621.68	22.377
622.01	22.735
622.34	22.826
622.67	23.203
623.00	22.800
623.33	23.134
623.66	22.157
623.99	22.105
624.32	22.098
624.65	21.486
624.99	23.077
625.32	22.380
625.65	22.455
625.98	23.552
626.31	22.512
626.64	22.594
626.97	22.945
627.30	22.723
627.63	22.453
627.96	22.193
628.29	22.151
628.62	22.254
628.95	23.228
629.28	21.429
629.61	21.394
629.94	23.629
630.26	22.763
630.59	23.518
630.92	21.722
631.25	22.782
631.58	22.540
631.91	22.128
632.24	22.111
632.57	23.444
