SpectraSuite Data File
++++++++++++++++++++++++++++++++++++
Date: Sat May 16 11:07:18 PDT 2015
User: schluterlab
Dark Spectrum Present: Yes
Reference Spectrum Present: Yes
Number of Sampled Component Spectra: 1
Spectrometers: USB2E3373
Integration Time (usec): 3000 (USB2E3373)
Spectra Averaged: 3 (USB2E3373)
Boxcar Smoothing: 0 (USB2E3373)
Correct for Electrical Dark: No (USB2E3373)
Strobe/Lamp Enabled: No (USB2E3373)
Correct for Detector Non-linearity: No (USB2E3373)
Correct for Stray Light: No (USB2E3373)
Number of Pixels in Processed Spectrum: 2048
>>>>>Begin Processed Spectral Data<<<<<
178.53	0.000
178.91	40.000
179.29	-200.000
179.67	100.000
180.04	61.538
180.42	-200.000
180.80	-75.000
181.18	25.000
181.56	112.500
181.94	-700.000
182.31	-0.000
182.69	23.077
183.07	-66.667
183.45	400.000
183.83	200.000
184.20	-114.286
184.58	-87.500
184.96	-75.000
185.34	68.750
185.72	-125.000
186.09	16.667
186.47	-12.500
186.85	-12.500
187.23	112.500
187.61	325.000
187.98	-50.000
188.36	0.000
188.74	-50.000
189.12	400.000
189.49	271.429
189.87	-25.000
190.25	175.000
190.63	35.714
191.00	-166.667
191.38	-80.000
191.76	53.333
192.14	340.000
192.51	0.000
192.89	66.667
193.27	0.000
193.65	-22.222
194.02	28.571
194.40	166.667
194.78	140.000
195.15	800.000
195.53	-27.273
195.91	-100.000
196.29	-40.000
196.66	-66.667
197.04	-300.000
197.42	25.000
197.79	80.000
198.17	133.333
198.55	100.000
198.92	900.000
199.30	50.000
199.68	300.000
200.05	-122.222
200.43	33.333
200.81	200.000
201.18	-41.667
201.56	-71.429
201.94	33.333
202.31	100.000
202.69	120.000
203.07	120.000
203.44	66.667
203.82	33.333
204.19	75.000
204.57	225.000
204.95	500.000
205.32	125.000
205.70	-300.000
206.08	500.000
206.45	-11.111
206.83	-250.000
207.20	650.000
207.58	-200.000
207.96	-33.333
208.33	75.000
208.71	11.111
209.08	90.000
209.46	-100.000
209.84	450.000
210.21	0.000
210.59	95.000
210.96	-500.000
211.34	-50.000
211.71	266.667
212.09	-25.000
212.46	550.000
212.84	-700.000
213.22	133.333
213.59	33.333
213.97	266.667
214.34	50.000
214.72	40.000
215.09	-133.333
215.47	66.667
215.84	80.000
216.22	130.000
216.59	140.000
216.97	-75.000
217.34	100.000
217.72	200.000
218.09	-116.667
218.47	14.286
218.84	-85.714
219.22	157.143
219.59	0.000
219.97	-157.143
220.34	150.000
220.72	-137.500
221.09	138.462
221.47	0.000
221.84	-266.667
222.22	200.000
222.59	100.000
222.97	-62.500
223.34	-200.000
223.72	-366.667
224.09	42.857
224.46	-75.000
224.84	0.000
225.21	-14.286
225.59	0.000
225.96	-25.000
226.34	157.143
226.71	88.889
227.08	70.000
227.46	800.000
227.83	128.571
228.21	-25.000
228.58	-500.000
228.95	43.750
229.33	100.000
229.70	0.000
230.08	-100.000
230.45	150.000
230.82	-83.333
231.20	200.000
231.57	50.000
231.95	-800.000
232.32	38.095
232.69	122.222
233.07	-128.571
233.44	0.000
233.81	0.000
234.19	22.222
234.56	62.500
234.93	59.375
235.31	-85.714
235.68	-7.143
236.05	35.294
236.43	40.909
236.80	16.129
237.17	58.333
237.55	52.381
237.92	-4.545
238.29	51.429
238.67	29.412
239.04	55.556
239.41	9.677
239.79	-2.564
240.16	28.571
240.53	27.273
240.91	48.718
241.28	23.636
241.65	52.308
242.02	26.230
242.40	21.311
242.77	30.303
243.14	13.559
243.51	15.714
243.89	26.582
244.26	31.461
244.63	36.842
245.00	36.842
245.38	28.814
245.75	30.973
246.12	25.600
246.49	30.709
246.87	34.146
247.24	21.186
247.61	20.339
247.98	21.127
248.36	21.678
248.73	25.316
249.10	30.573
249.47	32.164
249.84	28.977
250.22	16.667
250.59	19.774
250.96	26.178
251.33	26.066
251.70	27.885
252.08	25.592
252.45	14.692
252.82	17.143
253.19	22.979
253.56	20.565
253.94	19.831
254.31	26.180
254.68	29.675
255.05	22.581
255.42	25.794
255.79	21.147
256.16	24.314
256.54	30.147
256.91	22.727
257.28	20.879
257.65	21.631
258.02	27.987
258.39	22.742
258.76	21.959
259.14	20.679
259.51	26.557
259.88	23.476
260.25	21.739
260.62	26.045
260.99	19.288
261.36	23.171
261.73	26.301
262.10	24.722
262.47	22.507
262.85	25.143
263.22	24.069
263.59	22.769
263.96	24.058
264.33	24.390
264.70	26.796
265.07	22.527
265.44	24.031
265.81	22.997
266.18	23.544
266.55	24.020
266.92	28.212
267.29	21.792
267.66	22.963
268.03	23.430
268.40	23.709
268.77	25.060
269.14	22.274
269.51	25.517
269.88	22.936
270.25	21.445
270.62	25.172
270.99	22.523
271.36	22.378
271.73	22.422
272.10	24.943
272.47	20.889
272.84	26.667
273.21	23.853
273.58	24.615
273.95	23.904
274.32	26.018
274.69	25.164
275.06	22.086
275.43	22.321
275.80	26.069
276.17	23.431
276.54	26.273
276.91	24.486
277.28	25.355
277.65	23.347
278.02	22.547
278.39	24.754
278.76	22.908
279.13	25.494
279.50	25.050
279.87	22.199
280.23	25.101
280.60	27.038
280.97	24.272
281.34	22.824
281.71	24.038
282.08	26.210
282.45	24.236
282.82	24.031
283.19	23.455
283.56	25.458
283.92	24.205
284.29	23.978
284.66	25.000
285.03	23.173
285.40	23.616
285.77	24.561
286.14	23.827
286.51	22.558
286.87	24.501
287.24	21.672
287.61	22.314
287.98	22.010
288.35	21.653
288.72	20.543
289.08	20.678
289.45	22.054
289.82	20.242
290.19	23.153
290.56	21.818
290.93	20.668
291.29	20.746
291.66	23.188
292.03	22.449
292.40	20.482
292.77	20.497
293.13	22.764
293.50	20.059
293.87	21.319
294.24	19.759
294.60	19.242
294.97	20.182
295.34	19.407
295.71	19.345
296.08	20.276
296.44	18.026
296.81	20.370
297.18	19.577
297.55	19.209
297.91	18.689
298.28	20.411
298.65	18.689
299.02	19.519
299.38	18.984
299.75	18.886
300.12	19.744
300.48	18.926
300.85	18.611
301.22	18.758
301.59	17.295
301.95	20.403
302.32	17.210
302.69	18.972
303.05	18.315
303.42	18.125
303.79	20.215
304.15	17.299
304.52	19.603
304.89	18.536
305.25	17.582
305.62	17.744
305.99	20.141
306.35	18.868
306.72	19.362
307.09	20.091
307.45	17.253
307.82	17.989
308.19	18.233
308.55	17.429
308.92	17.401
309.29	18.378
309.65	18.028
310.02	18.575
310.38	17.838
310.75	18.033
311.12	19.215
311.48	18.998
311.85	18.744
312.22	18.435
312.58	18.108
312.95	18.654
313.31	19.181
313.68	19.296
314.05	19.387
314.41	17.907
314.78	18.082
315.14	18.756
315.51	19.250
315.87	20.426
316.24	19.339
316.61	20.537
316.97	20.995
317.34	20.424
317.70	18.738
318.07	20.336
318.43	18.258
318.80	20.188
319.16	18.856
319.53	19.267
319.89	19.849
320.26	20.588
320.62	19.327
320.99	20.199
321.35	18.621
321.72	20.676
322.08	20.772
322.45	19.505
322.81	20.653
323.18	21.710
323.54	20.887
323.91	20.019
324.27	21.008
324.64	20.932
325.00	20.681
325.37	23.077
325.73	23.535
326.10	20.638
326.46	21.804
326.83	21.702
327.19	22.602
327.56	23.765
327.92	23.025
328.29	23.636
328.65	21.455
329.01	22.792
329.38	23.283
329.74	23.810
330.11	23.391
330.47	23.524
330.84	23.648
331.20	23.466
331.56	24.157
331.93	23.268
332.29	24.201
332.66	24.495
333.02	24.434
333.38	25.627
333.75	26.180
334.11	23.644
334.48	24.978
334.84	24.847
335.20	25.000
335.57	23.917
335.93	25.962
336.29	25.244
336.66	25.110
337.02	23.964
337.38	25.579
337.75	25.373
338.11	24.776
338.47	25.801
338.84	24.682
339.20	24.341
339.56	26.560
339.93	25.485
340.29	25.598
340.65	25.962
341.02	25.211
341.38	27.043
341.74	26.164
342.11	25.597
342.47	26.180
342.83	26.364
343.20	26.473
343.56	24.816
343.92	25.543
344.28	26.409
344.65	24.422
345.01	25.882
345.37	25.914
345.73	24.959
346.10	25.184
346.46	24.127
346.82	25.100
347.19	25.883
347.55	25.843
347.91	25.984
348.27	25.060
348.63	27.383
349.00	26.173
349.36	24.902
349.72	28.742
350.08	25.822
350.45	24.823
350.81	25.557
351.17	25.322
351.53	25.219
351.89	25.222
352.26	25.969
352.62	27.112
352.98	25.633
353.34	26.059
353.70	25.174
354.07	25.413
354.43	27.194
354.79	25.119
355.15	25.319
355.51	26.016
355.87	26.324
356.24	26.529
356.60	27.317
356.96	26.328
357.32	27.316
357.68	26.897
358.04	25.943
358.40	25.445
358.77	26.893
359.13	27.391
359.49	27.211
359.85	27.363
360.21	27.626
360.57	26.958
360.93	26.593
361.29	27.578
361.66	26.524
362.02	26.553
362.38	27.660
362.74	26.740
363.10	27.403
363.46	28.846
363.82	27.915
364.18	27.279
364.54	27.591
364.90	27.393
365.26	27.104
365.62	28.938
365.98	28.236
366.35	27.394
366.71	27.202
367.07	29.570
367.43	28.415
367.79	28.660
368.15	27.525
368.51	29.580
368.87	28.434
369.23	28.702
369.59	28.542
369.95	28.259
370.31	29.395
370.67	29.212
371.03	29.519
371.39	28.147
371.75	28.398
372.11	28.694
372.47	29.429
372.83	29.833
373.19	29.286
373.55	30.190
373.91	29.303
374.27	29.021
374.63	29.814
374.99	29.833
375.35	28.668
375.71	30.452
376.07	29.295
376.42	29.272
376.78	30.261
377.14	30.034
377.50	30.883
377.86	30.949
378.22	30.402
378.58	30.327
378.94	30.518
379.30	31.505
379.66	30.298
380.02	31.016
380.38	30.816
380.74	30.481
381.09	30.404
381.45	31.504
381.81	29.885
382.17	31.830
382.53	30.821
382.89	30.981
383.25	31.668
383.61	31.014
383.97	31.292
384.32	32.040
384.68	31.620
385.04	31.099
385.40	31.345
385.76	32.683
386.12	31.793
386.48	33.230
386.83	31.718
387.19	32.995
387.55	32.647
387.91	32.602
388.27	31.846
388.62	31.911
388.98	33.495
389.34	32.558
389.70	33.618
390.06	32.070
390.42	33.333
390.77	32.744
391.13	33.851
391.49	33.500
391.85	32.855
392.20	33.556
392.56	32.498
392.92	33.771
393.28	33.984
393.64	34.155
393.99	33.908
394.35	33.577
394.71	33.539
395.07	34.087
395.42	31.943
395.78	33.250
396.14	34.206
396.50	33.945
396.85	33.683
397.21	33.961
397.57	34.225
397.92	34.016
398.28	34.389
398.64	34.444
399.00	34.888
399.35	33.822
399.71	35.714
400.07	33.970
400.42	35.766
400.78	34.109
401.14	34.970
401.49	35.318
401.85	35.448
402.21	33.909
402.57	34.830
402.92	35.557
403.28	35.478
403.63	33.313
403.99	35.923
404.35	35.205
404.70	36.279
405.06	35.294
405.42	33.518
405.77	34.729
406.13	34.469
406.49	35.171
406.84	34.793
407.20	36.278
407.55	34.832
407.91	33.614
408.27	35.478
408.62	33.614
408.98	34.688
409.34	36.015
409.69	34.720
410.05	35.597
410.40	36.665
410.76	35.625
411.11	35.349
411.47	35.678
411.83	35.147
412.18	34.777
412.54	34.960
412.89	36.087
413.25	34.947
413.60	34.265
413.96	35.490
414.31	36.024
414.67	35.746
415.03	35.188
415.38	35.524
415.74	35.954
416.09	36.061
416.45	35.450
416.80	35.631
417.16	35.548
417.51	37.886
417.87	35.922
418.22	36.220
418.58	36.457
418.93	36.297
419.29	36.700
419.64	36.244
420.00	36.209
420.35	36.901
420.71	36.134
421.06	37.870
421.42	35.890
421.77	36.683
422.12	37.269
422.48	35.489
422.83	36.333
423.19	36.526
423.54	36.657
423.90	37.131
424.25	37.387
424.61	38.179
424.96	38.327
425.31	37.228
425.67	38.797
426.02	36.374
426.38	37.871
426.73	38.808
427.09	38.113
427.44	37.330
427.79	37.500
428.15	37.822
428.50	38.416
428.85	39.029
429.21	37.576
429.56	38.542
429.92	37.926
430.27	37.737
430.62	38.767
430.98	37.846
431.33	38.207
431.68	38.874
432.04	38.780
432.39	39.031
432.74	38.609
433.10	38.267
433.45	39.033
433.80	39.586
434.16	39.011
434.51	39.288
434.86	39.074
435.22	39.644
435.57	39.106
435.92	40.035
436.28	39.822
436.63	40.079
436.98	40.550
437.34	39.988
437.69	39.790
438.04	40.386
438.39	40.915
438.75	40.221
439.10	40.589
439.45	40.193
439.81	41.506
440.16	40.999
440.51	41.529
440.86	40.023
441.22	39.746
441.57	41.105
441.92	41.125
442.27	41.396
442.63	41.094
442.98	41.366
443.33	43.053
443.68	41.532
444.03	42.191
444.39	41.312
444.74	41.300
445.09	41.118
445.44	42.431
445.79	41.815
446.15	43.209
446.50	41.862
446.85	41.098
447.20	42.084
447.55	42.652
447.91	41.774
448.26	42.458
448.61	41.370
448.96	42.857
449.31	42.390
449.66	43.389
450.02	41.330
450.37	42.145
450.72	43.446
451.07	43.369
451.42	42.875
451.77	42.609
452.12	43.325
452.47	43.955
452.83	43.739
453.18	44.213
453.53	42.910
453.88	44.139
454.23	43.289
454.58	42.946
454.93	43.892
455.28	44.232
455.63	43.612
455.98	43.253
456.34	42.630
456.69	44.153
457.04	43.823
457.39	43.182
457.74	44.182
458.09	43.329
458.44	44.284
458.79	43.161
459.14	43.811
459.49	44.227
459.84	43.227
460.19	43.735
460.54	44.162
460.89	43.666
461.24	43.230
461.59	43.904
461.94	43.857
462.29	43.836
462.64	44.071
462.99	46.720
463.34	45.577
463.69	44.656
464.04	45.050
464.39	44.205
464.74	43.499
465.09	43.656
465.44	43.993
465.79	43.598
466.14	44.822
466.49	43.293
466.84	45.198
467.19	44.638
467.54	44.241
467.89	45.499
468.24	44.656
468.59	44.972
468.94	45.209
469.29	43.990
469.64	45.283
469.99	46.253
470.34	46.092
470.68	46.948
471.03	46.387
471.38	44.792
471.73	46.993
472.08	45.448
472.43	45.302
472.78	45.133
473.13	44.334
473.48	45.373
473.83	45.906
474.17	45.032
474.52	47.187
474.87	44.988
475.22	44.897
475.57	44.056
475.92	45.410
476.27	44.629
476.61	45.014
476.96	45.277
477.31	45.694
477.66	45.324
478.01	46.623
478.36	44.578
478.70	45.916
479.05	45.809
479.40	46.321
479.75	44.954
480.10	44.494
480.45	44.246
480.79	44.521
481.14	45.760
481.49	45.934
481.84	46.232
482.19	44.404
482.53	45.691
482.88	45.515
483.23	44.695
483.58	45.421
483.92	45.915
484.27	45.281
484.62	44.881
484.97	44.427
485.31	43.520
485.66	43.145
486.01	42.537
486.36	42.423
486.70	43.200
487.05	42.715
487.40	43.910
487.75	43.318
488.09	43.823
488.44	44.046
488.79	44.429
489.13	44.846
489.48	44.984
489.83	46.245
490.17	45.494
490.52	45.788
490.87	45.127
491.22	45.633
491.56	45.972
491.91	46.517
492.26	45.849
492.60	45.433
492.95	46.073
493.30	45.593
493.64	46.074
493.99	45.650
494.34	46.333
494.68	45.974
495.03	45.459
495.37	46.853
495.72	46.660
496.07	46.598
496.41	46.735
496.76	46.484
497.11	46.444
497.45	46.648
497.80	45.573
498.14	46.611
498.49	45.856
498.84	46.650
499.18	46.979
499.53	47.004
499.87	45.801
500.22	46.618
500.56	46.673
500.91	46.749
501.26	45.949
501.60	46.317
501.95	47.246
502.29	45.961
502.64	47.242
502.98	46.430
503.33	46.241
503.67	45.546
504.02	46.499
504.36	47.304
504.71	47.163
505.06	45.931
505.40	47.305
505.75	46.951
506.09	48.180
506.44	47.669
506.78	46.914
507.13	47.683
507.47	46.479
507.82	47.651
508.16	46.891
508.51	47.656
508.85	47.723
509.19	47.148
509.54	47.252
509.88	48.830
510.23	47.117
510.57	48.307
510.92	48.926
511.26	47.422
511.61	47.030
511.95	46.821
512.30	48.323
512.64	48.525
512.98	48.515
513.33	48.710
513.67	48.018
514.02	47.483
514.36	48.033
514.70	49.576
515.05	49.171
515.39	49.366
515.74	49.331
516.08	49.568
516.42	47.932
516.77	49.509
517.11	48.398
517.46	49.402
517.80	49.037
518.14	48.551
518.49	49.313
518.83	48.843
519.17	49.852
519.52	48.005
519.86	50.478
520.20	51.100
520.55	49.169
520.89	49.656
521.23	50.244
521.58	49.969
521.92	49.652
522.26	50.603
522.61	51.141
522.95	49.330
523.29	50.784
523.64	49.282
523.98	50.223
524.32	50.409
524.66	49.503
525.01	50.996
525.35	50.838
525.69	49.447
526.04	50.261
526.38	50.987
526.72	49.489
527.06	50.911
527.41	50.627
527.75	50.891
528.09	51.158
528.43	50.754
528.78	48.241
529.12	51.216
529.46	50.709
529.80	49.774
530.15	50.998
530.49	50.582
530.83	51.604
531.17	51.246
531.51	50.703
531.86	50.625
532.20	51.147
532.54	50.401
532.88	49.934
533.22	49.398
533.57	50.849
533.91	48.002
534.25	47.706
534.59	49.594
534.93	48.662
535.27	49.528
535.62	50.320
535.96	49.644
536.30	49.280
536.64	48.738
536.98	52.331
537.32	49.413
537.66	50.238
538.01	49.897
538.35	51.081
538.69	49.799
539.03	49.425
539.37	49.301
539.71	50.100
540.05	50.171
540.39	50.416
540.73	50.035
541.07	51.161
541.42	49.088
541.76	48.372
542.10	49.966
542.44	49.634
542.78	50.204
543.12	49.423
543.46	48.356
543.80	47.960
544.14	49.026
544.48	49.475
544.82	51.015
545.16	49.631
545.50	47.308
545.84	50.070
546.18	49.237
546.52	49.787
546.86	50.712
547.20	50.844
547.54	48.554
547.88	49.436
548.22	48.362
548.56	50.835
548.90	49.663
549.24	48.914
549.58	51.023
549.92	49.258
550.26	50.217
550.60	48.151
550.94	49.781
551.28	51.242
551.62	51.256
551.96	50.796
552.30	49.199
552.64	49.683
552.98	50.315
553.32	50.866
553.66	50.901
554.00	51.244
554.34	48.664
554.68	50.804
555.02	50.289
555.36	49.533
555.69	50.573
556.03	48.421
556.37	50.213
556.71	50.680
557.05	51.663
557.39	50.186
557.73	49.672
558.07	51.997
558.41	50.785
558.75	49.506
559.08	50.817
559.42	49.847
559.76	51.150
560.10	51.007
560.44	50.145
560.78	50.661
561.12	48.792
561.45	50.000
561.79	49.129
562.13	49.229
562.47	50.840
562.81	51.132
563.15	49.265
563.48	49.067
563.82	49.899
564.16	49.493
564.50	49.059
564.84	50.198
565.17	48.475
565.51	49.413
565.85	50.034
566.19	51.252
566.52	49.772
566.86	49.115
567.20	50.545
567.54	49.144
567.88	47.404
568.21	48.098
568.55	47.455
568.89	47.018
569.23	46.136
569.56	44.851
569.90	45.476
570.24	45.058
570.57	45.132
570.91	44.475
571.25	44.423
571.59	44.052
571.92	43.869
572.26	43.769
572.60	43.624
572.93	43.945
573.27	43.659
573.61	42.931
573.95	43.853
574.28	42.206
574.62	43.518
574.96	42.298
575.29	43.216
575.63	43.908
575.97	43.123
576.30	42.697
576.64	43.420
576.98	42.349
577.31	42.813
577.65	42.697
577.98	42.641
578.32	41.718
578.66	43.002
578.99	42.513
579.33	43.130
579.67	43.013
580.00	43.353
580.34	43.567
580.67	43.148
581.01	42.573
581.35	42.941
581.68	41.908
582.02	42.482
582.35	42.229
582.69	42.443
583.02	43.126
583.36	42.684
583.70	42.678
584.03	44.073
584.37	44.032
584.70	43.616
585.04	43.595
585.37	42.506
585.71	42.985
586.04	43.212
586.38	42.823
586.72	43.546
587.05	43.812
587.39	43.158
587.72	42.872
588.06	44.044
588.39	44.717
588.73	44.116
589.06	44.533
589.40	45.620
589.73	44.972
590.07	44.683
590.40	44.428
590.73	45.782
591.07	44.959
591.40	46.014
591.74	45.873
592.07	46.667
592.41	46.115
592.74	45.388
593.08	44.044
593.41	44.112
593.75	42.994
594.08	44.860
594.41	45.028
594.75	45.300
595.08	45.714
595.42	44.834
595.75	44.836
596.09	45.634
596.42	45.867
596.75	45.752
597.09	46.839
597.42	46.137
597.75	45.793
598.09	46.859
598.42	46.222
598.76	45.224
599.09	44.830
599.42	44.790
599.76	44.168
600.09	45.458
600.42	45.120
600.76	46.215
601.09	45.158
601.42	45.271
601.76	45.678
602.09	44.785
602.42	45.885
602.76	45.742
603.09	45.323
603.42	45.205
603.76	45.632
604.09	45.655
604.42	45.504
604.76	45.661
605.09	46.022
605.42	46.232
605.75	45.623
606.09	45.911
606.42	44.910
606.75	46.501
607.09	45.655
607.42	45.907
607.75	45.342
608.08	45.865
608.42	46.121
608.75	46.028
609.08	46.225
609.41	46.736
609.75	47.196
610.08	46.814
610.41	46.940
610.74	46.518
611.07	46.856
611.41	46.949
611.74	47.609
612.07	48.174
612.40	46.642
612.73	47.173
613.07	47.221
613.40	48.221
613.73	47.956
614.06	46.678
614.39	48.196
614.72	47.318
615.06	47.337
615.39	46.392
615.72	47.257
616.05	46.438
616.38	47.940
616.71	48.589
617.05	48.191
617.38	49.474
617.71	47.666
618.04	49.193
618.37	48.616
618.70	50.000
619.03	49.221
619.36	50.176
619.69	50.395
620.03	48.554
620.36	49.859
620.69	50.179
621.02	49.696
621.35	49.516
621.68	51.393
622.01	49.676
622.34	49.767
622.67	50.000
623.00	50.421
623.33	51.493
623.66	48.892
623.99	51.353
624.32	49.256
624.65	50.405
624.99	50.112
625.32	50.075
625.65	50.194
625.98	50.548
626.31	51.713
626.64	51.464
626.97	51.712
627.30	51.660
627.63	50.432
627.96	51.610
628.29	53.860
628.62	51.767
628.95	53.642
629.28	53.102
629.61	52.699
629.94	52.647
630.26	56.064
630.59	53.869
630.92	52.452
631.25	54.637
631.58	53.757
631.91	52.660
632.24	54.222
632.57	55.333
632.90	55.287
633.23	54.556
633.56	55.789
633.89	55.542
