SpectraSuite Data File
++++++++++++++++++++++++++++++++++++
Date: Sat May 16 11:28:29 PDT 2015
User: schluterlab
Dark Spectrum Present: Yes
Reference Spectrum Present: Yes
Number of Sampled Component Spectra: 1
Spectrometers: USB2E3373
Integration Time (usec): 3000 (USB2E3373)
Spectra Averaged: 3 (USB2E3373)
Boxcar Smoothing: 0 (USB2E3373)
Correct for Electrical Dark: No (USB2E3373)
Strobe/Lamp Enabled: No (USB2E3373)
Correct for Detector Non-linearity: No (USB2E3373)
Correct for Stray Light: No (USB2E3373)
Number of Pixels in Processed Spectrum: 2048
>>>>>Begin Processed Spectral Data<<<<<
178.53	0.000
178.91	73.333
179.29	600.000
179.67	-700.000
180.04	-107.692
180.42	1600.000
180.80	375.000
181.18	450.000
181.56	12.500
181.94	1400.000
182.31	525.000
182.69	-15.385
183.07	-466.667
183.45	1700.000
183.83	866.667
184.20	-271.429
184.58	-25.000
184.96	-150.000
185.34	137.500
185.72	-425.000
186.09	16.667
186.47	-175.000
186.85	-150.000
187.23	-137.500
187.61	-350.000
187.98	-375.000
188.36	-175.000
188.74	-112.500
189.12	2200.000
189.49	257.143
189.87	-166.667
190.25	275.000
190.63	-14.286
191.00	-100.000
191.38	620.000
191.76	-6.667
192.14	340.000
192.51	-380.000
192.89	-633.333
193.27	0.000
193.65	-133.333
194.02	-257.143
194.40	566.667
194.78	-190.000
195.15	-700.000
195.53	-18.182
195.91	-433.333
196.29	-80.000
196.66	-566.667
197.04	2100.000
197.42	-125.000
197.79	-13.333
198.17	-366.667
198.55	-750.000
198.92	-1400.000
199.30	225.000
199.68	-600.000
200.05	-144.444
200.43	-177.778
200.81	-1700.000
201.18	-58.333
201.56	171.429
201.94	-40.000
202.31	-18.182
202.69	30.000
203.07	-100.000
203.44	666.667
203.82	-66.667
204.19	-325.000
204.57	-200.000
204.95	-1300.000
205.32	37.500
205.70	1500.000
206.08	-1200.000
206.45	-44.444
206.83	-1100.000
207.20	-650.000
207.58	-633.333
207.96	-733.333
208.33	-175.000
208.71	-300.000
209.08	210.000
209.46	-128.571
209.84	900.000
210.21	0.000
210.59	15.000
210.96	2100.000
211.34	-183.333
211.71	-233.333
212.09	425.000
212.46	1400.000
212.84	-2700.000
213.22	400.000
213.59	233.333
213.97	55.556
214.34	140.000
214.72	-30.000
215.09	-400.000
215.47	-116.667
215.84	-100.000
216.22	-60.000
216.59	-20.000
216.97	-400.000
217.34	900.000
217.72	-114.286
218.09	-300.000
218.47	-285.714
218.84	100.000
219.22	-85.714
219.59	0.000
219.97	185.714
220.34	275.000
220.72	125.000
221.09	-61.538
221.47	0.000
221.84	333.333
222.22	-550.000
222.59	1100.000
222.97	-137.500
223.34	-900.000
223.72	-633.333
224.09	-57.143
224.46	-375.000
224.84	-157.143
225.21	-271.429
225.59	-54.545
225.96	-100.000
226.34	-100.000
226.71	66.667
227.08	-40.000
227.46	2100.000
227.83	-228.571
228.21	-175.000
228.58	150.000
228.95	-43.750
229.33	-2700.000
229.70	-500.000
230.08	-750.000
230.45	-8.333
230.82	-250.000
231.20	-900.000
231.57	-700.000
231.95	1200.000
232.32	33.333
232.69	-266.667
233.07	-314.286
233.44	-1050.000
233.81	-113.333
234.19	-155.556
234.56	-93.750
234.93	6.250
235.31	-342.857
235.68	-92.857
236.05	-64.706
236.43	-59.091
236.80	-25.806
237.17	-50.000
237.55	-28.571
237.92	-95.455
238.29	-20.000
238.67	-29.412
239.04	-11.111
239.41	-61.290
239.79	-48.718
240.16	-45.238
240.53	-32.727
240.91	-38.462
241.28	-3.636
241.65	-7.692
242.02	-19.672
242.40	-44.262
242.77	-7.576
243.14	-23.729
243.51	-31.429
243.89	-22.785
244.26	-20.225
244.63	-6.316
245.00	-8.421
245.38	-0.847
245.75	-1.770
246.12	-13.600
246.49	-3.150
246.87	-11.382
247.24	-16.102
247.61	-12.712
247.98	-9.859
248.36	-13.287
248.73	2.532
249.10	-7.006
249.47	-1.170
249.84	-7.386
250.22	-11.310
250.59	-7.910
250.96	-3.665
251.33	0.948
251.70	-5.288
252.08	-4.739
252.45	-5.687
252.82	-11.429
253.19	-1.702
253.56	-6.048
253.94	-1.266
254.31	-3.004
254.68	-5.285
255.05	-5.645
255.42	-3.968
255.79	-6.452
256.16	-1.961
256.54	-2.941
256.91	-6.061
257.28	-6.593
257.65	-4.255
258.02	3.145
258.39	-2.676
258.76	-5.405
259.14	-3.086
259.51	-0.328
259.88	0.305
260.25	1.242
260.62	-4.180
260.99	-3.858
261.36	-2.439
261.73	-4.624
262.10	-1.667
262.47	-1.994
262.85	0.571
263.22	-4.298
263.59	-4.615
263.96	-3.188
264.33	-0.542
264.70	-2.486
265.07	-1.374
265.44	-2.326
265.81	-1.550
266.18	-6.076
266.55	0.245
266.92	-1.259
267.29	-0.726
267.66	-2.469
268.03	-0.725
268.40	-0.939
268.77	-1.687
269.14	-1.624
269.51	1.149
269.88	-2.982
270.25	-4.196
270.62	-1.831
270.99	-2.703
271.36	-3.963
271.73	-1.345
272.10	-2.517
272.47	-2.444
272.84	1.111
273.21	-1.606
273.58	-0.440
273.95	-2.632
274.32	0.452
274.69	1.751
275.06	0.409
275.43	-2.902
275.80	0.815
276.17	-0.628
276.54	1.018
276.91	-1.029
277.28	-0.406
277.65	-1.653
278.02	-1.879
278.39	-0.786
278.76	-1.594
279.13	-0.593
279.50	-0.398
279.87	-2.114
280.23	-0.202
280.60	-0.994
280.97	-3.301
281.34	0.000
281.71	-1.154
282.08	-2.016
282.45	-4.481
282.82	-0.969
283.19	-0.727
283.56	0.549
283.92	-1.237
284.29	0.000
284.66	-0.899
285.03	-1.961
285.40	-0.554
285.77	0.351
286.14	-0.542
286.51	-1.599
286.87	-1.633
287.24	-0.512
287.61	-0.331
287.98	-1.733
288.35	-1.488
288.72	-1.019
289.08	-2.881
289.45	-2.020
289.82	-3.979
290.19	1.806
290.56	-3.306
290.93	-2.226
291.29	-2.107
291.66	-0.805
292.03	0.000
292.40	0.904
292.77	0.000
293.13	-0.325
293.50	0.743
293.87	-0.920
294.24	0.452
294.60	-3.939
294.97	-1.214
295.34	-2.370
295.71	-0.595
296.08	-1.843
296.44	-0.143
296.81	-1.140
297.18	-1.690
297.55	-0.424
297.91	1.674
298.28	-0.822
298.65	-1.953
299.02	0.535
299.38	-0.267
299.75	-1.766
300.12	0.385
300.48	1.662
300.85	0.000
301.22	-1.294
301.59	0.650
301.95	1.134
302.32	-1.043
302.69	0.490
303.05	-0.122
303.42	-1.250
303.79	-0.718
304.15	1.422
304.52	0.700
304.89	-0.236
305.25	0.122
305.62	1.175
305.99	1.885
306.35	1.665
306.72	0.683
307.09	1.476
307.45	-0.114
307.82	0.000
308.19	0.559
308.55	0.871
308.92	-0.537
309.29	0.865
309.65	1.485
310.02	0.648
310.38	0.973
310.75	2.459
311.12	2.376
311.48	0.835
311.85	2.678
312.22	1.648
312.58	3.052
312.95	2.345
313.31	2.098
313.68	2.513
314.05	2.967
314.41	2.314
314.78	1.698
315.14	2.863
315.51	1.317
315.87	2.711
316.24	3.110
316.61	3.647
316.97	2.488
317.34	2.794
317.70	3.711
318.07	4.757
318.43	4.213
318.80	4.789
319.16	3.096
319.53	3.947
319.89	4.233
320.26	5.098
320.62	4.327
320.99	3.781
321.35	3.448
321.72	5.322
322.08	4.550
322.45	4.653
322.81	6.340
323.18	6.724
323.54	5.453
323.91	6.673
324.27	6.844
324.64	4.662
325.00	7.504
325.37	6.606
325.73	8.049
326.10	5.580
326.46	7.268
326.83	7.064
327.19	7.506
327.56	9.029
327.92	8.411
328.29	9.177
328.65	8.545
329.01	9.717
329.38	8.653
329.74	10.623
330.11	9.429
330.47	10.899
330.84	10.907
331.20	10.199
331.56	9.116
331.93	10.480
332.29	10.594
332.66	10.009
333.02	9.231
333.38	10.394
333.75	10.508
334.11	10.578
334.48	10.150
334.84	10.761
335.20	11.879
335.57	10.650
335.93	12.086
336.29	11.426
336.66	9.251
337.02	11.171
337.38	11.497
337.75	11.414
338.11	10.465
338.47	11.744
338.84	10.526
339.20	10.808
339.56	11.854
339.93	10.847
340.29	9.743
340.65	12.063
341.02	11.046
341.38	10.194
341.74	10.754
342.11	11.007
342.47	10.644
342.83	11.419
343.20	11.529
343.56	10.612
343.92	11.603
344.28	12.027
344.65	11.221
345.01	10.420
345.37	11.130
345.73	9.738
346.10	10.711
346.46	10.073
346.82	10.585
347.19	10.518
347.55	10.193
347.91	10.945
348.27	10.342
348.63	10.905
349.00	10.819
349.36	9.680
349.72	11.863
350.08	10.666
350.45	9.929
350.81	12.500
351.17	10.691
351.53	10.103
351.89	10.671
352.26	11.395
352.62	11.214
352.98	11.076
353.34	10.871
353.70	10.502
354.07	11.094
354.43	11.700
354.79	11.014
355.15	10.383
355.51	10.156
355.87	10.514
356.24	9.452
356.60	10.878
356.96	11.162
357.32	10.135
357.68	10.498
358.04	11.624
358.40	9.590
358.77	11.437
359.13	11.400
359.49	11.640
359.85	11.128
360.21	10.807
360.57	11.596
360.93	11.259
361.29	11.659
361.66	9.832
362.02	10.429
362.38	12.032
362.74	12.161
363.10	11.549
363.46	11.538
363.82	11.516
364.18	11.577
364.54	13.009
364.90	10.971
365.26	10.913
365.62	12.402
365.98	11.878
366.35	11.127
366.71	11.839
367.07	10.868
367.43	12.286
367.79	11.546
368.15	11.664
368.51	12.168
368.87	12.912
369.23	12.000
369.59	12.500
369.95	11.980
370.31	12.940
370.67	12.509
371.03	12.682
371.39	12.164
371.75	12.160
372.11	12.482
372.47	11.497
372.83	12.170
373.19	12.143
373.55	12.386
373.91	12.091
374.27	11.362
374.63	11.870
374.99	13.282
375.35	12.450
375.71	14.315
376.07	12.115
376.42	12.252
376.78	13.268
377.14	13.288
377.50	14.120
377.86	13.134
378.22	12.940
378.58	13.959
378.94	13.625
379.30	13.894
379.66	14.086
380.02	13.963
380.38	13.716
380.74	13.247
381.09	13.708
381.45	14.141
381.81	14.156
382.17	14.536
382.53	14.043
382.89	14.833
383.25	13.907
383.61	14.092
383.97	13.840
384.32	14.956
384.68	15.357
385.04	14.795
385.40	14.547
385.76	14.573
386.12	15.303
386.48	14.356
386.83	14.601
387.19	15.063
387.55	15.506
387.91	15.056
388.27	14.294
388.62	15.024
388.98	14.476
389.34	14.994
389.70	14.434
390.06	15.103
390.42	15.449
390.77	15.079
391.13	15.404
391.49	15.097
391.85	14.651
392.20	14.867
392.56	15.211
392.92	15.402
393.28	15.442
393.64	13.951
393.99	16.185
394.35	14.294
394.71	15.318
395.07	15.756
395.42	14.958
395.78	14.331
396.14	15.078
396.50	15.413
396.85	15.546
397.21	15.492
397.57	15.441
397.92	16.042
398.28	16.111
398.64	15.705
399.00	16.236
399.35	15.333
399.71	16.202
400.07	16.716
400.42	16.180
400.78	16.518
401.14	16.527
401.49	16.097
401.85	15.131
402.21	15.614
402.57	16.930
402.92	16.677
403.28	16.115
403.63	16.237
403.99	16.656
404.35	15.882
404.70	16.559
405.06	16.032
405.42	14.945
405.77	15.837
406.13	15.275
406.49	15.458
406.84	15.837
407.20	16.313
407.55	15.833
407.91	15.997
408.27	17.218
408.62	16.476
408.98	16.434
409.34	15.356
409.69	16.005
410.05	16.980
410.40	16.186
410.76	16.716
411.11	16.521
411.47	16.049
411.83	16.320
412.18	15.842
412.54	15.680
412.89	16.343
413.25	14.994
413.60	15.917
413.96	15.404
414.31	16.514
414.67	17.206
415.03	16.041
415.38	16.396
415.74	17.655
416.09	16.560
416.45	16.865
416.80	17.230
417.16	15.814
417.51	17.137
417.87	16.828
418.22	16.625
418.58	17.394
418.93	17.351
419.29	17.315
419.64	16.709
420.00	18.651
420.35	17.682
420.71	17.107
421.06	17.988
421.42	16.979
421.77	16.862
422.12	17.515
422.48	17.210
422.83	17.768
423.19	17.205
423.54	17.867
423.90	18.045
424.25	16.290
424.61	18.456
424.96	19.602
425.31	18.502
425.67	18.109
426.02	17.900
426.38	18.875
426.73	18.936
427.09	18.811
427.44	18.523
427.79	18.547
428.15	19.031
428.50	19.824
428.85	18.885
429.21	18.262
429.56	19.010
429.92	19.339
430.27	19.292
430.62	20.063
430.98	18.505
431.33	18.356
431.68	20.107
432.04	20.369
432.39	20.000
432.74	19.185
433.10	19.977
433.45	19.344
433.80	19.485
434.16	19.613
434.51	19.890
434.86	20.504
435.22	19.822
435.57	20.135
435.92	20.047
436.28	20.297
436.63	19.955
436.98	20.561
437.34	19.728
437.69	20.712
438.04	19.853
438.39	20.758
438.75	20.605
439.10	21.044
439.45	20.579
439.81	20.904
440.16	20.897
440.51	20.824
440.86	21.573
441.22	19.679
441.57	21.000
441.92	21.381
442.27	21.266
442.63	20.923
442.98	21.163
443.33	21.472
443.68	21.574
444.03	21.562
444.39	21.292
444.74	22.026
445.09	21.107
445.44	22.003
445.79	21.673
446.15	22.946
446.50	21.557
446.85	22.319
447.20	21.604
447.55	21.215
447.91	22.235
448.26	22.458
448.61	21.619
448.96	21.793
449.31	21.984
449.66	21.752
450.02	22.548
450.37	21.507
450.72	21.469
451.07	23.256
451.42	21.995
451.77	22.442
452.12	21.871
452.47	22.166
452.83	21.840
453.18	22.834
453.53	22.512
453.88	22.608
454.23	21.584
454.58	22.623
454.93	22.040
455.28	22.817
455.63	23.096
455.98	23.012
456.34	22.173
456.69	23.014
457.04	23.233
457.39	22.129
457.74	22.386
458.09	22.854
458.44	23.383
458.79	22.085
459.14	22.419
459.49	23.209
459.84	23.721
460.19	23.687
460.54	22.807
460.89	21.861
461.24	23.254
461.59	22.978
461.94	22.279
462.29	23.109
462.64	23.715
462.99	23.561
463.34	23.093
463.69	22.455
464.04	22.261
464.39	22.999
464.74	23.522
465.09	22.730
465.44	22.899
465.79	22.053
466.14	23.188
466.49	23.316
466.84	23.049
467.19	23.192
467.54	22.152
467.89	23.058
468.24	22.981
468.59	23.798
468.94	22.572
469.29	22.612
469.64	24.057
469.99	23.565
470.34	23.246
470.68	25.000
471.03	24.088
471.38	23.194
471.73	22.657
472.08	22.624
472.43	22.844
472.78	23.533
473.13	22.399
473.48	23.293
473.83	22.084
474.17	23.376
474.52	23.593
474.87	23.368
475.22	23.304
475.57	22.167
475.92	23.056
476.27	22.400
476.61	23.042
476.96	22.750
477.31	23.251
477.66	22.690
478.01	24.041
478.36	23.311
478.70	23.545
479.05	22.985
479.40	23.057
479.75	22.732
480.10	23.115
480.45	22.776
480.79	23.149
481.14	23.633
481.49	23.379
481.84	22.607
482.19	23.572
482.53	23.153
482.88	23.066
483.23	22.535
483.58	23.543
483.92	23.459
484.27	22.995
484.62	23.283
484.97	22.019
485.31	22.112
485.66	21.550
486.01	21.783
486.36	22.774
486.70	23.048
487.05	22.793
487.40	22.062
487.75	22.544
488.09	22.421
488.44	22.936
488.79	23.028
489.13	22.518
489.48	23.246
489.83	22.358
490.17	23.161
490.52	23.324
490.87	21.894
491.22	22.560
491.56	23.009
491.91	23.092
492.26	22.972
492.60	22.788
492.95	23.179
493.30	22.725
493.64	23.272
493.99	22.371
494.34	23.190
494.68	23.549
495.03	22.897
495.37	22.370
495.72	22.937
496.07	23.463
496.41	23.344
496.76	22.740
497.11	22.515
497.45	22.893
497.80	23.312
498.14	23.084
498.49	22.551
498.84	22.379
499.18	22.953
499.53	22.552
499.87	22.056
500.22	22.892
500.56	23.462
500.91	22.660
501.26	23.775
501.60	22.340
501.95	22.754
502.29	23.004
502.64	22.961
502.98	22.041
503.33	23.214
503.67	22.462
504.02	23.322
504.36	22.696
504.71	22.391
505.06	22.267
505.40	22.954
505.75	22.815
506.09	23.256
506.44	22.957
506.78	22.629
507.13	22.863
507.47	23.370
507.82	22.819
508.16	24.041
508.51	22.463
508.85	22.412
509.19	22.711
509.54	22.727
509.88	22.394
510.23	22.694
510.57	23.333
510.92	23.738
511.26	22.648
511.61	21.814
511.95	22.953
512.30	22.100
512.64	21.258
512.98	23.322
513.33	22.954
513.67	22.892
514.02	21.756
514.36	22.715
514.70	22.524
515.05	23.042
515.39	22.722
515.74	23.444
516.08	22.997
516.42	23.569
516.77	24.090
517.11	23.227
517.46	22.488
517.80	23.045
518.14	22.705
518.49	23.132
518.83	21.780
519.17	22.854
519.52	22.094
519.86	22.999
520.20	23.227
520.55	22.092
520.89	21.102
521.23	22.833
521.58	22.194
521.92	23.369
522.26	22.159
522.61	23.764
522.95	20.804
523.29	22.821
523.64	22.611
523.98	22.215
524.32	21.999
524.66	22.484
525.01	22.351
525.35	23.003
525.69	22.642
526.04	22.389
526.38	22.979
526.72	22.095
527.06	23.307
527.41	22.178
527.75	22.178
528.09	22.700
528.43	22.689
528.78	22.676
529.12	22.535
529.46	21.714
529.80	22.337
530.15	22.279
530.49	21.734
530.83	22.921
531.17	22.694
531.51	21.701
531.86	21.659
532.20	21.727
532.54	22.326
532.88	21.673
533.22	21.524
533.57	21.671
533.91	21.473
534.25	21.182
534.59	20.800
534.93	21.220
535.27	22.782
535.62	22.315
535.96	21.913
536.30	21.270
536.64	22.377
536.98	22.811
537.32	20.871
537.66	22.878
538.01	22.612
538.35	22.432
538.69	21.791
539.03	22.004
539.37	22.023
539.71	22.482
540.05	20.973
540.39	22.230
540.73	21.977
541.07	22.883
541.42	22.282
541.76	21.262
542.10	22.080
542.44	22.518
542.78	21.574
543.12	21.385
543.46	20.137
543.80	21.003
544.14	21.491
544.48	22.638
544.82	21.110
545.16	22.267
545.50	20.659
545.84	22.184
546.18	21.221
546.52	21.693
546.86	21.937
547.20	21.941
547.54	20.386
547.88	21.500
548.22	20.904
548.56	21.510
548.90	21.833
549.24	20.673
549.58	20.960
549.92	22.898
550.26	22.471
550.60	22.546
550.94	22.555
551.28	21.896
551.62	21.566
551.96	22.214
552.30	21.324
552.64	21.675
552.98	22.074
553.32	20.707
553.66	22.134
554.00	22.459
554.34	21.300
554.68	21.345
555.02	21.635
555.36	21.352
555.69	22.923
556.03	21.614
556.37	21.977
556.71	22.906
557.05	21.877
557.39	21.455
557.73	23.049
558.07	21.703
558.41	21.840
558.75	22.053
559.08	20.311
559.42	21.975
559.76	21.933
560.10	22.371
560.44	22.832
560.78	22.199
561.12	21.049
561.45	21.986
561.79	22.230
562.13	22.160
562.47	21.148
562.81	21.994
563.15	22.043
563.48	21.769
563.82	21.771
564.16	22.110
564.50	20.901
564.84	21.362
565.17	21.485
565.51	22.425
565.85	21.907
566.19	21.212
566.52	22.048
566.86	21.681
567.20	21.610
567.54	22.563
567.88	20.268
568.21	21.756
568.55	21.262
568.89	21.272
569.23	21.610
569.56	21.522
569.90	20.850
570.24	21.646
570.57	20.281
570.91	20.367
571.25	20.752
571.59	21.043
571.92	20.685
572.26	20.342
572.60	20.912
572.93	20.564
573.27	20.152
573.61	19.272
573.95	20.197
574.28	19.912
574.62	20.996
574.96	19.691
575.29	20.274
575.63	20.388
575.97	19.876
576.30	19.786
576.64	19.948
576.98	20.105
577.31	20.191
577.65	20.353
577.98	19.826
578.32	20.101
578.66	19.987
578.99	19.943
579.33	20.347
579.67	20.112
580.00	19.668
580.34	20.254
580.67	19.760
581.01	19.813
581.35	19.546
581.68	19.828
582.02	20.066
582.35	19.849
582.69	20.366
583.02	20.159
583.36	20.281
583.70	19.636
584.03	20.420
584.37	20.650
584.70	20.169
585.04	20.025
585.37	19.905
585.71	20.585
586.04	20.086
586.38	19.968
586.72	20.519
587.05	20.787
587.39	20.240
587.72	20.281
588.06	20.798
588.39	21.020
588.73	20.941
589.06	21.100
589.40	20.715
589.73	20.999
590.07	20.357
590.40	20.775
590.73	20.272
591.07	20.533
591.40	21.664
591.74	20.851
592.07	20.541
592.41	21.189
592.74	21.330
593.08	21.318
593.41	20.461
593.75	20.541
594.08	21.423
594.41	21.774
594.75	20.310
595.08	20.940
595.42	21.496
595.75	21.022
596.09	21.537
596.42	21.604
596.75	21.302
597.09	22.039
597.42	21.257
597.75	20.372
598.09	21.329
598.42	21.078
598.76	20.432
599.09	20.876
599.42	21.030
599.76	21.178
600.09	21.756
600.42	21.306
600.76	20.979
601.09	20.889
601.42	20.855
601.76	20.989
602.09	21.554
602.42	21.399
602.76	20.648
603.09	21.613
603.42	21.595
603.76	21.420
604.09	20.865
604.42	21.607
604.76	20.933
605.09	22.107
605.42	21.543
605.75	21.173
606.09	21.586
606.42	20.779
606.75	21.597
607.09	21.967
607.42	21.303
607.75	20.751
608.08	22.052
608.42	21.192
608.75	21.028
609.08	21.383
609.41	21.624
609.75	21.599
610.08	22.451
610.41	21.494
610.74	22.050
611.07	21.704
611.41	21.130
611.74	22.725
612.07	22.127
612.40	21.322
612.73	21.325
613.07	21.574
613.40	22.332
613.73	21.853
614.06	21.527
614.39	21.928
614.72	21.117
615.06	21.522
615.39	21.541
615.72	21.293
616.05	20.431
616.38	21.300
616.71	21.862
617.05	22.075
617.38	21.981
617.71	21.069
618.04	21.863
618.37	21.698
618.70	22.425
619.03	22.410
619.36	23.467
619.69	22.469
620.03	21.143
620.36	21.941
620.69	22.469
621.02	23.212
621.35	21.290
621.68	22.869
622.01	23.058
622.34	23.214
622.67	22.656
623.00	22.571
623.33	22.164
623.66	21.344
623.99	22.857
624.32	22.321
624.65	22.222
624.99	22.928
625.32	22.904
625.65	22.533
625.98	22.066
626.31	22.838
626.64	22.510
626.97	22.860
627.30	23.319
627.63	22.971
627.96	23.499
628.29	23.437
628.62	22.254
628.95	23.130
629.28	21.992
629.61	23.160
629.94	23.819
630.26	23.260
630.59	23.719
630.92	22.623
631.25	23.690
631.58	24.127
631.91	22.128
632.24	23.111
632.57	25.333
632.90	24.598
633.23	23.014
