SpectraSuite Data File
++++++++++++++++++++++++++++++++++++
Date: Sat May 16 11:18:56 PDT 2015
User: schluterlab
Dark Spectrum Present: Yes
Reference Spectrum Present: Yes
Number of Sampled Component Spectra: 1
Spectrometers: USB2E3373
Integration Time (usec): 3000 (USB2E3373)
Spectra Averaged: 3 (USB2E3373)
Boxcar Smoothing: 0 (USB2E3373)
Correct for Electrical Dark: No (USB2E3373)
Strobe/Lamp Enabled: No (USB2E3373)
Correct for Detector Non-linearity: No (USB2E3373)
Correct for Stray Light: No (USB2E3373)
Number of Pixels in Processed Spectrum: 2048
>>>>>Begin Processed Spectral Data<<<<<
178.53	0.000
178.91	53.333
179.29	300.000
179.67	100.000
180.04	-107.692
180.42	700.000
180.80	225.000
181.18	175.000
181.56	-137.500
181.94	-500.000
182.31	500.000
182.69	-30.769
183.07	-300.000
183.45	1100.000
183.83	366.667
184.20	-100.000
184.58	-125.000
184.96	-275.000
185.34	100.000
185.72	-250.000
186.09	200.000
186.47	-162.500
186.85	-87.500
187.23	-137.500
187.61	-175.000
187.98	-300.000
188.36	-62.500
188.74	0.000
189.12	700.000
189.49	157.143
189.87	-25.000
190.25	250.000
190.63	7.143
191.00	-188.889
191.38	160.000
191.76	40.000
192.14	380.000
192.51	-100.000
192.89	-366.667
193.27	0.000
193.65	-144.444
194.02	-228.571
194.40	-0.000
194.78	-60.000
195.15	-500.000
195.53	-90.909
195.91	-333.333
196.29	320.000
196.66	-466.667
197.04	1200.000
197.42	-150.000
197.79	40.000
198.17	-333.333
198.55	-750.000
198.92	-900.000
199.30	37.500
199.68	-600.000
200.05	-44.444
200.43	-288.889
200.81	-1500.000
201.18	-100.000
201.56	200.000
201.94	-26.667
202.31	27.273
202.69	-40.000
203.07	-20.000
203.44	733.333
203.82	-250.000
204.19	-350.000
204.57	-125.000
204.95	-1200.000
205.32	-18.750
205.70	-0.000
206.08	-2300.000
206.45	-50.000
206.83	-1050.000
207.20	100.000
207.58	-533.333
207.96	-466.667
208.33	-62.500
208.71	-66.667
209.08	150.000
209.46	-85.714
209.84	550.000
210.21	0.000
210.59	5.000
210.96	300.000
211.34	-150.000
211.71	266.667
212.09	425.000
212.46	700.000
212.84	-1600.000
213.22	733.333
213.59	125.000
213.97	-22.222
214.34	170.000
214.72	-30.000
215.09	-200.000
215.47	-183.333
215.84	-10.000
216.22	-20.000
216.59	20.000
216.97	-375.000
217.34	300.000
217.72	-157.143
218.09	-250.000
218.47	-57.143
218.84	142.857
219.22	-100.000
219.59	0.000
219.97	114.286
220.34	400.000
220.72	150.000
221.09	0.000
221.47	0.000
221.84	433.333
222.22	-600.000
222.59	600.000
222.97	-137.500
223.34	-900.000
223.72	-333.333
224.09	-92.857
224.46	-225.000
224.84	7.143
225.21	-142.857
225.59	-63.636
225.96	-100.000
226.34	-57.143
226.71	-44.444
227.08	10.000
227.46	2000.000
227.83	-114.286
228.21	-62.500
228.58	50.000
228.95	-81.250
229.33	-1100.000
229.70	-260.000
230.08	-800.000
230.45	-8.333
230.82	-200.000
231.20	-500.000
231.57	0.000
231.95	2000.000
232.32	-4.762
232.69	-77.778
233.07	-28.571
233.44	-900.000
233.81	-53.333
234.19	-144.444
234.56	-87.500
234.93	6.250
235.31	-300.000
235.68	-28.571
236.05	-23.529
236.43	-68.182
236.80	-6.452
237.17	-20.833
237.55	-57.143
237.92	-54.545
238.29	-34.286
238.67	-11.765
239.04	-50.000
239.41	-51.613
239.79	-58.974
240.16	-26.190
240.53	-29.091
240.91	-7.692
241.28	-7.273
241.65	0.000
242.02	-26.230
242.40	-34.426
242.77	-16.667
243.14	-33.898
243.51	-14.286
243.89	-34.177
244.26	-11.236
244.63	-10.526
245.00	-12.632
245.38	-2.542
245.75	-7.080
246.12	-4.800
246.49	-10.236
246.87	-6.504
247.24	-11.017
247.61	-15.254
247.98	-5.634
248.36	-11.189
248.73	6.962
249.10	-5.096
249.47	-5.263
249.84	-6.818
250.22	-8.929
250.59	-6.780
250.96	-7.330
251.33	1.422
251.70	-5.288
252.08	1.896
252.45	-3.318
252.82	-11.429
253.19	-4.681
253.56	-4.032
253.94	0.422
254.31	-4.721
254.68	-5.285
255.05	-4.435
255.42	-4.365
255.79	-2.867
256.16	-4.314
256.54	-1.838
256.91	-4.924
257.28	-5.861
257.65	-3.191
258.02	-1.887
258.39	-0.669
258.76	-2.365
259.14	-4.321
259.51	-1.311
259.88	-1.829
260.25	0.311
260.62	-4.180
260.99	-1.187
261.36	-0.305
261.73	1.156
262.10	0.278
262.47	-3.419
262.85	0.571
263.22	-1.433
263.59	-6.154
263.96	0.290
264.33	-1.084
264.70	-0.276
265.07	-3.571
265.44	-2.067
265.81	-0.517
266.18	-4.557
266.55	-1.961
266.92	-1.511
267.29	-2.179
267.66	-2.716
268.03	0.242
268.40	-0.704
268.77	-2.410
269.14	-1.392
269.51	-1.379
269.88	-0.459
270.25	-1.632
270.62	-0.686
270.99	-2.027
271.36	-4.429
271.73	-2.466
272.10	-1.144
272.47	-1.111
272.84	0.889
273.21	1.606
273.58	-2.857
273.95	-2.632
274.32	-0.679
274.69	0.656
275.06	1.431
275.43	-4.018
275.80	0.407
276.17	-0.837
276.54	0.611
276.91	-2.881
277.28	-1.217
277.65	-2.479
278.02	0.209
278.39	1.768
278.76	-0.398
279.13	0.395
279.50	0.596
279.87	-2.537
280.23	-0.607
280.60	-3.380
280.97	-2.913
281.34	-2.515
281.71	0.000
282.08	-1.815
282.45	-6.517
282.82	-0.969
283.19	-1.091
283.56	0.183
283.92	0.000
284.29	-2.416
284.66	-1.079
285.03	0.000
285.40	-0.554
285.77	0.175
286.14	1.083
286.51	-2.842
286.87	-2.541
287.24	0.000
287.61	-0.661
287.98	-2.773
288.35	-1.157
288.72	-3.226
289.08	-2.881
289.45	1.010
289.82	-1.903
290.19	0.985
290.56	-3.306
290.93	-0.477
291.29	-1.783
291.66	-1.127
292.03	1.256
292.40	0.301
292.77	-1.242
293.13	-0.325
293.50	0.743
293.87	-1.227
294.24	0.302
294.60	-1.970
294.97	0.607
295.34	-0.444
295.71	1.935
296.08	-3.072
296.44	-1.144
296.81	-0.427
297.18	-0.423
297.55	0.282
297.91	1.116
298.28	0.000
298.65	-0.418
299.02	3.743
299.38	0.000
299.75	1.630
300.12	1.154
300.48	-0.128
300.85	0.131
301.22	1.294
301.59	1.300
301.95	2.141
302.32	0.130
302.69	0.734
303.05	0.122
303.42	1.125
303.79	1.316
304.15	1.185
304.52	0.933
304.89	0.472
305.25	0.733
305.62	1.293
305.99	2.356
306.35	2.109
306.72	1.936
307.09	2.270
307.45	0.908
307.82	1.676
308.19	0.783
308.55	1.198
308.92	0.000
309.29	2.270
309.65	1.697
310.02	1.620
310.38	0.324
310.75	2.357
311.12	2.273
311.48	2.610
311.85	1.854
312.22	1.957
312.58	2.238
312.95	1.631
313.31	2.398
313.68	2.613
314.05	2.572
314.41	2.113
314.78	0.999
315.14	2.863
315.51	2.330
315.87	3.485
316.24	2.818
316.61	4.223
316.97	2.488
317.34	2.119
317.70	2.134
318.07	3.265
318.43	2.434
318.80	4.038
319.16	2.627
319.53	3.195
319.89	3.198
320.26	5.392
320.62	2.692
320.99	5.174
321.35	2.857
321.72	4.094
322.08	4.649
322.45	2.772
322.81	4.707
323.18	5.187
323.54	6.377
323.91	5.468
324.27	5.894
324.64	5.941
325.00	6.894
325.37	6.244
325.73	7.524
326.10	5.403
326.46	6.480
326.83	7.149
327.19	8.007
327.56	10.136
327.92	8.836
328.29	9.351
328.65	8.364
329.01	10.512
329.38	10.437
329.74	11.538
330.11	9.610
330.47	10.899
330.84	12.466
331.20	10.740
331.56	11.577
331.93	11.723
332.29	12.785
332.66	12.730
333.02	12.308
333.38	12.903
333.75	12.645
334.11	11.556
334.48	11.915
334.84	13.736
335.20	12.766
335.57	12.545
335.93	14.145
336.29	12.489
336.66	12.687
337.02	13.243
337.38	13.547
337.75	12.906
338.11	13.506
338.47	13.167
338.84	13.702
339.20	13.884
339.56	13.815
339.93	13.316
340.29	12.489
340.65	12.762
341.02	13.828
341.38	13.058
341.74	14.225
342.11	13.567
342.47	12.275
342.83	13.098
343.20	13.237
343.56	12.571
343.92	13.856
344.28	14.802
344.65	12.294
345.01	12.857
345.37	14.618
345.73	12.684
346.10	12.510
346.46	12.023
346.82	13.232
347.19	11.832
347.55	12.761
347.91	12.756
348.27	11.535
348.63	13.005
349.00	13.763
349.36	11.944
349.72	13.615
350.08	13.392
350.45	13.160
350.81	12.978
351.17	11.736
351.53	12.013
351.89	12.935
352.26	13.411
352.62	14.209
352.98	12.658
353.34	12.870
353.70	12.510
354.07	12.982
354.43	12.727
354.79	13.074
355.15	13.339
355.51	12.656
355.87	11.858
356.24	12.232
356.60	12.248
356.96	12.471
357.32	12.193
357.68	12.567
358.04	12.086
358.40	12.606
358.77	11.978
359.13	12.242
359.49	13.076
359.85	12.348
360.21	11.948
360.57	13.780
360.93	13.333
361.29	13.602
361.66	11.204
362.02	12.204
362.38	12.546
362.74	13.187
363.10	11.765
363.46	13.319
363.82	12.828
364.18	13.169
364.54	13.867
364.90	13.208
365.26	12.482
365.62	12.901
365.98	13.371
366.35	12.817
366.71	11.135
367.07	12.773
367.43	13.384
367.79	12.921
368.15	12.162
368.51	12.937
368.87	14.011
369.23	12.211
369.59	12.500
369.95	13.249
370.31	13.854
370.67	12.220
371.03	13.484
371.39	12.730
371.75	12.732
372.11	13.773
372.47	12.654
372.83	14.047
373.19	13.071
373.55	13.723
373.91	14.296
374.27	12.868
374.63	13.458
374.99	13.213
375.35	13.526
375.71	14.382
376.07	13.484
376.42	11.921
376.78	13.791
377.14	13.627
377.50	14.184
377.86	13.004
378.22	13.317
378.58	13.589
378.94	12.885
379.30	14.138
379.66	13.479
380.02	13.904
380.38	12.991
380.74	13.072
381.09	14.704
381.45	13.663
381.81	13.188
382.17	12.845
382.53	13.617
382.89	14.294
383.25	13.907
383.61	13.915
383.97	14.085
384.32	13.579
384.68	13.543
385.04	13.345
385.40	13.694
385.76	13.476
386.12	13.367
386.48	14.790
386.83	13.926
387.19	14.106
387.55	14.173
387.91	13.693
388.27	13.390
388.62	13.642
388.98	13.689
389.34	13.158
389.70	13.155
390.06	13.300
390.42	14.487
390.77	13.438
391.13	14.410
391.49	14.161
391.85	13.529
392.20	14.502
392.56	13.561
392.92	13.691
393.28	13.490
393.64	13.349
393.99	13.969
394.35	13.686
394.71	13.342
395.07	14.062
395.42	13.349
395.78	12.508
396.14	13.146
396.50	13.456
396.85	13.942
397.21	12.880
397.57	14.225
397.92	13.817
398.28	13.667
398.64	12.909
399.00	14.326
399.35	13.472
399.71	13.763
400.07	13.731
400.42	14.294
400.78	12.522
401.14	13.772
401.49	12.972
401.85	13.301
402.21	13.528
402.57	12.864
402.92	13.090
403.28	12.623
403.63	12.522
403.99	13.362
404.35	12.258
404.70	13.107
405.06	13.264
405.42	12.915
405.77	12.274
406.13	12.834
406.49	13.241
406.84	12.777
407.20	14.252
407.55	12.350
407.91	11.917
408.27	12.623
408.62	12.087
408.98	12.796
409.34	12.736
409.69	12.476
410.05	12.492
410.40	12.201
410.76	12.626
411.11	13.092
411.47	11.957
411.83	12.531
412.18	12.376
412.54	11.531
412.89	12.394
413.25	11.570
413.60	11.118
413.96	11.830
414.31	12.232
414.67	12.000
415.03	12.354
415.38	13.273
415.74	12.951
416.09	11.701
416.45	11.045
416.80	12.419
417.16	11.694
417.51	13.657
417.87	12.492
418.22	12.832
418.58	12.003
418.93	12.262
419.29	12.673
419.64	12.940
420.00	13.548
420.35	12.419
420.71	12.845
421.06	13.077
421.42	11.651
421.77	13.456
422.12	13.095
422.48	12.560
422.83	13.041
423.19	12.138
423.54	13.084
423.90	12.840
424.25	12.896
424.61	13.450
424.96	13.868
425.31	13.527
425.67	13.811
426.02	12.622
426.38	13.672
426.73	12.566
427.09	13.235
427.44	12.102
427.79	13.314
428.15	13.704
428.50	13.079
428.85	13.549
429.21	12.839
429.56	13.125
429.92	13.277
430.27	13.310
430.62	13.532
430.98	13.225
431.33	14.354
431.68	13.619
432.04	14.661
432.39	12.764
432.74	13.309
433.10	13.112
433.45	12.435
433.80	13.774
434.16	14.186
434.51	13.096
434.86	14.528
435.22	13.864
435.57	13.831
435.92	14.009
436.28	14.303
436.63	13.341
436.98	13.173
437.34	13.999
437.69	13.769
438.04	13.897
438.39	14.501
438.75	13.446
439.10	14.936
439.45	14.122
439.81	14.398
440.16	13.685
440.51	14.294
440.86	13.707
441.22	13.599
441.57	13.895
441.92	13.657
442.27	13.853
442.63	13.895
442.98	13.713
443.33	14.662
443.68	14.382
444.03	13.998
444.39	13.999
444.74	14.482
445.09	14.912
445.44	13.562
445.79	14.125
446.15	14.074
446.50	13.990
446.85	14.058
447.20	14.198
447.55	14.254
447.91	14.655
448.26	14.022
448.61	13.752
448.96	14.510
449.31	13.641
449.66	13.967
450.02	14.183
450.37	13.391
450.72	14.237
451.07	15.148
451.42	13.755
451.77	14.243
452.12	14.541
452.47	15.365
452.83	14.327
453.18	14.358
453.53	14.614
453.88	15.431
454.23	14.873
454.58	14.854
454.93	15.428
455.28	13.129
455.63	14.189
455.98	14.518
456.34	13.151
456.69	15.009
457.04	14.690
457.39	14.354
457.74	14.353
458.09	14.327
458.44	13.915
458.79	14.686
459.14	14.546
459.49	15.216
459.84	14.559
460.19	14.558
460.54	13.975
460.89	14.182
461.24	14.511
461.59	14.771
461.94	14.704
462.29	14.413
462.64	15.744
462.99	15.127
463.34	14.787
463.69	13.550
464.04	14.060
464.39	13.202
464.74	14.539
465.09	14.071
465.44	14.664
465.79	14.890
466.14	14.499
466.49	14.911
466.84	14.106
467.19	14.776
467.54	14.114
467.89	15.043
468.24	14.489
468.59	14.616
468.94	14.662
469.29	14.425
469.64	14.757
469.99	15.327
470.34	14.562
470.68	14.680
471.03	14.522
471.38	14.722
471.73	14.825
472.08	13.722
472.43	14.028
472.78	14.933
473.13	12.922
473.48	14.742
473.83	14.826
474.17	13.758
474.52	14.450
474.87	15.676
475.22	14.395
475.57	14.389
475.92	14.363
476.27	14.857
476.61	14.986
476.96	14.254
477.31	15.124
477.66	14.776
478.01	14.857
478.36	14.405
478.70	14.309
479.05	14.657
479.40	14.560
479.75	15.138
480.10	14.236
480.45	14.458
480.79	14.561
481.14	14.501
481.49	15.198
481.84	14.517
482.19	15.487
482.53	14.441
482.88	14.713
483.23	14.178
483.58	15.171
483.92	14.286
484.27	14.311
484.62	13.866
484.97	14.224
485.31	13.888
485.66	14.076
486.01	13.934
486.36	14.060
486.70	14.421
487.05	14.011
487.40	14.049
487.75	14.346
488.09	13.836
488.44	14.107
488.79	14.574
489.13	14.873
489.48	14.763
489.83	14.105
490.17	14.541
490.52	14.493
490.87	14.411
491.22	14.199
491.56	15.139
491.91	14.218
492.26	14.623
492.60	13.987
492.95	14.327
493.30	14.960
493.64	14.292
493.99	13.958
494.34	14.429
494.68	15.075
495.03	14.197
495.37	14.110
495.72	14.391
496.07	15.110
496.41	14.683
496.76	14.977
497.11	14.414
497.45	14.799
497.80	14.057
498.14	14.440
498.49	13.762
498.84	14.660
499.18	15.302
499.53	14.418
499.87	13.610
500.22	14.020
500.56	14.507
500.91	14.433
501.26	14.993
501.60	14.251
501.95	15.024
502.29	13.888
502.64	14.804
502.98	14.327
503.33	14.991
503.67	13.841
504.02	13.858
504.36	14.167
504.71	13.425
505.06	13.929
505.40	14.521
505.75	14.837
506.09	14.055
506.44	14.687
506.78	13.848
507.13	14.315
507.47	14.815
507.82	14.507
508.16	14.456
508.51	14.426
508.85	14.596
509.19	14.181
509.54	14.641
509.88	13.830
510.23	14.990
510.57	14.180
510.92	14.447
511.26	14.035
511.61	14.579
511.95	14.332
512.30	14.129
512.64	13.189
512.98	14.136
513.33	14.388
513.67	14.182
514.02	13.647
514.36	14.404
514.70	13.469
515.05	14.180
515.39	14.187
515.74	15.474
516.08	15.159
516.42	14.448
516.77	14.905
517.11	14.874
517.46	13.935
517.80	14.501
518.14	13.527
518.49	14.405
518.83	14.006
519.17	14.742
519.52	14.344
519.86	14.516
520.20	14.731
520.55	13.723
520.89	13.463
521.23	14.591
521.58	14.107
521.92	14.060
522.26	14.159
522.61	14.132
522.95	13.529
523.29	14.295
523.64	13.429
523.98	14.513
524.32	13.262
524.66	13.665
525.01	13.937
525.35	14.820
525.69	14.574
526.04	14.295
526.38	15.086
526.72	14.112
527.06	13.932
527.41	13.597
527.75	12.739
528.09	13.236
528.43	14.295
528.78	13.756
529.12	15.109
529.46	13.724
529.80	14.203
530.15	14.166
530.49	14.036
530.83	14.211
531.17	13.737
531.51	13.262
531.86	13.430
532.20	14.845
532.54	14.639
532.88	13.834
533.22	14.171
533.57	14.948
533.91	14.482
534.25	13.639
534.59	13.054
534.93	13.503
535.27	14.349
535.62	14.770
535.96	13.898
536.30	14.202
536.64	14.077
536.98	14.195
537.32	14.305
537.66	13.646
538.01	12.577
538.35	13.243
538.69	12.567
539.03	14.015
539.37	14.039
539.71	13.742
540.05	13.777
540.39	13.435
540.73	13.338
541.07	14.413
541.42	12.964
541.76	12.558
542.10	13.774
542.44	14.324
542.78	13.501
543.12	14.121
543.46	11.918
543.80	13.110
544.14	12.962
544.48	14.633
544.82	14.479
545.16	12.877
545.50	12.921
545.84	13.769
546.18	13.107
546.52	14.367
546.86	12.963
547.20	13.502
547.54	12.879
547.88	14.068
548.22	12.516
548.56	12.959
548.90	13.410
549.24	12.894
549.58	13.197
549.92	13.852
550.26	13.656
550.60	13.727
550.94	13.431
551.28	13.544
551.62	12.925
551.96	13.386
552.30	13.868
552.64	14.497
552.98	13.805
553.32	12.987
553.66	12.833
554.00	13.362
554.34	12.347
554.68	13.085
555.02	13.748
555.36	12.437
555.69	12.966
556.03	12.982
556.37	12.376
556.71	12.527
557.05	13.525
557.39	12.621
557.73	13.567
558.07	14.469
558.41	13.239
558.75	13.612
559.08	12.451
559.42	13.400
559.76	12.500
560.10	13.945
560.44	13.006
560.78	13.500
561.12	12.836
561.45	12.329
561.79	13.310
562.13	12.553
562.47	13.305
562.81	12.023
563.15	12.666
563.48	13.338
563.82	13.320
564.16	13.049
564.50	14.247
564.84	12.963
565.17	12.599
565.51	13.559
565.85	13.320
566.19	13.702
566.52	13.112
566.86	13.085
567.20	13.499
567.54	13.349
567.88	12.954
568.21	12.304
568.55	12.513
568.89	12.575
569.23	12.587
569.56	12.022
569.90	12.707
570.24	12.326
570.57	12.443
570.91	12.547
571.25	12.192
571.59	12.082
571.92	12.708
572.26	12.343
572.60	12.287
572.93	12.109
573.27	11.951
573.61	12.188
573.95	12.241
574.28	11.859
574.62	12.303
574.96	12.039
575.29	11.839
575.63	11.707
575.97	11.219
576.30	12.195
576.64	12.063
576.98	11.943
577.31	11.895
577.65	12.301
577.98	12.061
578.32	11.745
578.66	11.828
578.99	11.822
579.33	12.283
579.67	11.869
580.00	11.706
580.34	11.791
580.67	12.062
581.01	11.609
581.35	11.845
581.68	11.641
582.02	12.135
582.35	11.728
582.69	11.894
583.02	11.782
583.36	11.964
583.70	11.726
584.03	12.042
584.37	11.881
584.70	12.001
585.04	11.468
585.37	11.575
585.71	11.829
586.04	12.285
586.38	11.628
586.72	11.753
587.05	11.781
587.39	11.718
587.72	12.025
588.06	12.325
588.39	11.792
588.73	12.040
589.06	12.180
589.40	12.642
589.73	11.969
590.07	11.945
590.40	12.288
590.73	11.835
591.07	11.680
591.40	12.175
591.74	12.163
592.07	11.532
592.41	11.720
592.74	12.183
593.08	12.015
593.41	11.678
593.75	11.639
594.08	11.467
594.41	12.274
594.75	11.438
595.08	11.541
595.42	11.958
595.75	11.356
596.09	11.991
596.42	11.661
596.75	12.204
597.09	12.422
597.42	12.222
597.75	12.002
598.09	12.201
598.42	11.975
598.76	11.628
599.09	11.721
599.42	11.457
599.76	11.854
600.09	11.794
600.42	12.381
600.76	12.429
601.09	11.698
601.42	12.109
601.76	12.383
602.09	11.943
602.42	12.181
602.76	11.134
603.09	11.734
603.42	11.805
603.76	11.847
604.09	11.614
604.42	11.823
604.76	11.557
605.09	11.890
605.42	11.879
605.75	11.945
606.09	11.665
606.42	11.646
606.75	11.593
607.09	11.822
607.42	12.236
607.75	11.788
608.08	12.065
608.42	11.731
608.75	11.822
609.08	11.885
609.41	10.862
609.75	11.409
610.08	12.549
610.41	11.181
610.74	11.992
611.07	12.069
611.41	12.153
611.74	12.494
612.07	12.137
612.40	11.834
612.73	11.847
613.07	11.833
613.40	12.479
613.73	11.880
614.06	12.411
614.39	11.894
614.72	11.397
615.06	12.011
615.39	11.612
615.72	11.950
616.05	11.596
616.38	12.710
616.71	11.471
617.05	12.304
617.38	12.570
617.71	11.855
618.04	11.615
618.37	11.824
618.70	12.190
619.03	11.916
619.36	13.108
619.69	12.635
620.03	11.088
620.36	11.603
620.69	12.132
621.02	11.872
621.35	10.968
621.68	12.623
622.01	12.621
622.34	12.655
622.67	12.188
623.00	12.930
623.33	12.313
623.66	12.408
623.99	11.805
624.32	10.714
624.65	11.994
624.99	11.501
625.32	11.302
625.65	12.743
625.98	11.737
626.31	12.398
626.64	12.720
626.97	12.329
627.30	12.596
627.63	10.967
627.96	12.533
628.29	11.305
628.62	11.843
628.95	12.106
629.28	12.406
629.61	11.973
629.94	13.043
630.26	12.724
630.59	12.764
630.92	13.814
631.25	12.500
631.58	11.852
631.91	10.532
632.24	12.000
632.57	12.111
632.90	13.678
633.23	11.916
633.56	10.994
633.89	12.382
634.22	11.098
634.55	11.659
