SpectraSuite Data File
++++++++++++++++++++++++++++++++++++
Date: Sat May 16 11:29:34 PDT 2015
User: schluterlab
Dark Spectrum Present: Yes
Reference Spectrum Present: Yes
Number of Sampled Component Spectra: 1
Spectrometers: USB2E3373
Integration Time (usec): 3000 (USB2E3373)
Spectra Averaged: 3 (USB2E3373)
Boxcar Smoothing: 0 (USB2E3373)
Correct for Electrical Dark: No (USB2E3373)
Strobe/Lamp Enabled: No (USB2E3373)
Correct for Detector Non-linearity: No (USB2E3373)
Correct for Stray Light: No (USB2E3373)
Number of Pixels in Processed Spectrum: 2048
>>>>>Begin Processed Spectral Data<<<<<
178.53	0.000
178.91	100.000
179.29	566.667
179.67	-800.000
180.04	15.385
180.42	2500.000
180.80	425.000
181.18	350.000
181.56	-125.000
181.94	1700.000
182.31	525.000
182.69	-92.308
183.07	-633.333
183.45	1750.000
183.83	600.000
184.20	-242.857
184.58	-225.000
184.96	-300.000
185.34	87.500
185.72	-550.000
186.09	300.000
186.47	-125.000
186.85	-225.000
187.23	-25.000
187.61	-225.000
187.98	-200.000
188.36	-125.000
188.74	-212.500
189.12	1500.000
189.49	271.429
189.87	-83.333
190.25	500.000
190.63	-92.857
191.00	-233.333
191.38	360.000
191.76	-26.667
192.14	560.000
192.51	-240.000
192.89	-700.000
193.27	0.000
193.65	-166.667
194.02	-328.571
194.40	466.667
194.78	-130.000
195.15	-1500.000
195.53	-163.636
195.91	-300.000
196.29	200.000
196.66	-600.000
197.04	3000.000
197.42	-75.000
197.79	-6.667
198.17	-33.333
198.55	-550.000
198.92	-1800.000
199.30	312.500
199.68	-600.000
200.05	-88.889
200.43	-277.778
200.81	-2400.000
201.18	-133.333
201.56	257.143
201.94	-53.333
202.31	40.909
202.69	-20.000
203.07	-150.000
203.44	700.000
203.82	-533.333
204.19	-375.000
204.57	-175.000
204.95	-1700.000
205.32	-37.500
205.70	800.000
206.08	-2400.000
206.45	-33.333
206.83	-900.000
207.20	-200.000
207.58	-666.667
207.96	-800.000
208.33	-100.000
208.71	-88.889
209.08	210.000
209.46	-242.857
209.84	1150.000
210.21	0.000
210.59	25.000
210.96	500.000
211.34	-366.667
211.71	-466.667
212.09	300.000
212.46	950.000
212.84	-2200.000
213.22	533.333
213.59	133.333
213.97	-100.000
214.34	190.000
214.72	-210.000
215.09	-100.000
215.47	-166.667
215.84	-110.000
216.22	-80.000
216.59	0.000
216.97	-325.000
217.34	900.000
217.72	-185.714
218.09	-350.000
218.47	-271.429
218.84	185.714
219.22	-42.857
219.59	0.000
219.97	200.000
220.34	375.000
220.72	62.500
221.09	-123.077
221.47	0.000
221.84	633.333
222.22	-1100.000
222.59	1300.000
222.97	-187.500
223.34	-600.000
223.72	-633.333
224.09	-85.714
224.46	-375.000
224.84	-64.286
225.21	-285.714
225.59	-127.273
225.96	-275.000
226.34	-285.714
226.71	-33.333
227.08	30.000
227.46	1100.000
227.83	-157.143
228.21	-100.000
228.58	200.000
228.95	-81.250
229.33	-1600.000
229.70	-460.000
230.08	-850.000
230.45	-150.000
230.82	-200.000
231.20	-400.000
231.57	-700.000
231.95	1900.000
232.32	-14.286
232.69	-122.222
233.07	-157.143
233.44	-1250.000
233.81	-46.667
234.19	-77.778
234.56	-25.000
234.93	-3.125
235.31	-157.143
235.68	-135.714
236.05	-17.647
236.43	-95.455
236.80	-32.258
237.17	-37.500
237.55	-61.905
237.92	-36.364
238.29	-28.571
238.67	14.706
239.04	-2.778
239.41	-48.387
239.79	-53.846
240.16	-26.190
240.53	-10.909
240.91	-17.949
241.28	-3.636
241.65	3.077
242.02	22.951
242.40	1.639
242.77	-7.576
243.14	-10.169
243.51	-25.714
243.89	2.532
244.26	6.742
244.63	10.526
245.00	18.947
245.38	11.017
245.75	5.310
246.12	7.200
246.49	11.811
246.87	0.000
247.24	-1.695
247.61	7.627
247.98	10.563
248.36	11.888
248.73	6.329
249.10	5.732
249.47	10.526
249.84	10.795
250.22	5.357
250.59	14.689
250.96	12.565
251.33	11.374
251.70	10.577
252.08	10.900
252.45	11.848
252.82	13.333
253.19	8.085
253.56	12.097
253.94	11.814
254.31	12.017
254.68	17.073
255.05	10.484
255.42	14.286
255.79	11.111
256.16	17.255
256.54	11.765
256.91	13.636
257.28	15.018
257.65	15.603
258.02	16.038
258.39	12.040
258.76	10.811
259.14	17.284
259.51	16.721
259.88	14.939
260.25	16.460
260.62	15.434
260.99	12.760
261.36	12.805
261.73	15.607
262.10	15.278
262.47	14.530
262.85	18.000
263.22	13.467
263.59	13.538
263.96	12.174
264.33	14.634
264.70	14.088
265.07	12.363
265.44	15.245
265.81	14.729
266.18	12.405
266.55	12.745
266.92	17.380
267.29	12.107
267.66	16.296
268.03	14.010
268.40	15.962
268.77	13.253
269.14	15.545
269.51	16.322
269.88	11.697
270.25	13.753
270.62	13.501
270.99	13.964
271.36	13.753
271.73	12.108
272.10	13.730
272.47	14.889
272.84	14.667
273.21	15.367
273.58	10.989
273.95	12.719
274.32	16.742
274.69	19.037
275.06	15.951
275.43	12.946
275.80	17.108
276.17	15.481
276.54	15.479
276.91	14.815
277.28	15.822
277.65	14.669
278.02	14.405
278.39	16.503
278.76	15.339
279.13	14.427
279.50	12.922
279.87	12.685
280.23	14.575
280.60	14.712
280.97	14.563
281.34	14.313
281.71	16.346
282.08	15.726
282.45	12.220
282.82	13.372
283.19	15.091
283.56	16.300
283.92	14.841
284.29	14.684
284.66	14.568
285.03	15.865
285.40	14.576
285.77	16.842
286.14	15.162
286.51	15.098
286.87	16.334
287.24	15.358
287.61	16.198
287.98	14.731
288.35	13.388
288.72	14.771
289.08	13.220
289.45	15.152
289.82	14.706
290.19	14.122
290.56	11.901
290.93	13.196
291.29	15.235
291.66	15.298
292.03	14.443
292.40	15.512
292.77	15.062
293.13	14.472
293.50	15.899
293.87	13.957
294.24	14.630
294.60	13.788
294.97	15.326
295.34	12.741
295.71	15.774
296.08	13.210
296.44	14.163
296.81	16.097
297.18	15.211
297.55	15.537
297.91	15.760
298.28	12.740
298.65	14.226
299.02	15.374
299.38	14.840
299.75	14.810
300.12	15.897
300.48	13.555
300.85	14.941
301.22	14.877
301.59	14.174
301.95	16.247
302.32	13.690
302.69	15.177
303.05	14.042
303.42	15.125
303.79	15.789
304.15	15.166
304.52	15.053
304.89	15.702
305.25	14.652
305.62	15.159
305.99	16.019
306.35	14.872
306.72	15.148
307.09	16.686
307.45	15.323
307.82	15.307
308.19	16.219
308.55	14.924
308.92	14.930
309.29	15.243
309.65	14.104
310.02	15.767
310.38	15.027
310.75	16.393
311.12	16.219
311.48	15.031
311.85	16.890
312.22	16.169
312.58	16.582
312.95	15.494
313.31	16.184
313.68	16.281
314.05	17.211
314.41	14.889
314.78	15.684
315.14	16.979
315.51	16.008
315.87	16.263
316.24	16.424
316.61	17.274
316.97	17.612
317.34	15.511
317.70	16.605
318.07	16.698
318.43	16.105
318.80	18.404
319.16	15.947
319.53	16.259
319.89	16.369
320.26	17.353
320.62	17.308
320.99	17.910
321.35	16.847
321.72	17.195
322.08	18.101
322.45	17.228
322.81	19.020
323.18	18.636
323.54	19.501
323.91	18.906
324.27	19.011
324.64	18.282
325.00	19.983
325.37	20.452
325.73	22.397
326.10	19.221
326.46	21.804
326.83	21.106
327.19	20.934
327.56	24.020
327.92	22.770
328.29	22.338
328.65	21.727
329.01	22.880
329.38	23.550
329.74	24.084
330.11	25.385
330.47	24.886
330.84	25.298
331.20	25.903
331.56	25.706
331.93	26.909
332.29	26.849
332.66	26.690
333.02	27.330
333.38	27.151
333.75	26.803
334.11	27.822
334.48	27.361
334.84	29.309
335.20	28.014
335.57	28.971
335.93	30.439
336.29	29.052
336.66	27.489
337.02	29.459
337.38	29.144
337.75	28.534
338.11	30.143
338.47	29.448
338.84	29.673
339.20	29.613
339.56	31.818
339.93	28.660
340.29	29.672
340.65	29.808
341.02	29.258
341.38	28.054
341.74	29.636
342.11	29.949
342.47	28.584
342.83	29.807
343.20	29.633
343.56	28.327
343.92	30.551
344.28	30.866
344.65	29.290
345.01	28.235
345.37	29.485
345.73	30.933
346.10	28.536
346.46	28.595
346.82	29.511
347.19	29.992
347.55	28.331
347.91	29.528
348.27	28.640
348.63	29.321
349.00	29.594
349.36	28.103
349.72	29.777
350.08	29.270
350.45	29.866
350.81	29.140
351.17	29.984
351.53	28.799
351.89	28.941
352.26	28.605
352.62	30.568
352.98	28.797
353.34	29.177
353.70	28.803
354.07	28.718
354.43	29.881
354.79	27.892
355.15	29.393
355.51	28.516
355.87	29.802
356.24	28.594
356.60	29.251
356.96	29.330
357.32	28.583
357.68	29.425
358.04	29.484
358.40	28.848
358.77	29.366
359.13	29.074
359.49	28.874
359.85	30.488
360.21	29.756
360.57	30.497
360.93	29.481
361.29	29.746
361.66	29.040
362.02	28.698
362.38	28.540
362.74	30.256
363.10	29.484
363.46	30.556
363.82	29.519
364.18	29.378
364.54	30.736
364.90	30.259
365.26	29.886
365.62	29.865
365.98	30.725
366.35	30.915
366.71	29.387
367.07	29.711
367.43	30.542
367.79	30.034
368.15	29.801
368.51	30.629
368.87	30.838
369.23	29.404
369.59	31.250
369.95	30.867
370.31	30.942
370.67	30.296
371.03	30.248
371.39	29.562
371.75	30.973
372.11	31.205
372.47	30.513
372.83	30.598
373.19	30.571
373.55	31.597
373.91	30.654
374.27	30.732
374.63	30.918
374.99	31.989
375.35	31.696
375.71	32.613
376.07	32.307
376.42	31.391
376.78	32.484
377.14	32.814
377.50	32.302
377.86	31.990
378.22	33.606
378.58	32.613
378.94	32.244
379.30	32.785
379.66	33.455
380.02	31.313
380.38	34.018
380.74	32.943
381.09	32.572
381.45	34.129
381.81	32.002
382.17	33.647
382.53	33.070
382.89	33.014
383.25	33.775
383.61	34.021
383.97	34.048
384.32	34.418
384.68	33.736
385.04	34.118
385.40	34.814
385.76	34.512
386.12	34.978
386.48	35.953
386.83	33.865
387.19	34.967
387.55	35.494
387.91	34.499
388.27	34.258
388.62	34.615
388.98	33.677
389.34	34.761
389.70	35.140
390.06	34.929
390.42	36.474
390.77	35.331
391.13	36.273
391.49	35.808
391.85	34.850
392.20	35.316
392.56	34.942
392.92	35.767
393.28	35.821
393.64	35.719
393.99	35.262
394.35	36.375
394.71	35.454
395.07	36.660
395.42	35.340
395.78	35.135
396.14	36.199
396.50	36.269
396.85	36.089
397.21	36.330
397.57	36.960
397.92	35.890
398.28	35.611
398.64	35.455
399.00	36.292
399.35	36.246
399.71	35.947
400.07	35.582
400.42	35.706
400.78	35.838
401.14	35.629
401.49	34.788
401.85	36.181
402.21	36.234
402.57	35.740
402.92	36.312
403.28	36.152
403.63	34.691
403.99	35.861
404.35	34.360
404.70	35.518
405.06	36.159
405.42	35.363
405.77	36.086
406.13	34.923
406.49	36.908
406.84	35.513
407.20	36.690
407.55	35.719
407.91	35.816
408.27	36.029
408.62	35.358
408.98	35.779
409.34	35.222
409.69	35.098
410.05	35.901
410.40	35.377
410.76	36.277
411.11	35.287
411.47	35.486
411.83	36.125
412.18	35.644
412.54	35.387
412.89	37.546
413.25	34.770
413.60	35.966
413.96	35.367
414.31	36.330
414.67	35.810
415.03	35.770
415.38	35.979
415.74	37.371
416.09	36.445
416.45	35.185
416.80	35.566
417.16	35.150
417.51	36.507
417.87	35.469
418.22	35.461
418.58	36.585
418.93	36.481
419.29	36.324
419.64	35.113
420.00	36.270
420.35	36.014
420.71	36.975
421.06	36.213
421.42	35.539
421.77	36.013
422.12	37.381
422.48	36.825
422.83	36.560
423.19	36.748
423.54	37.118
423.90	37.247
424.25	36.538
424.61	37.093
424.96	37.975
425.31	38.010
425.67	36.791
426.02	37.292
426.38	38.294
426.73	38.691
427.09	38.113
427.44	36.420
427.79	37.326
428.15	36.445
428.50	37.947
428.85	38.070
429.21	37.797
429.56	37.865
429.92	37.575
430.27	38.485
430.62	36.991
430.98	37.742
431.33	38.047
431.68	37.802
432.04	37.997
432.39	38.519
432.74	38.249
433.10	39.280
433.45	38.745
433.80	39.082
434.16	38.796
434.51	39.342
434.86	39.543
435.22	39.198
435.57	38.372
435.92	37.984
436.28	39.228
436.63	39.288
436.98	38.545
437.34	39.043
437.69	38.798
438.04	38.798
438.39	39.110
438.75	38.882
439.10	39.034
439.45	38.564
439.81	38.494
440.16	39.693
440.51	39.412
440.86	38.693
441.22	37.590
441.57	39.053
441.92	39.693
442.27	39.123
442.63	39.807
442.98	38.939
443.33	39.813
443.68	39.760
444.03	39.833
444.39	40.039
444.74	40.914
445.09	39.912
445.44	40.011
445.79	40.745
446.15	39.595
446.50	38.704
446.85	39.200
447.20	40.552
447.55	40.221
447.91	39.978
448.26	38.939
448.61	39.898
448.96	40.952
449.31	40.586
449.66	40.469
450.02	38.393
450.37	39.710
450.72	40.339
451.07	41.986
451.42	39.033
451.77	41.352
452.12	40.286
452.47	39.169
452.83	40.186
453.18	42.948
453.53	39.988
453.88	41.806
454.23	40.326
454.58	40.833
454.93	40.554
455.28	41.683
455.63	40.909
455.98	41.145
456.34	40.851
456.69	42.276
457.04	41.057
457.39	41.029
457.74	41.229
458.09	40.603
458.44	41.166
458.79	40.919
459.14	41.643
459.49	42.037
459.84	41.653
460.19	39.976
460.54	40.956
460.89	40.639
461.24	41.105
461.59	41.266
461.94	42.330
462.29	42.168
462.64	40.580
462.99	42.102
463.34	41.729
463.69	42.430
464.04	41.359
464.39	39.964
464.74	40.957
465.09	40.168
465.44	41.794
465.79	40.778
466.14	43.728
466.49	41.911
466.84	41.897
467.19	42.145
467.54	42.089
467.89	41.677
468.24	41.449
468.59	41.349
468.94	41.479
469.29	42.430
469.64	42.116
469.99	42.741
470.34	40.949
470.68	41.642
471.03	42.739
471.38	42.292
471.73	43.986
472.08	42.972
472.43	42.149
472.78	42.600
473.13	41.816
473.48	41.863
473.83	41.935
474.17	42.420
474.52	44.246
474.87	41.725
475.22	42.301
475.57	42.000
475.92	43.629
476.27	42.057
476.61	42.254
476.96	42.705
477.31	43.165
477.66	42.225
478.01	43.004
478.36	42.326
478.70	42.819
479.05	42.834
479.40	42.591
479.75	41.437
480.10	42.510
480.45	41.151
480.79	42.744
481.14	42.148
481.49	42.691
481.84	42.811
482.19	42.394
482.53	42.898
482.88	42.288
483.23	42.300
483.58	42.923
483.92	42.953
484.27	42.003
484.62	42.808
484.97	41.270
485.31	40.928
485.66	40.142
486.01	40.533
486.36	41.816
486.70	42.913
487.05	42.058
487.40	41.934
487.75	41.915
488.09	41.291
488.44	41.982
488.79	41.387
489.13	41.993
489.48	42.700
489.83	43.275
490.17	41.881
490.52	44.203
490.87	42.402
491.22	42.737
491.56	43.796
491.91	43.082
492.26	43.491
492.60	42.959
492.95	43.503
493.30	43.116
493.64	42.266
493.99	43.499
494.34	44.143
494.68	44.429
495.03	43.451
495.37	43.265
495.72	44.204
496.07	43.782
496.41	43.817
496.76	42.648
497.11	43.759
497.45	43.822
497.80	44.122
498.14	43.369
498.49	43.697
498.84	43.641
499.18	45.273
499.53	44.228
499.87	43.533
500.22	43.627
500.56	44.472
500.91	44.187
501.26	44.347
501.60	43.813
501.95	44.734
502.29	43.316
502.64	44.083
502.98	43.507
503.33	44.126
503.67	43.487
504.02	44.375
504.36	44.167
504.71	43.414
505.06	44.383
505.40	45.010
505.75	44.004
506.09	44.894
506.44	44.662
506.78	44.405
507.13	44.902
507.47	44.914
507.82	44.863
508.16	45.233
508.51	44.668
508.85	43.271
509.19	44.689
509.54	44.873
509.88	45.798
510.23	44.811
510.57	46.243
510.92	45.972
511.26	45.189
511.61	44.330
511.95	44.450
512.30	45.739
512.64	43.907
512.98	44.719
513.33	44.756
513.67	44.891
514.02	44.519
514.36	44.875
514.70	46.010
515.05	45.340
515.39	44.983
515.74	46.073
516.08	45.591
516.42	45.892
516.77	46.332
517.11	45.195
517.46	46.591
517.80	46.390
518.14	44.626
518.49	45.786
518.83	45.341
519.17	45.944
519.52	44.939
519.86	46.237
520.20	46.822
520.55	46.646
520.89	45.585
521.23	45.910
521.58	45.831
521.92	46.865
522.26	46.286
522.61	46.895
522.95	45.182
523.29	45.831
523.64	45.222
523.98	46.976
524.32	46.009
524.66	45.963
525.01	45.729
525.35	46.907
525.69	44.893
526.04	46.867
526.38	47.804
526.72	45.722
527.06	47.396
527.41	46.667
527.75	46.403
528.09	46.923
528.43	46.230
528.78	46.231
529.12	46.863
529.46	47.229
529.80	45.965
530.15	46.169
530.49	46.119
530.83	47.872
531.17	47.340
531.51	46.952
531.86	47.005
532.20	47.233
532.54	46.858
532.88	47.036
533.22	46.725
533.57	47.258
533.91	44.569
534.25	46.512
534.59	45.472
534.93	46.297
535.27	47.011
535.62	46.547
535.96	45.831
536.30	45.681
536.64	46.680
536.98	46.610
537.32	47.616
537.66	46.096
538.01	46.804
538.35	46.959
538.69	46.725
539.03	45.836
539.37	45.775
539.71	45.964
540.05	46.744
540.39	47.715
540.73	47.063
541.07	46.516
541.42	45.712
541.76	44.718
542.10	47.468
542.44	46.569
542.78	45.387
543.12	46.504
543.46	45.685
543.80	45.284
544.14	44.795
544.48	45.866
544.82	46.820
545.16	46.076
545.50	45.828
545.84	47.705
546.18	45.631
546.52	47.084
546.86	47.009
547.20	47.679
547.54	46.143
547.88	45.587
548.22	44.954
548.56	46.025
548.90	46.226
549.24	46.741
549.58	45.166
549.92	47.915
550.26	47.471
550.60	46.444
550.94	46.423
551.28	48.232
551.62	47.194
551.96	46.310
552.30	46.551
552.64	45.672
552.98	46.251
553.32	45.960
553.66	46.431
554.00	46.553
554.34	46.354
554.68	46.272
555.02	47.106
555.36	47.160
555.69	46.418
556.03	46.175
556.37	47.937
556.71	45.956
557.05	47.376
557.39	46.251
557.73	47.848
558.07	48.003
558.41	47.120
558.75	47.452
559.08	46.304
559.42	46.554
559.76	48.696
560.10	46.980
560.44	48.121
560.78	47.390
561.12	46.101
561.45	45.959
561.79	46.411
562.13	46.774
562.47	46.849
562.81	46.464
563.15	46.326
563.48	47.408
563.82	46.450
564.16	46.856
564.50	46.774
564.84	45.569
565.17	46.883
565.51	46.675
565.85	46.721
566.19	47.628
566.52	47.554
566.86	46.839
567.20	46.731
567.54	47.785
567.88	45.394
568.21	45.973
568.55	45.334
568.89	44.930
569.23	44.887
569.56	44.220
569.90	44.414
570.24	44.795
570.57	43.445
570.91	44.339
571.25	42.996
571.59	44.021
571.92	42.143
572.26	43.259
572.60	43.034
572.93	42.335
573.27	42.226
573.61	42.042
573.95	42.629
574.28	42.828
574.62	42.298
574.96	42.622
575.29	42.099
575.63	42.421
575.97	42.907
576.30	42.450
576.64	41.932
576.98	42.249
577.31	43.027
577.65	42.809
577.98	42.454
578.32	42.770
578.66	42.472
578.99	42.465
579.33	42.753
579.67	42.354
580.00	41.840
580.34	42.368
580.67	42.363
581.01	41.545
581.35	42.689
581.68	41.775
582.02	42.409
582.35	42.398
582.69	42.926
583.02	42.927
583.36	42.731
583.70	43.446
584.03	43.454
584.37	42.219
584.70	43.193
585.04	42.304
585.37	42.029
585.71	41.824
586.04	42.604
586.38	42.181
586.72	42.813
587.05	42.283
587.39	42.010
587.72	42.872
588.06	42.724
588.39	43.065
588.73	42.547
589.06	43.095
589.40	44.040
589.73	43.414
590.07	43.700
590.40	42.878
590.73	43.343
591.07	44.180
591.40	44.021
591.74	43.658
592.07	44.505
592.41	43.057
592.74	42.890
593.08	43.495
593.41	42.928
593.75	42.565
594.08	43.853
594.41	44.473
594.75	43.715
595.08	43.872
595.42	43.497
595.75	43.660
596.09	43.500
596.42	44.435
596.75	44.459
597.09	45.147
597.42	43.736
597.75	44.818
598.09	44.103
598.42	43.924
598.76	43.314
599.09	42.818
599.42	43.137
599.76	43.526
600.09	44.275
600.42	42.993
600.76	44.181
601.09	43.676
601.42	43.134
601.76	44.003
602.09	44.458
602.42	43.745
602.76	43.332
603.09	44.315
603.42	44.682
603.76	44.077
604.09	43.652
604.42	43.797
604.76	44.134
605.09	44.394
605.42	44.592
605.75	44.674
606.09	43.960
606.42	43.821
606.75	43.624
607.09	44.067
607.42	43.662
607.75	43.444
608.08	44.645
608.42	44.324
608.75	43.037
609.08	44.228
609.41	44.893
609.75	44.076
610.08	45.294
610.41	44.193
610.74	44.149
611.07	45.233
611.41	43.671
611.74	44.987
612.07	45.113
612.40	44.136
612.73	44.050
613.07	44.524
613.40	46.360
613.73	45.668
614.06	45.579
614.39	44.983
614.72	45.196
615.06	44.022
615.39	44.221
615.72	45.845
616.05	44.285
616.38	46.140
616.71	45.225
617.05	46.019
617.38	45.882
617.71	45.516
618.04	46.708
618.37	45.660
618.70	47.197
619.03	44.821
619.36	47.075
619.69	47.452
620.03	44.559
620.36	47.257
620.69	46.949
621.02	46.575
621.35	48.145
621.68	47.049
622.01	47.087
622.34	47.360
622.67	46.953
623.00	46.060
623.33	47.239
623.66	45.643
623.99	48.045
624.32	46.949
624.65	46.210
624.99	46.453
625.32	46.407
625.65	47.086
625.98	47.261
626.31	47.471
626.64	46.025
626.97	46.575
627.30	45.787
627.63	46.287
627.96	47.694
628.29	47.610
628.62	48.902
628.95	48.720
629.28	46.617
629.61	46.712
629.94	48.488
630.26	49.205
630.59	48.342
630.92	47.648
631.25	46.774
631.58	47.937
