SpectraSuite Data File
++++++++++++++++++++++++++++++++++++
Date: Sat May 16 11:22:13 PDT 2015
User: schluterlab
Dark Spectrum Present: Yes
Reference Spectrum Present: Yes
Number of Sampled Component Spectra: 1
Spectrometers: USB2E3373
Integration Time (usec): 3000 (USB2E3373)
Spectra Averaged: 3 (USB2E3373)
Boxcar Smoothing: 0 (USB2E3373)
Correct for Electrical Dark: No (USB2E3373)
Strobe/Lamp Enabled: No (USB2E3373)
Correct for Detector Non-linearity: No (USB2E3373)
Correct for Stray Light: No (USB2E3373)
Number of Pixels in Processed Spectrum: 2048
>>>>>Begin Processed Spectral Data<<<<<
178.53	0.000
178.91	160.000
179.29	133.333
179.67	-1300.000
180.04	-100.000
180.42	1000.000
180.80	200.000
181.18	400.000
181.56	-62.500
181.94	1500.000
182.31	425.000
182.69	-61.538
183.07	-433.333
183.45	1300.000
183.83	666.667
184.20	-185.714
184.58	-150.000
184.96	-425.000
185.34	112.500
185.72	-275.000
186.09	150.000
186.47	-162.500
186.85	-100.000
187.23	-50.000
187.61	-125.000
187.98	-162.500
188.36	-62.500
188.74	-125.000
189.12	800.000
189.49	328.571
189.87	-41.667
190.25	550.000
190.63	-71.429
191.00	-177.778
191.38	460.000
191.76	20.000
192.14	280.000
192.51	-260.000
192.89	-533.333
193.27	0.000
193.65	-88.889
194.02	-242.857
194.40	466.667
194.78	-60.000
195.15	-1700.000
195.53	-100.000
195.91	-400.000
196.29	180.000
196.66	-133.333
197.04	1000.000
197.42	-350.000
197.79	46.667
198.17	-500.000
198.55	50.000
198.92	-1400.000
199.30	362.500
199.68	-300.000
200.05	-122.222
200.43	-166.667
200.81	-1900.000
201.18	-100.000
201.56	171.429
201.94	-13.333
202.31	27.273
202.69	-30.000
203.07	-80.000
203.44	400.000
203.82	-366.667
204.19	-450.000
204.57	-325.000
204.95	-1700.000
205.32	-25.000
205.70	800.000
206.08	-1700.000
206.45	-44.444
206.83	-650.000
207.20	-250.000
207.58	-733.333
207.96	-233.333
208.33	-137.500
208.71	-122.222
209.08	250.000
209.46	-171.429
209.84	750.000
210.21	0.000
210.59	0.000
210.96	700.000
211.34	-266.667
211.71	-266.667
212.09	450.000
212.46	900.000
212.84	-2200.000
213.22	733.333
213.59	175.000
213.97	33.333
214.34	150.000
214.72	-70.000
215.09	-133.333
215.47	-33.333
215.84	-90.000
216.22	-220.000
216.59	6.667
216.97	-475.000
217.34	800.000
217.72	-185.714
218.09	-116.667
218.47	-214.286
218.84	142.857
219.22	14.286
219.59	0.000
219.97	242.857
220.34	525.000
220.72	150.000
221.09	-53.846
221.47	0.000
221.84	433.333
222.22	-550.000
222.59	200.000
222.97	-125.000
223.34	-850.000
223.72	-633.333
224.09	-121.429
224.46	-125.000
224.84	0.000
225.21	-171.429
225.59	-36.364
225.96	-87.500
226.34	-71.429
226.71	-133.333
227.08	5.000
227.46	2000.000
227.83	-57.143
228.21	-262.500
228.58	-300.000
228.95	-50.000
229.33	-1000.000
229.70	-80.000
230.08	-1050.000
230.45	8.333
230.82	-133.333
231.20	-900.000
231.57	-550.000
231.95	2000.000
232.32	-14.286
232.69	-100.000
233.07	-242.857
233.44	-800.000
233.81	-13.333
234.19	-111.111
234.56	-62.500
234.93	-9.375
235.31	-214.286
235.68	-150.000
236.05	-88.235
236.43	-86.364
236.80	0.000
237.17	-45.833
237.55	-33.333
237.92	-118.182
238.29	-17.143
238.67	5.882
239.04	-22.222
239.41	-48.387
239.79	-46.154
240.16	-38.095
240.53	-12.727
240.91	-15.385
241.28	-3.636
241.65	10.769
242.02	-9.836
242.40	-32.787
242.77	-10.606
243.14	-15.254
243.51	-31.429
243.89	-10.127
244.26	-23.596
244.63	2.105
245.00	-6.316
245.38	-5.085
245.75	-5.310
246.12	-8.000
246.49	1.575
246.87	-11.382
247.24	-16.102
247.61	-16.949
247.98	-5.634
248.36	-11.888
248.73	-4.430
249.10	-11.465
249.47	-4.094
249.84	-4.545
250.22	-13.095
250.59	3.390
250.96	2.618
251.33	3.318
251.70	-4.327
252.08	-2.370
252.45	-8.531
252.82	-5.238
253.19	-3.404
253.56	-2.823
253.94	-2.110
254.31	-3.863
254.68	0.813
255.05	-5.645
255.42	-0.397
255.79	-6.810
256.16	-3.922
256.54	-4.044
256.91	-1.894
257.28	-8.059
257.65	-3.901
258.02	5.031
258.39	-2.341
258.76	0.676
259.14	-4.321
259.51	0.328
259.88	-3.963
260.25	1.242
260.62	-1.286
260.99	-3.264
261.36	-1.524
261.73	-0.578
262.10	1.389
262.47	-2.849
262.85	3.429
263.22	-3.152
263.59	-3.692
263.96	-2.609
264.33	-1.897
264.70	-1.381
265.07	-2.747
265.44	-2.584
265.81	-2.067
266.18	-4.304
266.55	-1.716
266.92	1.008
267.29	1.211
267.66	-3.457
268.03	0.483
268.40	0.235
268.77	-0.482
269.14	-1.856
269.51	-1.609
269.88	-2.982
270.25	-5.361
270.62	-0.458
270.99	-0.676
271.36	-1.166
271.73	-2.691
272.10	-1.602
272.47	-3.333
272.84	-0.222
273.21	-1.376
273.58	1.978
273.95	-2.851
274.32	-1.131
274.69	-1.532
275.06	-0.204
275.43	-2.232
275.80	1.629
276.17	0.000
276.54	2.037
276.91	-1.029
277.28	-1.014
277.65	-3.512
278.02	-0.418
278.39	0.982
278.76	-1.195
279.13	0.198
279.50	-1.988
279.87	-2.960
280.23	0.000
280.60	-2.982
280.97	-2.136
281.34	-0.580
281.71	0.769
282.08	-0.202
282.45	-1.018
282.82	-0.581
283.19	-2.727
283.56	2.015
283.92	-1.060
284.29	-0.929
284.66	-1.978
285.03	-0.357
285.40	1.107
285.77	-0.526
286.14	-1.986
286.51	-1.421
286.87	-1.089
287.24	-0.683
287.61	-0.826
287.98	-0.520
288.35	-2.479
288.72	-2.037
289.08	-1.186
289.45	-0.337
289.82	-1.211
290.19	1.314
290.56	-2.149
290.93	0.318
291.29	-0.648
291.66	-1.610
292.03	0.785
292.40	0.602
292.77	-1.708
293.13	-0.813
293.50	0.297
293.87	0.767
294.24	-0.151
294.60	-0.606
294.97	-0.152
295.34	-0.741
295.71	-2.530
296.08	-2.611
296.44	-0.572
296.81	0.285
297.18	-0.563
297.55	-0.706
297.91	1.395
298.28	-0.822
298.65	-0.697
299.02	0.802
299.38	0.535
299.75	-1.766
300.12	1.154
300.48	0.256
300.85	-1.442
301.22	0.906
301.59	0.520
301.95	1.259
302.32	-1.956
302.69	1.714
303.05	-0.855
303.42	-0.750
303.79	1.077
304.15	2.370
304.52	-0.117
304.89	1.417
305.25	0.366
305.62	-0.353
305.99	1.296
306.35	1.221
306.72	-0.683
307.09	1.022
307.45	1.135
307.82	-0.894
308.19	1.566
308.55	0.763
308.92	0.430
309.29	1.189
309.65	1.060
310.02	1.188
310.38	1.189
310.75	2.049
311.12	1.963
311.48	2.401
311.85	1.236
312.22	1.751
312.58	2.238
312.95	2.854
313.31	2.597
313.68	1.005
314.05	2.473
314.41	0.905
314.78	1.698
315.14	2.962
315.51	1.418
315.87	3.098
316.24	2.041
316.61	3.551
316.97	2.289
317.34	2.794
317.70	2.412
318.07	3.451
318.43	2.715
318.80	3.380
319.16	2.251
319.53	3.383
319.89	3.857
320.26	3.529
320.62	3.269
320.99	4.080
321.35	2.463
321.72	3.275
322.08	3.363
322.45	3.663
322.81	3.554
323.18	4.611
323.54	4.898
323.91	5.005
324.27	5.513
324.64	5.759
325.00	6.283
325.37	5.792
325.73	7.787
326.10	4.163
326.46	6.392
326.83	6.723
327.19	7.173
327.56	7.411
327.92	6.882
328.29	7.965
328.65	6.727
329.01	8.481
329.38	8.118
329.74	9.066
330.11	8.885
330.47	9.173
330.84	8.983
331.20	8.664
331.56	8.933
331.93	9.147
332.29	9.772
332.66	10.536
333.02	9.050
333.38	9.588
333.75	9.795
334.11	10.489
334.48	8.738
334.84	11.374
335.20	9.574
335.57	9.928
335.93	10.295
336.29	11.072
336.66	9.075
337.02	11.081
337.38	9.537
337.75	10.887
338.11	10.465
338.47	11.299
338.84	10.345
339.20	9.666
339.56	11.408
339.93	10.229
340.29	10.540
340.65	9.965
341.02	11.298
341.38	11.205
341.74	11.262
342.11	10.666
342.47	11.159
342.83	10.160
343.20	9.821
343.56	10.041
343.92	11.937
344.28	10.849
344.65	10.561
345.01	10.672
345.37	11.794
345.73	9.002
346.10	10.057
346.46	10.804
346.82	10.425
347.19	9.778
347.55	10.353
347.91	11.654
348.27	10.103
348.63	10.985
349.00	10.979
349.36	9.680
349.72	12.022
350.08	10.265
350.45	10.087
350.81	10.987
351.17	10.772
351.53	9.467
351.89	10.590
352.26	11.705
352.62	12.750
352.98	10.601
353.34	10.791
353.70	10.116
354.07	11.487
354.43	11.621
354.79	10.697
355.15	10.224
355.51	11.250
355.87	10.356
356.24	9.849
356.60	12.409
356.96	11.393
357.32	10.214
357.68	10.038
358.04	11.470
358.40	10.131
358.77	10.896
359.13	11.936
359.49	10.809
359.85	11.204
360.21	11.263
360.57	11.596
360.93	11.778
361.29	11.211
361.66	10.595
362.02	10.799
362.38	11.959
362.74	11.575
363.10	10.976
363.46	12.037
363.82	11.152
364.18	12.156
364.54	13.152
364.90	11.391
365.26	11.412
365.62	11.618
365.98	12.447
366.35	12.676
366.71	12.403
367.07	11.997
367.43	13.521
367.79	12.096
368.15	11.878
368.51	13.916
368.87	13.462
369.23	12.561
369.59	12.361
369.95	12.403
370.31	13.643
370.67	12.509
371.03	13.047
371.39	12.023
371.75	12.661
372.11	13.917
372.47	13.232
372.83	13.421
373.19	12.714
373.55	14.004
373.91	13.300
374.27	13.005
374.63	13.596
374.99	14.047
375.35	14.670
375.71	14.922
376.07	13.621
376.42	13.245
376.78	14.771
377.14	14.169
377.50	14.313
377.86	14.564
378.22	14.384
378.58	15.009
378.94	15.043
379.30	14.808
379.66	15.786
380.02	15.033
380.38	14.562
380.74	14.713
381.09	16.403
381.45	15.274
381.81	15.547
382.17	15.664
382.53	15.380
382.89	16.866
383.25	15.593
383.61	15.743
383.97	15.860
384.32	16.521
384.68	16.203
385.04	17.029
385.40	16.433
385.76	17.622
386.12	16.677
386.48	16.832
386.83	17.117
387.19	17.274
387.55	17.081
387.91	17.487
388.27	16.043
388.62	17.909
388.98	16.899
389.34	17.136
389.70	16.931
390.06	17.589
390.42	18.013
390.77	17.161
391.13	17.143
391.49	18.964
391.85	18.329
392.20	17.233
392.56	17.960
392.92	18.026
393.28	19.173
393.64	17.619
393.99	18.092
394.35	18.552
394.71	18.592
395.07	18.832
395.42	17.223
395.78	18.290
396.14	18.567
396.50	17.676
396.85	18.384
397.21	17.861
397.57	18.116
397.92	19.496
398.28	18.889
398.64	18.858
399.00	19.326
399.35	18.940
399.71	19.628
400.07	19.463
400.42	18.917
400.78	18.247
401.14	18.323
401.49	18.691
401.85	18.853
402.21	18.653
402.57	19.114
402.92	19.509
403.28	18.750
403.63	18.514
403.99	18.894
404.35	18.901
404.70	18.549
405.06	19.666
405.42	18.204
405.77	17.477
406.13	18.569
406.49	18.694
406.84	18.896
407.20	19.317
407.55	19.253
407.91	18.523
408.27	18.995
408.62	18.821
408.98	19.163
409.34	18.160
409.69	19.471
410.05	19.406
410.40	19.620
410.76	19.087
411.11	19.077
411.47	19.309
411.83	19.254
412.18	19.616
412.54	19.036
412.89	18.591
413.25	18.123
413.60	17.740
413.96	18.546
414.31	19.511
414.67	19.111
415.03	18.111
415.38	19.844
415.74	19.716
416.09	19.693
416.45	19.180
416.80	19.896
417.16	18.339
417.51	19.567
417.87	19.935
418.22	19.027
418.58	19.833
418.93	20.294
419.29	19.636
419.64	18.153
420.00	18.955
420.35	19.279
420.71	19.688
421.06	20.710
421.42	19.379
421.77	19.989
422.12	19.250
422.48	19.188
422.83	19.590
423.19	20.100
423.54	20.115
423.90	19.375
424.25	19.400
424.61	20.024
424.96	21.123
425.31	19.564
425.67	19.885
426.02	19.966
426.38	20.508
426.73	20.164
427.09	21.140
427.44	20.852
427.79	19.651
428.15	21.364
428.50	20.293
428.85	19.964
429.21	19.701
429.56	19.635
429.92	20.441
430.27	20.638
430.62	20.637
430.98	19.916
431.33	21.185
431.68	21.340
432.04	20.593
432.39	20.798
432.74	20.803
433.10	21.441
433.45	21.128
433.80	20.661
434.16	21.010
434.51	21.096
434.86	21.910
435.22	21.381
435.57	20.930
435.92	21.161
436.28	21.365
436.63	21.311
436.98	22.222
437.34	22.445
437.69	20.770
438.04	20.533
438.39	21.781
438.75	21.304
439.10	21.488
439.45	20.760
439.81	21.506
440.16	21.579
440.51	21.529
440.86	21.747
441.22	21.448
441.57	21.737
441.92	21.483
442.27	21.807
442.63	21.727
442.98	21.840
443.33	21.856
443.68	22.043
444.03	22.053
444.39	21.635
444.74	22.963
445.09	22.423
445.44	22.791
445.79	21.877
446.15	21.906
446.50	22.101
446.85	21.601
447.20	22.063
447.55	22.320
447.91	21.842
448.26	21.229
448.61	21.505
448.96	22.465
449.31	22.210
449.66	23.011
450.02	21.939
450.37	22.551
450.72	21.638
451.07	23.696
451.42	22.367
451.77	22.262
452.12	22.110
452.47	22.103
452.83	20.909
453.18	23.087
453.53	21.455
453.88	23.266
454.23	21.644
454.58	23.244
454.93	22.796
455.28	21.670
455.63	22.604
455.98	22.952
456.34	21.919
456.69	24.203
457.04	23.233
457.39	21.830
457.74	22.977
458.09	22.506
458.44	22.921
458.79	22.478
459.14	23.731
459.49	23.387
459.84	23.103
460.19	21.957
460.54	22.868
460.89	22.085
461.24	22.829
461.59	23.154
461.94	23.425
462.29	23.169
462.64	22.596
462.99	23.360
463.34	22.552
463.69	22.837
464.04	23.023
464.39	21.983
464.74	23.877
465.09	21.948
465.44	22.730
465.79	23.294
466.14	23.590
466.49	22.855
466.84	23.589
467.19	23.254
467.54	22.405
467.89	23.428
468.24	22.803
468.59	22.798
468.94	22.894
469.29	23.002
469.64	23.046
469.99	23.970
470.34	22.846
470.68	23.328
471.03	24.088
471.38	23.333
471.73	23.497
472.08	23.427
472.43	24.003
472.78	23.467
473.13	22.995
473.48	22.974
473.83	23.945
474.17	23.439
474.52	24.872
474.87	23.834
475.22	23.186
475.57	23.111
475.92	23.920
476.27	22.971
476.61	22.817
476.96	23.365
477.31	24.058
477.66	24.184
478.01	23.339
478.36	22.630
478.70	23.385
479.05	23.797
479.40	23.990
479.75	23.751
480.10	23.214
480.45	22.776
480.79	23.346
481.14	24.486
481.49	24.201
481.84	24.041
482.19	23.892
482.53	24.337
482.88	23.778
483.23	24.178
483.58	24.052
483.92	24.892
484.27	22.951
484.62	23.067
484.97	23.539
485.31	23.136
485.66	22.604
486.01	23.327
486.36	23.711
486.70	24.384
487.05	23.474
487.40	23.665
487.75	23.526
488.09	22.946
488.44	23.478
488.79	23.452
489.13	23.887
489.48	24.388
489.83	24.061
490.17	23.204
490.52	24.094
490.87	23.557
491.22	24.381
491.56	24.306
491.91	24.380
492.26	23.868
492.60	23.930
492.95	24.607
493.30	23.678
493.64	24.307
493.99	23.709
494.34	24.429
494.68	24.345
495.03	24.140
495.37	24.238
495.72	24.558
496.07	23.979
496.41	24.270
496.76	24.292
497.11	24.023
497.45	24.856
497.80	24.212
498.14	24.214
498.49	24.862
498.84	23.835
499.18	25.585
499.53	24.696
499.87	23.600
500.22	24.461
500.56	24.062
500.91	24.236
501.26	24.600
501.60	24.025
501.95	24.831
502.29	24.327
502.64	24.470
502.98	24.197
503.33	24.577
503.67	24.090
504.02	23.901
504.36	24.657
504.71	24.823
505.06	24.863
505.40	25.100
505.75	25.000
506.09	25.430
506.44	25.714
506.78	24.987
507.13	24.614
507.47	25.143
507.82	24.677
508.16	25.181
508.51	24.678
508.85	24.120
509.19	24.019
509.54	25.264
509.88	26.117
510.23	24.371
510.57	25.979
510.92	25.940
511.26	24.349
511.61	24.190
511.95	24.407
512.30	24.574
512.64	24.986
512.98	25.193
513.33	25.481
513.67	24.846
514.02	25.336
514.36	25.208
514.70	25.920
515.05	26.415
515.39	25.606
515.74	26.469
516.08	25.303
516.42	25.439
516.77	25.708
517.11	25.858
517.46	26.077
517.80	25.872
518.14	26.329
518.49	26.061
518.83	24.985
519.17	26.406
519.52	25.506
519.86	26.762
520.20	26.100
520.55	25.662
520.89	25.548
521.23	26.374
521.58	26.583
521.92	26.472
522.26	26.095
522.61	26.426
522.95	26.420
523.29	27.712
523.64	25.859
523.98	26.225
524.32	25.833
524.66	25.776
525.01	26.076
525.35	26.933
525.69	26.025
526.04	27.154
526.38	27.180
526.72	25.798
527.06	25.781
527.41	25.941
527.75	26.337
528.09	26.340
528.43	27.082
528.78	26.884
529.12	27.529
529.46	26.740
529.80	27.179
530.15	26.916
530.49	25.291
530.83	27.505
531.17	26.263
531.51	25.854
531.86	26.794
532.20	25.978
532.54	26.738
532.88	26.219
533.22	26.738
533.57	26.697
533.91	26.342
534.25	25.770
534.59	26.359
534.93	25.825
535.27	26.809
535.62	27.110
535.96	27.020
536.30	25.785
536.64	26.627
536.98	27.331
537.32	26.192
537.66	26.137
538.01	26.667
538.35	26.689
538.69	26.270
539.03	26.337
539.37	27.611
539.71	26.484
540.05	25.977
540.39	26.870
540.73	26.952
541.07	26.844
541.42	26.131
541.76	26.312
542.10	27.346
542.44	27.049
542.78	26.730
543.12	27.766
543.46	26.233
543.80	25.886
544.14	24.983
544.48	27.362
544.82	26.590
545.16	26.358
545.50	25.841
545.84	26.912
546.18	26.075
546.52	26.102
546.86	26.781
547.20	26.653
547.54	25.207
547.88	26.875
548.22	25.688
548.56	27.455
548.90	25.943
549.24	26.069
549.58	25.759
549.92	26.148
550.26	27.095
550.60	26.245
550.94	27.883
551.28	26.787
551.62	25.849
551.96	26.049
552.30	26.620
552.64	27.164
552.98	26.910
553.32	25.974
553.66	27.469
554.00	26.226
554.34	26.209
554.68	25.877
555.02	26.628
555.36	27.103
555.69	26.648
556.03	27.649
556.37	25.960
556.71	26.557
557.05	27.051
557.39	25.761
557.73	26.477
558.07	26.978
558.41	25.729
558.75	26.616
559.08	26.537
559.42	26.034
559.76	26.304
560.10	26.771
560.44	27.746
560.78	26.444
561.12	26.777
561.45	26.986
561.79	26.481
562.13	26.017
562.47	26.541
562.81	26.096
563.15	26.312
563.48	27.574
563.82	26.775
564.16	26.707
564.50	26.546
564.84	27.513
565.17	26.658
565.51	26.010
565.85	27.248
566.19	26.680
566.52	26.288
566.86	26.169
567.20	27.361
567.54	27.584
567.88	25.851
568.21	26.286
568.55	25.769
568.89	24.702
569.23	25.729
569.56	25.767
569.90	25.688
570.24	26.870
570.57	25.308
570.91	26.114
571.25	25.486
571.59	25.476
571.92	25.417
572.26	26.034
572.60	24.946
572.93	24.745
573.27	24.665
573.61	24.950
573.95	25.146
574.28	25.065
574.62	24.759
574.96	25.000
575.29	24.568
575.63	24.688
575.97	24.191
576.30	25.212
576.64	24.856
576.98	24.434
577.31	24.482
577.65	25.095
577.98	25.244
578.32	24.605
578.66	24.807
578.99	25.102
579.33	24.868
579.67	24.727
580.00	24.628
580.34	24.560
580.67	24.908
581.01	24.314
581.35	24.995
581.68	24.618
582.02	24.894
582.35	24.514
582.69	25.096
583.02	25.486
583.36	25.286
583.70	24.936
584.03	25.485
584.37	24.871
584.70	25.192
585.04	25.443
585.37	24.487
585.71	24.843
586.04	25.152
586.38	24.566
586.72	25.113
587.05	25.177
587.39	24.966
587.72	24.980
588.06	24.814
588.39	25.150
588.73	25.015
589.06	25.512
589.40	26.348
589.73	25.142
590.07	25.237
590.40	25.683
590.73	26.110
591.07	25.533
591.40	25.260
591.74	25.760
592.07	25.946
592.41	25.350
592.74	24.904
593.08	25.472
593.41	25.559
593.75	24.497
594.08	25.521
594.41	25.656
594.75	25.444
595.08	25.263
595.42	25.686
595.75	25.211
596.09	25.883
596.42	25.614
596.75	25.054
597.09	25.423
597.42	25.142
597.75	25.731
598.09	25.350
598.42	25.806
598.76	25.291
599.09	25.888
599.42	25.490
599.76	25.066
600.09	25.649
600.42	25.864
600.76	25.612
601.09	24.535
601.42	25.406
601.76	25.974
602.09	25.849
602.42	25.844
602.76	25.177
603.09	26.089
603.42	25.262
603.76	25.888
604.09	25.591
604.42	25.812
604.76	25.992
605.09	25.859
605.42	25.887
605.75	25.097
606.09	25.737
606.42	25.388
606.75	25.977
607.09	26.070
607.42	25.044
607.75	25.342
608.08	26.390
608.42	25.970
608.75	24.907
609.08	26.011
609.41	25.212
609.75	25.646
610.08	25.539
610.41	25.301
610.74	26.112
611.07	25.304
611.41	24.760
611.74	25.707
612.07	26.101
612.40	25.053
612.73	25.633
613.07	26.032
613.40	26.054
613.73	25.123
614.06	25.645
614.39	26.268
614.72	25.531
615.06	25.870
615.39	25.231
615.72	26.344
616.05	24.848
616.38	26.291
616.71	25.285
617.05	26.236
617.38	26.316
617.71	24.939
618.04	25.776
618.37	26.415
618.70	26.206
619.03	25.322
619.36	26.357
619.69	25.915
620.03	24.862
620.36	25.879
620.69	26.131
621.02	26.256
621.35	26.371
621.68	26.803
622.01	26.942
622.34	27.252
622.67	26.094
623.00	26.855
623.33	27.164
623.66	25.185
623.99	26.090
624.32	25.074
624.65	25.828
624.99	26.512
625.32	25.973
625.65	26.807
625.98	27.074
626.31	25.938
626.64	26.946
626.97	25.771
627.30	26.979
627.63	24.611
627.96	26.284
628.29	26.195
628.62	25.979
628.95	26.476
629.28	25.094
629.61	26.791
629.94	25.992
630.26	26.740
630.59	28.040
630.92	25.926
631.25	27.117
631.58	28.148
631.91	25.000
632.24	27.889
632.57	27.444
632.90	27.816
633.23	26.636
633.56	26.433
633.89	28.538
634.22	27.037
