SpectraSuite Data File
++++++++++++++++++++++++++++++++++++
Date: Sat May 16 11:16:22 PDT 2015
User: schluterlab
Dark Spectrum Present: Yes
Reference Spectrum Present: Yes
Number of Sampled Component Spectra: 1
Spectrometers: USB2E3373
Integration Time (usec): 3000 (USB2E3373)
Spectra Averaged: 3 (USB2E3373)
Boxcar Smoothing: 0 (USB2E3373)
Correct for Electrical Dark: No (USB2E3373)
Strobe/Lamp Enabled: No (USB2E3373)
Correct for Detector Non-linearity: No (USB2E3373)
Correct for Stray Light: No (USB2E3373)
Number of Pixels in Processed Spectrum: 2048
>>>>>Begin Processed Spectral Data<<<<<
178.53	0.000
178.91	33.333
179.29	766.667
179.67	-200.000
180.04	-38.462
180.42	1400.000
180.80	225.000
181.18	225.000
181.56	-100.000
181.94	600.000
182.31	475.000
182.69	61.538
183.07	-266.667
183.45	950.000
183.83	300.000
184.20	28.571
184.58	-87.500
184.96	-325.000
185.34	137.500
185.72	-500.000
186.09	166.667
186.47	-150.000
186.85	-175.000
187.23	87.500
187.61	-125.000
187.98	-125.000
188.36	0.000
188.74	-175.000
189.12	1800.000
189.49	357.143
189.87	-91.667
190.25	325.000
190.63	-35.714
191.00	-66.667
191.38	280.000
191.76	66.667
192.14	400.000
192.51	-120.000
192.89	-400.000
193.27	0.000
193.65	-11.111
194.02	-228.571
194.40	266.667
194.78	-100.000
195.15	-800.000
195.53	-36.364
195.91	-233.333
196.29	-40.000
196.66	-600.000
197.04	900.000
197.42	-125.000
197.79	113.333
198.17	100.000
198.55	50.000
198.92	-1100.000
199.30	200.000
199.68	-750.000
200.05	-77.778
200.43	-77.778
200.81	-900.000
201.18	-133.333
201.56	157.143
201.94	-53.333
202.31	27.273
202.69	100.000
203.07	-40.000
203.44	300.000
203.82	-233.333
204.19	-275.000
204.57	150.000
204.95	-1100.000
205.32	62.500
205.70	900.000
206.08	-700.000
206.45	-27.778
206.83	-650.000
207.20	200.000
207.58	-500.000
207.96	-200.000
208.33	-150.000
208.71	-155.556
209.08	190.000
209.46	-142.857
209.84	100.000
210.21	0.000
210.59	65.000
210.96	100.000
211.34	-83.333
211.71	-166.667
212.09	175.000
212.46	900.000
212.84	-1700.000
213.22	500.000
213.59	200.000
213.97	-33.333
214.34	90.000
214.72	-90.000
215.09	-433.333
215.47	-16.667
215.84	60.000
216.22	-30.000
216.59	66.667
216.97	-300.000
217.34	950.000
217.72	-71.429
218.09	-216.667
218.47	-57.143
218.84	271.429
219.22	200.000
219.59	0.000
219.97	57.143
220.34	375.000
220.72	150.000
221.09	-7.692
221.47	0.000
221.84	500.000
222.22	-450.000
222.59	400.000
222.97	-125.000
223.34	-550.000
223.72	-466.667
224.09	-71.429
224.46	-325.000
224.84	14.286
225.21	-57.143
225.59	18.182
225.96	12.500
226.34	-42.857
226.71	-55.556
227.08	0.000
227.46	1000.000
227.83	-85.714
228.21	-175.000
228.58	400.000
228.95	0.000
229.33	-800.000
229.70	20.000
230.08	-300.000
230.45	-16.667
230.82	-150.000
231.20	-900.000
231.57	0.000
231.95	500.000
232.32	14.286
232.69	-133.333
233.07	-285.714
233.44	-1200.000
233.81	-66.667
234.19	-66.667
234.56	-6.250
234.93	18.750
235.31	-242.857
235.68	-150.000
236.05	-70.588
236.43	-45.455
236.80	-41.935
237.17	29.167
237.55	-76.190
237.92	-31.818
238.29	-28.571
238.67	14.706
239.04	-8.333
239.41	-22.581
239.79	-20.513
240.16	-19.048
240.53	-10.909
240.91	-23.077
241.28	0.000
241.65	-9.231
242.02	-18.033
242.40	-22.951
242.77	-15.152
243.14	-22.034
243.51	-25.714
243.89	2.532
244.26	-11.236
244.63	-5.263
245.00	-7.368
245.38	0.847
245.75	2.655
246.12	-1.600
246.49	0.000
246.87	-11.382
247.24	-7.627
247.61	-8.475
247.98	-10.563
248.36	-2.098
248.73	-4.430
249.10	-4.459
249.47	0.000
249.84	-2.273
250.22	-10.714
250.59	-2.825
250.96	-0.524
251.33	8.531
251.70	-0.962
252.08	-0.948
252.45	-2.370
252.82	-5.238
253.19	-1.277
253.56	-4.435
253.94	-5.063
254.31	0.000
254.68	0.000
255.05	-4.032
255.42	-0.397
255.79	-3.226
256.16	1.961
256.54	0.000
256.91	-1.136
257.28	-5.128
257.65	-4.610
258.02	3.774
258.39	1.672
258.76	-2.027
259.14	-1.852
259.51	-1.311
259.88	-1.220
260.25	0.932
260.62	-4.180
260.99	-3.858
261.36	-1.524
261.73	0.289
262.10	0.833
262.47	-1.425
262.85	-1.429
263.22	-0.573
263.59	-2.462
263.96	-2.899
264.33	1.084
264.70	2.210
265.07	-0.824
265.44	-1.034
265.81	-1.034
266.18	-3.797
266.55	-1.471
266.92	0.504
267.29	-2.179
267.66	-2.963
268.03	1.208
268.40	1.643
268.77	0.000
269.14	-4.640
269.51	0.920
269.88	-0.459
270.25	-0.699
270.62	-0.229
270.99	-1.802
271.36	-3.263
271.73	-1.121
272.10	-2.746
272.47	-2.000
272.84	1.111
273.21	1.376
273.58	-1.538
273.95	-0.658
274.32	-1.131
274.69	-0.219
275.06	1.636
275.43	-1.786
275.80	0.407
276.17	-1.674
276.54	1.222
276.91	-1.440
277.28	-1.623
277.65	-2.273
278.02	1.253
278.39	-1.179
278.76	-2.191
279.13	-0.593
279.50	-0.596
279.87	-2.114
280.23	-0.405
280.60	-0.398
280.97	-2.913
281.34	-3.288
281.71	-0.577
282.08	-1.008
282.45	-2.240
282.82	-2.519
283.19	-0.364
283.56	-0.916
283.92	0.530
284.29	-2.416
284.66	-1.799
285.03	1.070
285.40	-2.583
285.77	0.351
286.14	1.444
286.51	0.533
286.87	-0.363
287.24	0.341
287.61	-1.157
287.98	-0.693
288.35	-0.331
288.72	-2.037
289.08	-2.203
289.45	-0.168
289.82	-1.903
290.19	0.000
290.56	-1.983
290.93	-2.067
291.29	-3.566
291.66	-1.932
292.03	0.000
292.40	0.904
292.77	-0.621
293.13	-0.163
293.50	1.040
293.87	-0.767
294.24	1.207
294.60	-1.818
294.97	0.303
295.34	-1.630
295.71	-0.744
296.08	-2.611
296.44	-1.144
296.81	0.142
297.18	-0.423
297.55	0.847
297.91	-0.418
298.28	-1.507
298.65	-0.279
299.02	0.535
299.38	-0.134
299.75	-0.951
300.12	-0.769
300.48	-0.128
300.85	-1.835
301.22	0.776
301.59	-0.520
301.95	-0.126
302.32	-1.043
302.69	0.000
303.05	-0.611
303.42	-1.500
303.79	-1.196
304.15	-0.355
304.52	-1.167
304.89	0.354
305.25	-0.366
305.62	-0.823
305.99	1.178
306.35	0.888
306.72	-0.911
307.09	1.476
307.45	-0.454
307.82	-0.447
308.19	0.224
308.55	0.871
308.92	-0.537
309.29	-0.541
309.65	0.000
310.02	0.000
310.38	-0.432
310.75	0.512
311.12	-0.207
311.48	1.044
311.85	0.515
312.22	1.236
312.58	0.712
312.95	0.408
313.31	1.499
313.68	1.508
314.05	3.165
314.41	0.101
314.78	0.699
315.14	0.987
315.51	1.114
315.87	1.646
316.24	1.361
316.61	2.399
316.97	1.095
317.34	1.349
317.70	1.391
318.07	2.052
318.43	1.498
318.80	2.817
319.16	1.032
319.53	1.598
319.89	1.129
320.26	1.569
320.62	2.404
320.99	3.781
321.35	0.985
321.72	1.331
322.08	2.473
322.45	1.485
322.81	3.074
323.18	3.362
323.54	2.495
323.91	3.800
324.27	3.327
324.64	3.291
325.00	4.625
325.37	2.805
325.73	5.074
326.10	3.543
326.46	5.429
326.83	5.617
327.19	5.338
327.56	5.792
327.92	5.692
328.29	5.714
328.65	4.273
329.01	6.095
329.38	6.244
329.74	7.051
330.11	6.800
330.47	4.995
330.84	7.241
331.20	6.588
331.56	7.019
331.93	6.039
332.29	6.941
332.66	7.199
333.02	7.964
333.38	7.258
333.75	6.857
334.11	7.200
334.48	6.178
334.84	8.399
335.20	7.624
335.57	7.130
335.93	9.221
336.29	7.174
336.66	6.872
337.02	7.568
337.38	6.595
337.75	7.989
338.11	7.245
338.47	6.851
338.84	7.623
339.20	7.821
339.56	9.269
339.93	7.231
340.29	7.086
340.65	8.217
341.02	8.179
341.38	7.666
341.74	7.621
342.11	7.509
342.47	6.438
342.83	7.305
343.20	7.857
343.56	6.204
343.92	8.013
344.28	7.990
344.65	7.013
345.01	7.479
345.37	8.638
345.73	6.956
346.10	6.296
346.46	6.661
346.82	7.298
347.19	7.149
347.55	6.421
347.91	8.031
348.27	5.887
348.63	8.239
349.00	7.717
349.36	5.855
349.72	8.280
350.08	7.458
350.45	6.856
350.81	7.564
351.17	6.672
351.53	6.683
351.89	8.327
352.26	7.907
352.62	8.141
352.98	7.674
353.34	7.434
353.70	6.873
354.07	7.081
354.43	7.984
354.79	7.052
355.15	7.827
355.51	7.266
355.87	7.036
356.24	6.831
356.60	8.058
356.96	8.314
357.32	6.334
357.68	7.126
358.04	8.314
358.40	7.193
358.77	7.419
359.13	7.192
359.49	8.012
359.85	7.698
360.21	7.306
360.57	7.982
360.93	8.519
361.29	8.371
361.66	6.631
362.02	6.953
362.38	7.777
362.74	8.278
363.10	7.317
363.46	8.974
363.82	8.017
364.18	7.742
364.54	8.363
364.90	7.617
365.26	7.846
365.62	8.696
365.98	8.321
366.35	9.014
366.71	8.104
367.07	8.539
367.43	8.648
367.79	7.835
368.15	8.108
368.51	8.531
368.87	8.516
369.23	8.632
369.59	7.847
369.95	8.739
370.31	9.916
370.67	7.303
371.03	8.163
371.39	8.699
371.75	8.870
372.11	8.250
372.47	8.749
372.83	8.345
373.19	9.000
373.55	9.008
373.91	8.962
374.27	8.487
374.63	8.420
374.99	9.736
375.35	8.748
375.71	9.723
376.07	8.077
376.42	8.146
376.78	10.588
377.14	9.220
377.50	9.155
377.86	8.843
378.22	9.548
378.58	9.821
378.94	8.693
379.30	9.872
379.66	9.957
380.02	10.042
380.38	9.486
380.74	9.965
381.09	9.315
381.45	9.845
381.81	9.558
382.17	9.211
382.53	9.058
382.89	9.988
383.25	10.897
383.61	10.436
383.97	10.594
384.32	10.013
384.68	11.245
385.04	10.024
385.40	10.103
385.76	11.159
386.12	10.618
386.48	10.767
386.83	10.552
387.19	10.759
387.55	10.176
387.91	10.611
388.27	10.555
388.62	10.877
388.98	10.478
389.34	10.588
389.70	10.536
390.06	10.938
390.42	11.218
390.77	11.420
391.13	11.304
391.49	11.291
391.85	11.222
392.20	11.286
392.56	10.935
392.92	11.010
393.28	11.653
393.64	11.185
393.99	11.754
394.35	11.861
394.71	11.489
395.07	12.241
395.42	10.787
395.78	11.062
396.14	11.464
396.50	10.887
396.85	11.228
397.21	11.604
397.57	12.705
397.92	11.768
398.28	11.944
398.64	11.481
399.00	11.966
399.35	11.105
399.71	11.963
400.07	12.119
400.42	12.165
400.78	11.747
401.14	11.856
401.49	12.500
401.85	12.325
402.21	12.455
402.57	11.529
402.92	12.524
403.28	12.194
403.63	11.744
403.99	11.746
404.35	11.171
404.70	11.469
405.06	12.168
405.42	11.808
405.77	11.652
406.13	12.266
406.49	11.803
406.84	11.518
407.20	12.603
407.55	12.160
407.91	11.528
408.27	12.561
408.62	13.049
408.98	12.250
409.34	12.188
409.69	12.791
410.05	12.250
410.40	11.097
410.76	12.033
411.11	11.409
411.47	12.084
411.83	12.469
412.18	11.881
412.54	11.775
412.89	12.758
413.25	11.983
413.60	12.272
413.96	11.830
414.31	12.232
414.67	11.873
415.03	12.549
415.38	13.077
415.74	11.662
416.09	12.276
416.45	11.640
416.80	13.329
417.16	11.362
417.51	12.344
417.87	11.845
418.22	12.642
418.58	11.938
418.93	13.059
419.29	12.359
419.64	12.060
420.00	12.697
420.35	11.768
420.71	11.465
421.06	12.959
421.42	12.939
421.77	12.451
422.12	12.703
422.48	12.186
422.83	13.041
423.19	12.918
423.54	12.853
423.90	12.319
424.25	12.613
424.61	13.510
424.96	12.873
425.31	12.241
425.67	12.321
426.02	12.392
426.38	12.886
426.73	12.858
427.09	12.561
427.44	12.670
427.79	12.791
428.15	13.764
428.50	13.255
428.85	11.631
429.21	12.507
429.56	12.708
429.92	12.024
430.27	12.363
430.62	13.845
430.98	12.703
431.33	12.273
431.68	13.405
432.04	12.703
432.39	13.219
432.74	13.789
433.10	13.225
433.45	13.011
433.80	12.878
434.16	13.326
434.51	12.986
434.86	13.591
435.22	12.806
435.57	12.301
435.92	13.599
436.28	13.531
436.63	12.776
436.98	12.887
437.34	13.644
437.69	12.252
438.04	13.159
438.39	14.200
438.75	12.864
439.10	13.548
439.45	12.070
439.81	13.253
440.16	13.685
440.51	13.353
440.86	12.724
441.22	12.272
441.57	13.211
441.92	12.992
442.27	13.366
442.63	13.305
442.98	12.698
443.33	13.015
443.68	12.715
444.03	13.114
444.39	13.265
444.74	13.161
445.09	13.322
445.44	13.450
445.79	12.494
446.15	13.746
446.50	13.010
446.85	13.289
447.20	13.330
447.55	13.149
447.91	13.532
448.26	12.626
448.61	12.281
448.96	13.165
449.31	13.472
449.66	13.108
450.02	12.576
450.37	13.507
450.72	12.599
451.07	13.576
451.42	13.383
451.77	12.986
452.12	13.290
452.47	12.972
452.83	13.337
453.18	13.662
453.53	13.619
453.88	13.995
454.23	12.031
454.58	14.046
454.93	14.295
455.28	13.257
455.63	13.452
455.98	14.578
456.34	13.278
456.69	13.258
457.04	14.075
457.39	12.261
457.74	13.644
458.09	14.385
458.44	13.799
458.79	13.117
459.14	13.634
459.49	13.854
459.84	13.828
460.19	13.604
460.54	13.370
460.89	13.565
461.24	13.358
461.59	13.716
461.94	14.322
462.29	13.877
462.64	13.966
462.99	13.387
463.34	13.639
463.69	12.913
464.04	13.298
464.39	13.978
464.74	13.830
465.09	12.748
465.44	13.311
465.79	13.649
466.14	13.694
466.49	14.277
466.84	14.226
467.19	13.529
467.54	13.418
467.89	14.118
468.24	13.777
468.59	13.741
468.94	13.698
469.29	12.930
469.64	13.949
469.99	14.720
470.34	13.026
470.68	13.735
471.03	13.627
471.38	13.611
471.73	13.497
472.08	14.257
472.43	13.385
472.78	13.333
473.13	12.922
473.48	13.976
473.83	13.586
474.17	14.650
474.52	14.194
474.87	14.103
475.22	13.569
475.57	13.333
475.92	13.391
476.27	12.914
476.61	13.521
476.96	13.807
477.31	13.671
477.66	14.112
478.01	13.830
478.36	13.515
478.70	13.508
479.05	13.899
479.40	14.041
479.75	13.609
480.10	14.137
480.45	12.863
480.79	13.475
481.14	14.701
481.49	13.214
481.84	13.638
482.19	14.116
482.53	13.778
482.88	13.384
483.23	13.991
483.58	14.477
483.92	14.238
484.27	13.381
484.62	13.477
484.97	13.406
485.31	13.344
485.66	14.168
486.01	13.879
486.36	14.286
486.70	14.708
487.05	13.403
487.40	13.782
487.75	13.953
488.09	13.589
488.44	13.633
488.79	13.796
489.13	13.427
489.48	14.111
489.83	13.886
490.17	14.018
490.52	14.266
490.87	13.303
491.22	13.732
491.56	13.796
491.91	14.838
492.26	13.585
492.60	13.559
492.95	13.851
493.30	13.816
493.64	13.258
493.99	14.149
494.34	14.286
494.68	14.466
495.03	12.954
495.37	13.963
495.72	13.851
496.07	13.562
496.41	14.590
496.76	13.836
497.11	13.895
497.45	13.889
497.80	13.807
498.14	14.047
498.49	13.410
498.84	13.398
499.18	14.035
499.53	13.590
499.87	13.900
500.22	14.118
500.56	13.807
500.91	13.793
501.26	14.022
501.60	13.722
501.95	14.010
502.29	14.360
502.64	14.710
502.98	13.704
503.33	13.534
503.67	13.745
504.02	14.099
504.36	13.529
504.71	13.678
505.06	13.180
505.40	14.870
505.75	14.126
506.09	14.105
506.44	14.637
506.78	13.999
507.13	14.006
507.47	13.772
507.82	14.455
508.16	14.456
508.51	13.910
508.85	13.975
509.19	14.129
509.54	14.112
509.88	14.362
510.23	14.308
510.57	14.339
510.92	15.145
511.26	13.397
511.61	14.147
511.95	14.763
512.30	14.129
512.64	13.578
512.98	14.081
513.33	14.607
513.67	14.182
514.02	14.206
514.36	14.515
514.70	13.978
515.05	14.122
515.39	14.475
515.74	15.474
516.08	14.870
516.42	14.618
516.77	13.865
517.11	14.874
517.46	14.713
517.80	14.922
518.14	14.312
518.49	14.226
518.83	13.887
519.17	14.861
519.52	14.054
519.86	14.636
520.20	15.281
520.55	14.523
520.89	14.652
521.23	14.835
521.58	14.483
521.92	15.136
522.26	14.603
522.61	14.829
522.95	13.593
523.29	15.737
523.64	14.678
523.98	14.449
524.32	15.085
524.66	14.596
525.01	13.616
525.35	14.755
525.69	14.509
526.04	15.731
526.38	15.213
526.72	14.687
527.06	15.299
527.41	14.983
527.75	14.191
528.09	14.891
528.43	15.016
528.78	14.950
529.12	15.365
529.46	14.369
529.80	14.848
530.15	15.325
530.49	15.071
530.83	15.848
531.17	15.286
531.51	13.932
531.86	14.154
532.20	15.655
532.54	16.511
532.88	15.086
533.22	15.709
533.57	15.731
533.91	15.481
534.25	14.331
534.59	14.678
534.93	15.370
535.27	15.670
535.62	15.793
535.96	15.449
536.30	15.838
536.64	15.073
536.98	14.901
537.32	14.720
537.66	16.022
538.01	15.258
538.35	15.878
538.69	14.840
539.03	15.708
539.37	15.569
539.71	15.677
540.05	14.736
540.39	15.235
540.73	15.342
541.07	14.754
541.42	14.787
541.76	14.485
542.10	15.463
542.44	15.723
542.78	15.197
543.12	15.343
543.46	14.041
543.80	15.050
544.14	14.775
544.48	15.289
544.82	15.900
545.16	15.895
545.50	14.468
545.84	15.229
546.18	16.227
546.52	15.505
546.86	14.316
547.20	15.541
547.54	14.463
547.88	15.727
548.22	14.286
548.56	14.162
548.90	14.690
549.24	14.506
549.58	14.749
549.92	15.901
550.26	15.607
550.60	14.865
550.94	14.964
551.28	15.199
551.62	14.771
551.96	14.978
552.30	14.913
552.64	13.934
552.98	16.258
553.32	15.440
553.66	16.078
554.00	15.494
554.34	14.007
554.68	14.035
555.02	15.051
555.36	14.378
555.69	14.542
556.03	15.158
556.37	15.718
556.71	15.390
557.05	14.708
557.39	14.699
557.73	15.463
558.07	14.996
558.41	14.884
558.75	15.057
559.08	13.619
559.42	14.625
559.76	15.414
560.10	15.063
560.44	15.968
560.78	15.518
561.12	14.217
561.45	15.479
561.79	15.331
562.13	15.217
562.47	14.566
562.81	15.134
563.15	13.926
563.48	15.688
563.82	15.416
564.16	13.590
564.50	15.188
564.84	15.278
565.17	15.053
565.51	14.928
565.85	14.537
566.19	14.954
566.52	15.329
566.86	15.360
567.20	15.315
567.54	16.598
567.88	15.075
568.21	15.548
568.55	15.164
568.89	15.606
569.23	14.438
569.56	15.216
569.90	15.106
570.24	15.784
570.57	15.220
570.91	15.097
571.25	15.759
571.59	15.673
571.92	15.119
572.26	15.339
572.60	15.048
572.93	14.772
573.27	14.817
573.61	14.798
573.95	15.460
574.28	15.510
574.62	15.480
574.96	15.130
575.29	15.244
575.63	15.503
575.97	14.860
576.30	14.744
576.64	15.457
576.98	15.078
577.31	15.137
577.65	15.120
577.98	15.300
578.32	14.839
578.66	14.835
578.99	14.736
579.33	14.695
579.67	15.242
580.00	14.980
580.34	15.191
580.67	15.004
581.01	14.717
581.35	15.211
581.68	14.695
582.02	15.458
582.35	15.222
582.69	15.073
583.02	15.208
583.36	14.990
583.70	15.079
584.03	14.925
584.37	14.750
584.70	14.935
585.04	15.063
585.37	14.463
585.71	15.022
586.04	14.970
586.38	14.675
586.72	14.994
587.05	14.982
587.39	15.105
587.72	14.521
588.06	15.076
588.39	14.925
588.73	14.997
589.06	15.409
589.40	15.459
589.73	15.297
590.07	14.822
590.40	14.834
590.73	14.514
591.07	15.902
591.40	15.208
591.74	14.335
592.07	14.865
592.41	14.480
592.74	15.450
593.08	15.311
593.41	15.099
593.75	14.606
594.08	14.738
594.41	15.268
594.75	15.138
595.08	15.226
595.42	15.210
595.75	14.627
596.09	14.707
596.42	15.098
596.75	14.532
597.09	15.494
597.42	14.579
597.75	14.836
598.09	14.822
598.42	15.024
598.76	14.452
599.09	14.601
599.42	14.494
599.76	14.874
600.09	15.267
600.42	15.154
600.76	14.765
601.09	14.926
601.42	14.958
601.76	15.693
602.09	14.560
602.42	15.103
602.76	14.707
603.09	14.637
603.42	14.786
603.76	15.158
604.09	14.978
604.42	14.821
604.76	15.438
605.09	14.331
605.42	15.027
605.75	15.222
606.09	14.653
606.42	14.411
606.75	15.286
607.09	15.130
607.42	14.833
607.75	14.614
608.08	15.454
608.42	15.043
608.75	15.093
609.08	14.515
609.41	14.599
609.75	15.261
610.08	15.294
610.41	15.229
610.74	14.749
611.07	14.249
611.41	14.523
611.74	15.527
612.07	15.145
612.40	14.712
612.73	15.132
613.07	14.309
613.40	15.435
613.73	15.531
614.06	14.772
614.39	15.558
614.72	14.581
615.06	15.109
615.39	14.596
615.72	15.100
616.05	14.522
616.38	15.322
616.71	14.595
617.05	15.440
617.38	15.480
617.71	14.066
618.04	14.783
618.37	15.283
618.70	16.232
619.03	14.421
619.36	15.081
619.69	15.937
620.03	15.083
620.36	14.276
620.69	15.291
621.02	13.851
621.35	14.274
621.68	14.754
622.01	14.806
622.34	14.907
622.67	14.922
623.00	14.920
623.33	16.045
623.66	14.919
623.99	14.511
624.32	14.211
624.65	14.717
624.99	14.264
625.32	14.746
625.65	15.152
625.98	13.928
626.31	14.682
626.64	14.895
626.97	14.127
627.30	15.489
627.63	13.472
627.96	14.273
628.29	14.338
628.62	14.040
628.95	14.075
629.28	14.944
629.61	15.309
629.94	15.217
630.26	14.811
630.59	15.075
630.92	14.314
631.25	15.625
631.58	15.132
631.91	13.191
632.24	14.778
632.57	14.000
632.90	14.598
633.23	14.252
633.56	13.801
633.89	14.387
634.22	15.230
634.55	16.106
634.88	15.478
635.20	14.732
635.53	13.104
635.86	14.736
636.19	15.018
636.52	15.771
636.85	14.200
637.18	12.875
637.51	15.737
637.83	14.913
