SpectraSuite Data File
++++++++++++++++++++++++++++++++++++
Date: Sat May 16 11:11:50 PDT 2015
User: schluterlab
Dark Spectrum Present: Yes
Reference Spectrum Present: Yes
Number of Sampled Component Spectra: 1
Spectrometers: USB2E3373
Integration Time (usec): 3000 (USB2E3373)
Spectra Averaged: 3 (USB2E3373)
Boxcar Smoothing: 0 (USB2E3373)
Correct for Electrical Dark: No (USB2E3373)
Strobe/Lamp Enabled: No (USB2E3373)
Correct for Detector Non-linearity: No (USB2E3373)
Correct for Stray Light: No (USB2E3373)
Number of Pixels in Processed Spectrum: 2048
>>>>>Begin Processed Spectral Data<<<<<
178.53	0.000
178.91	86.667
179.29	100.000
179.67	200.000
180.04	30.769
180.42	300.000
180.80	75.000
181.18	200.000
181.56	50.000
181.94	300.000
182.31	275.000
182.69	38.462
183.07	-100.000
183.45	850.000
183.83	366.667
184.20	28.571
184.58	-112.500
184.96	0.000
185.34	87.500
185.72	-425.000
186.09	50.000
186.47	-75.000
186.85	50.000
187.23	37.500
187.61	100.000
187.98	-312.500
188.36	-62.500
188.74	-87.500
189.12	400.000
189.49	185.714
189.87	25.000
190.25	150.000
190.63	71.429
191.00	-144.444
191.38	220.000
191.76	26.667
192.14	520.000
192.51	-260.000
192.89	-233.333
193.27	0.000
193.65	-55.556
194.02	-128.571
194.40	666.667
194.78	-70.000
195.15	100.000
195.53	0.000
195.91	-300.000
196.29	100.000
196.66	-400.000
197.04	1700.000
197.42	0.000
197.79	60.000
198.17	-266.667
198.55	-150.000
198.92	-100.000
199.30	162.500
199.68	-650.000
200.05	77.778
200.43	-55.556
200.81	-900.000
201.18	-125.000
201.56	200.000
201.94	13.333
202.31	40.909
202.69	120.000
203.07	-80.000
203.44	233.333
203.82	-183.333
204.19	-275.000
204.57	225.000
204.95	-400.000
205.32	-6.250
205.70	-100.000
206.08	-1200.000
206.45	22.222
206.83	-300.000
207.20	950.000
207.58	-433.333
207.96	166.667
208.33	-12.500
208.71	-66.667
209.08	140.000
209.46	14.286
209.84	300.000
210.21	0.000
210.59	60.000
210.96	-900.000
211.34	-116.667
211.71	-133.333
212.09	75.000
212.46	550.000
212.84	-2100.000
213.22	266.667
213.59	75.000
213.97	22.222
214.34	60.000
214.72	-10.000
215.09	66.667
215.47	-216.667
215.84	80.000
216.22	60.000
216.59	60.000
216.97	-150.000
217.34	450.000
217.72	-71.429
218.09	-116.667
218.47	-185.714
218.84	85.714
219.22	0.000
219.59	0.000
219.97	185.714
220.34	125.000
220.72	25.000
221.09	30.769
221.47	0.000
221.84	-66.667
222.22	-150.000
222.59	800.000
222.97	0.000
223.34	-200.000
223.72	-133.333
224.09	7.143
224.46	25.000
224.84	57.143
225.21	-57.143
225.59	27.273
225.96	25.000
226.34	-114.286
226.71	-22.222
227.08	70.000
227.46	1400.000
227.83	14.286
228.21	-112.500
228.58	450.000
228.95	-12.500
229.33	-200.000
229.70	-100.000
230.08	-400.000
230.45	0.000
230.82	16.667
231.20	-400.000
231.57	50.000
231.95	300.000
232.32	85.714
232.69	122.222
233.07	-171.429
233.44	-350.000
233.81	40.000
234.19	-66.667
234.56	-37.500
234.93	43.750
235.31	-42.857
235.68	-150.000
236.05	29.412
236.43	-27.273
236.80	16.129
237.17	-29.167
237.55	-38.095
237.92	-27.273
238.29	-25.714
238.67	5.882
239.04	16.667
239.41	9.677
239.79	-12.821
240.16	-2.381
240.53	-1.818
240.91	0.000
241.28	-3.636
241.65	20.000
242.02	14.754
242.40	6.557
242.77	13.636
243.14	-16.949
243.51	-17.143
243.89	0.000
244.26	4.494
244.63	7.368
245.00	-2.105
245.38	11.864
245.75	1.770
246.12	4.800
246.49	2.362
246.87	-5.691
247.24	-1.695
247.61	2.542
247.98	10.563
248.36	-0.699
248.73	5.696
249.10	0.637
249.47	2.924
249.84	5.114
250.22	-0.595
250.59	2.825
250.96	6.806
251.33	6.161
251.70	5.288
252.08	8.057
252.45	2.844
252.82	0.952
253.19	4.255
253.56	7.661
253.94	4.219
254.31	2.575
254.68	5.285
255.05	2.419
255.42	8.333
255.79	5.376
256.16	5.098
256.54	7.721
256.91	6.061
257.28	4.029
257.65	3.191
258.02	11.006
258.39	5.017
258.76	2.703
259.14	2.778
259.51	7.869
259.88	6.098
260.25	6.832
260.62	3.537
260.99	4.154
261.36	6.707
261.73	8.382
262.10	9.722
262.47	5.983
262.85	9.429
263.22	4.298
263.59	5.538
263.96	6.087
264.33	5.962
264.70	8.840
265.07	5.220
265.44	5.168
265.81	1.292
266.18	3.797
266.55	4.657
266.92	7.557
267.29	7.748
267.66	7.407
268.03	7.488
268.40	6.808
268.77	7.952
269.14	5.336
269.51	5.977
269.88	1.835
270.25	5.828
270.62	6.407
270.99	4.730
271.36	6.527
271.73	3.812
272.10	3.661
272.47	6.667
272.84	9.778
273.21	6.881
273.58	5.714
273.95	7.456
274.32	6.561
274.69	7.659
275.06	9.202
275.43	3.795
275.80	6.517
276.17	7.113
276.54	9.980
276.91	4.321
277.28	5.882
277.65	4.959
278.02	7.307
278.39	7.073
278.76	6.773
279.13	4.941
279.50	7.157
279.87	4.017
280.23	6.680
280.60	4.175
280.97	4.660
281.34	5.996
281.71	6.154
282.08	5.242
282.45	1.629
282.82	6.008
283.19	6.000
283.56	7.875
283.92	6.890
284.29	6.506
284.66	6.655
285.03	6.061
285.40	6.642
285.77	5.439
286.14	5.957
286.51	5.329
286.87	8.348
287.24	5.631
287.61	7.107
287.98	6.239
288.35	7.273
288.72	6.282
289.08	3.898
289.45	5.556
289.82	2.595
290.19	6.076
290.56	4.959
290.93	5.882
291.29	3.241
291.66	3.865
292.03	7.221
292.40	7.831
292.77	6.677
293.13	3.902
293.50	5.349
293.87	6.288
294.24	5.128
294.60	5.455
294.97	6.373
295.34	6.370
295.71	5.357
296.08	4.762
296.44	4.721
296.81	5.698
297.18	4.930
297.55	5.791
297.91	5.997
298.28	5.342
298.65	5.021
299.02	6.016
299.38	6.283
299.75	5.299
300.12	6.538
300.48	6.138
300.85	5.636
301.22	5.692
301.59	5.592
301.95	6.927
302.32	2.608
302.69	5.753
303.05	4.640
303.42	3.750
303.79	5.502
304.15	6.161
304.52	6.184
304.89	5.431
305.25	5.250
305.62	6.580
305.99	6.478
306.35	6.881
306.72	5.581
307.09	6.129
307.45	5.562
307.82	5.140
308.19	5.817
308.55	6.427
308.92	4.726
309.29	5.189
309.65	5.938
310.02	5.508
310.38	3.784
310.75	6.455
311.12	6.612
311.48	7.411
311.85	6.591
312.22	7.106
312.58	6.612
312.95	5.403
313.31	6.793
313.68	7.035
314.05	7.221
314.41	6.740
314.78	5.195
315.14	6.515
315.51	6.890
315.87	7.357
316.24	6.608
316.61	7.774
316.97	7.562
317.34	7.611
317.70	8.071
318.07	8.582
318.43	6.929
318.80	8.075
319.16	7.129
319.53	8.553
319.89	8.467
320.26	7.843
320.62	7.981
320.99	9.055
321.35	7.291
321.72	8.086
322.08	10.682
322.45	9.406
322.81	8.934
323.18	9.222
323.54	10.166
323.91	10.936
324.27	10.741
324.64	10.329
325.00	11.606
325.37	11.222
325.73	11.724
326.10	9.920
326.46	13.310
326.83	11.745
327.19	12.177
327.56	14.055
327.92	13.169
328.29	13.506
328.65	12.273
329.01	14.488
329.38	13.738
329.74	15.934
330.11	15.413
330.47	13.806
330.84	15.582
331.20	15.614
331.56	15.679
331.93	16.252
332.29	16.895
332.66	16.242
333.02	15.837
333.38	16.487
333.75	17.453
334.11	16.800
334.48	16.946
334.84	16.885
335.20	17.287
335.57	17.058
335.93	18.800
336.29	17.892
336.66	17.093
337.02	18.649
337.38	18.182
337.75	17.471
338.11	18.962
338.47	17.616
338.84	19.328
339.20	18.629
339.56	18.806
339.93	18.342
340.29	18.689
340.65	18.357
341.02	19.309
341.38	18.534
341.74	19.306
342.11	18.942
342.47	18.541
342.83	18.640
343.20	19.727
343.56	17.306
343.92	18.865
344.28	21.026
344.65	19.224
345.01	16.807
345.37	19.518
345.73	17.676
346.10	18.479
346.46	18.359
346.82	17.883
347.19	17.995
347.55	18.459
347.91	19.921
348.27	18.298
348.63	19.467
349.00	20.127
349.36	17.955
349.72	20.780
350.08	19.326
350.45	18.676
350.81	19.108
351.17	18.087
351.53	17.343
351.89	20.372
352.26	19.225
352.62	19.201
352.98	19.699
353.34	18.625
353.70	18.456
354.07	19.748
354.43	19.763
354.79	19.572
355.15	18.850
355.51	19.531
355.87	20.000
356.24	18.904
356.60	20.387
356.96	19.861
357.32	19.952
357.68	18.621
358.04	19.630
358.40	20.340
358.77	20.093
359.13	20.199
359.49	19.955
359.85	19.512
360.21	18.874
360.57	19.277
360.93	20.222
361.29	20.329
361.66	19.970
362.02	19.453
362.38	19.883
362.74	19.853
363.10	19.225
363.46	21.083
363.82	19.825
364.18	20.839
364.54	21.587
364.90	20.126
365.26	20.185
365.62	20.456
365.98	21.195
366.35	20.563
366.71	19.873
367.07	20.607
367.43	21.482
367.79	20.206
368.15	20.199
368.51	21.608
368.87	21.497
369.23	21.474
369.59	20.417
369.95	21.283
370.31	21.097
370.67	20.246
371.03	21.429
371.39	21.146
371.75	21.102
372.11	21.879
372.47	20.897
372.83	20.793
373.19	21.214
373.55	22.097
373.91	22.617
374.27	22.313
374.63	21.601
374.99	23.018
375.35	21.938
375.71	22.687
376.07	21.081
376.42	21.788
376.78	21.373
377.14	23.119
377.50	22.888
377.86	21.977
378.22	21.922
378.58	22.792
378.94	23.120
379.30	22.182
379.66	22.222
380.02	22.222
380.38	22.054
380.74	22.743
381.09	23.784
381.45	22.971
381.81	22.263
382.17	22.995
382.53	22.857
382.89	22.608
383.25	23.660
383.61	23.939
383.97	23.331
384.32	23.404
384.68	23.277
385.04	23.671
385.40	23.128
385.76	23.659
386.12	24.047
386.48	23.824
386.83	23.681
387.19	23.790
387.55	23.259
387.91	23.889
388.27	23.341
388.62	23.678
388.98	23.683
389.34	23.378
389.70	24.239
390.06	23.866
390.42	24.295
390.77	24.227
391.13	24.534
391.49	23.581
391.85	25.062
392.20	23.786
392.56	23.458
392.92	24.529
393.28	24.799
393.64	25.376
393.99	25.477
394.35	24.331
394.71	24.460
395.07	24.984
395.42	23.600
395.78	24.261
396.14	24.548
396.50	24.954
396.85	24.800
397.21	25.395
397.57	25.653
397.92	25.995
398.28	24.667
398.64	24.688
399.00	24.157
399.35	25.085
399.71	25.145
400.07	25.612
400.42	24.331
400.78	24.866
401.14	26.527
401.49	25.177
401.85	26.113
402.21	24.791
402.57	26.456
402.92	26.935
403.28	25.368
403.63	25.404
403.99	26.290
404.35	25.906
404.70	25.102
405.06	24.798
405.42	26.015
405.77	24.378
406.13	25.440
406.49	25.824
406.84	24.775
407.20	27.032
407.55	25.902
407.91	25.000
408.27	25.980
408.62	25.556
408.98	26.501
409.34	25.655
409.69	25.079
410.05	25.955
410.40	25.996
410.76	26.378
411.11	26.496
411.47	24.936
411.83	26.222
412.18	25.495
412.54	25.198
412.89	25.881
413.25	25.089
413.60	25.577
413.96	24.646
414.31	26.300
414.67	25.968
415.03	25.291
415.38	26.220
415.74	26.675
416.09	26.471
416.45	26.190
416.80	26.658
417.16	25.382
417.51	27.840
417.87	26.602
418.22	27.307
418.58	27.022
418.93	26.977
419.29	25.596
419.64	26.884
420.00	27.400
420.35	26.611
420.71	27.011
421.06	26.923
421.42	26.230
421.77	26.968
422.12	27.644
422.48	26.991
422.83	27.278
423.19	26.559
423.54	27.032
423.90	27.010
424.25	27.489
424.61	28.347
424.96	28.379
425.31	27.054
425.67	27.679
426.02	27.424
426.38	28.736
426.73	27.411
427.09	27.941
427.44	27.784
427.79	27.384
428.15	28.546
428.50	28.563
428.85	29.197
429.21	27.892
429.56	28.906
429.92	27.856
430.27	28.215
430.62	27.534
430.98	28.019
431.33	28.175
431.68	29.169
432.04	28.707
432.39	28.775
432.74	29.317
433.10	29.207
433.45	27.864
433.80	28.219
434.16	28.426
434.51	29.041
434.86	28.940
435.22	28.898
435.57	29.376
435.92	28.664
436.28	29.199
436.63	29.282
436.98	27.950
437.34	29.002
437.69	28.530
438.04	29.212
438.39	30.144
438.75	28.114
439.10	29.928
439.45	29.753
439.81	29.157
440.16	28.961
440.51	30.882
440.86	29.555
441.22	29.353
441.57	29.789
441.92	29.770
442.27	28.734
442.63	30.526
442.98	29.402
443.33	29.050
443.68	29.703
444.03	30.501
444.39	29.320
444.74	30.507
445.09	29.879
445.44	29.938
445.79	30.648
446.15	31.216
446.50	28.743
446.85	30.015
447.20	29.673
447.55	30.000
447.91	30.825
448.26	30.000
448.61	29.485
448.96	30.588
449.31	29.594
449.66	30.853
450.02	29.861
450.37	30.029
450.72	29.887
451.07	30.924
451.42	30.545
451.77	30.640
452.12	29.678
452.47	31.045
452.83	29.819
453.18	31.373
453.53	30.597
453.88	31.340
454.23	30.834
454.58	30.889
454.93	31.423
455.28	31.103
455.63	31.572
455.98	31.084
456.34	30.114
456.69	31.582
457.04	32.022
457.39	30.502
457.74	30.892
458.09	31.323
458.44	32.044
458.79	31.446
459.14	30.519
459.49	30.847
459.84	32.040
460.19	30.907
460.54	31.397
460.89	31.390
461.24	31.633
461.59	31.067
461.94	31.954
462.29	32.519
462.64	33.070
462.99	32.062
463.34	31.330
463.69	30.789
464.04	31.459
464.39	33.035
464.74	31.678
465.09	31.209
465.44	30.964
465.79	32.036
466.14	31.876
466.49	31.434
466.84	31.993
467.19	32.544
467.54	31.709
467.89	32.121
468.24	32.245
468.59	31.730
468.94	31.961
469.29	31.449
469.64	32.143
469.99	32.681
470.34	33.534
470.68	32.849
471.03	32.553
471.38	32.153
471.73	33.147
472.08	33.400
472.43	32.239
472.78	32.600
473.13	32.008
473.48	33.121
473.83	31.638
474.17	32.803
474.52	33.951
474.87	31.119
475.22	32.330
475.57	31.944
475.92	33.099
476.27	32.914
476.61	32.901
476.96	33.259
477.31	32.131
477.66	33.260
478.01	32.901
478.36	31.902
478.70	32.835
479.05	32.180
479.40	31.917
479.75	32.518
480.10	33.284
480.45	31.721
480.79	32.675
481.14	32.163
481.49	33.011
481.84	31.854
482.19	33.074
482.53	32.955
482.88	32.701
483.23	32.254
483.58	32.747
483.92	32.441
484.27	31.901
484.62	31.836
484.97	32.073
485.31	30.784
485.66	30.078
486.01	30.441
486.36	30.307
486.70	31.183
487.05	30.771
487.40	31.197
487.75	31.106
488.09	31.594
488.44	32.645
488.79	32.013
489.13	32.826
489.48	33.728
489.83	33.319
490.17	33.348
490.52	33.016
490.87	32.564
491.22	32.975
491.56	33.333
491.91	34.303
492.26	33.491
492.60	32.826
492.95	32.889
493.30	32.968
493.64	32.393
493.99	32.983
494.34	33.286
494.68	33.380
495.03	33.222
495.37	33.530
495.72	32.613
496.07	33.787
496.41	33.627
496.76	32.922
497.11	33.820
497.45	33.429
497.80	32.366
498.14	33.350
498.49	33.501
498.84	32.476
499.18	33.382
499.53	33.853
499.87	32.867
500.22	33.725
500.56	33.717
500.91	32.857
501.26	33.527
501.60	33.702
501.95	34.589
502.29	32.829
502.64	34.418
502.98	32.966
503.33	33.412
503.67	33.046
504.02	33.510
504.36	33.775
504.71	33.536
505.06	33.350
505.40	34.232
505.75	32.978
506.09	34.277
506.44	33.935
506.78	34.069
507.13	32.595
507.47	34.272
507.82	33.505
508.16	34.663
508.51	33.076
508.85	34.265
509.19	33.909
509.54	34.249
509.88	34.149
510.23	33.857
510.57	34.815
510.92	34.533
511.26	34.184
511.61	33.315
511.95	33.836
512.30	34.524
512.64	32.888
512.98	34.818
513.33	34.651
513.67	33.892
514.02	34.564
514.36	34.072
514.70	34.352
515.05	34.362
515.39	34.198
515.74	36.009
516.08	34.121
516.42	35.184
516.77	34.662
517.11	34.611
517.46	35.287
517.80	35.379
518.14	33.696
518.49	35.027
518.83	34.540
519.17	35.110
519.52	33.892
519.86	34.886
520.20	36.002
520.55	36.123
520.89	34.314
521.23	35.958
521.58	35.737
521.92	35.592
522.26	35.619
522.61	36.248
522.95	33.886
523.29	35.862
523.64	33.916
523.98	35.710
524.32	34.632
524.66	34.720
525.01	35.003
525.35	34.858
525.69	34.027
526.04	35.836
526.38	36.601
526.72	33.653
527.06	35.417
527.41	34.785
527.75	35.248
528.09	35.407
528.43	35.279
528.78	35.050
529.12	35.851
529.46	35.438
529.80	34.732
530.15	34.836
530.49	36.093
530.83	35.625
531.17	35.017
531.51	34.360
531.86	35.221
532.20	35.020
532.54	36.096
532.88	35.837
533.22	36.297
533.57	35.574
533.91	34.582
534.25	35.135
534.59	34.041
534.93	34.350
535.27	34.928
535.62	35.486
535.96	35.811
536.30	34.620
536.64	35.060
536.98	35.240
537.32	35.453
537.66	34.759
538.01	33.952
538.35	35.270
538.69	34.893
539.03	34.462
539.37	34.398
539.71	35.090
540.05	34.887
540.39	35.942
540.73	36.006
541.07	36.066
541.42	34.369
541.76	33.887
542.10	35.719
542.44	35.110
542.78	35.075
543.12	35.709
543.46	34.658
543.80	34.247
544.14	33.848
544.48	34.514
544.82	34.303
545.16	35.077
545.50	33.849
545.84	35.049
546.18	35.506
546.52	35.277
546.86	35.897
547.20	35.935
547.54	34.366
547.88	35.036
548.22	33.224
548.56	34.469
548.90	34.838
549.24	34.898
549.58	34.580
549.92	35.406
550.26	35.621
550.60	35.064
550.94	34.599
551.28	35.967
551.62	35.007
551.96	34.443
552.30	35.401
552.64	34.624
552.98	34.758
553.32	35.354
553.66	36.337
554.00	34.897
554.34	35.523
554.68	35.088
555.02	35.166
555.36	35.802
555.69	34.599
556.03	35.368
556.37	35.491
556.71	35.863
557.05	35.625
557.39	35.783
557.73	36.324
558.07	35.569
558.41	36.200
558.75	35.589
559.08	34.475
559.42	35.605
559.76	36.656
560.10	35.943
560.44	36.199
560.78	34.238
561.12	35.197
561.45	36.233
561.79	35.401
562.13	35.273
562.47	34.524
562.81	33.946
563.15	34.500
563.48	34.831
563.82	36.038
564.16	34.280
564.50	34.207
564.84	35.516
565.17	35.013
565.51	33.898
565.85	35.159
566.19	35.046
566.52	34.768
566.86	33.628
567.20	35.533
567.54	35.854
567.88	33.501
568.21	33.949
568.55	33.934
568.89	33.350
569.23	32.485
569.56	31.988
569.90	32.494
570.24	32.281
570.57	31.248
570.91	31.588
571.25	32.036
571.59	31.533
571.92	31.667
572.26	31.037
572.60	31.492
572.93	30.753
573.27	31.098
573.61	30.886
573.95	31.080
574.28	30.761
574.62	31.164
574.96	30.459
575.29	30.894
575.63	30.820
575.97	30.232
576.30	30.419
576.64	30.888
576.98	30.331
577.31	30.560
577.65	30.552
577.98	30.226
578.32	30.457
578.66	30.356
578.99	30.642
579.33	30.620
579.67	30.282
580.00	30.605
580.34	30.895
580.67	30.498
581.01	30.324
581.35	30.591
581.68	29.981
582.02	30.384
582.35	30.066
582.69	30.469
583.02	30.836
583.36	30.601
583.70	31.208
584.03	30.630
584.37	31.556
584.70	30.743
585.04	30.633
585.37	30.239
585.71	30.600
586.04	30.927
586.38	30.313
586.72	30.891
587.05	31.238
587.39	30.784
587.72	30.926
588.06	31.197
588.39	30.675
588.73	31.201
589.06	32.129
589.40	32.635
589.73	30.878
590.07	31.063
590.40	32.030
590.73	32.187
591.07	31.762
591.40	33.319
591.74	32.580
592.07	32.523
592.41	31.847
592.74	32.590
593.08	31.480
593.41	30.987
593.75	30.333
594.08	31.740
594.41	31.867
594.75	32.163
595.08	31.617
595.42	32.225
595.75	32.562
596.09	32.402
596.42	32.610
596.75	32.255
597.09	33.526
597.42	32.562
597.75	32.640
598.09	33.303
598.42	32.125
598.76	31.395
599.09	31.492
599.42	31.065
599.76	31.295
600.09	31.641
600.42	32.207
600.76	31.525
601.09	31.599
601.42	31.421
601.76	32.321
602.09	31.656
602.42	32.757
602.76	31.242
603.09	32.903
603.42	31.708
603.76	32.469
604.09	32.078
604.42	31.099
604.76	32.534
605.09	32.143
605.42	32.890
605.75	32.169
606.09	32.545
606.42	32.132
606.75	31.902
607.09	32.730
607.42	31.162
607.75	31.744
608.08	32.851
608.42	33.113
608.75	32.570
609.08	32.440
609.41	33.084
609.75	32.813
610.08	32.843
610.41	33.301
610.74	33.317
611.07	33.469
611.41	32.476
611.74	33.522
612.07	33.566
612.40	32.676
612.73	32.741
613.07	32.581
613.40	34.209
613.73	33.243
614.06	33.498
614.39	34.667
614.72	32.793
615.06	33.043
615.39	32.013
615.72	33.080
616.05	33.297
616.38	34.243
616.71	32.733
617.05	34.138
617.38	34.303
617.71	32.740
618.04	32.733
618.37	33.899
618.70	35.137
619.03	33.378
619.36	35.166
619.69	35.391
620.03	34.711
620.36	34.810
620.69	34.817
621.02	34.855
621.35	34.597
621.68	35.574
622.01	36.327
622.34	35.481
622.67	35.859
623.00	36.266
623.33	35.149
623.66	34.417
623.99	35.263
624.32	34.970
624.65	34.584
624.99	34.503
625.32	34.207
625.65	34.965
625.98	34.351
626.31	36.215
626.64	35.146
626.97	35.788
627.30	36.511
627.63	35.665
627.96	35.596
628.29	36.765
628.62	36.867
628.95	37.795
629.28	35.808
629.61	38.077
629.94	36.200
630.26	37.276
630.59	38.090
630.92	36.236
631.25	37.702
631.58	36.931
631.91	37.128
632.24	37.333
632.57	39.444
632.90	37.931
633.23	40.421
633.56	38.012
633.89	39.269
634.22	37.662
634.55	40.625
634.88	38.815
635.20	35.581
635.53	38.295
635.86	38.287
636.19	39.438
636.52	36.559
636.85	38.748
637.18	39.125
637.51	40.149
637.83	40.746
638.16	39.474
