SpectraSuite Data File
++++++++++++++++++++++++++++++++++++
Date: Sat May 16 11:12:47 PDT 2015
User: schluterlab
Dark Spectrum Present: Yes
Reference Spectrum Present: Yes
Number of Sampled Component Spectra: 1
Spectrometers: USB2E3373
Integration Time (usec): 3000 (USB2E3373)
Spectra Averaged: 3 (USB2E3373)
Boxcar Smoothing: 0 (USB2E3373)
Correct for Electrical Dark: No (USB2E3373)
Strobe/Lamp Enabled: No (USB2E3373)
Correct for Detector Non-linearity: No (USB2E3373)
Correct for Stray Light: No (USB2E3373)
Number of Pixels in Processed Spectrum: 2048
>>>>>Begin Processed Spectral Data<<<<<
178.53	0.000
178.91	33.333
179.29	233.333
179.67	-400.000
180.04	-53.846
180.42	1000.000
180.80	300.000
181.18	200.000
181.56	62.500
181.94	600.000
182.31	475.000
182.69	53.846
183.07	-166.667
183.45	1150.000
183.83	-33.333
184.20	-214.286
184.58	75.000
184.96	-350.000
185.34	68.750
185.72	-350.000
186.09	33.333
186.47	-50.000
186.85	-125.000
187.23	37.500
187.61	125.000
187.98	-162.500
188.36	-50.000
188.74	62.500
189.12	1200.000
189.49	242.857
189.87	-8.333
190.25	325.000
190.63	-35.714
191.00	-77.778
191.38	460.000
191.76	20.000
192.14	400.000
192.51	100.000
192.89	-133.333
193.27	0.000
193.65	77.778
194.02	-71.429
194.40	233.333
194.78	-20.000
195.15	-1500.000
195.53	-90.909
195.91	-266.667
196.29	60.000
196.66	-533.333
197.04	1000.000
197.42	0.000
197.79	-20.000
198.17	200.000
198.55	150.000
198.92	-1200.000
199.30	150.000
199.68	-300.000
200.05	-133.333
200.43	-188.889
200.81	-1400.000
201.18	-33.333
201.56	85.714
201.94	-13.333
202.31	72.727
202.69	70.000
203.07	-80.000
203.44	366.667
203.82	-200.000
204.19	-175.000
204.57	-150.000
204.95	-400.000
205.32	-31.250
205.70	300.000
206.08	-900.000
206.45	-22.222
206.83	-750.000
207.20	500.000
207.58	-200.000
207.96	-266.667
208.33	-37.500
208.71	-55.556
209.08	160.000
209.46	-142.857
209.84	300.000
210.21	0.000
210.59	55.000
210.96	-100.000
211.34	-266.667
211.71	33.333
212.09	-100.000
212.46	200.000
212.84	-1200.000
213.22	33.333
213.59	100.000
213.97	-55.556
214.34	70.000
214.72	-70.000
215.09	-133.333
215.47	-116.667
215.84	50.000
216.22	0.000
216.59	46.667
216.97	-50.000
217.34	500.000
217.72	0.000
218.09	-83.333
218.47	-57.143
218.84	57.143
219.22	-71.429
219.59	0.000
219.97	142.857
220.34	325.000
220.72	162.500
221.09	-53.846
221.47	0.000
221.84	-0.000
222.22	-450.000
222.59	600.000
222.97	-37.500
223.34	-700.000
223.72	-633.333
224.09	-50.000
224.46	-175.000
224.84	-14.286
225.21	-128.571
225.59	-63.636
225.96	-75.000
226.34	-85.714
226.71	-100.000
227.08	35.000
227.46	1500.000
227.83	-85.714
228.21	-100.000
228.58	200.000
228.95	62.500
229.33	-900.000
229.70	-100.000
230.08	-500.000
230.45	41.667
230.82	-83.333
231.20	-700.000
231.57	-350.000
231.95	600.000
232.32	71.429
232.69	-133.333
233.07	0.000
233.44	-350.000
233.81	-26.667
234.19	22.222
234.56	6.250
234.93	21.875
235.31	-42.857
235.68	-100.000
236.05	5.882
236.43	0.000
236.80	0.000
237.17	-33.333
237.55	-42.857
237.92	-4.545
238.29	-11.429
238.67	5.882
239.04	16.667
239.41	-29.032
239.79	-28.205
240.16	7.143
240.53	7.273
240.91	0.000
241.28	14.545
241.65	26.154
242.02	6.557
242.40	-3.279
242.77	9.091
243.14	5.085
243.51	-14.286
243.89	6.329
244.26	10.112
244.63	7.368
245.00	7.368
245.38	7.627
245.75	11.504
246.12	11.200
246.49	19.685
246.87	8.130
247.24	-1.695
247.61	5.085
247.98	4.225
248.36	4.196
248.73	7.595
249.10	-1.274
249.47	15.789
249.84	15.341
250.22	3.571
250.59	14.124
250.96	10.471
251.33	14.218
251.70	10.096
252.08	9.479
252.45	6.635
252.82	5.238
253.19	11.064
253.56	7.258
253.94	8.439
254.31	8.155
254.68	15.041
255.05	8.871
255.42	11.111
255.79	5.735
256.16	11.373
256.54	7.721
256.91	9.091
257.28	5.861
257.65	4.255
258.02	10.377
258.39	11.706
258.76	10.473
259.14	9.568
259.51	7.213
259.88	10.671
260.25	11.801
260.62	8.360
260.99	9.199
261.36	10.976
261.73	9.827
262.10	14.167
262.47	9.402
262.85	13.714
263.22	10.029
263.59	7.077
263.96	10.725
264.33	10.569
264.70	8.011
265.07	7.692
265.44	9.561
265.81	8.527
266.18	6.835
266.55	9.559
266.92	11.587
267.29	11.138
267.66	9.136
268.03	9.903
268.40	11.972
268.77	8.916
269.14	11.601
269.51	14.023
269.88	6.881
270.25	9.557
270.62	9.153
270.99	10.135
271.36	8.392
271.73	10.314
272.10	10.069
272.47	9.111
272.84	11.111
273.21	10.550
273.58	11.209
273.95	11.184
274.32	14.706
274.69	10.722
275.06	13.292
275.43	9.152
275.80	10.794
276.17	9.205
276.54	13.849
276.91	9.259
277.28	9.939
277.65	10.331
278.02	9.395
278.39	10.413
278.76	8.566
279.13	9.486
279.50	9.940
279.87	8.457
280.23	12.753
280.60	9.344
280.97	9.903
281.34	9.284
281.71	9.808
282.08	10.081
282.45	8.147
282.82	9.690
283.19	8.545
283.56	10.256
283.92	11.837
284.29	8.922
284.66	7.014
285.03	11.408
285.40	10.517
285.77	11.579
286.14	11.733
286.51	8.881
286.87	12.523
287.24	12.287
287.61	10.579
287.98	9.879
288.35	8.926
288.72	7.301
289.08	7.288
289.45	7.744
289.82	8.997
290.19	9.195
290.56	9.421
290.93	8.585
291.29	8.104
291.66	9.984
292.03	11.774
292.40	9.337
292.77	11.180
293.13	9.268
293.50	8.024
293.87	10.123
294.24	9.050
294.60	5.152
294.97	8.953
295.34	8.444
295.71	9.226
296.08	6.452
296.44	6.152
296.81	8.405
297.18	8.451
297.55	9.746
297.91	9.763
298.28	7.671
298.65	9.623
299.02	9.492
299.38	8.021
299.75	7.065
300.12	7.564
300.48	8.312
300.85	8.126
301.22	9.314
301.59	7.022
301.95	9.698
302.32	6.258
302.69	7.956
303.05	8.059
303.42	6.000
303.79	7.416
304.15	7.583
304.52	8.285
304.89	8.855
305.25	7.204
305.62	6.933
305.99	8.952
306.35	8.213
306.72	6.150
307.09	8.627
307.45	6.470
307.82	7.374
308.19	6.711
308.55	7.952
308.92	7.519
309.29	7.135
309.65	6.893
310.02	7.235
310.38	6.486
310.75	6.660
311.12	7.645
311.48	8.246
311.85	7.312
312.22	7.312
312.58	8.138
312.95	7.849
313.31	7.393
313.68	7.538
314.05	7.715
314.41	5.734
314.78	7.293
315.14	7.305
315.51	6.890
315.87	7.648
316.24	7.289
316.61	8.541
316.97	7.065
317.34	7.322
317.70	6.679
318.07	7.090
318.43	7.022
318.80	7.042
319.16	6.567
319.53	6.955
319.89	6.961
320.26	8.627
320.62	7.404
320.99	7.363
321.35	6.798
321.72	6.551
322.08	6.627
322.45	6.931
322.81	8.261
323.18	7.301
323.54	7.948
323.91	8.434
324.27	7.795
324.64	7.952
325.00	7.679
325.37	6.878
325.73	8.924
326.10	7.174
326.46	8.144
326.83	6.383
327.19	7.756
327.56	8.773
327.92	7.477
328.29	6.926
328.65	6.273
329.01	7.597
329.38	7.493
329.74	7.418
330.11	7.616
330.47	6.449
330.84	8.891
331.20	7.491
331.56	6.746
331.93	6.217
332.29	6.575
332.66	7.550
333.02	8.235
333.38	7.616
333.75	7.836
334.11	7.911
334.48	7.944
334.84	8.399
335.20	8.333
335.57	6.859
335.93	7.968
336.29	7.086
336.66	7.577
337.02	7.838
337.38	7.932
337.75	6.585
338.11	7.603
338.47	6.406
338.84	7.895
339.20	7.206
339.56	8.645
339.93	7.672
340.29	7.529
340.65	7.168
341.02	8.010
341.38	7.161
341.74	8.213
342.11	7.082
342.47	7.554
342.83	7.473
343.20	7.686
343.56	6.122
343.92	8.932
344.28	8.242
344.65	7.261
345.01	7.899
345.37	8.472
345.73	6.219
346.10	6.705
346.46	6.742
346.82	7.458
347.19	6.163
347.55	7.865
347.91	6.772
348.27	7.637
348.63	8.481
349.00	7.876
349.36	5.621
349.72	7.643
350.08	7.378
350.45	6.856
350.81	7.404
351.17	6.431
351.53	6.762
351.89	7.276
352.26	7.907
352.62	9.217
352.98	7.199
353.34	7.194
353.70	6.873
354.07	6.688
354.43	7.747
354.79	7.448
355.15	6.709
355.51	6.016
355.87	7.668
356.24	6.910
356.60	7.010
356.96	7.929
357.32	6.572
357.68	6.973
358.04	8.006
358.40	6.651
358.77	7.419
359.13	7.039
359.49	7.332
359.85	7.393
360.21	7.534
360.57	8.283
360.93	7.630
361.29	8.296
361.66	5.107
362.02	7.396
362.38	7.337
362.74	6.886
363.10	6.385
363.46	8.333
363.82	8.017
364.18	7.598
364.54	7.863
364.90	7.338
365.26	6.633
365.62	7.413
365.98	7.468
366.35	6.831
366.71	7.047
367.07	7.410
367.43	7.550
367.79	7.491
368.15	6.259
368.51	7.483
368.87	7.761
369.23	6.807
369.59	7.292
369.95	6.906
370.31	7.454
370.67	6.146
371.03	7.726
371.39	6.506
371.75	7.368
372.11	7.102
372.47	6.941
372.83	8.136
373.19	6.929
373.55	6.685
373.91	7.041
374.27	6.913
374.63	7.591
374.99	8.067
375.35	7.537
375.71	7.968
376.07	7.324
376.42	6.291
376.78	7.320
377.14	7.525
377.50	7.608
377.86	7.802
378.22	6.910
378.58	6.485
378.94	7.090
379.30	6.947
379.66	7.407
380.02	7.190
380.38	6.647
380.74	7.386
381.09	8.202
381.45	7.518
381.81	7.260
382.17	6.955
382.53	7.112
382.89	7.297
383.25	7.405
383.61	6.840
383.97	7.226
384.32	7.509
384.68	7.920
385.04	6.884
385.40	6.817
385.76	8.049
386.12	7.495
386.48	7.426
386.83	7.669
387.19	7.651
387.55	7.450
387.91	6.639
388.27	6.876
388.62	7.813
388.98	7.329
389.34	7.772
389.70	7.491
390.06	7.085
390.42	8.013
390.77	7.445
391.13	8.075
391.49	7.424
391.85	8.105
392.20	7.342
392.56	7.269
392.92	7.359
393.28	7.692
393.64	7.336
393.99	7.815
394.35	7.664
394.71	7.659
395.07	7.972
395.42	6.734
395.78	7.102
396.14	7.788
396.50	7.401
396.85	6.601
397.21	7.594
397.57	7.720
397.92	7.553
398.28	7.667
398.64	7.971
399.00	7.303
399.35	8.005
399.71	7.840
400.07	7.881
400.42	7.725
400.78	7.096
401.14	6.766
401.49	7.547
401.85	6.894
402.21	8.045
402.57	7.585
402.92	7.992
403.28	7.721
403.63	7.190
403.99	7.769
404.35	7.005
404.70	7.899
405.06	8.074
405.42	7.073
405.77	7.692
406.13	7.666
406.49	7.909
406.84	7.139
407.20	8.422
407.55	7.536
407.91	7.254
408.27	8.640
408.62	7.637
408.98	7.338
409.34	7.313
409.69	7.940
410.05	7.520
410.40	8.461
410.76	7.469
411.11	7.668
411.47	7.609
411.83	7.152
412.18	7.859
412.54	7.200
412.89	7.290
413.25	6.494
413.60	7.169
413.96	6.839
414.31	7.095
414.67	6.603
415.03	7.762
415.38	7.222
415.74	7.732
416.09	8.184
416.45	6.812
416.80	7.672
417.16	6.512
417.51	8.930
417.87	6.731
418.22	7.080
418.58	7.574
418.93	7.664
419.29	7.905
419.64	6.595
420.00	8.141
420.35	7.096
420.71	7.083
421.06	7.870
421.42	7.026
421.77	8.152
422.12	7.443
422.48	7.322
422.83	7.631
423.19	6.904
423.54	7.896
423.90	7.692
424.25	7.127
424.61	7.238
424.96	8.426
425.31	8.217
425.67	8.252
426.02	6.713
426.38	7.623
426.73	7.715
427.09	8.456
427.44	7.955
427.79	7.500
428.15	8.438
428.50	7.801
428.85	7.974
429.21	7.416
429.56	8.021
429.92	7.365
430.27	7.577
430.62	7.941
430.98	7.162
431.33	7.204
431.68	7.346
432.04	7.611
432.39	7.920
432.74	8.213
433.10	7.203
433.45	7.196
433.80	7.671
434.16	7.845
434.51	8.000
434.86	7.967
435.22	7.962
435.57	6.854
435.92	7.444
436.28	8.071
436.63	7.575
436.98	7.216
437.34	8.033
437.69	7.585
438.04	7.374
438.39	7.822
438.75	7.800
439.10	8.329
439.45	7.604
439.81	8.072
440.16	7.609
440.51	7.647
440.86	7.230
441.22	7.629
441.57	7.684
441.92	7.877
442.27	7.359
442.63	7.886
442.98	6.716
443.33	7.798
443.68	7.660
444.03	8.055
444.39	7.783
444.74	7.764
445.09	7.785
445.44	7.653
445.79	7.547
446.15	8.817
446.50	7.077
446.85	8.107
447.20	7.865
447.55	7.956
447.91	7.861
448.26	7.765
448.61	7.923
448.96	8.571
449.31	7.441
449.66	7.899
450.02	7.313
450.37	6.725
450.72	7.797
451.07	8.297
451.42	6.877
451.77	7.720
452.12	7.688
452.47	7.809
452.83	7.338
453.18	8.223
453.53	7.649
453.88	8.792
454.23	7.437
454.58	8.390
454.93	8.060
455.28	8.604
455.63	8.661
455.98	7.711
456.34	7.052
456.69	7.505
457.04	8.113
457.39	8.373
457.74	8.269
458.09	7.889
458.44	7.794
458.79	6.895
459.14	8.671
459.49	7.874
459.84	7.870
460.19	7.876
460.54	7.562
460.89	8.520
461.24	6.982
461.59	7.620
461.94	8.530
462.29	7.266
462.64	8.169
462.99	8.166
463.34	7.562
463.69	7.952
464.04	8.026
464.39	7.826
464.74	7.447
465.09	7.757
465.44	8.009
465.79	8.404
466.14	8.170
466.49	8.405
466.84	8.523
467.19	8.167
467.54	7.911
467.89	8.076
468.24	8.254
468.59	7.808
468.94	7.588
469.29	8.317
469.64	8.625
469.99	8.103
470.34	8.216
470.68	8.939
471.03	8.534
471.38	7.778
471.73	7.483
472.08	7.764
472.43	7.658
472.78	8.267
473.13	6.826
473.48	7.913
473.83	7.878
474.17	7.580
474.52	8.696
474.87	8.508
475.22	8.024
475.57	7.333
475.92	8.315
476.27	7.657
476.61	8.113
476.96	8.385
477.31	7.535
477.66	8.246
478.01	8.698
478.36	8.591
478.70	7.902
479.05	8.653
479.40	8.135
479.75	7.645
480.10	8.532
480.45	7.495
480.79	8.638
481.14	8.229
481.49	8.519
481.84	8.460
482.19	8.132
482.53	8.049
482.88	7.784
483.23	8.685
483.58	9.066
483.92	8.743
484.27	7.754
484.62	7.991
484.97	8.379
485.31	7.936
485.66	7.795
486.01	7.886
486.36	8.210
486.70	8.299
487.05	7.979
487.40	8.040
487.75	8.001
488.09	7.443
488.44	7.679
488.79	8.171
489.13	7.607
489.48	8.564
489.83	9.039
490.17	8.010
490.52	8.469
490.87	7.898
491.22	8.174
491.56	8.704
491.91	8.254
492.26	8.443
492.60	8.611
492.95	8.329
493.30	8.576
493.64	8.369
493.99	7.792
494.34	8.476
494.68	9.129
495.03	8.843
495.37	8.505
495.72	8.890
496.07	8.728
496.41	8.569
496.76	8.356
497.11	8.950
497.45	8.716
497.80	8.354
498.14	8.841
498.49	8.388
498.84	8.155
499.18	9.211
499.53	8.378
499.87	7.963
500.22	8.235
500.56	7.954
500.91	8.966
501.26	9.364
501.60	8.281
501.95	9.082
502.29	9.258
502.64	9.335
502.98	8.385
503.33	8.553
503.67	8.429
504.02	8.064
504.36	9.118
504.71	8.359
505.06	8.038
505.40	9.082
505.75	8.232
506.09	9.454
506.44	9.574
506.78	8.329
507.13	8.599
507.47	9.494
507.82	8.983
508.16	8.653
508.51	8.707
508.85	8.230
509.19	8.739
509.54	8.721
509.88	9.362
510.23	8.805
510.57	9.788
510.92	9.130
511.26	9.197
511.61	8.315
511.95	8.567
512.30	8.961
512.64	8.347
512.98	9.406
513.33	9.116
513.67	9.101
514.02	8.781
514.36	9.474
514.70	8.998
515.05	9.949
515.39	8.708
515.74	10.006
516.08	9.971
516.42	8.895
516.77	8.897
517.11	9.268
517.46	9.031
517.80	9.386
518.14	8.756
518.49	9.384
518.83	8.902
519.17	9.947
519.52	9.254
519.86	10.215
520.20	8.435
520.55	8.923
520.89	8.203
521.23	9.768
521.58	9.154
521.92	8.803
522.26	9.778
522.61	8.935
522.95	9.126
523.29	9.843
523.64	9.119
523.98	8.721
524.32	9.177
524.66	9.379
525.01	8.157
525.35	9.472
525.69	9.239
526.04	9.726
526.38	9.421
526.72	8.812
527.06	9.049
527.41	8.779
527.75	8.647
528.09	9.464
528.43	9.049
528.78	10.113
529.12	9.731
529.46	9.214
529.80	9.684
530.15	10.367
530.49	9.961
530.83	10.544
531.17	9.226
531.51	8.774
531.86	9.809
532.20	9.177
532.54	9.826
532.88	9.486
533.22	9.425
533.57	9.269
533.91	8.427
534.25	9.365
534.59	9.182
534.93	8.899
535.27	9.566
535.62	9.655
535.96	9.567
536.30	8.639
536.64	9.495
536.98	9.958
537.32	8.984
537.66	9.708
538.01	9.072
538.35	10.068
538.69	9.358
539.03	9.953
539.37	9.581
539.71	10.073
540.05	9.801
540.39	9.626
540.73	10.021
541.07	9.836
541.42	9.115
541.76	9.037
542.10	10.196
542.44	9.594
542.78	8.616
543.12	9.165
543.46	9.178
543.80	9.498
544.14	9.469
544.48	10.499
544.82	9.608
545.16	9.993
545.50	8.614
545.84	9.597
546.18	9.986
546.52	10.171
546.86	9.473
547.20	9.986
547.54	8.815
547.88	8.825
548.22	9.174
548.56	9.552
548.90	9.030
549.24	9.180
549.58	9.668
549.92	10.035
550.26	10.116
550.60	9.388
550.94	9.708
551.28	10.534
551.62	9.380
551.96	9.624
552.30	10.035
552.64	9.500
552.98	9.671
553.32	9.307
553.66	10.094
554.00	9.950
554.34	9.242
554.68	9.868
555.02	10.203
555.36	9.490
555.69	9.169
556.03	9.333
556.37	9.957
556.71	10.021
557.05	9.978
557.39	9.948
557.73	11.379
558.07	9.269
558.41	9.948
558.75	9.506
559.08	8.716
559.42	10.031
559.76	9.969
560.10	10.142
560.44	9.827
560.78	8.977
561.12	9.386
561.45	10.205
561.79	10.105
562.13	8.766
562.47	10.014
562.81	9.760
563.15	8.607
563.48	9.675
563.82	9.128
564.16	9.263
564.50	8.938
564.84	9.854
565.17	9.151
565.51	9.518
565.85	9.601
566.19	10.013
566.52	9.720
566.86	9.292
567.20	10.230
567.54	10.455
567.88	9.436
568.21	9.564
568.55	9.014
568.89	8.946
569.23	9.671
569.56	8.869
569.90	8.733
570.24	9.433
570.57	8.682
570.91	8.671
571.25	8.949
571.59	8.773
571.92	9.375
572.26	9.017
572.60	8.626
572.93	8.795
573.27	9.024
573.61	8.603
573.95	8.701
574.28	8.389
574.62	8.643
574.96	8.325
575.29	8.765
575.63	8.521
575.97	8.414
576.30	8.358
576.64	8.668
576.98	8.335
577.31	8.534
577.65	8.522
577.98	8.844
578.32	8.314
578.66	8.180
578.99	8.646
579.33	8.415
579.67	8.293
580.00	8.408
580.34	8.268
580.67	8.384
581.01	8.272
581.35	8.731
581.68	8.378
582.02	8.482
582.35	8.442
582.69	8.372
583.02	8.908
583.36	8.556
583.70	8.653
584.03	8.244
584.37	8.552
584.70	8.089
585.04	8.810
585.37	8.496
585.71	8.902
586.04	8.308
586.38	8.019
586.72	8.963
587.05	8.638
587.39	8.276
587.72	8.946
588.06	8.721
588.39	8.317
588.73	8.811
589.06	8.632
589.40	8.966
589.73	9.030
590.07	8.594
590.40	8.930
590.73	8.756
591.07	8.934
591.40	9.489
591.74	8.905
592.07	8.829
592.41	8.832
592.74	8.762
593.08	9.337
593.41	8.717
593.75	8.506
594.08	8.591
594.41	9.020
594.75	8.720
595.08	8.496
595.42	8.671
595.75	8.416
596.09	8.964
596.42	9.165
596.75	8.797
597.09	9.305
597.42	8.468
597.75	8.680
598.09	9.128
598.42	8.926
598.76	8.887
599.09	8.524
599.42	8.381
599.76	8.758
600.09	9.427
600.42	9.001
600.76	9.190
601.09	9.077
601.42	8.508
601.76	9.579
602.09	9.162
602.42	8.807
602.76	8.392
603.09	9.234
603.42	8.461
603.76	9.055
604.09	9.371
604.42	8.784
604.76	9.202
605.09	8.996
605.42	9.176
605.75	8.538
606.09	8.717
606.42	8.714
606.75	9.017
607.09	8.955
607.42	8.055
607.75	8.962
608.08	9.128
608.42	8.467
608.75	9.019
609.08	8.768
609.41	8.869
609.75	9.508
610.08	9.167
610.41	9.446
610.74	9.043
611.07	9.533
611.41	8.674
611.74	9.409
612.07	9.721
612.40	9.275
612.73	8.885
613.07	9.081
613.40	9.469
613.73	9.918
614.06	8.951
614.39	9.639
614.72	8.827
615.06	8.641
615.39	8.736
615.72	8.854
616.05	8.614
616.38	9.518
616.71	8.889
617.05	9.590
617.38	9.288
617.71	9.029
618.04	9.193
618.37	8.931
618.70	9.844
619.03	9.614
619.36	9.443
619.69	9.691
620.03	9.780
620.36	9.001
620.69	9.763
621.02	9.361
621.35	9.839
621.68	8.934
622.01	9.871
622.34	10.093
622.67	9.531
623.00	10.406
623.33	10.224
623.66	8.641
623.99	9.850
624.32	9.152
624.65	10.007
624.99	9.335
625.32	9.356
625.65	10.101
625.98	9.390
626.31	9.951
626.64	9.874
626.97	9.161
627.30	9.532
627.63	8.895
627.96	10.096
628.29	9.375
628.62	8.787
628.95	11.417
629.28	9.774
629.61	9.421
629.94	9.735
630.26	9.443
630.59	9.548
630.92	9.610
631.25	10.484
631.58	9.735
631.91	10.106
632.24	9.889
632.57	10.889
632.90	10.920
633.23	10.631
633.56	9.825
633.89	9.906
634.22	10.153
634.55	10.337
634.88	10.278
635.20	10.362
635.53	10.178
635.86	8.816
636.19	9.768
636.52	10.155
636.85	8.544
637.18	9.625
637.51	10.533
637.83	9.188
638.16	8.289
638.49	9.103
638.82	9.781
639.15	10.117
639.48	8.820
639.81	11.203
640.13	10.676
640.46	9.259
640.79	10.924
641.12	11.566
641.45	10.904
641.77	11.078
642.10	10.272
642.43	11.229
642.76	10.709
643.09	9.841
643.41	10.635
643.74	9.857
644.07	12.012
644.40	11.507
644.73	11.716
645.05	10.184
645.38	12.583
645.71	12.715
646.04	12.941
646.36	8.901
646.69	12.803
647.02	9.747
647.35	8.845
647.67	11.131
648.00	11.072
648.33	11.467
648.66	10.000
648.98	9.554
649.31	10.462
649.64	10.469
649.96	10.832
650.29	9.508
650.62	12.392
650.94	11.636
651.27	10.399
651.60	9.689
651.92	11.986
652.25	9.516
652.58	6.985
652.90	10.112
653.23	11.290
653.56	9.197
653.88	11.639
654.21	10.738
654.54	11.130
654.86	11.236
655.19	8.883
655.52	9.599
655.84	8.217
