SpectraSuite Data File
++++++++++++++++++++++++++++++++++++
Date: Sat May 16 11:39:53 PDT 2015
User: schluterlab
Dark Spectrum Present: Yes
Reference Spectrum Present: Yes
Number of Sampled Component Spectra: 1
Spectrometers: USB2E3373
Integration Time (usec): 3000 (USB2E3373)
Spectra Averaged: 3 (USB2E3373)
Boxcar Smoothing: 0 (USB2E3373)
Correct for Electrical Dark: No (USB2E3373)
Strobe/Lamp Enabled: No (USB2E3373)
Correct for Detector Non-linearity: No (USB2E3373)
Correct for Stray Light: No (USB2E3373)
Number of Pixels in Processed Spectrum: 2048
>>>>>Begin Processed Spectral Data<<<<<
178.53	0.000
178.91	13.333
179.29	533.333
179.67	-700.000
180.04	-161.538
180.42	1500.000
180.80	275.000
181.18	375.000
181.56	-87.500
181.94	600.000
182.31	400.000
182.69	-69.231
183.07	-633.333
183.45	1150.000
183.83	333.333
184.20	-142.857
184.58	-237.500
184.96	-350.000
185.34	100.000
185.72	-350.000
186.09	166.667
186.47	-237.500
186.85	-137.500
187.23	-25.000
187.61	-350.000
187.98	-312.500
188.36	-150.000
188.74	-162.500
189.12	1900.000
189.49	371.429
189.87	-8.333
190.25	350.000
190.63	-57.143
191.00	-122.222
191.38	380.000
191.76	-80.000
192.14	580.000
192.51	-220.000
192.89	-533.333
193.27	0.000
193.65	-111.111
194.02	-142.857
194.40	666.667
194.78	-140.000
195.15	-1700.000
195.53	-63.636
195.91	-500.000
196.29	180.000
196.66	-533.333
197.04	2200.000
197.42	-250.000
197.79	-80.000
198.17	-700.000
198.55	-600.000
198.92	-1700.000
199.30	237.500
199.68	-450.000
200.05	-22.222
200.43	-255.556
200.81	-1000.000
201.18	-83.333
201.56	228.571
201.94	-93.333
202.31	4.545
202.69	30.000
203.07	-30.000
203.44	733.333
203.82	-233.333
204.19	-275.000
204.57	-400.000
204.95	-800.000
205.32	-6.250
205.70	1600.000
206.08	-1500.000
206.45	-105.556
206.83	-800.000
207.20	0.000
207.58	-1033.333
207.96	-233.333
208.33	-62.500
208.71	-266.667
209.08	250.000
209.46	-28.571
209.84	850.000
210.21	0.000
210.59	-5.000
210.96	700.000
211.34	-333.333
211.71	-433.333
212.09	125.000
212.46	800.000
212.84	-2700.000
213.22	700.000
213.59	100.000
213.97	11.111
214.34	110.000
214.72	-100.000
215.09	-333.333
215.47	-300.000
215.84	-150.000
216.22	-120.000
216.59	-26.667
216.97	-400.000
217.34	1000.000
217.72	-142.857
218.09	-250.000
218.47	-342.857
218.84	157.143
219.22	-128.571
219.59	0.000
219.97	342.857
220.34	400.000
220.72	212.500
221.09	-76.923
221.47	0.000
221.84	333.333
222.22	-750.000
222.59	700.000
222.97	-237.500
223.34	-900.000
223.72	-600.000
224.09	-78.571
224.46	-500.000
224.84	-114.286
225.21	-300.000
225.59	-63.636
225.96	-175.000
226.34	-114.286
226.71	-122.222
227.08	-25.000
227.46	2300.000
227.83	-328.571
228.21	-187.500
228.58	400.000
228.95	-100.000
229.33	-1400.000
229.70	-200.000
230.08	-1100.000
230.45	-75.000
230.82	-66.667
231.20	-1800.000
231.57	-1100.000
231.95	1500.000
232.32	14.286
232.69	-133.333
233.07	-200.000
233.44	-750.000
233.81	-60.000
234.19	-66.667
234.56	-37.500
234.93	12.500
235.31	-257.143
235.68	-107.143
236.05	0.000
236.43	-72.727
236.80	-12.903
237.17	-16.667
237.55	-66.667
237.92	-59.091
238.29	-28.571
238.67	-2.941
239.04	-25.000
239.41	-16.129
239.79	-30.769
240.16	-30.952
240.53	-21.818
240.91	12.821
241.28	3.636
241.65	12.308
242.02	-1.639
242.40	8.197
242.77	10.606
243.14	10.169
243.51	-4.286
243.89	5.063
244.26	3.371
244.63	6.316
245.00	16.842
245.38	8.475
245.75	21.239
246.12	15.200
246.49	22.835
246.87	17.073
247.24	9.322
247.61	8.475
247.98	11.972
248.36	11.888
248.73	13.291
249.10	12.739
249.47	22.222
249.84	21.591
250.22	10.714
250.59	23.164
250.96	17.277
251.33	24.171
251.70	13.942
252.08	17.536
252.45	15.166
252.82	16.667
253.19	16.170
253.56	18.952
253.94	15.612
254.31	15.451
254.68	19.512
255.05	19.758
255.42	23.016
255.79	18.280
256.16	23.922
256.54	21.324
256.91	15.909
257.28	17.582
257.65	26.596
258.02	20.755
258.39	18.060
258.76	18.919
259.14	17.593
259.51	20.000
259.88	21.646
260.25	23.913
260.62	19.936
260.99	16.914
261.36	19.207
261.73	23.699
262.10	22.222
262.47	19.373
262.85	20.857
263.22	17.765
263.59	19.385
263.96	21.739
264.33	21.138
264.70	21.271
265.07	19.231
265.44	20.930
265.81	22.739
266.18	20.000
266.55	21.324
266.92	21.914
267.29	21.792
267.66	19.012
268.03	21.498
268.40	20.423
268.77	22.169
269.14	20.650
269.51	20.000
269.88	15.596
270.25	19.814
270.62	19.680
270.99	21.622
271.36	19.114
271.73	21.749
272.10	19.222
272.47	19.556
272.84	20.889
273.21	22.248
273.58	17.802
273.95	22.149
274.32	24.208
274.69	22.319
275.06	22.904
275.43	19.196
275.80	20.163
276.17	20.921
276.54	18.126
276.91	21.193
277.28	21.704
277.65	19.628
278.02	20.042
278.39	21.415
278.76	21.116
279.13	21.344
279.50	20.676
279.87	19.873
280.23	20.243
280.60	21.074
280.97	21.748
281.34	20.309
281.71	20.000
282.08	20.968
282.45	18.534
282.82	18.992
283.19	19.273
283.56	23.443
283.92	20.141
284.29	21.561
284.66	19.964
285.03	22.460
285.40	22.694
285.77	22.105
286.14	21.119
286.51	20.604
286.87	20.508
287.24	23.379
287.61	20.000
287.98	20.277
288.35	20.000
288.72	20.034
289.08	17.627
289.45	19.697
289.82	19.377
290.19	19.869
290.56	19.339
290.93	17.170
291.29	19.287
291.66	18.196
292.03	17.896
292.40	20.331
292.77	20.652
293.13	18.374
293.50	20.802
293.87	18.865
294.24	19.759
294.60	16.061
294.97	20.334
295.34	19.852
295.71	17.411
296.08	16.897
296.44	15.594
296.81	17.379
297.18	17.042
297.55	19.068
297.91	18.410
298.28	16.575
298.65	17.294
299.02	17.513
299.38	17.781
299.75	16.168
300.12	17.564
300.48	15.857
300.85	15.203
301.22	16.300
301.59	15.995
301.95	17.506
302.32	15.776
302.69	16.524
303.05	16.239
303.42	16.375
303.79	18.541
304.15	16.114
304.52	16.336
304.89	16.293
305.25	16.850
305.62	16.334
305.99	15.901
306.35	16.759
306.72	15.604
307.09	17.480
307.45	14.869
307.82	15.307
308.19	15.884
308.55	15.686
308.92	15.897
309.29	16.973
309.65	17.073
310.02	15.659
310.38	14.811
310.75	16.291
311.12	17.769
311.48	16.701
311.85	15.448
312.22	17.199
312.58	16.073
312.95	14.781
313.31	16.184
313.68	16.683
314.05	16.518
314.41	16.298
314.78	15.385
315.14	15.992
315.51	16.515
315.87	16.167
316.24	15.646
316.61	17.946
316.97	16.418
317.34	15.414
317.70	16.512
318.07	18.377
318.43	16.105
318.80	17.934
319.16	15.947
319.53	17.481
319.89	16.557
320.26	16.667
320.62	15.481
320.99	17.413
321.35	15.665
321.72	16.479
322.08	17.606
322.45	17.030
322.81	18.060
323.18	18.732
323.54	17.006
323.91	17.702
324.27	17.395
324.64	17.550
325.00	17.976
325.37	18.190
325.73	17.585
326.10	17.360
326.46	17.601
326.83	18.979
327.19	19.183
327.56	19.506
327.92	17.927
328.29	18.961
328.65	17.909
329.01	18.463
329.38	18.644
329.74	20.604
330.11	19.492
330.47	18.710
330.84	19.798
331.20	20.217
331.56	18.323
331.93	20.337
332.29	20.457
332.66	19.930
333.02	19.729
333.38	19.803
333.75	20.570
334.11	19.822
334.48	19.064
334.84	21.260
335.20	19.504
335.57	21.480
335.93	21.218
336.29	20.903
336.66	19.736
337.02	21.622
337.38	20.856
337.75	20.457
338.11	20.215
338.47	19.929
338.84	20.145
339.20	20.650
339.56	21.034
339.93	20.723
340.29	20.461
340.65	20.979
341.02	21.079
341.38	20.809
341.74	21.169
342.11	20.734
342.47	21.030
342.83	20.067
343.20	20.154
343.56	19.918
343.92	20.033
344.28	22.204
344.65	19.472
345.01	19.748
345.37	21.346
345.73	19.885
346.10	19.869
346.46	20.227
346.82	21.091
347.19	19.638
347.55	19.984
347.91	20.157
348.27	20.127
348.63	20.113
349.00	20.684
349.36	20.141
349.72	21.178
350.08	20.690
350.45	19.779
350.81	20.462
351.17	20.016
351.53	19.332
351.89	21.019
352.26	19.845
352.62	20.584
352.98	20.253
353.34	21.263
353.70	19.073
354.07	21.558
354.43	21.028
354.79	20.681
355.15	20.527
355.51	20.391
355.87	20.553
356.24	20.413
356.60	21.837
356.96	20.400
357.32	21.219
357.68	20.383
358.04	20.708
358.40	21.191
358.77	20.711
359.13	21.041
359.49	20.333
359.85	20.732
360.21	20.244
360.57	21.611
360.93	20.889
361.29	21.375
361.66	20.579
362.02	20.562
362.38	21.277
362.74	21.538
363.10	20.732
363.46	21.937
363.82	20.481
364.18	21.418
364.54	21.730
364.90	20.685
365.26	22.254
365.62	21.169
365.98	21.479
366.35	20.986
366.71	20.648
367.07	21.242
367.43	23.130
367.79	21.100
368.15	21.195
368.51	21.748
368.87	22.115
369.23	21.263
369.59	22.292
369.95	21.424
370.31	22.574
370.67	21.330
371.03	22.595
371.39	21.641
371.75	22.604
372.11	21.879
372.47	21.981
372.83	22.809
373.19	22.357
373.55	23.293
373.91	22.048
374.27	22.313
374.63	21.463
374.99	22.392
375.35	22.746
375.71	24.105
376.07	22.861
376.42	22.649
376.78	23.464
377.14	22.915
377.50	22.631
377.86	22.562
378.22	23.367
378.58	23.162
378.94	23.058
379.30	23.827
379.66	23.072
380.02	22.876
380.38	22.115
380.74	23.095
381.09	23.433
381.45	24.403
381.81	23.896
382.17	23.872
382.53	23.647
382.89	23.804
383.25	23.841
383.61	23.644
383.97	24.311
384.32	23.842
384.68	24.184
385.04	23.611
385.40	24.102
385.76	24.573
386.12	24.422
386.48	24.876
386.83	24.172
387.19	25.105
387.55	24.591
387.91	24.718
388.27	23.583
388.62	24.880
388.98	24.773
389.34	25.092
389.70	24.300
390.06	23.804
390.42	26.090
390.77	25.237
391.13	25.217
391.49	24.766
391.85	24.626
392.20	24.636
392.56	24.068
392.92	25.157
393.28	25.603
393.64	25.195
393.99	25.908
394.35	25.000
394.71	25.942
395.07	24.859
395.42	24.434
395.78	24.764
396.14	25.234
396.50	25.076
396.85	24.923
397.21	25.881
397.57	25.957
397.92	25.468
398.28	26.444
398.64	25.045
399.00	25.562
399.35	25.761
399.71	26.539
400.07	25.493
400.42	25.730
400.78	25.880
401.14	24.431
401.49	25.649
401.85	24.954
402.21	25.507
402.57	25.850
402.92	26.369
403.28	25.490
403.63	25.045
403.99	25.917
404.35	25.845
404.70	26.624
405.06	26.182
405.42	25.523
405.77	25.283
406.13	26.008
406.49	26.004
406.84	25.375
407.20	26.325
407.55	25.649
407.91	26.295
408.27	25.858
408.62	25.256
408.98	26.076
409.34	25.411
409.69	26.528
410.05	26.743
410.40	27.345
410.76	26.615
411.11	25.935
411.47	26.215
411.83	26.284
412.18	25.866
412.54	26.113
412.89	25.516
413.25	25.325
413.60	26.731
413.96	26.186
414.31	26.361
414.67	25.841
415.03	26.779
415.38	25.830
415.74	27.191
416.09	26.598
416.45	26.124
416.80	25.748
417.16	26.711
417.51	27.052
417.87	26.408
418.22	26.549
418.58	27.343
418.93	26.180
419.29	26.098
419.64	26.319
420.00	26.792
420.35	26.079
420.71	26.951
421.06	26.627
421.42	25.703
421.77	26.354
422.12	26.413
422.48	25.387
422.83	27.335
423.19	25.668
423.54	25.764
423.90	25.969
424.25	26.584
424.61	27.141
424.96	27.033
425.31	26.104
425.67	26.476
426.02	27.252
426.38	26.981
426.73	26.768
427.09	26.777
427.44	26.591
427.79	26.512
428.15	27.469
428.50	26.686
428.85	27.458
429.21	26.287
429.56	27.135
429.92	26.403
430.27	27.218
430.62	27.011
430.98	26.764
431.33	26.788
431.68	28.097
432.04	27.308
432.39	27.863
432.74	27.398
433.10	27.856
433.45	26.195
433.80	26.484
434.16	27.351
434.51	28.055
434.86	27.885
435.22	27.171
435.57	27.295
435.92	27.433
436.28	28.071
436.63	27.699
436.98	26.403
437.34	27.761
437.69	27.130
438.04	27.850
438.39	27.076
438.75	27.008
439.10	27.318
439.45	27.399
439.81	27.892
440.16	27.655
440.51	27.765
440.86	27.704
441.22	27.584
441.57	27.737
441.92	27.775
442.27	28.409
442.63	28.112
442.98	26.919
443.33	27.512
443.68	27.983
444.03	27.996
444.39	27.998
444.74	28.524
445.09	28.015
445.44	28.869
445.79	28.404
446.15	28.368
446.50	28.307
446.85	27.655
447.20	28.039
447.55	29.171
447.91	28.748
448.26	27.709
448.61	28.127
448.96	28.739
449.31	28.692
449.66	28.620
450.02	28.089
450.37	29.043
450.72	27.571
451.07	28.473
451.42	28.748
451.77	29.084
452.12	29.321
452.47	29.534
452.83	29.062
453.18	29.665
453.53	27.985
453.88	29.725
454.23	28.900
454.58	29.273
454.93	29.849
455.28	28.362
455.63	29.300
455.98	29.398
456.34	28.971
456.69	28.768
457.04	28.703
457.39	29.067
457.74	29.652
458.09	29.408
458.44	29.042
458.79	29.484
459.14	28.979
459.49	30.136
459.84	29.342
460.19	28.998
460.54	29.038
460.89	28.587
461.24	29.205
461.59	29.132
461.94	28.899
462.29	29.601
462.64	29.776
462.99	30.589
463.34	28.967
463.69	29.453
464.04	28.705
464.39	28.973
464.74	29.728
465.09	29.104
465.44	29.780
465.79	29.216
466.14	30.035
466.49	29.188
466.84	29.952
467.19	30.362
467.54	28.924
467.89	29.901
468.24	29.929
468.59	30.169
468.94	29.839
469.29	29.110
469.64	30.256
469.99	30.722
470.34	29.860
470.68	31.177
471.03	30.902
471.38	29.792
471.73	29.930
472.08	30.321
472.43	29.794
472.78	30.600
473.13	29.821
473.48	30.377
473.83	30.893
474.17	30.446
474.52	32.481
474.87	29.837
475.22	29.853
475.57	30.333
475.92	30.562
476.27	30.400
476.61	30.592
476.96	30.408
477.31	31.109
477.66	30.603
478.01	31.659
478.36	30.120
478.70	30.860
479.05	30.719
479.40	30.933
479.75	30.734
480.10	31.002
480.45	30.609
480.79	30.503
481.14	31.059
481.49	31.075
481.84	30.559
482.19	31.567
482.53	31.534
482.88	30.138
483.23	30.469
483.58	32.285
483.92	31.820
484.27	30.261
484.62	30.886
484.97	30.553
485.31	29.440
485.66	29.528
486.01	29.283
486.36	30.550
486.70	30.711
487.05	30.066
487.40	30.369
487.75	30.460
488.09	30.605
488.44	30.616
488.79	30.279
489.13	31.076
489.48	30.628
489.83	30.524
490.17	31.128
490.52	31.476
490.87	31.455
491.22	31.154
491.56	30.926
491.91	32.347
492.26	31.651
492.60	32.350
492.95	31.366
493.30	32.158
493.64	31.453
493.99	31.549
494.34	32.381
494.68	32.257
495.03	31.501
495.37	32.252
495.72	31.434
496.07	32.051
496.41	32.700
496.76	32.374
497.11	31.700
497.45	31.897
497.80	32.916
498.14	31.582
498.49	31.693
498.84	31.893
499.18	33.041
499.53	32.879
499.87	31.515
500.22	31.520
500.56	31.816
500.91	32.266
501.26	32.994
501.60	32.017
501.95	33.237
502.29	32.546
502.64	32.485
502.98	32.631
503.33	32.284
503.67	31.849
504.02	32.738
504.36	32.353
504.71	32.320
505.06	32.052
505.40	32.685
505.75	32.571
506.09	33.013
506.44	32.982
506.78	32.915
507.13	32.544
507.47	33.281
507.82	33.144
508.16	33.316
508.51	32.715
508.85	33.851
509.19	34.014
509.54	32.770
509.88	32.979
510.23	33.019
510.57	33.386
510.92	33.942
511.26	33.971
511.61	33.099
511.95	33.890
512.30	33.370
512.64	33.278
512.98	32.783
513.33	34.212
513.67	33.668
514.02	32.830
514.36	34.294
514.70	33.277
515.05	34.820
515.39	33.103
515.74	34.555
516.08	33.718
516.42	35.071
516.77	34.027
517.11	34.783
517.46	35.407
517.80	34.838
518.14	34.722
518.49	33.712
518.83	34.481
519.17	34.813
519.52	34.644
519.86	35.185
520.20	34.658
520.55	36.923
520.89	34.878
521.23	35.104
521.58	35.925
521.92	34.959
522.26	35.111
522.61	35.044
522.95	35.290
523.29	36.176
523.64	34.728
523.98	35.328
524.32	35.009
524.66	35.217
525.01	35.067
525.35	35.825
525.69	35.589
526.04	35.313
526.38	35.710
526.72	33.908
527.06	36.523
527.41	36.106
527.75	35.380
528.09	35.804
528.43	35.934
528.78	34.171
529.12	36.108
529.46	35.503
529.80	34.732
530.15	35.737
530.49	34.476
530.83	35.429
531.17	35.960
531.51	35.298
531.86	35.747
532.20	35.965
532.54	36.364
532.88	35.639
533.22	36.163
533.57	35.509
533.91	35.081
534.25	35.638
534.59	34.041
534.93	35.408
535.27	35.683
535.62	36.509
535.96	36.134
536.30	34.555
536.64	35.193
536.98	35.734
537.32	34.831
537.66	35.506
538.01	36.357
538.35	35.338
538.69	35.027
539.03	35.139
539.37	35.529
539.71	35.557
540.05	35.572
540.39	36.150
540.73	35.798
541.07	35.861
541.42	34.909
541.76	35.017
542.10	34.774
542.44	35.843
542.78	35.550
543.12	36.456
543.46	34.315
543.80	34.783
544.14	35.527
544.48	36.220
544.82	35.115
545.16	36.083
545.50	35.195
545.84	36.300
546.18	36.408
546.52	36.060
546.86	36.610
547.20	35.584
547.54	34.642
547.88	35.766
548.22	34.338
548.56	35.337
548.90	35.445
549.24	35.109
549.58	35.850
549.92	35.548
550.26	35.477
550.60	35.562
550.94	35.839
551.28	35.816
551.62	35.746
551.96	35.311
552.30	35.819
552.64	36.594
552.98	35.739
553.32	34.776
553.66	36.121
554.00	36.105
554.34	34.224
554.68	35.819
555.02	37.048
555.36	34.220
555.69	35.100
556.03	35.368
556.37	35.775
556.71	36.578
557.05	36.364
557.39	35.189
557.73	36.761
558.07	37.227
558.41	34.331
558.75	36.502
559.08	35.175
559.42	36.600
559.76	35.890
560.10	36.242
560.44	35.405
560.78	35.421
561.12	36.094
561.45	34.726
561.79	35.052
562.13	35.975
562.47	36.064
562.81	34.300
563.15	35.129
563.48	36.075
563.82	35.091
564.16	35.294
564.50	35.349
564.84	34.854
565.17	34.682
565.51	35.724
565.85	36.308
566.19	36.034
566.52	34.768
566.86	35.714
567.20	34.625
567.54	35.499
567.88	34.729
568.21	34.787
568.55	34.517
568.89	32.853
569.23	34.058
569.56	33.544
569.90	33.832
570.24	33.333
570.57	32.408
570.91	32.846
571.25	32.750
571.59	32.782
571.92	32.440
572.26	32.624
572.60	32.051
572.93	32.611
573.27	31.585
573.61	31.460
573.95	32.677
574.28	31.849
574.62	32.740
574.96	31.406
575.29	31.758
575.63	32.333
575.97	31.904
576.30	31.598
576.64	31.540
576.98	31.650
577.31	31.347
577.65	32.163
577.98	31.410
578.32	31.888
578.66	31.683
578.99	31.765
579.33	31.475
579.67	31.524
580.00	31.076
580.34	31.458
580.67	31.846
581.01	30.462
581.35	31.959
581.68	31.336
582.02	31.485
582.35	31.520
582.69	31.596
583.02	31.808
583.36	32.221
583.70	31.772
584.03	31.546
584.37	31.529
584.70	31.430
585.04	31.342
585.37	31.169
585.71	31.616
586.04	31.814
586.38	31.435
586.72	32.131
587.05	31.917
587.39	31.877
587.72	31.829
588.06	31.857
588.39	31.473
588.73	31.835
589.06	32.417
589.40	32.875
589.73	32.153
590.07	32.010
590.40	32.657
590.73	33.307
591.07	32.623
591.40	33.059
591.74	32.363
592.07	31.757
592.41	32.442
592.74	32.513
593.08	32.681
593.41	31.908
593.75	31.157
594.08	33.393
594.41	32.791
594.75	32.239
595.08	32.030
595.42	32.334
595.75	31.974
596.09	32.363
596.42	32.529
596.75	31.695
597.09	32.903
597.42	32.737
597.75	33.437
598.09	32.580
598.42	31.905
598.76	32.558
599.09	32.084
599.42	32.526
599.76	31.068
600.09	32.557
600.42	32.245
600.76	31.450
601.09	31.941
601.42	31.856
601.76	32.282
602.09	32.474
602.42	32.387
602.76	31.616
603.09	32.419
603.42	32.595
603.76	32.788
604.09	32.319
604.42	32.306
604.76	32.534
605.09	32.550
605.42	32.801
605.75	32.342
606.09	31.341
606.42	32.216
606.75	32.417
607.09	32.510
607.42	32.482
607.75	31.965
608.08	33.258
608.42	32.971
608.75	31.916
609.08	32.879
609.41	32.885
609.75	32.569
610.08	33.137
610.41	32.627
610.74	32.495
611.07	32.759
611.41	32.224
611.74	33.368
612.07	33.190
612.40	33.475
612.73	32.202
613.07	32.306
613.40	33.826
613.73	33.842
614.06	32.894
614.39	34.216
614.72	33.128
615.06	33.315
615.39	32.339
615.72	34.166
616.05	32.523
616.38	33.604
616.71	33.393
617.05	32.449
617.38	34.365
617.71	33.354
618.04	33.851
618.37	34.277
618.70	34.355
619.03	33.988
619.36	34.390
619.69	34.530
620.03	33.678
620.36	33.826
620.69	33.740
621.02	34.399
621.35	34.758
621.68	33.770
622.01	35.194
622.34	34.006
622.67	33.750
623.00	34.507
623.33	35.373
623.66	33.383
623.99	35.263
624.32	34.449
624.65	34.437
624.99	34.130
625.32	34.132
625.65	34.810
625.98	33.333
626.31	34.747
626.64	34.728
626.97	35.360
627.30	36.681
627.63	35.060
627.96	35.335
628.29	35.662
628.62	36.103
628.95	35.925
629.28	34.680
629.61	35.525
629.94	35.066
630.26	36.083
630.59	36.683
630.92	35.536
631.25	36.694
631.58	37.460
