SpectraSuite Data File
++++++++++++++++++++++++++++++++++++
Date: Sat May 16 11:39:39 PDT 2015
User: schluterlab
Dark Spectrum Present: Yes
Reference Spectrum Present: Yes
Number of Sampled Component Spectra: 1
Spectrometers: USB2E3373
Integration Time (usec): 3000 (USB2E3373)
Spectra Averaged: 3 (USB2E3373)
Boxcar Smoothing: 0 (USB2E3373)
Correct for Electrical Dark: No (USB2E3373)
Strobe/Lamp Enabled: No (USB2E3373)
Correct for Detector Non-linearity: No (USB2E3373)
Correct for Stray Light: No (USB2E3373)
Number of Pixels in Processed Spectrum: 2048
>>>>>Begin Processed Spectral Data<<<<<
178.53	0.000
178.91	80.000
179.29	400.000
179.67	-2400.000
180.04	-23.077
180.42	1000.000
180.80	575.000
181.18	200.000
181.56	-87.500
181.94	1000.000
182.31	375.000
182.69	-76.923
183.07	-733.333
183.45	1850.000
183.83	666.667
184.20	-271.429
184.58	-87.500
184.96	-325.000
185.34	81.250
185.72	-725.000
186.09	250.000
186.47	-287.500
186.85	-175.000
187.23	12.500
187.61	-350.000
187.98	-350.000
188.36	-162.500
188.74	-175.000
189.12	2400.000
189.49	457.143
189.87	-133.333
190.25	325.000
190.63	-14.286
191.00	-211.111
191.38	460.000
191.76	-6.667
192.14	460.000
192.51	-340.000
192.89	-466.667
193.27	0.000
193.65	-166.667
194.02	-242.857
194.40	600.000
194.78	-160.000
195.15	-1500.000
195.53	-154.545
195.91	-216.667
196.29	260.000
196.66	-666.667
197.04	3200.000
197.42	-75.000
197.79	-66.667
198.17	-366.667
198.55	-950.000
198.92	-2200.000
199.30	175.000
199.68	-100.000
200.05	-233.333
200.43	-244.444
200.81	-3300.000
201.18	-216.667
201.56	200.000
201.94	-20.000
202.31	13.636
202.69	-110.000
203.07	-30.000
203.44	766.667
203.82	-400.000
204.19	-650.000
204.57	-100.000
204.95	-2400.000
205.32	-12.500
205.70	800.000
206.08	-1300.000
206.45	-44.444
206.83	-1050.000
207.20	-250.000
207.58	-700.000
207.96	-533.333
208.33	-187.500
208.71	-144.444
209.08	160.000
209.46	-185.714
209.84	500.000
210.21	0.000
210.59	10.000
210.96	1300.000
211.34	-233.333
211.71	-433.333
212.09	275.000
212.46	1500.000
212.84	-2400.000
213.22	1033.333
213.59	133.333
213.97	-77.778
214.34	160.000
214.72	-40.000
215.09	-666.667
215.47	-233.333
215.84	-30.000
216.22	-190.000
216.59	-20.000
216.97	-550.000
217.34	1100.000
217.72	-114.286
218.09	-333.333
218.47	-228.571
218.84	128.571
219.22	-185.714
219.59	0.000
219.97	285.714
220.34	525.000
220.72	325.000
221.09	-15.385
221.47	0.000
221.84	333.333
222.22	-750.000
222.59	200.000
222.97	-200.000
223.34	-850.000
223.72	-666.667
224.09	14.286
224.46	-475.000
224.84	-42.857
225.21	-214.286
225.59	-109.091
225.96	-187.500
226.34	-185.714
226.71	-233.333
227.08	10.000
227.46	3400.000
227.83	-228.571
228.21	-112.500
228.58	700.000
228.95	-43.750
229.33	-1900.000
229.70	-440.000
230.08	-1100.000
230.45	-33.333
230.82	-100.000
231.20	-200.000
231.57	-500.000
231.95	1900.000
232.32	-4.762
232.69	-100.000
233.07	-214.286
233.44	-800.000
233.81	-80.000
234.19	-77.778
234.56	12.500
234.93	12.500
235.31	-242.857
235.68	-150.000
236.05	-100.000
236.43	-45.455
236.80	-12.903
237.17	-29.167
237.55	-42.857
237.92	-77.273
238.29	2.857
238.67	-26.471
239.04	-16.667
239.41	-6.452
239.79	-30.769
240.16	-38.095
240.53	0.000
240.91	-43.590
241.28	0.000
241.65	-3.077
242.02	-6.557
242.40	1.639
242.77	-15.152
243.14	-8.475
243.51	-14.286
243.89	-11.392
244.26	-4.494
244.63	7.368
245.00	-2.105
245.38	6.780
245.75	1.770
246.12	6.400
246.49	2.362
246.87	-6.504
247.24	-4.237
247.61	0.847
247.98	4.225
248.36	1.399
248.73	8.861
249.10	2.548
249.47	5.848
249.84	10.227
250.22	-3.571
250.59	7.345
250.96	2.618
251.33	6.635
251.70	2.404
252.08	6.635
252.45	5.687
252.82	1.905
253.19	6.809
253.56	6.855
253.94	5.907
254.31	8.584
254.68	8.943
255.05	7.258
255.42	13.889
255.79	4.301
256.16	9.020
256.54	11.765
256.91	6.061
257.28	6.227
257.65	2.837
258.02	14.465
258.39	10.702
258.76	10.135
259.14	11.420
259.51	14.098
259.88	8.537
260.25	9.006
260.62	9.003
260.99	7.122
261.36	10.366
261.73	12.717
262.10	10.833
262.47	9.972
262.85	10.857
263.22	8.023
263.59	8.000
263.96	9.855
264.33	11.653
264.70	9.669
265.07	8.242
265.44	8.527
265.81	11.628
266.18	6.835
266.55	12.500
266.92	12.846
267.29	9.201
267.66	12.099
268.03	10.145
268.40	11.033
268.77	9.157
269.14	10.905
269.51	10.345
269.88	5.505
270.25	10.490
270.62	10.755
270.99	10.586
271.36	10.723
271.73	9.417
272.10	10.526
272.47	11.111
272.84	12.000
273.21	12.844
273.58	13.626
273.95	12.061
274.32	10.181
274.69	11.379
275.06	13.088
275.43	9.821
275.80	13.035
276.17	12.762
276.54	12.016
276.91	10.082
277.28	11.765
277.65	9.091
278.02	9.812
278.39	12.181
278.76	9.761
279.13	11.067
279.50	12.127
279.87	12.262
280.23	10.931
280.60	10.537
280.97	8.738
281.34	10.638
281.71	12.115
282.08	10.081
282.45	10.183
282.82	12.403
283.19	12.000
283.56	13.553
283.92	9.541
284.29	11.152
284.66	12.050
285.03	13.547
285.40	9.225
285.77	11.404
286.14	11.733
286.51	8.703
286.87	12.523
287.24	12.116
287.61	10.579
287.98	11.438
288.35	8.760
288.72	10.696
289.08	9.153
289.45	11.616
289.82	11.419
290.19	12.315
290.56	7.769
290.93	8.744
291.29	8.428
291.66	10.467
292.03	10.361
292.40	10.241
292.77	8.851
293.13	9.268
293.50	10.698
293.87	8.742
294.24	10.106
294.60	7.727
294.97	9.712
295.34	9.185
295.71	9.970
296.08	9.677
296.44	7.439
296.81	8.832
297.18	9.577
297.55	8.475
297.91	9.205
298.28	9.589
298.65	9.205
299.02	12.032
299.38	8.690
299.75	10.190
300.12	9.103
300.48	8.440
300.85	8.650
301.22	8.797
301.59	8.583
301.95	9.950
302.32	6.519
302.69	7.956
303.05	8.059
303.42	8.000
303.79	8.254
304.15	8.294
304.52	7.818
304.89	7.910
305.25	7.448
305.62	8.578
305.99	9.658
306.35	9.101
306.72	7.973
307.09	9.762
307.45	9.308
307.82	7.821
308.19	8.389
308.55	9.150
308.92	7.089
309.29	7.027
309.65	7.317
310.02	8.315
310.38	7.027
310.75	8.402
311.12	8.264
311.48	9.395
311.85	7.518
312.22	7.003
312.58	8.850
312.95	8.359
313.31	9.391
313.68	9.146
314.05	8.803
314.41	8.048
314.78	7.692
315.14	8.193
315.51	7.396
315.87	9.197
316.24	8.066
316.61	8.061
316.97	8.259
317.34	8.189
317.70	8.071
318.07	7.649
318.43	7.865
318.80	9.671
319.16	7.786
319.53	7.613
319.89	7.150
320.26	8.039
320.62	7.500
320.99	8.657
321.35	6.305
321.72	6.448
322.08	9.594
322.45	7.129
322.81	8.934
323.18	8.069
323.54	8.318
323.91	7.507
324.27	9.316
324.64	7.587
325.00	7.766
325.37	8.507
325.73	8.224
326.10	6.466
326.46	7.531
326.83	8.596
327.19	8.424
327.56	7.922
327.92	8.751
328.29	7.446
328.65	7.000
329.01	7.686
329.38	7.315
329.74	7.784
330.11	8.794
330.47	7.993
330.84	7.424
331.20	7.491
331.56	7.293
331.93	7.904
332.29	7.763
332.66	7.463
333.02	7.059
333.38	6.720
333.75	8.370
334.11	7.289
334.48	6.620
334.84	8.311
335.20	7.535
335.57	7.401
335.93	8.326
336.29	7.440
336.66	6.872
337.02	8.649
337.38	5.971
337.75	7.375
338.11	7.513
338.47	6.228
338.84	6.624
339.20	7.557
339.56	7.932
339.93	6.966
340.29	5.757
340.65	7.080
341.02	8.179
341.38	7.751
341.74	7.451
342.11	7.082
342.47	6.524
342.83	7.893
343.20	7.173
343.56	6.286
343.92	8.097
344.28	7.317
344.65	7.096
345.01	7.479
345.37	7.392
345.73	6.628
346.10	6.787
346.46	6.986
346.82	7.057
347.19	6.163
347.55	6.982
347.91	7.165
348.27	6.364
348.63	7.512
349.00	8.433
349.36	5.699
349.72	8.041
350.08	7.378
350.45	6.147
350.81	7.166
351.17	6.752
351.53	5.569
351.89	7.033
352.26	6.977
352.62	8.218
352.98	6.566
353.34	7.754
353.70	5.946
354.07	7.160
354.43	8.221
354.79	6.656
355.15	6.310
355.51	7.500
355.87	6.166
356.24	6.831
356.60	8.864
356.96	7.775
357.32	6.651
357.68	6.513
358.04	6.236
358.40	6.187
358.77	6.723
359.13	7.575
359.49	6.954
359.85	6.936
360.21	6.469
360.57	7.229
360.93	6.963
361.29	7.698
361.66	6.021
362.02	6.287
362.38	7.117
362.74	7.106
363.10	6.815
363.46	7.764
363.82	6.997
364.18	7.598
364.54	7.934
364.90	7.128
365.26	7.133
365.62	7.056
365.98	7.824
366.35	6.197
366.71	6.272
367.07	6.422
367.43	8.167
367.79	7.423
368.15	5.974
368.51	7.343
368.87	8.173
369.23	8.000
369.59	6.875
369.95	7.118
370.31	7.103
370.67	5.568
371.03	7.434
371.39	6.082
371.75	8.011
372.11	6.671
372.47	7.520
372.83	7.024
373.19	6.857
373.55	6.826
373.91	7.255
374.27	6.845
374.63	7.108
374.99	6.328
375.35	6.931
375.71	7.360
376.07	7.461
376.42	5.430
376.78	7.255
377.14	7.458
377.50	6.834
377.86	7.152
378.22	6.721
378.58	6.424
378.94	6.843
379.30	6.581
379.66	7.407
380.02	7.011
380.38	7.311
380.74	7.210
381.09	8.026
381.45	7.578
381.81	6.534
382.17	6.704
382.53	6.869
382.89	7.237
383.25	7.164
383.61	6.840
383.97	7.042
384.32	6.946
384.68	7.497
385.04	7.246
385.40	7.243
385.76	6.951
386.12	7.183
386.48	7.116
386.83	7.301
387.19	6.934
387.55	7.087
387.91	6.758
388.27	6.936
388.62	7.212
388.98	7.329
389.34	6.854
389.70	7.125
390.06	7.458
390.42	6.859
390.77	7.382
391.13	6.832
391.49	6.862
391.85	7.544
392.20	7.221
392.56	6.659
392.92	7.017
393.28	7.807
393.64	7.396
393.99	6.954
394.35	7.664
394.71	7.474
395.07	8.035
395.42	6.794
395.78	7.040
396.14	7.539
396.50	6.544
396.85	7.526
397.21	7.230
397.57	8.024
397.92	7.260
398.28	7.222
398.64	6.841
399.00	7.584
399.35	7.384
399.71	7.666
400.07	7.403
400.42	8.151
400.78	7.156
401.14	7.964
401.49	7.252
401.85	7.322
402.21	7.330
402.57	7.464
402.92	7.804
403.28	7.292
403.63	7.130
403.99	7.334
404.35	7.428
404.70	7.022
405.06	7.901
405.42	6.273
405.77	7.183
406.13	7.098
406.49	7.549
406.84	6.959
407.20	7.774
407.55	7.663
407.91	6.930
408.27	8.395
408.62	7.517
408.98	8.005
409.34	7.252
409.69	7.498
410.05	7.884
410.40	8.032
410.76	7.765
411.11	7.731
411.47	7.161
411.83	7.763
412.18	7.116
412.54	7.200
412.89	7.898
413.25	6.966
413.60	7.290
413.96	6.654
414.31	8.012
414.67	7.302
415.03	7.633
415.38	7.677
415.74	7.861
416.09	7.481
416.45	6.614
416.80	8.257
417.16	6.844
417.51	8.339
417.87	7.573
418.22	7.522
418.58	7.125
418.93	8.216
419.29	7.340
419.64	6.721
420.00	8.019
420.35	6.801
420.71	7.263
421.06	8.284
421.42	6.733
421.77	7.370
422.12	7.946
422.48	7.483
422.83	7.802
423.19	6.904
423.54	7.608
423.90	7.692
424.25	7.410
424.61	7.479
424.96	7.314
425.31	7.714
425.67	7.622
426.02	7.745
426.38	7.683
426.73	7.949
427.09	7.721
427.44	8.523
427.79	7.558
428.15	8.259
428.50	8.211
428.85	8.153
429.21	7.803
429.56	7.552
429.92	8.317
430.27	7.378
430.62	7.785
430.98	8.573
431.33	7.471
431.68	8.794
432.04	8.114
432.39	8.547
432.74	7.854
433.10	7.878
433.45	7.945
433.80	7.895
434.16	9.027
434.51	7.616
434.86	8.846
435.22	8.296
435.57	8.140
435.92	7.796
436.28	8.427
436.63	7.801
436.98	7.617
437.34	8.447
437.69	7.935
438.04	7.828
438.39	8.905
438.75	8.382
439.10	8.440
439.45	7.785
439.81	8.855
440.16	7.666
440.51	8.059
440.86	8.155
441.22	7.905
441.57	8.105
441.92	8.389
442.27	8.117
442.63	8.047
442.98	7.562
443.33	8.347
443.68	8.702
444.03	8.301
444.39	7.978
444.74	8.260
445.09	7.346
445.44	8.441
445.79	7.598
446.15	8.215
446.50	7.839
446.85	8.312
447.20	8.121
447.55	7.845
447.91	8.029
448.26	8.045
448.61	8.319
448.96	7.787
449.31	8.174
449.66	8.243
450.02	7.701
450.37	7.942
450.72	7.797
451.07	8.045
451.42	7.807
451.77	8.498
452.12	8.105
452.47	8.942
452.83	8.561
453.18	8.729
453.53	8.955
453.88	8.971
454.23	7.860
454.58	8.763
454.93	9.383
455.28	8.732
455.63	8.907
455.98	8.193
456.34	8.132
456.69	9.881
457.04	8.666
457.39	8.792
457.74	8.565
458.09	8.643
458.44	9.815
458.79	7.904
459.14	8.443
459.49	8.881
459.84	8.432
460.19	8.711
460.54	8.227
460.89	8.520
461.24	8.804
461.59	9.613
461.94	9.421
462.29	8.755
462.64	9.354
462.99	9.237
463.34	8.643
463.69	8.397
464.04	8.905
464.39	8.303
464.74	9.515
465.09	7.877
465.44	8.799
465.79	8.460
466.14	8.458
466.49	9.269
466.84	9.304
467.19	8.666
467.54	8.354
467.89	9.063
468.24	9.086
468.59	8.182
468.94	8.746
469.29	9.227
469.64	9.232
469.99	10.533
470.34	8.818
470.68	10.029
471.03	9.498
471.38	7.847
471.73	9.441
472.08	9.237
472.43	9.524
472.78	9.333
473.13	8.085
473.48	8.615
473.83	9.429
474.17	8.981
474.52	9.591
474.87	9.266
475.22	8.968
475.57	8.778
475.92	9.503
476.27	9.371
476.61	9.014
476.96	9.279
477.31	9.634
477.66	9.519
478.01	9.454
478.36	9.639
478.70	9.130
479.05	9.897
479.40	9.689
479.75	9.582
480.10	8.581
480.45	9.381
480.79	9.822
481.14	9.834
481.49	9.584
481.84	9.663
482.19	9.548
482.53	9.659
482.88	8.970
483.23	9.343
483.58	9.944
483.92	9.747
484.27	8.950
484.62	9.762
484.97	9.002
485.31	8.480
485.66	8.276
486.01	8.070
486.36	8.419
486.70	8.751
487.05	8.879
487.40	8.948
487.75	8.984
488.09	8.555
488.44	9.066
488.79	9.904
489.13	9.281
489.48	10.155
489.83	10.262
490.17	9.882
490.52	9.964
490.87	9.145
491.22	9.715
491.56	9.815
491.91	9.876
492.26	10.000
492.60	9.420
492.95	10.138
493.30	9.719
493.64	9.732
493.99	9.895
494.34	9.952
494.68	10.019
495.03	10.134
495.37	9.882
495.72	10.363
496.07	10.652
496.41	10.468
496.76	9.863
497.11	10.551
497.45	11.111
497.80	10.255
498.14	9.823
498.49	10.296
498.84	10.534
499.18	11.014
499.53	10.521
499.87	10.521
500.22	9.510
500.56	9.855
500.91	10.443
501.26	10.820
501.60	9.581
501.95	10.290
502.29	9.825
502.64	10.467
502.98	9.966
503.33	10.526
503.67	10.010
504.02	10.092
504.36	10.343
504.71	9.929
505.06	9.685
505.40	10.529
505.75	10.315
506.09	10.415
506.44	10.476
506.78	10.587
507.13	10.299
507.47	10.902
507.82	10.480
508.16	10.363
508.51	10.871
508.85	10.352
509.19	11.146
509.54	10.888
509.88	11.170
510.23	10.325
510.57	10.635
510.92	11.869
511.26	10.739
511.61	10.691
511.95	11.261
512.30	10.445
512.64	11.297
512.98	10.836
513.33	11.312
513.67	10.888
514.02	11.242
514.36	11.579
514.70	11.092
515.05	11.778
515.39	10.727
515.74	11.809
516.08	10.893
516.42	11.558
516.77	11.496
517.11	11.785
517.46	11.782
517.80	11.492
518.14	11.353
518.49	11.715
518.83	10.564
519.17	11.072
519.52	11.336
519.86	11.410
520.20	11.247
520.55	11.508
520.89	11.083
521.23	12.332
521.58	11.285
521.92	12.160
522.26	11.619
522.61	11.470
522.95	10.785
523.29	11.850
523.64	11.555
523.98	11.267
524.32	11.879
524.66	12.050
525.01	11.432
525.35	11.920
525.69	11.906
526.04	12.206
526.38	12.476
526.72	11.750
527.06	11.979
527.41	11.551
527.75	11.353
528.09	11.714
528.43	11.475
528.78	12.877
529.12	12.228
529.46	11.856
529.80	12.072
530.15	12.299
530.49	12.096
530.83	12.770
531.17	11.582
531.51	11.520
531.86	12.574
532.20	11.471
532.54	12.567
532.88	11.924
533.22	11.497
533.57	11.488
533.91	11.236
534.25	11.628
534.59	10.993
534.93	10.641
535.27	12.209
535.62	12.212
535.96	11.571
536.30	11.584
536.64	11.886
536.98	11.582
537.32	11.748
537.66	11.881
538.01	11.821
538.35	12.027
538.69	11.230
539.03	11.510
539.37	11.976
539.71	12.408
540.05	11.378
540.39	12.465
540.73	11.472
541.07	12.910
541.42	10.871
541.76	11.096
542.10	12.762
542.44	12.392
542.78	12.076
543.12	11.677
543.46	11.849
543.80	11.505
544.14	10.880
544.48	11.745
544.82	11.367
545.16	12.609
545.50	11.171
545.84	12.239
546.18	12.691
546.52	12.091
546.86	12.322
547.20	11.814
547.54	11.570
547.88	12.475
548.22	11.468
548.56	11.824
548.90	11.590
549.24	10.862
549.58	11.644
549.92	12.438
550.26	12.934
550.60	12.518
550.94	11.898
551.28	11.813
551.62	11.669
551.96	12.012
552.30	12.404
552.64	11.893
552.98	12.404
553.32	11.472
553.66	12.401
554.00	12.438
554.34	11.408
554.68	11.550
555.02	12.229
555.36	12.006
555.69	11.461
556.03	12.211
556.37	11.735
556.71	12.598
557.05	11.973
557.39	11.581
557.73	11.816
558.07	11.831
558.41	12.491
558.75	11.483
559.08	11.128
559.42	12.328
559.76	12.500
560.10	13.050
560.44	12.645
560.78	11.691
561.12	12.422
561.45	12.740
561.79	11.429
562.13	11.501
562.47	11.275
562.81	11.174
563.15	11.267
563.48	12.163
563.82	11.291
564.16	10.615
564.50	12.836
564.84	11.310
565.17	12.069
565.51	11.930
565.85	12.035
566.19	11.989
566.52	11.742
566.86	11.252
567.20	12.409
567.54	12.050
567.88	10.999
568.21	10.906
568.55	10.392
568.89	10.636
569.23	10.643
569.56	10.004
569.90	11.054
570.24	10.109
570.57	9.631
570.91	10.133
571.25	10.019
571.59	9.928
571.92	10.060
572.26	9.856
572.60	10.177
572.93	9.786
573.27	9.238
573.61	9.406
573.95	10.032
574.28	9.503
574.62	9.837
574.96	9.272
575.29	9.477
575.63	9.344
575.97	9.439
576.30	9.482
576.64	9.138
576.98	9.530
577.31	9.487
577.65	9.461
577.98	9.570
578.32	9.051
578.66	9.131
578.99	9.171
579.33	9.445
579.67	9.511
580.00	9.375
580.34	9.320
580.67	9.242
581.01	9.027
581.35	9.173
581.68	9.256
582.02	8.996
582.35	9.197
582.69	9.439
583.02	9.328
583.36	9.438
583.70	9.447
584.03	9.483
584.37	9.229
584.70	9.569
585.04	9.620
585.37	9.236
585.71	9.361
586.04	9.271
586.38	8.982
586.72	9.752
587.05	9.601
587.39	9.287
587.72	9.875
588.06	9.491
588.39	9.655
588.73	9.988
589.06	9.783
589.40	10.477
589.73	10.234
590.07	9.832
590.40	10.258
590.73	9.876
591.07	10.410
591.40	10.832
591.74	10.643
592.07	10.000
592.41	10.658
592.74	10.338
593.08	9.990
593.41	9.836
593.75	9.792
594.08	9.669
594.41	10.203
594.75	9.928
595.08	9.361
595.42	10.296
595.75	9.923
596.09	10.012
596.42	10.556
596.75	10.349
597.09	10.730
597.42	10.301
597.75	10.496
598.09	10.212
598.42	10.296
598.76	9.676
599.09	9.826
599.42	9.650
599.76	10.004
600.09	9.809
600.42	10.482
600.76	10.207
601.09	10.065
601.42	9.735
601.76	9.696
602.09	9.980
602.42	10.206
602.76	9.639
603.09	10.363
603.42	10.314
603.76	10.291
604.09	10.453
604.42	9.908
604.76	10.423
605.09	10.624
605.42	10.505
605.75	10.004
606.09	10.129
606.42	9.845
606.75	10.219
607.09	10.146
607.42	9.199
607.75	10.287
608.08	10.755
608.42	10.454
608.75	10.140
609.08	10.619
609.41	10.164
609.75	11.068
610.08	11.078
610.41	11.084
610.74	10.832
611.07	10.700
611.41	10.540
611.74	11.208
612.07	10.849
612.40	10.341
612.73	11.147
613.07	10.292
613.40	11.987
613.73	10.136
614.06	10.379
614.39	10.710
614.72	10.782
615.06	9.783
615.39	10.038
615.72	10.592
616.05	9.884
616.38	10.447
616.71	11.231
617.05	11.218
617.38	11.084
617.71	10.504
618.04	10.062
618.37	10.503
618.70	11.930
619.03	10.630
619.36	12.474
619.69	12.419
620.03	11.226
620.36	11.322
620.69	11.486
621.02	10.883
621.35	10.726
621.68	10.820
622.01	12.055
622.34	12.500
622.67	10.859
623.00	11.783
623.33	11.791
623.66	10.931
623.99	11.654
624.32	11.384
624.65	11.332
624.99	11.650
625.32	11.751
625.65	10.645
625.98	12.128
626.31	11.338
626.64	11.799
626.97	11.729
627.30	10.894
627.63	12.090
627.96	12.010
628.29	12.316
628.62	12.321
628.95	13.681
629.28	12.594
629.61	11.482
629.94	12.949
630.26	13.817
630.59	12.965
630.92	12.012
631.25	13.810
631.58	13.122
631.91	11.277
632.24	12.556
632.57	11.667
632.90	12.874
633.23	13.084
633.56	13.684
633.89	13.325
634.22	12.751
634.55	13.462
634.88	13.422
635.20	11.236
635.53	12.977
635.86	13.224
636.19	12.698
636.52	12.664
636.85	11.673
637.18	12.125
637.51	13.383
637.83	11.718
638.16	11.184
638.49	11.586
638.82	12.227
639.15	13.489
639.48	11.025
639.81	13.555
640.13	11.892
640.46	12.393
640.79	14.566
641.12	13.822
641.45	12.769
641.77	14.371
642.10	13.595
642.43	14.568
642.76	14.173
643.09	12.222
643.41	14.921
643.74	15.421
644.07	14.353
644.40	13.452
644.73	13.036
645.05	12.855
645.38	15.397
645.71	15.636
646.04	13.782
646.36	11.693
