SpectraSuite Data File
++++++++++++++++++++++++++++++++++++
Date: Sat May 16 11:24:13 PDT 2015
User: schluterlab
Dark Spectrum Present: Yes
Reference Spectrum Present: Yes
Number of Sampled Component Spectra: 1
Spectrometers: USB2E3373
Integration Time (usec): 3000 (USB2E3373)
Spectra Averaged: 3 (USB2E3373)
Boxcar Smoothing: 0 (USB2E3373)
Correct for Electrical Dark: No (USB2E3373)
Strobe/Lamp Enabled: No (USB2E3373)
Correct for Detector Non-linearity: No (USB2E3373)
Correct for Stray Light: No (USB2E3373)
Number of Pixels in Processed Spectrum: 2048
>>>>>Begin Processed Spectral Data<<<<<
178.53	0.000
178.91	100.000
179.29	400.000
179.67	-1800.000
180.04	-130.769
180.42	-0.000
180.80	500.000
181.18	175.000
181.56	-75.000
181.94	700.000
182.31	625.000
182.69	-69.231
183.07	-533.333
183.45	1450.000
183.83	533.333
184.20	-128.571
184.58	-150.000
184.96	-300.000
185.34	137.500
185.72	-125.000
186.09	250.000
186.47	-162.500
186.85	-325.000
187.23	-12.500
187.61	-325.000
187.98	-337.500
188.36	-100.000
188.74	-200.000
189.12	1300.000
189.49	314.286
189.87	-66.667
190.25	325.000
190.63	-7.143
191.00	-188.889
191.38	520.000
191.76	-6.667
192.14	240.000
192.51	-200.000
192.89	-566.667
193.27	0.000
193.65	11.111
194.02	-300.000
194.40	233.333
194.78	-60.000
195.15	-1500.000
195.53	-145.455
195.91	-233.333
196.29	220.000
196.66	-566.667
197.04	2300.000
197.42	-100.000
197.79	-46.667
198.17	-166.667
198.55	-100.000
198.92	-1000.000
199.30	75.000
199.68	-300.000
200.05	-33.333
200.43	-244.444
200.81	-1200.000
201.18	-100.000
201.56	257.143
201.94	-113.333
202.31	0.000
202.69	70.000
203.07	-30.000
203.44	700.000
203.82	-416.667
204.19	-225.000
204.57	-175.000
204.95	-800.000
205.32	-68.750
205.70	1800.000
206.08	-1200.000
206.45	-50.000
206.83	-400.000
207.20	300.000
207.58	-533.333
207.96	-366.667
208.33	-87.500
208.71	-166.667
209.08	180.000
209.46	-85.714
209.84	1050.000
210.21	0.000
210.59	35.000
210.96	1200.000
211.34	-283.333
211.71	-533.333
212.09	425.000
212.46	1050.000
212.84	-2600.000
213.22	533.333
213.59	133.333
213.97	-22.222
214.34	250.000
214.72	-100.000
215.09	-966.667
215.47	-233.333
215.84	-30.000
216.22	-100.000
216.59	40.000
216.97	-550.000
217.34	950.000
217.72	-71.429
218.09	-233.333
218.47	-271.429
218.84	342.857
219.22	-14.286
219.59	0.000
219.97	228.571
220.34	600.000
220.72	175.000
221.09	-76.923
221.47	0.000
221.84	266.667
222.22	-800.000
222.59	1200.000
222.97	-312.500
223.34	-650.000
223.72	-500.000
224.09	-85.714
224.46	-150.000
224.84	-57.143
225.21	-314.286
225.59	-81.818
225.96	-150.000
226.34	-128.571
226.71	-155.556
227.08	-25.000
227.46	2200.000
227.83	14.286
228.21	-100.000
228.58	800.000
228.95	12.500
229.33	-1500.000
229.70	-240.000
230.08	-1050.000
230.45	-25.000
230.82	-266.667
231.20	-700.000
231.57	-650.000
231.95	700.000
232.32	28.571
232.69	-122.222
233.07	-385.714
233.44	-850.000
233.81	-46.667
234.19	-100.000
234.56	-43.750
234.93	9.375
235.31	-314.286
235.68	-135.714
236.05	-29.412
236.43	-81.818
236.80	-25.806
237.17	-91.667
237.55	-9.524
237.92	-86.364
238.29	-14.286
238.67	-20.588
239.04	-30.556
239.41	-58.065
239.79	-46.154
240.16	-38.095
240.53	-18.182
240.91	-20.513
241.28	-10.909
241.65	10.769
242.02	-4.918
242.40	-14.754
242.77	-9.091
243.14	-35.593
243.51	-20.000
243.89	-13.924
244.26	-3.371
244.63	1.053
245.00	2.105
245.38	2.542
245.75	2.655
246.12	-7.200
246.49	-2.362
246.87	-2.439
247.24	-16.102
247.61	-19.492
247.98	-2.817
248.36	-6.294
248.73	-5.063
249.10	-12.739
249.47	-0.585
249.84	-2.273
250.22	-4.762
250.59	0.565
250.96	-4.188
251.33	1.896
251.70	-1.442
252.08	3.791
252.45	-3.318
252.82	-3.333
253.19	1.702
253.56	-3.629
253.94	0.422
254.31	0.429
254.68	-0.813
255.05	-2.419
255.42	-1.984
255.79	-2.509
256.16	2.353
256.54	0.735
256.91	-1.515
257.28	-0.366
257.65	-1.773
258.02	2.830
258.39	1.003
258.76	-3.378
259.14	1.543
259.51	2.951
259.88	0.305
260.25	2.174
260.62	-2.572
260.99	1.484
261.36	0.610
261.73	3.757
262.10	4.722
262.47	0.000
262.85	5.143
263.22	-2.006
263.59	-3.077
263.96	4.058
264.33	-0.271
264.70	4.144
265.07	0.549
265.44	2.842
265.81	2.067
266.18	0.759
266.55	3.186
266.92	4.282
267.29	2.179
267.66	3.457
268.03	2.415
268.40	2.582
268.77	4.096
269.14	1.160
269.51	4.598
269.88	1.606
270.25	0.466
270.62	4.577
270.99	3.153
271.36	1.399
271.73	-0.224
272.10	2.059
272.47	1.778
272.84	3.778
273.21	4.128
273.58	0.659
273.95	0.658
274.32	1.810
274.69	2.845
275.06	5.112
275.43	1.116
275.80	3.666
276.17	2.720
276.54	5.295
276.91	1.852
277.28	3.245
277.65	3.306
278.02	1.879
278.39	4.519
278.76	1.992
279.13	2.174
279.50	2.187
279.87	1.903
280.23	2.227
280.60	2.386
280.97	1.165
281.34	0.967
281.71	3.269
282.08	1.815
282.45	-1.018
282.82	1.938
283.19	1.091
283.56	2.747
283.92	3.357
284.29	3.346
284.66	3.417
285.03	4.456
285.40	4.059
285.77	3.509
286.14	2.166
286.51	0.533
286.87	2.722
287.24	2.730
287.61	2.479
287.98	0.867
288.35	1.488
288.72	1.698
289.08	2.542
289.45	4.714
289.82	1.557
290.19	3.941
290.56	1.488
290.93	0.954
291.29	0.162
291.66	2.738
292.03	3.297
292.40	2.711
292.77	2.950
293.13	3.902
293.50	2.823
293.87	2.301
294.24	2.715
294.60	1.061
294.97	3.338
295.34	2.074
295.71	3.274
296.08	0.461
296.44	2.289
296.81	3.276
297.18	2.535
297.55	3.107
297.91	4.463
298.28	0.822
298.65	1.395
299.02	3.610
299.38	3.209
299.75	2.174
300.12	2.308
300.48	3.964
300.85	1.573
301.22	2.975
301.59	2.731
301.95	3.275
302.32	0.913
302.69	3.672
303.05	3.175
303.42	2.875
303.79	2.392
304.15	3.436
304.52	3.617
304.89	3.778
305.25	1.709
305.62	2.585
305.99	3.887
306.35	3.996
306.72	2.506
307.09	4.313
307.45	1.703
307.82	3.352
308.19	3.244
308.55	2.723
308.92	1.719
309.29	3.459
309.65	1.803
310.02	3.780
310.38	2.162
310.75	3.791
311.12	4.649
311.48	4.071
311.85	2.987
312.22	3.708
312.58	4.374
312.95	3.670
313.31	5.195
313.68	4.322
314.05	4.352
314.41	2.213
314.78	2.597
315.14	3.653
315.51	3.850
315.87	4.453
316.24	4.762
316.61	5.470
316.97	4.776
317.34	4.913
317.70	4.267
318.07	6.343
318.43	4.307
318.80	4.977
319.16	3.752
319.53	4.887
319.89	4.139
320.26	6.471
320.62	4.808
320.99	5.373
321.35	4.236
321.72	4.811
322.08	6.429
322.45	3.960
322.81	6.244
323.18	6.148
323.54	6.839
323.91	6.580
324.27	7.129
324.64	7.038
325.00	7.679
325.37	7.330
325.73	8.049
326.10	5.846
326.46	7.793
326.83	7.830
327.19	8.007
327.56	9.029
327.92	9.431
328.29	9.437
328.65	7.364
329.01	10.247
329.38	8.653
329.74	9.432
330.11	9.882
330.47	9.809
330.84	11.182
331.20	9.296
331.56	9.116
331.93	10.124
332.29	10.594
332.66	10.975
333.02	9.774
333.38	10.753
333.75	11.042
334.11	10.844
334.48	9.797
334.84	12.686
335.20	11.702
335.57	10.650
335.93	11.907
336.29	10.717
336.66	10.925
337.02	12.252
337.38	11.052
337.75	10.448
338.11	11.628
338.47	12.278
338.84	11.615
339.20	11.863
339.56	12.834
339.93	11.376
340.29	11.869
340.65	12.150
341.02	12.563
341.38	12.216
341.74	10.754
342.11	12.201
342.47	12.103
342.83	11.587
343.20	12.810
343.56	11.347
343.92	12.855
344.28	12.868
344.65	11.716
345.01	11.933
345.37	12.542
345.73	10.638
346.10	11.202
346.46	11.698
346.82	11.147
347.19	12.079
347.55	11.156
347.91	12.126
348.27	12.251
348.63	13.086
349.00	13.286
349.36	11.007
349.72	12.341
350.08	12.029
350.45	11.032
350.81	12.580
351.17	11.977
351.53	11.456
351.89	12.207
352.26	12.868
352.62	12.980
352.98	11.788
353.34	11.511
353.70	11.660
354.07	12.195
354.43	13.043
354.79	12.441
355.15	12.620
355.51	11.562
355.87	12.490
356.24	11.994
356.60	12.651
356.96	12.625
357.32	12.193
357.68	12.797
358.04	12.086
358.40	12.529
358.77	12.442
359.13	12.548
359.49	12.623
359.85	12.576
360.21	12.329
360.57	12.726
360.93	13.778
361.29	13.827
361.66	13.186
362.02	12.574
362.38	13.866
362.74	13.919
363.10	13.271
363.46	14.387
363.82	14.504
364.18	14.327
364.54	15.225
364.90	12.928
365.26	12.839
365.62	13.899
365.98	13.940
366.35	13.732
366.71	13.037
367.07	14.044
367.43	14.413
367.79	14.983
368.15	12.873
368.51	14.406
368.87	14.286
369.23	14.175
369.59	13.958
369.95	14.376
370.31	15.190
370.67	13.594
371.03	14.796
371.39	14.003
371.75	15.665
372.11	14.921
372.47	14.967
372.83	15.021
373.19	14.714
373.55	14.638
373.91	15.505
374.27	15.264
374.63	14.562
374.99	15.855
375.35	15.209
375.71	15.800
376.07	15.400
376.42	14.172
376.78	15.425
377.14	16.339
377.50	15.538
377.86	15.540
378.22	15.075
378.58	15.009
378.94	15.228
379.30	16.271
379.66	16.818
380.02	15.924
380.38	15.589
380.74	15.592
381.09	16.696
381.45	17.005
381.81	16.213
382.17	16.729
382.53	16.960
382.89	16.268
383.25	17.399
383.61	16.509
383.97	17.697
384.32	16.646
384.68	16.747
385.04	16.123
385.40	16.859
385.76	18.049
386.12	16.802
386.48	18.007
386.83	17.301
387.19	17.633
387.55	18.050
387.91	18.020
388.27	16.767
388.62	17.248
388.98	17.202
389.34	17.442
389.70	17.783
390.06	17.837
390.42	18.077
390.77	18.549
391.13	18.199
391.49	18.341
391.85	17.456
392.20	17.840
392.56	17.471
392.92	17.855
393.28	18.427
393.64	18.160
393.99	18.892
394.35	18.187
394.71	18.653
395.07	18.707
395.42	18.832
395.78	18.102
396.14	19.003
396.50	18.226
396.85	19.062
397.21	19.137
397.57	18.602
397.92	19.204
398.28	19.222
398.64	19.572
399.00	20.056
399.35	18.884
399.71	20.209
400.07	19.164
400.42	20.499
400.78	19.141
401.14	19.102
401.49	19.340
401.85	19.585
402.21	18.951
402.57	19.903
402.92	20.390
403.28	19.363
403.63	18.993
403.99	19.950
404.35	19.626
404.70	19.485
405.06	20.185
405.42	19.127
405.77	18.326
406.13	19.534
406.49	19.233
406.84	18.956
407.20	21.025
407.55	20.013
407.91	19.301
408.27	19.914
408.62	19.663
408.98	20.315
409.34	20.171
409.69	19.849
410.05	20.073
410.40	19.742
410.76	19.680
411.11	19.950
411.47	20.077
411.83	20.477
412.18	20.730
412.54	19.585
412.89	20.049
413.25	20.189
413.60	19.320
413.96	18.854
414.31	20.489
414.67	20.190
415.03	20.699
415.38	20.429
415.74	20.812
416.09	21.355
416.45	19.577
416.80	21.326
417.16	20.199
417.51	20.946
417.87	20.647
418.22	21.239
418.58	20.796
418.93	20.723
419.29	21.393
419.64	21.168
420.00	21.871
420.35	21.053
420.71	22.029
421.06	21.893
421.42	21.838
421.77	21.273
422.12	22.216
422.48	21.539
422.83	22.323
423.19	21.325
423.54	21.902
423.90	21.862
424.25	21.606
424.61	22.859
424.96	22.996
425.31	22.023
425.67	22.350
426.02	21.113
426.38	23.230
426.73	22.560
427.09	22.120
427.44	23.011
427.79	23.023
428.15	23.399
428.50	22.698
428.85	22.902
429.21	23.188
429.56	23.802
429.92	23.998
430.27	23.878
430.62	23.772
430.98	22.896
431.33	23.959
431.68	23.914
432.04	24.007
432.39	24.501
432.74	23.321
433.10	24.254
433.45	24.870
433.80	24.412
434.16	24.772
434.51	25.041
434.86	24.956
435.22	25.501
435.57	24.969
435.92	24.326
436.28	24.926
436.63	24.760
436.98	24.513
437.34	25.399
437.69	24.621
438.04	25.071
438.39	27.136
438.75	25.320
439.10	24.875
439.45	25.347
439.81	26.205
440.16	24.702
440.51	26.235
440.86	25.448
441.22	25.263
441.57	26.105
441.92	25.780
442.27	25.649
442.63	26.663
442.98	25.056
443.33	26.908
443.68	26.628
444.03	26.179
444.39	26.138
444.74	27.258
445.09	26.425
445.44	26.562
445.79	26.925
446.15	27.382
446.50	26.565
446.85	26.116
447.20	27.477
447.55	27.403
447.91	27.569
448.26	27.039
448.61	27.165
448.96	27.787
449.31	27.847
449.66	28.506
450.02	26.925
450.37	27.478
450.72	27.119
451.07	28.221
451.42	27.014
451.77	28.007
452.12	28.188
452.47	28.212
452.83	28.538
453.18	28.020
453.53	28.483
453.88	28.349
454.23	27.388
454.58	28.527
454.93	28.401
455.28	28.617
455.63	28.931
455.98	28.675
456.34	27.891
456.69	29.331
457.04	29.133
457.39	28.170
457.74	29.061
458.09	29.640
458.44	29.503
458.79	28.475
459.14	28.922
459.49	28.834
459.84	29.623
460.19	28.162
460.54	28.675
460.89	29.204
461.24	29.205
461.59	29.543
461.94	28.771
462.29	29.303
462.64	29.447
462.99	30.589
463.34	30.385
463.69	30.471
464.04	29.350
464.39	29.928
464.74	29.787
465.09	28.262
465.44	30.908
465.79	30.513
466.14	30.898
466.49	30.109
466.84	29.832
467.19	31.047
467.54	30.127
467.89	30.703
468.24	29.751
468.59	30.418
468.94	31.061
469.29	31.254
469.64	31.199
469.99	31.195
470.34	31.730
470.68	31.323
471.03	32.209
471.38	31.250
471.73	32.587
472.08	31.928
472.43	31.081
472.78	32.000
473.13	29.689
473.48	32.291
473.83	31.638
474.17	30.892
474.52	32.737
474.87	31.818
475.22	31.327
475.57	32.222
475.92	32.019
476.27	31.829
476.61	31.268
476.96	31.302
477.31	33.262
477.66	31.433
478.01	32.901
478.36	32.740
478.70	33.262
479.05	32.937
479.40	32.435
479.75	31.295
480.10	32.837
480.45	31.673
480.79	32.774
481.14	32.263
481.49	31.946
481.84	32.039
482.19	32.618
482.53	32.434
482.88	31.894
483.23	32.160
483.58	33.210
483.92	32.394
484.27	32.211
484.62	31.361
484.97	31.839
485.31	31.104
485.66	29.940
486.01	29.945
486.36	30.516
486.70	31.409
487.05	30.868
487.40	31.277
487.75	31.555
488.09	30.729
488.44	32.206
488.79	32.225
489.13	32.674
489.48	32.993
489.83	32.445
490.17	32.651
490.52	34.103
490.87	32.425
491.22	32.695
491.56	33.380
491.91	33.206
492.26	32.642
492.60	32.588
492.95	31.890
493.30	33.016
493.64	32.064
493.99	33.700
494.34	33.476
494.68	33.052
495.03	32.457
495.37	33.382
495.72	33.841
496.07	33.224
496.41	33.673
496.76	33.288
497.11	33.443
497.45	33.860
497.80	32.916
498.14	33.153
498.49	33.651
498.84	33.350
499.18	34.747
499.53	34.340
499.87	34.556
500.22	33.725
500.56	34.067
500.91	34.039
501.26	33.382
501.60	32.836
501.95	35.362
502.29	33.585
502.64	33.946
502.98	34.164
503.33	33.882
503.67	33.812
504.02	34.766
504.36	34.706
504.71	34.397
505.06	34.498
505.40	36.028
505.75	34.350
506.09	34.884
506.44	34.937
506.78	35.073
507.13	35.015
507.47	34.742
507.82	34.228
508.16	35.389
508.51	34.261
508.85	35.663
509.19	35.688
509.54	35.254
509.88	36.277
510.23	36.111
510.57	36.138
510.92	36.412
511.26	35.247
511.61	36.015
511.95	36.153
512.30	35.514
512.64	35.615
512.98	37.514
513.33	36.079
513.67	36.516
514.02	36.801
514.36	36.787
514.70	36.503
515.05	37.336
515.39	36.448
515.74	37.173
516.08	37.291
516.42	37.734
516.77	37.493
517.11	36.499
517.46	38.397
517.80	38.327
518.14	37.802
518.49	37.298
518.83	38.042
519.17	38.070
519.52	37.478
519.86	38.411
520.20	37.958
520.55	39.138
520.89	37.633
521.23	37.790
521.58	37.618
521.92	38.315
522.26	37.905
522.61	38.340
522.95	38.162
523.29	38.056
523.64	37.914
523.98	38.765
524.32	39.032
524.66	38.261
525.01	39.242
525.35	38.982
525.69	39.232
526.04	39.034
526.38	39.083
526.72	38.761
527.06	39.583
527.41	37.888
527.75	39.340
528.09	38.782
528.43	40.131
528.78	38.317
529.12	39.437
529.46	39.304
529.80	38.218
530.15	37.476
530.49	38.228
530.83	38.965
531.17	40.067
531.51	38.781
531.86	38.117
532.20	38.934
532.54	39.840
532.88	39.723
533.22	39.372
533.57	38.708
533.91	37.453
534.25	38.215
534.59	38.726
534.93	38.706
535.27	37.885
535.62	39.386
535.96	38.591
536.30	36.649
536.64	39.177
536.98	39.266
537.32	38.977
537.66	38.425
538.01	40.619
538.35	38.784
538.69	38.971
539.03	38.186
539.37	38.922
539.71	38.292
540.05	39.411
540.39	38.712
540.73	39.185
541.07	38.593
541.42	38.555
541.76	38.870
542.10	38.893
542.44	37.841
542.78	38.806
543.12	38.425
543.46	37.260
543.80	38.395
544.14	38.146
544.48	38.911
544.82	39.378
545.16	38.833
545.50	38.493
545.84	38.873
546.18	38.488
546.52	39.616
546.86	39.530
547.20	39.451
547.54	37.466
547.88	38.885
548.22	37.811
548.56	38.945
548.90	38.612
549.24	38.472
549.58	39.167
549.92	37.597
550.26	38.150
550.60	38.905
550.94	39.489
551.28	39.052
551.62	38.257
551.96	38.929
552.30	38.606
552.64	38.916
552.98	40.224
553.32	38.672
553.66	40.303
554.00	40.512
554.34	37.906
554.68	37.573
555.02	39.797
555.36	37.527
555.69	38.968
556.03	38.807
556.37	39.260
556.71	38.654
557.05	39.616
557.39	39.050
557.73	39.971
558.07	39.789
558.41	38.594
558.75	39.544
559.08	39.689
559.42	38.744
559.76	39.417
560.10	40.194
560.44	39.090
560.78	38.831
561.12	39.890
561.45	38.356
561.79	39.582
562.13	38.710
562.47	38.796
562.81	37.765
563.15	39.258
563.48	38.839
563.82	37.661
564.16	38.810
564.50	37.836
564.84	36.905
565.17	38.528
565.51	38.722
565.85	39.554
566.19	39.262
566.52	38.487
566.86	37.800
567.20	38.741
567.54	38.334
567.88	36.293
568.21	37.864
568.55	36.320
568.89	35.636
569.23	36.511
569.56	35.939
569.90	35.208
570.24	34.799
570.57	34.692
570.91	33.968
571.25	35.149
571.59	34.093
571.92	34.107
572.26	33.823
572.60	34.254
572.93	33.695
573.27	33.384
573.61	33.783
573.95	34.114
574.28	33.428
574.62	33.452
574.96	33.151
575.29	32.901
575.63	33.740
575.97	32.767
576.30	32.995
576.64	33.394
576.98	33.143
577.31	33.635
577.65	33.259
577.98	32.987
578.32	33.467
578.66	33.296
578.99	32.792
579.33	33.132
579.67	33.249
580.00	32.614
580.34	33.268
580.67	32.704
581.01	32.244
581.35	33.242
581.68	32.271
582.02	32.752
582.35	32.861
582.69	33.065
583.02	33.090
583.36	32.960
583.70	33.052
584.03	33.648
584.37	34.425
584.70	33.783
585.04	33.241
585.37	32.912
585.71	33.019
586.04	33.080
586.38	33.200
586.72	33.568
587.05	33.871
587.39	33.160
587.72	33.661
588.06	33.343
588.39	34.292
588.73	34.792
589.06	34.974
589.40	35.520
589.73	35.234
590.07	34.377
590.40	34.871
590.73	35.066
591.07	35.123
591.40	36.135
591.74	35.404
592.07	35.315
592.41	35.796
592.74	35.703
593.08	34.192
593.41	33.947
593.75	34.355
594.08	35.514
594.41	35.896
594.75	34.655
595.08	35.113
595.42	35.549
595.75	34.252
596.09	35.623
596.42	36.007
596.75	35.748
597.09	36.376
597.42	34.919
597.75	35.695
598.09	35.879
598.42	34.468
598.76	35.091
599.09	34.412
599.42	34.717
599.76	35.070
600.09	35.229
600.42	35.587
600.76	34.953
601.09	34.561
601.42	35.061
601.76	35.008
602.09	35.337
602.42	35.350
602.76	34.690
603.09	35.605
603.42	36.664
603.76	35.740
604.09	36.163
604.42	34.305
604.76	35.979
605.09	36.031
605.42	36.082
605.75	35.101
606.09	34.330
606.42	35.987
606.75	35.208
607.09	36.215
607.42	36.048
607.75	36.115
608.08	36.647
608.42	36.377
608.75	35.047
609.08	36.824
609.41	35.675
609.75	34.910
610.08	36.569
610.41	35.904
610.74	37.137
611.07	37.018
611.41	35.804
611.74	36.504
612.07	38.131
612.40	37.260
612.73	37.157
613.07	35.663
613.40	38.533
613.73	37.112
614.06	36.573
614.39	37.655
614.72	35.810
615.06	37.011
615.39	36.245
615.72	37.914
616.05	36.389
616.38	37.493
616.71	36.937
617.05	38.179
617.38	37.771
617.71	37.715
618.04	37.888
618.37	38.679
618.70	38.005
619.03	38.321
619.36	38.760
619.69	40.201
620.03	37.810
620.36	39.311
620.69	38.550
621.02	38.889
621.35	38.952
621.68	38.607
622.01	39.401
622.34	39.829
622.67	39.844
623.00	39.939
623.33	39.179
623.66	38.700
623.99	39.248
624.32	38.616
624.65	38.263
624.99	38.237
625.32	39.521
625.65	39.316
625.98	38.654
626.31	41.354
626.64	40.418
626.97	41.010
627.30	40.766
627.63	39.724
627.96	41.079
628.29	43.015
628.62	42.216
628.95	42.717
629.28	40.226
629.61	41.806
629.94	41.304
630.26	42.147
630.59	42.814
630.92	42.142
631.25	42.843
631.58	42.011
631.91	42.021
632.24	43.889
632.57	44.333
632.90	44.713
633.23	44.509
633.56	43.275
633.89	45.165
634.22	43.684
634.55	42.548
634.88	42.926
635.20	43.945
635.53	43.766
635.86	45.214
