SpectraSuite Data File
++++++++++++++++++++++++++++++++++++
Date: Sat May 16 11:39:42 PDT 2015
User: schluterlab
Dark Spectrum Present: Yes
Reference Spectrum Present: Yes
Number of Sampled Component Spectra: 1
Spectrometers: USB2E3373
Integration Time (usec): 3000 (USB2E3373)
Spectra Averaged: 3 (USB2E3373)
Boxcar Smoothing: 0 (USB2E3373)
Correct for Electrical Dark: No (USB2E3373)
Strobe/Lamp Enabled: No (USB2E3373)
Correct for Detector Non-linearity: No (USB2E3373)
Correct for Stray Light: No (USB2E3373)
Number of Pixels in Processed Spectrum: 2048
>>>>>Begin Processed Spectral Data<<<<<
178.53	0.000
178.91	126.667
179.29	700.000
179.67	-2000.000
180.04	-123.077
180.42	1800.000
180.80	550.000
181.18	300.000
181.56	-112.500
181.94	1800.000
182.31	400.000
182.69	-38.462
183.07	-566.667
183.45	1500.000
183.83	600.000
184.20	-100.000
184.58	-237.500
184.96	-575.000
185.34	131.250
185.72	-300.000
186.09	333.333
186.47	-262.500
186.85	-50.000
187.23	-112.500
187.61	-275.000
187.98	-262.500
188.36	-150.000
188.74	-325.000
189.12	2200.000
189.49	400.000
189.87	-16.667
190.25	425.000
190.63	-107.143
191.00	-233.333
191.38	380.000
191.76	-40.000
192.14	580.000
192.51	-300.000
192.89	-533.333
193.27	0.000
193.65	-300.000
194.02	-300.000
194.40	600.000
194.78	-180.000
195.15	-400.000
195.53	-172.727
195.91	-383.333
196.29	320.000
196.66	-600.000
197.04	1900.000
197.42	-325.000
197.79	13.333
198.17	-366.667
198.55	-750.000
198.92	-1300.000
199.30	212.500
199.68	-750.000
200.05	-111.111
200.43	-211.111
200.81	-2300.000
201.18	-50.000
201.56	185.714
201.94	-73.333
202.31	4.545
202.69	-90.000
203.07	-70.000
203.44	833.333
203.82	-300.000
204.19	-625.000
204.57	-200.000
204.95	-1100.000
205.32	31.250
205.70	1100.000
206.08	-1600.000
206.45	38.889
206.83	-350.000
207.20	-500.000
207.58	-733.333
207.96	-600.000
208.33	-150.000
208.71	-77.778
209.08	260.000
209.46	-128.571
209.84	850.000
210.21	0.000
210.59	-60.000
210.96	1300.000
211.34	-333.333
211.71	-333.333
212.09	500.000
212.46	900.000
212.84	-2800.000
213.22	466.667
213.59	183.333
213.97	-22.222
214.34	260.000
214.72	-210.000
215.09	-433.333
215.47	-133.333
215.84	-110.000
216.22	-70.000
216.59	-40.000
216.97	-575.000
217.34	1150.000
217.72	-271.429
218.09	-416.667
218.47	-157.143
218.84	214.286
219.22	-100.000
219.59	0.000
219.97	185.714
220.34	600.000
220.72	225.000
221.09	-84.615
221.47	0.000
221.84	566.667
222.22	-550.000
222.59	1800.000
222.97	-225.000
223.34	-700.000
223.72	-666.667
224.09	-114.286
224.46	-275.000
224.84	-57.143
225.21	-157.143
225.59	-81.818
225.96	-200.000
226.34	-200.000
226.71	-177.778
227.08	-75.000
227.46	1400.000
227.83	-285.714
228.21	-250.000
228.58	600.000
228.95	-62.500
229.33	-1900.000
229.70	-120.000
230.08	-1150.000
230.45	-166.667
230.82	-166.667
231.20	-1200.000
231.57	-550.000
231.95	1500.000
232.32	-28.571
232.69	-144.444
233.07	-300.000
233.44	-1250.000
233.81	-46.667
234.19	-200.000
234.56	-118.750
234.93	3.125
235.31	-171.429
235.68	-114.286
236.05	-70.588
236.43	-36.364
236.80	-9.677
237.17	-33.333
237.55	-57.143
237.92	-95.455
238.29	-22.857
238.67	0.000
239.04	-25.000
239.41	-58.065
239.79	-48.718
240.16	-14.286
240.53	-18.182
240.91	-30.769
241.28	-25.455
241.65	4.615
242.02	-4.918
242.40	1.639
242.77	0.000
243.14	-25.424
243.51	-21.429
243.89	-3.797
244.26	-5.618
244.63	1.053
245.00	6.316
245.38	9.322
245.75	6.195
246.12	5.600
246.49	8.661
246.87	8.943
247.24	-4.237
247.61	4.237
247.98	2.817
248.36	3.497
248.73	8.228
249.10	3.185
249.47	9.357
249.84	14.205
250.22	0.000
250.59	12.994
250.96	4.188
251.33	11.848
251.70	9.615
252.08	5.213
252.45	9.479
252.82	15.238
253.19	12.766
253.56	10.081
253.94	8.017
254.31	9.871
254.68	11.789
255.05	11.694
255.42	9.127
255.79	10.394
256.16	10.588
256.54	9.926
256.91	7.197
257.28	5.861
257.65	9.929
258.02	13.522
258.39	12.709
258.76	6.419
259.14	9.568
259.51	13.115
259.88	13.110
260.25	12.112
260.62	9.646
260.99	6.231
261.36	11.890
261.73	8.092
262.10	13.056
262.47	11.111
262.85	14.857
263.22	13.181
263.59	5.846
263.96	13.333
264.33	12.195
264.70	13.812
265.07	11.264
265.44	12.145
265.81	9.819
266.18	10.127
266.55	12.500
266.92	11.839
267.29	12.107
267.66	11.605
268.03	12.319
268.40	10.329
268.77	11.566
269.14	9.745
269.51	9.425
269.88	10.780
270.25	8.858
270.62	10.755
270.99	12.387
271.36	12.821
271.73	10.987
272.10	11.899
272.47	9.778
272.84	14.444
273.21	13.761
273.58	13.626
273.95	12.061
274.32	9.050
274.69	14.880
275.06	14.724
275.43	9.821
275.80	14.460
276.17	11.506
276.54	13.238
276.91	11.728
277.28	13.996
277.65	12.810
278.02	13.152
278.39	11.984
278.76	11.952
279.13	10.277
279.50	13.718
279.87	9.302
280.23	12.753
280.60	10.934
280.97	11.845
281.34	13.540
281.71	13.462
282.08	12.903
282.45	10.794
282.82	14.341
283.19	12.909
283.56	15.201
283.92	13.428
284.29	10.967
284.66	10.252
285.03	13.012
285.40	11.808
285.77	12.281
286.14	14.260
286.51	13.144
286.87	13.249
287.24	13.311
287.61	14.380
287.98	11.265
288.35	10.083
288.72	10.526
289.08	10.339
289.45	11.953
289.82	8.824
290.19	12.972
290.56	10.083
290.93	11.606
291.29	11.183
291.66	9.984
292.03	12.088
292.40	11.295
292.77	11.025
293.13	12.195
293.50	12.333
293.87	10.429
294.24	11.161
294.60	8.939
294.97	10.319
295.34	9.481
295.71	9.077
296.08	7.988
296.44	9.585
296.81	11.538
297.18	10.423
297.55	11.017
297.91	11.158
298.28	8.904
298.65	8.089
299.02	9.225
299.38	9.893
299.75	9.918
300.12	10.128
300.48	9.974
300.85	9.961
301.22	10.091
301.59	9.623
301.95	10.579
302.32	9.126
302.69	11.138
303.05	9.524
303.42	8.875
303.79	10.048
304.15	8.886
304.52	9.568
304.89	9.091
305.25	8.791
305.62	8.696
305.99	11.307
306.35	10.100
306.72	8.884
307.09	10.783
307.45	9.762
307.82	8.156
308.19	9.955
308.55	10.022
308.92	8.485
309.29	9.838
309.65	9.226
310.02	9.071
310.38	8.973
310.75	9.836
311.12	9.194
311.48	9.290
311.85	8.857
312.22	8.754
312.58	10.478
312.95	7.645
313.31	8.791
313.68	10.452
314.05	10.188
314.41	8.652
314.78	8.891
315.14	10.069
315.51	9.321
315.87	8.712
316.24	8.941
316.61	9.693
316.97	9.353
317.34	7.900
317.70	9.555
318.07	10.261
318.43	8.521
318.80	9.484
319.16	8.443
319.53	9.211
319.89	8.278
320.26	8.333
320.62	8.654
320.99	9.055
321.35	8.079
321.72	6.960
322.08	9.100
322.45	7.723
322.81	9.894
323.18	8.934
323.54	8.503
323.91	9.917
324.27	8.460
324.64	8.318
325.00	8.551
325.37	9.231
325.73	9.886
326.10	7.086
326.46	7.180
326.83	7.915
327.19	9.008
327.56	9.796
327.92	8.241
328.29	9.610
328.65	7.091
329.01	9.806
329.38	8.475
329.74	9.158
330.11	8.250
330.47	7.539
330.84	9.808
331.20	7.762
331.56	7.748
331.93	8.348
332.29	8.037
332.66	8.692
333.02	7.783
333.38	8.781
333.75	7.925
334.11	8.622
334.48	7.855
334.84	9.361
335.20	8.511
335.57	8.032
335.93	9.042
336.29	8.680
336.66	7.930
337.02	9.459
337.38	8.200
337.75	8.428
338.11	8.050
338.47	8.185
338.84	8.439
339.20	8.524
339.56	8.467
339.93	8.289
340.29	8.592
340.65	8.217
341.02	8.516
341.38	8.172
341.74	8.637
342.11	7.765
342.47	7.468
342.83	8.396
343.20	8.198
343.56	7.918
343.92	8.932
344.28	8.410
344.65	8.086
345.01	7.143
345.37	7.724
345.73	6.874
346.10	6.868
346.46	7.717
346.82	8.260
347.19	8.217
347.55	7.303
347.91	7.874
348.27	6.523
348.63	8.158
349.00	8.194
349.36	6.714
349.72	8.599
350.08	7.859
350.45	8.117
350.81	7.803
351.17	7.395
351.53	6.842
351.89	8.569
352.26	7.984
352.62	8.525
352.98	7.911
353.34	8.393
353.70	7.490
354.07	8.261
354.43	8.063
354.79	8.003
355.15	7.348
355.51	7.031
355.87	7.510
356.24	8.102
356.60	7.736
356.96	9.161
357.32	7.997
357.68	7.433
358.04	7.852
358.40	7.966
358.77	7.805
359.13	7.728
359.49	8.541
359.85	7.622
360.21	7.382
360.57	7.756
360.93	8.741
361.29	7.324
361.66	6.707
362.02	6.879
362.38	7.777
362.74	7.692
363.10	7.102
363.46	8.832
363.82	8.090
364.18	7.598
364.54	8.863
364.90	7.338
365.26	7.846
365.62	8.482
365.98	7.966
366.35	8.239
366.71	7.259
367.07	8.186
367.43	8.717
367.79	8.797
368.15	7.326
368.51	8.601
368.87	8.791
369.23	7.930
369.59	7.639
369.95	8.316
370.31	8.790
370.67	7.375
371.03	7.362
371.39	7.355
371.75	8.584
372.11	7.819
372.47	7.664
372.83	8.554
373.19	8.286
373.55	8.656
373.91	8.108
374.27	8.214
374.63	8.627
374.99	8.484
375.35	8.075
375.71	8.845
376.07	8.693
376.42	6.954
376.78	8.431
377.14	8.339
377.50	8.575
377.86	8.192
378.22	7.098
378.58	7.968
378.94	7.522
379.30	8.714
379.66	7.954
380.02	8.734
380.38	7.130
380.74	7.327
381.09	8.787
381.45	8.413
381.81	7.562
382.17	7.268
382.53	7.781
382.89	8.493
383.25	8.067
383.61	8.432
383.97	8.267
384.32	8.073
384.68	8.827
385.04	8.333
385.40	8.034
385.76	8.049
386.12	8.120
386.48	7.673
386.83	8.037
387.19	8.607
387.55	7.268
387.91	7.706
388.27	8.323
388.62	8.173
388.98	7.995
389.34	7.895
389.70	7.795
390.06	8.080
390.42	8.526
390.77	8.139
391.13	9.006
391.49	8.110
391.85	8.603
392.20	8.799
392.56	8.430
392.92	9.070
393.28	9.070
393.64	8.719
393.99	9.046
394.35	8.516
394.71	8.462
395.07	7.910
395.42	7.211
395.78	7.857
396.14	8.536
396.50	8.135
396.85	8.822
397.21	8.566
397.57	9.058
397.92	8.607
398.28	8.111
398.64	8.388
399.00	8.371
399.35	7.779
399.71	8.188
400.07	8.657
400.42	8.090
400.78	8.408
401.14	8.683
401.49	8.373
401.85	8.481
402.21	9.297
402.57	8.192
402.92	8.748
403.28	8.885
403.63	8.149
403.99	8.452
404.35	7.911
404.70	8.660
405.06	9.170
405.42	8.057
405.77	7.919
406.13	8.177
406.49	8.268
406.84	7.978
407.20	8.775
407.55	8.233
407.91	7.124
408.27	9.007
408.62	9.020
408.98	7.884
409.34	8.410
409.69	8.507
410.05	8.065
410.40	8.768
410.76	8.002
411.11	8.167
411.47	8.504
411.83	8.496
412.18	8.354
412.54	7.932
412.89	8.262
413.25	7.143
413.60	8.445
413.96	8.318
414.31	8.440
414.67	7.873
415.03	8.021
415.38	8.328
415.74	8.183
416.09	8.568
416.45	7.341
416.80	8.388
417.16	8.439
417.51	9.061
417.87	8.350
418.22	8.091
418.58	8.922
418.93	8.829
419.29	8.218
419.64	7.726
420.00	9.052
420.35	8.397
420.71	8.043
421.06	9.290
421.42	7.728
421.77	8.599
422.12	8.730
422.48	9.246
422.83	8.485
423.19	8.241
423.54	8.934
423.90	7.981
424.25	8.654
424.61	9.288
424.96	9.479
425.31	8.944
425.67	7.966
426.02	8.835
426.38	8.469
426.73	8.416
427.09	8.456
427.44	8.466
427.79	8.895
428.15	8.977
428.50	9.384
428.85	9.293
429.21	8.467
429.56	8.854
429.92	9.469
430.27	8.724
430.62	8.307
430.98	8.939
431.33	8.805
431.68	9.705
432.04	9.401
432.39	9.402
432.74	9.053
433.10	9.454
433.45	8.808
433.80	8.959
434.16	9.404
434.51	8.767
434.86	9.725
435.22	9.521
435.57	8.568
435.92	9.437
436.28	10.089
436.63	9.101
436.98	8.419
437.34	9.864
437.69	9.277
438.04	8.565
438.39	9.507
438.75	9.139
439.10	9.939
439.45	8.932
439.81	9.940
440.16	9.710
440.51	10.176
440.86	9.312
441.22	9.121
441.57	9.316
441.92	9.616
442.27	9.470
442.63	9.227
442.98	9.312
443.33	9.116
443.68	9.588
444.03	9.627
444.39	9.594
444.74	9.747
445.09	9.265
445.44	9.904
445.79	9.485
446.15	9.967
446.50	9.635
446.85	9.338
447.20	9.908
447.55	9.392
447.91	9.714
448.26	9.385
448.61	9.394
448.96	9.580
449.31	9.752
449.66	10.074
450.02	9.861
450.37	10.029
450.72	9.209
451.07	10.497
451.42	9.542
451.77	10.652
452.12	9.476
452.47	9.698
452.83	10.134
453.18	9.994
453.53	9.080
453.88	10.048
454.23	9.855
454.58	10.193
454.93	11.272
455.28	8.859
455.63	9.828
455.98	9.819
456.34	9.276
456.69	10.006
457.04	10.264
457.39	9.450
457.74	10.809
458.09	10.209
458.44	10.855
458.79	9.697
459.14	10.610
459.49	10.598
459.84	10.399
460.19	9.964
460.54	9.558
460.89	9.585
461.24	10.200
461.59	11.254
461.94	9.675
462.29	10.482
462.64	10.079
462.99	10.040
463.34	9.723
463.69	10.433
464.04	9.725
464.39	10.872
464.74	10.579
465.09	9.501
465.44	10.547
465.79	10.096
466.14	10.817
466.49	9.845
466.84	10.744
467.19	10.411
467.54	10.506
467.89	10.666
468.24	10.392
468.59	9.494
468.94	10.161
469.29	10.916
469.64	10.647
469.99	11.006
470.34	10.488
470.68	10.683
471.03	10.530
471.38	10.833
471.73	11.329
472.08	10.375
472.43	10.682
472.78	10.533
473.13	10.537
473.48	10.466
473.83	10.670
474.17	10.764
474.52	11.317
474.87	9.965
475.22	9.440
475.57	9.611
475.92	10.961
476.27	10.857
476.61	10.479
476.96	11.347
477.31	10.549
477.66	10.349
478.01	10.913
478.36	10.477
478.70	10.785
479.05	10.763
479.40	11.399
479.75	10.958
480.10	10.615
480.45	10.493
480.79	10.760
481.14	11.039
481.49	10.552
481.84	11.697
482.19	11.375
482.53	11.080
482.88	10.774
483.23	11.033
483.58	11.610
483.92	10.511
484.27	10.146
484.62	10.972
484.97	10.678
485.31	10.208
485.66	9.652
486.01	9.559
486.36	10.172
486.70	10.990
487.05	10.825
487.40	11.165
487.75	11.202
488.09	10.964
488.44	11.806
488.79	12.204
489.13	10.879
489.48	12.072
489.83	12.402
490.17	11.014
490.52	11.458
490.87	11.224
491.22	11.583
491.56	11.065
491.91	11.641
492.26	11.887
492.60	11.370
492.95	11.709
493.30	11.291
493.64	11.660
493.99	11.042
494.34	11.429
494.68	12.079
495.03	11.233
495.37	11.062
495.72	11.444
496.07	11.403
496.41	12.506
496.76	11.279
497.11	11.258
497.45	11.303
497.80	11.306
498.14	11.591
498.49	11.452
498.84	11.699
499.18	12.183
499.53	12.275
499.87	11.824
500.22	12.157
500.56	12.156
500.91	11.626
501.26	12.324
501.60	11.170
501.95	12.077
502.29	11.951
502.64	13.013
502.98	11.739
503.33	11.889
503.67	11.686
504.02	12.216
504.36	12.108
504.71	11.905
505.06	11.832
505.40	12.325
505.75	11.890
506.09	11.881
506.44	11.629
506.78	12.293
507.13	11.277
507.47	11.894
507.82	11.874
508.16	12.073
508.51	11.489
508.85	12.371
509.19	11.198
509.54	12.791
509.88	12.340
510.23	12.107
510.57	13.280
510.92	13.265
511.26	12.547
511.61	11.663
511.95	12.392
512.30	12.314
512.64	11.185
512.98	13.036
513.33	12.905
513.67	12.619
514.02	12.975
514.36	13.241
514.70	12.733
515.05	12.922
515.39	12.457
515.74	13.613
516.08	12.392
516.42	13.031
516.77	13.460
517.11	13.158
517.46	12.620
517.80	12.575
518.14	12.077
518.49	13.748
518.83	13.353
519.17	13.144
519.52	12.782
519.86	13.740
520.20	13.081
520.55	12.615
520.89	12.586
521.23	13.736
521.58	13.166
521.92	13.300
522.26	13.524
522.61	13.118
522.95	12.189
523.29	13.292
523.64	13.304
523.98	12.794
524.32	13.199
524.66	13.789
525.01	12.588
525.35	13.144
525.69	12.557
526.04	13.838
526.38	14.067
526.72	13.729
527.06	12.630
527.41	13.003
527.75	13.069
528.09	13.038
528.43	13.443
528.78	13.505
529.12	13.700
529.46	12.371
529.80	12.847
530.15	13.522
530.49	13.777
530.83	14.604
531.17	12.727
531.51	13.262
531.86	13.496
532.20	14.238
532.54	13.837
532.88	13.043
533.22	13.369
533.57	13.251
533.91	13.171
534.25	12.822
534.59	12.867
534.93	12.881
535.27	13.342
535.62	12.980
535.96	13.963
536.30	12.631
536.64	14.210
536.98	14.266
537.32	13.683
537.66	12.492
538.01	13.540
538.35	13.378
538.69	12.901
539.03	13.947
539.37	12.774
539.71	13.742
540.05	13.228
540.39	13.643
540.73	13.822
541.07	14.208
541.42	13.099
541.76	12.824
542.10	13.369
542.44	14.524
542.78	13.636
543.12	13.714
543.46	12.877
543.80	14.047
544.14	13.499
544.48	14.698
544.82	13.532
545.16	14.152
545.50	13.257
545.84	14.186
546.18	14.008
546.52	14.083
546.86	14.174
547.20	13.643
547.54	12.948
547.88	14.399
548.22	13.237
548.56	12.091
548.90	14.084
549.24	12.614
549.58	14.114
549.92	14.276
550.26	13.801
550.60	14.438
550.94	13.504
551.28	13.845
551.62	14.549
551.96	14.399
552.30	12.962
552.64	13.582
552.98	14.646
553.32	12.482
553.66	14.564
554.00	13.646
554.34	13.574
554.68	14.401
555.02	14.761
555.36	14.162
555.69	12.679
556.03	13.544
556.37	14.438
556.71	14.746
557.05	13.599
557.39	14.031
557.73	14.734
558.07	14.695
558.41	14.211
558.75	14.981
559.08	12.451
559.42	14.472
559.76	14.801
560.10	14.765
560.44	14.162
560.78	13.709
561.12	13.527
561.45	13.699
561.79	13.937
562.13	14.937
562.47	13.305
562.81	13.649
563.15	13.856
563.48	14.375
563.82	13.996
564.16	12.982
564.50	13.306
564.84	13.889
565.17	13.130
565.51	13.690
565.85	14.064
566.19	14.888
566.52	13.307
566.86	13.401
567.20	14.891
567.54	14.412
567.88	13.177
568.21	13.982
568.55	13.150
568.89	13.072
569.23	12.726
569.56	12.148
569.90	12.825
570.24	12.664
570.57	12.724
570.91	11.765
571.25	12.484
571.59	12.551
571.92	12.083
572.26	12.582
572.60	12.535
572.93	12.202
573.27	12.043
573.61	11.701
573.95	12.267
574.28	12.222
574.62	12.557
574.96	12.014
575.29	12.652
575.63	11.893
575.97	12.271
576.30	11.948
576.64	11.958
576.98	11.894
577.31	11.752
577.65	11.988
577.98	11.750
578.32	11.724
578.66	12.027
578.99	12.419
579.33	12.183
579.67	12.123
580.00	12.054
580.34	11.791
580.67	12.552
581.01	11.792
581.35	12.098
581.68	11.584
582.02	11.768
582.35	11.520
582.69	12.316
583.02	12.091
583.36	12.607
583.70	12.289
584.03	12.985
584.37	12.855
584.70	12.609
585.04	12.734
585.37	12.029
585.71	12.554
586.04	12.234
586.38	12.163
586.72	12.796
587.05	12.348
587.39	12.620
587.72	12.848
588.06	12.627
588.39	12.504
588.73	13.005
589.06	13.299
589.40	13.638
589.73	13.527
590.07	13.001
590.40	13.727
590.73	13.355
591.07	13.361
591.40	13.302
591.74	13.467
592.07	13.468
592.41	13.206
592.74	12.913
593.08	12.805
593.41	12.895
593.75	12.727
594.08	12.761
594.41	13.087
594.75	13.326
595.08	13.008
595.42	13.403
595.75	12.789
596.09	13.426
596.42	13.584
596.75	13.713
597.09	14.025
597.42	13.138
597.75	13.375
598.09	14.279
598.42	13.433
598.76	12.666
599.09	13.260
599.42	12.649
599.76	12.760
600.09	13.779
600.42	13.483
600.76	13.145
601.09	13.749
601.42	12.703
601.76	13.551
602.09	13.047
602.42	13.416
602.76	12.713
603.09	13.145
603.42	13.054
603.76	13.761
604.09	13.536
604.42	12.906
604.76	13.650
605.09	13.517
605.42	13.209
605.75	12.807
606.09	12.702
606.42	12.610
606.75	13.139
607.09	13.586
607.42	13.204
607.75	13.113
608.08	14.099
608.42	13.623
608.75	12.710
609.08	13.298
609.41	13.303
609.75	13.554
610.08	13.676
610.41	13.205
610.74	14.168
611.07	12.830
611.41	13.414
611.74	14.344
612.07	14.447
612.40	13.806
612.73	13.893
613.07	13.759
613.40	14.724
613.73	13.515
614.06	13.839
614.39	14.374
614.72	13.017
615.06	12.609
615.39	14.162
615.72	13.960
616.05	13.915
616.38	13.755
616.71	14.114
617.05	14.234
617.38	14.118
617.71	14.005
618.04	13.789
618.37	14.088
618.70	14.863
619.03	14.083
619.36	14.447
619.69	15.434
620.03	14.463
620.36	12.940
620.69	14.716
621.02	14.612
621.35	15.081
621.68	14.426
622.01	14.401
622.34	15.450
622.67	13.437
623.00	14.920
623.33	14.403
623.66	12.999
623.99	13.308
624.32	13.690
624.65	14.570
624.99	14.040
625.32	14.371
625.65	15.229
625.98	14.710
626.31	14.682
626.64	14.812
626.97	14.897
627.30	15.234
627.63	14.162
627.96	15.927
628.29	16.085
628.62	14.231
628.95	15.256
629.28	15.132
629.61	13.445
629.94	16.257
630.26	15.507
630.59	17.186
630.92	15.115
631.25	16.734
631.58	15.661
631.91	13.511
632.24	16.444
632.57	14.889
632.90	17.011
633.23	16.238
633.56	15.673
633.89	15.566
634.22	15.348
634.55	15.986
634.88	17.170
635.20	15.481
635.53	16.921
635.86	14.736
636.19	16.850
636.52	13.978
636.85	14.801
637.18	12.125
637.51	18.216
637.83	17.177
638.16	15.658
638.49	15.724
638.82	14.672
639.15	16.213
639.48	14.267
639.81	16.459
640.13	15.270
640.46	16.667
640.79	16.387
641.12	17.913
641.45	16.499
