SpectraSuite Data File
++++++++++++++++++++++++++++++++++++
Date: Sat May 16 11:18:52 PDT 2015
User: schluterlab
Dark Spectrum Present: Yes
Reference Spectrum Present: Yes
Number of Sampled Component Spectra: 1
Spectrometers: USB2E3373
Integration Time (usec): 3000 (USB2E3373)
Spectra Averaged: 3 (USB2E3373)
Boxcar Smoothing: 0 (USB2E3373)
Correct for Electrical Dark: No (USB2E3373)
Strobe/Lamp Enabled: No (USB2E3373)
Correct for Detector Non-linearity: No (USB2E3373)
Correct for Stray Light: No (USB2E3373)
Number of Pixels in Processed Spectrum: 2048
>>>>>Begin Processed Spectral Data<<<<<
178.53	0.000
178.91	120.000
179.29	300.000
179.67	-1500.000
180.04	-15.385
180.42	1200.000
180.80	100.000
181.18	275.000
181.56	0.000
181.94	400.000
182.31	325.000
182.69	-30.769
183.07	-500.000
183.45	1050.000
183.83	400.000
184.20	-200.000
184.58	-125.000
184.96	-300.000
185.34	118.750
185.72	-250.000
186.09	200.000
186.47	-200.000
186.85	-37.500
187.23	25.000
187.61	-200.000
187.98	-262.500
188.36	-25.000
188.74	-100.000
189.12	1800.000
189.49	214.286
189.87	-8.333
190.25	350.000
190.63	-21.429
191.00	-55.556
191.38	360.000
191.76	20.000
192.14	420.000
192.51	-360.000
192.89	-633.333
193.27	0.000
193.65	-44.444
194.02	-142.857
194.40	233.333
194.78	-30.000
195.15	-1500.000
195.53	-90.909
195.91	-250.000
196.29	140.000
196.66	-66.667
197.04	2100.000
197.42	0.000
197.79	46.667
198.17	-333.333
198.55	-150.000
198.92	-400.000
199.30	137.500
199.68	-500.000
200.05	-55.556
200.43	-144.444
200.81	-1400.000
201.18	-8.333
201.56	128.571
201.94	-26.667
202.31	-27.273
202.69	-30.000
203.07	-30.000
203.44	533.333
203.82	-333.333
204.19	-350.000
204.57	0.000
204.95	-1200.000
205.32	-31.250
205.70	1100.000
206.08	-1700.000
206.45	-22.222
206.83	-600.000
207.20	-50.000
207.58	-800.000
207.96	-566.667
208.33	-175.000
208.71	-11.111
209.08	290.000
209.46	0.000
209.84	700.000
210.21	0.000
210.59	35.000
210.96	1300.000
211.34	-233.333
211.71	-166.667
212.09	350.000
212.46	1200.000
212.84	-1100.000
213.22	400.000
213.59	75.000
213.97	44.444
214.34	140.000
214.72	-110.000
215.09	-133.333
215.47	-150.000
215.84	-110.000
216.22	-30.000
216.59	20.000
216.97	-175.000
217.34	950.000
217.72	-142.857
218.09	-366.667
218.47	-200.000
218.84	214.286
219.22	-57.143
219.59	0.000
219.97	242.857
220.34	225.000
220.72	250.000
221.09	-46.154
221.47	0.000
221.84	300.000
222.22	-950.000
222.59	-800.000
222.97	-62.500
223.34	-600.000
223.72	-433.333
224.09	-50.000
224.46	-450.000
224.84	-7.143
225.21	-142.857
225.59	-118.182
225.96	-175.000
226.34	-42.857
226.71	-77.778
227.08	-10.000
227.46	1100.000
227.83	-14.286
228.21	-162.500
228.58	100.000
228.95	-18.750
229.33	-2100.000
229.70	-240.000
230.08	-800.000
230.45	-75.000
230.82	16.667
231.20	-300.000
231.57	-600.000
231.95	1200.000
232.32	-38.095
232.69	-33.333
233.07	-142.857
233.44	-100.000
233.81	-13.333
234.19	-133.333
234.56	-75.000
234.93	9.375
235.31	-157.143
235.68	-107.143
236.05	-17.647
236.43	-40.909
236.80	-29.032
237.17	-4.167
237.55	-57.143
237.92	-63.636
238.29	-20.000
238.67	-29.412
239.04	-47.222
239.41	-3.226
239.79	-48.718
240.16	-33.333
240.53	-14.545
240.91	-17.949
241.28	-5.455
241.65	3.077
242.02	-19.672
242.40	-24.590
242.77	-10.606
243.14	-33.898
243.51	-24.286
243.89	-6.329
244.26	-11.236
244.63	4.211
245.00	0.000
245.38	-3.390
245.75	7.080
246.12	-4.800
246.49	0.787
246.87	-10.569
247.24	-11.864
247.61	-8.475
247.98	2.113
248.36	-5.594
248.73	-2.532
249.10	-9.554
249.47	1.754
249.84	3.409
250.22	-9.524
250.59	-1.695
250.96	2.094
251.33	-2.844
251.70	-3.846
252.08	-0.474
252.45	-1.422
252.82	-2.857
253.19	0.851
253.56	1.613
253.94	-3.376
254.31	2.575
254.68	0.407
255.05	-6.855
255.42	1.587
255.79	-2.867
256.16	-2.745
256.54	0.000
256.91	-2.652
257.28	-3.663
257.65	-0.709
258.02	5.031
258.39	-2.007
258.76	-0.338
259.14	-1.543
259.51	4.262
259.88	-0.610
260.25	3.727
260.62	0.000
260.99	-0.297
261.36	1.220
261.73	0.867
262.10	2.222
262.47	-1.140
262.85	4.571
263.22	0.573
263.59	-0.308
263.96	2.029
264.33	0.271
264.70	-0.276
265.07	0.824
265.44	0.000
265.81	1.809
266.18	-0.759
266.55	3.676
266.92	1.008
267.29	1.937
267.66	0.000
268.03	3.623
268.40	0.939
268.77	1.687
269.14	2.320
269.51	1.149
269.88	-1.147
270.25	1.166
270.62	0.686
270.99	2.477
271.36	0.699
271.73	0.673
272.10	-0.686
272.47	-0.444
272.84	4.000
273.21	-0.917
273.58	0.000
273.95	0.219
274.32	0.679
274.69	2.407
275.06	1.227
275.43	-0.893
275.80	3.870
276.17	2.720
276.54	4.888
276.91	0.412
277.28	1.623
277.65	-0.207
278.02	4.175
278.39	1.768
278.76	1.992
279.13	1.186
279.50	-0.795
279.87	-0.846
280.23	2.429
280.60	1.193
280.97	-0.194
281.34	1.741
281.71	0.962
282.08	0.806
282.45	0.407
282.82	0.969
283.19	2.182
283.56	3.297
283.92	1.767
284.29	0.000
284.66	2.338
285.03	3.743
285.40	2.399
285.77	1.579
286.14	2.527
286.51	0.888
286.87	2.722
287.24	3.584
287.61	1.983
287.98	1.733
288.35	0.661
288.72	2.716
289.08	0.847
289.45	2.694
289.82	0.692
290.19	2.299
290.56	0.331
290.93	0.954
291.29	0.486
291.66	-0.322
292.03	3.140
292.40	1.958
292.77	1.863
293.13	2.114
293.50	2.526
293.87	1.534
294.24	1.810
294.60	0.303
294.97	2.428
295.34	1.037
295.71	1.042
296.08	0.307
296.44	-0.572
296.81	1.567
297.18	1.549
297.55	0.565
297.91	2.232
298.28	1.644
298.65	0.279
299.02	2.807
299.38	1.070
299.75	2.446
300.12	2.051
300.48	2.046
300.85	0.655
301.22	2.329
301.59	1.951
301.95	3.652
302.32	0.913
302.69	2.693
303.05	0.733
303.42	-0.375
303.79	1.675
304.15	1.659
304.52	1.750
304.89	3.188
305.25	0.122
305.62	2.233
305.99	2.591
306.35	2.553
306.72	1.936
307.09	2.611
307.45	1.022
307.82	1.117
308.19	2.013
308.55	2.070
308.92	0.859
309.29	1.622
309.65	2.227
310.02	2.484
310.38	1.297
310.75	2.459
311.12	3.202
311.48	1.879
311.85	2.575
312.22	2.163
312.58	2.035
312.95	2.548
313.31	1.998
313.68	2.714
314.05	3.066
314.41	2.213
314.78	0.799
315.14	2.665
315.51	1.621
315.87	2.711
316.24	2.527
316.61	3.167
316.97	2.388
317.34	1.638
317.70	1.855
318.07	2.425
318.43	2.528
318.80	3.474
319.16	2.627
319.53	1.410
319.89	2.070
320.26	2.059
320.62	1.058
320.99	2.587
321.35	1.084
321.72	0.409
322.08	3.363
322.45	1.485
322.81	3.362
323.18	2.305
323.54	3.327
323.91	1.205
324.27	1.806
324.64	1.280
325.00	3.316
325.37	2.715
325.73	3.325
326.10	1.329
326.46	2.890
326.83	2.894
327.19	3.003
327.56	3.152
327.92	3.568
328.29	2.857
328.65	1.000
329.01	2.827
329.38	1.784
329.74	3.388
330.11	3.445
330.47	2.543
330.84	4.308
331.20	2.978
331.56	2.917
331.93	2.842
332.29	2.740
332.66	2.985
333.02	3.167
333.38	3.674
333.75	2.582
334.11	2.400
334.48	2.913
334.84	4.812
335.20	3.546
335.57	1.895
335.93	4.118
336.29	3.277
336.66	2.731
337.02	3.063
337.38	2.585
337.75	3.336
338.11	3.399
338.47	3.559
338.84	3.539
339.20	2.636
339.56	3.209
339.93	2.910
340.29	2.569
340.65	2.710
341.02	3.288
341.38	2.443
341.74	3.810
342.11	2.048
342.47	3.176
342.83	3.442
343.20	3.074
343.56	2.857
343.92	4.257
344.28	4.289
344.65	2.393
345.01	1.849
345.37	3.073
345.73	2.537
346.10	1.799
346.46	2.924
346.82	3.528
347.19	2.794
347.55	2.568
347.91	1.890
348.27	1.989
348.63	3.635
349.00	2.784
349.36	2.108
349.72	4.538
350.08	3.448
350.45	2.285
350.81	2.866
351.17	2.733
351.53	2.148
351.89	2.829
352.26	2.868
352.62	3.917
352.98	3.718
353.34	2.878
353.70	3.784
354.07	3.934
354.43	3.320
354.79	3.328
355.15	2.236
355.51	2.578
355.87	2.925
356.24	2.224
356.60	3.384
356.96	3.233
357.32	2.375
357.68	3.295
358.04	3.310
358.40	2.398
358.77	2.859
359.13	3.060
359.49	3.779
359.85	3.354
360.21	2.664
360.57	3.991
360.93	3.926
361.29	3.438
361.66	2.591
362.02	2.589
362.38	3.522
362.74	3.297
363.10	3.228
363.46	4.345
363.82	3.571
364.18	3.763
364.54	4.360
364.90	2.655
365.26	2.354
365.62	4.134
365.98	3.983
366.35	2.042
366.71	2.748
367.07	2.964
367.43	4.804
367.79	4.261
368.15	2.276
368.51	3.287
368.87	4.876
369.23	3.298
369.59	2.986
369.95	3.665
370.31	4.360
370.67	2.675
371.03	3.936
371.39	2.687
371.75	3.577
372.11	3.874
372.47	3.905
372.83	3.686
373.19	2.929
373.55	4.433
373.91	3.485
374.27	3.080
374.63	3.382
374.99	4.242
375.35	3.567
375.71	4.727
376.07	4.038
376.42	3.377
376.78	3.725
377.14	4.068
377.50	4.320
377.86	4.226
378.22	4.146
378.58	3.088
378.94	3.083
379.30	4.144
379.66	4.311
380.02	3.327
380.38	3.202
380.74	3.869
381.09	5.448
381.45	4.177
381.81	3.448
382.17	4.073
382.53	4.012
382.89	4.067
383.25	4.756
383.61	3.833
383.97	4.164
384.32	3.817
384.68	4.474
385.04	2.717
385.40	4.017
385.76	4.512
386.12	3.998
386.48	4.579
386.83	4.969
387.19	4.423
387.55	4.179
387.91	3.853
388.27	3.197
388.62	3.846
388.98	4.361
389.34	3.917
389.70	3.959
390.06	3.978
390.42	4.615
390.77	3.785
391.13	4.596
391.49	4.367
391.85	4.239
392.20	3.580
392.56	3.665
392.92	4.849
393.28	4.420
393.64	4.209
393.99	4.308
394.35	4.562
394.71	3.953
395.07	4.143
395.42	3.814
395.78	3.646
396.14	4.673
396.50	4.709
396.85	3.886
397.21	4.435
397.57	4.498
397.92	5.094
398.28	4.278
398.64	3.688
399.00	4.888
399.35	3.833
399.71	4.472
400.07	4.418
400.42	4.562
400.78	3.757
401.14	4.731
401.49	4.304
401.85	4.698
402.21	4.768
402.57	4.369
402.92	4.091
403.28	3.983
403.63	3.835
403.99	4.413
404.35	4.167
404.70	3.920
405.06	4.441
405.42	3.321
405.77	3.903
406.13	3.748
406.49	4.074
406.84	3.959
407.20	5.065
407.55	4.053
407.91	4.275
408.27	5.025
408.62	4.089
408.98	5.215
409.34	4.266
409.69	4.285
410.05	3.275
410.40	4.108
410.76	4.683
411.11	3.803
411.47	4.284
411.83	4.584
412.18	3.713
412.54	4.759
412.89	4.253
413.25	3.542
413.60	4.435
413.96	4.498
414.31	4.220
414.67	4.127
415.03	4.463
415.38	3.643
415.74	4.253
416.09	4.668
416.45	3.836
416.80	4.746
417.16	3.787
417.51	4.728
417.87	4.725
418.22	4.298
418.58	4.429
418.93	4.905
419.29	5.207
419.64	4.334
420.00	4.253
420.35	4.849
420.71	4.382
421.06	4.497
421.42	4.567
421.77	4.578
422.12	4.589
422.48	4.062
422.83	4.784
423.19	4.566
423.54	4.899
423.90	4.511
424.25	4.242
424.61	4.584
424.96	5.383
425.31	5.087
425.67	4.527
426.02	3.901
426.38	4.477
426.73	4.442
427.09	4.657
427.44	4.943
427.79	4.651
428.15	5.206
428.50	5.161
428.85	4.376
429.21	4.372
429.56	4.948
429.92	4.359
430.27	5.135
430.62	4.441
430.98	4.391
431.33	4.963
431.68	4.987
432.04	4.757
432.39	5.071
432.74	5.336
433.10	4.896
433.45	3.915
433.80	4.311
434.16	4.890
434.51	4.493
434.86	4.804
435.22	5.178
435.57	4.162
435.92	5.158
436.28	4.629
436.63	3.901
436.98	3.952
437.34	5.021
437.69	4.842
438.04	4.594
438.39	4.874
438.75	5.180
439.10	4.886
439.45	4.526
439.81	4.217
440.16	5.395
440.51	4.824
440.86	4.800
441.22	4.201
441.57	4.368
441.92	4.910
442.27	4.329
442.63	5.043
442.98	4.402
443.33	4.942
443.68	4.898
444.03	5.403
444.39	4.552
444.74	5.121
445.09	4.770
445.44	5.346
445.79	4.742
446.15	5.476
446.50	4.518
446.85	5.233
447.20	5.107
447.55	4.972
447.91	5.053
448.26	4.413
448.61	5.320
448.96	4.986
449.31	4.904
449.66	5.266
450.02	4.432
450.37	4.290
450.72	4.972
451.07	5.343
451.42	4.647
451.77	5.027
452.12	4.768
452.47	5.479
452.83	5.649
453.18	5.693
453.53	5.348
453.88	5.562
454.23	4.232
454.58	6.091
454.93	5.730
455.28	5.226
455.63	5.098
455.98	5.663
456.34	4.447
456.69	5.566
457.04	5.655
457.39	5.084
457.74	4.666
458.09	5.510
458.44	5.427
458.79	4.652
459.14	5.191
459.49	5.802
459.84	5.340
460.19	4.415
460.54	4.900
460.89	4.709
461.24	5.161
461.59	4.865
461.94	4.901
462.29	5.063
462.64	5.468
462.99	5.221
463.34	4.727
463.69	4.198
464.04	4.569
464.39	5.257
464.74	5.024
465.09	4.570
465.44	5.020
465.79	6.091
466.14	5.006
466.49	5.066
466.84	6.122
467.19	5.299
467.54	5.000
467.89	5.179
468.24	5.879
468.59	5.247
468.94	5.145
469.29	5.068
469.64	5.997
469.99	6.280
470.34	4.876
470.68	6.468
471.03	6.538
471.38	5.278
471.73	5.245
472.08	4.752
472.43	5.084
472.78	5.733
473.13	4.904
473.48	4.978
473.83	5.025
474.17	4.968
474.52	6.074
474.87	5.361
475.22	5.192
475.57	5.000
475.92	6.156
476.27	5.029
476.61	5.352
476.96	5.143
477.31	5.705
477.66	5.202
478.01	5.511
478.36	5.972
478.70	5.820
479.05	6.003
479.40	5.389
479.75	6.014
480.10	5.258
480.45	5.464
480.79	5.183
481.14	5.369
481.49	6.147
481.84	5.317
482.19	5.528
482.53	6.061
482.88	5.505
483.23	5.540
483.58	6.013
483.92	5.351
484.27	5.095
484.62	5.400
484.97	5.573
485.31	5.056
485.66	5.365
486.01	5.294
486.36	5.520
486.70	5.649
487.05	5.327
487.40	5.315
487.75	5.699
488.09	5.065
488.44	5.717
488.79	5.943
489.13	6.048
489.48	5.710
489.83	5.721
490.17	6.226
490.52	5.616
490.87	5.774
491.22	5.605
491.56	6.065
491.91	5.582
492.26	5.943
492.60	5.566
492.95	6.092
493.30	6.051
493.64	5.736
493.99	5.641
494.34	6.429
494.68	6.086
495.03	5.880
495.37	5.359
495.72	5.550
496.07	6.194
496.41	6.114
496.76	5.799
497.11	5.699
497.45	6.034
497.80	5.503
498.14	5.992
498.49	4.470
498.84	5.777
499.18	5.799
499.53	5.602
499.87	4.923
500.22	5.441
500.56	5.103
500.91	6.207
501.26	6.356
501.60	5.296
501.95	5.700
502.29	5.668
502.64	5.941
502.98	5.846
503.33	6.109
503.67	5.364
504.02	5.311
504.36	5.735
504.71	5.572
505.06	5.192
505.40	6.437
505.75	5.183
506.09	5.966
506.44	6.165
506.78	6.021
507.13	4.892
507.47	6.312
507.82	5.885
508.16	5.648
508.51	5.770
508.85	5.331
509.19	5.338
509.54	5.920
509.88	5.691
510.23	6.184
510.57	6.190
510.92	6.015
511.26	5.688
511.61	5.346
511.95	5.819
512.30	5.553
512.64	5.231
512.98	6.326
513.33	6.535
513.67	6.198
514.02	5.369
514.36	6.316
514.70	6.508
515.05	6.289
515.39	5.882
515.74	6.806
516.08	5.994
516.42	6.289
516.77	5.777
517.11	6.064
517.46	5.921
517.80	6.679
518.14	5.072
518.49	6.455
518.83	6.113
519.17	5.980
519.52	5.842
519.86	5.974
520.20	5.929
520.55	5.292
520.89	4.696
521.23	6.532
521.58	5.831
521.92	6.143
522.26	5.714
522.61	5.830
522.95	4.914
523.29	6.458
523.64	6.121
523.98	6.047
524.32	6.348
524.66	5.963
525.01	5.588
525.35	6.186
525.69	6.116
526.04	6.201
526.38	6.047
526.72	5.109
527.06	5.859
527.41	5.083
527.75	5.545
528.09	5.824
528.43	6.230
528.78	6.407
529.12	6.466
529.46	5.477
529.80	6.133
530.15	6.632
530.49	6.468
530.83	7.204
531.17	5.387
531.51	5.626
531.86	6.386
532.20	5.398
532.54	6.751
532.88	5.863
533.22	5.348
533.57	5.940
533.91	5.493
534.25	5.468
534.59	5.871
534.93	5.787
535.27	5.727
535.62	7.161
535.96	5.559
536.30	5.236
536.64	5.976
536.98	4.873
537.32	5.667
537.66	6.993
538.01	5.567
538.35	6.216
538.69	5.214
539.03	5.687
539.37	6.121
539.71	6.204
540.05	5.620
540.39	6.510
540.73	6.773
541.07	5.601
541.42	5.064
541.76	5.581
542.10	6.752
542.44	5.330
542.78	5.902
543.12	6.449
543.46	5.000
543.80	5.686
544.14	5.238
544.48	6.102
544.82	5.074
545.16	6.707
545.50	5.585
545.84	6.398
546.18	6.311
546.52	5.477
546.86	5.627
547.20	5.626
547.54	5.372
547.88	5.972
548.22	5.308
548.56	4.743
548.90	5.997
549.24	5.676
549.58	5.646
549.92	6.714
550.26	5.925
550.60	5.477
550.94	5.766
551.28	5.342
551.62	5.687
551.96	6.006
552.30	5.436
552.64	6.545
552.98	6.797
553.32	4.834
553.66	5.984
554.00	5.615
554.34	4.838
554.68	5.848
555.02	6.946
555.36	4.745
555.69	5.158
556.03	6.175
556.37	5.619
556.71	6.013
557.05	4.878
557.39	5.939
557.73	6.637
558.07	6.029
558.41	5.535
558.75	5.856
559.08	4.981
559.42	5.590
559.76	5.061
560.10	6.413
560.44	5.491
560.78	5.985
561.12	5.935
561.45	5.822
561.79	6.272
562.13	5.470
562.47	6.092
562.81	5.446
563.15	5.668
563.48	5.598
563.82	5.882
564.16	6.220
564.50	5.578
564.84	5.093
565.17	5.371
565.51	6.519
565.85	5.882
566.19	5.665
566.52	5.479
566.86	5.310
567.20	5.993
567.54	5.316
567.88	5.360
568.21	5.593
568.55	5.408
568.89	4.920
569.23	5.414
569.56	5.591
569.90	5.665
570.24	5.524
570.57	5.097
570.91	5.440
571.25	5.188
571.59	4.808
571.92	5.119
572.26	5.632
572.60	5.616
572.93	5.636
573.27	5.030
573.61	4.732
573.95	5.349
574.28	5.334
574.62	5.338
574.96	5.184
575.29	4.929
575.63	4.938
575.97	4.800
576.30	5.180
576.64	5.483
576.98	5.051
577.31	5.054
577.65	5.189
577.98	5.315
578.32	4.883
578.66	5.151
578.99	5.063
579.33	5.376
579.67	4.819
580.00	4.911
580.34	5.015
580.67	5.467
581.01	5.233
581.35	5.155
581.68	5.115
582.02	5.049
582.35	4.891
582.69	5.253
583.02	5.261
583.36	4.933
583.70	5.069
584.03	5.119
584.37	5.061
584.70	5.155
585.04	5.063
585.37	4.988
585.71	5.467
586.04	5.218
586.38	5.186
586.72	5.327
587.05	4.843
587.39	5.163
587.72	5.177
588.06	5.089
588.39	5.041
588.73	5.220
589.06	5.499
589.40	5.496
589.73	5.099
590.07	4.588
590.40	5.683
590.73	5.118
591.07	5.000
591.40	5.806
591.74	5.517
592.07	5.450
592.41	4.756
592.74	4.919
593.08	5.081
593.41	4.836
593.75	4.913
594.08	4.565
594.41	5.619
594.75	5.059
595.08	4.737
595.42	5.275
595.75	4.925
596.09	5.161
596.42	5.442
596.75	5.132
597.09	5.654
597.42	5.107
597.75	4.739
598.09	5.242
598.42	4.861
598.76	4.942
599.09	4.933
599.42	4.883
599.76	5.134
600.09	5.153
600.42	5.089
600.76	5.047
601.09	5.203
601.42	4.076
601.76	5.452
602.09	4.703
602.42	5.350
602.76	4.695
603.09	5.403
603.42	5.359
603.76	5.066
604.09	5.126
604.42	5.037
604.76	4.928
605.09	5.018
605.42	5.585
605.75	4.959
606.09	5.106
606.42	4.608
606.75	4.981
607.09	5.558
607.42	4.665
607.75	4.724
608.08	5.468
608.42	5.156
608.75	4.813
609.08	5.407
609.41	4.185
609.75	5.753
610.08	5.588
610.41	5.253
610.74	5.561
611.07	5.426
611.41	4.841
611.74	5.553
612.07	5.639
612.40	4.797
612.73	5.008
613.07	5.338
613.40	5.747
613.73	5.286
614.06	4.778
614.39	5.130
614.72	4.134
615.06	5.380
615.39	4.666
615.72	5.323
616.05	5.356
616.38	4.991
616.71	5.345
617.05	5.549
617.38	5.697
617.71	4.975
618.04	4.783
618.37	4.340
618.70	5.737
619.03	4.807
619.36	5.356
619.69	6.246
620.03	4.890
620.36	5.063
620.69	5.169
621.02	5.784
621.35	5.000
621.68	5.984
622.01	5.663
622.34	5.668
622.67	6.328
623.00	5.815
623.33	5.896
623.66	4.801
623.99	5.414
624.32	4.911
624.65	5.004
624.99	4.780
625.32	4.865
625.65	5.594
625.98	4.617
626.31	5.873
626.64	5.356
626.97	5.479
627.30	5.872
627.63	4.750
627.96	5.135
628.29	4.871
628.62	4.394
628.95	4.626
629.28	5.451
629.61	3.631
629.94	6.144
630.26	5.268
630.59	5.829
630.92	4.805
631.25	6.855
631.58	6.138
631.91	3.830
632.24	5.778
632.57	5.778
632.90	5.057
633.23	5.491
633.56	4.211
633.89	6.486
634.22	4.841
634.55	4.447
634.88	5.562
635.20	4.120
635.53	4.835
635.86	4.912
636.19	5.372
636.52	4.182
636.85	3.730
637.18	3.250
637.51	6.444
637.83	5.459
638.16	6.447
638.49	4.966
638.82	4.118
639.15	6.485
639.48	3.632
639.81	5.256
640.13	5.541
640.46	5.840
640.79	5.182
641.12	5.642
641.45	6.169
641.77	4.790
642.10	4.381
642.43	6.070
642.76	4.567
643.09	3.810
643.41	6.349
643.74	6.359
644.07	6.708
644.40	5.835
644.73	5.281
645.05	4.174
645.38	6.291
645.71	6.873
646.04	6.218
646.36	3.665
646.69	6.401
647.02	4.332
647.35	5.235
647.67	5.292
648.00	6.854
648.33	9.106
648.66	3.065
648.98	6.688
649.31	6.308
649.64	6.719
649.96	6.750
650.29	4.426
650.62	5.508
650.94	7.083
651.27	6.412
651.60	5.882
651.92	7.192
652.25	5.509
652.58	3.748
652.90	5.457
653.23	5.968
653.56	4.181
653.88	5.410
654.21	6.544
654.54	5.150
654.86	5.618
655.19	4.155
655.52	5.064
655.84	4.800
656.17	4.952
656.49	6.807
