SpectraSuite Data File
++++++++++++++++++++++++++++++++++++
Date: Sat May 16 11:22:53 PDT 2015
User: schluterlab
Dark Spectrum Present: Yes
Reference Spectrum Present: Yes
Number of Sampled Component Spectra: 1
Spectrometers: USB2E3373
Integration Time (usec): 3000 (USB2E3373)
Spectra Averaged: 3 (USB2E3373)
Boxcar Smoothing: 0 (USB2E3373)
Correct for Electrical Dark: No (USB2E3373)
Strobe/Lamp Enabled: No (USB2E3373)
Correct for Detector Non-linearity: No (USB2E3373)
Correct for Stray Light: No (USB2E3373)
Number of Pixels in Processed Spectrum: 2048
>>>>>Begin Processed Spectral Data<<<<<
178.53	0.000
178.91	140.000
179.29	766.667
179.67	-1000.000
180.04	-138.462
180.42	1000.000
180.80	200.000
181.18	700.000
181.56	-62.500
181.94	800.000
182.31	550.000
182.69	15.385
183.07	-233.333
183.45	800.000
183.83	200.000
184.20	-142.857
184.58	-137.500
184.96	-350.000
185.34	118.750
185.72	-475.000
186.09	266.667
186.47	-75.000
186.85	-175.000
187.23	-100.000
187.61	-125.000
187.98	-325.000
188.36	-112.500
188.74	-137.500
189.12	1300.000
189.49	300.000
189.87	-66.667
190.25	300.000
190.63	-42.857
191.00	-144.444
191.38	540.000
191.76	-20.000
192.14	260.000
192.51	-220.000
192.89	-466.667
193.27	0.000
193.65	-44.444
194.02	-314.286
194.40	566.667
194.78	-170.000
195.15	-1700.000
195.53	-154.545
195.91	-366.667
196.29	320.000
196.66	-900.000
197.04	2200.000
197.42	-150.000
197.79	-80.000
198.17	-233.333
198.55	-800.000
198.92	-1300.000
199.30	350.000
199.68	-100.000
200.05	-155.556
200.43	-211.111
200.81	-1200.000
201.18	-166.667
201.56	200.000
201.94	-46.667
202.31	31.818
202.69	-30.000
203.07	-40.000
203.44	700.000
203.82	-283.333
204.19	-200.000
204.57	-350.000
204.95	-1300.000
205.32	-56.250
205.70	1400.000
206.08	-1900.000
206.45	-72.222
206.83	-1200.000
207.20	50.000
207.58	-533.333
207.96	-433.333
208.33	-162.500
208.71	-144.444
209.08	130.000
209.46	-114.286
209.84	1050.000
210.21	0.000
210.59	60.000
210.96	1000.000
211.34	-250.000
211.71	-366.667
212.09	300.000
212.46	1050.000
212.84	-2400.000
213.22	533.333
213.59	166.667
213.97	-22.222
214.34	190.000
214.72	-90.000
215.09	-666.667
215.47	-150.000
215.84	-110.000
216.22	-210.000
216.59	26.667
216.97	-225.000
217.34	1000.000
217.72	-71.429
218.09	-133.333
218.47	-214.286
218.84	300.000
219.22	42.857
219.59	0.000
219.97	242.857
220.34	475.000
220.72	237.500
221.09	-30.769
221.47	0.000
221.84	266.667
222.22	-400.000
222.59	1700.000
222.97	-100.000
223.34	-1200.000
223.72	-366.667
224.09	-128.571
224.46	-275.000
224.84	-50.000
225.21	-257.143
225.59	-27.273
225.96	-175.000
226.34	-42.857
226.71	-100.000
227.08	-5.000
227.46	2500.000
227.83	-157.143
228.21	-150.000
228.58	950.000
228.95	-12.500
229.33	-1100.000
229.70	-320.000
230.08	-800.000
230.45	-25.000
230.82	-200.000
231.20	-1000.000
231.57	-900.000
231.95	900.000
232.32	4.762
232.69	-55.556
233.07	-342.857
233.44	-450.000
233.81	-113.333
234.19	0.000
234.56	-43.750
234.93	-15.625
235.31	-257.143
235.68	-100.000
236.05	-47.059
236.43	-81.818
236.80	-45.161
237.17	-62.500
237.55	-42.857
237.92	-77.273
238.29	-28.571
238.67	-47.059
239.04	-27.778
239.41	-29.032
239.79	-84.615
240.16	-4.762
240.53	-27.273
240.91	-25.641
241.28	0.000
241.65	-6.154
242.02	3.279
242.40	-8.197
242.77	-6.061
243.14	-20.339
243.51	-1.429
243.89	-22.785
244.26	-8.989
244.63	-2.105
245.00	3.158
245.38	0.000
245.75	0.000
246.12	5.600
246.49	2.362
246.87	-8.943
247.24	-5.085
247.61	-6.780
247.98	-1.408
248.36	2.797
248.73	6.329
249.10	1.274
249.47	6.433
249.84	3.977
250.22	-12.500
250.59	-1.130
250.96	0.000
251.33	9.953
251.70	7.212
252.08	3.791
252.45	3.318
252.82	-0.476
253.19	10.213
253.56	8.065
253.94	3.797
254.31	2.575
254.68	8.537
255.05	4.032
255.42	4.365
255.79	3.943
256.16	6.275
256.54	2.941
256.91	1.515
257.28	-1.099
257.65	4.255
258.02	5.031
258.39	7.023
258.76	3.716
259.14	2.778
259.51	4.918
259.88	8.537
260.25	9.938
260.62	4.180
260.99	2.374
261.36	7.622
261.73	5.491
262.10	8.611
262.47	5.698
262.85	5.714
263.22	4.585
263.59	4.615
263.96	4.348
264.33	7.046
264.70	7.735
265.07	5.220
265.44	5.168
265.81	7.494
266.18	4.557
266.55	7.108
266.92	7.557
267.29	6.538
267.66	6.914
268.03	8.696
268.40	7.981
268.77	5.060
269.14	7.193
269.51	7.356
269.88	5.275
270.25	4.895
270.62	7.094
270.99	5.856
271.36	4.196
271.73	6.502
272.10	3.890
272.47	6.667
272.84	9.111
273.21	6.651
273.58	5.934
273.95	6.579
274.32	8.597
274.69	7.877
275.06	5.317
275.43	4.241
275.80	9.165
276.17	7.950
276.54	7.332
276.91	8.025
277.28	7.708
277.65	6.612
278.02	7.307
278.39	6.680
278.76	7.570
279.13	3.953
279.50	5.567
279.87	6.765
280.23	7.692
280.60	4.970
280.97	6.408
281.34	6.190
281.71	5.962
282.08	8.468
282.45	4.481
282.82	5.426
283.19	6.545
283.56	8.608
283.92	8.834
284.29	7.435
284.66	8.273
285.03	9.269
285.40	7.934
285.77	9.298
286.14	5.957
286.51	6.217
286.87	7.804
287.24	7.167
287.61	7.438
287.98	6.066
288.35	5.620
288.72	5.093
289.08	4.915
289.45	7.744
289.82	5.536
290.19	8.374
290.56	3.636
290.93	6.359
291.29	5.348
291.66	5.475
292.03	7.692
292.40	5.120
292.77	6.832
293.13	5.528
293.50	6.538
293.87	5.828
294.24	5.882
294.60	3.939
294.97	7.284
295.34	6.074
295.71	5.060
296.08	2.304
296.44	4.149
296.81	6.410
297.18	4.648
297.55	6.780
297.91	7.113
298.28	4.932
298.65	5.439
299.02	6.150
299.38	5.348
299.75	4.891
300.12	6.923
300.48	5.882
300.85	4.456
301.22	4.916
301.59	5.462
301.95	7.935
302.32	3.781
302.69	5.508
303.05	5.495
303.42	3.875
303.79	4.785
304.15	4.976
304.52	4.784
304.89	4.132
305.25	5.739
305.62	4.465
305.99	5.300
306.35	6.326
306.72	5.125
307.09	5.448
307.45	5.108
307.82	4.916
308.19	4.251
308.55	5.229
308.92	4.404
309.29	4.649
309.65	4.984
310.02	4.860
310.38	5.189
310.75	5.020
311.12	4.959
311.48	5.846
311.85	3.811
312.22	4.428
312.58	6.002
312.95	4.689
313.31	5.894
313.68	6.131
314.05	5.045
314.41	4.125
314.78	4.196
315.14	5.726
315.51	4.863
315.87	5.421
316.24	6.122
316.61	5.278
316.97	5.672
317.34	4.239
317.70	5.566
318.07	5.970
318.43	5.150
318.80	5.540
319.16	3.846
319.53	5.639
319.89	4.516
320.26	6.275
320.62	4.231
320.99	5.871
321.35	3.153
321.72	4.299
322.08	5.539
322.45	4.752
322.81	5.572
323.18	4.611
323.54	5.360
323.91	5.375
324.27	5.989
324.64	5.484
325.00	6.283
325.37	5.158
325.73	6.649
326.10	3.897
326.46	5.692
326.83	4.340
327.19	4.587
327.56	6.303
327.92	5.268
328.29	5.195
328.65	4.727
329.01	5.212
329.38	5.977
329.74	5.128
330.11	5.077
330.47	5.631
330.84	5.683
331.20	4.513
331.56	3.920
331.93	4.707
332.29	4.658
332.66	5.268
333.02	4.615
333.38	5.108
333.75	5.165
334.11	5.333
334.48	4.678
334.84	6.474
335.20	4.787
335.57	4.603
335.93	6.088
336.29	3.632
336.66	5.110
337.02	6.036
337.38	5.169
337.75	5.180
338.11	5.546
338.47	4.537
338.84	5.354
339.20	5.360
339.56	6.061
339.93	5.379
340.29	4.783
340.65	5.332
341.02	5.818
341.38	4.886
341.74	5.165
342.11	5.461
342.47	4.549
342.83	5.458
343.20	4.697
343.56	5.796
343.92	6.010
344.28	5.214
344.65	4.703
345.01	4.286
345.37	5.066
345.73	4.746
346.10	4.007
346.46	4.387
346.82	4.491
347.19	4.684
347.55	4.093
347.91	4.803
348.27	3.978
348.63	4.927
349.00	5.728
349.36	3.981
349.72	5.971
350.08	5.373
350.45	4.255
350.81	4.936
351.17	3.939
351.53	4.057
351.89	4.608
352.26	4.806
352.62	5.914
352.98	4.668
353.34	6.795
353.70	4.247
354.07	4.642
354.43	5.929
354.79	5.309
355.15	4.473
355.51	5.000
355.87	4.427
356.24	5.083
356.60	5.882
356.96	6.005
357.32	4.276
357.68	5.057
358.04	5.004
358.40	4.176
358.77	4.250
359.13	4.744
359.49	5.291
359.85	4.497
360.21	4.642
360.57	6.401
360.93	4.519
361.29	5.605
361.66	4.345
362.02	4.512
362.38	5.943
362.74	5.861
363.10	5.237
363.46	5.840
363.82	4.956
364.18	4.920
364.54	6.076
364.90	4.892
365.26	5.136
365.62	5.274
365.98	5.832
366.35	4.930
366.71	5.074
367.07	5.222
367.43	5.834
367.79	5.223
368.15	4.765
368.51	5.245
368.87	6.593
369.23	5.754
369.59	5.278
369.95	5.638
370.31	5.134
370.67	4.266
371.03	5.102
371.39	6.365
371.75	5.293
372.11	5.380
372.47	4.483
372.83	6.259
373.19	5.714
373.55	6.685
373.91	5.121
374.27	5.476
374.63	5.245
374.99	5.911
375.35	4.913
375.71	6.820
376.07	5.476
376.42	4.967
376.78	5.556
377.14	5.695
377.50	6.319
377.86	5.462
378.22	5.214
378.58	5.497
378.94	4.994
379.30	6.277
379.66	6.557
380.02	5.288
380.38	5.559
380.74	5.627
381.09	6.561
381.45	5.847
381.81	5.747
382.17	6.078
382.53	4.985
382.89	5.383
383.25	5.719
383.61	6.486
383.97	6.307
384.32	4.881
384.68	6.832
385.04	5.978
385.40	5.660
385.76	6.524
386.12	6.621
386.48	7.550
386.83	6.258
387.19	6.814
387.55	6.541
387.91	6.698
388.27	5.549
388.62	5.889
388.98	5.996
389.34	5.936
389.70	6.699
390.06	5.718
390.42	5.321
390.77	6.246
391.13	6.335
391.49	7.049
391.85	6.421
392.20	5.643
392.56	6.231
392.92	6.560
393.28	6.716
393.64	6.675
393.99	6.523
394.35	6.509
394.71	6.362
395.07	6.717
395.42	5.840
395.78	6.034
396.14	7.290
396.50	5.994
396.85	6.786
397.21	6.501
397.57	6.687
397.92	7.201
398.28	6.500
398.64	7.139
399.00	6.404
399.35	6.539
399.71	7.317
400.07	7.164
400.42	7.178
400.78	6.082
401.14	6.168
401.49	6.191
401.85	5.918
402.21	6.377
402.57	6.917
402.92	6.042
403.28	6.311
403.63	6.651
403.99	6.029
404.35	5.978
404.70	6.554
405.06	6.632
405.42	5.535
405.77	6.052
406.13	5.906
406.49	6.771
406.84	6.659
407.20	7.244
407.55	6.650
407.91	5.699
408.27	7.047
408.62	7.035
408.98	7.277
409.34	5.972
409.69	6.175
410.05	6.186
410.40	6.622
410.76	6.639
411.11	5.923
411.47	6.522
411.83	6.479
412.18	5.941
412.54	5.857
412.89	5.711
413.25	5.903
413.60	6.258
413.96	5.669
414.31	6.116
414.67	5.968
415.03	6.274
415.38	6.636
415.74	6.186
416.09	6.138
416.45	5.556
416.80	7.217
417.16	6.246
417.51	7.026
417.87	6.537
418.22	6.321
418.58	7.060
418.93	6.990
419.29	7.089
419.64	5.465
420.00	7.655
420.35	6.032
420.71	6.903
421.06	6.805
421.42	5.855
421.77	7.091
422.12	7.107
422.48	6.200
422.83	6.321
423.19	6.347
423.54	6.744
423.90	6.362
424.25	6.222
424.61	6.996
424.96	7.080
425.31	6.987
425.67	6.705
426.02	5.852
426.38	7.199
426.73	6.487
427.09	6.495
427.44	6.648
427.79	6.570
428.15	7.181
428.50	7.273
428.85	6.535
429.21	6.253
429.56	6.406
429.92	7.415
430.27	6.481
430.62	7.106
430.98	7.162
431.33	6.777
431.68	7.292
432.04	7.331
432.39	7.123
432.74	6.475
433.10	6.922
433.45	6.390
433.80	6.663
434.16	7.093
434.51	6.849
434.86	6.913
435.22	6.626
435.57	6.548
435.92	6.624
436.28	6.528
436.63	6.897
436.98	5.956
437.34	7.088
437.69	7.351
438.04	6.580
438.39	6.859
438.75	6.286
439.10	7.385
439.45	6.276
439.81	7.048
440.16	6.928
440.51	6.706
440.86	7.230
441.22	6.855
441.57	7.158
441.92	7.315
442.27	6.764
442.63	6.974
442.98	5.926
443.33	7.084
443.68	6.618
444.03	7.122
444.39	7.048
444.74	6.883
445.09	6.689
445.44	7.203
445.79	6.578
446.15	7.503
446.50	7.077
446.85	6.875
447.20	7.150
447.55	6.796
447.91	7.412
448.26	6.816
448.61	7.301
448.96	7.787
449.31	7.384
449.66	7.270
450.02	7.091
450.37	6.957
450.72	7.740
451.07	6.977
451.42	6.568
451.77	7.121
452.12	6.913
452.47	7.809
452.83	6.814
453.18	6.958
453.53	6.841
453.88	6.998
454.23	6.348
454.58	7.334
454.93	7.431
455.28	6.692
455.63	7.494
455.98	7.470
456.34	7.052
456.69	7.567
457.04	7.683
457.39	7.177
457.74	6.970
458.09	7.889
458.44	7.506
458.79	6.670
459.14	6.674
459.49	6.986
459.84	7.532
460.19	7.458
460.54	6.776
460.89	6.502
461.24	7.104
461.59	7.503
461.94	7.447
462.29	7.921
462.64	7.839
462.99	7.229
463.34	7.022
463.69	6.743
464.04	7.264
464.39	6.810
464.74	7.742
465.09	7.156
465.44	6.825
465.79	6.937
466.14	7.710
466.49	7.139
466.84	7.563
467.19	8.105
467.54	7.025
467.89	7.645
468.24	7.660
468.59	7.058
468.94	7.074
469.29	6.823
469.64	7.817
469.99	8.440
470.34	6.947
470.68	6.977
471.03	7.639
471.38	6.944
471.73	7.483
472.08	7.229
472.43	7.465
472.78	7.600
473.13	7.157
473.48	7.594
473.83	8.065
474.17	7.325
474.52	7.417
474.87	8.217
475.22	7.139
475.57	6.611
475.92	7.937
476.27	7.943
476.61	7.211
476.96	7.099
477.31	7.320
477.66	6.973
478.01	8.050
478.36	7.910
478.70	7.368
479.05	7.680
479.40	7.047
479.75	7.339
480.10	7.540
480.45	7.302
480.79	8.243
481.14	7.376
481.49	7.696
481.84	7.582
482.19	7.812
482.53	7.670
482.88	7.784
483.23	7.840
483.58	8.834
483.92	8.266
484.27	6.956
484.62	8.337
484.97	7.249
485.31	7.200
485.66	7.405
486.01	7.169
486.36	7.620
486.70	7.950
487.05	7.565
487.40	7.906
487.75	7.496
488.09	7.783
488.44	7.950
488.79	8.065
489.13	7.303
489.48	7.953
489.83	7.424
490.17	7.619
490.52	8.062
490.87	7.898
491.22	7.894
491.56	7.685
491.91	7.443
492.26	7.594
492.60	7.755
492.95	7.996
493.30	8.099
493.64	8.039
493.99	7.409
494.34	7.952
494.68	8.193
495.03	7.983
495.37	7.424
495.72	8.301
496.07	8.447
496.41	8.106
496.76	7.763
497.11	7.960
497.45	8.046
497.80	7.054
498.14	8.055
498.49	7.333
498.84	8.641
499.18	8.382
499.53	7.501
499.87	8.012
500.22	8.431
500.56	7.854
500.91	8.030
501.26	8.637
501.60	7.559
501.95	8.454
502.29	7.936
502.64	8.722
502.98	7.667
503.33	8.788
503.67	7.615
504.02	8.064
504.36	8.186
504.71	7.903
505.06	7.938
505.40	8.583
505.75	8.537
506.09	9.151
506.44	9.073
506.78	8.881
507.13	8.187
507.47	8.503
507.82	8.622
508.16	9.430
508.51	8.346
508.85	8.230
509.19	7.745
509.54	9.091
509.88	8.670
510.23	9.015
510.57	9.418
510.92	9.506
511.26	9.038
511.61	8.855
511.95	9.483
512.30	9.181
512.64	8.848
512.98	9.296
513.33	8.951
513.67	9.213
514.02	10.011
514.36	9.030
514.70	9.394
515.05	9.205
515.39	8.708
515.74	10.239
516.08	9.510
516.42	9.802
516.77	9.994
517.11	9.783
517.46	9.868
517.80	9.687
518.14	8.575
518.49	8.846
518.83	9.021
519.17	10.124
519.52	9.254
519.86	9.618
520.20	9.108
520.55	9.477
520.89	9.142
521.23	9.829
521.58	9.342
521.92	9.753
522.26	10.286
522.61	9.379
522.95	9.381
523.29	9.969
523.64	9.681
523.98	10.185
524.32	9.868
524.66	9.876
525.01	9.762
525.35	10.052
525.69	9.629
526.04	9.595
526.38	10.312
526.72	9.195
527.06	10.091
527.41	10.033
527.75	10.165
528.09	10.721
528.43	9.574
528.78	10.804
529.12	10.755
529.46	9.987
529.80	10.265
530.15	10.560
530.49	11.125
530.83	11.853
531.17	9.293
531.51	10.248
531.86	11.060
532.20	10.121
532.54	11.163
532.88	10.935
533.22	10.361
533.57	10.770
533.91	9.114
534.25	9.617
534.59	10.618
534.93	10.019
535.27	10.510
535.62	10.038
535.96	10.019
536.30	9.097
536.64	10.691
536.98	10.169
537.32	9.952
537.66	9.437
538.01	9.966
538.35	9.527
538.69	9.358
539.03	10.494
539.37	11.311
539.71	11.074
540.05	9.664
540.39	10.942
540.73	10.643
541.07	11.202
541.42	11.006
541.76	10.033
542.10	11.884
542.44	10.526
542.78	11.465
543.12	11.134
543.46	9.521
543.80	10.033
544.14	10.074
544.48	10.892
544.82	10.555
545.16	10.329
545.50	10.094
545.84	9.875
546.18	10.541
546.52	10.455
546.86	11.182
547.20	11.603
547.54	10.262
547.88	11.148
548.22	9.240
548.56	11.156
548.90	10.916
549.24	9.530
549.58	10.515
549.92	10.318
550.26	11.127
550.60	10.669
550.94	11.095
551.28	11.964
551.62	10.635
551.96	10.637
552.30	11.707
552.64	11.049
552.98	11.913
553.32	10.823
553.66	10.526
554.00	10.519
554.34	10.686
554.68	10.380
555.02	11.795
555.36	10.496
555.69	10.888
556.03	10.456
556.37	10.811
556.71	11.167
557.05	10.421
557.39	11.136
557.73	11.816
558.07	11.228
558.41	10.471
558.75	11.939
559.08	10.350
559.42	11.179
559.76	11.273
560.10	12.230
560.44	10.549
560.78	11.343
561.12	10.904
561.45	11.370
561.79	11.220
562.13	10.659
562.47	10.364
562.81	10.113
563.15	10.637
563.48	11.403
563.82	11.224
564.16	10.142
564.50	11.559
564.84	11.971
565.17	10.676
565.51	11.408
565.85	11.900
566.19	11.924
566.52	10.828
566.86	10.367
567.20	11.259
567.54	11.518
567.88	11.167
568.21	10.682
568.55	11.029
568.89	11.282
569.23	11.199
569.56	11.097
569.90	11.172
570.24	10.748
570.57	10.650
570.91	11.187
571.25	11.219
571.59	10.677
571.92	11.131
572.26	11.264
572.60	10.922
572.93	10.715
573.27	10.793
573.61	10.582
573.95	11.256
574.28	11.056
574.62	11.108
574.96	10.718
575.29	11.077
575.63	11.335
575.97	10.841
576.30	10.715
576.64	10.836
576.98	10.948
577.31	10.656
577.65	10.870
577.98	10.878
578.32	10.840
578.66	10.988
578.99	10.939
579.33	10.977
579.67	11.007
580.00	10.962
580.34	10.812
580.67	10.910
581.01	10.763
581.35	10.814
581.68	10.935
582.02	11.052
582.35	11.010
582.69	11.028
583.02	10.986
583.36	11.344
583.70	10.804
584.03	11.153
584.37	11.313
584.70	11.234
585.04	11.089
585.37	10.907
585.71	11.176
586.04	10.917
586.38	10.826
586.72	11.584
587.05	11.470
587.39	10.981
587.72	11.309
588.06	11.032
588.39	11.023
588.73	11.527
589.06	11.317
589.40	11.542
589.73	11.508
590.07	11.253
590.40	11.624
590.73	11.236
591.07	11.598
591.40	11.482
591.74	11.685
592.07	10.901
592.41	11.253
592.74	11.799
593.08	11.432
593.41	11.053
593.75	11.045
594.08	11.682
594.41	11.867
594.75	11.325
595.08	11.203
595.42	11.886
595.75	10.842
596.09	11.525
596.42	11.825
596.75	11.125
597.09	12.289
597.42	11.785
597.75	11.293
598.09	11.252
598.42	11.312
598.76	11.462
599.09	11.484
599.42	11.342
599.76	11.589
600.09	11.947
600.42	11.394
600.76	11.488
601.09	11.736
601.42	10.764
601.76	12.422
602.09	11.493
602.42	12.222
602.76	11.591
603.09	11.331
603.42	11.241
603.76	11.607
604.09	11.574
604.42	11.823
604.76	11.382
605.09	12.071
605.42	11.658
605.75	11.169
606.09	11.499
606.42	11.353
606.75	11.507
607.09	11.645
607.42	11.444
607.75	11.523
608.08	11.839
608.42	11.495
608.75	11.869
609.08	11.593
609.41	10.912
609.75	11.214
610.08	11.765
610.41	11.325
610.74	11.896
611.07	11.562
611.41	10.993
611.74	11.774
612.07	12.030
612.40	11.354
612.73	11.793
613.07	11.007
613.40	12.151
613.73	11.989
614.06	11.862
614.39	11.443
614.72	10.782
615.06	11.902
615.39	11.666
615.72	10.972
616.05	10.657
616.38	11.840
616.71	11.652
617.05	11.942
617.38	11.641
617.71	11.609
618.04	12.236
618.37	11.698
618.70	12.842
619.03	11.916
619.36	11.980
619.69	12.060
620.03	11.983
620.36	11.744
620.69	11.558
621.02	11.720
621.35	11.532
621.68	11.721
622.01	11.327
622.34	12.655
622.67	11.797
623.00	11.783
623.33	13.284
623.66	10.561
623.99	12.105
624.32	12.277
624.65	11.921
624.99	11.800
625.32	12.575
625.65	11.888
625.98	11.346
626.31	12.153
626.64	11.632
626.97	11.644
627.30	11.574
627.63	10.881
627.96	11.662
628.29	11.581
628.62	10.124
628.95	12.205
629.28	11.748
629.61	10.599
629.94	12.098
630.26	12.525
630.59	13.568
630.92	12.513
631.25	12.702
631.58	10.688
631.91	10.745
632.24	11.444
632.57	12.222
632.90	11.034
633.23	11.565
633.56	10.877
633.89	11.675
634.22	11.688
634.55	13.341
634.88	11.487
635.20	9.738
635.53	13.359
635.86	10.957
636.19	12.332
636.52	11.111
636.85	11.071
637.18	10.750
637.51	12.268
637.83	10.386
638.16	12.237
638.49	11.310
638.82	9.266
639.15	12.581
639.48	11.284
639.81	12.586
640.13	12.297
640.46	13.248
640.79	12.045
641.12	11.566
641.45	13.199
641.77	11.826
642.10	10.272
642.43	11.684
642.76	10.866
643.09	11.746
643.41	12.063
643.74	13.037
644.07	10.920
644.40	10.535
644.73	13.366
645.05	11.352
645.38	13.079
645.71	14.261
646.04	12.941
646.36	9.424
646.69	11.592
647.02	12.455
647.35	12.094
647.67	12.591
648.00	10.369
648.33	13.153
648.66	10.484
