SpectraSuite Data File
++++++++++++++++++++++++++++++++++++
Date: Sat May 16 11:43:46 PDT 2015
User: schluterlab
Dark Spectrum Present: Yes
Reference Spectrum Present: Yes
Number of Sampled Component Spectra: 1
Spectrometers: USB2E3373
Integration Time (usec): 3000 (USB2E3373)
Spectra Averaged: 3 (USB2E3373)
Boxcar Smoothing: 0 (USB2E3373)
Correct for Electrical Dark: No (USB2E3373)
Strobe/Lamp Enabled: No (USB2E3373)
Correct for Detector Non-linearity: No (USB2E3373)
Correct for Stray Light: No (USB2E3373)
Number of Pixels in Processed Spectrum: 2048
>>>>>Begin Processed Spectral Data<<<<<
178.53	0.000
178.91	93.333
179.29	433.333
179.67	-1300.000
180.04	-15.385
180.42	1600.000
180.80	450.000
181.18	325.000
181.56	-87.500
181.94	2600.000
182.31	250.000
182.69	-53.846
183.07	-700.000
183.45	1650.000
183.83	366.667
184.20	-214.286
184.58	-250.000
184.96	-325.000
185.34	112.500
185.72	-500.000
186.09	266.667
186.47	-262.500
186.85	-175.000
187.23	-112.500
187.61	-50.000
187.98	-350.000
188.36	-175.000
188.74	-225.000
189.12	2100.000
189.49	314.286
189.87	-100.000
190.25	300.000
190.63	-64.286
191.00	-166.667
191.38	340.000
191.76	13.333
192.14	480.000
192.51	-300.000
192.89	-133.333
193.27	0.000
193.65	-133.333
194.02	-100.000
194.40	700.000
194.78	-70.000
195.15	-700.000
195.53	-45.455
195.91	-633.333
196.29	300.000
196.66	-533.333
197.04	2300.000
197.42	-200.000
197.79	-20.000
198.17	-333.333
198.55	-500.000
198.92	-1300.000
199.30	225.000
199.68	-800.000
200.05	-188.889
200.43	-288.889
200.81	-1900.000
201.18	-158.333
201.56	328.571
201.94	-80.000
202.31	4.545
202.69	-10.000
203.07	-110.000
203.44	433.333
203.82	-316.667
204.19	-525.000
204.57	-425.000
204.95	-700.000
205.32	-56.250
205.70	1100.000
206.08	-1900.000
206.45	-83.333
206.83	-750.000
207.20	-150.000
207.58	-533.333
207.96	-166.667
208.33	-175.000
208.71	-77.778
209.08	260.000
209.46	-271.429
209.84	700.000
210.21	0.000
210.59	15.000
210.96	1100.000
211.34	-83.333
211.71	-266.667
212.09	550.000
212.46	1100.000
212.84	-3300.000
213.22	666.667
213.59	208.333
213.97	-77.778
214.34	140.000
214.72	-120.000
215.09	-333.333
215.47	-350.000
215.84	-30.000
216.22	-80.000
216.59	-26.667
216.97	-550.000
217.34	750.000
217.72	-157.143
218.09	-466.667
218.47	-285.714
218.84	114.286
219.22	-42.857
219.59	0.000
219.97	257.143
220.34	550.000
220.72	212.500
221.09	-84.615
221.47	0.000
221.84	500.000
222.22	-500.000
222.59	900.000
222.97	-187.500
223.34	-300.000
223.72	-466.667
224.09	-85.714
224.46	-225.000
224.84	-50.000
225.21	-157.143
225.59	-63.636
225.96	-125.000
226.34	42.857
226.71	-77.778
227.08	-30.000
227.46	2200.000
227.83	-300.000
228.21	-87.500
228.58	150.000
228.95	-43.750
229.33	-900.000
229.70	-340.000
230.08	-1150.000
230.45	-100.000
230.82	-216.667
231.20	-1800.000
231.57	-750.000
231.95	1600.000
232.32	-28.571
232.69	-277.778
233.07	-228.571
233.44	-1350.000
233.81	-73.333
234.19	-177.778
234.56	-62.500
234.93	-9.375
235.31	-114.286
235.68	-157.143
236.05	-88.235
236.43	-72.727
236.80	-6.452
237.17	-41.667
237.55	-42.857
237.92	-109.091
238.29	-8.571
238.67	0.000
239.04	-27.778
239.41	-45.161
239.79	-41.026
240.16	-50.000
240.53	-14.545
240.91	-30.769
241.28	-9.091
241.65	6.154
242.02	-26.230
242.40	-18.033
242.77	-10.606
243.14	-10.169
243.51	-21.429
243.89	-13.924
244.26	-13.483
244.63	3.158
245.00	-16.842
245.38	-3.390
245.75	-0.885
246.12	0.000
246.49	-3.937
246.87	-6.504
247.24	-11.864
247.61	-16.102
247.98	-7.042
248.36	-5.594
248.73	2.532
249.10	-7.006
249.47	2.339
249.84	-3.409
250.22	-3.571
250.59	2.260
250.96	1.047
251.33	1.422
251.70	0.000
252.08	1.896
252.45	-3.791
252.82	0.000
253.19	8.085
253.56	-2.419
253.94	3.797
254.31	-1.288
254.68	0.813
255.05	0.403
255.42	0.397
255.79	0.000
256.16	0.000
256.54	4.412
256.91	1.515
257.28	-4.762
257.65	0.355
258.02	5.660
258.39	0.000
258.76	0.676
259.14	2.778
259.51	3.607
259.88	2.134
260.25	3.727
260.62	-3.215
260.99	0.890
261.36	1.524
261.73	5.780
262.10	4.167
262.47	1.140
262.85	2.286
263.22	1.146
263.59	-2.769
263.96	0.290
264.33	4.336
264.70	3.591
265.07	0.275
265.44	4.651
265.81	3.359
266.18	2.025
266.55	5.392
266.92	2.519
267.29	1.695
267.66	3.210
268.03	4.589
268.40	0.000
268.77	1.687
269.14	2.552
269.51	4.368
269.88	1.147
270.25	-0.699
270.62	3.890
270.99	1.577
271.36	1.399
271.73	4.260
272.10	2.517
272.47	2.000
272.84	3.333
273.21	2.523
273.58	1.978
273.95	2.632
274.32	2.036
274.69	3.282
275.06	2.863
275.43	1.339
275.80	3.462
276.17	4.603
276.54	1.833
276.91	1.440
277.28	2.434
277.65	3.306
278.02	2.923
278.39	2.554
278.76	2.191
279.13	3.162
279.50	2.783
279.87	1.057
280.23	1.619
280.60	3.181
280.97	2.913
281.34	1.354
281.71	4.423
282.08	1.210
282.45	1.426
282.82	0.581
283.19	2.727
283.56	4.762
283.92	3.357
284.29	1.487
284.66	2.698
285.03	4.635
285.40	4.613
285.77	5.263
286.14	4.152
286.51	3.552
286.87	4.537
287.24	2.730
287.61	5.289
287.98	3.120
288.35	1.653
288.72	3.565
289.08	1.864
289.45	5.051
289.82	2.076
290.19	5.090
290.56	3.636
290.93	4.134
291.29	1.621
291.66	3.060
292.03	6.122
292.40	4.970
292.77	4.348
293.13	3.415
293.50	3.566
293.87	4.448
294.24	4.223
294.60	2.879
294.97	4.097
295.34	2.963
295.71	3.125
296.08	1.536
296.44	3.290
296.81	4.416
297.18	4.930
297.55	5.791
297.91	4.324
298.28	4.795
298.65	3.626
299.02	4.278
299.38	4.947
299.75	2.582
300.12	3.846
300.48	5.243
300.85	4.063
301.22	3.105
301.59	3.121
301.95	5.038
302.32	4.563
302.69	4.774
303.05	4.640
303.42	3.125
303.79	4.665
304.15	6.161
304.52	5.251
304.89	4.014
305.25	5.006
305.62	6.228
305.99	6.360
306.35	5.993
306.72	5.467
307.09	4.881
307.45	6.129
307.82	5.363
308.19	7.047
308.55	6.209
308.92	4.296
309.29	6.054
309.65	5.726
310.02	6.371
310.38	4.649
310.75	6.865
311.12	6.818
311.48	6.576
311.85	5.561
312.22	7.827
312.58	6.816
312.95	8.257
313.31	7.193
313.68	8.945
314.05	7.814
314.41	7.445
314.78	8.292
315.14	8.193
315.51	7.700
315.87	8.035
316.24	8.163
316.61	9.021
316.97	8.955
317.34	7.996
317.70	9.740
318.07	9.981
318.43	8.708
318.80	10.610
319.16	8.537
319.53	8.929
319.89	10.254
320.26	10.980
320.62	9.519
320.99	10.945
321.35	9.852
321.72	9.826
322.08	10.682
322.45	10.891
322.81	11.720
323.18	12.392
323.54	13.309
323.91	12.697
324.27	13.213
324.64	11.974
325.00	14.747
325.37	14.751
325.73	15.661
326.10	14.880
326.46	16.375
326.83	15.660
327.19	16.347
327.56	18.228
327.92	18.607
328.29	19.307
328.65	17.364
329.01	19.523
329.38	18.733
329.74	21.062
330.11	20.580
330.47	21.798
330.84	22.456
331.20	21.480
331.56	21.787
331.93	21.847
332.29	23.379
332.66	23.266
333.02	22.443
333.38	23.566
333.75	24.310
334.11	24.444
334.48	23.919
334.84	24.497
335.20	25.266
335.57	25.090
335.93	25.783
336.29	25.244
336.66	24.581
337.02	24.865
337.38	26.649
337.75	25.373
338.11	26.476
338.47	24.466
338.84	25.953
339.20	25.220
339.56	25.936
339.93	25.838
340.29	25.509
340.65	25.437
341.02	25.379
341.38	25.779
341.74	27.265
342.11	26.621
342.47	26.180
342.83	24.433
343.20	25.619
343.56	24.571
343.92	26.210
344.28	27.839
344.65	25.743
345.01	26.303
345.37	26.993
345.73	24.877
346.10	24.775
346.46	25.995
346.82	25.100
347.19	26.787
347.55	25.281
347.91	26.772
348.27	26.173
348.63	26.010
349.00	26.412
349.36	23.497
349.72	26.513
350.08	25.662
350.45	24.901
350.81	26.433
351.17	26.206
351.53	24.741
351.89	25.707
352.26	25.659
352.62	26.575
352.98	24.921
353.34	25.659
353.70	24.479
354.07	25.570
354.43	26.640
354.79	26.307
355.15	26.038
355.51	25.859
355.87	24.348
356.24	24.940
356.60	26.753
356.96	25.866
357.32	26.445
357.68	25.211
358.04	26.405
358.40	24.517
358.77	25.966
359.13	26.167
359.49	26.153
359.85	25.381
360.21	25.419
360.57	27.033
360.93	26.148
361.29	26.756
361.66	25.229
362.02	26.331
362.38	25.972
362.74	27.033
363.10	26.040
363.46	26.567
363.82	26.822
364.18	25.687
364.54	27.448
364.90	26.345
365.26	26.391
365.62	27.584
365.98	27.169
366.35	27.042
366.71	26.427
367.07	26.606
367.43	28.346
367.79	26.942
368.15	26.529
368.51	26.993
368.87	27.198
369.23	27.228
369.59	26.458
369.95	27.202
370.31	26.793
370.67	26.753
371.03	27.697
371.39	26.521
371.75	28.398
372.11	27.762
372.47	27.693
372.83	28.164
373.19	28.643
373.55	27.375
373.91	28.165
374.27	27.173
374.63	28.709
374.99	28.651
375.35	27.456
375.71	28.629
376.07	27.515
376.42	26.821
376.78	28.562
377.14	29.017
377.50	29.078
377.86	28.283
378.22	28.580
378.58	28.598
378.94	28.977
379.30	28.885
379.66	29.265
380.02	27.926
380.38	29.003
380.74	27.667
381.09	28.764
381.45	28.998
381.81	28.554
382.17	29.135
382.53	28.936
382.89	29.605
383.25	30.885
383.61	29.009
383.97	29.761
384.32	30.413
384.68	29.444
385.04	29.831
385.40	30.310
385.76	31.280
386.12	29.419
386.48	30.446
386.83	30.798
387.19	30.424
387.55	29.982
387.91	30.468
388.27	29.493
388.62	30.469
388.98	30.830
389.34	31.089
389.70	30.146
390.06	30.516
390.42	30.897
390.77	30.662
391.13	31.615
391.49	31.067
391.85	30.673
392.20	29.854
392.56	29.994
392.92	30.120
393.28	30.941
393.64	30.667
393.99	31.446
394.35	29.745
394.71	30.636
395.07	29.755
395.42	30.870
395.78	29.981
396.14	31.713
396.50	31.131
396.85	30.475
397.21	31.288
397.57	30.760
397.92	31.557
398.28	32.167
398.64	31.648
399.00	31.629
399.35	31.003
399.71	30.604
400.07	32.119
400.42	31.083
400.78	30.411
401.14	30.060
401.49	31.191
401.85	30.567
402.21	31.585
402.57	31.311
402.92	31.089
403.28	31.801
403.63	30.797
403.99	31.448
404.35	30.978
404.70	30.720
405.06	31.257
405.42	30.996
405.77	30.204
406.13	30.721
406.49	32.055
406.84	30.714
407.20	31.625
407.55	31.349
407.91	29.793
408.27	31.373
408.62	30.968
408.98	31.049
409.34	30.713
409.69	30.624
410.05	31.352
410.40	30.901
410.76	31.298
411.11	32.357
411.47	31.458
411.83	31.907
412.18	31.064
412.54	31.483
412.89	32.017
413.25	30.047
413.60	29.891
413.96	31.054
414.31	31.865
414.67	31.365
415.03	30.595
415.38	32.661
415.74	32.281
416.09	31.202
416.45	29.960
416.80	31.404
417.16	30.963
417.51	32.305
417.87	31.133
418.22	30.531
418.58	31.707
418.93	32.679
419.29	31.619
419.64	31.847
420.00	32.807
420.35	31.638
420.71	31.933
421.06	31.775
421.42	31.440
421.77	32.942
422.12	31.897
422.48	32.282
422.83	31.834
423.19	31.737
423.54	33.026
423.90	31.637
424.25	32.692
424.61	33.595
424.96	33.177
425.31	32.364
425.67	32.722
426.02	32.530
426.38	32.789
426.73	32.379
427.09	32.047
427.44	32.670
427.79	33.140
428.15	34.051
428.50	35.015
428.85	32.734
429.21	32.983
429.56	33.281
429.92	32.816
430.27	34.197
430.62	34.065
430.98	33.298
431.33	33.458
431.68	34.155
432.04	33.296
432.39	34.074
432.74	33.273
433.10	33.934
433.45	34.773
433.80	34.099
434.16	34.551
434.51	34.466
434.86	34.271
435.22	33.630
435.57	33.537
435.92	34.349
436.28	34.837
436.63	34.370
436.98	34.192
437.34	34.495
437.69	34.772
438.04	34.033
438.39	35.499
438.75	34.342
439.10	34.536
439.45	35.486
439.81	34.819
440.16	34.696
440.51	35.353
440.86	35.512
441.22	34.549
441.57	35.579
441.92	35.141
442.27	35.390
442.63	35.354
442.98	34.086
443.33	35.914
443.68	35.852
444.03	35.560
444.39	35.389
444.74	35.352
445.09	35.033
445.44	35.903
445.79	36.563
446.15	35.104
446.50	35.547
446.85	35.403
447.20	35.802
447.55	36.519
447.91	36.047
448.26	35.419
448.61	36.050
448.96	37.647
449.31	36.302
449.66	36.062
450.02	35.180
450.37	35.884
450.72	36.158
451.07	36.832
451.42	35.316
451.77	37.702
452.12	37.068
452.47	37.343
452.83	36.692
453.18	37.508
453.53	37.438
453.88	37.321
454.23	37.304
454.58	37.912
454.93	37.343
455.28	37.667
455.63	37.162
455.98	37.892
456.34	36.595
456.69	37.899
457.04	36.693
457.39	37.620
457.74	37.448
458.09	37.181
458.44	37.875
458.79	38.453
459.14	38.049
459.49	38.011
459.84	37.605
460.19	37.589
460.54	38.052
460.89	37.892
461.24	37.341
461.59	37.749
461.94	38.447
462.29	38.058
462.64	39.196
462.99	38.487
463.34	38.488
463.69	38.486
464.04	37.610
464.39	38.112
464.74	38.239
465.09	36.801
465.44	37.902
465.79	39.425
466.14	39.701
466.49	37.651
466.84	38.295
467.19	38.716
467.54	37.658
467.89	39.519
468.24	38.717
468.59	39.600
468.94	38.714
469.29	38.077
469.64	39.488
469.99	39.568
470.34	39.880
470.68	39.898
471.03	39.986
471.38	39.861
471.73	40.210
472.08	40.830
472.43	39.833
472.78	39.200
473.13	38.767
473.48	39.821
473.83	40.447
474.17	40.255
474.52	40.409
474.87	38.636
475.22	39.882
475.57	38.556
475.92	39.957
476.27	40.457
476.61	39.662
476.96	39.631
477.31	40.043
477.66	40.232
478.01	40.357
478.36	39.497
478.70	40.630
479.05	40.022
479.40	40.052
479.75	40.520
480.10	39.931
480.45	39.265
480.79	40.474
481.14	41.244
481.49	41.384
481.84	40.129
482.19	40.247
482.53	41.193
482.88	40.532
483.23	40.282
483.58	40.934
483.92	41.280
484.27	39.743
484.62	39.698
484.97	39.634
485.31	38.976
485.66	38.423
486.01	39.173
486.36	39.663
486.70	40.509
487.05	39.528
487.40	40.118
487.75	39.585
488.09	39.314
488.44	39.716
488.79	40.149
489.13	40.243
489.48	41.599
489.83	41.092
490.17	41.620
490.52	42.029
490.87	41.155
491.22	41.569
491.56	41.204
491.91	42.319
492.26	41.887
492.60	41.484
492.95	41.218
493.30	41.734
493.64	41.561
493.99	41.491
494.34	41.381
494.68	42.556
495.03	41.396
495.37	42.330
495.72	41.798
496.07	42.234
496.41	42.890
496.76	42.283
497.11	42.299
497.45	42.912
497.80	43.472
498.14	42.583
498.49	42.240
498.84	42.087
499.18	42.641
499.53	42.815
499.87	41.988
500.22	42.500
500.56	43.122
500.91	42.906
501.26	42.698
501.60	41.984
501.95	43.527
502.29	43.033
502.64	43.329
502.98	42.022
503.33	42.528
503.67	43.008
504.02	43.312
504.36	43.186
504.71	42.249
505.06	42.237
505.40	43.463
505.75	42.734
506.09	43.175
506.44	44.060
506.78	43.603
507.13	43.306
507.47	44.079
507.82	43.986
508.16	43.782
508.51	43.689
508.85	44.410
509.19	44.898
509.54	43.658
509.88	44.202
510.23	44.025
510.57	44.974
510.92	45.274
511.26	43.966
511.61	44.654
511.95	43.750
512.30	44.530
512.64	44.407
512.98	44.829
513.33	44.316
513.67	44.221
514.02	44.072
514.36	45.374
514.70	44.482
515.05	44.940
515.39	45.790
515.74	45.259
516.08	45.476
516.42	44.646
516.77	45.985
517.11	45.595
517.46	45.754
517.80	46.691
518.14	47.585
518.49	45.846
518.83	45.638
519.17	46.004
519.52	44.939
519.86	46.476
520.20	46.822
520.55	46.585
520.89	45.648
521.23	47.009
521.58	47.022
521.92	46.168
522.26	47.492
522.61	46.198
522.95	46.713
523.29	46.332
523.64	45.597
523.98	47.613
524.32	46.574
524.66	45.404
525.01	47.270
525.35	47.552
525.69	47.690
526.04	47.063
526.38	47.295
526.72	46.296
527.06	47.852
527.41	47.459
527.75	46.337
528.09	48.114
528.43	46.557
528.78	45.666
529.12	47.759
529.46	46.714
529.80	47.902
530.15	47.328
530.49	46.766
530.83	48.003
531.17	47.071
531.51	46.685
531.86	48.124
532.20	47.706
532.54	48.596
532.88	47.431
533.22	48.596
533.57	47.520
533.91	46.317
534.25	45.317
534.59	47.220
534.93	46.609
535.27	47.640
535.62	47.634
535.96	46.218
536.30	46.073
536.64	47.012
536.98	48.023
537.32	46.856
537.66	47.726
538.01	46.598
538.35	48.446
538.69	46.791
539.03	48.409
539.37	46.574
539.71	47.899
540.05	47.567
540.39	48.615
540.73	47.478
541.07	48.566
541.42	46.860
541.76	46.379
542.10	47.468
542.44	45.969
542.78	47.354
543.12	47.658
543.46	46.301
543.80	46.221
544.14	47.079
544.48	47.244
544.82	46.617
545.16	45.674
545.50	46.164
545.84	47.705
546.18	47.295
546.52	47.511
546.86	46.866
547.20	48.805
547.54	46.763
547.88	47.578
548.22	45.020
548.56	47.295
548.90	46.968
549.24	46.041
549.58	46.789
549.92	47.208
550.26	48.410
550.60	45.875
550.94	47.664
551.28	47.780
551.62	45.938
551.96	46.816
552.30	45.993
552.64	45.954
552.98	46.882
553.32	46.609
553.66	47.657
554.00	47.406
554.34	46.209
554.68	47.880
555.02	47.395
555.36	46.370
555.69	46.848
556.03	45.684
556.37	46.942
556.71	46.815
557.05	46.933
557.39	47.439
557.73	46.535
558.07	47.626
558.41	45.251
558.75	46.388
559.08	45.992
559.42	46.784
559.76	47.699
560.10	46.383
560.44	46.965
560.78	45.442
561.12	46.032
561.45	46.301
561.79	46.760
562.13	46.844
562.47	45.658
562.81	44.979
563.15	46.186
563.48	45.473
563.82	46.180
564.16	45.774
564.50	45.565
564.84	45.767
565.17	44.894
565.51	45.176
565.85	47.397
566.19	46.443
566.52	46.314
566.86	45.259
567.20	46.489
567.54	46.722
567.88	43.719
568.21	45.022
568.55	44.963
568.89	44.384
569.23	43.452
569.56	42.917
569.90	43.116
570.24	43.555
570.57	41.793
570.91	41.755
571.25	41.634
571.59	42.117
571.92	41.101
572.26	41.642
572.60	40.987
572.93	41.530
573.27	40.671
573.61	40.723
573.95	41.112
574.28	40.653
574.62	40.849
574.96	40.753
575.29	40.447
575.63	40.297
575.97	40.183
576.30	41.052
576.64	40.757
576.98	39.463
577.31	40.882
577.65	40.215
577.98	39.859
578.32	40.286
578.66	39.973
578.99	40.721
579.33	40.794
579.67	39.767
580.00	39.360
580.34	40.509
580.67	40.010
581.01	39.008
581.35	39.933
581.68	39.408
582.02	39.251
582.35	40.019
582.69	40.451
583.02	40.782
583.36	40.181
583.70	40.374
584.03	40.975
584.37	40.298
584.70	40.788
585.04	39.924
585.37	39.570
585.71	39.816
586.04	40.071
586.38	39.722
586.72	40.135
587.05	40.640
587.39	39.989
587.72	40.138
588.06	40.550
588.39	40.558
588.73	39.710
589.06	40.313
589.40	41.051
589.73	40.864
590.07	40.896
590.40	40.443
590.73	41.144
591.07	41.434
591.40	42.591
591.74	41.964
592.07	40.991
592.41	41.783
592.74	41.276
593.08	41.057
593.41	40.164
593.75	39.927
594.08	41.912
594.41	40.961
594.75	41.336
595.08	41.053
595.42	40.751
595.75	40.426
596.09	40.473
596.42	41.571
596.75	40.448
597.09	41.407
597.42	41.161
597.75	41.010
598.09	41.211
598.42	41.052
598.76	40.864
599.09	40.963
599.42	40.408
599.76	40.355
600.09	40.763
600.42	40.600
600.76	40.942
601.09	40.486
601.42	40.602
601.76	40.771
602.09	40.859
602.42	40.741
602.76	40.341
603.09	40.685
603.42	40.290
603.76	41.005
604.09	40.449
604.42	40.383
604.76	40.820
605.09	41.049
605.42	41.578
605.75	41.354
606.09	40.100
606.42	40.972
606.75	39.760
607.09	40.450
607.42	41.065
607.75	40.971
608.08	40.804
608.42	41.012
608.75	40.794
609.08	40.136
609.41	41.256
609.75	40.127
610.08	41.029
610.41	41.542
610.74	41.441
611.07	41.937
611.41	39.788
611.74	41.697
612.07	42.374
612.40	41.365
612.73	41.626
613.07	42.157
613.40	42.365
613.73	41.199
614.06	41.131
614.39	42.108
614.72	40.391
615.06	41.522
615.39	40.423
615.72	41.391
616.05	41.027
616.38	41.381
616.71	41.862
617.05	42.943
617.38	42.415
617.71	42.383
618.04	41.801
618.37	42.013
618.70	42.894
619.03	42.248
619.36	43.199
619.69	42.498
620.03	41.873
620.36	43.108
620.69	42.929
621.02	42.390
621.35	44.435
621.68	43.770
622.01	42.557
622.34	44.022
622.67	44.375
623.00	43.458
623.33	43.358
623.66	42.762
623.99	43.308
624.32	42.932
624.65	42.311
624.99	42.942
625.32	41.467
625.65	43.434
625.98	42.019
626.31	43.638
626.64	42.510
626.97	43.408
627.30	43.915
627.63	43.351
627.96	44.560
628.29	44.761
628.62	43.171
628.95	43.701
629.28	43.891
629.61	44.161
629.94	44.896
630.26	45.825
630.59	46.432
630.92	43.844
631.25	44.254
631.58	45.608
631.91	44.574
632.24	45.556
632.57	46.444
632.90	46.782
633.23	45.678
633.56	45.731
633.89	44.575
634.22	45.455
634.55	47.596
634.88	46.312
635.20	46.317
