SpectraSuite Data File
++++++++++++++++++++++++++++++++++++
Date: Sat May 16 11:40:57 PDT 2015
User: schluterlab
Dark Spectrum Present: Yes
Reference Spectrum Present: Yes
Number of Sampled Component Spectra: 1
Spectrometers: USB2E3373
Integration Time (usec): 3000 (USB2E3373)
Spectra Averaged: 3 (USB2E3373)
Boxcar Smoothing: 0 (USB2E3373)
Correct for Electrical Dark: No (USB2E3373)
Strobe/Lamp Enabled: No (USB2E3373)
Correct for Detector Non-linearity: No (USB2E3373)
Correct for Stray Light: No (USB2E3373)
Number of Pixels in Processed Spectrum: 2048
>>>>>Begin Processed Spectral Data<<<<<
178.53	0.000
178.91	106.667
179.29	333.333
179.67	-700.000
180.04	-23.077
180.42	1300.000
180.80	375.000
181.18	525.000
181.56	-175.000
181.94	1700.000
182.31	275.000
182.69	-38.462
183.07	-400.000
183.45	1300.000
183.83	700.000
184.20	-71.429
184.58	-250.000
184.96	-150.000
185.34	150.000
185.72	-475.000
186.09	50.000
186.47	-200.000
186.85	-187.500
187.23	-37.500
187.61	-125.000
187.98	-212.500
188.36	-150.000
188.74	-187.500
189.12	400.000
189.49	314.286
189.87	-100.000
190.25	425.000
190.63	0.000
191.00	-144.444
191.38	400.000
191.76	26.667
192.14	500.000
192.51	-100.000
192.89	-400.000
193.27	0.000
193.65	-155.556
194.02	-228.571
194.40	633.333
194.78	-110.000
195.15	-600.000
195.53	-190.909
195.91	-366.667
196.29	320.000
196.66	-800.000
197.04	1800.000
197.42	-225.000
197.79	-53.333
198.17	-400.000
198.55	-850.000
198.92	-1800.000
199.30	250.000
199.68	-1150.000
200.05	-122.222
200.43	-288.889
200.81	-1200.000
201.18	-33.333
201.56	285.714
201.94	-93.333
202.31	-4.545
202.69	-40.000
203.07	-60.000
203.44	466.667
203.82	-300.000
204.19	-750.000
204.57	-225.000
204.95	-2300.000
205.32	-43.750
205.70	400.000
206.08	-2300.000
206.45	-50.000
206.83	-1100.000
207.20	-300.000
207.58	-766.667
207.96	-600.000
208.33	-200.000
208.71	-133.333
209.08	250.000
209.46	-371.429
209.84	800.000
210.21	0.000
210.59	55.000
210.96	200.000
211.34	-233.333
211.71	-333.333
212.09	425.000
212.46	400.000
212.84	-1900.000
213.22	733.333
213.59	175.000
213.97	-55.556
214.34	190.000
214.72	-100.000
215.09	-333.333
215.47	-200.000
215.84	-80.000
216.22	-110.000
216.59	6.667
216.97	-500.000
217.34	550.000
217.72	-171.429
218.09	-216.667
218.47	-257.143
218.84	257.143
219.22	-85.714
219.59	0.000
219.97	228.571
220.34	275.000
220.72	275.000
221.09	-100.000
221.47	0.000
221.84	333.333
222.22	-450.000
222.59	1700.000
222.97	-287.500
223.34	-1100.000
223.72	-466.667
224.09	-50.000
224.46	-325.000
224.84	-57.143
225.21	-214.286
225.59	-72.727
225.96	-212.500
226.34	-171.429
226.71	-77.778
227.08	-35.000
227.46	2300.000
227.83	-114.286
228.21	-187.500
228.58	850.000
228.95	-43.750
229.33	-1600.000
229.70	-420.000
230.08	-1500.000
230.45	25.000
230.82	-350.000
231.20	-1000.000
231.57	-450.000
231.95	1400.000
232.32	-57.143
232.69	-200.000
233.07	-214.286
233.44	-850.000
233.81	-60.000
234.19	-100.000
234.56	-31.250
234.93	6.250
235.31	-214.286
235.68	-107.143
236.05	0.000
236.43	-9.091
236.80	-6.452
237.17	-8.333
237.55	14.286
237.92	-36.364
238.29	-5.714
238.67	17.647
239.04	19.444
239.41	9.677
239.79	-17.949
240.16	7.143
240.53	23.636
240.91	38.462
241.28	47.273
241.65	50.769
242.02	29.508
242.40	32.787
242.77	34.848
243.14	40.678
243.51	32.857
243.89	43.038
244.26	38.202
244.63	50.526
245.00	30.526
245.38	37.288
245.75	38.053
246.12	44.800
246.49	35.433
246.87	37.398
247.24	35.593
247.61	38.136
247.98	36.620
248.36	38.462
248.73	36.076
249.10	37.580
249.47	54.971
249.84	42.614
250.22	30.952
250.59	45.198
250.96	42.932
251.33	42.654
251.70	44.712
252.08	40.758
252.45	47.867
252.82	44.762
253.19	44.255
253.56	44.758
253.94	45.992
254.31	49.785
254.68	50.000
255.05	39.113
255.42	44.444
255.79	44.444
256.16	49.020
256.54	44.118
256.91	43.561
257.28	42.491
257.65	42.908
258.02	48.742
258.39	44.482
258.76	46.284
259.14	45.062
259.51	46.885
259.88	46.037
260.25	48.447
260.62	45.016
260.99	44.807
261.36	50.000
261.73	47.977
262.10	47.500
262.47	50.427
262.85	52.857
263.22	44.126
263.59	47.077
263.96	48.696
264.33	50.678
264.70	49.724
265.07	51.099
265.44	46.512
265.81	41.602
266.18	49.114
266.55	42.892
266.92	49.118
267.29	45.763
267.66	48.889
268.03	47.101
268.40	45.775
268.77	46.024
269.14	45.244
269.51	44.368
269.88	42.661
270.25	45.688
270.62	48.284
270.99	46.622
271.36	48.718
271.73	45.291
272.10	50.801
272.47	48.222
272.84	47.556
273.21	46.789
273.58	47.692
273.95	48.246
274.32	47.964
274.69	46.827
275.06	46.830
275.43	49.777
275.80	49.287
276.17	46.025
276.54	47.047
276.91	47.325
277.28	47.059
277.65	44.215
278.02	47.390
278.39	44.204
278.76	48.805
279.13	46.245
279.50	49.702
279.87	44.820
280.23	45.142
280.60	46.521
280.97	45.049
281.34	47.195
281.71	45.000
282.08	48.992
282.45	45.825
282.82	49.225
283.19	47.273
283.56	47.070
283.92	48.233
284.29	47.212
284.66	45.144
285.03	44.029
285.40	45.941
285.77	46.140
286.14	47.653
286.51	45.293
286.87	44.465
287.24	44.539
287.61	43.967
287.98	45.234
288.35	42.975
288.72	44.822
289.08	42.034
289.45	41.919
289.82	43.253
290.19	42.200
290.56	43.471
290.93	40.223
291.29	42.950
291.66	41.224
292.03	40.502
292.40	37.952
292.77	40.062
293.13	40.000
293.50	40.565
293.87	40.337
294.24	38.763
294.60	37.424
294.97	38.240
295.34	38.370
295.71	37.500
296.08	35.023
296.44	36.052
296.81	36.040
297.18	35.634
297.55	36.158
297.91	38.354
298.28	34.658
298.65	36.960
299.02	36.765
299.38	35.294
299.75	35.870
300.12	37.051
300.48	35.166
300.85	34.731
301.22	35.058
301.59	34.980
301.95	36.146
302.32	33.507
302.69	35.251
303.05	33.211
303.42	31.500
303.79	33.014
304.15	32.938
304.52	33.372
304.89	33.176
305.25	34.432
305.62	32.550
305.99	33.333
306.35	33.851
306.72	32.688
307.09	32.123
307.45	33.031
307.82	31.844
308.19	32.550
308.55	32.353
308.92	31.472
309.29	32.432
309.65	31.389
310.02	30.886
310.38	30.703
310.75	31.352
311.12	30.785
311.48	31.002
311.85	30.999
312.22	31.102
312.58	30.926
312.95	29.867
313.31	31.269
313.68	32.261
314.05	31.751
314.41	30.885
314.78	30.969
315.14	30.405
315.51	30.193
315.87	30.591
316.24	30.321
316.61	29.750
316.97	32.040
317.34	30.539
317.70	29.870
318.07	30.784
318.43	30.056
318.80	30.986
319.16	29.456
319.53	30.639
319.89	29.351
320.26	30.588
320.62	28.365
320.99	30.348
321.35	29.458
321.72	28.966
322.08	30.762
322.45	29.307
322.81	28.818
323.18	29.875
323.54	28.651
323.91	29.657
324.27	29.278
324.64	29.525
325.00	28.796
325.37	29.774
325.73	28.609
326.10	28.167
326.46	29.422
326.83	29.447
327.19	27.606
327.56	29.216
327.92	29.397
328.29	29.784
328.65	28.000
329.01	28.180
329.38	29.706
329.74	29.029
330.11	27.471
330.47	28.429
330.84	29.881
331.20	27.708
331.56	28.532
331.93	28.597
332.29	28.402
332.66	28.622
333.02	29.774
333.38	28.405
333.75	27.605
334.11	28.622
334.48	27.184
334.84	28.784
335.20	28.014
335.57	28.069
335.93	28.201
336.29	28.078
336.66	26.872
337.02	28.829
337.38	27.897
337.75	27.480
338.11	28.086
338.47	28.826
338.84	27.858
339.20	27.592
339.56	27.540
339.93	27.249
340.29	26.484
340.65	27.885
341.02	27.656
341.38	28.559
341.74	27.773
342.11	27.645
342.47	26.781
342.83	26.113
343.20	27.071
343.56	24.735
343.92	26.962
344.28	28.091
344.65	26.403
345.01	26.807
345.37	27.492
345.73	26.678
346.10	25.920
346.46	26.483
346.82	25.982
347.19	25.883
347.55	25.762
347.91	27.008
348.27	25.139
348.63	27.948
349.00	26.730
349.36	25.683
349.72	27.468
350.08	25.421
350.45	25.611
350.81	26.911
351.17	26.045
351.53	25.457
351.89	26.677
352.26	26.202
352.62	26.728
352.98	26.187
353.34	26.059
353.70	24.170
354.07	24.784
354.43	26.008
354.79	25.990
355.15	25.240
355.51	25.078
355.87	25.455
356.24	25.655
356.60	26.511
356.96	25.558
357.32	24.782
357.68	24.751
358.04	26.097
358.40	25.135
358.77	25.116
359.13	25.784
359.49	24.565
359.85	24.466
360.21	24.962
360.57	26.883
360.93	25.111
361.29	25.710
361.66	24.466
362.02	25.074
362.38	25.165
362.74	24.908
363.10	23.960
363.46	26.068
363.82	25.583
364.18	24.385
364.54	25.375
364.90	24.668
365.26	25.107
365.62	25.944
365.98	25.533
366.35	25.282
366.71	24.595
367.07	24.065
367.43	25.944
367.79	24.811
368.15	24.324
368.51	25.385
368.87	25.343
369.23	25.754
369.59	25.069
369.95	24.947
370.31	26.512
370.67	23.500
371.03	24.854
371.39	23.197
371.75	24.535
372.11	25.610
372.47	24.584
372.83	24.965
373.19	24.786
373.55	24.912
373.91	24.111
374.27	23.409
374.63	24.707
374.99	25.591
375.35	24.092
375.71	24.308
376.07	24.572
376.42	23.245
376.78	24.706
377.14	25.288
377.50	24.307
377.86	24.642
378.22	24.372
378.58	24.583
378.94	24.106
379.30	24.132
379.66	25.076
380.02	24.064
380.38	23.746
380.74	24.443
381.09	24.722
381.45	24.403
381.81	24.077
382.17	23.997
382.53	23.830
382.89	24.402
383.25	25.226
383.61	23.703
383.97	23.944
384.32	23.967
384.68	24.244
385.04	24.034
385.40	23.981
385.76	24.756
386.12	24.485
386.48	25.124
386.83	24.417
387.19	23.610
387.55	23.925
387.91	24.363
388.27	23.643
388.62	24.760
388.98	24.652
389.34	24.051
389.70	23.325
390.06	24.363
390.42	25.192
390.77	23.975
391.13	25.280
391.49	25.203
391.85	24.314
392.20	23.847
392.56	23.519
392.92	23.959
393.28	25.086
393.64	24.534
393.99	24.985
394.35	24.513
394.71	23.657
395.07	24.357
395.42	23.421
395.78	24.136
396.14	25.296
396.50	24.037
396.85	24.923
397.21	24.119
397.57	24.863
397.92	24.122
398.28	24.000
398.64	24.390
399.00	24.775
399.35	24.408
399.71	25.552
400.07	25.194
400.42	24.757
400.78	24.270
401.14	23.473
401.49	23.880
401.85	24.527
402.21	24.672
402.57	24.090
402.92	24.544
403.28	23.836
403.63	23.787
403.99	24.549
404.35	24.215
404.70	24.166
405.06	24.452
405.42	24.293
405.77	23.982
406.13	23.566
406.49	24.865
406.84	23.275
407.20	24.853
407.55	24.256
407.91	24.093
408.27	24.081
408.62	24.173
408.98	23.954
409.34	24.193
409.69	23.629
410.05	24.742
410.40	25.261
410.76	24.422
411.11	24.501
411.47	25.192
411.83	24.878
412.18	23.391
412.54	23.917
412.89	24.362
413.25	22.963
413.60	24.605
413.96	23.413
414.31	24.220
414.67	24.317
415.03	23.674
415.38	24.984
415.74	25.064
416.09	23.785
416.45	22.884
416.80	23.797
417.16	24.518
417.51	25.148
417.87	23.948
418.22	22.882
418.58	25.032
418.93	24.280
419.29	23.588
419.64	23.492
420.00	24.423
420.35	24.246
420.71	24.850
421.06	24.852
421.42	23.126
421.77	24.121
422.12	24.566
422.48	24.212
422.83	25.057
423.19	23.998
423.54	24.380
423.90	24.060
424.25	23.812
424.61	25.211
424.96	25.571
425.31	24.092
425.67	24.470
426.02	23.006
426.38	24.743
426.73	24.781
427.09	24.755
427.44	24.148
427.79	23.837
428.15	24.417
428.50	23.988
428.85	24.580
429.21	24.018
429.56	24.896
429.92	24.449
430.27	24.277
430.62	24.869
430.98	24.307
431.33	24.600
431.68	24.343
432.04	25.238
432.39	24.672
432.74	23.861
433.10	24.536
433.45	24.352
433.80	24.636
434.16	24.933
434.51	25.096
434.86	24.605
435.22	25.278
435.57	24.113
435.92	23.916
436.28	24.392
436.63	23.855
436.98	24.456
437.34	24.217
437.69	24.096
438.04	24.504
438.39	24.549
438.75	24.447
439.10	25.597
439.45	24.744
439.81	23.795
440.16	24.532
440.51	25.471
440.86	24.581
441.22	24.268
441.57	24.684
441.92	23.887
442.27	24.242
442.63	24.893
442.98	24.153
443.33	24.767
443.68	24.179
444.03	24.853
444.39	24.131
444.74	25.385
445.09	23.684
445.44	25.155
445.79	25.038
446.15	24.699
446.50	23.952
446.85	24.012
447.20	23.647
447.55	25.138
447.91	25.660
448.26	24.525
448.61	24.222
448.96	25.042
449.31	24.521
449.66	25.358
450.02	22.659
450.37	24.058
450.72	24.746
451.07	25.707
451.42	23.978
451.77	25.075
452.12	23.897
452.47	25.189
452.83	24.170
453.18	24.794
453.53	24.627
453.88	24.880
454.23	24.002
454.58	24.984
454.93	24.244
455.28	23.901
455.63	23.894
455.98	25.542
456.34	23.952
456.69	25.328
457.04	24.708
457.39	24.342
457.74	24.808
458.09	24.768
458.44	25.173
458.79	23.879
459.14	24.986
459.49	25.281
459.84	24.733
460.19	24.940
460.54	24.380
460.89	24.608
461.24	24.954
461.59	24.326
461.94	24.507
462.29	24.122
462.64	24.506
462.99	24.900
463.34	23.700
463.69	24.618
464.04	24.370
464.39	24.074
464.74	25.414
465.09	24.354
465.44	24.535
465.79	26.001
466.14	24.626
466.49	24.928
466.84	25.150
467.19	24.439
467.54	24.937
467.89	25.154
468.24	24.466
468.59	24.859
468.94	23.987
469.29	23.522
469.64	25.539
469.99	24.173
470.34	23.647
470.68	24.273
471.03	25.258
471.38	23.819
471.73	24.406
472.08	23.360
472.43	24.260
472.78	23.867
473.13	23.791
473.48	23.421
473.83	24.566
474.17	24.204
474.52	24.105
474.87	24.709
475.22	23.776
475.57	24.278
475.92	24.784
476.27	23.886
476.61	24.732
476.96	24.371
477.31	24.220
477.66	24.294
478.01	24.149
478.36	24.411
478.70	23.865
479.05	24.392
479.40	23.990
479.75	24.261
480.10	24.058
480.45	23.404
480.79	24.679
481.14	25.088
481.49	24.976
481.84	24.919
482.19	24.532
482.53	24.290
482.88	23.493
483.23	24.836
483.58	25.162
483.92	24.224
484.27	23.527
484.62	23.499
484.97	24.786
485.31	23.456
485.66	23.223
486.01	23.879
486.36	25.308
486.70	26.233
487.05	25.079
487.40	24.866
487.75	25.154
488.09	25.540
488.44	25.778
488.79	25.115
489.13	25.637
489.48	25.653
489.83	24.236
490.17	24.467
490.52	24.411
490.87	23.603
491.22	23.914
491.56	24.676
491.91	24.857
492.26	24.811
492.60	24.215
492.95	24.893
493.30	24.297
493.64	23.930
493.99	23.996
494.34	24.429
494.68	24.813
495.03	24.331
495.37	24.730
495.72	24.902
496.07	24.261
496.41	24.919
496.76	24.977
497.11	24.965
497.45	25.718
497.80	24.812
498.14	24.951
498.49	24.058
498.84	24.417
499.18	24.464
499.53	24.988
499.87	24.373
500.22	25.196
500.56	24.312
500.91	24.631
501.26	25.036
501.60	23.977
501.95	25.556
502.29	24.516
502.64	25.554
502.98	24.533
503.33	24.295
503.67	24.425
504.02	24.095
504.36	25.000
504.71	24.519
505.06	23.964
505.40	24.551
505.75	24.848
506.09	25.379
506.44	25.213
506.78	24.586
507.13	24.511
507.47	24.883
507.82	24.368
508.16	24.870
508.51	24.833
508.85	23.706
509.19	24.542
509.54	24.630
509.88	25.638
510.23	24.738
510.57	25.503
510.92	24.705
511.26	24.455
511.61	24.028
511.95	24.461
512.30	24.739
512.64	24.096
512.98	24.972
513.33	25.535
513.67	24.009
514.02	24.273
514.36	25.374
514.70	25.467
515.05	24.185
515.39	24.221
515.74	25.305
516.08	24.899
516.42	24.986
516.77	25.072
517.11	24.428
517.46	26.256
517.80	24.910
518.14	24.275
518.49	24.507
518.83	24.095
519.17	25.459
519.52	24.812
519.86	24.134
520.20	25.550
520.55	24.369
520.89	24.483
521.23	25.092
521.58	24.702
521.92	25.966
522.26	25.206
522.61	23.638
522.95	24.059
523.29	25.455
523.64	24.172
523.98	24.889
524.32	24.953
524.66	23.913
525.01	24.277
525.35	25.515
525.69	24.333
526.04	24.739
526.38	25.271
526.72	24.330
527.06	25.130
527.41	25.281
527.75	24.026
528.09	24.686
528.43	25.705
528.78	25.063
529.12	25.032
529.46	24.549
529.80	25.113
530.15	25.241
530.49	25.291
530.83	26.523
531.17	24.916
531.51	25.318
531.86	25.346
532.20	24.764
532.54	25.201
532.88	24.835
533.22	24.666
533.57	26.110
533.91	25.406
534.25	26.084
534.59	24.922
534.93	25.078
535.27	25.047
535.62	25.512
535.96	25.533
536.30	23.691
536.64	25.299
536.98	25.989
537.32	25.294
537.66	24.236
538.01	25.361
538.35	25.878
538.69	25.067
539.03	25.322
539.37	25.017
539.71	24.683
540.05	25.360
540.39	25.900
540.73	26.192
541.07	25.410
541.42	24.510
541.76	24.651
542.10	26.536
542.44	25.183
542.78	25.373
543.12	24.644
543.46	24.658
543.80	24.080
544.14	24.916
544.48	25.525
544.82	25.237
545.16	26.023
545.50	25.437
545.84	25.174
546.18	25.659
546.52	26.458
546.86	25.855
547.20	25.176
547.54	24.105
547.88	25.547
548.22	24.509
548.56	24.850
548.90	25.202
549.24	25.158
549.58	25.547
549.92	25.583
550.26	25.939
550.60	25.178
550.94	25.109
551.28	24.981
551.62	24.963
551.96	25.398
552.30	25.087
552.64	25.053
552.98	25.158
553.32	25.541
553.66	26.316
554.00	25.586
554.34	24.838
554.68	24.854
555.02	25.977
555.36	24.515
555.69	24.928
556.03	25.333
556.37	25.676
556.71	26.056
557.05	25.795
557.39	25.464
557.73	26.842
558.07	26.225
558.41	25.804
558.75	25.171
559.08	24.825
559.42	25.268
559.76	26.764
560.10	25.802
560.44	25.289
560.78	25.400
561.12	25.604
561.45	25.753
561.79	24.599
562.13	25.877
562.47	25.280
562.81	25.035
563.15	25.682
563.48	24.672
563.82	24.814
564.16	25.828
564.50	25.538
564.84	25.198
565.17	25.796
565.51	25.880
565.85	26.437
566.19	25.362
566.52	24.462
566.86	25.917
567.20	26.877
567.54	27.820
567.88	25.907
568.21	26.957
568.55	26.299
568.89	25.746
569.23	25.590
569.56	25.809
569.90	26.239
570.24	26.080
570.57	25.378
570.91	25.366
571.25	26.816
571.59	26.007
571.92	26.577
572.26	26.123
572.60	25.535
572.93	25.550
573.27	26.159
573.61	25.839
573.95	25.812
574.28	25.790
574.62	26.309
574.96	26.346
575.29	25.813
575.63	26.520
575.97	25.863
576.30	25.925
576.64	25.770
576.98	25.802
577.31	25.721
577.65	25.811
577.98	25.971
578.32	25.637
578.66	26.310
578.99	26.391
579.33	26.250
579.67	26.300
580.00	26.166
580.34	25.954
580.67	26.600
581.01	25.846
581.35	26.257
581.68	25.782
582.02	26.033
582.35	26.478
582.69	26.524
583.02	26.636
583.36	26.430
583.70	26.165
584.03	27.128
584.37	26.766
584.70	26.381
585.04	26.582
585.37	25.871
585.71	25.665
586.04	26.520
586.38	25.769
586.72	26.494
587.05	26.083
587.39	25.813
587.72	26.440
588.06	26.905
588.39	26.260
588.73	26.192
589.06	26.758
589.40	26.451
589.73	25.921
590.07	26.293
590.40	26.827
590.73	26.869
591.07	26.434
591.40	26.343
591.74	27.194
592.07	26.757
592.41	25.223
592.74	25.980
593.08	26.090
593.41	25.822
593.75	25.420
594.08	26.456
594.41	25.915
594.75	26.274
595.08	25.940
595.42	26.770
595.75	26.534
596.09	26.698
596.42	27.660
596.75	26.261
597.09	26.714
597.42	25.753
597.75	25.686
598.09	26.615
598.42	25.806
598.76	25.664
599.09	25.730
599.42	26.144
599.76	26.387
600.09	25.763
600.42	25.788
600.76	26.365
601.09	25.256
601.42	25.960
601.76	25.857
602.09	26.012
602.42	26.132
602.76	25.883
603.09	26.694
603.42	26.994
603.76	26.007
604.09	26.272
604.42	26.228
604.76	27.126
605.09	26.311
605.42	26.507
605.75	25.399
606.09	26.110
606.42	26.058
606.75	25.891
607.09	26.158
607.42	25.924
607.75	26.004
608.08	26.751
608.42	27.200
608.75	26.168
609.08	26.303
609.41	26.806
609.75	26.134
610.08	27.304
610.41	25.735
610.74	27.031
611.07	26.623
611.41	25.870
611.74	26.735
612.07	25.832
612.40	25.906
612.73	26.764
613.07	25.647
613.40	27.313
613.73	26.158
614.06	25.426
614.39	25.874
614.72	25.698
615.06	26.196
615.39	25.502
615.72	26.779
616.05	25.897
616.38	26.233
616.71	25.526
617.05	26.417
617.38	27.059
617.71	25.737
618.04	26.957
618.37	25.975
618.70	26.076
619.03	26.473
619.36	26.216
619.69	26.561
620.03	25.344
620.36	24.543
620.69	27.207
621.02	25.495
621.35	26.452
621.68	26.230
622.01	24.191
622.34	26.630
622.67	26.172
623.00	26.549
623.33	26.642
623.66	25.258
623.99	25.038
624.32	25.595
624.65	26.416
624.99	26.438
625.32	25.449
625.65	24.398
625.98	27.074
626.31	26.591
626.64	26.778
626.97	26.199
627.30	26.638
627.63	24.957
627.96	25.152
628.29	24.632
628.62	24.737
628.95	25.787
629.28	24.530
629.61	25.908
629.94	24.858
630.26	24.652
630.59	25.226
630.92	25.626
631.25	27.520
631.58	25.185
