SpectraSuite Data File
++++++++++++++++++++++++++++++++++++
Date: Sat May 16 11:15:49 PDT 2015
User: schluterlab
Dark Spectrum Present: Yes
Reference Spectrum Present: Yes
Number of Sampled Component Spectra: 1
Spectrometers: USB2E3373
Integration Time (usec): 3000 (USB2E3373)
Spectra Averaged: 3 (USB2E3373)
Boxcar Smoothing: 0 (USB2E3373)
Correct for Electrical Dark: No (USB2E3373)
Strobe/Lamp Enabled: No (USB2E3373)
Correct for Detector Non-linearity: No (USB2E3373)
Correct for Stray Light: No (USB2E3373)
Number of Pixels in Processed Spectrum: 2048
>>>>>Begin Processed Spectral Data<<<<<
178.53	0.000
178.91	73.333
179.29	500.000
179.67	200.000
180.04	-7.692
180.42	100.000
180.80	250.000
181.18	300.000
181.56	-62.500
181.94	-300.000
182.31	550.000
182.69	30.769
183.07	-200.000
183.45	850.000
183.83	366.667
184.20	-100.000
184.58	-87.500
184.96	-100.000
185.34	93.750
185.72	-200.000
186.09	150.000
186.47	-87.500
186.85	-162.500
187.23	-12.500
187.61	150.000
187.98	-275.000
188.36	37.500
188.74	-100.000
189.12	900.000
189.49	257.143
189.87	-25.000
190.25	100.000
190.63	0.000
191.00	-122.222
191.38	400.000
191.76	20.000
192.14	480.000
192.51	-140.000
192.89	-100.000
193.27	0.000
193.65	44.444
194.02	-257.143
194.40	266.667
194.78	-60.000
195.15	-1000.000
195.53	-118.182
195.91	-350.000
196.29	140.000
196.66	-66.667
197.04	1900.000
197.42	-200.000
197.79	33.333
198.17	66.667
198.55	-300.000
198.92	-300.000
199.30	137.500
199.68	300.000
200.05	-133.333
200.43	-66.667
200.81	-1200.000
201.18	-75.000
201.56	71.429
201.94	-46.667
202.31	45.455
202.69	40.000
203.07	-70.000
203.44	566.667
203.82	-166.667
204.19	-250.000
204.57	0.000
204.95	300.000
205.32	12.500
205.70	1200.000
206.08	-1000.000
206.45	38.889
206.83	-750.000
207.20	150.000
207.58	-466.667
207.96	-300.000
208.33	-75.000
208.71	-111.111
209.08	170.000
209.46	-57.143
209.84	750.000
210.21	0.000
210.59	45.000
210.96	100.000
211.34	-116.667
211.71	-233.333
212.09	50.000
212.46	1200.000
212.84	-2000.000
213.22	433.333
213.59	150.000
213.97	-11.111
214.34	20.000
214.72	-190.000
215.09	-66.667
215.47	-116.667
215.84	-90.000
216.22	-20.000
216.59	0.000
216.97	-400.000
217.34	500.000
217.72	85.714
218.09	-200.000
218.47	-157.143
218.84	85.714
219.22	-100.000
219.59	0.000
219.97	128.571
220.34	350.000
220.72	162.500
221.09	-23.077
221.47	0.000
221.84	300.000
222.22	-500.000
222.59	600.000
222.97	0.000
223.34	-400.000
223.72	-266.667
224.09	21.429
224.46	-300.000
224.84	7.143
225.21	-314.286
225.59	-9.091
225.96	-112.500
226.34	-14.286
226.71	-22.222
227.08	40.000
227.46	1600.000
227.83	-14.286
228.21	-137.500
228.58	250.000
228.95	-6.250
229.33	-1800.000
229.70	-320.000
230.08	-900.000
230.45	-8.333
230.82	-133.333
231.20	-500.000
231.57	-400.000
231.95	700.000
232.32	19.048
232.69	-55.556
233.07	-242.857
233.44	-550.000
233.81	-20.000
234.19	-33.333
234.56	-18.750
234.93	25.000
235.31	-57.143
235.68	-64.286
236.05	35.294
236.43	-4.545
236.80	29.032
237.17	16.667
237.55	0.000
237.92	-36.364
238.29	0.000
238.67	41.176
239.04	-2.778
239.41	19.355
239.79	-23.077
240.16	30.952
240.53	3.636
240.91	48.718
241.28	45.455
241.65	58.462
242.02	57.377
242.40	32.787
242.77	42.424
243.14	40.678
243.51	30.000
243.89	41.772
244.26	16.854
244.63	36.842
245.00	54.737
245.38	33.051
245.75	35.398
246.12	39.200
246.49	42.520
246.87	33.333
247.24	35.593
247.61	37.288
247.98	35.211
248.36	34.965
248.73	37.342
249.10	40.127
249.47	40.351
249.84	42.045
250.22	35.714
250.59	48.023
250.96	42.932
251.33	42.654
251.70	39.904
252.08	41.706
252.45	36.493
252.82	42.857
253.19	39.574
253.56	39.516
253.94	36.287
254.31	43.777
254.68	41.463
255.05	41.532
255.42	42.857
255.79	41.577
256.16	41.961
256.54	46.324
256.91	43.182
257.28	41.026
257.65	43.262
258.02	43.082
258.39	39.799
258.76	41.216
259.14	41.975
259.51	44.262
259.88	41.159
260.25	42.857
260.62	46.302
260.99	38.576
261.36	42.988
261.73	45.376
262.10	41.111
262.47	43.020
262.85	44.000
263.22	41.547
263.59	39.385
263.96	41.739
264.33	43.089
264.70	43.094
265.07	43.407
265.44	41.602
265.81	41.860
266.18	41.013
266.55	41.422
266.92	43.073
267.29	43.341
267.66	43.210
268.03	43.237
268.40	43.192
268.77	45.060
269.14	42.227
269.51	42.299
269.88	39.679
270.25	38.462
270.62	42.563
270.99	42.342
271.36	43.590
271.73	41.704
272.10	42.563
272.47	38.667
272.84	41.556
273.21	41.972
273.58	40.220
273.95	42.982
274.32	42.081
274.69	45.077
275.06	42.536
275.43	41.964
275.80	41.752
276.17	42.887
276.54	45.214
276.91	40.329
277.28	41.582
277.65	39.050
278.02	44.259
278.39	41.454
278.76	41.434
279.13	43.478
279.50	42.346
279.87	42.283
280.23	44.130
280.60	42.942
280.97	40.583
281.34	43.133
281.71	41.538
282.08	45.363
282.45	41.548
282.82	39.535
283.19	40.364
283.56	43.407
283.92	40.106
284.29	40.892
284.66	40.288
285.03	41.355
285.40	41.144
285.77	41.053
286.14	39.350
286.51	40.320
286.87	42.468
287.24	40.785
287.61	38.347
287.98	40.381
288.35	38.512
288.72	39.389
289.08	40.339
289.45	38.552
289.82	38.927
290.19	38.916
290.56	36.198
290.93	37.520
291.29	37.925
291.66	37.037
292.03	37.677
292.40	37.048
292.77	39.130
293.13	38.699
293.50	34.473
293.87	34.663
294.24	34.842
294.60	32.273
294.97	35.508
295.34	31.407
295.71	33.780
296.08	32.873
296.44	32.904
296.81	34.046
297.18	32.254
297.55	35.734
297.91	32.357
298.28	33.014
298.65	31.939
299.02	34.091
299.38	33.556
299.75	32.745
300.12	31.538
300.48	31.586
300.85	30.668
301.22	30.918
301.59	30.559
301.95	32.872
302.32	29.465
302.69	29.376
303.05	29.670
303.42	29.625
303.79	30.383
304.15	32.346
304.52	29.055
304.89	29.870
305.25	28.694
305.62	28.790
305.99	30.035
306.35	29.967
306.72	28.360
307.09	30.306
307.45	28.263
307.82	28.268
308.19	28.300
308.55	28.431
308.92	28.249
309.29	26.486
309.65	26.935
310.02	26.674
310.38	27.459
310.75	28.484
311.12	27.789
311.48	27.453
311.85	26.880
312.22	28.733
312.58	28.891
312.95	27.931
313.31	28.272
313.68	28.241
314.05	28.289
314.41	26.459
314.78	26.074
315.14	27.739
315.51	25.735
315.87	26.718
316.24	27.211
316.61	27.543
316.97	27.164
317.34	25.915
317.70	26.716
318.07	27.052
318.43	27.715
318.80	29.108
319.16	25.328
319.53	27.632
319.89	25.964
320.26	25.980
320.62	25.192
320.99	25.672
321.35	25.911
321.72	26.510
322.08	25.717
322.45	25.248
322.81	26.033
323.18	26.129
323.54	25.878
323.91	25.487
324.27	26.806
324.64	25.229
325.00	24.520
325.37	26.606
325.73	27.472
326.10	24.712
326.46	25.219
326.83	25.702
327.19	24.687
327.56	26.405
327.92	25.828
328.29	25.455
328.65	23.727
329.01	26.060
329.38	24.264
329.74	25.458
330.11	24.841
330.47	25.159
330.84	25.023
331.20	24.188
331.56	24.157
331.93	25.044
332.29	26.027
332.66	25.461
333.02	24.796
333.38	26.254
333.75	25.111
334.11	24.533
334.48	24.713
334.84	25.022
335.20	25.443
335.57	24.278
335.93	25.783
336.29	23.915
336.66	24.405
337.02	23.874
337.38	24.332
337.75	23.617
338.11	23.703
338.47	24.644
338.84	24.864
339.20	24.780
339.56	24.777
339.93	24.515
340.29	23.472
340.65	23.077
341.02	23.019
341.38	23.336
341.74	24.640
342.11	23.720
342.47	22.747
342.83	22.166
343.20	23.228
343.56	23.102
343.92	23.122
344.28	24.558
344.65	22.937
345.01	23.193
345.37	24.003
345.73	22.831
346.10	22.322
346.46	22.908
346.82	23.817
347.19	23.665
347.55	23.435
347.91	23.780
348.27	22.753
348.63	24.556
349.00	24.185
349.36	22.717
349.72	23.965
350.08	22.454
350.45	22.065
350.81	23.089
351.17	23.473
351.53	21.639
351.89	23.363
352.26	22.713
352.62	23.272
352.98	22.864
353.34	22.302
353.70	22.085
354.07	22.895
354.43	22.292
354.79	22.900
355.15	22.364
355.51	22.969
355.87	22.530
356.24	22.002
356.60	22.804
356.96	22.094
357.32	21.853
357.68	22.299
358.04	22.248
358.40	22.042
358.77	22.025
359.13	22.188
359.49	22.298
359.85	21.341
360.21	21.385
360.57	21.837
360.93	22.667
361.29	21.824
361.66	21.418
362.02	22.041
362.38	21.717
362.74	21.685
363.10	20.516
363.46	22.222
363.82	22.449
364.18	22.576
364.54	22.516
364.90	21.803
365.26	21.612
365.62	22.096
365.98	22.191
366.35	21.690
366.71	21.283
367.07	21.736
367.43	22.649
367.79	21.649
368.15	21.408
368.51	21.329
368.87	22.459
369.23	21.544
369.59	22.153
369.95	21.424
370.31	22.714
370.67	20.969
371.03	21.429
371.39	21.924
371.75	22.031
372.11	20.803
372.47	21.981
372.83	22.323
373.19	21.143
373.55	22.449
373.91	22.191
374.27	21.150
374.63	21.187
374.99	22.253
375.35	21.467
375.71	23.295
376.07	21.766
376.42	20.397
376.78	21.895
377.14	22.237
377.50	21.341
377.86	21.912
378.22	21.106
378.58	21.495
378.94	21.825
379.30	21.572
379.66	22.101
380.02	21.509
380.38	20.906
380.74	21.395
381.09	22.027
381.45	21.241
381.81	20.750
382.17	20.614
382.53	20.182
382.89	21.471
383.25	21.674
383.61	20.991
383.97	21.066
384.32	21.589
384.68	21.221
385.04	21.316
385.40	20.572
385.76	21.341
386.12	21.112
386.48	20.668
386.83	21.779
387.19	21.219
387.55	21.926
387.91	20.332
388.27	20.627
388.62	20.613
388.98	20.896
389.34	20.257
389.70	20.950
390.06	20.696
390.42	21.346
390.77	20.000
391.13	21.304
391.49	21.397
391.85	21.197
392.20	20.934
392.56	20.098
392.92	20.764
393.28	21.412
393.64	20.866
393.99	21.908
394.35	20.681
394.71	20.383
395.07	20.841
395.42	19.726
395.78	20.679
396.14	21.121
396.50	21.223
396.85	20.728
397.21	21.021
397.57	21.033
397.92	20.960
398.28	20.611
398.64	20.880
399.00	21.685
399.35	20.519
399.71	19.628
400.07	21.493
400.42	20.620
400.78	20.513
401.14	20.299
401.49	19.281
401.85	20.378
402.21	20.918
402.57	20.995
402.92	21.145
403.28	20.527
403.63	20.012
403.99	20.261
404.35	19.263
404.70	19.836
405.06	19.839
405.42	19.311
405.77	19.796
406.13	20.500
406.49	20.731
406.84	20.396
407.20	20.377
407.55	20.203
407.91	19.171
408.27	20.833
408.62	20.385
408.98	20.194
409.34	19.744
409.69	19.912
410.05	19.951
410.40	20.846
410.76	21.043
411.11	20.200
411.47	20.013
411.83	20.782
412.18	19.864
412.54	19.402
412.89	21.324
413.25	18.418
413.60	19.441
413.96	19.470
414.31	20.550
414.67	20.190
415.03	19.082
415.38	19.323
415.74	20.361
416.09	19.821
416.45	18.981
416.80	20.416
417.16	19.734
417.51	21.536
417.87	19.935
418.22	20.291
418.58	19.833
418.93	19.865
419.29	20.326
419.64	20.226
420.00	20.656
420.35	19.515
420.71	20.348
421.06	20.178
421.42	19.496
421.77	19.486
422.12	20.649
422.48	20.310
422.83	19.590
423.19	19.766
423.54	19.827
423.90	19.665
424.25	19.796
424.61	20.084
424.96	20.655
425.31	20.291
425.67	20.630
426.02	19.277
426.38	20.206
426.73	20.047
427.09	19.914
427.44	19.205
427.79	19.244
428.15	20.227
428.50	19.824
428.85	19.305
429.21	20.199
429.56	19.792
429.92	20.441
430.27	19.990
430.62	20.272
430.98	20.544
431.33	20.384
431.68	20.161
432.04	20.257
432.39	19.829
432.74	19.904
433.10	19.977
433.45	19.862
433.80	19.485
434.16	19.989
434.51	20.110
434.86	21.090
435.22	20.156
435.57	20.379
435.92	19.812
436.28	20.178
436.63	19.616
436.98	19.416
437.34	19.846
437.69	18.961
438.04	19.455
438.39	20.337
438.75	20.081
439.10	20.544
439.45	19.614
439.81	20.120
440.16	20.102
440.51	20.118
440.86	19.780
441.22	19.292
441.57	19.842
441.92	20.153
442.27	19.481
442.63	19.796
442.98	19.695
443.33	20.264
443.68	20.167
444.03	20.629
444.39	20.558
444.74	20.595
445.09	20.450
445.44	20.315
445.79	20.143
446.15	20.482
446.50	19.379
446.85	20.215
447.20	19.765
447.55	20.276
447.91	19.540
448.26	19.832
448.61	20.430
448.96	19.664
449.31	20.519
449.66	19.462
450.02	19.723
450.37	19.942
450.72	18.757
451.07	19.987
451.42	19.517
451.77	19.868
452.12	20.322
452.47	20.277
452.83	19.627
453.18	19.545
453.53	19.030
453.88	19.976
454.23	19.045
454.58	20.012
454.93	19.332
455.28	19.630
455.63	19.963
455.98	19.458
456.34	18.996
456.69	19.762
457.04	20.221
457.39	19.258
457.74	19.965
458.09	20.360
458.44	20.554
458.79	19.339
459.14	20.080
459.49	20.663
459.84	20.349
460.19	19.511
460.54	18.391
460.89	19.787
461.24	19.976
461.59	20.047
461.94	19.223
462.29	19.833
462.64	19.170
462.99	19.746
463.34	18.839
463.69	19.529
464.04	18.981
464.39	19.474
464.74	19.858
465.09	19.302
465.44	19.233
465.79	19.797
466.14	19.793
466.49	19.286
466.84	19.748
467.19	18.392
467.54	18.354
467.89	19.420
468.24	19.359
468.59	19.051
468.94	19.421
469.29	18.843
469.64	19.811
469.99	20.392
470.34	19.439
470.68	19.259
471.03	18.307
471.38	18.194
471.73	18.951
472.08	18.942
472.43	18.533
472.78	18.133
473.13	17.959
473.48	19.081
473.83	19.045
474.17	19.682
474.52	19.757
474.87	18.823
475.22	18.525
475.57	18.667
475.92	19.492
476.27	18.000
476.61	18.761
476.96	18.614
477.31	19.322
477.66	19.314
478.01	19.179
478.36	18.753
478.70	19.541
479.05	18.821
479.40	19.223
479.75	19.011
480.10	19.097
480.45	18.230
480.79	19.348
481.14	18.966
481.49	19.409
481.84	19.325
482.19	19.963
482.53	19.508
482.88	18.889
483.23	19.061
483.58	19.519
483.92	18.920
484.27	18.387
484.62	19.050
484.97	18.550
485.31	19.328
485.66	19.762
486.01	20.570
486.36	20.778
486.70	20.994
487.05	19.922
487.40	20.353
487.75	19.876
488.09	18.993
488.44	19.723
488.79	19.491
489.13	18.752
489.48	19.494
489.83	18.646
490.17	18.589
490.52	18.478
490.87	18.476
491.22	18.076
491.56	18.380
491.91	18.464
492.26	17.972
492.60	17.840
492.95	18.658
493.30	18.056
493.64	17.866
493.99	18.260
494.34	17.429
494.68	18.633
495.03	18.642
495.37	18.191
495.72	18.173
496.07	18.630
496.41	18.620
496.76	19.041
497.11	18.464
497.45	18.966
497.80	18.159
498.14	18.468
498.49	17.629
498.84	18.010
499.18	18.421
499.53	18.412
499.87	18.292
500.22	18.284
500.56	18.059
500.91	17.931
501.26	18.292
501.60	17.910
501.95	18.261
502.29	18.044
502.64	19.142
502.98	18.352
503.33	18.280
503.67	18.056
504.02	18.349
504.36	18.627
504.71	18.034
505.06	18.323
505.40	18.214
505.75	18.547
506.09	18.150
506.44	17.945
506.78	17.612
507.13	17.353
507.47	18.049
507.82	18.121
508.16	18.083
508.51	17.929
508.85	18.012
509.19	17.792
509.54	18.182
509.88	17.926
510.23	18.396
510.57	17.619
510.92	17.669
511.26	17.597
511.61	16.631
511.95	16.864
512.30	17.262
512.64	16.861
512.98	17.602
513.33	16.969
513.67	17.476
514.02	17.170
514.36	17.729
514.70	17.374
515.05	17.324
515.39	17.070
515.74	18.208
516.08	17.176
516.42	17.337
516.77	17.158
517.11	17.048
517.46	17.165
517.80	17.629
518.14	16.184
518.49	16.916
518.83	16.558
519.17	17.525
519.52	16.541
519.86	17.145
520.20	16.809
520.55	16.554
520.89	16.343
521.23	17.949
521.58	16.677
521.92	17.669
522.26	16.825
522.61	15.843
522.95	16.146
523.29	16.238
523.64	16.740
523.98	17.059
524.32	16.908
524.66	16.211
525.01	16.699
525.35	16.688
525.69	16.005
526.04	16.123
526.38	16.741
526.72	15.900
527.06	16.536
527.41	16.898
527.75	15.974
528.09	15.486
528.43	16.197
528.78	16.583
529.12	17.414
529.46	16.430
529.80	16.979
530.15	16.227
530.49	16.171
530.83	18.009
531.17	16.970
531.51	16.209
531.86	16.787
532.20	15.587
532.54	16.711
532.88	16.008
533.22	16.377
533.57	17.298
533.91	16.355
534.25	15.965
534.59	16.490
534.93	16.739
535.27	17.432
535.62	16.880
535.96	16.807
536.30	16.034
536.64	16.003
536.98	16.737
537.32	15.826
537.66	16.158
538.01	16.220
538.35	16.757
538.69	17.045
539.03	16.588
539.37	17.565
539.71	16.678
540.05	16.518
540.39	16.690
540.73	17.208
541.07	17.486
541.42	16.205
541.76	16.013
542.10	17.353
542.44	17.322
542.78	16.486
543.12	16.022
543.46	16.233
543.80	16.321
544.14	16.521
544.48	17.060
544.82	16.373
545.16	17.371
545.50	15.612
545.84	17.524
546.18	15.742
546.52	16.714
546.86	16.809
547.20	16.667
547.54	15.771
547.88	16.788
548.22	15.858
548.56	16.366
548.90	16.779
549.24	16.188
549.58	16.867
549.92	16.537
550.26	16.329
550.60	16.287
550.94	16.350
551.28	16.930
551.62	15.731
551.96	16.932
552.30	16.655
552.64	17.030
552.98	17.099
553.32	15.873
553.66	15.934
554.00	16.489
554.34	15.018
554.68	16.009
555.02	17.221
555.36	16.894
555.69	15.974
556.03	16.982
556.37	16.145
556.71	16.464
557.05	16.778
557.39	16.407
557.73	16.193
558.07	16.051
558.41	15.856
558.75	17.871
559.08	14.708
559.42	15.544
559.76	15.337
560.10	16.480
560.44	17.630
560.78	16.701
561.12	16.218
561.45	16.233
561.79	16.864
562.13	16.971
562.47	17.017
562.81	15.064
563.15	16.305
563.48	16.793
563.82	16.700
564.16	16.295
564.50	17.540
564.84	16.931
565.17	16.777
565.51	17.601
565.85	16.971
566.19	17.325
566.52	16.438
566.86	17.004
567.20	18.160
567.54	18.783
567.88	17.532
568.21	18.568
568.55	17.603
568.89	17.346
569.23	18.510
569.56	17.907
569.90	19.197
570.24	19.504
570.57	18.875
570.91	18.871
571.25	19.228
571.59	19.138
571.92	19.732
572.26	19.772
572.60	18.895
572.93	18.798
573.27	19.207
573.61	19.128
573.95	19.771
574.28	19.498
574.62	19.675
574.96	19.591
575.29	19.588
575.63	19.671
575.97	19.067
576.30	19.403
576.64	20.183
576.98	19.756
577.31	20.000
577.65	20.219
577.98	20.282
578.32	19.954
578.66	20.031
578.99	19.537
579.33	19.869
579.67	19.655
580.00	19.097
580.34	19.325
580.67	20.226
581.01	19.790
581.35	19.924
581.68	19.905
582.02	20.580
582.35	20.302
582.69	20.306
583.02	20.402
583.36	20.091
583.70	19.816
584.03	19.612
584.37	19.513
584.70	19.878
585.04	19.468
585.37	19.547
585.71	19.811
586.04	19.985
586.38	19.727
586.72	20.011
587.05	20.164
587.39	20.104
587.72	19.857
588.06	19.532
588.39	19.567
588.73	19.614
589.06	20.396
589.40	20.131
589.73	19.511
590.07	19.155
590.40	19.299
590.73	18.992
591.07	19.467
591.40	19.801
591.74	18.766
592.07	18.018
592.41	19.151
592.74	19.716
593.08	20.391
593.41	19.868
593.75	19.552
594.08	20.273
594.41	19.704
594.75	19.517
595.08	20.038
595.42	19.545
595.75	19.441
596.09	19.713
596.42	19.763
596.75	18.931
597.09	20.080
597.42	18.900
597.75	19.531
598.09	19.657
598.42	19.753
598.76	19.477
599.09	19.574
599.42	19.185
599.76	19.479
600.09	20.420
600.42	19.673
600.76	19.510
601.09	19.711
601.42	19.153
601.76	19.704
602.09	19.387
602.42	19.835
602.76	18.986
603.09	19.395
603.42	19.339
603.76	19.625
604.09	20.144
604.42	19.151
604.76	19.232
605.09	19.439
605.42	19.504
605.75	19.750
606.09	19.178
606.42	19.187
606.75	19.665
607.09	19.497
607.42	19.542
607.75	19.117
608.08	19.024
608.42	19.111
608.75	18.879
609.08	19.143
609.41	18.934
609.75	19.649
610.08	19.755
610.41	19.518
610.74	19.391
611.07	18.560
611.41	19.314
611.74	20.103
612.07	19.495
612.40	18.230
612.73	18.148
613.07	18.712
613.40	19.321
613.73	18.910
614.06	18.561
614.39	18.940
614.72	18.492
615.06	18.641
615.39	18.557
615.72	18.523
616.05	18.664
616.38	18.514
616.71	17.718
617.05	18.094
617.38	18.142
617.71	18.612
618.04	18.447
618.37	18.679
618.70	19.166
619.03	17.332
619.36	18.323
619.69	17.803
620.03	17.080
620.36	17.651
620.69	18.234
621.02	16.743
621.35	17.339
621.68	17.213
622.01	16.586
622.34	18.323
622.67	17.578
623.00	18.057
623.33	18.582
623.66	17.208
623.99	17.820
624.32	17.039
624.65	17.366
624.99	17.700
625.32	16.018
625.65	17.094
625.98	17.449
626.31	17.863
626.64	16.569
626.97	17.979
627.30	16.596
627.63	17.185
627.96	16.362
628.29	16.085
628.62	16.332
628.95	17.028
629.28	16.165
629.61	16.879
629.94	16.541
630.26	16.302
630.59	16.181
630.92	15.716
631.25	15.726
631.58	15.450
631.91	14.043
632.24	15.444
632.57	16.778
632.90	15.632
