SpectraSuite Data File
++++++++++++++++++++++++++++++++++++
Date: Sat May 16 11:44:52 PDT 2015
User: schluterlab
Dark Spectrum Present: Yes
Reference Spectrum Present: Yes
Number of Sampled Component Spectra: 1
Spectrometers: USB2E3373
Integration Time (usec): 3000 (USB2E3373)
Spectra Averaged: 3 (USB2E3373)
Boxcar Smoothing: 0 (USB2E3373)
Correct for Electrical Dark: No (USB2E3373)
Strobe/Lamp Enabled: No (USB2E3373)
Correct for Detector Non-linearity: No (USB2E3373)
Correct for Stray Light: No (USB2E3373)
Number of Pixels in Processed Spectrum: 2048
>>>>>Begin Processed Spectral Data<<<<<
178.53	0.000
178.91	146.667
179.29	733.333
179.67	-1000.000
180.04	-92.308
180.42	500.000
180.80	350.000
181.18	325.000
181.56	-87.500
181.94	1700.000
182.31	450.000
182.69	-23.077
183.07	-366.667
183.45	1550.000
183.83	566.667
184.20	-242.857
184.58	-237.500
184.96	-300.000
185.34	81.250
185.72	-550.000
186.09	333.333
186.47	-212.500
186.85	-187.500
187.23	-87.500
187.61	-150.000
187.98	-250.000
188.36	-137.500
188.74	-150.000
189.12	1300.000
189.49	142.857
189.87	-91.667
190.25	400.000
190.63	-100.000
191.00	-200.000
191.38	280.000
191.76	0.000
192.14	800.000
192.51	-180.000
192.89	-366.667
193.27	0.000
193.65	-88.889
194.02	-200.000
194.40	666.667
194.78	-110.000
195.15	-1700.000
195.53	-163.636
195.91	-450.000
196.29	180.000
196.66	-700.000
197.04	2900.000
197.42	-275.000
197.79	-26.667
198.17	-333.333
198.55	-800.000
198.92	-2200.000
199.30	100.000
199.68	-1100.000
200.05	-133.333
200.43	-122.222
200.81	-1800.000
201.18	-108.333
201.56	185.714
201.94	-53.333
202.31	0.000
202.69	-40.000
203.07	-90.000
203.44	666.667
203.82	-366.667
204.19	-575.000
204.57	-425.000
204.95	-600.000
205.32	0.000
205.70	700.000
206.08	-1500.000
206.45	-44.444
206.83	-2050.000
207.20	-400.000
207.58	-566.667
207.96	-333.333
208.33	-162.500
208.71	-144.444
209.08	180.000
209.46	-214.286
209.84	150.000
210.21	0.000
210.59	-10.000
210.96	600.000
211.34	-200.000
211.71	-433.333
212.09	225.000
212.46	900.000
212.84	-2300.000
213.22	333.333
213.59	125.000
213.97	-44.444
214.34	110.000
214.72	0.000
215.09	-433.333
215.47	-183.333
215.84	-120.000
216.22	-120.000
216.59	6.667
216.97	-275.000
217.34	500.000
217.72	-185.714
218.09	-333.333
218.47	-142.857
218.84	157.143
219.22	-100.000
219.59	0.000
219.97	300.000
220.34	400.000
220.72	225.000
221.09	-7.692
221.47	0.000
221.84	100.000
222.22	-500.000
222.59	1600.000
222.97	-112.500
223.34	-300.000
223.72	-566.667
224.09	-21.429
224.46	-375.000
224.84	-57.143
225.21	-171.429
225.59	-18.182
225.96	-125.000
226.34	-142.857
226.71	-66.667
227.08	-40.000
227.46	1100.000
227.83	-85.714
228.21	-125.000
228.58	950.000
228.95	-50.000
229.33	-1600.000
229.70	-180.000
230.08	-900.000
230.45	-66.667
230.82	-166.667
231.20	-1300.000
231.57	-450.000
231.95	2300.000
232.32	-80.952
232.69	-111.111
233.07	-271.429
233.44	-750.000
233.81	-86.667
234.19	-88.889
234.56	-43.750
234.93	12.500
235.31	-185.714
235.68	-100.000
236.05	-58.824
236.43	-68.182
236.80	-12.903
237.17	-16.667
237.55	-19.048
237.92	-100.000
238.29	-25.714
238.67	-58.824
239.04	-38.889
239.41	-22.581
239.79	-51.282
240.16	-19.048
240.53	-27.273
240.91	-15.385
241.28	-3.636
241.65	9.231
242.02	-3.279
242.40	-24.590
242.77	-3.030
243.14	-11.864
243.51	-22.857
243.89	-15.190
244.26	-6.742
244.63	1.053
245.00	2.105
245.38	8.475
245.75	5.310
246.12	4.800
246.49	3.937
246.87	-8.130
247.24	-5.932
247.61	-1.695
247.98	2.817
248.36	0.000
248.73	11.392
249.10	1.274
249.47	1.754
249.84	-2.273
250.22	2.976
250.59	6.215
250.96	5.236
251.33	12.322
251.70	5.769
252.08	7.109
252.45	4.739
252.82	2.857
253.19	8.511
253.56	5.242
253.94	8.439
254.31	-0.429
254.68	9.756
255.05	2.823
255.42	10.317
255.79	2.867
256.16	7.843
256.54	7.353
256.91	6.439
257.28	6.227
257.65	6.383
258.02	9.748
258.39	9.699
258.76	5.743
259.14	5.247
259.51	10.820
259.88	7.622
260.25	9.938
260.62	6.752
260.99	8.605
261.36	6.707
261.73	8.382
262.10	9.722
262.47	9.402
262.85	11.429
263.22	10.888
263.59	6.769
263.96	6.957
264.33	7.588
264.70	8.287
265.07	6.593
265.44	6.977
265.81	7.235
266.18	7.089
266.55	6.127
266.92	8.312
267.29	6.538
267.66	6.173
268.03	11.836
268.40	8.216
268.77	8.434
269.14	6.961
269.51	9.655
269.88	6.881
270.25	6.527
270.62	6.636
270.99	7.207
271.36	6.527
271.73	7.623
272.10	7.780
272.47	6.889
272.84	9.556
273.21	11.009
273.58	9.451
273.95	9.868
274.32	10.633
274.69	8.534
275.06	10.634
275.43	5.580
275.80	8.961
276.17	7.950
276.54	11.202
276.91	8.025
277.28	10.751
277.65	8.471
278.02	9.186
278.39	7.466
278.76	8.367
279.13	9.091
279.50	8.350
279.87	6.765
280.23	10.324
280.60	8.151
280.97	8.544
281.34	7.737
281.71	9.038
282.08	7.863
282.45	7.536
282.82	8.721
283.19	9.818
283.56	12.637
283.92	11.484
284.29	7.807
284.66	10.612
285.03	10.695
285.40	9.041
285.77	11.228
286.14	9.025
286.51	7.282
286.87	9.982
287.24	12.116
287.61	9.917
287.98	9.879
288.35	8.099
288.72	7.980
289.08	7.288
289.45	9.428
289.82	8.478
290.19	12.315
290.56	7.769
290.93	9.698
291.29	8.590
291.66	7.568
292.03	9.733
292.40	9.337
292.77	8.075
293.13	9.431
293.50	9.510
293.87	9.509
294.24	9.804
294.60	8.788
294.97	10.926
295.34	8.741
295.71	8.185
296.08	6.912
296.44	8.727
296.81	9.687
297.18	10.141
297.55	10.452
297.91	12.413
298.28	8.493
298.65	10.181
299.02	11.898
299.38	10.963
299.75	9.647
300.12	11.026
300.48	9.719
300.85	9.830
301.22	10.608
301.59	9.363
301.95	13.854
302.32	9.387
302.69	9.792
303.05	9.768
303.42	9.750
303.79	10.167
304.15	11.493
304.52	11.902
304.89	11.334
305.25	10.012
305.62	10.576
305.99	12.721
306.35	11.654
306.72	10.934
307.09	10.897
307.45	10.556
307.82	11.397
308.19	11.633
308.55	11.983
308.92	11.171
309.29	11.892
309.65	12.301
310.02	12.095
310.38	10.811
310.75	13.832
311.12	12.087
311.48	13.674
311.85	14.212
312.22	13.903
312.58	14.547
312.95	13.761
313.31	13.287
313.68	13.568
314.05	14.936
314.41	13.481
314.78	13.686
315.14	14.808
315.51	13.982
315.87	15.295
316.24	16.035
316.61	16.123
316.97	15.721
317.34	16.378
317.70	14.842
318.07	15.112
318.43	14.513
318.80	16.244
319.16	15.947
319.53	16.259
319.89	16.369
320.26	17.353
320.62	15.385
320.99	16.617
321.35	15.468
321.72	17.400
322.08	17.705
322.45	17.624
322.81	18.828
323.18	19.500
323.54	18.207
323.91	19.833
324.27	19.011
324.64	18.830
325.00	19.546
325.37	21.357
325.73	22.135
326.10	19.841
326.46	22.417
326.83	22.213
327.19	22.018
327.56	24.702
327.92	23.619
328.29	24.762
328.65	23.000
329.01	24.028
329.38	25.602
329.74	26.740
330.11	26.292
330.47	26.067
330.84	27.314
331.20	26.986
331.56	26.436
331.93	28.952
332.29	29.132
332.66	27.744
333.02	28.416
333.38	29.391
333.75	28.851
334.11	30.044
334.48	29.303
334.84	29.746
335.20	29.521
335.57	30.054
335.93	30.886
336.29	29.938
336.66	29.780
337.02	31.892
337.38	31.462
337.75	31.519
338.11	31.843
338.47	31.940
338.84	32.305
339.20	31.019
339.56	32.175
339.93	32.275
340.29	31.355
340.65	32.255
341.02	31.450
341.38	32.519
341.74	32.345
342.11	31.997
342.47	32.275
342.83	32.914
343.20	32.451
343.56	32.000
343.92	32.805
344.28	32.212
344.65	32.261
345.01	32.017
345.37	32.475
345.73	30.933
346.10	29.845
346.46	31.032
346.82	31.355
347.19	32.293
347.55	31.140
347.91	32.126
348.27	32.617
348.63	31.987
349.00	31.663
349.36	30.757
349.72	33.201
350.08	34.082
350.45	31.521
350.81	32.484
351.17	31.752
351.53	31.583
351.89	33.549
352.26	32.868
352.62	33.410
352.98	32.753
353.34	32.454
353.70	31.660
354.07	32.809
354.43	33.439
354.79	32.171
355.15	32.827
355.51	32.891
355.87	32.569
356.24	32.645
356.60	34.488
356.96	33.410
357.32	31.671
357.68	33.180
358.04	33.025
358.40	33.024
358.77	32.303
359.13	32.441
359.49	33.182
359.85	32.774
360.21	32.040
360.57	33.735
360.93	33.259
361.29	33.782
361.66	32.241
362.02	33.210
362.38	33.089
362.74	33.993
363.10	33.572
363.46	34.188
363.82	33.309
364.18	33.936
364.54	35.597
364.90	34.451
365.26	33.524
365.62	34.854
365.98	34.922
366.35	34.577
366.71	34.179
367.07	33.663
367.43	34.386
367.79	33.952
368.15	33.144
368.51	34.895
368.87	33.997
369.23	34.456
369.59	34.722
369.95	34.320
370.31	35.443
370.67	34.490
371.03	34.985
371.39	34.441
371.75	35.408
372.11	35.294
372.47	35.141
372.83	35.814
373.19	35.929
373.55	35.609
373.91	36.558
374.27	34.908
374.63	36.025
374.99	36.022
375.35	35.666
375.71	37.205
376.07	37.166
376.42	36.093
376.78	36.209
377.14	35.729
377.50	36.428
377.86	37.321
378.22	36.935
378.58	36.442
378.94	37.546
379.30	36.990
379.66	36.673
380.02	37.908
380.38	37.885
380.74	37.280
381.09	36.965
381.45	38.365
381.81	36.600
382.17	37.093
382.53	37.264
382.89	38.577
383.25	37.327
383.61	38.149
383.97	38.334
384.32	39.049
384.68	38.634
385.04	37.379
385.40	39.257
385.76	38.354
386.12	39.101
386.48	39.728
386.83	39.018
387.19	39.390
387.55	38.704
387.91	39.360
388.27	37.575
388.62	37.740
388.98	39.310
389.34	39.045
389.70	39.099
390.06	39.963
390.42	39.231
390.77	39.243
391.13	40.124
391.49	40.175
391.85	38.716
392.20	38.956
392.56	38.974
392.92	39.589
393.28	39.667
393.64	40.469
393.99	40.308
394.35	38.686
394.71	39.963
395.07	40.176
395.42	38.081
395.78	40.289
396.14	40.997
396.50	39.083
396.85	38.680
397.21	39.976
397.57	39.027
397.92	39.578
398.28	39.111
398.64	38.608
399.00	40.225
399.35	39.064
399.71	40.999
400.07	38.687
400.42	41.058
400.78	39.296
401.14	40.120
401.49	39.858
401.85	39.414
402.21	39.631
402.57	38.592
402.92	40.780
403.28	39.828
403.63	38.586
403.99	39.528
404.35	38.829
404.70	39.204
405.06	39.850
405.42	38.315
405.77	37.726
406.13	38.614
406.49	40.084
406.84	38.092
407.20	40.106
407.55	39.709
407.91	37.694
408.27	39.522
408.62	39.327
408.98	39.054
409.34	39.793
409.69	39.256
410.05	39.175
410.40	38.565
410.76	38.886
411.11	39.526
411.47	38.747
411.83	40.220
412.18	38.800
412.54	38.621
412.89	40.036
413.25	38.725
413.60	39.247
413.96	39.125
414.31	39.511
414.67	39.619
415.03	39.521
415.38	40.534
415.74	40.786
416.09	39.578
416.45	40.476
416.80	39.467
417.16	39.734
417.51	40.446
417.87	38.900
418.22	40.582
418.58	40.757
418.93	40.895
419.29	40.652
419.64	40.389
420.00	41.981
420.35	41.396
420.71	41.777
421.06	41.243
421.42	39.930
421.77	41.262
422.12	42.138
422.48	41.742
422.83	42.312
423.19	41.759
423.54	42.075
423.90	41.874
424.25	42.081
424.61	42.521
424.96	44.529
425.31	43.097
425.67	42.521
426.02	43.373
426.38	43.678
426.73	44.302
427.09	44.730
427.44	43.636
427.79	43.605
428.15	44.225
428.50	44.692
428.85	43.945
429.21	44.051
429.56	44.583
429.92	44.890
430.27	44.716
430.62	46.029
430.98	44.851
431.33	45.251
431.68	46.434
432.04	46.111
432.39	47.521
432.74	46.103
433.10	45.582
433.45	45.941
433.80	46.641
434.16	46.427
434.51	47.890
434.86	47.452
435.22	48.497
435.57	47.185
435.92	47.011
436.28	47.300
436.63	47.711
436.98	47.194
437.34	47.608
437.69	48.075
438.04	48.100
438.39	49.338
438.75	47.788
439.10	48.084
439.45	48.582
439.81	48.735
440.16	48.949
440.51	48.353
440.86	48.699
441.22	48.977
441.57	50.158
441.92	49.361
442.27	48.810
442.63	49.410
442.98	48.871
443.33	49.808
443.68	48.723
444.03	49.656
444.39	49.780
444.74	51.267
445.09	49.671
445.44	50.197
445.79	50.229
446.15	50.821
446.50	48.938
446.85	49.615
447.20	50.204
447.55	52.155
447.91	51.656
448.26	49.721
448.61	51.726
448.96	51.148
449.31	51.578
449.66	51.803
450.02	50.526
450.37	51.884
450.72	50.169
451.07	53.363
451.42	50.743
451.77	51.526
452.12	51.728
452.47	51.637
452.83	51.835
453.18	53.194
453.53	51.741
453.88	53.648
454.23	52.479
454.58	54.382
454.93	52.645
455.28	53.027
455.63	51.229
455.98	53.735
456.34	52.287
456.69	53.096
457.04	53.350
457.39	52.213
457.74	53.278
458.09	52.784
458.44	53.060
458.79	53.363
459.14	53.622
459.49	53.227
459.84	52.726
460.19	52.566
460.54	53.479
460.89	53.812
461.24	53.977
461.59	54.572
461.94	55.379
462.29	51.995
462.64	55.731
462.99	56.091
463.34	53.342
463.69	55.852
464.04	52.138
464.39	54.241
464.74	53.842
465.09	53.277
465.44	54.089
465.79	53.412
466.14	55.006
466.49	53.771
466.84	54.082
467.19	55.424
467.54	54.494
467.89	54.871
468.24	54.335
468.59	54.778
468.94	55.756
469.29	54.776
469.64	55.323
469.99	55.503
470.34	55.244
470.68	56.759
471.03	55.127
471.38	55.833
471.73	57.203
472.08	57.028
472.43	56.757
472.78	55.867
473.13	56.991
473.48	56.094
473.83	55.955
474.17	56.242
474.52	57.545
474.87	56.352
475.22	55.870
475.57	54.778
475.92	56.533
476.27	56.400
476.61	55.211
476.96	56.456
477.31	55.974
477.66	57.443
478.01	56.888
478.36	55.317
478.70	57.555
479.05	56.571
479.40	57.720
479.75	55.403
480.10	56.498
480.45	55.851
480.79	57.897
481.14	56.899
481.49	57.260
481.84	56.033
482.19	56.921
482.53	57.907
482.88	56.146
483.23	56.714
483.58	57.401
483.92	57.286
484.27	55.871
484.62	55.508
484.97	56.080
485.31	54.112
485.66	52.774
486.01	52.316
486.36	54.626
486.70	55.998
487.05	54.829
487.40	55.208
487.75	55.755
488.09	54.972
488.44	56.089
488.79	55.324
489.13	57.246
489.48	57.219
489.83	58.035
490.17	57.292
490.52	58.062
490.87	57.321
491.22	56.843
491.56	57.454
491.91	58.969
492.26	58.302
492.60	58.135
492.95	58.401
493.30	57.789
493.64	58.110
493.99	57.505
494.34	58.095
494.68	58.287
495.03	58.270
495.37	58.407
495.72	58.153
496.07	58.142
496.41	58.824
496.76	58.493
497.11	58.691
497.45	58.381
497.80	59.180
498.14	58.497
498.49	59.468
498.84	58.447
499.18	58.626
499.53	58.841
499.87	58.639
500.22	59.020
500.56	59.730
500.91	57.980
501.26	60.213
501.60	59.268
501.95	60.193
502.29	57.204
502.64	58.934
502.98	58.984
503.33	57.895
503.67	60.057
504.02	59.198
504.36	59.167
504.71	60.182
505.06	60.509
505.40	60.329
505.75	59.553
506.09	60.010
506.44	59.148
506.78	59.609
507.13	60.350
507.47	60.407
507.82	59.990
508.16	60.829
508.51	60.072
508.85	60.300
509.19	60.230
509.54	60.465
509.88	61.489
510.23	61.268
510.57	61.376
510.92	61.386
511.26	60.659
511.61	59.287
511.95	59.968
512.30	60.858
512.64	61.547
512.98	61.441
513.33	61.120
513.67	61.251
514.02	62.304
514.36	62.493
514.70	61.007
515.05	61.921
515.39	60.957
515.74	63.583
516.08	61.383
516.42	61.360
516.77	63.951
517.11	61.499
517.46	64.474
517.80	64.440
518.14	62.258
518.49	63.299
518.83	61.543
519.17	62.818
519.52	61.076
519.86	64.456
520.20	63.081
520.55	63.385
520.89	62.555
521.23	62.759
521.58	62.633
521.92	62.761
522.26	63.238
522.61	62.991
522.95	62.285
523.29	63.009
523.64	62.336
523.98	63.654
524.32	64.236
524.66	61.925
525.01	63.712
525.35	63.466
525.69	62.069
526.04	64.034
526.38	63.717
526.72	62.771
527.06	63.737
527.41	63.630
527.75	62.904
528.09	64.328
528.43	62.820
528.78	61.997
529.12	63.508
529.46	62.758
529.80	63.396
530.15	63.104
530.49	63.389
530.83	64.244
531.17	63.704
531.51	62.960
531.86	62.541
532.20	63.968
532.54	63.168
532.88	62.978
533.22	64.171
533.57	62.924
533.91	61.236
534.25	61.282
534.59	61.024
534.93	60.610
535.27	61.989
535.62	61.957
535.96	62.314
536.30	63.154
536.64	63.413
536.98	64.760
537.32	62.474
537.66	62.254
538.01	62.955
538.35	62.297
538.69	63.436
539.03	63.033
539.37	61.411
539.71	62.308
540.05	63.537
540.39	64.681
540.73	63.787
541.07	62.910
541.42	63.201
541.76	60.997
542.10	62.390
542.44	62.625
542.78	62.144
543.12	63.204
543.46	60.959
543.80	62.074
544.14	61.182
544.48	62.795
544.82	62.720
545.16	61.234
545.50	61.440
545.84	61.544
546.18	62.067
546.52	62.518
546.86	61.538
547.20	63.291
547.54	63.292
547.88	60.783
548.22	60.092
548.56	60.989
548.90	63.073
549.24	62.439
549.58	62.032
549.92	62.968
550.26	62.572
550.60	61.949
550.94	62.993
551.28	63.657
551.62	62.260
551.96	61.433
552.30	61.185
552.64	61.858
552.98	63.210
553.32	62.987
553.66	63.302
554.00	62.047
554.34	61.372
554.68	61.842
555.02	63.097
555.36	63.120
555.69	62.106
556.03	61.193
556.37	63.585
556.71	62.777
557.05	63.045
557.39	62.584
557.73	63.676
558.07	63.602
558.41	62.304
558.75	61.901
559.08	62.724
559.42	63.323
559.76	64.494
560.10	64.131
560.44	62.211
560.78	61.795
561.12	61.560
561.45	62.260
561.79	62.369
562.13	62.623
562.47	61.345
562.81	62.093
563.15	62.561
563.48	63.718
563.82	62.745
564.16	60.784
564.50	61.559
564.84	61.111
565.17	62.003
565.51	61.538
565.85	62.880
566.19	62.319
566.52	60.013
566.86	60.177
567.20	61.380
567.54	61.075
567.88	58.012
568.21	60.235
568.55	59.067
568.89	58.052
569.23	57.288
569.56	55.906
569.90	56.058
570.24	56.971
570.57	54.552
570.91	55.253
571.25	55.999
571.59	55.823
571.92	53.631
572.26	55.063
572.60	54.390
572.93	53.577
573.27	53.994
573.61	53.484
573.95	53.619
574.28	52.978
574.62	53.610
574.96	52.592
575.29	53.328
575.63	53.040
575.97	52.562
576.30	53.083
576.64	53.525
576.98	53.521
577.31	52.992
577.65	52.628
577.98	52.688
578.32	52.073
578.66	53.062
578.99	53.093
579.33	53.228
579.67	52.397
580.00	52.356
580.34	52.446
580.67	52.488
581.01	52.080
581.35	52.577
581.68	51.431
582.02	52.120
582.35	52.559
582.69	52.908
583.02	53.603
583.36	52.765
583.70	53.251
584.03	53.825
584.37	53.965
584.70	53.661
585.04	53.266
585.37	52.458
585.71	53.193
586.04	53.723
586.38	53.007
586.72	53.213
587.05	54.092
587.39	53.510
587.72	53.464
588.06	54.388
588.39	54.514
588.73	54.134
589.06	54.891
589.40	55.582
589.73	54.745
590.07	55.171
590.40	54.317
590.73	54.538
591.07	56.148
591.40	56.326
591.74	55.691
592.07	56.126
592.41	56.051
592.74	55.150
593.08	55.304
593.41	54.079
593.75	54.105
594.08	55.895
594.41	56.007
594.75	55.530
595.08	56.241
595.42	55.275
595.75	54.612
596.09	55.801
596.42	56.506
596.75	55.282
597.09	56.589
597.42	55.871
597.75	56.333
598.09	56.033
598.42	55.236
598.76	54.734
599.09	54.380
599.42	54.979
599.76	55.530
600.09	55.916
600.42	54.615
600.76	55.782
601.09	54.766
601.42	54.571
601.76	55.335
602.09	55.992
602.42	55.514
602.76	55.297
603.09	55.847
603.42	55.842
603.76	55.604
604.09	55.146
604.42	55.537
604.76	55.299
605.09	55.651
605.42	56.871
605.75	55.929
606.09	55.625
606.42	55.509
606.75	54.229
607.09	55.668
607.42	55.766
607.75	55.099
608.08	55.310
608.42	55.724
608.75	54.346
609.08	56.308
609.41	56.652
609.75	54.851
610.08	57.598
610.41	57.253
610.74	57.350
611.07	57.809
611.41	54.816
611.74	56.658
612.07	57.841
612.40	56.930
612.73	57.135
613.07	57.292
613.40	56.979
613.73	58.529
614.06	56.178
614.39	57.328
614.72	56.927
615.06	56.630
615.39	55.507
615.72	56.871
616.05	55.715
616.38	57.864
616.71	56.456
617.05	58.263
617.38	57.090
617.71	57.801
618.04	57.702
618.37	59.748
618.70	58.605
619.03	57.955
619.36	60.254
619.69	59.081
620.03	59.229
620.36	58.439
620.69	60.660
621.02	61.187
621.35	59.597
621.68	62.049
622.01	62.136
622.34	61.568
622.67	60.938
623.00	60.367
623.33	59.851
623.66	59.232
623.99	60.602
624.32	59.598
624.65	59.161
624.99	60.941
625.32	60.479
625.65	61.072
625.98	60.955
626.31	60.522
626.64	60.418
626.97	61.729
627.30	61.362
627.63	61.831
627.96	61.619
628.29	62.408
628.62	63.324
628.95	62.992
629.28	62.688
629.61	64.377
629.94	63.233
630.26	64.215
630.59	65.729
630.92	62.963
631.25	65.020
631.58	63.598
631.91	64.149
632.24	65.333
632.57	65.444
632.90	66.897
633.23	66.706
633.56	64.094
633.89	64.741
