SpectraSuite Data File
++++++++++++++++++++++++++++++++++++
Date: Sat May 16 11:22:48 PDT 2015
User: schluterlab
Dark Spectrum Present: Yes
Reference Spectrum Present: Yes
Number of Sampled Component Spectra: 1
Spectrometers: USB2E3373
Integration Time (usec): 3000 (USB2E3373)
Spectra Averaged: 3 (USB2E3373)
Boxcar Smoothing: 0 (USB2E3373)
Correct for Electrical Dark: No (USB2E3373)
Strobe/Lamp Enabled: No (USB2E3373)
Correct for Detector Non-linearity: No (USB2E3373)
Correct for Stray Light: No (USB2E3373)
Number of Pixels in Processed Spectrum: 2048
>>>>>Begin Processed Spectral Data<<<<<
178.53	0.000
178.91	93.333
179.29	833.333
179.67	-1000.000
180.04	23.077
180.42	900.000
180.80	475.000
181.18	375.000
181.56	-187.500
181.94	700.000
182.31	400.000
182.69	-46.154
183.07	-333.333
183.45	1350.000
183.83	533.333
184.20	-142.857
184.58	-250.000
184.96	-375.000
185.34	106.250
185.72	-350.000
186.09	316.667
186.47	-137.500
186.85	-100.000
187.23	-12.500
187.61	-175.000
187.98	-162.500
188.36	-125.000
188.74	-187.500
189.12	1400.000
189.49	271.429
189.87	-150.000
190.25	525.000
190.63	-64.286
191.00	-55.556
191.38	440.000
191.76	-6.667
192.14	540.000
192.51	20.000
192.89	-500.000
193.27	0.000
193.65	-133.333
194.02	-171.429
194.40	400.000
194.78	10.000
195.15	-1300.000
195.53	-154.545
195.91	-350.000
196.29	240.000
196.66	-466.667
197.04	1900.000
197.42	-300.000
197.79	20.000
198.17	-33.333
198.55	-550.000
198.92	-600.000
199.30	175.000
199.68	-750.000
200.05	-122.222
200.43	-166.667
200.81	-1500.000
201.18	-200.000
201.56	200.000
201.94	-46.667
202.31	-22.727
202.69	-50.000
203.07	-80.000
203.44	666.667
203.82	-400.000
204.19	-275.000
204.57	-325.000
204.95	-1700.000
205.32	0.000
205.70	500.000
206.08	-1100.000
206.45	-61.111
206.83	-900.000
207.20	-300.000
207.58	-433.333
207.96	-533.333
208.33	-50.000
208.71	-177.778
209.08	170.000
209.46	-257.143
209.84	500.000
210.21	0.000
210.59	60.000
210.96	1400.000
211.34	-316.667
211.71	-33.333
212.09	300.000
212.46	1250.000
212.84	-1600.000
213.22	566.667
213.59	216.667
213.97	-11.111
214.34	240.000
214.72	-70.000
215.09	-166.667
215.47	-116.667
215.84	-40.000
216.22	-80.000
216.59	13.333
216.97	-350.000
217.34	1000.000
217.72	-100.000
218.09	-166.667
218.47	-171.429
218.84	200.000
219.22	-57.143
219.59	0.000
219.97	314.286
220.34	425.000
220.72	137.500
221.09	-46.154
221.47	0.000
221.84	466.667
222.22	-800.000
222.59	1300.000
222.97	-200.000
223.34	-1050.000
223.72	-533.333
224.09	-92.857
224.46	-500.000
224.84	0.000
225.21	-185.714
225.59	-72.727
225.96	-225.000
226.34	-28.571
226.71	-144.444
227.08	0.000
227.46	2300.000
227.83	-142.857
228.21	-162.500
228.58	200.000
228.95	12.500
229.33	-2000.000
229.70	-240.000
230.08	-700.000
230.45	33.333
230.82	-116.667
231.20	-500.000
231.57	-300.000
231.95	1800.000
232.32	52.381
232.69	-177.778
233.07	-185.714
233.44	-850.000
233.81	-46.667
234.19	-144.444
234.56	-62.500
234.93	3.125
235.31	-171.429
235.68	-150.000
236.05	-41.176
236.43	-31.818
236.80	-12.903
237.17	12.500
237.55	19.048
237.92	-63.636
238.29	-5.714
238.67	8.824
239.04	5.556
239.41	16.129
239.79	-10.256
240.16	33.333
240.53	23.636
240.91	41.026
241.28	32.727
241.65	21.538
242.02	29.508
242.40	22.951
242.77	27.273
243.14	32.203
243.51	27.143
243.89	35.443
244.26	23.596
244.63	38.947
245.00	30.526
245.38	37.288
245.75	36.283
246.12	34.400
246.49	37.795
246.87	21.138
247.24	33.898
247.61	33.898
247.98	38.732
248.36	37.762
248.73	37.342
249.10	35.669
249.47	40.351
249.84	41.477
250.22	39.286
250.59	38.983
250.96	39.267
251.33	39.336
251.70	39.423
252.08	43.602
252.45	36.019
252.82	41.905
253.19	38.298
253.56	39.919
253.94	43.038
254.31	42.060
254.68	42.683
255.05	41.935
255.42	44.444
255.79	41.935
256.16	45.882
256.54	43.015
256.91	40.909
257.28	37.729
257.65	40.071
258.02	43.711
258.39	41.137
258.76	41.892
259.14	37.654
259.51	44.590
259.88	45.427
260.25	46.894
260.62	41.801
260.99	41.840
261.36	46.037
261.73	42.486
262.10	44.722
262.47	42.165
262.85	47.429
263.22	41.834
263.59	42.769
263.96	43.768
264.33	42.276
264.70	44.475
265.07	39.835
265.44	42.894
265.81	43.669
266.18	41.772
266.55	44.118
266.92	46.851
267.29	43.584
267.66	41.728
268.03	42.754
268.40	41.315
268.77	44.578
269.14	42.459
269.51	43.448
269.88	40.596
270.25	42.657
270.62	41.419
270.99	42.117
271.36	42.191
271.73	41.031
272.10	44.622
272.47	42.222
272.84	42.222
273.21	42.661
273.58	42.198
273.95	41.009
274.32	44.570
274.69	45.295
275.06	43.149
275.43	43.527
275.80	44.196
276.17	42.469
276.54	43.585
276.91	44.444
277.28	43.002
277.65	43.182
278.02	43.424
278.39	43.222
278.76	42.629
279.13	43.874
279.50	43.340
279.87	45.243
280.23	45.547
280.60	43.141
280.97	41.165
281.34	44.681
281.71	41.731
282.08	44.960
282.45	44.196
282.82	43.992
283.19	42.182
283.56	43.407
283.92	42.049
284.29	44.424
284.66	41.007
285.03	41.533
285.40	39.852
285.77	41.930
286.14	40.433
286.51	41.918
286.87	42.650
287.24	41.638
287.61	41.488
287.98	40.381
288.35	40.331
288.72	39.219
289.08	36.102
289.45	39.562
289.82	39.273
290.19	40.066
290.56	37.355
290.93	37.361
291.29	37.925
291.66	37.681
292.03	38.305
292.40	36.596
292.77	37.733
293.13	38.049
293.50	36.107
293.87	35.123
294.24	34.389
294.60	33.030
294.97	37.026
295.34	34.667
295.71	34.226
296.08	33.794
296.44	33.333
296.81	34.615
297.18	32.676
297.55	35.734
297.91	35.146
298.28	32.466
298.65	33.194
299.02	33.957
299.38	33.556
299.75	31.522
300.12	32.179
300.48	31.330
300.85	32.372
301.22	30.789
301.59	31.079
301.95	32.116
302.32	30.117
302.69	31.579
303.05	30.281
303.42	29.750
303.79	33.014
304.15	30.687
304.52	31.272
304.89	31.287
305.25	30.281
305.62	29.377
305.99	30.860
306.35	29.301
306.72	29.613
307.09	31.101
307.45	30.533
307.82	30.391
308.19	29.866
308.55	28.649
308.92	28.894
309.29	30.378
309.65	28.420
310.02	27.970
310.38	29.514
310.75	28.689
311.12	28.616
311.48	28.914
311.85	28.321
312.22	29.042
312.58	28.993
312.95	26.402
313.31	28.971
313.68	28.442
314.05	28.981
314.41	28.370
314.78	27.672
315.14	28.233
315.51	29.281
315.87	27.396
316.24	28.377
316.61	28.215
316.97	28.657
317.34	26.590
317.70	28.942
318.07	28.172
318.43	27.341
318.80	28.545
319.16	27.580
319.53	28.289
319.89	25.964
320.26	28.137
320.62	25.865
320.99	27.960
321.35	25.320
321.72	26.714
322.08	27.695
322.45	27.228
322.81	27.858
323.18	26.513
323.54	27.264
323.91	27.525
324.27	26.996
324.64	27.514
325.00	27.225
325.37	27.421
325.73	26.597
326.10	26.926
326.46	27.320
326.83	26.468
327.19	25.188
327.56	27.598
327.92	26.593
328.29	27.013
328.65	24.909
329.01	27.385
329.38	26.048
329.74	26.832
330.11	26.292
330.47	25.704
330.84	26.856
331.20	26.264
331.56	26.253
331.93	26.288
332.29	26.210
332.66	25.373
333.02	25.430
333.38	25.000
333.75	26.002
334.11	25.244
334.48	25.154
334.84	24.497
335.20	25.975
335.57	25.181
335.93	25.783
336.29	24.712
336.66	24.758
337.02	25.315
337.38	24.510
337.75	25.022
338.11	26.029
338.47	25.356
338.84	26.225
339.20	24.253
339.56	26.381
339.93	24.515
340.29	24.712
340.65	25.612
341.02	23.862
341.38	23.673
341.74	25.064
342.11	25.000
342.47	24.893
342.83	25.021
343.20	24.680
343.56	23.265
343.92	25.125
344.28	26.241
344.65	23.515
345.01	25.462
345.37	25.581
345.73	24.468
346.10	24.203
346.46	25.345
346.82	24.138
347.19	23.418
347.55	23.756
347.91	24.567
348.27	23.309
348.63	24.798
349.00	24.503
349.36	23.029
349.72	24.682
350.08	24.138
350.45	23.404
350.81	24.761
351.17	23.553
351.53	23.469
351.89	24.010
352.26	24.186
352.62	25.346
352.98	23.576
353.34	24.540
353.70	22.625
354.07	23.210
354.43	24.348
354.79	22.979
355.15	24.361
355.51	22.266
355.87	22.767
356.24	23.908
356.60	23.932
356.96	23.095
357.32	23.990
357.68	23.602
358.04	23.634
358.40	23.589
358.77	22.411
359.13	23.642
359.49	24.414
359.85	23.399
360.21	23.288
360.57	23.946
360.93	23.852
361.29	24.066
361.66	22.332
362.02	23.299
362.38	22.817
362.74	23.663
363.10	23.242
363.46	22.934
363.82	22.813
364.18	24.457
364.54	24.660
364.90	23.480
365.26	22.539
365.62	23.806
365.98	23.257
366.35	23.592
366.71	22.763
367.07	24.206
367.43	23.747
367.79	22.680
368.15	21.764
368.51	24.196
368.87	24.245
369.23	22.877
369.59	24.028
369.95	22.692
370.31	23.769
370.67	22.849
371.03	23.615
371.39	22.772
371.75	23.891
372.11	22.884
372.47	22.704
372.83	24.270
373.19	22.857
373.55	24.068
373.91	23.613
374.27	23.682
374.63	22.567
374.99	22.601
375.35	22.409
375.71	24.173
376.07	23.546
376.42	21.722
376.78	24.314
377.14	24.000
377.50	23.469
377.86	23.342
378.22	23.053
378.58	22.915
378.94	21.887
379.30	23.705
379.66	22.890
380.02	22.995
380.38	22.598
380.74	22.685
381.09	23.960
381.45	24.165
381.81	23.230
382.17	22.807
382.53	22.371
382.89	22.967
383.25	23.480
383.61	23.290
383.97	23.576
384.32	23.529
384.68	22.612
385.04	23.128
385.40	22.520
385.76	22.988
386.12	23.548
386.48	23.639
386.83	23.497
387.19	23.311
387.55	23.804
387.91	22.940
388.27	22.316
388.62	22.656
388.98	22.956
389.34	23.256
389.70	22.960
390.06	22.809
390.42	23.397
390.77	22.713
391.13	23.416
391.49	23.518
391.85	22.943
392.20	22.633
392.56	22.786
392.92	22.704
393.28	24.053
393.64	23.812
393.99	23.754
394.35	22.871
394.71	23.039
395.07	23.101
395.42	23.600
395.78	22.376
396.14	22.741
396.50	24.098
396.85	23.381
397.21	23.451
397.57	23.587
397.92	23.419
398.28	23.778
398.64	23.200
399.00	23.146
399.35	22.830
399.71	23.635
400.07	23.701
400.42	23.783
400.78	23.017
401.14	23.413
401.49	23.113
401.85	23.307
402.21	23.897
402.57	23.362
402.92	23.851
403.28	22.917
403.63	22.049
403.99	24.114
404.35	23.309
404.70	23.991
405.06	23.529
405.42	22.571
405.77	22.342
406.13	22.487
406.49	23.607
406.84	23.875
407.20	23.616
407.55	22.799
407.91	22.992
408.27	23.652
408.62	22.790
408.98	23.590
409.34	22.669
409.69	23.945
410.05	22.438
410.40	22.502
410.76	23.414
411.11	23.815
411.47	22.570
411.83	23.778
412.18	22.958
412.54	22.758
412.89	23.937
413.25	22.373
413.60	22.783
413.96	22.859
414.31	22.875
414.67	22.921
415.03	22.768
415.38	22.772
415.74	23.647
416.09	23.465
416.45	22.487
416.80	22.432
417.16	22.525
417.51	23.178
417.87	23.236
418.22	23.198
418.58	22.786
418.93	22.992
419.29	22.773
419.64	23.178
420.00	23.390
420.35	22.295
420.71	22.869
421.06	23.373
421.42	22.014
421.77	22.892
422.12	23.559
422.48	22.448
422.83	23.861
423.19	23.274
423.54	22.939
423.90	22.846
424.25	22.681
424.61	23.402
424.96	23.932
425.31	23.309
425.67	23.266
426.02	22.834
426.38	23.170
426.73	22.151
427.09	23.039
427.44	22.727
427.79	23.663
428.15	24.177
428.50	24.692
428.85	23.321
429.21	22.966
429.56	23.021
429.92	23.196
430.27	24.826
430.62	25.078
430.98	23.210
431.33	23.799
431.68	24.290
432.04	23.167
432.39	24.444
432.74	23.681
433.10	24.086
433.45	23.143
433.80	23.572
434.16	24.610
434.51	24.164
434.86	24.077
435.22	24.109
435.57	23.072
435.92	23.916
436.28	23.798
436.63	23.460
436.98	24.112
437.34	24.631
437.69	23.279
438.04	24.050
438.39	24.308
438.75	23.341
439.10	24.098
439.45	24.985
439.81	24.337
440.16	23.453
440.51	24.765
440.86	23.540
441.22	23.659
441.57	24.421
441.92	24.399
442.27	24.242
442.63	24.142
442.98	22.856
443.33	24.382
443.68	24.179
444.03	23.870
444.39	23.495
444.74	24.009
445.09	24.397
445.44	24.761
445.79	24.324
446.15	24.699
446.50	24.061
446.85	24.371
447.20	24.515
447.55	24.475
447.91	24.593
448.26	23.520
448.61	24.561
448.96	25.378
449.31	24.183
449.66	25.301
450.02	24.100
450.37	24.290
450.72	24.689
451.07	25.204
451.42	23.358
451.77	24.776
452.12	24.017
452.47	24.433
452.83	24.287
453.18	24.984
453.53	25.435
453.88	25.299
454.23	23.881
454.58	25.855
454.93	25.063
455.28	23.072
455.63	24.816
455.98	25.120
456.34	23.443
456.69	24.891
457.04	24.647
457.39	23.505
457.74	25.576
458.09	25.464
458.44	25.231
458.79	24.608
459.14	24.529
459.49	25.104
459.84	25.014
460.19	24.344
460.54	24.440
460.89	24.608
461.24	25.926
461.59	25.264
461.94	25.971
462.29	25.372
462.64	24.967
462.99	24.699
463.34	25.253
463.69	25.509
464.04	25.308
464.39	25.448
464.74	24.941
465.09	24.714
465.44	24.196
465.79	25.268
466.14	25.834
466.49	24.525
466.84	25.150
467.19	26.372
467.54	24.304
467.89	25.462
468.24	24.762
468.59	25.172
468.94	24.952
469.29	24.756
469.64	25.202
469.99	25.591
470.34	25.852
470.68	26.453
471.03	26.015
471.38	25.139
471.73	25.524
472.08	25.368
472.43	25.676
472.78	26.333
473.13	24.122
473.48	25.846
473.83	26.427
474.17	25.478
474.52	26.918
474.87	25.466
475.22	25.782
475.57	25.944
475.92	25.162
476.27	26.114
476.61	25.803
476.96	26.439
477.31	26.265
477.66	25.844
478.01	25.932
478.36	26.244
478.70	26.321
479.05	26.447
479.40	26.010
479.75	25.841
480.10	25.248
480.45	24.710
480.79	26.259
481.14	25.740
481.49	26.428
481.84	25.844
482.19	26.587
482.53	26.373
482.88	26.151
483.23	26.103
483.58	26.920
483.92	26.326
484.27	25.565
484.62	25.832
484.97	25.799
485.31	25.184
485.66	25.287
486.01	25.165
486.36	26.107
486.70	26.520
487.05	26.101
487.40	25.908
487.75	25.351
488.09	25.355
488.44	25.575
488.79	25.080
489.13	25.751
489.48	26.468
489.83	25.415
490.17	26.077
490.52	26.857
490.87	26.051
491.22	26.016
491.56	25.417
491.91	26.908
492.26	26.745
492.60	26.213
492.95	26.416
493.30	26.251
493.64	26.046
493.99	25.765
494.34	26.905
494.68	27.434
495.03	26.721
495.37	26.647
495.72	27.063
496.07	27.264
496.41	26.725
496.76	26.667
497.11	26.707
497.45	26.772
497.80	26.413
498.14	26.670
498.49	26.469
498.84	26.505
499.18	27.388
499.53	26.936
499.87	27.220
500.22	26.863
500.56	26.213
500.91	27.340
501.26	27.948
501.60	26.818
501.95	27.488
502.29	26.925
502.64	28.383
502.98	27.168
503.33	27.444
503.67	27.730
504.02	27.861
504.36	27.402
504.71	26.241
505.06	27.309
505.40	28.593
505.75	27.337
506.09	28.059
506.44	28.120
506.78	27.597
507.13	28.012
507.47	27.804
507.82	28.704
508.16	28.446
508.51	27.769
508.85	27.899
509.19	28.362
509.54	28.436
509.88	29.096
510.23	27.778
510.57	28.995
510.92	29.323
511.26	28.495
511.61	28.402
511.95	28.233
512.30	29.412
512.64	28.381
512.98	29.483
513.33	29.929
513.67	28.755
514.02	29.474
514.36	29.141
514.70	28.806
515.05	28.874
515.39	29.642
515.74	29.494
516.08	29.107
516.42	29.688
516.77	30.387
517.11	30.092
517.46	30.682
517.80	31.107
518.14	30.193
518.49	31.201
518.83	30.208
519.17	31.380
519.52	30.017
519.86	30.108
520.20	31.235
520.55	29.969
520.89	30.808
521.23	30.708
521.58	30.909
521.92	30.146
522.26	30.667
522.61	30.862
522.95	31.270
523.29	31.097
523.64	29.794
523.98	31.318
524.32	31.427
524.66	30.124
525.01	31.471
525.35	30.477
525.69	31.815
526.04	32.768
526.38	31.700
526.72	30.524
527.06	30.534
527.41	31.551
527.75	31.287
528.09	31.238
528.43	31.016
528.78	31.910
529.12	31.434
529.46	31.121
529.80	31.440
530.15	30.908
530.49	32.212
530.83	31.565
531.17	31.313
531.51	31.279
531.86	31.863
532.20	30.837
532.54	31.484
532.88	30.896
533.22	31.350
533.57	32.702
533.91	30.587
534.25	30.987
534.59	31.543
534.93	30.741
535.27	31.529
535.62	31.841
535.96	30.963
536.30	29.843
536.64	30.677
536.98	31.497
537.32	32.343
537.66	32.451
538.01	31.890
538.35	31.689
538.69	32.019
539.03	31.889
539.37	32.003
539.71	31.488
540.05	30.569
540.39	31.302
540.73	32.343
541.07	32.240
541.42	30.317
541.76	30.233
542.10	32.140
542.44	31.246
542.78	32.497
543.12	31.908
543.46	31.575
543.80	31.171
544.14	32.371
544.48	30.512
544.82	32.070
545.16	31.992
545.50	31.292
545.84	30.946
546.18	32.247
546.52	32.148
546.86	31.980
547.20	33.122
547.54	31.061
547.88	31.652
548.22	31.651
548.56	32.331
548.90	32.008
549.24	31.465
549.58	31.757
549.92	32.297
550.26	33.309
550.60	31.366
550.94	32.847
551.28	32.280
551.62	32.939
551.96	31.476
552.30	33.101
552.64	32.301
552.98	33.497
553.32	33.045
553.66	33.670
554.00	32.552
554.34	33.285
554.68	32.675
555.02	32.779
555.36	31.632
555.69	32.521
556.03	32.842
556.37	32.290
556.71	33.357
557.05	33.333
557.39	31.626
557.73	33.115
558.07	32.178
558.41	32.984
558.75	32.776
559.08	31.284
559.42	33.002
559.76	33.206
560.10	33.408
560.44	34.610
560.78	32.777
561.12	33.195
561.45	33.425
561.79	32.753
562.13	32.819
562.47	32.773
562.81	33.593
563.15	32.050
563.48	33.449
563.82	33.671
564.16	33.469
564.50	32.661
564.84	32.474
565.17	32.958
565.51	33.116
565.85	33.333
566.19	33.267
566.52	32.942
566.86	32.617
567.20	34.080
567.54	33.609
567.88	33.054
568.21	32.550
568.55	32.025
568.89	32.058
569.23	31.976
569.56	31.946
569.90	32.494
570.24	31.905
570.57	31.529
570.91	31.146
571.25	31.388
571.59	31.158
571.92	30.774
572.26	31.366
572.60	31.244
572.93	30.598
573.27	31.128
573.61	30.341
573.95	30.788
574.28	30.606
574.62	30.961
574.96	30.508
575.29	30.793
575.63	30.396
575.97	30.070
576.30	30.666
576.64	30.992
576.98	29.933
577.31	30.584
577.65	30.843
577.98	30.538
578.32	30.857
578.66	30.710
578.99	30.141
579.33	30.520
579.67	30.358
580.00	30.308
580.34	30.259
580.67	30.203
581.01	30.644
581.35	30.802
581.68	30.305
582.02	30.990
582.35	30.916
582.69	30.831
583.02	31.543
583.36	31.339
583.70	30.824
584.03	31.304
584.37	30.961
584.70	31.377
585.04	31.114
585.37	30.668
585.71	31.156
586.04	30.952
586.38	30.981
586.72	31.511
587.05	31.804
587.39	31.631
587.72	31.378
588.06	31.142
588.39	32.071
588.73	31.744
589.06	32.353
589.40	32.394
589.73	32.047
590.07	31.865
590.40	32.472
590.73	32.427
591.07	32.459
591.40	32.669
591.74	32.276
592.07	32.973
592.41	32.484
592.74	32.244
593.08	32.132
593.41	32.500
593.75	32.707
594.08	33.070
594.41	32.976
594.75	32.239
595.08	32.895
595.42	32.731
595.75	32.047
596.09	32.480
596.42	32.406
596.75	32.600
597.09	33.571
597.42	32.213
597.75	32.950
598.09	33.032
598.42	32.612
598.76	32.890
599.09	33.268
599.42	33.180
599.76	32.805
600.09	33.473
600.42	33.270
600.76	33.296
601.09	32.738
601.42	33.439
601.76	32.009
602.09	32.597
602.42	33.457
602.76	32.405
603.09	33.065
603.42	33.239
603.76	33.187
604.09	33.440
604.42	31.890
604.76	32.708
605.09	32.685
605.42	33.599
605.75	33.031
606.09	33.250
606.42	32.635
606.75	32.503
607.09	32.995
607.42	33.187
607.75	32.671
608.08	32.806
608.42	33.396
608.75	32.617
609.08	33.220
609.41	33.533
609.75	32.472
610.08	32.745
610.41	33.976
610.74	33.897
611.07	33.773
611.41	33.132
611.74	33.779
612.07	33.942
612.40	32.516
612.73	32.849
613.07	33.021
613.40	34.592
613.73	33.406
614.06	33.114
614.39	33.822
614.72	33.017
615.06	32.283
615.39	33.695
615.72	33.786
616.05	33.517
616.38	34.010
616.71	33.273
617.05	34.379
617.38	34.365
617.71	32.248
618.04	33.354
618.37	34.403
618.70	34.876
619.03	34.326
619.36	33.404
619.69	34.530
620.03	33.127
620.36	34.669
620.69	33.381
621.02	34.779
621.35	33.790
621.68	34.426
622.01	34.628
622.34	34.938
622.67	32.891
623.00	34.583
623.33	35.224
623.66	33.604
623.99	34.135
624.32	34.226
624.65	34.216
624.99	35.026
625.32	34.057
625.65	34.110
625.98	33.803
626.31	33.768
626.64	34.728
626.97	34.503
627.30	34.979
627.63	33.851
627.96	35.857
628.29	34.743
628.62	34.479
628.95	35.138
629.28	33.647
629.61	34.642
629.94	34.688
630.26	36.083
630.59	35.879
630.92	34.134
631.25	36.391
631.58	36.614
631.91	34.681
