SpectraSuite Data File
++++++++++++++++++++++++++++++++++++
Date: Sat May 16 11:18:49 PDT 2015
User: schluterlab
Dark Spectrum Present: Yes
Reference Spectrum Present: Yes
Number of Sampled Component Spectra: 1
Spectrometers: USB2E3373
Integration Time (usec): 3000 (USB2E3373)
Spectra Averaged: 3 (USB2E3373)
Boxcar Smoothing: 0 (USB2E3373)
Correct for Electrical Dark: No (USB2E3373)
Strobe/Lamp Enabled: No (USB2E3373)
Correct for Detector Non-linearity: No (USB2E3373)
Correct for Stray Light: No (USB2E3373)
Number of Pixels in Processed Spectrum: 2048
>>>>>Begin Processed Spectral Data<<<<<
178.53	0.000
178.91	33.333
179.29	366.667
179.67	-1300.000
180.04	-38.462
180.42	-300.000
180.80	150.000
181.18	225.000
181.56	-12.500
181.94	1800.000
182.31	475.000
182.69	-30.769
183.07	-233.333
183.45	1250.000
183.83	400.000
184.20	-200.000
184.58	-50.000
184.96	-175.000
185.34	87.500
185.72	-500.000
186.09	100.000
186.47	-250.000
186.85	-87.500
187.23	112.500
187.61	-350.000
187.98	-225.000
188.36	-125.000
188.74	-75.000
189.12	900.000
189.49	442.857
189.87	0.000
190.25	400.000
190.63	-7.143
191.00	-133.333
191.38	300.000
191.76	0.000
192.14	400.000
192.51	-260.000
192.89	-166.667
193.27	0.000
193.65	-166.667
194.02	-157.143
194.40	700.000
194.78	-180.000
195.15	-1100.000
195.53	-72.727
195.91	-483.333
196.29	40.000
196.66	-866.667
197.04	2200.000
197.42	50.000
197.79	53.333
198.17	-333.333
198.55	-300.000
198.92	-1200.000
199.30	125.000
199.68	-500.000
200.05	-55.556
200.43	-144.444
200.81	-1100.000
201.18	-83.333
201.56	214.286
201.94	46.667
202.31	13.636
202.69	-10.000
203.07	-90.000
203.44	533.333
203.82	-200.000
204.19	-75.000
204.57	-250.000
204.95	-800.000
205.32	-50.000
205.70	300.000
206.08	-1400.000
206.45	-38.889
206.83	-900.000
207.20	150.000
207.58	-466.667
207.96	-366.667
208.33	-50.000
208.71	-66.667
209.08	100.000
209.46	-157.143
209.84	300.000
210.21	0.000
210.59	-25.000
210.96	600.000
211.34	-183.333
211.71	-33.333
212.09	175.000
212.46	1450.000
212.84	-2000.000
213.22	433.333
213.59	191.667
213.97	-55.556
214.34	110.000
214.72	-30.000
215.09	-600.000
215.47	-133.333
215.84	-40.000
216.22	30.000
216.59	-6.667
216.97	-275.000
217.34	900.000
217.72	-28.571
218.09	-166.667
218.47	-100.000
218.84	328.571
219.22	71.429
219.59	0.000
219.97	357.143
220.34	700.000
220.72	187.500
221.09	-84.615
221.47	0.000
221.84	166.667
222.22	-650.000
222.59	2300.000
222.97	-237.500
223.34	-650.000
223.72	-633.333
224.09	0.000
224.46	-300.000
224.84	-7.143
225.21	-100.000
225.59	-63.636
225.96	-175.000
226.34	-85.714
226.71	-122.222
227.08	5.000
227.46	1100.000
227.83	-128.571
228.21	-137.500
228.58	550.000
228.95	31.250
229.33	-1600.000
229.70	-60.000
230.08	-750.000
230.45	-58.333
230.82	-250.000
231.20	-2100.000
231.57	-100.000
231.95	400.000
232.32	-19.048
232.69	-55.556
233.07	-100.000
233.44	-1350.000
233.81	-66.667
234.19	-66.667
234.56	-43.750
234.93	18.750
235.31	-100.000
235.68	-171.429
236.05	-64.706
236.43	-27.273
236.80	-19.355
237.17	-8.333
237.55	9.524
237.92	-63.636
238.29	11.429
238.67	-11.765
239.04	-33.333
239.41	-41.935
239.79	-41.026
240.16	-30.952
240.53	-1.818
240.91	-7.692
241.28	-23.636
241.65	-3.077
242.02	-3.279
242.40	-6.557
242.77	-6.061
243.14	-3.390
243.51	-2.857
243.89	-5.063
244.26	11.236
244.63	12.632
245.00	1.053
245.38	-0.847
245.75	13.274
246.12	6.400
246.49	11.024
246.87	1.626
247.24	-7.627
247.61	1.695
247.98	-2.817
248.36	2.098
248.73	5.696
249.10	-1.274
249.47	10.526
249.84	11.364
250.22	2.381
250.59	12.429
250.96	-0.524
251.33	9.479
251.70	6.250
252.08	12.322
252.45	7.583
252.82	7.143
253.19	7.234
253.56	6.855
253.94	10.970
254.31	11.588
254.68	11.789
255.05	9.677
255.42	12.698
255.79	8.602
256.16	12.157
256.54	13.971
256.91	9.091
257.28	6.227
257.65	9.574
258.02	13.522
258.39	12.040
258.76	5.405
259.14	11.420
259.51	9.508
259.88	12.195
260.25	9.006
260.62	5.788
260.99	9.199
261.36	9.146
261.73	13.295
262.10	10.556
262.47	8.547
262.85	11.714
263.22	9.456
263.59	8.615
263.96	11.304
264.33	12.737
264.70	10.773
265.07	10.440
265.44	9.044
265.81	8.786
266.18	10.633
266.55	9.559
266.92	8.816
267.29	10.896
267.66	10.123
268.03	11.111
268.40	11.033
268.77	9.880
269.14	11.601
269.51	10.345
269.88	7.110
270.25	8.858
270.62	10.526
270.99	12.162
271.36	11.888
271.73	9.641
272.10	11.899
272.47	10.444
272.84	12.222
273.21	10.550
273.58	12.308
273.95	11.404
274.32	10.860
274.69	9.847
275.06	12.883
275.43	8.929
275.80	13.238
276.17	10.669
276.54	11.202
276.91	12.140
277.28	12.576
277.65	11.364
278.02	15.031
278.39	12.574
278.76	11.355
279.13	14.032
279.50	11.928
279.87	11.205
280.23	11.741
280.60	10.736
280.97	10.097
281.34	11.992
281.71	12.692
282.08	12.500
282.45	9.369
282.82	10.271
283.19	9.636
283.56	14.286
283.92	13.428
284.29	9.294
284.66	10.252
285.03	12.656
285.40	10.886
285.77	12.632
286.14	12.094
286.51	8.703
286.87	12.704
287.24	11.945
287.61	12.397
287.98	10.919
288.35	9.421
288.72	11.545
289.08	10.169
289.45	10.606
289.82	10.554
290.19	12.151
290.56	10.579
290.93	9.062
291.29	10.049
291.66	9.984
292.03	10.675
292.40	10.542
292.77	10.248
293.13	10.569
293.50	9.658
293.87	10.890
294.24	11.916
294.60	9.545
294.97	10.926
295.34	7.704
295.71	8.929
296.08	8.602
296.44	7.439
296.81	10.399
297.18	7.887
297.55	10.452
297.91	10.879
298.28	8.493
298.65	9.484
299.02	10.829
299.38	9.358
299.75	9.103
300.12	10.000
300.48	10.742
300.85	8.126
301.22	9.573
301.59	7.932
301.95	11.965
302.32	7.953
302.69	10.282
303.05	7.814
303.42	8.000
303.79	9.330
304.15	10.308
304.52	9.568
304.89	9.327
305.25	10.256
305.62	9.166
305.99	9.541
306.35	9.878
306.72	9.339
307.09	9.989
307.45	9.194
307.82	7.598
308.19	10.403
308.55	9.259
308.92	8.700
309.29	9.730
309.65	8.165
310.02	8.639
310.38	8.757
310.75	8.914
311.12	9.298
311.48	9.395
311.85	7.415
312.22	8.857
312.58	9.054
312.95	8.665
313.31	9.491
313.68	9.146
314.05	9.792
314.41	8.853
314.78	7.792
315.14	9.970
315.51	7.700
315.87	9.487
316.24	8.552
316.61	10.749
316.97	8.358
317.34	7.900
317.70	8.349
318.07	10.261
318.43	9.176
318.80	9.953
319.16	8.255
319.53	8.083
319.89	8.561
320.26	9.314
320.62	7.981
320.99	9.453
321.35	7.586
321.72	7.062
322.08	9.990
322.45	8.020
322.81	10.279
323.18	9.318
323.54	9.057
323.91	9.082
324.27	9.506
324.64	8.318
325.00	9.773
325.37	9.593
325.73	10.149
326.10	7.972
326.46	8.932
326.83	10.128
327.19	8.924
327.56	9.966
327.92	9.601
328.29	10.130
328.65	9.182
329.01	9.011
329.38	9.634
329.74	10.714
330.11	10.426
330.47	8.901
330.84	9.991
331.20	9.116
331.56	9.754
331.93	10.036
332.29	9.954
332.66	11.062
333.02	10.045
333.38	10.842
333.75	10.864
334.11	9.956
334.48	10.150
334.84	10.761
335.20	9.929
335.57	8.664
335.93	11.012
336.29	10.717
336.66	9.515
337.02	9.550
337.38	10.606
337.75	10.799
338.11	10.286
338.47	10.676
338.84	9.256
339.20	10.193
339.56	12.121
339.93	10.758
340.29	9.566
340.65	9.003
341.02	9.528
341.38	9.688
341.74	11.092
342.11	10.495
342.47	9.957
342.83	10.076
343.20	9.650
343.56	10.041
343.92	11.018
344.28	10.849
344.65	10.066
345.01	10.168
345.37	10.548
345.73	9.820
346.10	9.648
346.46	9.748
346.82	10.104
347.19	10.353
347.55	9.310
347.91	11.260
348.27	10.024
348.63	10.743
349.00	10.979
349.36	9.680
349.72	10.032
350.08	10.024
350.45	9.850
350.81	10.191
351.17	9.807
351.53	8.751
351.89	10.105
352.26	10.000
352.62	10.906
352.98	11.392
353.34	9.752
353.70	10.425
354.07	10.386
354.43	10.040
354.79	10.697
355.15	9.345
355.51	9.609
355.87	9.407
356.24	10.326
356.60	11.523
356.96	10.624
357.32	10.372
357.68	10.268
358.04	10.085
358.40	10.363
358.77	9.815
359.13	9.793
359.49	9.977
359.85	9.909
360.21	10.883
360.57	10.166
360.93	10.444
361.29	10.389
361.66	9.985
362.02	10.059
362.38	11.519
362.74	10.037
363.10	10.689
363.46	11.396
363.82	10.933
364.18	10.637
364.54	11.008
364.90	10.692
365.26	10.770
365.62	11.190
365.98	10.953
366.35	10.845
366.71	10.078
367.07	11.433
367.43	10.570
367.79	10.722
368.15	9.673
368.51	10.839
368.87	12.088
369.23	11.579
369.59	10.764
369.95	11.205
370.31	10.970
370.67	10.557
371.03	10.423
371.39	9.689
371.75	10.801
372.11	9.828
372.47	10.412
372.83	10.431
373.19	10.929
373.55	10.626
373.91	10.953
374.27	10.815
374.63	10.835
374.99	11.266
375.35	10.431
375.71	11.141
376.07	10.951
376.42	10.265
376.78	10.850
377.14	10.305
377.50	11.154
377.86	10.338
378.22	10.490
378.58	10.933
378.94	11.344
379.30	11.456
379.66	12.083
380.02	9.982
380.38	10.091
380.74	10.375
381.09	11.951
381.45	11.098
381.81	11.555
382.17	10.401
382.53	10.517
382.89	10.945
383.25	11.017
383.61	10.554
383.97	11.206
384.32	11.014
384.68	11.366
385.04	10.205
385.40	10.895
385.76	10.915
386.12	11.118
386.48	11.139
386.83	10.859
387.19	11.536
387.55	11.569
387.91	10.077
388.27	10.253
388.62	10.757
388.98	9.812
389.34	11.138
389.70	10.719
390.06	10.255
390.42	11.090
390.77	10.473
391.13	11.739
391.49	11.104
391.85	11.783
392.20	10.437
392.56	10.324
392.92	10.896
393.28	11.424
393.64	11.786
393.99	11.015
394.35	11.192
394.71	10.686
395.07	10.421
395.42	10.667
395.78	10.559
396.14	11.651
396.50	10.581
396.85	10.734
397.21	11.604
397.57	11.368
397.92	11.944
398.28	10.556
398.64	11.303
399.00	11.067
399.35	10.598
399.71	11.556
400.07	11.045
400.42	11.314
400.78	10.912
401.14	11.737
401.49	10.731
401.85	11.470
402.21	11.144
402.57	11.104
402.92	11.454
403.28	10.907
403.63	11.204
403.99	11.125
404.35	11.051
404.70	11.235
405.06	11.592
405.42	10.517
405.77	11.652
406.13	10.733
406.49	10.665
406.84	10.558
407.20	11.072
407.55	10.766
407.91	11.010
408.27	12.010
408.62	11.485
408.98	10.916
409.34	10.664
409.69	10.775
410.05	10.976
410.40	11.895
410.76	11.500
411.11	11.284
411.47	11.381
411.83	11.308
412.18	10.520
412.54	10.921
412.89	11.725
413.25	10.449
413.60	11.300
413.96	11.152
414.31	11.682
414.67	11.238
415.03	10.867
415.38	11.646
415.74	10.696
416.09	11.509
416.45	11.706
416.80	11.443
417.16	11.495
417.51	12.081
417.87	11.845
418.22	11.125
418.58	11.232
418.93	11.465
419.29	11.355
419.64	11.558
420.00	12.576
420.35	11.591
420.71	11.164
421.06	11.598
421.42	10.890
421.77	11.223
422.12	11.696
422.48	11.384
422.83	11.788
423.19	11.247
423.54	10.836
423.90	11.278
424.25	10.860
424.61	12.244
424.96	12.463
425.31	12.074
425.67	11.805
426.02	11.417
426.38	11.797
426.73	11.689
427.09	11.949
427.44	11.875
427.79	12.500
428.15	12.687
428.50	11.965
428.85	12.050
429.21	11.345
429.56	12.448
429.92	11.623
430.27	11.815
430.62	11.860
430.98	11.553
431.33	11.686
431.68	12.011
432.04	12.871
432.39	11.909
432.74	11.811
433.10	12.380
433.45	11.975
433.80	11.702
434.16	11.983
434.51	12.000
434.86	12.244
435.22	12.249
435.57	11.750
435.92	12.603
436.28	13.116
436.63	11.758
436.98	12.142
437.34	12.995
437.69	11.902
438.04	11.798
438.39	13.117
438.75	12.340
439.10	12.382
439.45	12.191
439.81	12.590
440.16	12.095
440.51	12.647
440.86	12.493
441.22	12.327
441.57	12.368
441.92	12.072
442.27	12.554
442.63	12.178
442.98	11.682
443.33	11.532
443.68	12.559
444.03	11.788
444.39	13.069
444.74	12.555
445.09	12.226
445.44	12.718
445.79	12.596
446.15	13.308
446.50	11.377
446.85	12.571
447.20	12.768
447.55	12.928
447.91	12.746
448.26	11.341
448.61	12.450
448.96	12.941
449.31	12.401
449.66	12.593
450.02	12.355
450.37	12.000
450.72	12.486
451.07	13.074
451.42	11.276
451.77	12.867
452.12	13.707
452.47	13.098
452.83	12.638
453.18	12.334
453.53	12.749
453.88	12.679
454.23	12.455
454.58	13.735
454.93	12.657
455.28	12.301
455.63	12.469
455.98	12.711
456.34	12.198
456.69	13.759
457.04	12.784
457.39	12.201
457.74	13.290
458.09	13.109
458.44	13.626
458.79	12.668
459.14	13.177
459.49	13.618
459.84	12.535
460.19	12.947
460.54	13.249
460.89	13.229
461.24	13.479
461.59	13.775
461.94	13.367
462.29	13.341
462.64	12.912
462.99	13.387
463.34	13.099
463.69	13.232
464.04	12.830
464.39	12.366
464.74	13.475
465.09	13.049
465.44	13.480
465.79	13.254
466.14	13.982
466.49	13.299
466.84	13.565
467.19	13.653
467.54	13.608
467.89	14.242
468.24	13.361
468.59	13.804
468.94	13.119
469.29	12.671
469.64	13.477
469.99	14.247
470.34	14.028
470.68	14.317
471.03	15.554
471.38	13.125
471.73	13.706
472.08	14.324
472.43	14.350
472.78	14.400
473.13	13.386
473.48	14.167
473.83	14.516
474.17	13.567
474.52	14.898
474.87	14.685
475.22	13.982
475.57	14.167
475.92	14.255
476.27	13.943
476.61	14.254
476.96	13.583
477.31	14.370
477.66	14.278
478.01	14.695
478.36	14.248
478.70	14.469
479.05	13.845
479.40	14.508
479.75	14.679
480.10	14.534
480.45	13.733
480.79	15.005
481.14	14.551
481.49	13.892
481.84	14.239
482.19	14.710
482.53	13.968
482.88	14.001
483.23	14.225
483.58	15.032
483.92	15.050
484.27	13.868
484.62	14.212
484.97	14.186
485.31	13.152
485.66	13.297
486.01	13.107
486.36	13.748
486.70	13.846
487.05	13.841
487.40	13.542
487.75	13.925
488.09	13.867
488.44	14.411
488.79	14.892
489.13	14.873
489.48	15.865
489.83	15.240
490.17	15.020
490.52	14.810
490.87	14.827
491.22	14.386
491.56	14.722
491.91	15.744
492.26	15.330
492.60	14.462
492.95	15.945
493.30	15.674
493.64	15.280
493.99	15.201
494.34	15.000
494.68	15.028
495.03	14.532
495.37	15.290
495.72	15.914
496.07	15.204
496.41	15.424
496.76	15.388
497.11	15.403
497.45	15.613
497.80	14.757
498.14	15.422
498.49	15.369
498.84	15.340
499.18	15.595
499.53	15.343
499.87	14.768
500.22	15.686
500.56	15.558
500.91	15.567
501.26	15.429
501.60	15.070
501.95	15.942
502.29	15.541
502.64	15.983
502.98	14.950
503.33	15.742
503.67	15.517
504.02	15.789
504.36	15.098
504.71	14.792
505.06	15.577
505.40	16.617
505.75	15.752
506.09	15.774
506.44	15.589
506.78	16.056
507.13	15.757
507.47	15.389
507.82	16.107
508.16	16.425
508.51	15.971
508.85	15.735
509.19	15.699
509.54	16.279
509.88	16.117
510.23	16.195
510.57	16.296
510.92	15.897
511.26	16.002
511.61	16.307
511.95	15.409
512.30	16.273
512.64	16.082
512.98	15.787
513.33	16.584
513.67	16.918
514.02	16.163
514.36	17.285
514.70	16.752
515.05	17.267
515.39	16.782
515.74	17.045
516.08	17.118
516.42	16.714
516.77	16.407
517.11	16.590
517.46	16.986
517.80	16.727
518.14	16.425
518.49	16.796
518.83	16.261
519.17	17.762
519.52	16.657
519.86	16.965
520.20	16.993
520.55	16.492
520.89	16.218
521.23	17.277
521.58	16.677
521.92	17.353
522.26	16.698
522.61	16.730
522.95	15.763
523.29	17.179
523.64	16.802
523.98	16.423
524.32	17.285
524.66	16.584
525.01	16.699
525.35	17.848
525.69	17.046
526.04	17.559
526.38	18.587
526.72	16.667
527.06	17.773
527.41	16.700
527.75	17.426
528.09	17.141
528.43	17.115
528.78	16.834
529.12	17.606
529.46	16.108
529.80	18.012
530.15	18.030
530.49	17.529
530.83	18.926
531.17	16.970
531.51	17.214
531.86	18.170
532.20	18.286
532.54	17.647
532.88	17.721
533.22	16.711
533.57	17.950
533.91	16.916
534.25	17.033
534.59	15.990
534.93	16.117
535.27	17.181
535.62	17.199
535.96	17.712
536.30	17.474
536.64	17.198
536.98	17.302
537.32	17.692
537.66	16.972
538.01	17.113
538.35	17.297
538.69	16.979
539.03	17.468
539.37	17.232
539.71	17.812
540.05	16.381
540.39	16.898
540.73	18.106
541.07	16.940
541.42	16.475
541.76	16.944
542.10	18.028
542.44	17.722
542.78	18.046
543.12	16.836
543.46	16.096
543.80	16.856
544.14	16.588
544.48	16.798
544.82	15.832
545.16	17.237
545.50	16.689
545.84	17.733
546.18	17.198
546.52	17.994
546.86	16.952
547.20	17.229
547.54	16.391
547.88	17.120
548.22	16.055
548.56	17.101
548.90	17.588
549.24	16.538
549.58	16.090
549.92	17.668
550.26	17.991
550.60	16.643
550.94	17.518
551.28	17.758
551.62	17.061
551.96	16.064
552.30	16.307
552.64	17.452
552.98	16.538
553.32	16.234
553.66	17.664
554.00	17.697
554.34	16.173
554.68	16.740
555.02	17.294
555.36	16.751
555.69	16.691
556.03	16.772
556.37	17.283
556.71	16.464
557.05	16.260
557.39	16.333
557.73	18.016
558.07	17.558
558.41	16.455
558.75	16.502
559.08	16.498
559.42	16.080
559.76	17.025
560.10	17.748
560.44	17.630
560.78	16.493
561.12	16.080
561.45	16.507
561.79	16.516
562.13	16.410
562.47	16.807
562.81	16.620
563.15	16.305
563.48	16.862
563.82	16.903
564.16	16.024
564.50	16.398
564.84	15.873
565.17	16.976
565.51	16.558
565.85	16.227
566.19	16.535
566.52	15.395
566.86	15.740
567.20	16.586
567.54	16.893
567.88	15.522
568.21	15.268
568.55	15.111
568.89	14.911
569.23	15.178
569.56	15.174
569.90	14.595
570.24	15.070
570.57	14.376
570.91	14.315
571.25	14.656
571.59	14.081
571.92	14.196
572.26	14.320
572.60	14.552
572.93	14.648
573.27	14.024
573.61	13.479
573.95	14.449
574.28	13.956
574.62	14.159
574.96	13.709
575.29	14.151
575.63	13.592
575.97	13.565
576.30	13.757
576.64	13.943
576.98	13.834
577.31	13.659
577.65	13.375
577.98	13.535
578.32	13.408
578.66	13.575
578.99	13.781
579.33	14.192
579.67	13.492
580.00	13.690
580.34	13.674
580.67	13.778
581.01	13.437
581.35	13.381
581.68	13.511
582.02	13.273
582.35	12.880
582.69	13.564
583.02	13.683
583.36	13.584
583.70	13.466
584.03	14.170
584.37	13.559
584.70	13.640
585.04	13.848
585.37	13.103
585.71	13.256
586.04	13.931
586.38	13.098
586.72	13.952
587.05	13.735
587.39	13.111
587.72	13.751
588.06	13.480
588.39	13.358
588.73	14.062
589.06	14.322
589.40	14.359
589.73	13.881
590.07	13.583
590.40	14.170
590.73	13.914
591.07	14.754
591.40	14.385
591.74	14.162
592.07	14.459
592.41	13.758
592.74	14.028
593.08	13.903
593.41	13.684
593.75	13.089
594.08	13.515
594.41	14.566
594.75	14.043
595.08	13.835
595.42	13.801
595.75	13.157
596.09	13.543
596.42	14.484
596.75	13.928
597.09	14.470
597.42	13.793
597.75	13.286
598.09	14.460
598.42	13.566
598.76	13.663
599.09	13.457
599.42	13.379
599.76	13.213
600.09	13.931
600.42	13.711
600.76	13.785
601.09	14.014
601.42	13.534
601.76	14.213
602.09	13.211
602.42	13.951
602.76	13.004
603.09	13.266
603.42	13.900
603.76	13.323
604.09	13.656
604.42	13.739
604.76	13.519
605.09	13.698
605.42	13.520
605.75	13.368
606.09	13.200
606.42	13.657
606.75	13.912
607.09	13.366
607.42	13.380
607.75	13.024
608.08	14.550
608.42	14.049
608.75	13.879
609.08	13.736
609.41	13.503
609.75	13.798
610.08	14.118
610.41	14.651
610.74	14.023
611.07	14.249
611.41	13.868
611.74	14.036
612.07	14.339
612.40	13.486
612.73	14.109
613.07	14.144
613.40	14.997
613.73	14.387
614.06	14.388
614.39	13.923
614.72	13.799
615.06	14.130
615.39	13.673
615.72	14.123
616.05	13.805
616.38	13.697
616.71	14.354
617.05	15.259
617.38	13.808
617.71	13.514
618.04	14.099
618.37	13.396
618.70	14.668
619.03	14.218
619.36	15.222
619.69	15.004
620.03	14.187
620.36	14.487
620.69	15.363
621.02	14.155
621.35	14.758
621.68	14.836
622.01	14.644
622.34	15.761
622.67	13.984
623.00	14.690
623.33	15.896
623.66	13.885
623.99	14.812
624.32	14.583
624.65	14.054
624.99	14.190
625.32	13.623
625.65	15.307
625.98	14.554
626.31	15.498
626.64	15.314
626.97	14.897
627.30	14.638
627.63	14.249
627.96	14.970
628.29	14.246
628.62	15.091
628.95	15.945
629.28	15.414
629.61	14.917
629.94	16.163
630.26	15.905
630.59	16.181
630.92	15.916
631.25	14.919
631.58	15.556
631.91	14.574
632.24	17.000
632.57	15.667
632.90	15.747
633.23	16.706
633.56	15.088
633.89	16.627
634.22	16.293
634.55	17.067
634.88	15.961
635.20	13.858
635.53	16.031
