SpectraSuite Data File
++++++++++++++++++++++++++++++++++++
Date: Sat May 16 11:08:32 PDT 2015
User: schluterlab
Dark Spectrum Present: Yes
Reference Spectrum Present: Yes
Number of Sampled Component Spectra: 1
Spectrometers: USB2E3373
Integration Time (usec): 3000 (USB2E3373)
Spectra Averaged: 3 (USB2E3373)
Boxcar Smoothing: 0 (USB2E3373)
Correct for Electrical Dark: No (USB2E3373)
Strobe/Lamp Enabled: No (USB2E3373)
Correct for Detector Non-linearity: No (USB2E3373)
Correct for Stray Light: No (USB2E3373)
Number of Pixels in Processed Spectrum: 2048
>>>>>Begin Processed Spectral Data<<<<<
178.53	0.000
178.91	33.333
179.29	-66.667
179.67	800.000
180.04	23.077
180.42	600.000
180.80	200.000
181.18	125.000
181.56	0.000
181.94	300.000
182.31	350.000
182.69	92.308
183.07	33.333
183.45	850.000
183.83	166.667
184.20	57.143
184.58	-25.000
184.96	-125.000
185.34	12.500
185.72	-125.000
186.09	16.667
186.47	12.500
186.85	-12.500
187.23	137.500
187.61	-175.000
187.98	-112.500
188.36	112.500
188.74	-50.000
189.12	800.000
189.49	42.857
189.87	25.000
190.25	225.000
190.63	35.714
191.00	-100.000
191.38	320.000
191.76	53.333
192.14	400.000
192.51	-120.000
192.89	-66.667
193.27	0.000
193.65	22.222
194.02	-85.714
194.40	566.667
194.78	-10.000
195.15	600.000
195.53	90.909
195.91	-150.000
196.29	-140.000
196.66	-166.667
197.04	400.000
197.42	225.000
197.79	113.333
198.17	266.667
198.55	-150.000
198.92	200.000
199.30	25.000
199.68	50.000
200.05	66.667
200.43	-77.778
200.81	-500.000
201.18	50.000
201.56	57.143
201.94	-20.000
202.31	95.455
202.69	80.000
203.07	50.000
203.44	300.000
203.82	-100.000
204.19	25.000
204.57	250.000
204.95	200.000
205.32	56.250
205.70	-300.000
206.08	-600.000
206.45	50.000
206.83	-200.000
207.20	100.000
207.58	-266.667
207.96	-233.333
208.33	87.500
208.71	-177.778
209.08	170.000
209.46	100.000
209.84	-100.000
210.21	0.000
210.59	80.000
210.96	700.000
211.34	-250.000
211.71	33.333
212.09	-25.000
212.46	300.000
212.84	-700.000
213.22	133.333
213.59	-33.333
213.97	55.556
214.34	80.000
214.72	70.000
215.09	-166.667
215.47	-83.333
215.84	10.000
216.22	80.000
216.59	53.333
216.97	-175.000
217.34	100.000
217.72	71.429
218.09	50.000
218.47	-100.000
218.84	14.286
219.22	71.429
219.59	0.000
219.97	114.286
220.34	150.000
220.72	87.500
221.09	15.385
221.47	0.000
221.84	-166.667
222.22	300.000
222.59	-600.000
222.97	62.500
223.34	0.000
223.72	133.333
224.09	14.286
224.46	-150.000
224.84	28.571
225.21	-42.857
225.59	36.364
225.96	-50.000
226.34	71.429
226.71	33.333
227.08	60.000
227.46	400.000
227.83	28.571
228.21	37.500
228.58	-150.000
228.95	43.750
229.33	-500.000
229.70	-200.000
230.08	-350.000
230.45	0.000
230.82	-50.000
231.20	700.000
231.57	-500.000
231.95	200.000
232.32	42.857
232.69	-11.111
233.07	85.714
233.44	-350.000
233.81	-33.333
234.19	0.000
234.56	-50.000
234.93	40.625
235.31	-214.286
235.68	-28.571
236.05	-23.529
236.43	0.000
236.80	19.355
237.17	12.500
237.55	-14.286
237.92	4.545
238.29	-2.857
238.67	50.000
239.04	36.111
239.41	-3.226
239.79	2.564
240.16	9.524
240.53	10.909
240.91	33.333
241.28	27.273
241.65	30.769
242.02	21.311
242.40	13.115
242.77	22.727
243.14	20.339
243.51	-1.429
243.89	8.861
244.26	22.472
244.63	26.316
245.00	22.105
245.38	32.203
245.75	20.354
246.12	24.000
246.49	18.110
246.87	25.203
247.24	20.339
247.61	21.186
247.98	19.718
248.36	16.783
248.73	24.684
249.10	17.197
249.47	21.637
249.84	18.182
250.22	19.048
250.59	26.554
250.96	21.466
251.33	26.066
251.70	19.712
252.08	23.223
252.45	15.640
252.82	21.905
253.19	18.723
253.56	20.161
253.94	20.675
254.31	24.034
254.68	20.732
255.05	17.339
255.42	25.397
255.79	17.921
256.16	25.490
256.54	21.324
256.91	18.182
257.28	20.879
257.65	18.085
258.02	23.899
258.39	21.405
258.76	17.230
259.14	20.988
259.51	20.656
259.88	18.902
260.25	21.739
260.62	19.614
260.99	19.288
261.36	24.085
261.73	21.676
262.10	21.944
262.47	18.519
262.85	23.143
263.22	19.771
263.59	21.538
263.96	22.609
264.33	20.867
264.70	22.376
265.07	20.604
265.44	20.930
265.81	21.964
266.18	19.747
266.55	20.588
266.92	19.899
267.29	19.855
267.66	22.716
268.03	21.739
268.40	20.892
268.77	19.759
269.14	21.346
269.51	21.149
269.88	17.890
270.25	19.114
270.62	21.281
270.99	21.847
271.36	19.814
271.73	20.404
272.10	20.595
272.47	18.667
272.84	22.667
273.21	21.560
273.58	21.099
273.95	19.737
274.32	22.851
274.69	24.289
275.06	20.859
275.43	19.196
275.80	23.625
276.17	20.502
276.54	25.662
276.91	20.782
277.28	23.327
277.65	18.595
278.02	19.833
278.39	20.629
278.76	21.116
279.13	21.344
279.50	21.272
279.87	19.873
280.23	20.850
280.60	21.670
280.97	20.777
281.34	23.791
281.71	22.308
282.08	22.984
282.45	20.163
282.82	19.961
283.19	20.364
283.56	22.161
283.92	21.378
284.29	22.305
284.66	19.784
285.03	22.995
285.40	21.771
285.77	21.053
286.14	22.563
286.51	22.380
286.87	22.323
287.24	20.137
287.61	20.826
287.98	21.144
288.35	18.182
288.72	20.374
289.08	16.610
289.45	21.380
289.82	21.799
290.19	21.346
290.56	20.992
290.93	19.237
291.29	17.342
291.66	19.002
292.03	21.507
292.40	20.934
292.77	20.186
293.13	20.488
293.50	20.654
293.87	19.325
294.24	19.306
294.60	19.091
294.97	20.637
295.34	19.259
295.71	18.750
296.08	19.662
296.44	18.598
296.81	21.368
297.18	19.718
297.55	20.904
297.91	20.781
298.28	17.397
298.65	17.434
299.02	21.925
299.38	18.583
299.75	18.886
300.12	18.718
300.48	18.286
300.85	19.397
301.22	20.052
301.59	17.425
301.95	21.033
302.32	17.210
302.69	18.482
303.05	19.292
303.42	19.125
303.79	19.139
304.15	19.905
304.52	18.086
304.89	16.175
305.25	18.559
305.62	18.919
305.99	20.377
306.35	18.202
306.72	19.021
307.09	20.658
307.45	19.523
307.82	18.659
308.19	19.575
308.55	19.172
308.92	17.615
309.29	17.514
309.65	19.194
310.02	19.114
310.38	17.946
310.75	17.828
311.12	19.525
311.48	18.789
311.85	17.405
312.22	19.156
312.58	19.227
312.95	17.941
313.31	19.081
313.68	18.090
314.05	18.694
314.41	18.511
314.78	18.581
315.14	19.348
315.51	18.034
315.87	18.490
316.24	18.367
316.61	19.578
316.97	20.100
317.34	18.015
317.70	17.904
318.07	18.563
318.43	18.820
318.80	20.657
319.16	18.856
319.53	17.387
319.89	18.909
320.26	18.824
320.62	17.692
320.99	20.199
321.35	17.931
321.72	19.038
322.08	19.980
322.45	18.218
322.81	19.693
323.18	20.077
323.54	19.871
323.91	20.482
324.27	20.437
324.64	20.658
325.00	20.681
325.37	20.724
325.73	22.485
326.10	20.638
326.46	23.030
326.83	21.277
327.19	22.352
327.56	24.106
327.92	24.129
328.29	23.896
328.65	24.182
329.01	25.795
329.38	25.424
329.74	27.106
330.11	25.567
330.47	26.975
330.84	26.031
331.20	26.625
331.56	27.712
331.93	28.242
332.29	28.767
332.66	28.885
333.02	29.502
333.38	29.659
333.75	28.584
334.11	30.578
334.48	30.097
334.84	30.796
335.20	31.826
335.57	31.588
335.93	32.050
336.29	31.709
336.66	30.749
337.02	34.234
337.38	32.086
337.75	31.782
338.11	33.363
338.47	33.007
338.84	33.938
339.20	33.304
339.56	35.294
339.93	34.039
340.29	34.898
340.65	32.692
341.02	33.980
341.38	33.614
341.74	34.632
342.11	34.215
342.47	34.592
342.83	34.761
343.20	35.269
343.56	32.653
343.92	35.058
344.28	35.744
344.65	33.251
345.01	34.790
345.37	33.970
345.73	32.324
346.10	33.606
346.46	34.281
346.82	33.119
347.19	34.265
347.55	33.547
347.91	34.252
348.27	32.936
348.63	35.137
349.00	34.606
349.36	32.787
349.72	33.838
350.08	34.162
350.45	34.594
350.81	34.475
351.17	33.119
351.53	34.049
351.89	34.357
352.26	34.341
352.62	34.409
352.98	34.810
353.34	33.573
353.70	32.510
354.07	34.776
354.43	33.913
354.79	33.597
355.15	33.307
355.51	33.438
355.87	34.229
356.24	33.519
356.60	35.778
356.96	34.026
357.32	34.046
357.68	33.716
358.04	34.026
358.40	33.179
358.77	34.544
359.13	33.971
359.49	33.636
359.85	33.384
360.21	34.247
360.57	34.187
360.93	34.000
361.29	36.173
361.66	33.460
362.02	33.506
362.38	33.896
362.74	34.286
363.10	33.572
363.46	34.402
363.82	33.965
364.18	34.660
364.54	34.596
364.90	34.661
365.26	34.023
365.62	33.999
365.98	35.917
366.35	35.352
366.71	33.404
367.07	34.016
367.43	34.592
367.79	34.845
368.15	33.784
368.51	34.965
368.87	35.577
369.23	35.509
369.59	34.167
369.95	35.377
370.31	35.795
370.67	33.912
371.03	33.892
371.39	34.512
371.75	35.122
372.11	35.366
372.47	35.575
372.83	35.883
373.19	35.214
373.55	36.031
373.91	35.206
374.27	35.044
374.63	34.645
374.99	35.744
375.35	36.137
375.71	36.732
376.07	36.003
376.42	33.974
376.78	36.013
377.14	36.068
377.50	37.008
377.86	36.216
378.22	37.186
378.58	36.689
378.94	36.252
379.30	37.294
379.66	37.280
380.02	35.413
380.38	36.375
380.74	36.225
381.09	36.497
381.45	36.396
381.81	35.572
382.17	37.594
382.53	35.805
382.89	37.261
383.25	36.785
383.61	36.969
383.97	36.742
384.32	37.422
384.68	38.029
385.04	36.655
385.40	37.797
385.76	36.463
386.12	38.039
386.48	38.614
386.83	37.239
387.19	37.836
387.55	37.977
387.91	37.463
388.27	36.852
388.62	36.779
388.98	37.250
389.34	38.433
389.70	38.307
390.06	37.912
390.42	37.115
390.77	38.297
391.13	38.323
391.49	37.742
391.85	38.217
392.20	36.954
392.56	37.447
392.92	37.764
393.28	38.117
393.64	37.643
393.99	38.154
394.35	38.200
394.71	38.666
395.07	39.234
395.42	37.247
395.78	37.021
396.14	37.757
396.50	38.532
396.85	37.816
397.21	37.181
397.57	38.055
397.92	38.700
398.28	38.611
398.64	38.430
399.00	38.427
399.35	38.388
399.71	38.444
400.07	38.507
400.42	38.625
400.78	39.058
401.14	38.084
401.49	38.267
401.85	38.499
402.21	38.796
402.57	38.471
402.92	39.270
403.28	38.664
403.63	37.687
403.99	37.850
404.35	37.379
404.70	39.146
405.06	38.293
405.42	36.716
405.77	37.839
406.13	38.274
406.49	38.466
406.84	37.493
407.20	38.104
407.55	37.935
407.91	36.917
408.27	37.684
408.62	38.124
408.98	38.629
409.34	37.233
409.69	37.744
410.05	37.295
410.40	38.443
410.76	38.767
411.11	38.279
411.47	37.404
411.83	38.753
412.18	38.490
412.54	37.950
412.89	37.971
413.25	38.017
413.60	37.424
413.96	37.461
414.31	38.777
414.67	36.952
415.03	37.063
415.38	38.582
415.74	38.209
416.09	38.747
416.45	37.368
416.80	37.646
417.16	36.744
417.51	38.214
417.87	38.770
418.22	37.547
418.58	38.126
418.93	38.504
419.29	37.829
419.64	38.065
420.00	38.578
420.35	38.734
420.71	38.295
421.06	38.166
421.42	37.763
421.77	39.084
422.12	39.172
422.48	37.253
422.83	37.984
423.19	38.363
423.54	38.329
423.90	37.941
424.25	37.896
424.61	38.721
424.96	39.146
425.31	38.122
425.67	39.140
426.02	38.038
426.38	39.504
426.73	38.574
427.09	40.196
427.44	39.034
427.79	38.953
428.15	39.557
428.50	38.475
428.85	39.029
429.21	39.181
429.56	39.323
429.92	39.128
430.27	38.784
430.62	40.230
430.98	38.996
431.33	39.434
431.68	39.464
432.04	40.179
432.39	40.342
432.74	39.928
433.10	38.886
433.45	39.781
433.80	39.362
434.16	39.549
434.51	39.781
434.86	40.187
435.22	39.143
435.57	40.147
435.92	40.387
436.28	41.306
436.63	39.514
436.98	39.233
437.34	39.516
437.69	39.265
438.04	40.726
438.39	42.238
438.75	39.115
439.10	39.145
439.45	40.374
439.81	40.000
440.16	40.034
440.51	41.000
440.86	39.792
441.22	40.354
441.57	39.842
441.92	40.665
442.27	40.206
442.63	40.451
442.98	38.770
443.33	39.703
443.68	40.021
444.03	39.980
444.39	40.382
444.74	40.639
445.09	40.515
445.44	41.080
445.79	41.152
446.15	40.964
446.50	39.521
446.85	39.456
447.20	40.398
447.55	40.663
447.91	40.595
448.26	39.218
448.61	40.464
448.96	42.017
449.31	39.233
449.66	40.870
450.02	39.723
450.37	40.348
450.72	40.000
451.07	40.981
451.42	40.149
451.77	41.293
452.12	40.644
452.47	41.562
452.83	40.827
453.18	40.923
453.53	41.107
453.88	41.866
454.23	41.415
454.58	41.827
454.93	42.003
455.28	42.256
455.63	40.418
455.98	41.928
456.34	41.423
456.69	41.088
457.04	41.180
457.39	40.789
457.74	40.579
458.09	41.009
458.44	42.494
458.79	41.312
459.14	42.042
459.49	41.326
459.84	40.360
460.19	40.931
460.54	40.774
460.89	40.863
461.24	41.226
461.59	41.266
461.94	41.120
462.29	40.560
462.64	42.161
462.99	42.503
463.34	41.729
463.69	42.048
464.04	41.066
464.39	40.860
464.74	41.903
465.09	40.589
465.44	41.342
465.79	41.963
466.14	40.736
466.49	40.933
466.84	41.657
467.19	42.519
467.54	41.139
467.89	42.293
468.24	41.983
468.59	40.725
468.94	42.251
469.29	41.780
469.64	41.712
469.99	42.944
470.34	42.485
470.68	42.224
471.03	42.670
471.38	40.903
471.73	43.287
472.08	42.570
472.43	42.021
472.78	42.933
473.13	41.418
473.48	42.757
473.83	42.618
474.17	42.293
474.52	44.629
474.87	40.909
475.22	42.124
475.57	42.111
475.92	41.469
476.27	42.629
476.61	42.423
476.96	42.538
477.31	42.357
477.66	43.387
478.01	43.814
478.36	42.221
478.70	43.300
479.05	42.726
479.40	42.798
479.75	41.386
480.10	41.468
480.45	41.779
480.79	42.892
481.14	43.001
481.49	41.530
481.84	42.025
482.19	41.709
482.53	42.282
482.88	41.243
483.23	42.394
483.58	41.721
483.92	43.048
484.27	40.851
484.62	41.598
484.97	40.959
485.31	40.576
485.66	39.913
486.01	39.724
486.36	39.993
486.70	39.770
487.05	40.647
487.40	40.304
487.75	40.455
488.09	39.747
488.44	42.118
488.79	41.599
489.13	41.004
489.48	42.210
489.83	42.751
490.17	42.229
490.52	43.388
490.87	42.956
491.22	41.756
491.56	42.870
491.91	43.082
492.26	42.217
492.60	41.912
492.95	42.075
493.30	42.258
493.64	42.313
493.99	43.021
494.34	43.857
494.68	42.884
495.03	42.256
495.37	42.625
495.72	43.418
496.07	43.266
496.41	43.817
496.76	42.511
497.11	43.853
497.45	44.301
497.80	43.622
498.14	42.240
498.49	44.450
498.84	42.864
499.18	44.444
499.53	43.254
499.87	43.195
500.22	42.892
500.56	43.572
500.91	44.236
501.26	43.231
501.60	43.139
501.95	43.816
502.29	42.844
502.64	43.989
502.98	42.980
503.33	43.233
503.67	42.433
504.02	43.361
504.36	44.559
504.71	43.769
505.06	42.736
505.40	44.062
505.75	43.089
506.09	44.944
506.44	43.258
506.78	44.807
507.13	43.254
507.47	44.862
507.82	43.882
508.16	43.731
508.51	43.998
508.85	43.530
509.19	44.218
509.54	44.345
509.88	44.947
510.23	43.658
510.57	44.921
510.92	44.468
511.26	43.753
511.61	43.898
511.95	44.019
512.30	44.035
512.64	44.463
512.98	45.765
513.33	45.579
513.67	45.394
514.02	43.624
514.36	43.823
514.70	44.539
515.05	44.711
515.39	45.040
515.74	45.143
516.08	45.303
516.42	45.382
516.77	45.234
517.11	44.908
517.46	44.976
517.80	45.848
518.14	44.746
518.49	45.248
518.83	45.579
519.17	45.767
519.52	43.783
519.86	45.281
520.20	45.416
520.55	45.231
520.89	45.585
521.23	45.360
521.58	45.643
521.92	46.992
522.26	45.460
522.61	46.134
522.95	44.927
523.29	45.768
523.64	44.597
523.98	45.831
524.32	45.317
524.66	45.217
525.01	44.958
525.35	46.327
525.69	46.519
526.04	46.606
526.38	45.703
526.72	44.317
527.06	46.289
527.41	46.601
527.75	46.073
528.09	46.658
528.43	45.705
528.78	45.603
529.12	45.647
529.46	45.683
529.80	45.126
530.15	45.525
530.49	45.472
530.83	46.496
531.17	45.791
531.51	45.613
531.86	45.754
532.20	45.749
532.54	45.254
532.88	45.982
533.22	45.989
533.57	44.582
533.91	44.944
534.25	44.752
534.59	44.347
534.93	43.995
535.27	46.256
535.62	44.885
535.96	45.184
536.30	44.764
536.64	44.555
536.98	45.339
537.32	46.994
537.66	45.282
538.01	45.498
538.35	45.946
538.69	44.051
539.03	46.513
539.37	44.045
539.71	45.564
540.05	46.127
540.39	45.637
540.73	45.266
541.07	46.858
541.42	44.092
541.76	44.319
542.10	45.915
542.44	44.970
542.78	45.997
543.12	45.418
543.46	44.726
543.80	43.946
544.14	45.265
544.48	45.669
544.82	45.670
545.16	45.875
545.50	44.482
545.84	46.314
546.18	46.394
546.52	46.088
546.86	46.011
547.20	46.062
547.54	45.317
547.88	44.791
548.22	43.644
548.56	44.689
548.90	45.755
549.24	46.041
549.58	47.001
549.92	46.219
550.26	45.882
550.60	44.523
550.94	44.745
551.28	45.899
551.62	45.716
551.96	47.250
552.30	44.878
552.64	46.446
552.98	45.550
553.32	44.661
553.66	46.864
554.00	45.416
554.34	44.693
554.68	44.883
555.02	46.093
555.36	45.004
555.69	44.484
556.03	45.895
556.37	46.444
556.71	46.886
557.05	45.898
557.39	44.692
557.73	45.295
558.07	46.119
558.41	45.699
558.75	46.388
559.08	46.070
559.42	45.253
559.76	46.396
560.10	46.234
560.44	46.315
560.78	45.999
561.12	43.685
561.45	45.274
561.79	45.087
562.13	45.021
562.47	45.938
562.81	44.554
563.15	45.556
563.48	45.750
563.82	45.774
564.16	44.625
564.50	44.691
564.84	44.114
565.17	44.761
565.51	44.068
565.85	45.774
566.19	44.993
566.52	45.205
566.86	43.995
567.20	45.036
567.54	44.773
567.88	44.444
568.21	43.177
568.55	43.213
568.89	42.396
569.23	42.573
569.56	40.605
569.90	41.188
570.24	41.188
570.57	39.508
570.91	40.462
571.25	40.078
571.59	40.618
571.92	40.446
572.26	39.605
572.60	39.963
572.93	39.331
573.27	40.152
573.61	39.604
573.95	38.717
574.28	38.659
574.62	38.460
574.96	38.709
575.29	38.821
575.63	38.837
575.97	39.213
576.30	39.381
576.64	39.843
576.98	38.990
577.31	39.142
577.65	38.783
577.98	37.887
578.32	38.666
578.66	38.072
578.99	38.882
579.33	38.784
579.67	38.118
580.00	38.914
580.34	38.723
580.67	39.201
581.01	38.186
581.35	38.818
581.68	38.092
582.02	38.774
582.35	38.263
582.69	38.579
583.02	39.191
583.36	38.441
583.70	38.812
584.03	39.305
584.37	38.782
584.70	39.228
585.04	38.937
585.37	38.043
585.71	38.244
586.04	38.779
586.38	38.492
586.72	38.923
587.05	39.337
587.39	38.896
587.72	39.262
588.06	39.202
588.39	38.878
588.73	38.926
589.06	39.578
589.40	40.605
589.73	40.014
590.07	39.075
590.40	39.926
590.73	39.984
591.07	40.779
591.40	41.421
591.74	41.182
592.07	40.901
592.41	39.745
592.74	40.200
593.08	39.856
593.41	39.507
593.75	39.070
594.08	39.971
594.41	40.555
594.75	40.015
595.08	39.925
595.42	39.884
595.75	38.956
596.09	39.542
596.42	40.712
596.75	40.276
597.09	39.804
597.42	40.244
597.75	40.301
598.09	42.341
598.42	40.300
598.76	39.743
599.09	40.726
599.42	40.254
599.76	39.675
600.09	39.695
600.42	41.170
600.76	40.000
601.09	40.030
601.42	39.770
601.76	40.343
602.09	39.959
602.42	40.412
602.76	40.382
603.09	39.758
603.42	39.766
603.76	40.008
604.09	39.527
604.42	39.425
604.76	39.860
605.09	40.461
605.42	40.780
605.75	40.578
606.09	39.601
606.42	40.595
606.75	40.447
607.09	40.715
607.42	40.317
607.75	40.397
608.08	40.578
608.42	41.675
608.75	40.280
609.08	39.942
609.41	40.658
609.75	40.273
610.08	41.029
610.41	40.867
610.74	41.248
611.07	41.582
611.41	40.292
611.74	41.645
612.07	41.890
612.40	41.151
612.73	40.603
613.07	40.506
613.40	41.708
613.73	40.926
614.06	40.857
614.39	42.221
614.72	40.726
615.06	41.576
615.39	42.160
615.72	42.042
616.05	39.812
616.38	41.904
616.71	41.321
617.05	42.461
617.38	41.734
617.71	41.585
618.04	42.236
618.37	42.579
618.70	43.546
619.03	42.451
619.36	44.186
619.69	42.857
620.03	42.355
620.36	43.952
620.69	42.355
621.02	43.531
621.35	44.435
621.68	45.328
622.01	45.146
622.34	44.255
622.67	43.672
623.00	44.300
623.33	43.806
623.66	42.836
623.99	42.556
624.32	42.485
624.65	42.163
624.99	42.942
625.32	42.440
625.65	43.823
625.98	42.645
626.31	44.046
626.64	44.519
626.97	44.692
627.30	44.851
627.63	42.919
627.96	44.473
628.29	45.588
628.62	43.744
628.95	45.276
629.28	46.147
629.61	45.437
629.94	45.841
630.26	45.825
630.59	46.935
630.92	46.947
631.25	46.270
631.58	46.349
631.91	45.000
632.24	47.556
632.57	47.000
632.90	46.897
633.23	48.364
633.56	45.497
633.89	46.816
