SpectraSuite Data File
++++++++++++++++++++++++++++++++++++
Date: Sat May 16 11:15:12 PDT 2015
User: schluterlab
Dark Spectrum Present: Yes
Reference Spectrum Present: Yes
Number of Sampled Component Spectra: 1
Spectrometers: USB2E3373
Integration Time (usec): 3000 (USB2E3373)
Spectra Averaged: 3 (USB2E3373)
Boxcar Smoothing: 0 (USB2E3373)
Correct for Electrical Dark: No (USB2E3373)
Strobe/Lamp Enabled: No (USB2E3373)
Correct for Detector Non-linearity: No (USB2E3373)
Correct for Stray Light: No (USB2E3373)
Number of Pixels in Processed Spectrum: 2048
>>>>>Begin Processed Spectral Data<<<<<
178.53	0.000
178.91	120.000
179.29	466.667
179.67	-500.000
180.04	-84.615
180.42	-300.000
180.80	300.000
181.18	75.000
181.56	0.000
181.94	-500.000
182.31	300.000
182.69	-23.077
183.07	-333.333
183.45	1050.000
183.83	433.333
184.20	-57.143
184.58	12.500
184.96	-300.000
185.34	106.250
185.72	-250.000
186.09	250.000
186.47	-12.500
186.85	-62.500
187.23	0.000
187.61	125.000
187.98	-250.000
188.36	-37.500
188.74	-75.000
189.12	500.000
189.49	300.000
189.87	-16.667
190.25	200.000
190.63	-21.429
191.00	-144.444
191.38	320.000
191.76	46.667
192.14	500.000
192.51	-60.000
192.89	100.000
193.27	0.000
193.65	-122.222
194.02	-85.714
194.40	566.667
194.78	-40.000
195.15	600.000
195.53	-127.273
195.91	-350.000
196.29	280.000
196.66	-600.000
197.04	600.000
197.42	-25.000
197.79	26.667
198.17	66.667
198.55	-500.000
198.92	-1000.000
199.30	112.500
199.68	-150.000
200.05	-77.778
200.43	-144.444
200.81	-2000.000
201.18	-91.667
201.56	171.429
201.94	-33.333
202.31	27.273
202.69	80.000
203.07	0.000
203.44	600.000
203.82	-216.667
204.19	-300.000
204.57	50.000
204.95	0.000
205.32	-18.750
205.70	1100.000
206.08	-1500.000
206.45	22.222
206.83	-850.000
207.20	-500.000
207.58	-466.667
207.96	-66.667
208.33	-125.000
208.71	-22.222
209.08	100.000
209.46	-171.429
209.84	700.000
210.21	0.000
210.59	65.000
210.96	1300.000
211.34	-216.667
211.71	-333.333
212.09	325.000
212.46	650.000
212.84	-1000.000
213.22	500.000
213.59	141.667
213.97	0.000
214.34	70.000
214.72	10.000
215.09	-266.667
215.47	33.333
215.84	-80.000
216.22	40.000
216.59	13.333
216.97	-200.000
217.34	450.000
217.72	-42.857
218.09	-183.333
218.47	-142.857
218.84	128.571
219.22	85.714
219.59	0.000
219.97	328.571
220.34	250.000
220.72	162.500
221.09	15.385
221.47	0.000
221.84	100.000
222.22	-650.000
222.59	600.000
222.97	-62.500
223.34	0.000
223.72	-100.000
224.09	-42.857
224.46	-275.000
224.84	-35.714
225.21	-128.571
225.59	27.273
225.96	-162.500
226.34	71.429
226.71	-155.556
227.08	-40.000
227.46	1600.000
227.83	-85.714
228.21	-187.500
228.58	550.000
228.95	56.250
229.33	-1200.000
229.70	-340.000
230.08	-250.000
230.45	16.667
230.82	-150.000
231.20	-900.000
231.57	-250.000
231.95	1300.000
232.32	19.048
232.69	-200.000
233.07	-242.857
233.44	-700.000
233.81	-133.333
234.19	-100.000
234.56	-56.250
234.93	-21.875
235.31	-57.143
235.68	-42.857
236.05	-35.294
236.43	-50.000
236.80	-16.129
237.17	-33.333
237.55	-104.762
237.92	-40.909
238.29	-17.143
238.67	11.765
239.04	-5.556
239.41	-19.355
239.79	-15.385
240.16	-19.048
240.53	-7.273
240.91	-23.077
241.28	3.636
241.65	9.231
242.02	1.639
242.40	0.000
242.77	-4.545
243.14	-38.983
243.51	-28.571
243.89	-11.392
244.26	-5.618
244.63	2.105
245.00	-5.263
245.38	-4.237
245.75	2.655
246.12	-1.600
246.49	-6.299
246.87	-5.691
247.24	-10.169
247.61	-0.847
247.98	-5.634
248.36	-13.287
248.73	-1.266
249.10	-6.369
249.47	-4.094
249.84	-2.273
250.22	-8.929
250.59	-3.390
250.96	0.000
251.33	-0.948
251.70	3.365
252.08	-4.739
252.45	-5.213
252.82	-3.333
253.19	-0.851
253.56	-2.016
253.94	-0.844
254.31	-2.575
254.68	0.407
255.05	-4.032
255.42	1.587
255.79	-3.943
256.16	0.784
256.54	-1.103
256.91	-6.818
257.28	-5.495
257.65	-4.255
258.02	0.000
258.39	-4.013
258.76	-3.716
259.14	-1.235
259.51	-0.984
259.88	-0.610
260.25	-0.932
260.62	-3.537
260.99	-2.374
261.36	-1.220
261.73	0.289
262.10	1.389
262.47	-1.994
262.85	1.143
263.22	-1.719
263.59	-3.385
263.96	-0.580
264.33	0.542
264.70	1.934
265.07	-3.022
265.44	0.258
265.81	-1.809
266.18	-3.291
266.55	-1.225
266.92	0.756
267.29	-0.242
267.66	-2.469
268.03	2.174
268.40	1.408
268.77	-0.482
269.14	-0.232
269.51	0.920
269.88	-2.294
270.25	-5.361
270.62	0.229
270.99	-1.802
271.36	-2.564
271.73	-2.915
272.10	-0.686
272.47	-2.889
272.84	3.111
273.21	-0.688
273.58	-1.538
273.95	-1.535
274.32	-1.131
274.69	2.845
275.06	-0.613
275.43	-0.893
275.80	1.018
276.17	-1.883
276.54	3.259
276.91	-2.263
277.28	-0.406
277.65	-1.446
278.02	0.418
278.39	0.000
278.76	0.000
279.13	-1.779
279.50	-2.386
279.87	-0.634
280.23	-0.202
280.60	-1.193
280.97	-2.913
281.34	-2.128
281.71	0.769
282.08	0.000
282.45	-3.259
282.82	-0.194
283.19	0.545
283.56	0.733
283.92	0.353
284.29	-2.230
284.66	-1.079
285.03	1.248
285.40	1.107
285.77	0.351
286.14	0.722
286.51	-0.533
286.87	0.363
287.24	-0.683
287.61	1.322
287.98	-0.347
288.35	-1.488
288.72	-0.509
289.08	-2.712
289.45	-0.673
289.82	-0.865
290.19	0.821
290.56	-2.975
290.93	-0.477
291.29	-1.621
291.66	-2.738
292.03	0.314
292.40	-0.151
292.77	-0.466
293.13	-0.813
293.50	-1.486
293.87	-1.687
294.24	0.000
294.60	-2.424
294.97	0.759
295.34	-1.185
295.71	-0.446
296.08	-3.226
296.44	-2.575
296.81	0.427
297.18	-1.408
297.55	0.424
297.91	1.116
298.28	-0.822
298.65	-1.813
299.02	0.535
299.38	-0.401
299.75	0.136
300.12	0.897
300.48	0.000
300.85	-0.917
301.22	0.129
301.59	-1.300
301.95	1.134
302.32	-1.304
302.69	0.367
303.05	-0.244
303.42	-0.375
303.79	-0.120
304.15	-0.118
304.52	1.867
304.89	-0.826
305.25	-1.099
305.62	0.705
305.99	0.707
306.35	0.555
306.72	-0.342
307.09	1.249
307.45	-0.114
307.82	-0.894
308.19	0.112
308.55	0.109
308.92	0.967
309.29	0.108
309.65	-0.636
310.02	0.540
310.38	0.000
310.75	1.127
311.12	1.240
311.48	0.626
311.85	0.824
312.22	1.648
312.58	0.610
312.95	0.917
313.31	1.798
313.68	1.307
314.05	2.176
314.41	0.101
314.78	0.200
315.14	2.172
315.51	0.203
315.87	2.904
316.24	2.332
316.61	3.839
316.97	2.587
317.34	2.119
317.70	1.855
318.07	3.078
318.43	2.060
318.80	3.756
319.16	2.345
319.53	3.477
319.89	2.540
320.26	3.137
320.62	2.596
320.99	5.373
321.35	3.350
321.72	3.889
322.08	5.638
322.45	3.762
322.81	5.091
323.18	4.995
323.54	4.898
323.91	5.190
324.27	5.513
324.64	5.484
325.00	5.585
325.37	5.882
325.73	7.874
326.10	6.200
326.46	6.217
326.83	5.872
327.19	7.840
327.56	8.177
327.92	7.222
328.29	7.965
328.65	6.909
329.01	7.951
329.38	7.761
329.74	8.425
330.11	7.525
330.47	8.629
330.84	9.808
331.20	8.574
331.56	9.389
331.93	8.615
332.29	7.854
332.66	9.131
333.02	9.140
333.38	10.663
333.75	9.350
334.11	9.867
334.48	9.444
334.84	11.024
335.20	9.840
335.57	10.289
335.93	10.654
336.29	9.832
336.66	8.987
337.02	9.820
337.38	9.893
337.75	8.955
338.11	10.018
338.47	9.875
338.84	9.165
339.20	9.490
339.56	11.230
339.93	10.053
340.29	9.832
340.65	9.353
341.02	10.877
341.38	10.447
341.74	10.076
342.11	9.642
342.47	9.785
342.83	9.488
343.20	10.760
343.56	9.061
343.92	11.185
344.28	10.513
344.65	10.644
345.01	10.000
345.37	11.379
345.73	8.920
346.10	9.240
346.46	9.667
346.82	10.024
347.19	9.532
347.55	10.353
347.91	11.181
348.27	8.831
348.63	10.985
349.00	10.103
349.36	9.602
349.72	10.510
350.08	10.746
350.45	9.377
350.81	11.146
351.17	9.325
351.53	8.910
351.89	10.914
352.26	9.302
352.62	10.983
352.98	10.364
353.34	10.631
353.70	9.189
354.07	11.094
354.43	10.435
354.79	11.252
355.15	9.904
355.51	9.687
355.87	10.514
356.24	10.405
356.60	11.201
356.96	10.239
357.32	10.847
357.68	10.345
358.04	10.547
358.40	10.363
358.77	10.742
359.13	10.099
359.49	11.262
359.85	10.366
360.21	11.263
360.57	11.069
360.93	10.370
361.29	10.090
361.66	10.671
362.02	9.837
362.38	9.758
362.74	10.183
363.10	10.976
363.46	11.895
363.82	11.224
364.18	12.012
364.54	12.152
364.90	10.692
365.26	10.770
365.62	10.905
365.98	12.091
366.35	11.338
366.71	10.430
367.07	11.503
367.43	12.080
367.79	11.409
368.15	11.878
368.51	11.818
368.87	12.431
369.23	12.070
369.59	11.250
369.95	12.403
370.31	12.096
370.67	11.135
371.03	12.536
371.39	11.457
371.75	11.159
372.11	12.195
372.47	11.786
372.83	12.448
373.19	11.429
373.55	13.089
373.91	11.878
374.27	12.183
374.63	12.491
374.99	12.656
375.35	11.575
375.71	13.167
376.07	12.183
376.42	10.993
376.78	12.418
377.14	12.542
377.50	12.573
377.86	12.549
378.22	12.626
378.58	12.106
378.94	13.132
379.30	13.163
379.66	12.204
380.02	13.191
380.38	12.568
380.74	13.130
381.09	13.943
381.45	13.186
381.81	12.644
382.17	12.093
382.53	13.191
382.89	12.739
383.25	13.125
383.61	12.205
383.97	13.227
384.32	13.267
384.68	13.059
385.04	13.104
385.40	12.964
385.76	13.720
386.12	13.117
386.48	13.428
386.83	13.129
387.19	14.226
387.55	13.083
387.91	13.515
388.27	12.907
388.62	13.462
388.98	13.325
389.34	13.158
389.70	13.155
390.06	12.927
390.42	13.397
390.77	13.502
391.13	14.783
391.49	14.660
391.85	13.404
392.20	13.653
392.56	13.439
392.92	14.261
393.28	14.466
393.64	14.191
393.99	14.708
394.35	14.659
394.71	13.897
395.07	13.810
395.42	12.932
395.78	13.011
396.14	14.766
396.50	14.740
396.85	14.806
397.21	13.852
397.57	14.164
397.92	14.696
398.28	13.667
398.64	13.920
399.00	14.663
399.35	13.867
399.71	14.518
400.07	14.687
400.42	14.903
400.78	13.894
401.14	14.311
401.49	13.797
401.85	13.667
402.21	14.243
402.57	14.199
402.92	14.223
403.28	14.093
403.63	14.020
403.99	14.170
404.35	13.285
404.70	14.394
405.06	15.052
405.42	13.469
405.77	13.122
406.13	13.799
406.49	14.380
406.84	13.917
407.20	14.723
407.55	13.616
407.91	14.119
408.27	14.522
408.62	13.891
408.98	14.857
409.34	14.016
409.69	14.493
410.05	14.554
410.40	13.366
410.76	14.226
411.11	14.526
411.47	13.427
411.83	14.181
412.18	14.295
412.54	13.789
412.89	14.824
413.25	13.695
413.60	14.034
413.96	13.062
414.31	15.107
414.67	13.714
415.03	14.166
415.38	14.379
415.74	14.626
416.09	14.066
416.45	13.757
416.80	14.824
417.16	13.688
417.51	15.758
417.87	14.563
418.22	14.159
418.58	13.992
418.93	14.408
419.29	14.429
419.64	14.133
420.00	14.642
420.35	13.897
420.71	14.886
421.06	14.615
421.42	13.876
421.77	14.964
422.12	14.382
422.48	14.324
422.83	14.408
423.19	14.644
423.54	14.986
423.90	14.806
424.25	14.253
424.61	15.440
424.96	15.097
425.31	15.204
425.67	14.499
426.02	13.884
426.38	15.003
426.73	15.371
427.09	15.074
427.44	15.114
427.79	14.419
428.15	15.260
428.50	15.718
428.85	14.568
429.21	15.053
429.56	14.635
429.92	14.479
430.27	14.606
430.62	14.890
430.98	15.369
431.33	15.048
431.68	15.710
432.04	15.781
432.39	15.840
432.74	14.688
433.10	15.363
433.45	14.220
433.80	15.510
434.16	16.174
434.51	14.685
434.86	16.403
435.22	15.924
435.57	15.483
435.92	15.416
436.28	15.549
436.63	15.263
436.98	15.292
437.34	15.889
437.69	14.936
438.04	15.712
438.39	16.245
438.75	15.483
439.10	15.880
439.45	14.967
439.81	16.024
440.16	16.127
440.51	16.294
440.86	15.616
441.22	15.257
441.57	15.947
441.92	15.806
442.27	15.422
442.63	15.451
442.98	15.293
443.33	16.035
443.68	16.154
444.03	16.012
444.39	16.104
444.74	16.685
445.09	15.406
445.44	16.151
445.79	15.655
446.15	16.156
446.50	15.732
446.85	16.008
447.20	16.343
447.55	16.077
447.91	16.676
448.26	15.922
448.61	15.733
448.96	16.022
449.31	15.840
449.66	16.714
450.02	15.734
450.37	16.232
450.72	15.706
451.07	16.970
451.42	15.737
451.77	15.799
452.12	16.150
452.47	16.562
452.83	16.191
453.18	17.521
453.53	15.858
453.88	16.687
454.23	16.264
454.58	17.091
454.93	16.814
455.28	16.571
455.63	17.199
455.98	17.289
456.34	16.328
456.69	17.636
457.04	16.288
457.39	16.268
457.74	17.188
458.09	16.937
458.44	17.610
458.79	16.143
459.14	17.114
459.49	17.348
459.84	17.482
460.19	16.348
460.54	16.092
460.89	16.760
461.24	17.183
461.59	17.819
461.94	16.741
462.29	16.677
462.64	17.457
462.99	17.001
463.34	16.070
463.69	16.985
464.04	15.876
464.39	16.786
464.74	17.199
465.09	16.897
465.44	16.413
465.79	16.582
466.14	17.319
466.49	17.271
466.84	17.287
467.19	15.960
467.54	15.759
467.89	16.769
468.24	16.924
468.59	16.427
468.94	16.592
469.29	17.479
469.64	16.779
469.99	17.893
470.34	17.101
470.68	17.442
471.03	17.206
471.38	16.389
471.73	16.923
472.08	16.934
472.43	16.474
472.78	17.733
473.13	16.634
473.48	17.486
473.83	18.052
474.17	17.325
474.52	17.967
474.87	17.483
475.22	16.578
475.57	16.889
475.92	16.793
476.27	17.086
476.61	16.056
476.96	16.881
477.31	17.761
477.66	17.045
478.01	18.476
478.36	17.129
478.70	17.726
479.05	17.739
479.40	17.513
479.75	16.972
480.10	17.659
480.45	16.634
480.79	17.818
481.14	16.859
481.49	18.006
481.84	17.707
482.19	17.588
482.53	17.898
482.88	17.418
483.23	17.981
483.58	18.270
483.92	18.012
484.27	17.457
484.62	17.408
484.97	17.186
485.31	16.832
485.66	17.148
486.01	17.096
486.36	17.428
486.70	17.954
487.05	17.076
487.40	17.735
487.75	17.631
488.09	17.078
488.44	17.693
488.79	17.899
489.13	17.497
489.48	17.618
489.83	17.948
490.17	17.675
490.52	17.980
490.87	18.199
491.22	17.282
491.56	17.130
491.91	18.273
492.26	17.830
492.60	17.650
492.95	17.611
493.30	17.389
493.64	17.207
493.99	17.878
494.34	17.810
494.68	18.352
495.03	17.352
495.37	17.207
495.72	17.485
496.07	17.785
496.41	17.554
496.76	17.763
497.11	18.323
497.45	18.247
497.80	18.059
498.14	18.861
498.49	18.132
498.84	18.252
499.18	18.129
499.53	18.315
499.87	18.098
500.22	18.137
500.56	18.059
500.91	18.276
501.26	18.292
501.60	17.188
501.95	18.647
502.29	17.855
502.64	18.105
502.98	17.441
503.33	17.857
503.67	17.960
504.02	18.059
504.36	17.941
504.71	18.034
505.06	17.174
505.40	17.814
505.75	18.445
506.09	18.099
506.44	18.346
506.78	18.565
507.13	18.280
507.47	17.945
507.82	18.276
508.16	19.171
508.51	18.135
508.85	17.909
509.19	18.053
509.54	18.975
509.88	19.468
510.23	18.239
510.57	18.413
510.92	18.582
511.26	18.075
511.61	18.359
511.95	18.642
512.30	17.592
512.64	18.475
512.98	19.142
513.33	18.506
513.67	18.314
514.02	17.953
514.36	18.283
514.70	18.393
515.05	18.353
515.39	18.339
515.74	18.499
516.08	18.444
516.42	18.357
516.77	18.891
517.11	18.421
517.46	19.139
517.80	18.532
518.14	18.237
518.49	18.350
518.83	18.635
519.17	19.301
519.52	18.566
519.86	18.459
520.20	19.621
520.55	19.262
520.89	18.848
521.23	19.414
521.58	18.683
521.92	19.506
522.26	19.111
522.61	18.885
522.95	18.379
523.29	18.370
523.64	18.114
523.98	19.669
524.32	18.605
524.66	18.385
525.01	18.048
525.35	18.299
525.69	18.478
526.04	19.517
526.38	19.924
526.72	18.199
527.06	19.661
527.41	19.142
527.75	18.548
528.09	18.729
528.43	19.213
528.78	19.284
529.12	19.846
529.46	19.330
529.80	18.722
530.15	19.253
530.49	19.146
530.83	20.039
531.17	18.855
531.51	19.558
531.86	18.960
532.20	18.421
532.54	18.650
532.88	19.170
533.22	19.385
533.57	19.713
533.91	19.101
534.25	18.856
534.59	18.488
534.93	18.108
535.27	19.132
535.62	20.460
535.96	18.358
536.30	18.979
536.64	19.788
536.98	18.856
537.32	19.143
537.66	20.163
538.01	19.381
538.35	19.797
538.69	18.717
539.03	19.431
539.37	19.428
539.71	20.147
540.05	18.574
540.39	19.460
540.73	20.180
541.07	19.945
541.42	18.433
541.76	18.272
542.10	20.324
542.44	20.253
542.78	19.403
543.12	19.077
543.46	18.219
543.80	18.528
544.14	18.805
544.48	20.472
544.82	19.147
545.16	19.517
545.50	18.708
545.84	19.332
546.18	18.655
546.52	19.275
546.86	18.803
547.20	20.464
547.54	19.628
547.88	19.244
548.22	19.069
548.56	18.904
548.90	19.474
549.24	19.131
549.58	19.760
549.92	19.576
550.26	20.231
550.60	18.634
550.94	19.343
551.28	19.338
551.62	19.793
551.96	19.392
552.30	20.000
552.64	19.353
552.98	19.271
553.32	19.625
553.66	19.971
554.00	19.900
554.34	18.556
554.68	19.883
555.02	19.175
555.36	19.554
555.69	19.771
556.03	20.070
556.37	19.986
556.71	20.043
557.05	19.364
557.39	19.599
557.73	20.569
558.07	20.573
558.41	18.998
558.75	19.392
559.08	18.599
559.42	18.989
559.76	20.706
560.10	20.656
560.44	19.220
560.78	19.555
561.12	19.945
561.45	19.178
561.79	20.139
562.13	20.266
562.47	19.748
562.81	20.014
563.15	20.084
563.48	20.249
563.82	19.878
564.16	19.067
564.50	19.624
564.84	18.783
565.17	20.027
565.51	19.687
565.85	20.284
566.19	19.829
566.52	19.700
566.86	18.963
567.20	20.581
567.54	19.610
567.88	19.151
568.21	19.911
568.55	19.300
568.89	19.433
569.23	19.065
569.56	19.168
569.90	19.709
570.24	20.030
570.57	18.946
570.91	19.347
571.25	19.520
571.59	19.669
571.92	19.762
572.26	19.652
572.60	19.361
572.93	18.705
573.27	19.146
573.61	18.784
573.95	19.133
574.28	19.135
574.62	19.395
574.96	19.018
575.29	19.029
575.63	19.618
575.97	18.662
576.30	19.238
576.64	19.086
576.98	19.433
577.31	19.619
577.65	19.392
577.98	19.514
578.32	19.175
578.66	19.655
578.99	19.322
579.33	19.367
579.67	19.452
580.00	19.221
580.34	19.203
580.67	19.662
581.01	19.036
581.35	19.293
581.68	19.179
582.02	19.203
582.35	19.150
582.69	19.561
583.02	19.584
583.36	19.733
583.70	19.406
584.03	19.585
584.37	19.296
584.70	19.297
585.04	19.722
585.37	19.284
585.71	19.473
586.04	19.782
586.38	19.113
586.72	19.645
587.05	19.654
587.39	19.831
587.72	20.042
588.06	19.807
588.39	19.396
588.73	19.916
589.06	19.693
589.40	20.199
589.73	19.618
590.07	19.519
590.40	19.742
590.73	19.992
591.07	19.631
591.40	19.281
591.74	20.070
592.07	19.189
592.41	19.618
592.74	20.715
593.08	19.808
593.41	19.803
593.75	19.683
594.08	20.273
594.41	20.444
594.75	19.630
595.08	19.962
595.42	20.014
595.75	19.625
596.09	19.752
596.42	20.704
596.75	19.922
597.09	20.125
597.42	19.904
597.75	20.593
598.09	19.747
598.42	19.576
598.76	19.394
599.09	19.811
599.42	19.723
599.76	19.932
600.09	20.153
600.42	19.711
600.76	20.113
601.09	19.711
601.42	19.826
601.76	20.327
602.09	19.550
602.42	20.782
602.76	19.360
603.09	20.524
603.42	19.984
603.76	19.824
604.09	19.824
604.42	19.900
604.76	19.974
605.09	20.298
605.42	19.858
605.75	20.181
606.09	19.801
606.42	19.941
606.75	20.395
607.09	20.423
607.42	20.114
607.75	20.044
608.08	21.464
608.42	19.536
608.75	20.187
609.08	19.776
609.41	19.930
609.75	19.698
610.08	20.784
610.41	20.096
610.74	20.890
611.07	20.132
611.41	19.718
611.74	21.028
612.07	20.999
612.40	19.350
612.73	20.355
613.07	20.473
613.40	20.854
613.73	20.708
614.06	20.154
614.39	20.575
614.72	19.888
615.06	19.402
615.39	19.642
615.72	19.989
616.05	20.320
616.38	20.429
616.71	20.180
617.05	20.386
617.38	20.681
617.71	20.209
618.04	20.435
618.37	20.189
618.70	20.469
619.03	20.582
619.36	21.142
619.69	20.890
620.03	19.835
620.36	20.042
620.69	21.321
621.02	20.320
621.35	20.242
621.68	20.656
622.01	20.388
622.34	21.506
622.67	21.094
623.00	22.035
623.33	20.224
623.66	19.202
623.99	20.226
624.32	20.685
624.65	20.603
624.99	21.060
625.32	20.883
625.65	21.212
625.98	20.188
626.31	22.023
626.64	21.088
626.97	20.548
627.30	21.362
627.63	19.430
627.96	20.801
628.29	20.404
628.62	20.248
628.95	21.654
629.28	20.019
629.61	20.805
629.94	21.267
630.26	19.881
630.59	21.608
630.92	19.920
631.25	21.270
631.58	20.423
631.91	19.468
632.24	20.556
632.57	21.222
632.90	23.103
633.23	20.911
633.56	21.170
633.89	22.288
634.22	21.133
634.55	21.755
634.88	20.556
635.20	19.850
635.53	20.102
635.86	18.388
