SpectraSuite Data File
++++++++++++++++++++++++++++++++++++
Date: Sat May 16 11:47:35 PDT 2015
User: schluterlab
Dark Spectrum Present: Yes
Reference Spectrum Present: Yes
Number of Sampled Component Spectra: 1
Spectrometers: USB2E3373
Integration Time (usec): 3000 (USB2E3373)
Spectra Averaged: 3 (USB2E3373)
Boxcar Smoothing: 0 (USB2E3373)
Correct for Electrical Dark: No (USB2E3373)
Strobe/Lamp Enabled: No (USB2E3373)
Correct for Detector Non-linearity: No (USB2E3373)
Correct for Stray Light: No (USB2E3373)
Number of Pixels in Processed Spectrum: 2048
>>>>>Begin Processed Spectral Data<<<<<
178.53	0.000
178.91	93.333
179.29	500.000
179.67	-700.000
180.04	-130.769
180.42	700.000
180.80	375.000
181.18	475.000
181.56	-112.500
181.94	500.000
182.31	325.000
182.69	-84.615
183.07	-466.667
183.45	1800.000
183.83	366.667
184.20	-142.857
184.58	-162.500
184.96	-500.000
185.34	131.250
185.72	-450.000
186.09	166.667
186.47	-200.000
186.85	-125.000
187.23	-25.000
187.61	-125.000
187.98	-250.000
188.36	-87.500
188.74	-225.000
189.12	1700.000
189.49	357.143
189.87	-183.333
190.25	300.000
190.63	-71.429
191.00	-222.222
191.38	360.000
191.76	13.333
192.14	640.000
192.51	-500.000
192.89	-766.667
193.27	0.000
193.65	-88.889
194.02	-342.857
194.40	300.000
194.78	30.000
195.15	-1300.000
195.53	-163.636
195.91	-316.667
196.29	60.000
196.66	-500.000
197.04	2300.000
197.42	-25.000
197.79	-20.000
198.17	-433.333
198.55	-200.000
198.92	-200.000
199.30	250.000
199.68	-300.000
200.05	-122.222
200.43	-233.333
200.81	-900.000
201.18	-100.000
201.56	157.143
201.94	-46.667
202.31	-4.545
202.69	-80.000
203.07	-120.000
203.44	500.000
203.82	-316.667
204.19	-450.000
204.57	-75.000
204.95	-1200.000
205.32	-62.500
205.70	700.000
206.08	-1900.000
206.45	-61.111
206.83	-900.000
207.20	200.000
207.58	-433.333
207.96	-400.000
208.33	-50.000
208.71	-233.333
209.08	190.000
209.46	-357.143
209.84	-0.000
210.21	0.000
210.59	50.000
210.96	700.000
211.34	-183.333
211.71	-133.333
212.09	625.000
212.46	1250.000
212.84	-2300.000
213.22	333.333
213.59	66.667
213.97	-11.111
214.34	120.000
214.72	-90.000
215.09	-433.333
215.47	-183.333
215.84	-150.000
216.22	-140.000
216.59	6.667
216.97	-575.000
217.34	500.000
217.72	-71.429
218.09	-333.333
218.47	-214.286
218.84	185.714
219.22	-128.571
219.59	0.000
219.97	328.571
220.34	450.000
220.72	287.500
221.09	-107.692
221.47	0.000
221.84	633.333
222.22	-400.000
222.59	-0.000
222.97	-137.500
223.34	-900.000
223.72	-333.333
224.09	-21.429
224.46	-250.000
224.84	-42.857
225.21	-185.714
225.59	-145.455
225.96	-137.500
226.34	-28.571
226.71	-77.778
227.08	-10.000
227.46	1300.000
227.83	-100.000
228.21	-175.000
228.58	200.000
228.95	-18.750
229.33	-1500.000
229.70	-280.000
230.08	-1200.000
230.45	-16.667
230.82	-300.000
231.20	-1800.000
231.57	-350.000
231.95	2000.000
232.32	0.000
232.69	-144.444
233.07	-257.143
233.44	-950.000
233.81	-133.333
234.19	-244.444
234.56	-68.750
234.93	3.125
235.31	-314.286
235.68	-121.429
236.05	-105.882
236.43	-45.455
236.80	-35.484
237.17	-37.500
237.55	-52.381
237.92	-68.182
238.29	-51.429
238.67	-8.824
239.04	-2.778
239.41	-61.290
239.79	-51.282
240.16	-45.238
240.53	-16.364
240.91	-41.026
241.28	-16.364
241.65	4.615
242.02	-11.475
242.40	-29.508
242.77	-18.182
243.14	-30.508
243.51	-32.857
243.89	-3.797
244.26	-15.730
244.63	0.000
245.00	-11.579
245.38	-6.780
245.75	-6.195
246.12	-2.400
246.49	1.575
246.87	-1.626
247.24	-5.932
247.61	-11.017
247.98	-3.521
248.36	-4.196
248.73	5.696
249.10	-4.459
249.47	0.585
249.84	-0.568
250.22	-8.929
250.59	2.260
250.96	-3.141
251.33	2.370
251.70	-1.923
252.08	3.318
252.45	-3.318
252.82	-3.333
253.19	-0.426
253.56	3.629
253.94	1.688
254.31	0.000
254.68	4.065
255.05	-2.419
255.42	4.762
255.79	-0.717
256.16	-1.176
256.54	1.103
256.91	-0.379
257.28	-1.465
257.65	-2.837
258.02	3.145
258.39	1.672
258.76	-2.365
259.14	2.469
259.51	4.918
259.88	0.915
260.25	5.590
260.62	-0.322
260.99	0.593
261.36	3.354
261.73	6.069
262.10	3.889
262.47	2.849
262.85	4.857
263.22	3.725
263.59	-0.308
263.96	4.348
264.33	2.168
264.70	7.459
265.07	1.923
265.44	3.618
265.81	1.034
266.18	0.000
266.55	0.980
266.92	2.771
267.29	1.211
267.66	2.963
268.03	3.623
268.40	3.991
268.77	4.337
269.14	2.552
269.51	2.529
269.88	2.982
270.25	0.699
270.62	2.746
270.99	2.928
271.36	3.497
271.73	1.121
272.10	2.059
272.47	2.889
272.84	4.889
273.21	3.440
273.58	3.516
273.95	1.535
274.32	0.226
274.69	3.063
275.06	4.294
275.43	1.339
275.80	4.684
276.17	3.766
276.54	5.295
276.91	1.235
277.28	2.840
277.65	2.273
278.02	3.132
278.39	5.501
278.76	4.382
279.13	2.767
279.50	3.380
279.87	0.846
280.23	4.251
280.60	2.584
280.97	3.301
281.34	3.095
281.71	0.577
282.08	3.427
282.45	1.629
282.82	0.775
283.19	2.909
283.56	5.311
283.92	3.710
284.29	1.673
284.66	4.317
285.03	4.991
285.40	3.690
285.77	3.860
286.14	2.708
286.51	2.842
286.87	3.811
287.24	3.413
287.61	2.149
287.98	2.773
288.35	1.983
288.72	1.188
289.08	1.695
289.45	2.357
289.82	1.903
290.19	3.941
290.56	1.818
290.93	2.067
291.29	1.783
291.66	2.738
292.03	4.082
292.40	3.464
292.77	4.658
293.13	3.415
293.50	2.972
293.87	2.607
294.24	2.112
294.60	1.667
294.97	4.249
295.34	1.481
295.71	3.125
296.08	2.458
296.44	2.718
296.81	2.564
297.18	3.099
297.55	4.661
297.91	4.603
298.28	1.096
298.65	3.487
299.02	3.743
299.38	4.144
299.75	2.717
300.12	3.333
300.48	3.197
300.85	2.752
301.22	3.752
301.59	3.771
301.95	4.786
302.32	1.956
302.69	3.427
303.05	1.954
303.42	2.250
303.79	3.589
304.15	2.607
304.52	3.151
304.89	2.597
305.25	3.175
305.62	3.760
305.99	5.065
306.35	3.663
306.72	2.620
307.09	4.313
307.45	3.292
307.82	2.123
308.19	3.803
308.55	3.704
308.92	1.933
309.29	2.919
309.65	3.499
310.02	4.212
310.38	2.919
310.75	4.098
311.12	4.236
311.48	4.071
311.85	4.325
312.22	3.605
312.58	4.680
312.95	3.670
313.31	3.197
313.68	3.920
314.05	5.143
314.41	2.314
314.78	4.296
315.14	3.751
315.51	2.736
315.87	3.969
316.24	3.596
316.61	4.223
316.97	4.179
317.34	4.721
317.70	3.803
318.07	4.478
318.43	3.745
318.80	4.413
319.16	2.345
319.53	2.538
319.89	3.481
320.26	2.843
320.62	4.519
320.99	3.483
321.35	3.645
321.72	3.992
322.08	4.748
322.45	3.564
322.81	3.554
323.18	4.131
323.54	4.436
323.91	4.356
324.27	4.373
324.64	3.931
325.00	5.323
325.37	4.796
325.73	5.949
326.10	3.632
326.46	5.254
326.83	5.106
327.19	5.088
327.56	5.366
327.92	3.993
328.29	6.061
328.65	5.273
329.01	5.300
329.38	5.442
329.74	6.136
330.11	6.165
330.47	5.359
330.84	6.416
331.20	4.693
331.56	5.561
331.93	5.595
332.29	5.936
332.66	6.760
333.02	5.973
333.38	6.093
333.75	5.343
334.11	5.422
334.48	6.531
334.84	6.999
335.20	6.826
335.57	6.227
335.93	7.699
336.29	6.466
336.66	4.758
337.02	6.486
337.38	5.615
337.75	6.321
338.11	5.903
338.47	5.249
338.84	6.715
339.20	5.185
339.56	6.863
339.93	5.467
340.29	5.137
340.65	6.119
341.02	5.734
341.38	5.729
341.74	7.451
342.11	6.655
342.47	5.837
342.83	5.290
343.20	7.003
343.56	5.551
343.92	6.845
344.28	6.897
344.65	6.601
345.01	7.059
345.37	6.977
345.73	5.401
346.10	5.642
346.46	6.336
346.82	5.293
347.19	5.998
347.55	5.136
347.91	6.772
348.27	6.364
348.63	6.624
349.00	7.160
349.36	6.714
349.72	7.166
350.08	5.774
350.45	6.304
350.81	6.369
351.17	6.511
351.53	5.091
351.89	6.467
352.26	6.589
352.62	8.525
352.98	5.617
353.34	6.395
353.70	6.718
354.07	7.396
354.43	7.115
354.79	6.022
355.15	6.070
355.51	5.469
355.87	6.719
356.24	6.513
356.60	6.608
356.96	7.621
357.32	6.572
357.68	6.360
358.04	6.390
358.40	6.110
358.77	5.487
359.13	6.656
359.49	6.954
359.85	6.250
360.21	6.240
360.57	7.530
360.93	6.963
361.29	6.951
361.66	5.030
362.02	6.361
362.38	6.603
362.74	6.960
363.10	6.528
363.46	7.407
363.82	7.726
364.18	7.164
364.54	7.934
364.90	7.338
365.26	6.990
365.62	7.698
365.98	7.539
366.35	7.746
366.71	5.849
367.07	6.493
367.43	9.060
367.79	7.835
368.15	5.477
368.51	8.182
368.87	8.448
369.23	7.228
369.59	7.292
369.95	7.893
370.31	8.368
370.67	6.652
371.03	7.434
371.39	7.709
371.75	8.083
372.11	7.963
372.47	7.303
372.83	8.414
373.19	7.500
373.55	10.063
373.91	7.397
374.27	7.187
374.63	8.282
374.99	8.206
375.35	8.210
375.71	8.980
376.07	8.487
376.42	7.815
376.78	9.150
377.14	8.814
377.50	8.704
377.86	7.932
378.22	9.171
378.58	9.018
378.94	8.015
379.30	8.836
379.66	9.350
380.02	8.497
380.38	9.547
380.74	8.968
381.09	10.076
381.45	9.010
381.81	8.530
382.17	9.398
382.53	9.726
382.89	9.270
383.25	10.114
383.61	10.259
383.97	9.920
384.32	9.574
384.68	10.218
385.04	10.628
385.40	10.103
385.76	10.244
386.12	10.681
386.48	10.334
386.83	11.043
387.19	11.118
387.55	10.357
387.91	10.314
388.27	9.590
388.62	10.096
388.98	10.297
389.34	11.812
389.70	10.901
390.06	11.249
390.42	11.154
390.77	10.347
391.13	10.932
391.49	11.229
391.85	10.848
392.20	10.255
392.56	10.202
392.92	10.896
393.28	11.768
393.64	11.606
393.99	11.446
394.35	11.496
394.71	11.303
395.07	12.492
395.42	10.191
395.78	11.125
396.14	11.838
396.50	11.070
396.85	11.413
397.21	12.029
397.57	11.611
397.92	11.417
398.28	11.167
398.64	11.303
399.00	11.854
399.35	11.387
399.71	12.079
400.07	11.940
400.42	11.253
400.78	11.449
401.14	11.078
401.49	12.205
401.85	12.020
402.21	11.502
402.57	12.075
402.92	12.083
403.28	11.887
403.63	11.144
403.99	11.311
404.35	11.413
404.70	12.288
405.06	11.419
405.42	11.870
405.77	11.256
406.13	11.811
406.49	12.403
406.84	12.178
407.20	12.250
407.55	11.590
407.91	11.528
408.27	12.500
408.62	11.726
408.98	11.947
409.34	12.310
409.69	12.098
410.05	11.401
410.40	12.078
410.76	12.389
411.11	11.783
411.47	12.020
411.83	11.980
412.18	11.634
412.54	11.897
412.89	12.029
413.25	10.862
413.60	11.725
413.96	11.830
414.31	11.927
414.67	11.429
415.03	12.807
415.38	12.817
415.74	12.693
416.09	12.212
416.45	10.913
416.80	12.419
417.16	11.429
417.51	12.804
417.87	12.104
418.22	11.820
418.58	12.131
418.93	12.692
419.29	12.923
419.64	11.683
420.00	13.305
420.35	13.365
420.71	12.845
421.06	12.426
421.42	12.529
421.77	12.228
422.12	12.703
422.48	12.453
422.83	13.497
423.19	12.639
423.54	13.256
423.90	12.146
424.25	12.330
424.61	13.329
424.96	12.580
425.31	12.689
425.67	12.607
426.02	12.737
426.38	13.007
426.73	13.267
427.09	13.358
427.44	13.352
427.79	12.791
428.15	13.345
428.50	13.842
428.85	13.309
429.21	13.448
429.56	13.438
429.92	13.878
430.27	12.911
430.62	13.427
430.98	13.330
431.33	13.127
431.68	13.995
432.04	14.997
432.39	14.359
432.74	13.849
433.10	13.787
433.45	13.126
433.80	13.438
434.16	14.455
434.51	13.260
434.86	14.997
435.22	13.697
435.57	13.525
435.92	13.658
436.28	13.294
436.63	13.680
436.98	14.605
437.34	14.530
437.69	13.827
438.04	13.840
438.39	14.501
438.75	13.970
439.10	14.770
439.45	13.579
439.81	14.458
440.16	14.026
440.51	14.588
440.86	14.748
441.22	14.207
441.57	14.526
441.92	13.453
442.27	13.474
442.63	14.753
442.98	13.826
443.33	14.223
443.68	13.757
444.03	14.440
444.39	13.901
444.74	14.317
445.09	14.364
445.44	14.012
445.79	14.176
446.15	14.786
446.50	14.317
446.85	14.879
447.20	14.760
447.55	14.530
447.91	15.160
448.26	14.022
448.61	14.714
448.96	14.790
449.31	14.825
449.66	14.883
450.02	13.850
450.37	14.203
450.72	14.011
451.07	14.959
451.42	14.064
451.77	14.363
452.12	14.005
452.47	14.358
452.83	15.492
453.18	15.623
453.53	14.303
453.88	15.371
454.23	14.631
454.58	15.289
454.93	15.302
455.28	14.532
455.63	15.663
455.98	15.482
456.34	14.104
456.69	15.009
457.04	14.690
457.39	13.876
457.74	14.767
458.09	15.429
458.44	15.820
458.79	14.798
459.14	14.775
459.49	14.210
459.84	14.615
460.19	14.916
460.54	14.580
460.89	14.798
461.24	15.483
461.59	15.240
461.94	14.513
462.29	14.771
462.64	15.086
462.99	14.793
463.34	14.855
463.69	14.313
464.04	14.470
464.39	14.934
464.74	14.953
465.09	14.372
465.44	15.059
465.79	14.664
466.14	14.845
466.49	14.450
466.84	15.666
467.19	15.461
467.54	14.367
467.89	16.153
468.24	15.380
468.59	14.616
468.94	14.855
469.29	15.140
469.64	15.094
469.99	16.880
470.34	14.696
470.68	15.189
471.03	15.692
471.38	15.139
471.73	15.734
472.08	14.592
472.43	15.637
472.78	15.733
473.13	14.115
473.48	15.826
473.83	15.323
474.17	15.796
474.52	16.176
474.87	16.317
475.22	15.929
475.57	14.667
475.92	15.767
476.27	16.057
476.61	15.662
476.96	15.316
477.31	15.231
477.66	15.495
478.01	16.261
478.36	15.663
478.70	16.017
479.05	15.576
479.40	16.218
479.75	15.749
480.10	16.369
480.45	15.232
480.79	15.696
481.14	15.855
481.49	15.053
481.84	16.736
482.19	16.400
482.53	16.146
482.88	15.710
483.23	16.009
483.58	16.651
483.92	16.149
484.27	15.330
484.62	15.551
484.97	15.861
485.31	15.168
485.66	14.901
486.01	14.945
486.36	15.136
486.70	15.735
487.05	15.349
487.40	15.545
487.75	15.974
488.09	14.886
488.44	15.392
488.79	15.776
489.13	15.215
489.48	15.987
489.83	15.721
490.17	16.021
490.52	16.621
490.87	15.843
491.22	16.067
491.56	15.694
491.91	16.174
492.26	15.802
492.60	16.127
492.95	16.564
493.30	16.103
493.64	15.985
493.99	16.205
494.34	16.286
494.68	16.573
495.03	15.918
495.37	15.536
495.72	16.454
496.07	16.143
496.41	16.026
496.76	16.804
497.11	16.439
497.45	16.762
497.80	15.808
498.14	16.405
498.49	16.273
498.84	15.291
499.18	17.105
499.53	16.561
499.87	15.927
500.22	15.980
500.56	16.258
500.91	16.207
501.26	17.128
501.60	15.022
501.95	16.618
502.29	15.966
502.64	16.643
502.98	16.291
503.33	16.588
503.67	16.379
504.02	17.045
504.36	15.980
504.71	16.515
505.06	15.776
505.40	16.966
505.75	16.667
506.09	17.037
506.44	16.591
506.78	17.361
507.13	16.787
507.47	17.319
507.82	17.243
508.16	16.736
508.51	16.899
508.85	16.874
509.19	17.007
509.54	17.442
509.88	17.394
510.23	17.400
510.57	17.884
510.92	18.314
511.26	17.012
511.61	17.387
511.95	17.241
512.30	17.537
512.64	16.694
512.98	17.987
513.33	17.518
513.67	17.700
514.02	17.617
514.36	17.729
514.70	17.544
515.05	17.610
515.39	18.051
515.74	18.674
516.08	18.444
516.42	18.130
516.77	18.371
517.11	18.650
517.46	19.139
517.80	19.555
518.14	17.331
518.49	19.187
518.83	18.694
519.17	19.005
519.52	18.739
519.86	19.235
520.20	18.704
520.55	18.277
520.89	18.660
521.23	19.475
521.58	18.746
521.92	18.809
522.26	19.238
522.61	19.075
522.95	18.443
523.29	18.683
523.64	18.364
523.98	19.605
524.32	19.045
524.66	18.882
525.01	18.626
525.35	19.781
525.69	18.803
526.04	18.407
526.38	19.924
526.72	19.029
527.06	19.271
527.41	20.198
527.75	18.284
528.09	19.590
528.43	20.000
528.78	19.724
529.12	19.718
529.46	19.716
529.80	19.561
530.15	20.090
530.49	19.405
530.83	19.777
531.17	19.125
531.51	20.228
531.86	19.947
532.20	19.771
532.54	19.652
532.88	19.697
533.22	20.053
533.57	19.582
533.91	19.164
534.25	19.296
534.59	18.676
534.93	19.913
535.27	19.698
535.62	19.246
535.96	20.039
536.30	19.045
536.64	18.592
536.98	19.845
537.32	19.212
537.66	18.805
538.01	19.381
538.35	20.135
538.69	19.452
539.03	19.228
539.37	19.561
539.71	19.546
540.05	19.602
540.39	19.529
540.73	19.489
541.07	19.945
541.42	19.176
541.76	18.605
542.10	19.986
542.44	19.654
542.78	19.267
543.12	19.688
543.46	18.082
543.80	17.860
544.14	18.805
544.48	19.751
544.82	19.621
545.16	19.584
545.50	18.910
545.84	18.846
546.18	19.417
546.52	19.488
546.86	19.088
547.20	19.972
547.54	19.008
547.88	18.912
548.22	18.218
548.56	19.172
548.90	18.531
549.24	19.411
549.58	19.760
549.92	19.647
550.26	19.870
550.60	20.413
550.94	19.781
551.28	19.488
551.62	20.975
551.96	19.899
552.30	19.024
552.64	20.056
552.98	20.182
553.32	19.553
553.66	20.620
554.00	20.398
554.34	19.422
554.68	19.371
555.02	20.839
555.36	19.410
555.69	19.054
556.03	19.228
556.37	21.053
556.71	19.828
557.05	20.030
557.39	19.822
557.73	20.058
558.07	18.915
558.41	19.820
558.75	19.468
559.08	18.210
559.42	20.061
559.76	20.169
560.10	20.134
560.44	20.592
560.78	19.485
561.12	19.255
561.45	19.384
561.79	19.721
562.13	19.285
562.47	19.118
562.81	19.590
563.15	19.734
563.48	19.489
563.82	18.932
564.16	18.729
564.50	19.960
564.84	19.378
565.17	19.164
565.51	19.035
565.85	19.337
566.19	19.499
566.52	18.330
566.86	18.647
567.20	20.460
567.54	19.905
567.88	18.760
568.21	19.072
568.55	18.717
568.89	18.042
569.23	18.464
569.56	18.285
569.90	18.175
570.24	18.602
570.57	18.207
570.91	17.511
571.25	18.385
571.59	18.014
571.92	17.976
572.26	18.065
572.60	18.058
572.93	17.281
573.27	17.409
573.61	17.379
573.95	17.935
574.28	17.064
574.62	17.666
574.96	16.874
575.29	18.115
575.63	17.813
575.97	17.314
576.30	17.402
576.64	17.363
576.98	17.119
577.31	17.211
577.65	16.998
577.98	17.210
578.32	17.070
578.66	17.245
578.99	17.148
579.33	17.131
579.67	17.499
580.00	16.642
580.34	17.319
580.67	17.406
581.01	16.705
581.35	17.400
581.68	16.603
582.02	17.331
582.35	17.110
582.69	17.368
583.02	17.330
583.36	17.255
583.70	17.127
584.03	17.780
584.37	17.537
584.70	17.526
585.04	17.367
585.37	17.112
585.71	17.610
586.04	17.655
586.38	17.268
586.72	17.616
587.05	17.587
587.39	17.454
587.72	17.892
588.06	17.194
588.39	17.744
588.73	18.135
589.06	18.191
589.40	18.310
589.73	18.166
590.07	17.589
590.40	18.672
590.73	18.153
591.07	18.320
591.40	18.414
591.74	18.332
592.07	18.423
592.41	18.769
592.74	17.871
593.08	18.332
593.41	17.467
593.75	17.540
594.08	18.045
594.41	18.078
594.75	18.573
595.08	17.932
595.42	18.100
595.75	17.898
596.09	17.656
596.42	18.781
596.75	17.680
597.09	19.056
597.42	18.114
597.75	18.069
598.09	18.030
598.42	18.559
598.76	18.106
599.09	17.443
599.42	18.147
599.76	18.045
600.09	18.130
600.42	18.800
600.76	18.079
601.09	17.660
601.42	17.689
601.76	18.497
602.09	17.751
602.42	18.066
602.76	17.948
603.09	18.387
603.42	17.929
603.76	17.950
604.09	18.342
604.42	18.193
604.76	18.317
605.09	18.219
605.42	18.307
605.75	17.464
606.09	18.389
606.42	17.512
606.75	17.991
607.09	18.394
607.42	18.134
607.75	17.572
608.08	18.572
608.42	18.259
608.75	18.692
609.08	18.363
609.41	18.535
609.75	18.479
610.08	19.412
610.41	18.361
610.74	18.956
611.07	19.422
611.41	18.255
611.74	18.920
612.07	18.743
612.40	18.497
612.73	18.525
613.07	19.097
613.40	20.197
613.73	18.910
614.06	17.902
614.39	18.771
614.72	17.989
615.06	18.696
615.39	17.906
615.72	17.110
616.05	17.891
616.38	18.514
616.71	19.580
617.05	19.723
617.38	19.319
617.71	18.366
618.04	18.758
618.37	18.994
618.70	19.035
619.03	19.093
619.36	20.296
619.69	19.598
620.03	17.975
620.36	19.339
620.69	18.449
621.02	19.635
621.35	19.355
621.68	19.016
622.01	18.851
622.34	19.410
622.67	19.609
623.00	18.975
623.33	19.701
623.66	19.350
623.99	20.150
624.32	19.271
624.65	19.647
624.99	19.044
625.32	18.862
625.65	18.959
625.98	19.405
626.31	19.984
626.64	18.243
626.97	19.435
627.30	20.000
627.63	18.135
627.96	19.843
628.29	18.382
628.62	19.293
628.95	21.457
629.28	20.301
629.61	20.412
629.94	21.834
630.26	21.571
630.59	21.407
630.92	19.419
631.25	20.665
631.58	20.952
631.91	20.106
632.24	21.222
632.57	21.556
632.90	19.080
633.23	21.612
633.56	20.234
633.89	20.401
634.22	21.015
634.55	20.913
634.88	19.468
635.20	20.350
635.53	20.356
635.86	20.151
636.19	19.536
636.52	20.072
636.85	19.856
637.18	17.875
637.51	21.066
637.83	20.506
638.16	20.526
638.49	20.414
638.82	20.335
639.15	21.141
