SpectraSuite Data File
++++++++++++++++++++++++++++++++++++
Date: Sat May 16 11:47:47 PDT 2015
User: schluterlab
Dark Spectrum Present: Yes
Reference Spectrum Present: Yes
Number of Sampled Component Spectra: 1
Spectrometers: USB2E3373
Integration Time (usec): 3000 (USB2E3373)
Spectra Averaged: 3 (USB2E3373)
Boxcar Smoothing: 0 (USB2E3373)
Correct for Electrical Dark: No (USB2E3373)
Strobe/Lamp Enabled: No (USB2E3373)
Correct for Detector Non-linearity: No (USB2E3373)
Correct for Stray Light: No (USB2E3373)
Number of Pixels in Processed Spectrum: 2048
>>>>>Begin Processed Spectral Data<<<<<
178.53	0.000
178.91	146.667
179.29	600.000
179.67	-1200.000
180.04	-130.769
180.42	400.000
180.80	250.000
181.18	325.000
181.56	87.500
181.94	800.000
182.31	400.000
182.69	-61.538
183.07	-366.667
183.45	1300.000
183.83	266.667
184.20	-171.429
184.58	-212.500
184.96	-450.000
185.34	131.250
185.72	-575.000
186.09	166.667
186.47	-212.500
186.85	-200.000
187.23	25.000
187.61	0.000
187.98	-262.500
188.36	-25.000
188.74	-62.500
189.12	900.000
189.49	271.429
189.87	-41.667
190.25	550.000
190.63	-57.143
191.00	-88.889
191.38	180.000
191.76	-13.333
192.14	600.000
192.51	60.000
192.89	-166.667
193.27	0.000
193.65	-166.667
194.02	-14.286
194.40	566.667
194.78	-40.000
195.15	-900.000
195.53	-90.909
195.91	-233.333
196.29	160.000
196.66	-733.333
197.04	2600.000
197.42	-100.000
197.79	53.333
198.17	-266.667
198.55	-1000.000
198.92	-900.000
199.30	262.500
199.68	-350.000
200.05	-133.333
200.43	-200.000
200.81	-700.000
201.18	-83.333
201.56	228.571
201.94	-26.667
202.31	68.182
202.69	30.000
203.07	-90.000
203.44	833.333
203.82	-400.000
204.19	-375.000
204.57	-350.000
204.95	-300.000
205.32	-62.500
205.70	1400.000
206.08	-1800.000
206.45	5.556
206.83	-1200.000
207.20	300.000
207.58	-800.000
207.96	-833.333
208.33	-162.500
208.71	-111.111
209.08	220.000
209.46	-157.143
209.84	650.000
210.21	0.000
210.59	30.000
210.96	800.000
211.34	-333.333
211.71	100.000
212.09	275.000
212.46	950.000
212.84	-1500.000
213.22	666.667
213.59	133.333
213.97	22.222
214.34	190.000
214.72	-170.000
215.09	-500.000
215.47	-333.333
215.84	-50.000
216.22	-210.000
216.59	13.333
216.97	-375.000
217.34	700.000
217.72	-157.143
218.09	0.000
218.47	-185.714
218.84	185.714
219.22	-185.714
219.59	0.000
219.97	142.857
220.34	425.000
220.72	200.000
221.09	-46.154
221.47	0.000
221.84	433.333
222.22	250.000
222.59	1000.000
222.97	-225.000
223.34	-700.000
223.72	33.333
224.09	-85.714
224.46	-225.000
224.84	-57.143
225.21	-142.857
225.59	-54.545
225.96	-87.500
226.34	-171.429
226.71	-77.778
227.08	-40.000
227.46	1400.000
227.83	-42.857
228.21	-250.000
228.58	-0.000
228.95	-100.000
229.33	-2100.000
229.70	-260.000
230.08	-550.000
230.45	-16.667
230.82	-116.667
231.20	-1100.000
231.57	-500.000
231.95	1600.000
232.32	14.286
232.69	-166.667
233.07	-185.714
233.44	-600.000
233.81	6.667
234.19	-22.222
234.56	-56.250
234.93	9.375
235.31	-228.571
235.68	-107.143
236.05	35.294
236.43	-13.636
236.80	0.000
237.17	8.333
237.55	0.000
237.92	-45.455
238.29	0.000
238.67	0.000
239.04	19.444
239.41	12.903
239.79	-17.949
240.16	9.524
240.53	-9.091
240.91	-2.564
241.28	12.727
241.65	26.154
242.02	11.475
242.40	6.557
242.77	4.545
243.14	13.559
243.51	4.286
243.89	35.443
244.26	21.348
244.63	36.842
245.00	28.421
245.38	27.119
245.75	22.124
246.12	23.200
246.49	21.260
246.87	22.764
247.24	25.424
247.61	21.186
247.98	16.197
248.36	20.280
248.73	29.114
249.10	24.204
249.47	29.825
249.84	26.705
250.22	20.238
250.59	23.729
250.96	20.419
251.33	28.436
251.70	25.000
252.08	29.858
252.45	21.327
252.82	27.143
253.19	25.957
253.56	24.194
253.94	31.646
254.31	31.330
254.68	26.829
255.05	24.597
255.42	30.159
255.79	24.373
256.16	28.235
256.54	31.618
256.91	26.515
257.28	23.077
257.65	29.078
258.02	27.358
258.39	30.100
258.76	26.689
259.14	28.704
259.51	31.803
259.88	28.354
260.25	35.093
260.62	26.367
260.99	23.442
261.36	30.793
261.73	28.902
262.10	29.444
262.47	29.060
262.85	28.286
263.22	27.794
263.59	26.769
263.96	26.667
264.33	30.352
264.70	27.624
265.07	27.747
265.44	24.031
265.81	25.840
266.18	25.570
266.55	25.980
266.92	31.234
267.29	29.782
267.66	29.877
268.03	31.643
268.40	26.761
268.77	30.602
269.14	25.058
269.51	29.195
269.88	27.294
270.25	23.776
270.62	28.375
270.99	25.676
271.36	25.641
271.73	29.148
272.10	24.943
272.47	27.556
272.84	29.333
273.21	28.670
273.58	26.593
273.95	26.535
274.32	29.864
274.69	32.604
275.06	28.425
275.43	26.563
275.80	30.957
276.17	27.824
276.54	29.124
276.91	27.572
277.28	26.775
277.65	27.479
278.02	28.184
278.39	29.077
278.76	27.092
279.13	27.075
279.50	29.225
279.87	26.638
280.23	27.733
280.60	26.243
280.97	28.738
281.34	27.466
281.71	29.038
282.08	28.831
282.45	26.680
282.82	28.488
283.19	26.909
283.56	26.740
283.92	27.208
284.29	27.138
284.66	25.000
285.03	29.234
285.40	26.937
285.77	28.947
286.14	27.437
286.51	27.176
286.87	27.405
287.24	27.986
287.61	24.132
287.98	27.903
288.35	26.116
288.72	26.655
289.08	24.068
289.45	27.609
289.82	25.779
290.19	27.586
290.56	24.628
290.93	24.642
291.29	25.284
291.66	25.282
292.03	26.845
292.40	24.699
292.77	24.689
293.13	24.553
293.50	25.706
293.87	24.387
294.24	24.434
294.60	24.242
294.97	24.886
295.34	22.963
295.71	25.149
296.08	22.273
296.44	24.464
296.81	22.792
297.18	25.493
297.55	24.576
297.91	24.965
298.28	23.699
298.65	21.199
299.02	24.198
299.38	22.059
299.75	21.060
300.12	22.949
300.48	23.529
300.85	22.936
301.22	22.898
301.59	22.107
301.95	24.181
302.32	21.643
302.69	20.441
303.05	21.978
303.42	22.000
303.79	22.368
304.15	21.682
304.52	22.754
304.89	21.842
305.25	22.222
305.62	19.976
305.99	23.439
306.35	20.977
306.72	21.640
307.09	22.474
307.45	21.339
307.82	19.553
308.19	21.588
308.55	20.261
308.92	18.797
309.29	22.486
309.65	21.209
310.02	22.786
310.38	22.378
310.75	22.029
311.12	22.314
311.48	21.086
311.85	21.730
312.22	21.215
312.58	22.991
312.95	20.999
313.31	23.077
313.68	23.819
314.05	22.156
314.41	20.825
314.78	21.479
315.14	23.396
315.51	22.188
315.87	23.233
316.24	21.672
316.61	22.937
316.97	25.174
317.34	23.121
317.70	22.727
318.07	22.948
318.43	22.285
318.80	23.099
319.16	23.265
319.53	23.120
319.89	22.201
320.26	22.843
320.62	22.981
320.99	21.891
321.35	22.069
321.72	22.620
322.08	22.948
322.45	23.069
322.81	23.919
323.18	24.880
323.54	23.567
323.91	24.282
324.27	24.240
324.64	25.137
325.00	26.353
325.37	27.149
325.73	26.772
326.10	26.218
326.46	27.758
326.83	28.255
327.19	26.856
327.56	29.046
327.92	28.292
328.29	29.610
328.65	29.909
329.01	30.919
329.38	30.508
329.74	32.692
330.11	31.097
330.47	32.243
330.84	32.356
331.20	32.130
331.56	33.364
331.93	32.593
332.29	34.612
332.66	34.592
333.02	35.928
333.38	36.111
333.75	35.441
334.11	35.822
334.48	35.040
334.84	35.521
335.20	35.106
335.57	37.996
335.93	37.243
336.29	36.492
336.66	33.833
337.02	35.676
337.38	36.631
337.75	36.611
338.11	35.868
338.47	36.299
338.84	37.114
339.20	35.501
339.56	36.898
339.93	36.596
340.29	36.492
340.65	36.888
341.02	35.750
341.38	35.973
341.74	36.918
342.11	37.287
342.47	36.910
342.83	35.600
343.20	37.660
343.56	34.531
343.92	37.062
344.28	37.258
344.65	36.386
345.01	36.639
345.37	36.877
345.73	36.498
346.10	35.568
346.46	37.206
346.82	36.006
347.19	36.730
347.55	35.554
347.91	37.165
348.27	35.640
348.63	37.157
349.00	36.913
349.36	35.519
349.72	36.465
350.08	37.129
350.45	35.619
350.81	36.704
351.17	36.254
351.53	36.595
351.89	36.378
352.26	36.124
352.62	36.482
352.98	36.155
353.34	36.851
353.70	34.981
354.07	36.821
354.43	35.810
354.79	36.450
355.15	36.422
355.51	37.344
355.87	37.866
356.24	36.060
356.60	37.228
356.96	36.644
357.32	36.025
357.68	35.326
358.04	36.567
358.40	36.272
358.77	36.553
359.13	36.802
359.49	37.188
359.85	36.890
360.21	35.769
360.57	37.425
360.93	37.259
361.29	36.771
361.66	35.518
362.02	36.095
362.38	37.197
362.74	37.802
363.10	36.011
363.46	38.034
363.82	36.370
364.18	36.469
364.54	38.313
364.90	36.548
365.26	36.591
365.62	37.919
365.98	38.265
366.35	37.113
366.71	35.800
367.07	36.344
367.43	38.367
367.79	36.976
368.15	36.771
368.51	37.273
368.87	37.157
369.23	36.702
369.59	37.708
369.95	37.562
370.31	38.467
370.67	36.949
371.03	38.265
371.39	38.967
371.75	38.269
372.11	38.164
372.47	38.250
372.83	37.691
373.19	37.714
373.55	38.001
373.91	39.047
374.27	38.604
374.63	38.647
374.99	39.499
375.35	38.358
375.71	39.568
376.07	39.014
376.42	38.411
376.78	39.869
377.14	39.525
377.50	39.587
377.86	39.402
378.22	39.070
378.58	39.778
378.94	39.642
379.30	38.757
379.66	40.255
380.02	39.335
380.38	40.725
380.74	39.683
381.09	39.660
381.45	41.348
381.81	39.927
382.17	40.539
382.53	40.061
382.89	40.730
383.25	40.036
383.61	40.566
383.97	41.212
384.32	40.363
384.68	40.568
385.04	40.278
385.40	39.927
385.76	41.280
386.12	41.162
386.48	41.027
386.83	41.411
387.19	41.423
387.55	41.248
387.91	39.834
388.27	40.470
388.62	40.805
388.98	41.127
389.34	41.065
389.70	40.682
390.06	41.330
390.42	43.205
390.77	42.082
391.13	42.609
391.49	42.483
391.85	41.958
392.20	40.716
392.56	42.211
392.92	42.042
393.28	42.939
393.64	42.694
393.99	42.523
394.35	41.788
394.71	42.001
395.07	43.126
395.42	42.074
395.78	41.609
396.14	43.489
396.50	43.242
396.85	43.307
397.21	41.920
397.57	42.492
397.92	42.272
398.28	42.833
398.64	43.308
399.00	42.921
399.35	42.277
399.71	43.612
400.07	44.358
400.42	43.431
400.78	43.232
401.14	43.713
401.49	43.986
401.85	44.234
402.21	44.815
402.57	43.386
402.92	43.990
403.28	43.627
403.63	42.181
403.99	42.573
404.35	43.357
404.70	43.768
405.06	44.694
405.42	43.296
405.77	43.382
406.13	42.533
406.49	44.278
406.84	43.911
407.20	43.581
407.55	43.635
407.91	43.070
408.27	44.485
408.62	43.596
408.98	43.420
409.34	43.876
409.69	44.108
410.05	44.087
410.40	43.899
410.76	44.339
411.11	45.200
411.47	44.246
411.83	44.927
412.18	43.750
412.54	44.966
412.89	44.471
413.25	43.684
413.60	43.135
413.96	43.130
414.31	44.281
414.67	44.698
415.03	44.631
415.38	44.697
415.74	45.361
416.09	44.885
416.45	45.503
416.80	44.928
417.16	43.920
417.51	44.911
417.87	44.660
418.22	45.070
418.58	45.058
418.93	45.616
419.29	45.295
419.64	44.410
420.00	45.990
420.35	45.949
420.71	45.558
421.06	44.734
421.42	45.726
421.77	46.008
422.12	45.943
422.48	45.056
422.83	45.729
423.19	45.768
423.54	46.167
423.90	46.096
424.25	45.475
424.61	46.562
424.96	47.572
425.31	45.780
425.67	46.246
426.02	45.898
426.38	47.066
426.73	47.049
427.09	46.691
427.44	46.023
427.79	46.744
428.15	47.816
428.50	47.449
428.85	47.242
429.21	47.316
429.56	46.198
429.92	47.144
430.27	46.959
430.62	47.388
430.98	46.681
431.33	47.439
431.68	48.311
432.04	49.804
432.39	47.464
432.74	47.242
433.10	47.721
433.45	47.899
433.80	48.040
434.16	47.501
434.51	49.096
434.86	49.385
435.22	48.051
435.57	48.348
435.92	48.242
436.28	47.774
436.63	47.654
436.98	47.423
437.34	48.612
437.69	48.541
438.04	48.951
438.39	49.278
438.75	47.963
439.10	48.140
439.45	49.185
439.81	49.518
440.16	50.028
440.51	50.529
440.86	48.641
441.22	48.425
441.57	48.421
441.92	48.798
442.27	48.593
442.63	49.303
442.98	48.646
443.33	49.314
443.68	48.880
444.03	49.018
444.39	48.605
444.74	48.954
445.09	49.397
445.44	49.690
445.79	49.975
446.15	49.069
446.50	49.211
446.85	49.256
447.20	49.796
447.55	50.552
447.91	50.533
448.26	49.218
448.61	50.368
448.96	50.924
449.31	50.056
449.66	49.971
450.02	49.474
450.37	50.319
450.72	49.605
451.07	50.534
451.42	49.442
451.77	50.688
452.12	50.894
452.47	50.189
452.83	50.786
453.18	50.854
453.53	50.311
453.88	51.495
454.23	49.577
454.58	52.455
454.93	51.196
455.28	50.988
455.63	51.597
455.98	52.108
456.34	50.635
456.69	51.470
457.04	51.875
457.39	51.316
457.74	51.861
458.09	50.870
458.44	51.559
458.79	50.785
459.14	51.055
459.49	51.806
459.84	51.377
460.19	51.313
460.54	50.212
460.89	51.794
461.24	51.305
461.59	51.231
461.94	51.432
462.29	52.174
462.64	52.767
462.99	52.477
463.34	52.194
463.69	51.845
464.04	49.619
464.39	51.673
464.74	50.355
465.09	50.271
465.44	51.889
465.79	51.720
466.14	50.978
466.49	51.698
466.84	51.921
467.19	51.621
467.54	50.949
467.89	52.158
468.24	51.188
468.59	51.405
468.94	52.154
469.29	51.787
469.64	50.943
469.99	51.857
470.34	52.438
470.68	52.689
471.03	51.824
471.38	52.986
471.73	53.007
472.08	53.748
472.43	51.995
472.78	52.267
473.13	52.684
473.48	52.712
473.83	53.040
474.17	53.248
474.52	54.284
474.87	52.273
475.22	52.448
475.57	51.944
475.92	52.592
476.27	52.857
476.61	52.000
476.96	53.102
477.31	51.884
477.66	52.850
478.01	53.323
478.36	52.122
478.70	53.017
479.05	53.705
479.40	52.642
479.75	51.733
480.10	52.381
480.45	51.306
480.79	53.307
481.14	54.039
481.49	52.275
481.84	52.473
482.19	52.490
482.53	53.456
482.88	53.109
483.23	52.160
483.58	51.943
483.92	53.177
484.27	51.484
484.62	52.527
484.97	52.650
485.31	50.304
485.66	49.381
486.01	49.246
486.36	51.206
486.70	51.849
487.05	51.009
487.40	51.362
487.75	50.618
488.09	50.247
488.44	51.015
488.79	51.786
489.13	51.426
489.48	52.080
489.83	52.489
490.17	52.852
490.52	53.125
490.87	53.164
491.22	52.966
491.56	53.704
491.91	53.197
492.26	53.491
492.60	52.854
492.95	52.499
493.30	53.597
493.64	52.562
493.99	54.111
494.34	53.667
494.68	54.728
495.03	53.107
495.37	53.884
495.72	54.077
496.07	52.980
496.41	54.145
496.76	53.699
497.11	53.368
497.45	53.017
497.80	53.777
498.14	53.291
498.49	53.943
498.84	53.447
499.18	53.947
499.53	53.872
499.87	52.992
500.22	54.363
500.56	54.127
500.91	53.941
501.26	54.003
501.60	52.817
501.95	54.976
502.29	52.622
502.64	53.182
502.98	54.145
503.33	53.853
503.67	53.400
504.02	54.225
504.36	53.873
504.71	53.749
505.06	54.269
505.40	54.391
505.75	54.319
506.09	54.196
506.44	53.885
506.78	54.441
507.13	53.141
507.47	54.721
507.82	53.588
508.16	53.990
508.51	53.065
508.85	54.710
509.19	53.741
509.54	54.915
509.88	54.628
510.23	54.455
510.57	55.079
510.92	56.122
511.26	54.811
511.61	55.994
511.95	53.879
512.30	54.371
512.64	53.868
512.98	55.281
513.33	54.970
513.67	54.327
514.02	53.915
514.36	55.125
514.70	54.726
515.05	55.517
515.39	54.787
515.74	56.952
516.08	54.697
516.42	54.561
516.77	54.824
517.11	54.462
517.46	55.263
517.80	55.174
518.14	54.046
518.49	56.246
518.83	55.015
519.17	55.299
519.52	54.714
519.86	55.317
520.20	56.601
520.55	54.646
520.89	55.166
521.23	55.189
521.58	55.298
521.92	55.478
522.26	55.873
522.61	55.323
522.95	56.350
523.29	56.364
523.64	54.778
523.98	56.015
524.32	54.808
524.66	55.155
525.01	56.134
525.35	54.768
525.69	55.953
526.04	56.005
526.38	56.334
526.72	55.109
527.06	55.664
527.41	55.908
527.75	54.521
528.09	55.989
528.43	54.951
528.78	54.585
529.12	57.170
529.46	56.765
529.80	55.778
530.15	55.441
530.49	55.886
530.83	56.320
531.17	54.815
531.51	55.191
531.86	53.720
532.20	55.938
532.54	55.080
532.88	55.534
533.22	55.882
533.57	55.679
533.91	54.994
534.25	54.808
534.59	54.653
534.93	55.072
535.27	53.933
535.62	55.307
535.96	54.299
536.30	54.843
536.64	56.441
536.98	56.568
537.32	56.185
537.66	55.193
538.01	55.739
538.35	55.338
538.69	54.545
539.03	55.247
539.37	55.023
539.71	55.037
540.05	55.517
540.39	56.371
540.73	55.909
541.07	55.738
541.42	54.760
541.76	54.086
542.10	54.895
542.44	53.498
542.78	54.342
543.12	55.397
543.46	53.356
543.80	54.247
544.14	53.660
544.48	53.871
544.82	54.871
545.16	54.259
545.50	53.567
545.84	53.964
546.18	54.022
546.52	54.410
546.86	54.915
547.20	55.134
547.54	53.926
547.88	53.550
548.22	53.408
548.56	53.574
548.90	54.043
549.24	53.959
549.58	53.776
549.92	55.265
550.26	56.286
550.60	53.556
550.94	54.015
551.28	54.552
551.62	54.505
551.96	55.427
552.30	54.425
552.64	53.061
552.98	54.870
553.32	54.329
553.66	56.381
554.00	55.224
554.34	54.079
554.68	52.705
555.02	55.789
555.36	53.774
555.69	53.868
556.03	54.246
556.37	53.556
556.71	54.545
557.05	54.841
557.39	54.269
557.73	53.975
558.07	54.182
558.41	53.553
558.75	54.829
559.08	54.241
559.42	54.135
559.76	53.604
560.10	55.183
560.44	54.263
560.78	54.071
561.12	53.347
561.45	53.630
561.79	54.355
562.13	52.945
562.47	54.412
562.81	53.890
563.15	53.954
563.48	54.181
563.82	53.144
564.16	54.293
564.50	53.831
564.84	53.571
565.17	52.122
565.51	53.977
565.85	55.037
566.19	54.414
566.52	53.229
566.86	52.339
567.20	53.935
567.54	52.628
567.88	49.972
568.21	52.964
568.55	50.689
568.89	50.795
569.23	50.255
569.56	49.517
569.90	50.472
570.24	50.507
570.57	49.420
570.91	49.065
571.25	49.222
571.59	49.235
571.92	47.798
572.26	48.712
572.60	48.619
572.93	48.033
573.27	48.018
573.61	47.491
573.95	47.605
574.28	47.229
574.62	47.941
574.96	47.034
575.29	47.256
575.63	47.359
575.97	46.899
576.30	46.451
576.64	47.702
576.98	46.106
577.31	46.985
577.65	47.059
577.98	47.083
578.32	46.495
578.66	47.358
578.99	47.528
579.33	47.375
579.67	46.995
580.00	46.801
580.34	46.477
580.67	46.850
581.01	46.549
581.35	46.939
581.68	45.878
582.02	46.374
582.35	46.213
582.69	47.333
583.02	47.303
583.36	46.735
583.70	47.133
584.03	47.091
584.37	47.442
584.70	46.630
585.04	46.608
585.37	46.014
585.71	46.275
586.04	46.378
586.38	46.806
586.72	46.618
587.05	47.805
587.39	46.763
587.72	46.828
588.06	47.180
588.39	47.508
588.73	47.888
589.06	47.059
589.40	47.956
589.73	47.521
590.07	47.524
590.40	47.380
590.73	48.221
591.07	48.074
591.40	49.307
591.74	47.307
592.07	48.874
592.41	47.176
592.74	48.040
593.08	47.065
593.41	47.895
593.75	46.719
594.08	48.490
594.41	48.170
594.75	48.245
595.08	47.820
595.42	47.724
595.75	47.740
596.09	46.993
596.42	47.995
596.75	48.340
597.09	48.798
597.42	47.359
597.75	47.564
598.09	47.673
598.42	48.122
598.76	46.761
599.09	47.711
599.42	47.059
599.76	47.037
600.09	47.939
600.42	47.209
600.76	47.759
601.09	47.171
601.42	46.577
601.76	47.157
602.09	47.321
602.42	47.325
602.76	47.071
603.09	47.540
603.42	47.542
603.76	49.103
604.09	47.257
604.42	47.002
604.76	47.667
605.09	48.146
605.42	47.651
605.75	47.822
606.09	47.240
606.42	47.884
606.75	47.359
607.09	48.125
607.42	47.799
607.75	47.726
608.08	48.396
608.42	47.729
608.75	46.495
609.08	47.638
609.41	47.633
609.75	47.879
610.08	48.578
610.41	48.096
610.74	47.921
611.07	48.732
611.41	47.907
611.74	49.254
612.07	50.161
612.40	47.814
612.73	48.573
613.07	47.001
613.40	49.425
613.73	48.828
614.06	47.996
614.39	48.703
614.72	48.156
615.06	47.283
615.39	48.399
615.72	48.724
616.05	48.592
616.38	48.984
616.71	48.468
617.05	49.457
617.38	48.978
617.71	48.096
618.04	49.441
618.37	49.371
618.70	49.283
619.03	48.341
619.36	50.247
619.69	50.682
620.03	47.865
620.36	50.141
620.69	49.533
621.02	49.163
621.35	50.081
621.68	51.066
622.01	50.809
622.34	50.388
622.67	49.766
623.00	49.350
623.33	50.597
623.66	48.892
623.99	49.774
624.32	49.405
624.65	50.258
624.99	49.888
625.32	49.326
625.65	50.660
625.98	48.748
626.31	50.734
626.64	49.958
626.97	50.171
627.30	51.915
627.63	49.914
627.96	50.305
628.29	50.368
628.62	50.525
628.95	51.772
629.28	51.034
629.61	51.816
629.94	51.323
630.26	53.181
630.59	52.864
630.92	49.750
631.25	51.411
631.58	51.534
631.91	49.787
632.24	51.667
