SpectraSuite Data File
++++++++++++++++++++++++++++++++++++
Date: Sat May 16 11:18:47 PDT 2015
User: schluterlab
Dark Spectrum Present: Yes
Reference Spectrum Present: Yes
Number of Sampled Component Spectra: 1
Spectrometers: USB2E3373
Integration Time (usec): 3000 (USB2E3373)
Spectra Averaged: 3 (USB2E3373)
Boxcar Smoothing: 0 (USB2E3373)
Correct for Electrical Dark: No (USB2E3373)
Strobe/Lamp Enabled: No (USB2E3373)
Correct for Detector Non-linearity: No (USB2E3373)
Correct for Stray Light: No (USB2E3373)
Number of Pixels in Processed Spectrum: 2048
>>>>>Begin Processed Spectral Data<<<<<
178.53	0.000
178.91	100.000
179.29	733.333
179.67	-300.000
180.04	46.154
180.42	600.000
180.80	475.000
181.18	150.000
181.56	0.000
181.94	600.000
182.31	425.000
182.69	-23.077
183.07	-233.333
183.45	1150.000
183.83	400.000
184.20	-214.286
184.58	-87.500
184.96	-225.000
185.34	137.500
185.72	-625.000
186.09	216.667
186.47	-150.000
186.85	-100.000
187.23	-87.500
187.61	25.000
187.98	-275.000
188.36	-150.000
188.74	-112.500
189.12	1900.000
189.49	257.143
189.87	16.667
190.25	450.000
190.63	14.286
191.00	-166.667
191.38	220.000
191.76	20.000
192.14	440.000
192.51	-300.000
192.89	-566.667
193.27	0.000
193.65	-88.889
194.02	-128.571
194.40	633.333
194.78	50.000
195.15	-600.000
195.53	-27.273
195.91	-316.667
196.29	180.000
196.66	-233.333
197.04	2400.000
197.42	-250.000
197.79	-33.333
198.17	-166.667
198.55	-150.000
198.92	-1700.000
199.30	125.000
199.68	-450.000
200.05	-133.333
200.43	0.000
200.81	-1700.000
201.18	-108.333
201.56	142.857
201.94	-80.000
202.31	4.545
202.69	-20.000
203.07	-70.000
203.44	466.667
203.82	-266.667
204.19	-150.000
204.57	-75.000
204.95	-1200.000
205.32	-62.500
205.70	300.000
206.08	-1500.000
206.45	5.556
206.83	-450.000
207.20	100.000
207.58	-633.333
207.96	-433.333
208.33	0.000
208.71	-77.778
209.08	250.000
209.46	-257.143
209.84	800.000
210.21	0.000
210.59	45.000
210.96	900.000
211.34	-150.000
211.71	-66.667
212.09	300.000
212.46	1150.000
212.84	-900.000
213.22	466.667
213.59	133.333
213.97	111.111
214.34	190.000
214.72	-70.000
215.09	-400.000
215.47	16.667
215.84	-80.000
216.22	0.000
216.59	40.000
216.97	-300.000
217.34	950.000
217.72	-157.143
218.09	-100.000
218.47	-128.571
218.84	285.714
219.22	-128.571
219.59	0.000
219.97	242.857
220.34	425.000
220.72	100.000
221.09	46.154
221.47	0.000
221.84	766.667
222.22	-100.000
222.59	1000.000
222.97	-137.500
223.34	-800.000
223.72	-233.333
224.09	-64.286
224.46	-275.000
224.84	-78.571
225.21	-114.286
225.59	18.182
225.96	-75.000
226.34	-71.429
226.71	-122.222
227.08	-50.000
227.46	1600.000
227.83	-200.000
228.21	-162.500
228.58	350.000
228.95	-25.000
229.33	-1700.000
229.70	-160.000
230.08	-150.000
230.45	-25.000
230.82	-100.000
231.20	400.000
231.57	50.000
231.95	1000.000
232.32	-38.095
232.69	-100.000
233.07	-214.286
233.44	-550.000
233.81	-66.667
234.19	-77.778
234.56	-25.000
234.93	37.500
235.31	-57.143
235.68	-128.571
236.05	-29.412
236.43	-50.000
236.80	3.226
237.17	-12.500
237.55	-42.857
237.92	-109.091
238.29	-8.571
238.67	2.941
239.04	0.000
239.41	-35.484
239.79	-30.769
240.16	-9.524
240.53	-7.273
240.91	17.949
241.28	10.909
241.65	4.615
242.02	-3.279
242.40	-8.197
242.77	0.000
243.14	-15.254
243.51	-21.429
243.89	-6.329
244.26	-4.494
244.63	2.105
245.00	4.211
245.38	7.627
245.75	12.389
246.12	6.400
246.49	6.299
246.87	1.626
247.24	6.780
247.61	-2.542
247.98	0.000
248.36	3.497
248.73	6.962
249.10	-2.548
249.47	10.526
249.84	8.523
250.22	-0.595
250.59	3.955
250.96	4.188
251.33	6.635
251.70	6.731
252.08	6.161
252.45	6.161
252.82	5.238
253.19	8.511
253.56	9.677
253.94	7.173
254.31	7.296
254.68	10.163
255.05	3.629
255.42	11.111
255.79	6.452
256.16	12.549
256.54	11.765
256.91	10.606
257.28	7.326
257.65	4.965
258.02	12.893
258.39	6.355
258.76	7.432
259.14	8.025
259.51	10.820
259.88	7.012
260.25	12.422
260.62	5.788
260.99	9.496
261.36	10.366
261.73	10.694
262.10	10.833
262.47	8.832
262.85	10.571
263.22	5.731
263.59	7.385
263.96	9.855
264.33	10.027
264.70	7.735
265.07	9.341
265.44	8.010
265.81	10.594
266.18	6.835
266.55	7.598
266.92	8.816
267.29	8.475
267.66	8.148
268.03	10.386
268.40	11.502
268.77	9.880
269.14	5.800
269.51	9.885
269.88	7.339
270.25	4.196
270.62	9.382
270.99	7.883
271.36	8.159
271.73	9.193
272.10	9.153
272.47	9.333
272.84	10.667
273.21	11.239
273.58	9.231
273.95	8.772
274.32	10.181
274.69	10.066
275.06	9.407
275.43	8.705
275.80	8.961
276.17	9.623
276.54	10.998
276.91	8.436
277.28	9.533
277.65	11.777
278.02	8.768
278.39	9.037
278.76	9.960
279.13	7.905
279.50	9.742
279.87	10.359
280.23	8.300
280.60	8.748
280.97	6.990
281.34	9.284
281.71	9.038
282.08	9.677
282.45	5.092
282.82	8.721
283.19	8.000
283.56	10.073
283.92	8.657
284.29	8.178
284.66	7.374
285.03	9.982
285.40	8.487
285.77	11.053
286.14	9.025
286.51	7.105
286.87	7.985
287.24	11.263
287.61	9.752
287.98	8.319
288.35	8.264
288.72	7.301
289.08	7.458
289.45	9.091
289.82	9.170
290.19	10.345
290.56	8.099
290.93	6.518
291.29	7.942
291.66	6.924
292.03	8.948
292.40	9.187
292.77	9.161
293.13	8.293
293.50	8.915
293.87	9.049
294.24	8.446
294.60	7.273
294.97	11.077
295.34	7.556
295.71	9.524
296.08	6.298
296.44	7.582
296.81	9.117
297.18	7.042
297.55	8.333
297.91	9.205
298.28	7.671
298.65	6.974
299.02	9.759
299.38	7.888
299.75	8.016
300.12	8.077
300.48	6.650
300.85	7.995
301.22	8.538
301.59	9.363
301.95	8.186
302.32	6.519
302.69	8.323
303.05	6.716
303.42	6.625
303.79	8.732
304.15	7.820
304.52	8.285
304.89	7.438
305.25	7.082
305.62	7.286
305.99	8.952
306.35	7.880
306.72	7.973
307.09	8.173
307.45	5.902
307.82	7.598
308.19	7.047
308.55	7.298
308.92	6.445
309.29	8.108
309.65	7.529
310.02	7.451
310.38	5.946
310.75	8.094
311.12	7.025
311.48	8.351
311.85	7.106
312.22	8.651
312.58	8.240
312.95	7.645
313.31	8.591
313.68	7.940
314.05	8.408
314.41	5.634
314.78	5.794
315.14	6.910
315.51	6.383
315.87	7.357
316.24	7.094
316.61	7.869
316.97	8.159
317.34	7.803
317.70	7.328
318.07	8.302
318.43	7.116
318.80	9.296
319.16	6.098
319.53	8.365
319.89	5.738
320.26	6.667
320.62	6.442
320.99	7.363
321.35	5.714
321.72	5.527
322.08	7.616
322.45	6.436
322.81	7.012
323.18	7.301
323.54	7.024
323.91	6.673
324.27	7.605
324.64	7.038
325.00	7.417
325.37	7.330
325.73	8.311
326.10	6.820
326.46	6.567
326.83	8.085
327.19	7.506
327.56	8.944
327.92	7.137
328.29	7.273
328.65	6.455
329.01	7.244
329.38	7.315
329.74	8.791
330.11	7.978
330.47	7.084
330.84	8.249
331.20	7.220
331.56	7.293
331.93	6.927
332.29	8.128
332.66	7.814
333.02	7.330
333.38	6.989
333.75	8.459
334.11	7.556
334.48	7.944
334.84	8.311
335.20	7.979
335.57	7.942
335.93	8.326
336.29	7.883
336.66	8.194
337.02	7.297
337.38	8.021
337.75	7.287
338.11	7.603
338.47	7.473
338.84	7.804
339.20	7.733
339.56	8.467
339.93	7.231
340.29	7.617
340.65	7.080
341.02	8.094
341.38	8.088
341.74	7.875
342.11	7.338
342.47	7.296
342.83	7.053
343.20	7.942
343.56	7.020
343.92	8.598
344.28	8.915
344.65	7.591
345.01	7.563
345.37	8.472
345.73	7.038
346.10	6.950
346.46	6.986
346.82	6.816
347.19	6.984
347.55	6.501
347.91	7.559
348.27	6.762
348.63	8.320
349.00	7.399
349.36	6.557
349.72	8.758
350.08	7.698
350.45	6.304
350.81	8.041
351.17	6.511
351.53	6.444
351.89	7.599
352.26	7.907
352.62	9.524
352.98	7.832
353.34	7.514
353.70	8.185
354.07	7.474
354.43	7.668
354.79	6.894
355.15	6.470
355.51	7.422
355.87	7.431
356.24	6.593
356.60	8.783
356.96	6.928
357.32	7.047
357.68	7.510
358.04	8.083
358.40	8.043
358.77	7.496
359.13	6.886
359.49	6.878
359.85	7.088
360.21	7.686
360.57	8.057
360.93	8.519
361.29	7.773
361.66	7.012
362.02	6.509
362.38	8.437
362.74	8.498
363.10	7.532
363.46	9.046
363.82	7.872
364.18	7.091
364.54	9.149
364.90	7.198
365.26	7.061
365.62	8.339
365.98	8.321
366.35	7.676
366.71	7.329
367.07	7.481
367.43	8.305
367.79	8.454
368.15	6.899
368.51	8.601
368.87	8.929
369.23	8.211
369.59	7.569
369.95	8.457
370.31	9.142
370.67	7.520
371.03	7.653
371.39	7.779
371.75	8.727
372.11	7.532
372.47	8.098
372.83	8.623
373.19	8.643
373.55	8.937
373.91	8.250
374.27	8.077
374.63	9.110
374.99	8.623
375.35	7.604
375.71	8.980
376.07	7.871
376.42	7.285
376.78	9.673
377.14	9.220
377.50	8.575
377.86	8.192
378.22	8.606
378.58	8.215
378.94	7.645
379.30	9.445
379.66	8.804
380.02	8.853
380.38	8.157
380.74	8.382
381.09	8.494
381.45	9.427
381.81	8.288
382.17	8.584
382.53	8.511
382.89	8.792
383.25	8.850
383.61	8.667
383.97	8.634
384.32	8.698
384.68	10.036
385.04	8.514
385.40	8.947
385.76	9.207
386.12	9.057
386.48	8.973
386.83	8.957
387.19	8.727
387.55	9.025
387.91	9.484
388.27	7.901
388.62	8.654
388.98	9.267
389.34	8.629
389.70	8.709
390.06	8.577
390.42	8.718
390.77	9.590
391.13	9.814
391.49	9.545
391.85	9.539
392.20	8.799
392.56	9.346
392.92	9.584
393.28	9.185
393.64	9.501
393.99	9.538
394.35	9.124
394.71	9.018
395.07	9.416
395.42	8.701
395.78	8.674
396.14	9.159
396.50	9.297
396.85	9.377
397.21	9.174
397.57	10.456
397.92	9.368
398.28	9.611
398.64	9.340
399.00	9.494
399.35	10.485
399.71	10.279
400.07	9.910
400.42	9.672
400.78	9.362
401.14	9.880
401.49	8.667
401.85	10.067
402.21	9.893
402.57	9.466
402.92	10.132
403.28	9.988
403.63	8.987
403.99	10.068
404.35	8.998
404.70	9.538
405.06	10.092
405.42	9.410
405.77	9.785
406.13	9.483
406.49	10.126
406.84	9.778
407.20	10.424
407.55	10.323
407.91	9.650
408.27	10.478
408.62	9.321
408.98	10.794
409.34	9.872
409.69	10.208
410.05	10.006
410.40	9.687
410.76	10.196
411.11	10.224
411.47	9.783
411.83	10.208
412.18	10.087
412.54	9.274
412.89	9.599
413.25	8.914
413.60	8.809
413.96	9.550
414.31	10.581
414.67	9.587
415.03	9.120
415.38	9.694
415.74	9.858
416.09	9.527
416.45	9.127
416.80	9.883
417.16	10.365
417.51	10.506
417.87	10.356
418.22	9.735
418.58	10.526
418.93	10.055
419.29	10.226
419.64	10.113
420.00	10.936
420.35	9.580
420.71	10.444
421.06	11.479
421.42	10.539
421.77	10.553
422.12	10.576
422.48	10.422
422.83	9.681
423.19	10.245
423.54	10.605
423.90	10.006
424.25	10.464
424.61	10.676
424.96	10.357
425.31	10.006
425.67	9.914
426.02	9.983
426.38	10.768
426.73	10.462
427.09	10.539
427.44	10.739
427.79	9.535
428.15	10.832
428.50	10.968
428.85	10.791
429.21	10.072
429.56	10.260
429.92	10.220
430.27	10.469
430.62	10.867
430.98	10.455
431.33	10.886
431.68	9.705
432.04	11.136
432.39	10.541
432.74	10.791
433.10	10.355
433.45	9.729
433.80	10.134
434.16	10.693
434.51	10.521
434.86	10.310
435.22	10.802
435.57	10.710
435.92	10.844
436.28	10.386
436.63	10.062
436.98	10.653
437.34	10.514
437.69	10.152
438.04	11.344
438.39	11.312
438.75	10.594
439.10	10.827
439.45	9.958
439.81	11.205
440.16	10.335
440.51	10.529
440.86	10.526
441.22	10.116
441.57	10.737
441.92	10.435
442.27	10.498
442.63	10.622
442.98	10.327
443.33	10.983
443.68	10.474
444.03	11.051
444.39	10.475
444.74	10.297
445.09	10.307
445.44	10.861
445.79	10.760
446.15	11.117
446.50	9.472
446.85	10.621
447.20	10.725
447.55	11.271
447.91	10.331
448.26	10.279
448.61	9.960
448.96	11.148
449.31	10.485
449.66	11.448
450.02	10.582
450.37	10.203
450.72	10.621
451.07	11.565
451.42	10.595
451.77	10.892
452.12	10.429
452.47	11.020
452.83	10.775
453.18	11.701
453.53	11.194
453.88	10.526
454.23	10.097
454.58	10.441
454.93	10.642
455.28	10.134
455.63	11.057
455.98	10.422
456.34	9.720
456.69	12.008
457.04	11.309
457.39	10.167
457.74	10.632
458.09	10.731
458.44	11.316
458.79	10.818
459.14	10.896
459.49	10.598
459.84	11.804
460.19	10.621
460.54	11.010
460.89	11.547
461.24	10.686
461.59	10.844
461.94	11.776
462.29	11.971
462.64	11.462
462.99	11.245
463.34	11.681
463.69	10.305
464.04	11.424
464.39	10.932
464.74	11.052
465.09	11.004
465.44	11.393
465.79	11.788
466.14	10.529
466.49	11.054
466.84	12.065
467.19	11.596
467.54	10.253
467.89	11.652
468.24	11.520
468.59	11.056
468.94	11.511
469.29	10.786
469.64	12.466
469.99	12.154
470.34	11.757
470.68	11.701
471.03	12.113
471.38	11.181
471.73	12.098
472.08	11.111
472.43	11.261
472.78	12.000
473.13	11.133
473.48	12.444
473.83	12.159
474.17	11.210
474.52	11.957
474.87	12.121
475.22	11.504
475.57	11.056
475.92	11.285
476.27	11.371
476.61	12.113
476.96	11.515
477.31	11.572
477.66	11.566
478.01	11.939
478.36	11.839
478.70	12.226
479.05	12.710
479.40	12.228
479.75	12.080
480.10	12.153
480.45	11.267
480.79	11.204
481.14	11.741
481.49	11.617
481.84	11.096
482.19	11.649
482.53	12.027
482.88	12.008
483.23	12.019
483.58	12.257
483.92	11.801
484.27	11.520
484.62	11.706
484.97	11.419
485.31	10.880
485.66	10.981
486.01	11.103
486.36	11.057
486.70	11.360
487.05	10.946
487.40	11.378
487.75	11.763
488.09	11.272
488.44	11.773
488.79	11.885
489.13	12.324
489.48	12.357
489.83	12.227
490.17	12.364
490.52	12.998
490.87	11.963
491.22	12.331
491.56	12.500
491.91	12.166
492.26	12.123
492.60	12.226
492.95	12.089
493.30	11.672
493.64	11.989
493.99	11.855
494.34	12.190
494.68	12.687
495.03	12.667
495.37	11.849
495.72	12.033
496.07	12.295
496.41	12.737
496.76	12.192
497.11	12.247
497.45	12.692
497.80	12.406
498.14	12.132
498.49	11.803
498.84	12.282
499.18	13.353
499.53	12.616
499.87	11.583
500.22	12.892
500.56	12.406
500.91	12.118
501.26	13.246
501.60	12.566
501.95	12.609
502.29	12.707
502.64	13.390
502.98	12.602
503.33	12.453
503.67	12.261
504.02	12.506
504.36	12.941
504.71	12.057
505.06	12.681
505.40	13.373
505.75	12.907
506.09	13.852
506.44	13.484
506.78	13.397
507.13	12.667
507.47	13.459
507.82	13.165
508.16	13.316
508.51	12.880
508.85	12.733
509.19	12.245
509.54	13.636
509.88	13.511
510.23	13.522
510.57	13.810
510.92	13.749
511.26	13.238
511.61	13.391
511.95	14.116
512.30	13.249
512.64	12.298
512.98	13.861
513.33	14.113
513.67	14.015
514.02	13.031
514.36	14.017
514.70	14.148
515.05	13.894
515.39	13.379
515.74	14.311
516.08	14.352
516.42	14.334
516.77	14.038
517.11	14.130
517.46	14.055
517.80	14.741
518.14	14.130
518.49	15.182
518.83	13.175
519.17	14.624
519.52	13.765
519.86	14.755
520.20	14.120
520.55	14.523
520.89	14.089
521.23	14.713
521.58	14.232
521.92	14.313
522.26	14.286
522.61	14.385
522.95	13.657
523.29	14.796
523.64	14.304
523.98	15.022
524.32	14.456
524.66	15.031
525.01	13.873
525.35	15.399
525.69	15.029
526.04	14.752
526.38	15.722
526.72	14.176
527.06	15.104
527.41	14.191
527.75	14.257
528.09	15.089
528.43	15.148
528.78	14.698
529.12	15.493
529.46	14.884
529.80	14.138
530.15	14.746
530.49	15.395
530.83	15.586
531.17	14.074
531.51	14.869
531.86	15.800
532.20	15.250
532.54	15.842
532.88	14.690
533.22	14.104
533.57	15.601
533.91	14.669
534.25	14.833
534.59	14.616
534.93	13.815
535.27	15.167
535.62	15.153
535.96	15.449
536.30	13.743
536.64	15.339
536.98	15.607
537.32	14.582
537.66	15.818
538.01	14.021
538.35	15.270
538.69	15.307
539.03	15.166
539.37	16.168
539.71	14.743
540.05	15.422
540.39	15.789
540.73	14.789
541.07	15.710
541.42	14.517
541.76	14.551
542.10	15.395
542.44	15.123
542.78	15.468
543.12	14.664
543.46	14.041
543.80	13.980
544.14	14.238
544.48	15.223
544.82	14.547
545.16	14.822
545.50	14.132
545.84	15.369
546.18	15.742
546.52	14.794
546.86	14.601
547.20	16.174
547.54	13.774
547.88	15.063
548.22	13.303
548.56	13.828
548.90	15.229
549.24	14.296
549.58	15.596
549.92	14.770
550.26	15.318
550.60	14.723
550.94	15.620
551.28	14.974
551.62	14.697
551.96	15.123
552.30	14.216
552.64	14.497
552.98	14.716
553.32	15.007
553.66	14.852
554.00	14.712
554.34	13.718
554.68	14.912
555.02	15.268
555.36	14.953
555.69	14.040
556.03	14.807
556.37	14.509
556.71	14.889
557.05	15.225
557.39	14.477
557.73	15.026
558.07	15.298
558.41	15.183
558.75	15.361
559.08	13.619
559.42	15.697
559.76	14.954
560.10	15.138
560.44	15.318
560.78	14.196
561.12	15.390
561.45	14.726
561.79	14.983
562.13	14.656
562.47	14.286
562.81	14.710
563.15	15.325
563.48	15.204
563.82	14.266
564.16	14.266
564.50	14.315
564.84	14.881
565.17	14.324
565.51	15.059
565.85	15.551
566.19	14.559
566.52	13.894
566.86	14.223
567.20	14.770
567.54	14.530
567.88	14.517
568.21	14.765
568.55	13.256
568.89	13.370
569.23	13.697
569.56	12.821
569.90	13.729
570.24	13.717
570.57	12.513
570.91	12.921
571.25	13.165
571.59	13.238
571.92	13.125
572.26	13.122
572.60	12.907
572.93	12.945
573.27	12.470
573.61	11.959
573.95	12.773
574.28	12.532
574.62	12.862
574.96	12.438
575.29	12.322
575.63	12.610
575.97	12.460
576.30	12.935
576.64	13.185
576.98	12.665
577.31	12.443
577.65	12.883
577.98	12.705
578.32	12.671
578.66	12.315
578.99	12.515
579.33	12.283
579.67	12.782
580.00	11.930
580.34	12.524
580.67	12.528
581.01	12.409
581.35	12.603
581.68	12.252
582.02	12.521
582.35	11.822
582.69	12.417
583.02	12.776
583.36	12.822
583.70	12.647
584.03	12.769
584.37	12.693
584.70	12.503
585.04	12.430
585.37	12.172
585.71	12.192
586.04	12.361
586.38	11.895
586.72	13.021
587.05	12.716
587.39	12.510
587.72	12.610
588.06	12.325
588.39	12.788
588.73	13.096
589.06	12.788
589.40	13.329
589.73	12.890
590.07	12.272
590.40	13.395
590.73	12.875
591.07	12.664
591.40	12.825
591.74	13.467
592.07	12.973
592.41	13.376
592.74	12.990
593.08	13.423
593.41	12.467
593.75	12.232
594.08	12.689
594.41	13.198
594.75	12.797
595.08	12.632
595.42	13.223
595.75	12.716
596.09	13.116
596.42	13.052
596.75	13.713
597.09	13.580
597.42	13.051
597.75	12.932
598.09	13.104
598.42	13.522
598.76	12.957
599.09	12.234
599.42	12.226
599.76	12.911
600.09	12.634
600.42	13.787
600.76	12.542
601.09	12.875
601.42	12.030
601.76	13.084
602.09	13.088
602.42	12.593
602.76	12.838
603.09	13.185
603.42	12.651
603.76	13.323
604.09	13.056
604.42	12.781
604.76	13.171
605.09	13.065
605.42	13.121
605.75	13.109
606.09	13.325
606.42	13.196
606.75	13.611
607.09	13.322
607.42	13.116
607.75	12.936
608.08	13.782
608.42	13.103
608.75	13.131
609.08	13.298
609.41	12.855
609.75	13.067
610.08	13.088
610.41	12.819
610.74	13.540
611.07	13.438
611.41	13.061
611.74	14.447
612.07	13.588
612.40	13.273
612.73	13.786
613.07	13.484
613.40	13.848
613.73	13.515
614.06	12.850
614.39	14.036
614.72	13.240
615.06	13.804
615.39	13.185
615.72	14.231
616.05	13.528
616.38	13.755
616.71	13.754
617.05	13.752
617.38	14.118
617.71	13.636
618.04	13.292
618.37	13.648
618.70	14.342
619.03	13.676
619.36	14.940
619.69	14.860
620.03	14.118
620.36	13.783
620.69	13.640
621.02	13.927
621.35	14.516
621.68	13.525
622.01	14.887
622.34	14.441
622.67	14.141
623.00	13.925
623.33	14.627
623.66	13.663
623.99	14.436
624.32	13.914
624.65	14.275
624.99	13.742
625.32	14.521
625.65	14.841
625.98	14.789
626.31	14.356
626.64	14.812
626.97	14.469
627.30	14.383
627.63	12.435
627.96	14.621
628.29	14.430
628.62	15.759
628.95	15.059
629.28	14.944
629.61	13.837
629.94	14.556
630.26	15.109
630.59	16.382
630.92	15.115
631.25	15.323
631.58	14.180
631.91	13.936
632.24	15.333
632.57	15.778
632.90	16.207
633.23	14.720
633.56	14.269
633.89	16.863
634.22	14.404
634.55	15.865
634.88	17.050
635.20	14.357
635.53	15.394
635.86	14.358
636.19	14.774
636.52	15.771
636.85	15.644
637.18	12.125
637.51	17.100
637.83	17.310
638.16	17.500
638.49	14.621
638.82	15.573
639.15	18.029
639.48	15.175
639.81	14.385
640.13	17.297
640.46	15.100
640.79	17.227
641.12	16.643
641.45	14.347
641.77	15.868
