SpectraSuite Data File
++++++++++++++++++++++++++++++++++++
Date: Sat May 16 11:42:07 PDT 2015
User: schluterlab
Dark Spectrum Present: Yes
Reference Spectrum Present: Yes
Number of Sampled Component Spectra: 1
Spectrometers: USB2E3373
Integration Time (usec): 3000 (USB2E3373)
Spectra Averaged: 3 (USB2E3373)
Boxcar Smoothing: 0 (USB2E3373)
Correct for Electrical Dark: No (USB2E3373)
Strobe/Lamp Enabled: No (USB2E3373)
Correct for Detector Non-linearity: No (USB2E3373)
Correct for Stray Light: No (USB2E3373)
Number of Pixels in Processed Spectrum: 2048
>>>>>Begin Processed Spectral Data<<<<<
178.53	0.000
178.91	53.333
179.29	533.333
179.67	-1200.000
180.04	-100.000
180.42	1200.000
180.80	225.000
181.18	400.000
181.56	-237.500
181.94	900.000
182.31	650.000
182.69	-46.154
183.07	-433.333
183.45	1600.000
183.83	700.000
184.20	-257.143
184.58	-112.500
184.96	-550.000
185.34	118.750
185.72	-575.000
186.09	50.000
186.47	-237.500
186.85	-262.500
187.23	25.000
187.61	-400.000
187.98	-287.500
188.36	-262.500
188.74	-162.500
189.12	2400.000
189.49	400.000
189.87	-83.333
190.25	475.000
190.63	-64.286
191.00	-244.444
191.38	560.000
191.76	-33.333
192.14	540.000
192.51	-200.000
192.89	-466.667
193.27	0.000
193.65	-144.444
194.02	-228.571
194.40	533.333
194.78	-90.000
195.15	-1600.000
195.53	-127.273
195.91	-300.000
196.29	260.000
196.66	-366.667
197.04	1500.000
197.42	-250.000
197.79	-60.000
198.17	-466.667
198.55	-800.000
198.92	-200.000
199.30	225.000
199.68	-750.000
200.05	44.444
200.43	-211.111
200.81	-1800.000
201.18	-100.000
201.56	357.143
201.94	-80.000
202.31	-45.455
202.69	-50.000
203.07	-100.000
203.44	566.667
203.82	-416.667
204.19	-500.000
204.57	-325.000
204.95	-1400.000
205.32	-43.750
205.70	1000.000
206.08	-2800.000
206.45	-88.889
206.83	-900.000
207.20	-650.000
207.58	-733.333
207.96	-200.000
208.33	-225.000
208.71	-133.333
209.08	150.000
209.46	-157.143
209.84	350.000
210.21	0.000
210.59	40.000
210.96	1900.000
211.34	-266.667
211.71	-233.333
212.09	375.000
212.46	1050.000
212.84	-1900.000
213.22	866.667
213.59	158.333
213.97	-77.778
214.34	140.000
214.72	-80.000
215.09	-300.000
215.47	-316.667
215.84	-190.000
216.22	-110.000
216.59	-6.667
216.97	-450.000
217.34	900.000
217.72	-85.714
218.09	-200.000
218.47	-314.286
218.84	228.571
219.22	-157.143
219.59	0.000
219.97	228.571
220.34	400.000
220.72	275.000
221.09	-38.462
221.47	0.000
221.84	366.667
222.22	-450.000
222.59	1600.000
222.97	-262.500
223.34	-850.000
223.72	-500.000
224.09	-64.286
224.46	-325.000
224.84	-7.143
225.21	-242.857
225.59	-154.545
225.96	-150.000
226.34	-200.000
226.71	-111.111
227.08	-30.000
227.46	1400.000
227.83	-242.857
228.21	-87.500
228.58	200.000
228.95	-37.500
229.33	-2500.000
229.70	-280.000
230.08	-1250.000
230.45	-91.667
230.82	-350.000
231.20	-1500.000
231.57	-800.000
231.95	1900.000
232.32	4.762
232.69	-200.000
233.07	-114.286
233.44	-300.000
233.81	-100.000
234.19	-200.000
234.56	-81.250
234.93	-21.875
235.31	-285.714
235.68	-114.286
236.05	-76.471
236.43	-54.545
236.80	-22.581
237.17	-37.500
237.55	-42.857
237.92	-81.818
238.29	0.000
238.67	14.706
239.04	5.556
239.41	-22.581
239.79	-43.590
240.16	-35.714
240.53	-18.182
240.91	-2.564
241.28	0.000
241.65	20.000
242.02	8.197
242.40	-3.279
242.77	4.545
243.14	11.864
243.51	-5.714
243.89	3.797
244.26	2.247
244.63	21.053
245.00	6.316
245.38	11.017
245.75	12.389
246.12	7.200
246.49	5.512
246.87	2.439
247.24	12.712
247.61	-1.695
247.98	8.451
248.36	13.986
248.73	6.329
249.10	6.369
249.47	9.357
249.84	17.045
250.22	2.976
250.59	16.384
250.96	14.136
251.33	19.905
251.70	12.500
252.08	11.848
252.45	12.322
252.82	7.143
253.19	13.191
253.56	14.113
253.94	9.283
254.31	13.305
254.68	15.447
255.05	14.919
255.42	17.460
255.79	12.186
256.16	15.686
256.54	14.338
256.91	16.667
257.28	12.821
257.65	12.766
258.02	17.296
258.39	13.043
258.76	10.473
259.14	18.827
259.51	17.377
259.88	16.768
260.25	17.081
260.62	13.505
260.99	11.869
261.36	15.854
261.73	17.052
262.10	15.833
262.47	15.100
262.85	16.571
263.22	13.754
263.59	14.462
263.96	15.072
264.33	17.615
264.70	16.851
265.07	16.209
265.44	14.470
265.81	16.279
266.18	14.430
266.55	12.990
266.92	14.106
267.29	12.107
267.66	16.049
268.03	19.324
268.40	15.493
268.77	18.313
269.14	15.777
269.51	17.241
269.88	13.761
270.25	15.152
270.62	16.705
270.99	15.541
271.36	16.550
271.73	14.126
272.10	14.874
272.47	13.333
272.84	16.889
273.21	16.743
273.58	16.264
273.95	13.158
274.32	13.575
274.69	18.162
275.06	18.405
275.43	13.616
275.80	15.479
276.17	15.481
276.54	17.312
276.91	15.844
277.28	15.619
277.65	14.463
278.02	15.658
278.39	14.931
278.76	16.335
279.13	16.403
279.50	16.103
279.87	18.182
280.23	16.599
280.60	18.091
280.97	14.563
281.34	16.248
281.71	17.500
282.08	17.137
282.45	14.257
282.82	13.566
283.19	16.182
283.56	18.315
283.92	16.784
284.29	15.428
284.66	14.748
285.03	15.508
285.40	16.236
285.77	17.018
286.14	13.177
286.51	14.210
286.87	13.612
287.24	16.041
287.61	14.876
287.98	13.172
288.35	13.388
288.72	15.959
289.08	15.424
289.45	16.330
289.82	13.841
290.19	14.286
290.56	12.893
290.93	13.514
291.29	12.966
291.66	12.560
292.03	15.542
292.40	12.801
292.77	14.286
293.13	11.870
293.50	14.264
293.87	14.724
294.24	12.670
294.60	12.576
294.97	12.595
295.34	13.037
295.71	13.244
296.08	10.445
296.44	11.874
296.81	13.675
297.18	14.366
297.55	12.712
297.91	14.505
298.28	13.014
298.65	12.134
299.02	13.904
299.38	10.695
299.75	11.549
300.12	13.462
300.48	12.404
300.85	10.878
301.22	11.384
301.59	11.964
301.95	13.476
302.32	10.169
302.69	12.362
303.05	11.477
303.42	10.375
303.79	10.885
304.15	13.389
304.52	10.385
304.89	11.924
305.25	11.355
305.62	9.988
305.99	14.370
306.35	11.765
306.72	10.592
307.09	12.940
307.45	11.124
307.82	9.944
308.19	11.074
308.55	10.675
308.92	9.882
309.29	9.838
309.65	12.195
310.02	11.879
310.38	9.946
310.75	10.861
311.12	11.880
311.48	11.273
311.85	10.814
312.22	10.711
312.58	11.699
312.95	10.092
313.31	11.489
313.68	12.261
314.05	12.265
314.41	10.161
314.78	10.290
315.14	11.155
315.51	10.334
315.87	10.939
316.24	10.982
316.61	10.940
316.97	10.945
317.34	10.212
317.70	11.132
318.07	11.847
318.43	9.925
318.80	12.864
319.16	10.882
319.53	9.586
319.89	11.101
320.26	10.882
320.62	10.385
320.99	10.547
321.35	10.542
321.72	10.542
322.08	11.177
322.45	9.406
322.81	12.392
323.18	10.951
323.54	10.351
323.91	10.658
324.27	11.027
324.64	11.243
325.00	10.471
325.37	11.674
325.73	12.861
326.10	9.655
326.46	10.771
326.83	10.638
327.19	11.760
327.56	10.988
327.92	10.960
328.29	11.342
328.65	10.818
329.01	10.866
329.38	11.864
329.74	11.813
330.11	11.333
330.47	10.627
330.84	12.099
331.20	10.650
331.56	9.936
331.93	10.124
332.29	11.416
332.66	11.238
333.02	11.765
333.38	11.380
333.75	10.686
334.11	10.311
334.48	10.503
334.84	12.073
335.20	10.284
335.57	11.823
335.93	11.012
336.29	10.629
336.66	10.308
337.02	10.811
337.38	10.339
337.75	10.975
338.11	10.465
338.47	10.854
338.84	10.163
339.20	11.072
339.56	12.567
339.93	10.847
340.29	9.832
340.65	11.276
341.02	11.046
341.38	10.447
341.74	10.754
342.11	10.580
342.47	10.815
342.83	10.495
343.20	10.418
343.56	9.306
343.92	11.352
344.28	11.018
344.65	10.066
345.01	10.504
345.37	10.880
345.73	10.229
346.10	9.240
346.46	10.317
346.82	10.666
347.19	10.025
347.55	10.835
347.91	11.260
348.27	9.785
348.63	10.743
349.00	10.660
349.36	9.524
349.72	10.908
350.08	10.104
350.45	9.929
350.81	10.510
351.17	10.048
351.53	10.501
351.89	9.782
352.26	10.233
352.62	11.598
352.98	10.522
353.34	9.832
353.70	9.961
354.07	10.386
354.43	9.802
354.79	11.331
355.15	9.904
355.51	9.609
355.87	9.328
356.24	9.770
356.60	10.878
356.96	10.624
357.32	10.372
357.68	10.421
358.04	9.315
358.40	9.667
358.77	9.583
359.13	10.635
359.49	9.524
359.85	9.299
360.21	9.437
360.57	10.241
360.93	10.074
361.29	9.865
361.66	10.290
362.02	9.615
362.38	10.345
362.74	9.744
363.10	9.397
363.46	10.328
363.82	9.329
364.18	9.479
364.54	11.580
364.90	9.923
365.26	9.201
365.62	10.620
365.98	9.957
366.35	10.563
366.71	10.218
367.07	10.021
367.43	10.844
367.79	9.966
368.15	9.246
368.51	10.140
368.87	10.852
369.23	10.386
369.59	10.000
369.95	10.430
370.31	11.463
370.67	9.328
371.03	9.475
371.39	9.477
371.75	10.086
372.11	9.900
372.47	9.761
372.83	10.223
373.19	10.071
373.55	9.923
373.91	10.526
374.27	9.788
374.63	9.731
374.99	9.875
375.35	9.892
375.71	11.074
376.07	10.198
376.42	9.404
376.78	10.654
377.14	9.763
377.50	9.800
377.86	9.428
378.22	9.799
378.58	10.500
378.94	9.988
379.30	10.542
379.66	10.383
380.02	9.804
380.38	9.970
380.74	9.965
381.09	11.013
381.45	10.680
381.81	10.163
382.17	10.150
382.53	9.179
382.89	9.569
383.25	9.994
383.61	9.906
383.97	10.227
384.32	10.325
384.68	10.520
385.04	9.903
385.40	10.043
385.76	10.854
386.12	9.557
386.48	10.272
386.83	10.675
387.19	10.460
387.55	10.176
387.91	9.188
388.27	9.409
388.62	10.096
388.98	10.357
389.34	9.241
389.70	10.231
390.06	10.193
390.42	10.064
390.77	9.401
391.13	10.497
391.49	10.356
391.85	9.850
392.20	9.648
392.56	9.407
392.92	10.325
393.28	10.620
393.64	9.441
393.99	10.523
394.35	10.036
394.71	9.203
395.07	10.232
395.42	8.880
395.78	9.114
396.14	10.717
396.50	10.459
396.85	10.302
397.21	9.964
397.57	10.152
397.92	10.422
398.28	11.333
398.64	10.410
399.00	11.067
399.35	10.428
399.71	10.859
400.07	10.149
400.42	10.645
400.78	10.316
401.14	9.940
401.49	10.142
401.85	9.396
402.21	10.250
402.57	10.922
402.92	10.699
403.28	10.294
403.63	9.047
403.99	10.566
404.35	9.360
404.70	10.415
405.06	10.611
405.42	10.025
405.77	9.502
406.13	10.278
406.49	10.485
406.84	9.718
407.20	10.130
407.55	10.386
407.91	9.585
408.27	10.784
408.62	10.343
408.98	10.006
409.34	10.116
409.69	10.460
410.05	10.612
410.40	10.484
410.76	10.729
411.11	10.287
411.47	10.358
411.83	10.575
412.18	10.272
412.54	10.189
412.89	10.936
413.25	9.622
413.60	10.085
413.96	9.427
414.31	10.459
414.67	10.667
415.03	10.220
415.38	10.540
415.74	10.245
416.09	10.997
416.45	9.458
416.80	10.533
417.16	9.302
417.51	11.556
417.87	9.968
418.22	10.114
418.58	10.141
418.93	11.343
419.29	10.163
419.64	9.548
420.00	10.085
420.35	10.822
420.71	10.264
421.06	10.355
421.42	10.187
421.77	10.832
422.12	10.129
422.48	10.583
422.83	11.617
423.19	9.688
423.54	9.971
423.90	9.427
424.25	10.124
424.61	10.434
424.96	10.884
425.31	10.620
425.67	9.971
426.02	9.983
426.38	11.010
426.73	10.403
427.09	10.784
427.44	10.852
427.79	9.419
428.15	11.490
428.50	10.968
428.85	10.731
429.21	9.961
429.56	10.625
429.92	10.721
430.27	10.668
430.62	11.024
430.98	10.037
431.33	11.099
431.68	10.885
432.04	10.856
432.39	10.598
432.74	11.091
433.10	10.186
433.45	10.363
433.80	10.694
434.16	11.069
434.51	10.630
434.86	11.072
435.22	11.192
435.57	10.282
435.92	10.492
436.28	11.039
436.63	10.458
436.98	10.195
437.34	10.632
437.69	10.327
438.04	10.323
438.39	10.529
438.75	10.070
439.10	10.439
439.45	10.199
439.81	11.506
440.16	9.256
440.51	11.059
440.86	10.873
441.22	10.061
441.57	10.053
441.92	10.128
442.27	10.390
442.63	10.354
442.98	9.989
443.33	10.049
443.68	10.318
444.03	10.363
444.39	10.328
444.74	11.344
445.09	10.197
445.44	11.255
445.79	10.505
446.15	10.679
446.50	10.071
446.85	10.723
447.20	10.725
447.55	10.110
447.91	10.837
448.26	10.056
448.61	10.413
448.96	10.868
449.31	9.977
449.66	11.334
450.02	10.083
450.37	9.739
450.72	9.944
451.07	10.434
451.42	10.347
451.77	10.952
452.12	10.608
452.47	10.579
452.83	10.076
453.18	11.322
453.53	10.572
453.88	10.825
454.23	9.129
454.58	11.311
454.93	11.209
455.28	10.325
455.63	10.934
455.98	11.386
456.34	9.085
456.69	10.694
457.04	10.018
457.39	9.868
457.74	10.514
458.09	11.369
458.44	10.681
458.79	10.426
459.14	10.839
459.49	10.894
459.84	11.017
460.19	10.263
460.54	10.768
460.89	10.482
461.24	10.686
461.59	10.551
461.94	9.739
462.29	11.138
462.64	10.870
462.99	10.509
463.34	9.926
463.69	10.687
464.04	10.076
464.39	10.633
464.74	10.638
465.09	10.523
465.44	10.378
465.79	11.562
466.14	11.450
466.49	10.708
466.84	10.804
467.19	11.097
467.54	9.620
467.89	10.974
468.24	10.926
468.59	9.994
468.94	10.418
469.29	9.942
469.64	11.051
469.99	11.006
470.34	10.621
470.68	11.119
471.03	11.493
471.38	9.931
471.73	11.538
472.08	10.509
472.43	9.974
472.78	10.933
473.13	9.940
473.48	11.359
473.83	10.608
474.17	10.892
474.52	12.212
474.87	10.956
475.22	10.147
475.57	10.500
475.92	10.907
476.27	10.400
476.61	10.817
476.96	10.117
477.31	10.549
477.66	9.906
478.01	11.561
478.36	11.262
478.70	10.838
479.05	10.763
479.40	10.881
479.75	10.449
480.10	10.913
480.45	10.106
480.79	10.711
481.14	11.189
481.49	11.229
481.84	10.772
482.19	11.101
482.53	10.890
482.88	10.394
483.23	11.455
483.58	11.471
483.92	10.846
484.27	10.146
484.62	10.972
484.97	10.951
485.31	10.368
485.66	10.248
486.01	10.717
486.36	10.901
486.70	11.052
487.05	10.533
487.40	10.951
487.75	10.696
488.09	10.315
488.44	10.352
488.79	10.718
489.13	10.080
489.48	11.542
489.83	11.004
490.17	11.145
490.52	10.960
490.87	10.531
491.22	10.509
491.56	11.204
491.91	10.735
492.26	11.038
492.60	10.799
492.95	10.709
493.30	11.291
493.64	10.202
493.99	10.994
494.34	10.524
494.68	11.376
495.03	11.424
495.37	10.226
495.72	11.444
496.07	11.591
496.41	11.116
496.76	11.279
497.11	10.881
497.45	11.638
497.80	9.955
498.14	11.198
498.49	10.347
498.84	10.777
499.18	11.257
499.53	10.716
499.87	10.425
500.22	11.127
500.56	10.855
500.91	10.690
501.26	11.014
501.60	10.833
501.95	11.449
502.29	11.053
502.64	11.551
502.98	10.398
503.33	10.949
503.67	10.680
504.02	10.768
504.36	10.931
504.71	10.334
505.06	10.984
505.40	11.028
505.75	10.671
506.09	11.021
506.44	11.429
506.78	11.189
507.13	10.556
507.47	11.476
507.82	10.842
508.16	11.140
508.51	11.386
508.85	10.197
509.19	10.780
509.54	10.729
509.88	11.649
510.23	10.901
510.57	11.376
510.92	11.063
511.26	10.898
511.61	10.799
511.95	11.261
512.30	10.720
512.64	10.796
512.98	11.771
513.33	11.532
513.67	10.944
514.02	11.074
514.36	11.856
514.70	10.809
515.05	12.007
515.39	11.303
515.74	11.751
516.08	11.527
516.42	10.822
516.77	10.283
517.11	11.270
517.46	11.603
517.80	11.191
518.14	10.447
518.49	10.819
518.83	11.454
519.17	11.901
519.52	10.758
519.86	11.410
520.20	11.308
520.55	10.954
520.89	10.895
521.23	11.722
521.58	11.223
521.92	11.970
522.26	11.873
522.61	10.963
522.95	10.657
523.29	11.285
523.64	11.181
523.98	11.012
524.32	11.314
524.66	10.745
525.01	10.340
525.35	11.405
525.69	11.126
526.04	10.901
526.38	11.840
526.72	11.175
527.06	11.914
527.41	11.617
527.75	11.089
528.09	10.986
528.43	12.262
528.78	11.118
529.12	11.716
529.46	11.727
529.80	11.298
530.15	12.428
530.49	11.708
530.83	12.377
531.17	10.909
531.51	11.052
531.86	11.587
532.20	11.876
532.54	12.233
532.88	11.528
533.22	10.963
533.57	12.859
533.91	10.612
534.25	11.754
534.59	10.931
534.93	11.325
535.27	11.454
535.62	12.340
535.96	12.088
536.30	11.715
536.64	11.155
536.98	11.017
537.32	11.679
537.66	11.134
538.01	11.271
538.35	11.757
538.69	11.230
539.03	11.578
539.37	11.843
539.71	11.674
540.05	11.583
540.39	11.842
540.73	11.403
541.07	12.227
541.42	11.479
541.76	10.233
542.10	12.829
542.44	11.992
542.78	12.144
543.12	11.677
543.46	11.233
543.80	11.371
544.14	12.021
544.48	12.205
544.82	11.502
545.16	11.804
545.50	11.844
545.84	11.335
546.18	12.205
546.52	11.949
546.86	11.538
547.20	13.150
547.54	11.226
547.88	11.745
548.22	11.206
548.56	11.222
548.90	11.186
549.24	11.773
549.58	11.574
549.92	11.590
550.26	12.572
550.60	12.020
550.94	12.482
551.28	11.437
551.62	10.561
551.96	12.590
552.30	11.847
552.64	12.386
552.98	12.334
553.32	11.688
553.66	12.401
554.00	11.656
554.34	11.264
554.68	11.257
555.02	12.446
555.36	11.646
555.69	11.605
556.03	12.281
556.37	11.949
556.71	11.811
557.05	12.269
557.39	11.730
557.73	13.275
558.07	10.852
558.41	11.369
558.75	11.863
559.08	10.428
559.42	12.481
559.76	11.273
560.10	12.379
560.44	12.428
560.78	11.552
561.12	11.801
561.45	11.712
561.79	11.638
562.13	10.659
562.47	12.185
562.81	12.023
563.15	11.896
563.48	11.472
563.82	11.968
564.16	11.224
564.50	11.492
564.84	12.169
565.17	11.737
565.51	13.168
565.85	12.441
566.19	11.924
566.52	11.546
566.86	11.947
567.20	12.530
567.54	12.463
567.88	11.893
568.21	12.360
568.55	12.089
568.89	12.127
569.23	12.124
569.56	11.938
569.90	11.762
570.24	12.552
570.57	11.775
570.91	11.935
571.25	12.678
571.59	11.708
571.92	12.083
572.26	12.463
572.60	11.325
572.93	11.552
573.27	11.585
573.61	11.615
573.95	11.762
574.28	11.963
574.62	11.973
574.96	11.815
575.29	11.839
575.63	11.866
575.97	11.408
576.30	12.031
576.64	12.037
576.98	11.894
577.31	11.752
577.65	12.123
577.98	12.124
578.32	11.240
578.66	11.762
578.99	12.061
579.33	12.133
579.67	11.869
580.00	11.731
580.34	12.011
580.67	11.939
581.01	11.609
581.35	11.803
581.68	11.565
582.02	11.768
582.35	11.804
582.69	12.055
583.02	11.892
583.36	11.964
583.70	11.777
584.03	12.069
584.37	11.231
584.70	11.314
585.04	11.418
585.37	11.718
585.71	12.385
586.04	11.905
586.38	11.387
586.72	12.148
587.05	12.008
587.39	12.101
587.72	11.787
588.06	11.884
588.39	11.934
588.73	12.432
589.06	12.148
589.40	12.436
589.73	11.898
590.07	11.945
590.40	12.177
590.73	11.675
591.07	12.049
591.40	12.088
591.74	12.033
592.07	11.892
592.41	12.484
592.74	11.952
593.08	12.496
593.41	11.974
593.75	11.771
594.08	11.826
594.41	12.569
594.75	12.911
595.08	11.992
595.42	12.247
595.75	11.466
596.09	11.758
596.42	12.070
596.75	12.290
597.09	12.556
597.42	12.003
597.75	11.603
598.09	12.065
598.42	11.489
598.76	11.379
599.09	12.076
599.42	12.072
599.76	12.382
600.09	12.023
600.42	12.077
600.76	11.751
601.09	11.964
601.42	11.911
601.76	12.539
602.09	12.556
602.42	12.222
602.76	11.591
603.09	11.976
603.42	12.168
603.76	12.126
604.09	12.655
604.42	11.782
604.76	11.557
605.09	12.116
605.42	12.456
605.75	11.859
606.09	12.827
606.42	11.563
606.75	12.452
607.09	12.395
607.42	12.016
607.75	12.097
608.08	12.291
608.42	12.394
608.75	11.542
609.08	11.836
609.41	11.659
609.75	11.555
610.08	12.206
610.41	12.048
610.74	12.911
611.07	12.170
611.41	11.901
611.74	12.699
612.07	13.050
612.40	12.047
612.73	12.870
613.07	11.502
613.40	12.863
613.73	12.480
614.06	12.740
614.39	12.852
614.72	11.899
615.06	11.848
615.39	11.612
615.72	12.439
616.05	11.651
616.38	11.608
616.71	11.832
617.05	12.545
617.38	12.570
617.71	11.916
618.04	11.925
618.37	11.698
618.70	13.299
619.03	12.999
619.36	12.121
619.69	12.563
620.03	12.810
620.36	11.814
620.69	12.563
621.02	11.796
621.35	12.177
621.68	11.721
622.01	12.298
622.34	11.801
622.67	12.031
623.00	12.701
623.33	12.910
623.66	11.817
623.99	12.857
624.32	12.128
624.65	12.141
624.99	11.800
625.32	12.126
625.65	11.810
625.98	11.972
626.31	12.724
626.64	10.962
626.97	11.815
627.30	13.106
627.63	11.572
627.96	12.359
628.29	11.765
628.62	11.652
628.95	11.614
629.28	12.312
629.61	11.678
629.94	11.720
630.26	12.724
630.59	12.864
630.92	11.512
631.25	13.306
631.58	12.063
631.91	10.851
632.24	12.222
632.57	11.556
632.90	12.184
633.23	12.617
633.56	10.877
633.89	11.439
634.22	10.390
