SpectraSuite Data File
++++++++++++++++++++++++++++++++++++
Date: Sat May 16 11:25:35 PDT 2015
User: schluterlab
Dark Spectrum Present: Yes
Reference Spectrum Present: Yes
Number of Sampled Component Spectra: 1
Spectrometers: USB2E3373
Integration Time (usec): 3000 (USB2E3373)
Spectra Averaged: 3 (USB2E3373)
Boxcar Smoothing: 0 (USB2E3373)
Correct for Electrical Dark: No (USB2E3373)
Strobe/Lamp Enabled: No (USB2E3373)
Correct for Detector Non-linearity: No (USB2E3373)
Correct for Stray Light: No (USB2E3373)
Number of Pixels in Processed Spectrum: 2048
>>>>>Begin Processed Spectral Data<<<<<
178.53	0.000
178.91	126.667
179.29	433.333
179.67	-1000.000
180.04	-69.231
180.42	600.000
180.80	375.000
181.18	175.000
181.56	-75.000
181.94	500.000
182.31	550.000
182.69	30.769
183.07	-566.667
183.45	1350.000
183.83	466.667
184.20	-285.714
184.58	37.500
184.96	-250.000
185.34	137.500
185.72	-575.000
186.09	316.667
186.47	-275.000
186.85	-225.000
187.23	-87.500
187.61	-125.000
187.98	-250.000
188.36	-162.500
188.74	25.000
189.12	800.000
189.49	342.857
189.87	-41.667
190.25	550.000
190.63	-57.143
191.00	-300.000
191.38	440.000
191.76	-46.667
192.14	440.000
192.51	-380.000
192.89	-533.333
193.27	0.000
193.65	-66.667
194.02	-200.000
194.40	600.000
194.78	-140.000
195.15	-1800.000
195.53	-100.000
195.91	-316.667
196.29	120.000
196.66	-800.000
197.04	2800.000
197.42	-300.000
197.79	13.333
198.17	-533.333
198.55	-150.000
198.92	-1500.000
199.30	237.500
199.68	-600.000
200.05	-88.889
200.43	-222.222
200.81	-1200.000
201.18	-141.667
201.56	42.857
201.94	-66.667
202.31	31.818
202.69	-60.000
203.07	-20.000
203.44	566.667
203.82	-250.000
204.19	-300.000
204.57	-325.000
204.95	-2000.000
205.32	0.000
205.70	500.000
206.08	-1500.000
206.45	-38.889
206.83	-900.000
207.20	-250.000
207.58	-566.667
207.96	-33.333
208.33	-250.000
208.71	-133.333
209.08	260.000
209.46	-185.714
209.84	1350.000
210.21	0.000
210.59	40.000
210.96	600.000
211.34	-483.333
211.71	66.667
212.09	425.000
212.46	900.000
212.84	-2300.000
213.22	566.667
213.59	83.333
213.97	-33.333
214.34	200.000
214.72	-50.000
215.09	-366.667
215.47	-116.667
215.84	-160.000
216.22	-130.000
216.59	0.000
216.97	-550.000
217.34	1200.000
217.72	-200.000
218.09	-416.667
218.47	-200.000
218.84	71.429
219.22	57.143
219.59	0.000
219.97	328.571
220.34	625.000
220.72	225.000
221.09	-100.000
221.47	0.000
221.84	-33.333
222.22	-750.000
222.59	1100.000
222.97	-325.000
223.34	-950.000
223.72	-733.333
224.09	-28.571
224.46	-300.000
224.84	-100.000
225.21	-142.857
225.59	-127.273
225.96	-112.500
226.34	-71.429
226.71	-144.444
227.08	-5.000
227.46	2100.000
227.83	-214.286
228.21	-137.500
228.58	650.000
228.95	0.000
229.33	-2500.000
229.70	-260.000
230.08	-1250.000
230.45	-83.333
230.82	-83.333
231.20	-500.000
231.57	-500.000
231.95	1800.000
232.32	-33.333
232.69	-111.111
233.07	-271.429
233.44	-900.000
233.81	-26.667
234.19	-88.889
234.56	-37.500
234.93	21.875
235.31	-271.429
235.68	-100.000
236.05	-82.353
236.43	-68.182
236.80	-9.677
237.17	-12.500
237.55	-38.095
237.92	-54.545
238.29	-2.857
238.67	14.706
239.04	-30.556
239.41	32.258
239.79	-33.333
240.16	-14.286
240.53	-9.091
240.91	15.385
241.28	1.818
241.65	10.769
242.02	18.033
242.40	-3.279
242.77	33.333
243.14	1.695
243.51	-4.286
243.89	5.063
244.26	23.596
244.63	11.579
245.00	16.842
245.38	5.932
245.75	15.044
246.12	16.800
246.49	16.535
246.87	10.569
247.24	19.492
247.61	16.102
247.98	11.972
248.36	13.287
248.73	14.557
249.10	16.561
249.47	16.374
249.84	23.295
250.22	17.857
250.59	20.904
250.96	14.136
251.33	21.327
251.70	18.269
252.08	22.749
252.45	10.900
252.82	24.762
253.19	21.702
253.56	19.355
253.94	21.941
254.31	20.172
254.68	24.797
255.05	16.532
255.42	20.635
255.79	21.864
256.16	21.569
256.54	21.324
256.91	18.939
257.28	18.681
257.65	18.794
258.02	23.270
258.39	21.405
258.76	17.568
259.14	20.370
259.51	26.230
259.88	17.683
260.25	22.360
260.62	20.900
260.99	20.772
261.36	23.780
261.73	24.566
262.10	23.056
262.47	23.932
262.85	22.571
263.22	23.209
263.59	22.462
263.96	21.449
264.33	19.783
264.70	24.586
265.07	19.780
265.44	20.413
265.81	22.481
266.18	18.734
266.55	19.118
266.92	22.670
267.29	23.487
267.66	22.222
268.03	25.845
268.40	22.300
268.77	22.892
269.14	21.810
269.51	24.368
269.88	20.183
270.25	17.949
270.62	23.112
270.99	23.423
271.36	21.911
271.73	19.058
272.10	21.281
272.47	19.556
272.84	24.889
273.21	24.541
273.58	19.341
273.95	21.491
274.32	22.172
274.69	22.538
275.06	22.086
275.43	24.107
275.80	24.440
276.17	23.640
276.54	23.218
276.91	22.634
277.28	21.704
277.65	22.727
278.02	22.547
278.39	22.397
278.76	23.108
279.13	21.542
279.50	23.857
279.87	19.662
280.23	20.243
280.60	21.471
280.97	20.971
281.34	22.437
281.71	25.000
282.08	20.968
282.45	20.978
282.82	21.512
283.19	22.364
283.56	23.626
283.92	21.908
284.29	21.933
284.66	21.942
285.03	21.925
285.40	20.664
285.77	21.930
286.14	22.202
286.51	22.380
286.87	22.505
287.24	22.184
287.61	20.496
287.98	21.144
288.35	19.669
288.72	22.920
289.08	19.153
289.45	19.360
289.82	21.626
290.19	20.525
290.56	17.521
290.93	19.237
291.29	18.639
291.66	19.324
292.03	19.937
292.40	19.578
292.77	19.720
293.13	21.626
293.50	20.059
293.87	19.939
294.24	20.513
294.60	18.788
294.97	20.182
295.34	18.074
295.71	18.899
296.08	16.897
296.44	17.167
296.81	17.806
297.18	19.014
297.55	18.079
297.91	19.665
298.28	18.356
298.65	17.294
299.02	18.984
299.38	17.513
299.75	17.935
300.12	16.923
300.48	16.752
300.85	16.776
301.22	17.464
301.59	16.255
301.95	19.270
302.32	15.776
302.69	16.524
303.05	16.606
303.42	17.625
303.79	18.660
304.15	17.891
304.52	16.219
304.89	18.182
305.25	17.216
305.62	16.686
305.99	17.903
306.35	15.649
306.72	16.173
307.09	15.664
307.45	17.026
307.82	15.754
308.19	16.107
308.55	17.647
308.92	15.575
309.29	15.135
309.65	18.134
310.02	16.631
310.38	16.324
310.75	17.316
311.12	16.012
311.48	18.372
311.85	17.508
312.22	16.787
312.58	18.108
312.95	17.329
313.31	18.681
313.68	18.693
314.05	19.387
314.41	16.398
314.78	16.783
315.14	18.361
315.51	19.048
315.87	19.555
316.24	18.465
316.61	19.194
316.97	20.398
317.34	18.882
317.70	19.573
318.07	20.056
318.43	21.161
318.80	21.690
319.16	19.700
319.53	21.617
319.89	19.944
320.26	19.216
320.62	20.962
320.99	22.289
321.35	20.197
321.72	21.392
322.08	21.464
322.45	21.683
322.81	22.478
323.18	23.631
323.54	24.861
323.91	24.189
324.27	24.620
324.64	24.589
325.00	25.654
325.37	25.973
325.73	25.897
326.10	24.446
326.46	26.357
326.83	27.915
327.19	27.606
327.56	29.131
327.92	28.207
328.29	28.312
328.65	27.727
329.01	30.124
329.38	29.616
329.74	29.762
330.11	29.284
330.47	29.700
330.84	31.072
331.20	30.054
331.56	29.900
331.93	31.794
332.29	33.059
332.66	32.397
333.02	31.041
333.38	32.527
333.75	32.057
334.11	33.511
334.48	33.010
334.84	32.633
335.20	32.181
335.57	33.303
335.93	34.825
336.29	33.481
336.66	32.687
337.02	35.495
337.38	33.066
337.75	34.153
338.11	33.363
338.47	33.274
338.84	34.755
339.20	32.689
339.56	35.027
339.93	32.540
340.29	32.861
340.65	34.528
341.02	34.570
341.38	32.687
341.74	33.700
342.11	33.788
342.47	34.077
342.83	33.333
343.20	34.159
343.56	32.245
343.92	33.389
344.28	35.324
344.65	32.838
345.01	33.529
345.37	34.884
345.73	33.061
346.10	32.379
346.46	31.925
346.82	32.879
347.19	33.114
347.55	33.467
347.91	34.252
348.27	33.492
348.63	33.683
349.00	32.936
349.36	31.928
349.72	34.156
350.08	33.280
350.45	32.230
350.81	32.166
351.17	31.994
351.53	31.742
351.89	32.013
352.26	33.178
352.62	34.716
352.98	32.832
353.34	32.214
353.70	32.432
354.07	33.517
354.43	33.360
354.79	31.775
355.15	33.227
355.51	32.969
355.87	31.779
356.24	32.804
356.60	33.521
356.96	32.256
357.32	32.779
357.68	32.874
358.04	32.333
358.40	32.173
358.77	34.467
359.13	32.747
359.49	33.031
359.85	33.003
360.21	32.648
360.57	33.283
360.93	32.741
361.29	33.034
361.66	31.250
362.02	33.506
362.38	31.988
362.74	32.747
363.10	31.779
363.46	33.903
363.82	33.090
364.18	32.996
364.54	32.595
364.90	32.425
365.26	32.668
365.62	33.785
365.98	32.859
366.35	33.803
366.71	32.347
367.07	32.675
367.43	32.944
367.79	33.540
368.15	33.144
368.51	32.727
368.87	33.585
369.23	33.263
369.59	33.264
369.95	33.192
370.31	33.263
370.67	32.610
371.03	33.090
371.39	32.603
371.75	33.763
372.11	33.788
372.47	33.261
372.83	33.866
373.19	34.286
373.55	33.005
373.91	33.570
374.27	32.717
374.63	32.574
374.99	33.797
375.35	32.974
375.71	33.896
376.07	33.402
376.42	32.583
376.78	34.183
377.14	33.492
377.50	33.075
377.86	34.005
378.22	33.668
378.58	33.169
378.94	32.861
379.30	33.577
379.66	32.969
380.02	33.096
380.38	33.112
380.74	31.946
381.09	33.158
381.45	33.950
381.81	32.849
382.17	32.895
382.53	33.131
382.89	33.612
383.25	34.497
383.61	33.078
383.97	33.068
384.32	33.542
384.68	34.583
385.04	33.273
385.40	32.988
385.76	32.683
386.12	34.041
386.48	34.035
386.83	33.436
387.19	34.310
387.55	32.707
387.91	33.788
388.27	32.268
388.62	32.933
388.98	33.071
389.34	32.497
389.70	33.557
390.06	33.064
390.42	34.359
390.77	33.628
391.13	33.727
391.49	33.437
391.85	34.663
392.20	32.646
392.56	33.048
392.92	33.657
393.28	33.467
393.64	33.794
393.99	34.954
394.35	32.421
394.71	32.922
395.07	34.401
395.42	32.062
395.78	32.432
396.14	34.019
396.50	33.333
396.85	33.313
397.21	32.868
397.57	33.556
397.92	32.904
398.28	33.611
398.64	33.314
399.00	34.270
399.35	34.160
399.71	35.075
400.07	33.731
400.42	33.881
400.78	33.214
401.14	33.174
401.49	32.783
401.85	33.130
402.21	33.552
402.57	33.556
402.92	34.361
403.28	33.578
403.63	32.894
403.99	31.821
404.35	32.488
404.70	33.587
405.06	32.584
405.42	33.026
405.77	32.749
406.13	32.425
406.49	33.913
406.84	33.113
407.20	33.922
407.55	33.882
407.91	31.865
408.27	33.762
408.62	33.434
408.98	33.111
409.34	33.516
409.69	33.459
410.05	32.808
410.40	32.311
410.76	33.432
411.11	34.165
411.47	32.417
411.83	34.108
412.18	32.673
412.54	33.130
412.89	34.022
413.25	32.881
413.60	32.078
413.96	32.594
414.31	32.844
414.67	32.762
415.03	33.635
415.38	33.247
415.74	33.570
416.09	34.079
416.45	32.011
416.80	32.250
417.16	32.492
417.51	34.274
417.87	34.239
418.22	32.743
418.58	33.504
418.93	33.292
419.29	33.626
419.64	32.475
420.00	33.475
420.35	32.525
420.71	33.433
421.06	33.728
421.42	33.314
421.77	33.724
422.12	33.072
422.48	33.298
422.83	33.941
423.19	33.352
423.54	32.450
423.90	32.967
424.25	33.541
424.61	34.741
424.96	34.231
425.31	34.265
425.67	33.467
426.02	33.104
426.38	34.362
426.73	34.483
427.09	33.701
427.44	33.636
427.79	34.070
428.15	34.291
428.50	33.548
428.85	34.053
429.21	33.758
429.56	33.698
429.92	34.068
430.27	34.297
430.62	35.371
430.98	34.083
431.33	34.098
431.68	34.745
432.04	34.863
432.39	34.473
432.74	35.312
433.10	35.115
433.45	33.794
433.80	34.490
434.16	34.283
434.51	34.630
434.86	34.915
435.22	35.189
435.57	33.905
435.92	35.404
436.28	35.846
436.63	34.539
436.98	33.849
437.34	35.499
437.69	34.947
438.04	34.827
438.39	35.018
438.75	34.983
439.10	35.813
439.45	35.848
439.81	35.060
440.16	34.639
440.51	36.588
440.86	35.570
441.22	35.047
441.57	35.684
441.92	35.601
442.27	35.552
442.63	35.139
442.98	34.876
443.33	35.969
443.68	36.842
444.03	35.806
444.39	35.536
444.74	36.013
445.09	35.910
445.44	35.509
445.79	35.951
446.15	36.637
446.50	34.839
446.85	35.146
447.20	36.977
447.55	35.967
447.91	35.991
448.26	36.816
448.61	35.371
448.96	36.246
449.31	35.626
449.66	35.947
450.02	35.512
450.37	36.058
450.72	35.311
451.07	36.581
451.42	34.634
451.77	36.744
452.12	35.280
452.47	35.390
452.83	36.401
453.18	35.547
453.53	36.256
453.88	36.065
454.23	35.369
454.58	36.420
454.93	36.839
455.28	37.476
455.63	36.425
455.98	35.843
456.34	36.023
456.69	37.523
457.04	35.771
457.39	35.467
457.74	37.035
458.09	36.833
458.44	36.605
458.79	36.547
459.14	36.281
459.49	37.419
459.84	36.594
460.19	36.337
460.54	36.600
460.89	36.155
461.24	36.005
461.59	37.515
461.94	36.601
462.29	37.582
462.64	36.693
462.99	36.546
463.34	36.935
463.69	36.323
464.04	36.204
464.39	36.022
464.74	36.820
465.09	36.621
465.44	36.605
465.79	36.435
466.14	37.227
466.49	36.269
466.84	37.275
467.19	37.531
467.54	35.316
467.89	36.005
468.24	38.124
468.59	37.227
468.94	36.592
469.29	36.452
469.64	36.253
469.99	37.475
470.34	37.943
470.68	38.227
471.03	36.958
471.38	36.250
471.73	37.832
472.08	36.479
472.43	36.873
472.78	37.000
473.13	36.713
473.48	37.524
473.83	35.856
474.17	36.561
474.52	38.299
474.87	37.179
475.22	37.463
475.57	37.167
475.92	38.067
476.27	36.743
476.61	36.732
476.96	36.333
477.31	37.621
477.66	36.580
478.01	37.223
478.36	36.721
478.70	36.733
479.05	37.642
479.40	37.254
479.75	36.137
480.10	37.004
480.45	36.654
480.79	37.414
481.14	37.481
481.49	37.996
481.84	37.494
482.19	36.409
482.53	37.547
482.88	37.067
483.23	36.761
483.58	37.419
483.92	37.697
484.27	36.952
484.62	35.940
484.97	37.568
485.31	35.648
485.66	35.236
486.01	35.147
486.36	36.435
486.70	37.880
487.05	36.950
487.40	36.512
487.75	35.879
488.09	36.813
488.44	36.942
488.79	36.151
489.13	37.505
489.48	37.969
489.83	36.987
490.17	36.308
490.52	37.681
490.87	36.952
491.22	36.945
491.56	37.824
491.91	37.405
492.26	35.943
492.60	36.727
492.95	37.458
493.30	37.542
493.64	37.424
493.99	37.285
494.34	38.143
494.68	38.436
495.03	36.472
495.37	36.922
495.72	37.181
496.07	37.306
496.41	37.656
496.76	37.808
497.11	37.306
497.45	37.261
497.80	38.169
498.14	37.377
498.49	37.167
498.84	37.670
499.18	37.914
499.53	38.042
499.87	37.066
500.22	37.745
500.56	37.819
500.91	37.537
501.26	38.234
501.60	37.747
501.95	38.213
502.29	36.608
502.64	37.482
502.98	37.470
503.33	37.641
503.67	36.925
504.02	37.180
504.36	37.304
504.71	38.450
505.06	37.344
505.40	37.725
505.75	38.618
506.09	38.372
506.44	37.794
506.78	37.582
507.13	37.487
507.47	39.176
507.82	38.255
508.16	38.964
508.51	38.228
508.85	38.095
509.19	36.630
509.54	37.315
509.88	37.766
510.23	38.522
510.57	38.466
510.92	38.668
511.26	37.214
511.61	37.635
511.95	37.823
512.30	38.483
512.64	37.730
512.98	38.504
513.33	37.727
513.67	37.688
514.02	38.367
514.36	38.172
514.70	38.483
515.05	38.422
515.39	38.062
515.74	38.162
516.08	38.098
516.42	37.847
516.77	38.648
517.11	38.673
517.46	39.055
517.80	39.110
518.14	37.500
518.49	37.478
518.83	38.872
519.17	37.596
519.52	38.288
519.86	39.008
520.20	37.836
520.55	37.846
520.89	37.195
521.23	37.973
521.58	38.621
521.92	37.999
522.26	38.857
522.61	38.213
522.95	37.396
523.29	38.558
523.64	37.477
523.98	38.765
524.32	38.152
524.66	37.329
525.01	38.921
525.35	39.433
525.69	37.736
526.04	38.381
526.38	38.383
526.72	38.250
527.06	38.932
527.41	38.482
527.75	37.360
528.09	39.444
528.43	38.033
528.78	37.940
529.12	38.988
529.46	37.629
529.80	38.154
530.15	38.571
530.49	37.840
530.83	39.555
531.17	37.778
531.51	37.441
531.86	38.249
532.20	38.462
532.54	37.233
532.88	38.011
533.22	38.904
533.57	38.903
533.91	37.890
534.25	37.461
534.59	36.977
534.93	36.403
535.27	38.200
535.62	38.235
535.96	37.880
536.30	37.304
536.64	38.313
536.98	38.912
537.32	38.424
537.66	38.018
538.01	38.007
538.35	38.514
538.69	37.233
539.03	37.441
539.37	37.325
539.71	38.159
540.05	38.794
540.39	38.850
540.73	38.148
541.07	39.003
541.42	37.610
541.76	36.545
542.10	37.677
542.44	37.175
542.78	36.703
543.12	38.764
543.46	36.164
543.80	37.926
544.14	37.408
544.48	37.402
544.82	38.633
545.16	37.693
545.50	37.416
545.84	37.900
546.18	37.795
546.52	38.620
546.86	37.322
547.20	38.819
547.54	36.433
547.88	37.890
548.22	36.697
548.56	36.807
548.90	38.005
549.24	37.772
549.58	36.415
549.92	37.597
550.26	37.861
550.60	37.482
550.94	37.518
551.28	37.998
551.62	37.740
551.96	37.120
552.30	37.213
552.64	37.087
552.98	38.542
553.32	37.734
553.66	36.482
554.00	37.811
554.34	37.978
554.68	37.792
555.02	36.397
555.36	37.168
555.69	37.034
556.03	37.053
556.37	38.122
556.71	37.652
557.05	38.137
557.39	36.897
557.73	36.689
558.07	37.830
558.41	36.425
558.75	36.806
559.08	36.109
559.42	37.136
559.76	37.730
560.10	36.987
560.44	38.295
560.78	37.161
561.12	36.784
561.45	37.123
561.79	35.889
562.13	37.658
562.47	36.485
562.81	38.119
563.15	36.739
563.48	37.802
563.82	37.525
564.16	36.241
564.50	38.038
564.84	37.037
565.17	36.074
565.51	37.875
565.85	38.472
566.19	36.364
566.52	37.769
566.86	37.231
567.20	37.833
567.54	37.626
567.88	36.460
568.21	36.857
568.55	37.063
568.89	36.481
569.23	35.076
569.56	35.771
569.90	36.231
570.24	35.964
570.57	35.290
570.91	35.804
571.25	35.603
571.59	35.467
571.92	34.940
572.26	35.201
572.60	35.371
572.93	34.964
573.27	34.360
573.61	34.729
573.95	34.859
574.28	34.801
574.62	35.613
574.96	34.671
575.29	34.502
575.63	35.121
575.97	34.493
576.30	33.790
576.64	34.700
576.98	34.685
577.31	34.565
577.65	35.294
577.98	34.856
578.32	34.456
578.66	34.955
578.99	35.037
579.33	35.092
579.67	34.492
580.00	35.045
580.34	34.785
580.67	34.665
581.01	34.186
581.35	34.505
581.68	34.084
582.02	35.084
582.35	34.353
582.69	34.977
583.02	35.190
583.36	34.962
583.70	35.074
584.03	35.587
584.37	35.101
584.70	34.814
585.04	35.013
585.37	34.200
585.71	34.736
586.04	35.005
586.38	34.723
586.72	34.555
587.05	34.976
587.39	34.581
587.72	34.829
588.06	35.076
588.39	35.004
588.73	35.063
589.06	35.038
589.40	35.417
589.73	35.871
590.07	35.069
590.40	34.760
590.73	35.706
591.07	36.148
591.40	35.962
591.74	34.535
592.07	35.721
592.41	34.989
592.74	35.511
593.08	34.363
593.41	35.099
593.75	34.191
594.08	35.011
594.41	35.786
594.75	34.881
595.08	35.188
595.42	35.910
595.75	35.502
596.09	35.390
596.42	35.843
596.75	34.886
597.09	35.040
597.42	35.618
597.75	35.208
598.09	35.563
598.42	35.307
598.76	35.133
599.09	34.451
599.42	34.218
599.76	34.730
600.09	35.038
600.42	34.827
600.76	35.480
601.09	35.169
601.42	34.072
601.76	35.202
602.09	35.337
602.42	34.115
602.76	34.857
603.09	35.202
603.42	35.214
603.76	35.181
604.09	35.362
604.42	34.555
604.76	35.238
605.09	34.629
605.42	34.796
605.75	35.317
606.09	34.745
606.42	34.855
606.75	35.079
607.09	35.333
607.42	34.683
607.75	34.437
608.08	34.930
608.42	34.721
608.75	34.019
609.08	35.314
609.41	34.579
609.75	34.812
610.08	35.833
610.41	35.614
610.74	35.106
611.07	35.446
611.41	34.291
611.74	35.321
612.07	35.124
612.40	34.808
612.73	35.380
613.07	35.058
613.40	35.577
613.73	35.095
614.06	35.805
614.39	36.697
614.72	33.575
615.06	35.109
615.39	34.021
615.72	35.959
616.05	35.008
616.38	34.939
616.71	34.595
617.05	35.585
617.38	35.418
617.71	33.968
618.04	35.404
618.37	35.283
618.70	35.789
619.03	33.785
619.36	35.518
619.69	35.104
620.03	33.815
620.36	34.810
620.69	34.817
621.02	34.018
621.35	34.597
621.68	35.574
622.01	36.003
622.34	35.404
622.67	34.922
623.00	35.042
623.33	36.045
623.66	35.155
623.99	35.489
624.32	35.119
624.65	35.982
624.99	35.474
625.32	35.105
625.65	35.664
625.98	35.133
626.31	34.910
626.64	35.146
626.97	34.846
627.30	35.234
627.63	34.283
627.96	34.726
628.29	35.018
628.62	35.912
628.95	35.039
629.28	35.244
629.61	35.231
629.94	35.350
630.26	37.276
630.59	36.985
630.92	34.835
631.25	35.988
631.58	36.085
631.91	35.000
