SpectraSuite Data File
++++++++++++++++++++++++++++++++++++
Date: Sat May 16 11:30:47 PDT 2015
User: schluterlab
Dark Spectrum Present: Yes
Reference Spectrum Present: Yes
Number of Sampled Component Spectra: 1
Spectrometers: USB2E3373
Integration Time (usec): 3000 (USB2E3373)
Spectra Averaged: 3 (USB2E3373)
Boxcar Smoothing: 0 (USB2E3373)
Correct for Electrical Dark: No (USB2E3373)
Strobe/Lamp Enabled: No (USB2E3373)
Correct for Detector Non-linearity: No (USB2E3373)
Correct for Stray Light: No (USB2E3373)
Number of Pixels in Processed Spectrum: 2048
>>>>>Begin Processed Spectral Data<<<<<
178.53	0.000
178.91	140.000
179.29	466.667
179.67	-1300.000
180.04	-115.385
180.42	1800.000
180.80	275.000
181.18	275.000
181.56	-87.500
181.94	1300.000
182.31	500.000
182.69	-23.077
183.07	-400.000
183.45	1200.000
183.83	833.333
184.20	-128.571
184.58	-187.500
184.96	-450.000
185.34	87.500
185.72	-275.000
186.09	133.333
186.47	-175.000
186.85	-225.000
187.23	37.500
187.61	-25.000
187.98	-312.500
188.36	-75.000
188.74	-150.000
189.12	1000.000
189.49	342.857
189.87	-100.000
190.25	450.000
190.63	-28.571
191.00	-244.444
191.38	360.000
191.76	-13.333
192.14	440.000
192.51	-140.000
192.89	-533.333
193.27	0.000
193.65	-111.111
194.02	-271.429
194.40	533.333
194.78	-80.000
195.15	-1300.000
195.53	-127.273
195.91	-366.667
196.29	340.000
196.66	-766.667
197.04	2800.000
197.42	-375.000
197.79	0.000
198.17	-600.000
198.55	0.000
198.92	-1500.000
199.30	212.500
199.68	-700.000
200.05	-44.444
200.43	-311.111
200.81	-2100.000
201.18	-83.333
201.56	228.571
201.94	-80.000
202.31	4.545
202.69	40.000
203.07	-100.000
203.44	633.333
203.82	-266.667
204.19	-275.000
204.57	-300.000
204.95	-1800.000
205.32	-25.000
205.70	1000.000
206.08	-1900.000
206.45	-61.111
206.83	-1200.000
207.20	300.000
207.58	-566.667
207.96	-1100.000
208.33	-237.500
208.71	-100.000
209.08	290.000
209.46	-142.857
209.84	700.000
210.21	0.000
210.59	5.000
210.96	1100.000
211.34	-316.667
211.71	-33.333
212.09	525.000
212.46	700.000
212.84	-3700.000
213.22	600.000
213.59	183.333
213.97	-44.444
214.34	140.000
214.72	-130.000
215.09	-500.000
215.47	-150.000
215.84	-50.000
216.22	-120.000
216.59	-53.333
216.97	-525.000
217.34	1150.000
217.72	-242.857
218.09	-233.333
218.47	-200.000
218.84	257.143
219.22	-285.714
219.59	0.000
219.97	228.571
220.34	400.000
220.72	187.500
221.09	-46.154
221.47	0.000
221.84	733.333
222.22	-450.000
222.59	700.000
222.97	-200.000
223.34	-350.000
223.72	-566.667
224.09	-21.429
224.46	-325.000
224.84	14.286
225.21	-128.571
225.59	-45.455
225.96	-237.500
226.34	57.143
226.71	-133.333
227.08	-65.000
227.46	1500.000
227.83	-228.571
228.21	-125.000
228.58	1300.000
228.95	-31.250
229.33	-1900.000
229.70	-320.000
230.08	-1200.000
230.45	-100.000
230.82	-150.000
231.20	-1000.000
231.57	-650.000
231.95	2200.000
232.32	-23.810
232.69	-144.444
233.07	-257.143
233.44	-950.000
233.81	-26.667
234.19	-44.444
234.56	-37.500
234.93	6.250
235.31	-142.857
235.68	-178.571
236.05	-82.353
236.43	-63.636
236.80	-25.806
237.17	4.167
237.55	-100.000
237.92	-122.727
238.29	-37.143
238.67	2.941
239.04	-8.333
239.41	-45.161
239.79	-56.410
240.16	-23.810
240.53	-12.727
240.91	-17.949
241.28	-20.000
241.65	6.154
242.02	-3.279
242.40	-9.836
242.77	1.515
243.14	-5.085
243.51	0.000
243.89	3.797
244.26	-2.247
244.63	3.158
245.00	5.263
245.38	13.559
245.75	7.965
246.12	6.400
246.49	7.087
246.87	8.130
247.24	-2.542
247.61	5.085
247.98	2.817
248.36	13.986
248.73	7.595
249.10	5.096
249.47	5.263
249.84	11.364
250.22	2.976
250.59	12.994
250.96	13.089
251.33	11.848
251.70	12.019
252.08	12.796
252.45	5.213
252.82	6.190
253.19	11.915
253.56	6.855
253.94	13.924
254.31	9.013
254.68	10.976
255.05	7.661
255.42	11.905
255.79	15.054
256.16	15.686
256.54	10.294
256.91	9.470
257.28	12.454
257.65	12.411
258.02	14.151
258.39	9.699
258.76	12.500
259.14	10.802
259.51	14.426
259.88	13.415
260.25	12.733
260.62	7.395
260.99	8.902
261.36	15.244
261.73	12.717
262.10	12.500
262.47	11.111
262.85	15.714
263.22	13.467
263.59	8.615
263.96	8.986
264.33	13.821
264.70	12.155
265.07	13.462
265.44	9.819
265.81	10.853
266.18	10.127
266.55	11.029
266.92	14.106
267.29	13.801
267.66	11.358
268.03	14.010
268.40	14.085
268.77	12.530
269.14	12.761
269.51	13.793
269.88	12.844
270.25	11.422
270.62	13.043
270.99	9.009
271.36	10.023
271.73	13.677
272.10	11.670
272.47	12.222
272.84	15.778
273.21	11.927
273.58	11.648
273.95	12.500
274.32	11.765
274.69	11.160
275.06	13.701
275.43	10.491
275.80	14.460
276.17	13.808
276.54	15.682
276.91	12.963
277.28	13.185
277.65	12.810
278.02	13.987
278.39	13.163
278.76	13.147
279.13	13.241
279.50	12.127
279.87	10.994
280.23	16.397
280.60	14.712
280.97	13.398
281.34	11.799
281.71	10.962
282.08	13.306
282.45	10.591
282.82	14.341
283.19	12.545
283.56	15.385
283.92	14.664
284.29	11.524
284.66	13.489
285.03	13.012
285.40	11.993
285.77	14.912
286.14	11.913
286.51	11.901
286.87	13.975
287.24	13.993
287.61	12.893
287.98	12.825
288.35	14.050
288.72	10.357
289.08	10.339
289.45	12.626
289.82	12.111
290.19	14.778
290.56	11.240
290.93	13.355
291.29	10.859
291.66	12.238
292.03	13.030
292.40	13.253
292.77	13.509
293.13	12.846
293.50	12.481
293.87	11.503
294.24	11.614
294.60	10.606
294.97	12.898
295.34	12.889
295.71	11.458
296.08	9.985
296.44	10.730
296.81	13.960
297.18	9.577
297.55	12.288
297.91	12.273
298.28	9.863
298.65	12.273
299.02	12.968
299.38	11.230
299.75	12.228
300.12	12.436
300.48	11.637
300.85	11.271
301.22	10.996
301.59	12.224
301.95	12.469
302.32	9.518
302.69	12.362
303.05	11.355
303.42	10.000
303.79	12.560
304.15	11.256
304.52	12.369
304.89	11.688
305.25	11.233
305.62	11.046
305.99	12.839
306.35	11.210
306.72	11.276
307.09	12.259
307.45	10.216
307.82	11.061
308.19	10.962
308.55	10.784
308.92	9.989
309.29	11.892
309.65	10.604
310.02	12.527
310.38	10.919
310.75	11.783
311.12	12.293
311.48	12.944
311.85	10.917
312.22	11.535
312.58	12.309
312.95	11.315
313.31	11.888
313.68	12.261
314.05	11.573
314.41	10.262
314.78	11.089
315.14	13.129
315.51	10.436
315.87	12.875
316.24	12.342
316.61	11.996
316.97	13.831
317.34	12.331
317.70	10.575
318.07	12.313
318.43	12.079
318.80	13.991
319.16	11.351
319.53	12.218
319.89	12.230
320.26	12.059
320.62	12.212
320.99	12.438
321.35	12.414
321.72	10.440
322.08	14.441
322.45	12.574
322.81	13.737
323.18	13.353
323.54	13.678
323.91	13.160
324.27	12.928
324.64	13.071
325.00	13.787
325.37	13.032
325.73	14.523
326.10	13.198
326.46	14.011
326.83	14.213
327.19	13.928
327.56	15.673
327.92	14.274
328.29	13.680
328.65	13.455
329.01	15.194
329.38	14.541
329.74	15.201
330.11	15.322
330.47	14.805
330.84	16.132
331.20	14.621
331.56	14.038
331.93	13.854
332.29	16.073
332.66	14.925
333.02	15.023
333.38	15.412
333.75	16.028
334.11	15.911
334.48	14.298
334.84	16.098
335.20	15.869
335.57	15.794
335.93	16.473
336.29	15.766
336.66	15.330
337.02	15.315
337.38	14.884
337.75	16.330
338.11	14.490
338.47	15.125
338.84	14.973
339.20	14.587
339.56	16.132
339.93	14.903
340.29	15.323
340.65	14.248
341.02	16.948
341.38	15.501
341.74	15.665
342.11	15.444
342.47	15.794
342.83	16.205
343.20	15.286
343.56	14.122
343.92	16.027
344.28	16.484
344.65	16.667
345.01	15.294
345.37	16.279
345.73	15.057
346.10	14.473
346.46	14.785
346.82	15.156
347.19	15.448
347.55	15.329
347.91	15.354
348.27	15.115
348.63	16.397
349.00	15.593
349.36	14.754
349.72	15.605
350.08	15.397
350.45	14.894
350.81	16.083
351.17	15.113
351.53	14.718
351.89	15.683
352.26	15.814
352.62	16.820
352.98	15.744
353.34	15.108
353.70	15.058
354.07	15.342
354.43	16.680
354.79	14.659
355.15	15.575
355.51	14.766
355.87	14.625
356.24	15.171
356.60	16.197
356.96	16.012
357.32	14.885
357.68	15.096
358.04	15.242
358.40	14.540
358.77	15.611
359.13	15.379
359.49	15.949
359.85	15.244
360.21	16.514
360.57	16.416
360.93	15.556
361.29	17.040
361.66	14.787
362.02	16.716
362.38	16.434
362.74	15.531
363.10	15.280
363.46	17.094
363.82	16.545
364.18	16.281
364.54	18.227
364.90	15.234
365.26	15.193
365.62	16.964
365.98	16.145
366.35	16.056
366.71	16.209
367.07	16.867
367.43	17.502
367.79	16.632
368.15	16.145
368.51	16.993
368.87	17.651
369.23	16.491
369.59	16.111
369.95	17.054
370.31	17.722
370.67	16.631
371.03	16.618
371.39	16.266
371.75	16.381
372.11	18.436
372.47	17.570
372.83	15.786
373.19	16.786
373.55	17.312
373.91	16.856
374.27	16.359
374.63	17.322
374.99	18.707
375.35	17.699
375.71	17.961
376.07	18.480
376.42	17.881
376.78	18.366
377.14	17.763
377.50	17.924
377.86	17.360
378.22	18.530
378.58	17.851
378.94	18.249
379.30	18.099
379.66	18.640
380.02	18.895
380.38	19.094
380.74	18.875
381.09	20.152
381.45	19.391
381.81	19.056
382.17	19.048
382.53	18.298
382.89	19.438
383.25	19.326
383.61	18.691
383.97	19.657
384.32	20.088
384.68	20.073
385.04	19.444
385.40	20.207
385.76	20.610
386.12	20.300
386.48	19.431
386.83	20.859
387.19	21.219
387.55	19.685
387.91	20.391
388.27	20.145
388.62	19.772
388.98	20.533
389.34	21.114
389.70	20.767
390.06	20.634
390.42	21.090
390.77	20.946
391.13	22.050
391.49	21.148
391.85	20.200
392.20	20.631
392.56	20.892
392.92	20.308
393.28	21.699
393.64	21.768
393.99	21.354
394.35	21.107
394.71	21.804
395.07	22.159
395.42	21.633
395.78	21.496
396.14	21.869
396.50	21.529
396.85	21.098
397.21	21.628
397.57	21.945
397.92	22.482
398.28	21.444
398.64	22.487
399.00	22.865
399.35	21.590
399.71	21.719
400.07	22.149
400.42	22.080
400.78	21.228
401.14	22.575
401.49	21.698
401.85	22.148
402.21	21.752
402.57	22.816
402.92	22.719
403.28	22.365
403.63	21.929
403.99	22.809
404.35	22.705
404.70	22.294
405.06	22.722
405.42	21.156
405.77	22.002
406.13	22.430
406.49	22.109
406.84	23.095
407.20	23.380
407.55	22.609
407.91	22.021
408.27	22.917
408.62	23.091
408.98	22.741
409.34	23.035
409.69	21.991
410.05	22.256
410.40	23.053
410.76	22.466
411.11	22.943
411.47	22.315
411.83	23.533
412.18	22.649
412.54	22.392
412.89	22.904
413.25	22.963
413.60	22.418
413.96	21.688
414.31	23.976
414.67	21.905
415.03	22.962
415.38	23.682
415.74	24.098
416.09	22.506
416.45	22.751
416.80	23.732
417.16	22.392
417.51	23.047
417.87	22.524
418.22	22.882
418.58	23.813
418.93	23.115
419.29	23.338
419.64	22.425
420.00	23.998
420.35	23.241
420.71	23.890
421.06	23.373
421.42	23.068
421.77	23.116
422.12	23.391
422.48	23.624
422.83	23.519
423.19	23.942
423.54	23.862
423.90	23.713
424.25	23.133
424.61	24.970
424.96	25.102
425.31	24.036
425.67	25.043
426.02	23.810
426.38	24.743
426.73	24.430
427.09	23.775
427.44	24.318
427.79	23.837
428.15	24.776
428.50	24.399
428.85	24.101
429.21	24.405
429.56	25.000
429.92	23.898
430.27	25.075
430.62	25.078
430.98	24.255
431.33	25.507
431.68	25.469
432.04	25.350
432.39	25.242
432.74	25.180
433.10	24.930
433.45	25.101
433.80	24.916
434.16	25.739
434.51	25.808
434.86	26.069
435.22	25.557
435.57	24.908
435.92	25.264
436.28	24.866
436.63	25.042
436.98	24.742
437.34	26.226
437.69	25.554
438.04	25.752
438.39	25.933
438.75	25.320
439.10	25.875
439.45	25.226
439.81	25.964
440.16	25.213
440.51	25.529
440.86	24.812
441.22	25.760
441.57	25.579
441.92	26.189
442.27	25.595
442.63	25.751
442.98	26.072
443.33	26.634
443.68	26.420
444.03	25.982
444.39	25.844
444.74	26.707
445.09	25.493
445.44	27.124
445.79	26.160
446.15	26.780
446.50	25.204
446.85	26.475
447.20	26.660
447.55	25.746
447.91	26.727
448.26	25.531
448.61	26.542
448.96	27.003
449.31	26.212
449.66	26.903
450.02	26.981
450.37	26.029
450.72	26.893
451.07	27.781
451.42	25.589
451.77	26.511
452.12	26.579
452.47	26.385
452.83	26.791
453.18	26.945
453.53	27.550
453.88	27.153
454.23	26.904
454.58	27.595
454.93	27.456
455.28	26.259
455.63	26.904
455.98	27.108
456.34	26.366
456.69	27.705
457.04	27.105
457.39	27.392
457.74	26.757
458.09	27.436
458.44	27.656
458.79	26.513
459.14	27.439
459.49	27.946
459.84	27.712
460.19	26.909
460.54	26.981
460.89	27.971
461.24	27.869
461.59	27.960
461.94	27.626
462.29	27.993
462.64	28.393
462.99	28.112
463.34	26.671
463.69	27.799
464.04	26.596
464.39	27.599
464.74	27.009
465.09	26.879
465.44	26.678
465.79	27.242
466.14	27.791
466.49	27.404
466.84	27.071
467.19	28.117
467.54	27.278
467.89	28.977
468.24	28.088
468.59	27.733
468.94	28.746
469.29	27.550
469.64	28.504
469.99	28.562
470.34	28.390
470.68	29.288
471.03	28.768
471.38	27.847
471.73	28.462
472.08	27.711
472.43	27.992
472.78	28.667
473.13	27.833
473.48	29.036
473.83	29.156
474.17	27.707
474.52	29.220
474.87	28.147
475.22	28.319
475.57	27.778
475.92	28.888
476.27	28.343
476.61	27.831
476.96	27.390
477.31	28.471
477.66	28.666
478.01	28.687
478.36	27.501
478.70	29.098
479.05	28.069
479.40	29.119
479.75	28.848
480.10	28.919
480.45	27.998
480.79	29.269
481.14	29.654
481.49	28.606
481.84	28.202
482.19	28.780
482.53	28.551
482.88	28.334
483.23	28.920
483.58	28.955
483.92	29.861
484.27	27.736
484.62	28.726
484.97	28.332
485.31	27.520
485.66	26.433
486.01	26.875
486.36	27.808
486.70	28.800
487.05	28.485
487.40	28.339
487.75	28.495
488.09	28.166
488.44	29.465
488.79	29.218
489.13	29.555
489.48	29.568
489.83	28.777
490.17	29.038
490.52	29.303
490.87	28.868
491.22	29.052
491.56	29.722
491.91	29.246
492.26	29.623
492.60	28.687
492.95	28.939
493.30	29.490
493.64	28.209
493.99	29.637
494.34	30.000
494.68	30.056
495.03	30.019
495.37	30.039
495.72	30.305
496.07	30.080
496.41	29.736
496.76	29.635
497.11	30.476
497.45	30.220
497.80	29.865
498.14	29.666
498.49	30.789
498.84	30.291
499.18	29.971
499.53	29.761
499.87	29.778
500.22	29.902
500.56	30.415
500.91	29.754
501.26	29.791
501.60	28.936
501.95	30.097
502.29	29.570
502.64	29.750
502.98	29.276
503.33	29.464
503.67	29.502
504.02	30.275
504.36	30.245
504.71	29.635
505.06	29.855
505.40	30.739
505.75	30.386
506.09	30.283
506.44	30.125
506.78	30.507
507.13	29.248
507.47	30.725
507.82	29.737
508.16	30.052
508.51	29.675
508.85	30.538
509.19	30.560
509.54	29.704
509.88	30.585
510.23	29.612
510.57	30.370
510.92	31.794
511.26	30.090
511.61	31.210
511.95	30.981
512.30	30.676
512.64	30.551
512.98	31.518
513.33	30.588
513.67	30.095
514.02	30.257
514.36	29.806
514.70	30.730
515.05	30.475
515.39	30.911
515.74	31.879
516.08	30.490
516.42	30.538
516.77	31.254
517.11	31.350
517.46	30.921
517.80	31.709
518.14	31.401
518.49	30.604
518.83	29.614
519.17	30.906
519.52	30.827
519.86	31.840
520.20	30.929
520.55	32.492
520.89	29.931
521.23	30.220
521.58	30.909
521.92	32.489
522.26	32.127
522.61	31.432
522.95	31.334
523.29	30.094
523.64	31.355
523.98	31.063
524.32	31.992
524.66	31.366
525.01	31.278
525.35	31.443
525.69	31.555
526.04	32.245
526.38	32.272
526.72	31.354
527.06	32.096
527.41	30.825
527.75	31.353
528.09	30.973
528.43	32.066
528.78	31.910
529.12	31.690
529.46	30.928
529.80	30.600
530.15	32.260
530.49	31.371
530.83	33.333
531.17	33.266
531.51	31.547
531.86	31.534
532.20	31.916
532.54	31.484
532.88	30.962
533.22	31.618
533.57	32.572
533.91	30.836
534.25	29.918
534.59	30.731
534.93	30.554
535.27	30.837
535.62	31.905
535.96	31.028
536.30	30.563
536.64	31.474
536.98	33.475
537.32	32.066
537.66	31.636
538.01	31.546
538.35	32.365
538.69	31.016
539.03	30.399
539.37	31.404
539.71	31.488
540.05	31.323
540.39	31.648
540.73	32.135
541.07	31.831
541.42	31.128
541.76	29.502
542.10	32.005
542.44	31.312
542.78	31.818
543.12	32.179
543.46	30.822
543.80	31.973
544.14	30.692
544.48	32.021
544.82	30.514
545.16	32.730
545.50	29.812
545.84	32.128
546.18	31.207
546.52	31.366
546.86	30.413
547.20	31.153
547.54	30.028
547.88	30.790
548.22	30.144
548.56	30.394
548.90	31.806
549.24	31.465
549.58	30.981
549.92	32.580
550.26	32.298
550.60	31.650
550.94	32.117
551.28	32.280
551.62	31.610
551.96	30.680
552.30	30.174
552.64	31.457
552.98	31.535
553.32	31.313
553.66	31.939
554.00	31.059
554.34	30.397
554.68	30.848
555.02	31.331
555.36	30.697
555.69	30.731
556.03	31.298
556.37	32.290
556.71	31.639
557.05	32.446
557.39	30.512
557.73	32.239
558.07	31.424
558.41	31.937
558.75	33.308
559.08	30.584
559.42	31.470
559.76	32.899
560.10	31.544
560.44	31.936
560.78	31.176
561.12	31.953
561.45	31.918
561.79	31.847
562.13	32.048
562.47	29.552
562.81	31.683
563.15	31.910
563.48	30.684
563.82	31.034
564.16	30.696
564.50	31.116
564.84	31.085
565.17	31.764
565.51	31.682
565.85	31.913
566.19	31.950
566.52	31.637
566.86	31.226
567.20	31.961
567.54	31.128
567.88	30.318
568.21	30.649
568.55	31.283
568.89	29.672
569.23	29.338
569.56	29.004
569.90	29.465
570.24	29.914
570.57	28.893
570.91	29.004
571.25	29.021
571.59	29.285
571.92	29.018
572.26	28.820
572.60	28.855
572.93	28.275
573.27	28.506
573.61	28.965
573.95	27.861
574.28	28.483
574.62	28.597
574.96	27.841
575.29	27.871
575.63	28.405
575.97	28.533
576.30	28.611
576.64	28.433
576.98	27.868
577.31	28.582
577.65	28.539
577.98	28.503
578.32	28.141
578.66	28.079
578.99	28.827
579.33	28.485
579.67	28.785
580.00	27.951
580.34	28.229
580.67	28.487
581.01	27.491
581.35	28.109
581.68	27.767
582.02	28.217
582.35	28.272
582.69	28.537
583.02	28.559
583.36	28.170
583.70	28.597
584.03	29.014
584.37	28.823
584.70	28.972
585.04	28.304
585.37	27.780
585.71	28.060
586.04	28.749
586.38	28.415
586.72	28.439
587.05	28.632
587.39	28.271
587.72	28.856
588.06	28.418
588.39	28.510
588.73	29.511
589.06	29.028
589.40	29.440
589.73	29.780
590.07	29.789
590.40	29.410
590.73	29.268
591.07	29.877
591.40	29.246
591.74	29.713
592.07	29.279
592.41	29.894
592.74	28.786
593.08	28.974
593.41	28.454
593.75	28.652
594.08	28.541
594.41	29.908
594.75	29.294
595.08	28.647
595.42	29.805
595.75	29.474
596.09	29.880
596.42	29.664
596.75	29.754
597.09	30.454
597.42	29.070
597.75	29.628
598.09	29.733
598.42	30.181
598.76	28.364
599.09	28.966
599.42	28.950
599.76	29.219
600.09	29.771
600.42	29.206
600.76	28.964
601.09	28.864
601.42	28.967
601.76	29.595
602.09	28.834
602.42	29.918
602.76	28.999
603.09	28.871
603.42	29.573
603.76	28.959
604.09	29.155
604.42	28.934
604.76	29.525
605.09	29.837
605.42	30.275
605.75	29.582
606.09	29.265
606.42	28.823
606.75	29.455
607.09	29.157
607.42	29.798
607.75	30.243
608.08	29.146
608.42	30.416
608.75	29.112
609.08	29.859
609.41	29.796
609.75	29.888
610.08	29.314
610.41	29.494
610.74	30.174
611.07	30.172
611.41	29.501
611.74	29.820
612.07	31.686
612.40	29.211
612.73	29.941
613.07	29.774
613.40	31.089
613.73	30.136
614.06	29.599
614.39	31.172
614.72	30.056
615.06	29.402
615.39	29.192
615.72	30.581
616.05	29.431
616.38	30.876
616.71	30.631
617.05	31.604
617.38	30.774
617.71	30.037
618.04	30.994
618.37	29.937
618.70	31.421
619.03	30.873
619.36	31.924
619.69	31.012
620.03	30.854
620.36	31.364
620.69	30.653
621.02	30.670
621.35	30.645
621.68	32.377
622.01	32.605
622.34	31.134
622.67	30.000
623.00	32.288
623.33	32.164
623.66	31.167
623.99	31.579
624.32	30.878
624.65	30.905
624.99	31.367
625.32	31.213
625.65	30.847
625.98	30.986
626.31	32.953
626.64	30.962
626.97	32.106
627.30	32.000
627.63	31.347
627.96	32.289
628.29	33.180
628.62	32.187
628.95	32.480
629.28	32.613
629.61	31.796
629.94	32.231
630.26	34.294
630.59	33.467
630.92	32.633
631.25	33.569
631.58	32.381
631.91	31.383
