SpectraSuite Data File
++++++++++++++++++++++++++++++++++++
Date: Sat May 16 11:42:28 PDT 2015
User: schluterlab
Dark Spectrum Present: Yes
Reference Spectrum Present: Yes
Number of Sampled Component Spectra: 1
Spectrometers: USB2E3373
Integration Time (usec): 3000 (USB2E3373)
Spectra Averaged: 3 (USB2E3373)
Boxcar Smoothing: 0 (USB2E3373)
Correct for Electrical Dark: No (USB2E3373)
Strobe/Lamp Enabled: No (USB2E3373)
Correct for Detector Non-linearity: No (USB2E3373)
Correct for Stray Light: No (USB2E3373)
Number of Pixels in Processed Spectrum: 2048
>>>>>Begin Processed Spectral Data<<<<<
178.53	0.000
178.91	153.333
179.29	566.667
179.67	-800.000
180.04	-84.615
180.42	600.000
180.80	375.000
181.18	300.000
181.56	-75.000
181.94	700.000
182.31	350.000
182.69	-46.154
183.07	-533.333
183.45	1900.000
183.83	600.000
184.20	-228.571
184.58	-62.500
184.96	-225.000
185.34	112.500
185.72	-625.000
186.09	216.667
186.47	-137.500
186.85	-175.000
187.23	12.500
187.61	-350.000
187.98	-300.000
188.36	-162.500
188.74	-212.500
189.12	1100.000
189.49	214.286
189.87	-91.667
190.25	375.000
190.63	-64.286
191.00	-166.667
191.38	460.000
191.76	-53.333
192.14	480.000
192.51	-220.000
192.89	-400.000
193.27	0.000
193.65	-33.333
194.02	-242.857
194.40	600.000
194.78	-50.000
195.15	-1300.000
195.53	-118.182
195.91	-383.333
196.29	220.000
196.66	-600.000
197.04	1100.000
197.42	-250.000
197.79	-13.333
198.17	-566.667
198.55	-850.000
198.92	-2000.000
199.30	237.500
199.68	-700.000
200.05	-222.222
200.43	-266.667
200.81	-2600.000
201.18	-66.667
201.56	214.286
201.94	-66.667
202.31	13.636
202.69	50.000
203.07	-110.000
203.44	300.000
203.82	-116.667
204.19	-325.000
204.57	-275.000
204.95	-600.000
205.32	0.000
205.70	2000.000
206.08	-1300.000
206.45	-116.667
206.83	-950.000
207.20	-750.000
207.58	-400.000
207.96	-733.333
208.33	-225.000
208.71	-77.778
209.08	250.000
209.46	-214.286
209.84	1050.000
210.21	0.000
210.59	5.000
210.96	700.000
211.34	-483.333
211.71	-266.667
212.09	300.000
212.46	1050.000
212.84	-2600.000
213.22	533.333
213.59	150.000
213.97	-144.444
214.34	240.000
214.72	-60.000
215.09	-366.667
215.47	-200.000
215.84	-120.000
216.22	-110.000
216.59	-46.667
216.97	-575.000
217.34	1150.000
217.72	-100.000
218.09	-216.667
218.47	-271.429
218.84	200.000
219.22	-128.571
219.59	0.000
219.97	271.429
220.34	775.000
220.72	162.500
221.09	-23.077
221.47	0.000
221.84	633.333
222.22	-700.000
222.59	1100.000
222.97	-200.000
223.34	-600.000
223.72	-733.333
224.09	-35.714
224.46	-325.000
224.84	-42.857
225.21	-242.857
225.59	-90.909
225.96	-212.500
226.34	-57.143
226.71	-200.000
227.08	15.000
227.46	1900.000
227.83	-242.857
228.21	-162.500
228.58	650.000
228.95	-12.500
229.33	-1500.000
229.70	-220.000
230.08	-800.000
230.45	-41.667
230.82	-233.333
231.20	-1700.000
231.57	-800.000
231.95	1400.000
232.32	-19.048
232.69	-144.444
233.07	-300.000
233.44	-1000.000
233.81	-133.333
234.19	-133.333
234.56	-50.000
234.93	-12.500
235.31	-228.571
235.68	-150.000
236.05	-123.529
236.43	-131.818
236.80	-41.935
237.17	-33.333
237.55	-28.571
237.92	-113.636
238.29	-37.143
238.67	-61.765
239.04	-27.778
239.41	-54.839
239.79	-46.154
240.16	-45.238
240.53	-29.091
240.91	-12.821
241.28	-3.636
241.65	3.077
242.02	-14.754
242.40	-22.951
242.77	-15.152
243.14	-28.814
243.51	-34.286
243.89	-18.987
244.26	-11.236
244.63	-17.895
245.00	-22.105
245.38	-3.390
245.75	-8.850
246.12	-8.800
246.49	-5.512
246.87	-9.756
247.24	-16.949
247.61	-17.797
247.98	-3.521
248.36	-18.182
248.73	-3.797
249.10	-13.376
249.47	-6.433
249.84	-8.523
250.22	-14.881
250.59	-1.130
250.96	-7.853
251.33	4.265
251.70	-7.212
252.08	-7.583
252.45	-9.953
252.82	-10.476
253.19	-7.660
253.56	-9.274
253.94	-4.219
254.31	-7.725
254.68	-7.724
255.05	-6.452
255.42	-1.587
255.79	-3.584
256.16	-3.137
256.54	-1.103
256.91	-5.303
257.28	-9.158
257.65	-4.610
258.02	2.201
258.39	-4.013
258.76	-5.743
259.14	-4.012
259.51	-3.607
259.88	-4.878
260.25	-2.174
260.62	-7.395
260.99	-5.341
261.36	-2.744
261.73	-1.156
262.10	-0.278
262.47	-3.419
262.85	3.429
263.22	-6.304
263.59	-5.846
263.96	-5.507
264.33	-2.439
264.70	-0.552
265.07	-2.747
265.44	-4.910
265.81	-3.876
266.18	-0.759
266.55	-2.451
266.92	-2.015
267.29	-2.906
267.66	-3.951
268.03	-0.483
268.40	-1.643
268.77	-1.446
269.14	-3.248
269.51	-2.759
269.88	-4.358
270.25	-4.895
270.62	-2.059
270.99	-0.901
271.36	-2.098
271.73	-3.363
272.10	-3.204
272.47	-4.000
272.84	0.000
273.21	-4.587
273.58	-1.758
273.95	-2.412
274.32	-1.810
274.69	-2.407
275.06	-1.022
275.43	-5.134
275.80	0.611
276.17	-2.092
276.54	0.000
276.91	-3.704
277.28	0.000
277.65	-1.653
278.02	-2.714
278.39	-0.982
278.76	-1.793
279.13	-1.383
279.50	-3.777
279.87	-0.846
280.23	-1.822
280.60	-1.392
280.97	-3.107
281.34	-2.901
281.71	-1.346
282.08	-3.629
282.45	-5.906
282.82	-3.295
283.19	-0.909
283.56	-0.916
283.92	-0.530
284.29	-3.160
284.66	-2.878
285.03	0.000
285.40	0.369
285.77	-1.579
286.14	-3.249
286.51	-2.842
286.87	-1.633
287.24	-0.171
287.61	0.165
287.98	-2.773
288.35	-3.636
288.72	-1.188
289.08	-4.237
289.45	-1.515
289.82	-4.325
290.19	0.164
290.56	-3.636
290.93	-3.498
291.29	-1.783
291.66	-3.221
292.03	-1.884
292.40	-0.151
292.77	-0.621
293.13	-2.276
293.50	-1.040
293.87	-0.460
294.24	-0.302
294.60	-3.182
294.97	-0.759
295.34	-2.519
295.71	-3.125
296.08	-2.765
296.44	-2.146
296.81	0.000
297.18	-1.972
297.55	-1.836
297.91	0.418
298.28	-1.918
298.65	-2.371
299.02	0.936
299.38	-1.337
299.75	-0.679
300.12	-0.641
300.48	-1.279
300.85	-0.917
301.22	-2.070
301.59	-1.430
301.95	0.504
302.32	-3.520
302.69	-0.122
303.05	-0.977
303.42	-2.625
303.79	-1.196
304.15	-0.355
304.52	-0.467
304.89	-1.299
305.25	-1.832
305.62	-0.118
305.99	0.236
306.35	0.444
306.72	-1.253
307.09	1.135
307.45	-1.022
307.82	-0.670
308.19	-0.783
308.55	0.218
308.92	-0.107
309.29	-0.216
309.65	-0.848
310.02	-1.404
310.38	-0.649
310.75	0.512
311.12	1.136
311.48	0.626
311.85	0.618
312.22	-0.618
312.58	1.119
312.95	-0.714
313.31	0.899
313.68	1.508
314.05	1.879
314.41	0.000
314.78	0.200
315.14	1.185
315.51	1.013
315.87	2.227
316.24	1.652
316.61	2.783
316.97	1.493
317.34	0.867
317.70	1.206
318.07	2.799
318.43	1.779
318.80	3.380
319.16	1.876
319.53	2.914
319.89	2.540
320.26	3.137
320.62	3.365
320.99	3.085
321.35	2.857
321.72	2.149
322.08	3.066
322.45	2.574
322.81	4.131
323.18	4.323
323.54	2.865
323.91	5.190
324.27	4.943
324.64	5.119
325.00	5.934
325.37	4.706
325.73	6.562
326.10	5.314
326.46	6.217
326.83	6.298
327.19	7.006
327.56	8.518
327.92	7.901
328.29	8.918
328.65	7.091
329.01	7.774
329.38	8.831
329.74	9.799
330.11	10.154
330.47	9.173
330.84	10.174
331.20	9.567
331.56	10.665
331.93	9.414
332.29	11.142
332.66	11.326
333.02	10.317
333.38	10.663
333.75	11.576
334.11	10.667
334.48	10.591
334.84	11.549
335.20	11.791
335.57	11.282
335.93	12.175
336.29	11.249
336.66	10.044
337.02	12.342
337.38	10.517
337.75	11.238
338.11	11.807
338.47	11.299
338.84	11.071
339.20	11.424
339.56	12.567
339.93	11.199
340.29	11.869
340.65	11.888
341.02	11.889
341.38	11.120
341.74	12.024
342.11	11.860
342.47	11.330
342.83	11.083
343.20	11.102
343.56	10.694
343.92	12.604
344.28	11.775
344.65	11.716
345.01	11.513
345.37	11.960
345.73	10.884
346.10	11.120
346.46	10.723
346.82	12.029
347.19	11.011
347.55	10.835
347.91	12.047
348.27	10.819
348.63	11.470
349.00	12.013
349.36	10.148
349.72	12.102
350.08	10.826
350.45	11.269
350.81	12.261
351.17	10.852
351.53	10.660
351.89	11.399
352.26	11.550
352.62	12.826
352.98	10.601
353.34	10.951
353.70	10.888
354.07	12.510
354.43	11.621
354.79	11.569
355.15	10.623
355.51	10.391
355.87	10.751
356.24	10.246
356.60	11.684
356.96	12.317
357.32	10.926
357.68	10.728
358.04	10.624
358.40	11.060
358.77	10.742
359.13	11.018
359.49	12.169
359.85	10.366
360.21	11.035
360.57	11.596
360.93	11.259
361.29	10.762
361.66	10.747
362.02	11.243
362.38	11.519
362.74	10.549
363.10	10.258
363.46	11.752
363.82	11.224
364.18	11.433
364.54	12.009
364.90	11.950
365.26	10.485
365.62	11.262
365.98	11.309
366.35	11.268
366.71	10.712
367.07	11.291
367.43	11.668
367.79	11.546
368.15	11.166
368.51	12.168
368.87	12.157
369.23	11.228
369.59	10.694
369.95	11.346
370.31	11.603
370.67	11.352
371.03	11.443
371.39	10.820
371.75	12.160
372.11	12.052
372.47	10.268
372.83	11.822
373.19	10.571
373.55	11.189
373.91	11.238
374.27	11.431
374.63	10.835
374.99	11.752
375.35	10.902
375.71	12.829
376.07	11.841
376.42	10.066
376.78	12.026
377.14	11.797
377.50	11.928
377.86	11.704
378.22	10.678
378.58	11.736
378.94	10.789
379.30	11.578
379.66	11.597
380.02	11.111
380.38	11.662
380.74	11.489
381.09	11.541
381.45	11.217
381.81	10.950
382.17	11.028
382.53	11.064
382.89	11.603
383.25	12.101
383.61	11.321
383.97	11.696
384.32	11.202
384.68	11.729
385.04	11.534
385.40	11.929
385.76	11.890
386.12	12.430
386.48	11.262
386.83	12.025
387.19	12.253
387.55	11.387
387.91	12.152
388.27	11.037
388.62	11.418
388.98	11.387
389.34	11.200
389.70	11.084
390.06	10.876
390.42	11.731
390.77	11.167
391.13	12.112
391.49	12.165
391.85	11.097
392.20	11.650
392.56	11.179
392.92	11.922
393.28	11.481
393.64	11.305
393.99	12.185
394.35	11.375
394.71	11.180
395.07	11.362
395.42	11.144
395.78	10.622
396.14	11.651
396.50	11.254
396.85	11.474
397.21	11.847
397.57	12.158
397.92	11.710
398.28	11.944
398.64	11.124
399.00	12.191
399.35	11.105
399.71	11.731
400.07	11.821
400.42	11.192
400.78	11.628
401.14	11.078
401.49	11.498
401.85	10.677
402.21	12.217
402.57	11.044
402.92	11.894
403.28	11.765
403.63	10.725
403.99	11.311
404.35	11.171
404.70	11.937
405.06	11.880
405.42	10.517
405.77	10.407
406.13	11.073
406.49	11.684
406.84	11.938
407.20	11.249
407.55	11.716
407.91	10.298
408.27	12.316
408.62	11.425
408.98	11.583
409.34	11.578
409.69	10.964
410.05	11.098
410.40	11.097
410.76	12.211
411.11	11.284
411.47	10.358
411.83	11.980
412.18	11.139
412.54	10.555
412.89	11.422
413.25	11.393
413.60	10.936
413.96	11.152
414.31	11.682
414.67	11.683
415.03	11.449
415.38	11.451
415.74	12.887
416.09	10.742
416.45	11.243
416.80	10.923
417.16	11.495
417.51	13.001
417.87	11.197
418.22	11.441
418.58	11.746
418.93	11.588
419.29	10.979
419.64	11.307
420.00	11.604
420.35	11.413
420.71	11.285
421.06	12.249
421.42	10.597
421.77	11.669
422.12	12.031
422.48	11.438
422.83	12.415
423.19	11.637
423.54	11.816
423.90	11.972
424.25	11.765
424.61	11.701
424.96	12.405
425.31	12.018
425.67	11.404
426.02	11.761
426.38	12.946
426.73	11.280
427.09	11.826
427.44	11.818
427.79	11.163
428.15	11.430
428.50	12.317
428.85	11.990
429.21	10.791
429.56	11.563
429.92	12.224
430.27	11.815
430.62	12.644
430.98	12.075
431.33	12.380
431.68	11.421
432.04	12.087
432.39	12.194
432.74	11.511
433.10	11.874
433.45	11.687
433.80	11.870
434.16	12.359
434.51	12.384
434.86	12.419
435.22	12.138
435.57	11.812
435.92	12.075
436.28	12.522
436.63	12.493
436.98	12.715
437.34	12.699
437.69	12.019
438.04	12.025
438.39	11.974
438.75	12.573
439.10	12.160
439.45	11.467
439.81	12.892
440.16	12.379
440.51	12.235
440.86	11.857
441.22	11.388
441.57	11.789
441.92	12.430
442.27	12.662
442.63	12.446
442.98	11.569
443.33	12.411
443.68	12.559
444.03	12.377
444.39	12.775
444.74	13.381
445.09	12.555
445.44	12.887
445.79	12.800
446.15	12.651
446.50	12.248
446.85	12.571
447.20	12.921
447.55	12.818
447.91	13.251
448.26	12.793
448.61	12.790
448.96	13.669
449.31	12.458
449.66	13.394
450.02	12.188
450.37	12.406
450.72	12.373
451.07	12.508
451.42	12.887
451.77	12.268
452.12	12.634
452.47	13.350
452.83	12.405
453.18	13.536
453.53	12.873
453.88	12.919
454.23	12.394
454.58	13.424
454.93	13.224
455.28	12.811
455.63	13.022
455.98	12.711
456.34	12.452
456.69	13.508
457.04	12.907
457.39	12.440
457.74	12.640
458.09	13.747
458.44	13.395
458.79	13.509
459.14	12.835
459.49	14.210
459.84	12.872
460.19	13.067
460.54	13.188
460.89	11.771
461.24	13.236
461.59	13.540
461.94	13.240
462.29	13.520
462.64	13.900
462.99	14.123
463.34	12.559
463.69	13.104
464.04	12.771
464.39	12.425
464.74	13.180
465.09	12.267
465.44	12.465
465.79	13.198
466.14	13.464
466.49	13.241
466.84	12.965
467.19	13.529
467.54	12.405
467.89	12.947
468.24	13.005
468.59	13.117
468.94	12.090
469.29	12.606
469.64	12.736
469.99	13.504
470.34	12.625
470.68	13.590
471.03	13.352
471.38	13.125
471.73	13.566
472.08	12.584
472.43	12.999
472.78	13.133
473.13	11.796
473.48	13.338
473.83	12.965
474.17	12.866
474.52	13.363
474.87	13.287
475.22	13.156
475.57	12.556
475.92	13.445
476.27	13.314
476.61	13.352
476.96	12.968
477.31	13.724
477.66	12.894
478.01	13.236
478.36	13.724
478.70	12.867
479.05	13.142
479.40	12.591
479.75	12.895
480.10	13.690
480.45	12.573
480.79	13.327
481.14	13.598
481.49	13.020
481.84	13.176
482.19	13.796
482.53	13.731
482.88	12.625
483.23	13.521
483.58	13.830
483.92	12.805
484.27	12.760
484.62	12.397
484.97	12.822
485.31	12.192
485.66	12.609
486.01	12.482
486.36	12.932
486.70	13.085
487.05	12.917
487.40	13.034
487.75	12.549
488.09	12.415
488.44	13.024
488.79	13.619
489.13	12.781
489.48	13.051
489.83	13.406
490.17	13.322
490.52	13.361
490.87	13.072
491.22	13.031
491.56	13.657
491.91	13.311
492.26	12.877
492.60	13.130
492.95	13.184
493.30	13.149
493.64	12.412
493.99	12.524
494.34	12.905
494.68	13.296
495.03	13.384
495.37	12.586
495.72	12.623
496.07	13.796
496.41	13.108
496.76	13.333
497.11	13.283
497.45	13.506
497.80	13.007
498.14	13.409
498.49	12.958
498.84	12.573
499.18	13.694
499.53	12.957
499.87	12.355
500.22	13.186
500.56	12.606
500.91	12.512
501.26	13.100
501.60	12.759
501.95	13.382
502.29	12.801
502.64	12.824
502.98	12.698
503.33	13.346
503.67	12.931
504.02	12.747
504.36	13.235
504.71	12.209
505.06	12.032
505.40	13.523
505.75	13.110
506.09	12.942
506.44	13.283
506.78	12.745
507.13	12.152
507.47	12.989
507.82	12.907
508.16	12.850
508.51	12.828
508.85	12.267
509.19	12.350
509.54	13.002
509.88	12.819
510.23	12.579
510.57	13.069
510.92	12.836
511.26	13.131
511.61	11.609
511.95	13.254
512.30	12.534
512.64	12.298
512.98	13.091
513.33	13.125
513.67	12.954
514.02	12.752
514.36	12.798
514.70	12.281
515.05	12.693
515.39	12.745
515.74	12.856
516.08	12.680
516.42	12.861
516.77	13.056
517.11	12.529
517.46	12.919
517.80	13.177
518.14	12.681
518.49	12.552
518.83	12.404
519.17	13.677
519.52	12.261
519.86	13.142
520.20	12.958
520.55	12.185
520.89	12.649
521.23	12.882
521.58	11.975
521.92	12.856
522.26	12.952
522.61	13.118
522.95	12.827
523.29	13.354
523.64	12.992
523.98	12.476
524.32	11.816
524.66	12.857
525.01	12.331
525.35	12.758
525.69	12.947
526.04	12.533
526.38	12.858
526.72	12.388
527.06	12.109
527.41	12.277
527.75	12.013
528.09	12.839
528.43	12.918
528.78	12.500
529.12	12.548
529.46	11.985
529.80	12.524
530.15	12.621
530.49	12.872
530.83	13.032
531.17	11.717
531.51	11.922
531.86	13.101
532.20	12.753
532.54	12.233
532.88	12.912
533.22	11.163
533.57	11.554
533.91	11.236
534.25	10.811
534.59	12.117
534.93	11.637
535.27	12.398
535.62	12.468
535.96	12.217
536.30	11.518
536.64	12.351
536.98	11.723
537.32	11.956
537.66	12.356
538.01	11.684
538.35	12.230
538.69	12.233
539.03	12.932
539.37	11.710
539.71	11.808
540.05	11.172
540.39	12.465
540.73	11.748
541.07	11.954
541.42	11.479
541.76	10.565
542.10	12.627
542.44	11.992
542.78	12.144
543.12	11.813
543.46	11.096
543.80	11.304
544.14	11.753
544.48	11.483
544.82	11.434
545.16	12.743
545.50	10.094
545.84	10.501
546.18	11.859
546.52	11.166
546.86	11.681
547.20	12.096
547.54	11.157
547.88	11.214
548.22	10.813
548.56	11.222
548.90	11.253
549.24	10.792
549.58	11.715
549.92	10.671
550.26	12.428
550.60	11.095
550.94	11.168
551.28	11.287
551.62	11.152
551.96	11.795
552.30	11.359
552.64	10.978
552.98	10.862
553.32	10.606
553.66	11.536
554.00	11.087
554.34	10.542
554.68	10.673
555.02	11.505
555.36	10.784
555.69	10.888
556.03	10.667
556.37	11.024
556.71	10.594
557.05	11.530
557.39	10.097
557.73	11.743
558.07	11.078
558.41	10.920
558.75	10.798
559.08	9.961
559.42	11.256
559.76	10.353
560.10	11.260
560.44	11.777
560.78	10.578
561.12	10.697
561.45	10.068
561.79	10.174
562.13	9.818
562.47	9.594
562.81	9.618
563.15	10.427
563.48	10.297
563.82	10.818
564.16	10.074
564.50	10.551
564.84	11.177
565.17	10.013
565.51	10.561
565.85	10.412
566.19	11.067
566.52	9.980
566.86	9.735
567.20	11.380
567.54	10.927
567.88	10.385
568.21	9.620
568.55	9.915
568.89	9.592
569.23	10.273
569.56	9.962
569.90	10.228
570.24	10.673
570.57	9.772
570.91	9.623
571.25	10.279
571.59	10.209
571.92	9.643
572.26	9.557
572.60	10.177
572.93	10.158
573.27	9.604
573.61	9.148
573.95	9.686
574.28	9.814
574.62	9.456
574.96	9.247
575.29	9.400
575.63	9.477
575.97	9.493
576.30	9.455
576.64	9.191
576.98	9.530
577.31	9.201
577.65	9.729
577.98	9.383
578.32	8.882
578.66	9.352
578.99	9.243
579.33	9.746
579.67	9.181
580.00	9.226
580.34	9.149
580.67	9.439
581.01	9.072
581.35	8.963
581.68	9.160
582.02	9.400
582.35	9.311
582.69	9.418
583.02	9.262
583.36	9.175
583.70	8.884
584.03	9.267
584.37	9.608
584.70	9.093
585.04	9.013
585.37	9.117
585.71	9.119
586.04	9.271
586.38	9.195
586.72	9.245
587.05	9.261
587.39	8.850
587.72	8.973
588.06	9.023
588.39	9.257
588.73	8.932
589.06	9.335
589.40	9.378
589.73	9.171
590.07	8.958
590.40	9.779
590.73	8.876
591.07	9.016
591.40	9.185
591.74	9.079
592.07	8.423
592.41	8.960
592.74	9.070
593.08	9.543
593.41	8.783
593.75	8.572
594.08	8.771
594.41	9.575
594.75	9.740
595.08	8.985
595.42	9.321
595.75	8.526
596.09	8.770
596.42	9.534
596.75	8.969
597.09	9.394
597.42	8.555
597.75	8.680
598.09	8.586
598.42	8.529
598.76	8.430
599.09	8.721
599.42	8.304
599.76	9.249
600.09	9.237
600.42	9.229
600.76	8.399
601.09	8.318
601.42	8.231
601.76	9.034
602.09	8.425
602.42	9.259
602.76	8.309
603.09	8.266
603.42	9.106
603.76	8.855
604.09	9.171
604.42	8.618
604.76	9.027
605.09	9.177
605.42	8.333
605.75	8.064
606.09	8.717
606.42	8.169
606.75	8.544
607.09	8.646
607.42	8.803
607.75	8.609
608.08	9.715
608.42	8.893
608.75	8.037
609.08	7.793
609.41	8.321
609.75	8.630
610.08	8.676
610.41	8.337
610.74	9.139
611.07	8.824
611.41	7.766
611.74	8.586
612.07	9.023
612.40	8.689
612.73	8.616
613.07	7.870
613.40	9.360
613.73	8.174
614.06	8.731
614.39	8.681
614.72	8.380
615.06	8.913
615.39	8.085
615.72	7.930
616.05	8.724
616.38	8.996
616.71	8.829
617.05	8.022
617.38	8.483
617.71	7.740
618.04	8.509
618.37	8.428
618.70	8.735
619.03	8.125
619.36	9.161
619.69	9.117
620.03	8.402
620.36	8.439
620.69	8.543
621.02	7.763
621.35	8.871
621.68	7.869
622.01	9.304
622.34	8.929
622.67	8.828
623.00	8.110
623.33	9.104
623.66	7.681
623.99	8.722
624.32	8.333
624.65	8.241
624.99	7.468
625.32	8.159
625.65	8.625
625.98	7.277
626.31	9.135
626.64	8.452
626.97	8.733
627.30	9.191
627.63	7.945
627.96	8.268
628.29	9.559
628.62	8.118
628.95	8.366
629.28	8.177
629.61	8.636
629.94	8.223
630.26	8.151
630.59	8.844
630.92	6.907
631.25	9.476
631.58	8.889
631.91	8.085
632.24	7.778
632.57	8.667
632.90	7.126
633.23	7.360
633.56	7.368
633.89	8.255
634.22	7.674
634.55	7.332
634.88	7.739
635.20	6.242
635.53	8.397
635.86	8.060
636.19	7.082
636.52	8.124
636.85	8.183
