SpectraSuite Data File
++++++++++++++++++++++++++++++++++++
Date: Sat May 16 11:36:32 PDT 2015
User: schluterlab
Dark Spectrum Present: Yes
Reference Spectrum Present: Yes
Number of Sampled Component Spectra: 1
Spectrometers: USB2E3373
Integration Time (usec): 3000 (USB2E3373)
Spectra Averaged: 3 (USB2E3373)
Boxcar Smoothing: 0 (USB2E3373)
Correct for Electrical Dark: No (USB2E3373)
Strobe/Lamp Enabled: No (USB2E3373)
Correct for Detector Non-linearity: No (USB2E3373)
Correct for Stray Light: No (USB2E3373)
Number of Pixels in Processed Spectrum: 2048
>>>>>Begin Processed Spectral Data<<<<<
178.53	0.000
178.91	113.333
179.29	633.333
179.67	-1200.000
180.04	-100.000
180.42	500.000
180.80	450.000
181.18	400.000
181.56	-187.500
181.94	900.000
182.31	450.000
182.69	-7.692
183.07	-600.000
183.45	1150.000
183.83	366.667
184.20	-228.571
184.58	-187.500
184.96	-300.000
185.34	162.500
185.72	-625.000
186.09	383.333
186.47	-137.500
186.85	-125.000
187.23	-162.500
187.61	-125.000
187.98	-375.000
188.36	-137.500
188.74	-275.000
189.12	2900.000
189.49	428.571
189.87	-116.667
190.25	250.000
190.63	-128.571
191.00	-200.000
191.38	580.000
191.76	-33.333
192.14	540.000
192.51	-160.000
192.89	-666.667
193.27	0.000
193.65	-100.000
194.02	-242.857
194.40	666.667
194.78	-120.000
195.15	-1700.000
195.53	-100.000
195.91	-466.667
196.29	280.000
196.66	-733.333
197.04	2800.000
197.42	-275.000
197.79	0.000
198.17	-600.000
198.55	-600.000
198.92	-1200.000
199.30	250.000
199.68	-650.000
200.05	-33.333
200.43	-311.111
200.81	-2900.000
201.18	-66.667
201.56	242.857
201.94	-80.000
202.31	31.818
202.69	30.000
203.07	-100.000
203.44	400.000
203.82	-416.667
204.19	-400.000
204.57	-400.000
204.95	-400.000
205.32	-18.750
205.70	1100.000
206.08	-2000.000
206.45	-94.444
206.83	-700.000
207.20	-450.000
207.58	-766.667
207.96	-333.333
208.33	-225.000
208.71	-211.111
209.08	190.000
209.46	-185.714
209.84	600.000
210.21	0.000
210.59	80.000
210.96	1400.000
211.34	-316.667
211.71	-533.333
212.09	350.000
212.46	1000.000
212.84	-2500.000
213.22	433.333
213.59	233.333
213.97	-88.889
214.34	160.000
214.72	-60.000
215.09	-600.000
215.47	-33.333
215.84	-170.000
216.22	-150.000
216.59	-20.000
216.97	-400.000
217.34	900.000
217.72	-342.857
218.09	-350.000
218.47	-242.857
218.84	157.143
219.22	-128.571
219.59	0.000
219.97	142.857
220.34	400.000
220.72	312.500
221.09	46.154
221.47	0.000
221.84	833.333
222.22	-400.000
222.59	1800.000
222.97	-200.000
223.34	-750.000
223.72	-700.000
224.09	-35.714
224.46	-375.000
224.84	-78.571
225.21	-257.143
225.59	-45.455
225.96	-237.500
226.34	-71.429
226.71	-133.333
227.08	-65.000
227.46	2100.000
227.83	-314.286
228.21	-212.500
228.58	750.000
228.95	-50.000
229.33	-1100.000
229.70	-240.000
230.08	-800.000
230.45	0.000
230.82	-350.000
231.20	-700.000
231.57	-950.000
231.95	1700.000
232.32	14.286
232.69	-88.889
233.07	-157.143
233.44	-850.000
233.81	-66.667
234.19	-66.667
234.56	-75.000
234.93	-28.125
235.31	-214.286
235.68	-135.714
236.05	-82.353
236.43	-68.182
236.80	0.000
237.17	-45.833
237.55	-66.667
237.92	-100.000
238.29	-31.429
238.67	11.765
239.04	5.556
239.41	-54.839
239.79	-43.590
240.16	-26.190
240.53	-16.364
240.91	-30.769
241.28	-14.545
241.65	-10.769
242.02	3.279
242.40	-24.590
242.77	-4.545
243.14	-15.254
243.51	-24.286
243.89	-13.924
244.26	2.247
244.63	-2.105
245.00	-5.263
245.38	-5.085
245.75	8.850
246.12	-0.800
246.49	-3.937
246.87	-2.439
247.24	-5.932
247.61	-9.322
247.98	-2.817
248.36	-7.692
248.73	1.899
249.10	-6.369
249.47	3.509
249.84	3.977
250.22	-8.929
250.59	3.390
250.96	-2.094
251.33	5.687
251.70	-0.962
252.08	5.213
252.45	3.318
252.82	2.381
253.19	2.553
253.56	-0.806
253.94	5.907
254.31	2.575
254.68	1.220
255.05	-3.629
255.42	3.175
255.79	0.000
256.16	4.314
256.54	4.044
256.91	4.545
257.28	0.000
257.65	0.000
258.02	3.145
258.39	1.338
258.76	1.014
259.14	2.469
259.51	7.541
259.88	3.659
260.25	5.280
260.62	0.643
260.99	2.671
261.36	2.744
261.73	6.358
262.10	2.778
262.47	3.419
262.85	7.429
263.22	3.725
263.59	0.923
263.96	2.899
264.33	1.897
264.70	6.077
265.07	3.022
265.44	1.292
265.81	3.618
266.18	3.544
266.55	3.431
266.92	4.030
267.29	4.843
267.66	1.481
268.03	5.556
268.40	5.399
268.77	4.096
269.14	3.944
269.51	3.908
269.88	1.835
270.25	2.797
270.62	2.975
270.99	3.604
271.36	1.166
271.73	5.157
272.10	4.577
272.47	2.444
272.84	6.222
273.21	0.459
273.58	3.736
273.95	4.167
274.32	3.167
274.69	2.626
275.06	3.681
275.43	2.902
275.80	6.925
276.17	5.021
276.54	6.110
276.91	4.733
277.28	4.665
277.65	3.512
278.02	5.846
278.39	5.894
278.76	4.382
279.13	4.545
279.50	3.380
279.87	4.863
280.23	3.036
280.60	1.789
280.97	3.301
281.34	2.708
281.71	4.615
282.08	3.629
282.45	0.407
282.82	3.682
283.19	4.182
283.56	5.861
283.92	5.124
284.29	3.346
284.66	5.216
285.03	6.239
285.40	4.059
285.77	5.263
286.14	2.347
286.51	3.375
286.87	5.626
287.24	3.925
287.61	5.124
287.98	3.813
288.35	3.306
288.72	3.565
289.08	4.237
289.45	4.377
289.82	2.076
290.19	6.076
290.56	4.628
290.93	3.021
291.29	4.214
291.66	2.415
292.03	7.221
292.40	5.572
292.77	4.503
293.13	5.041
293.50	2.080
293.87	6.135
294.24	5.581
294.60	4.394
294.97	6.373
295.34	4.148
295.71	4.762
296.08	2.611
296.44	4.149
296.81	6.125
297.18	3.380
297.55	4.944
297.91	6.137
298.28	3.699
298.65	5.439
299.02	6.684
299.38	6.952
299.75	5.571
300.12	6.538
300.48	7.545
300.85	5.242
301.22	4.398
301.59	5.462
301.95	7.179
302.32	4.302
302.69	5.386
303.05	3.907
303.42	5.250
303.79	5.263
304.15	5.924
304.52	5.368
304.89	5.785
305.25	5.495
305.62	5.053
305.99	7.185
306.35	6.770
306.72	3.531
307.09	7.037
307.45	6.129
307.82	6.480
308.19	6.488
308.55	6.645
308.92	5.693
309.29	5.081
309.65	5.938
310.02	6.479
310.38	6.162
310.75	8.094
311.12	8.264
311.48	6.472
311.85	7.724
312.22	7.518
312.58	7.223
312.95	7.543
313.31	9.491
313.68	7.739
314.05	8.704
314.41	6.237
314.78	7.193
315.14	8.687
315.51	8.308
315.87	9.390
316.24	9.038
316.61	8.829
316.97	10.249
317.34	9.923
317.70	10.019
318.07	10.261
318.43	8.989
318.80	9.953
319.16	10.038
319.53	11.278
319.89	10.536
320.26	10.882
320.62	8.750
320.99	10.348
321.35	9.655
321.72	11.464
322.08	10.880
322.45	11.089
322.81	11.143
323.18	11.143
323.54	12.107
323.91	11.307
324.27	13.023
324.64	13.528
325.00	13.787
325.37	13.575
325.73	14.961
326.10	13.286
326.46	15.587
326.83	15.915
327.19	15.513
327.56	17.888
327.92	16.313
328.29	18.009
328.65	16.636
329.01	18.993
329.38	19.090
329.74	18.956
330.11	20.399
330.47	18.892
330.84	21.173
331.20	20.217
331.56	20.510
331.93	20.249
332.29	21.461
332.66	22.212
333.02	21.810
333.38	22.043
333.75	23.063
334.11	24.000
334.48	23.566
334.84	23.447
335.20	24.379
335.57	23.917
335.93	24.799
336.29	23.649
336.66	23.084
337.02	24.865
337.38	23.886
337.75	26.163
338.11	24.419
338.47	24.822
338.84	25.227
339.20	25.308
339.56	26.203
339.93	24.603
340.29	23.206
340.65	24.650
341.02	24.030
341.38	25.864
341.74	26.080
342.11	25.171
342.47	24.979
342.83	25.273
343.20	25.448
343.56	24.245
343.92	25.543
344.28	26.241
344.65	24.422
345.01	25.546
345.37	26.246
345.73	23.813
346.10	25.020
346.46	24.452
346.82	24.940
347.19	24.404
347.55	24.639
347.91	24.882
348.27	24.344
348.63	25.040
349.00	24.503
349.36	23.575
349.72	25.876
350.08	25.501
350.45	24.507
350.81	24.682
351.17	24.839
351.53	24.582
351.89	24.980
352.26	25.581
352.62	26.575
352.98	24.763
353.34	25.659
353.70	24.942
354.07	25.020
354.43	25.692
354.79	26.941
355.15	25.240
355.51	26.094
355.87	24.506
356.24	25.099
356.60	26.027
356.96	25.789
357.32	26.049
357.68	25.134
358.04	25.404
358.40	25.831
358.77	25.734
359.13	25.631
359.49	25.699
359.85	25.229
360.21	25.875
360.57	26.657
360.93	25.407
361.29	26.009
361.66	25.762
362.02	25.962
362.38	25.385
362.74	26.154
363.10	25.036
363.46	27.137
363.82	26.239
364.18	27.279
364.54	28.091
364.90	25.716
365.26	26.320
365.62	28.154
365.98	27.454
366.35	26.338
366.71	26.357
367.07	26.323
367.43	27.728
367.79	26.117
368.15	25.533
368.51	26.923
368.87	28.228
369.23	27.719
369.59	26.528
369.95	26.145
370.31	26.653
370.67	27.043
371.03	27.770
371.39	26.450
371.75	28.469
372.11	27.834
372.47	27.187
372.83	28.860
373.19	29.143
373.55	29.768
373.91	28.947
374.27	28.611
374.63	27.743
374.99	28.512
375.35	29.071
375.71	29.440
376.07	28.953
376.42	28.940
376.78	29.673
377.14	28.678
377.50	29.594
377.86	29.129
378.22	29.523
378.58	29.216
378.94	28.483
379.30	29.799
379.66	29.933
380.02	28.758
380.38	30.997
380.74	30.246
381.09	30.814
381.45	30.549
381.81	30.067
382.17	30.388
382.53	30.456
382.89	31.400
383.25	31.547
383.61	31.427
383.97	31.476
384.32	32.040
384.68	31.076
385.04	31.824
385.40	31.954
385.76	32.134
386.12	31.605
386.48	32.488
386.83	32.699
387.19	32.576
387.55	32.283
387.91	32.839
388.27	32.750
388.62	32.873
388.98	33.616
389.34	33.109
389.70	32.521
390.06	32.007
390.42	33.590
390.77	32.744
391.13	33.913
391.49	34.435
391.85	33.479
392.20	33.252
392.56	33.903
392.92	33.542
393.28	34.673
393.64	34.456
393.99	34.646
394.35	34.185
394.71	34.157
395.07	34.212
395.42	33.552
395.78	33.878
396.14	34.642
396.50	33.884
396.85	35.225
397.21	33.779
397.57	33.860
397.92	35.246
398.28	34.667
398.64	35.039
399.00	36.180
399.35	33.991
399.71	35.366
400.07	35.881
400.42	34.672
400.78	34.109
401.14	35.210
401.49	34.906
401.85	34.716
402.21	34.982
402.57	34.648
402.92	35.431
403.28	34.988
403.63	34.512
403.99	34.991
404.35	34.843
404.70	34.991
405.06	35.582
405.42	35.363
405.77	34.672
406.13	34.753
406.49	36.609
406.84	34.733
407.20	35.395
407.55	35.339
407.91	34.715
408.27	36.213
408.62	34.937
408.98	35.597
409.34	34.308
409.69	34.909
410.05	35.112
410.40	34.948
410.76	34.914
411.11	36.222
411.47	35.358
411.83	36.064
412.18	35.953
412.54	34.655
412.89	35.784
413.25	34.475
413.60	34.447
413.96	34.627
414.31	34.985
414.67	35.238
415.03	34.217
415.38	35.589
415.74	35.567
416.09	35.102
416.45	35.185
416.80	35.436
417.16	35.150
417.51	35.522
417.87	35.987
418.22	35.651
418.58	34.852
418.93	35.561
419.29	34.881
419.64	35.364
420.00	36.452
420.35	36.132
420.71	36.014
421.06	36.923
421.42	35.070
421.77	35.734
422.12	35.870
422.48	36.665
422.83	36.503
423.19	35.635
423.54	35.620
423.90	35.454
424.25	35.803
424.61	36.791
424.96	37.624
425.31	36.892
425.67	37.077
426.02	35.800
426.38	36.782
426.73	35.710
427.09	36.887
427.44	36.250
427.79	36.628
428.15	36.565
428.50	37.478
428.85	35.971
429.21	37.410
429.56	37.344
429.92	37.024
430.27	37.438
430.62	36.991
430.98	36.958
431.33	37.086
431.68	36.836
432.04	38.109
432.39	37.607
432.74	36.271
433.10	37.085
433.45	37.248
433.80	37.234
434.16	37.614
434.51	37.315
434.86	38.489
435.22	37.138
435.57	37.393
435.92	37.691
436.28	38.398
436.63	37.875
436.98	37.514
437.34	38.452
437.69	37.806
438.04	37.096
438.39	38.147
438.75	37.253
439.10	38.201
439.45	37.598
439.81	38.313
440.16	37.706
440.51	38.706
440.86	38.346
441.22	37.922
441.57	39.263
441.92	38.414
442.27	38.690
442.63	38.573
442.98	36.907
443.33	38.440
443.68	38.614
444.03	39.145
444.39	37.934
444.74	39.097
445.09	38.816
445.44	38.886
445.79	39.776
446.15	37.733
446.50	38.378
446.85	37.917
447.20	38.866
447.55	39.558
447.91	38.742
448.26	39.218
448.61	37.804
448.96	39.664
449.31	39.233
449.66	38.638
450.02	37.839
450.37	39.942
450.72	37.966
451.07	39.221
451.42	38.786
451.77	39.497
452.12	38.975
452.47	39.043
452.83	38.730
453.18	39.279
453.53	40.174
453.88	40.490
454.23	38.815
454.58	40.833
454.93	40.050
455.28	39.962
455.63	39.988
455.98	40.602
456.34	38.628
456.69	39.775
457.04	39.521
457.39	39.653
457.74	38.689
458.09	38.921
458.44	40.473
458.79	38.789
459.14	39.989
459.49	39.491
459.84	40.247
460.19	39.737
460.54	40.895
460.89	40.303
461.24	39.344
461.59	39.683
461.94	40.293
462.29	40.143
462.64	40.119
462.99	40.629
463.34	39.500
463.69	40.712
464.04	38.723
464.39	39.008
464.74	39.953
465.09	40.048
465.44	39.481
465.79	40.214
466.14	40.794
466.49	40.127
466.84	40.396
467.19	40.960
467.54	39.810
467.89	41.184
468.24	40.618
468.59	40.787
468.94	40.064
469.29	40.416
469.64	39.757
469.99	41.053
470.34	41.683
470.68	41.352
471.03	40.606
471.38	39.514
471.73	43.147
472.08	41.098
472.43	40.219
472.78	41.867
473.13	40.424
473.48	41.225
473.83	42.122
474.17	41.592
474.52	41.816
474.87	41.783
475.22	41.239
475.57	40.500
475.92	41.685
476.27	40.286
476.61	41.183
476.96	41.587
477.31	42.250
477.66	41.229
478.01	41.815
478.36	41.435
478.70	41.431
479.05	40.887
479.40	41.606
479.75	41.284
480.10	41.716
480.45	41.054
480.79	41.757
481.14	41.545
481.49	41.965
481.84	41.516
482.19	42.028
482.53	41.098
482.88	41.149
483.23	41.408
483.58	41.721
483.92	42.188
484.27	41.072
484.62	40.950
484.97	40.647
485.31	38.848
485.66	38.904
486.01	38.768
486.36	40.115
486.70	41.311
487.05	41.061
487.40	40.545
487.75	40.174
488.09	40.611
488.44	42.016
488.79	41.139
489.13	42.069
489.48	41.884
489.83	42.183
490.17	41.750
490.52	42.437
490.87	42.217
491.22	41.850
491.56	42.315
491.91	42.080
492.26	43.538
492.60	42.103
492.95	42.694
493.30	42.925
493.64	42.360
493.99	42.304
494.34	42.190
494.68	42.650
495.03	42.304
495.37	42.675
495.72	42.927
496.07	43.125
496.41	43.678
496.76	42.694
497.11	43.288
497.45	43.343
497.80	43.272
498.14	42.583
498.49	43.446
498.84	42.427
499.18	43.713
499.53	43.108
499.87	42.519
500.22	42.745
500.56	43.672
500.91	42.315
501.26	44.396
501.60	42.273
501.95	43.720
502.29	42.560
502.64	43.234
502.98	43.795
503.33	42.716
503.67	43.151
504.02	42.636
504.36	43.529
504.71	43.060
505.06	42.686
505.40	43.862
505.75	43.496
506.09	43.984
506.44	43.860
506.78	43.703
507.13	43.151
507.47	44.027
507.82	44.140
508.16	44.352
508.51	43.483
508.85	43.271
509.19	43.694
509.54	44.186
509.88	44.734
510.23	44.969
510.57	43.968
510.92	43.985
511.26	43.753
511.61	44.384
511.95	44.720
512.30	44.255
512.64	43.740
512.98	44.939
513.33	44.481
513.67	44.277
514.02	44.687
514.36	44.377
514.70	44.086
515.05	45.169
515.39	44.464
515.74	45.608
516.08	43.977
516.42	43.909
516.77	45.118
517.11	45.252
517.46	45.455
517.80	45.969
518.14	44.324
518.49	45.607
518.83	44.510
519.17	44.938
519.52	44.881
519.86	46.595
520.20	46.271
520.55	45.969
520.89	45.022
521.23	45.482
521.58	44.828
521.92	46.042
522.26	45.587
522.61	45.627
522.95	45.629
523.29	45.392
523.64	44.847
523.98	45.767
524.32	45.506
524.66	45.342
525.01	45.472
525.35	45.490
525.69	44.828
526.04	47.324
526.38	47.486
526.72	45.466
527.06	46.549
527.41	45.413
527.75	44.686
528.09	45.003
528.43	45.770
528.78	45.415
529.12	46.479
529.46	46.521
529.80	46.159
530.15	46.297
530.49	45.019
530.83	46.365
531.17	45.185
531.51	46.082
531.86	45.951
532.20	45.142
532.54	45.187
532.88	45.323
533.22	47.794
533.57	45.822
533.91	44.132
534.25	44.752
534.59	44.909
534.93	44.368
535.27	45.815
535.62	45.908
535.96	45.184
536.30	44.830
536.64	46.215
536.98	45.975
537.32	45.681
537.66	45.825
538.01	45.292
538.35	45.878
538.69	43.984
539.03	45.430
539.37	45.908
539.71	45.163
540.05	44.962
540.39	46.399
540.73	45.957
541.07	46.243
541.42	44.700
541.76	44.452
542.10	45.307
542.44	44.970
542.78	45.251
543.12	44.942
543.46	44.110
543.80	46.087
544.14	45.131
544.48	45.604
544.82	45.873
545.16	46.345
545.50	44.953
545.84	46.732
546.18	45.908
546.52	45.448
546.86	45.157
547.20	46.273
547.54	44.972
547.88	46.516
548.22	43.447
548.56	44.890
548.90	44.340
549.24	44.359
549.58	45.025
549.92	46.784
550.26	45.448
550.60	43.670
550.94	46.934
551.28	46.802
551.62	46.750
551.96	44.356
552.30	44.599
552.64	45.179
552.98	44.569
553.32	45.527
553.66	47.152
554.00	46.055
554.34	43.899
554.68	44.956
555.02	45.586
555.36	44.500
555.69	44.699
556.03	44.561
556.37	45.306
556.71	46.457
557.05	47.154
557.39	43.727
557.73	45.952
558.07	45.516
558.41	45.101
558.75	45.399
559.08	44.358
559.42	45.253
559.76	45.169
560.10	45.936
560.44	45.882
560.78	45.651
561.12	44.720
561.45	44.452
561.79	45.575
562.13	44.600
562.47	44.748
562.81	44.908
563.15	44.437
563.48	44.782
563.82	46.315
564.16	45.166
564.50	45.027
564.84	44.114
565.17	44.363
565.51	44.003
565.85	44.760
566.19	44.862
566.52	45.336
566.86	43.869
567.20	45.097
567.54	45.540
567.88	43.719
568.21	43.568
568.55	43.584
568.89	42.147
569.23	42.156
569.56	40.815
569.90	41.385
570.24	41.526
570.57	40.633
570.91	41.278
571.25	40.856
571.59	40.805
571.92	40.298
572.26	40.863
572.60	41.390
572.93	40.322
573.27	40.030
573.61	40.264
573.95	40.633
574.28	39.436
574.62	40.239
574.96	39.955
575.29	39.558
575.63	39.607
575.97	39.213
576.30	39.490
576.64	39.347
576.98	39.388
577.31	39.333
577.65	39.410
577.98	39.319
578.32	39.360
578.66	39.576
578.99	39.503
579.33	39.965
579.67	39.412
580.00	39.038
580.34	39.335
580.67	39.519
581.01	39.145
581.35	39.344
581.68	38.912
582.02	38.976
582.35	38.678
582.69	39.123
583.02	39.611
583.36	40.276
583.70	40.015
584.03	39.386
584.37	39.459
584.70	39.598
585.04	39.038
585.37	38.926
585.71	38.897
586.04	39.362
586.38	39.508
586.72	39.684
587.05	39.309
587.39	39.170
587.72	39.289
588.06	39.450
588.39	39.989
588.73	39.409
589.06	40.121
589.40	40.089
589.73	40.050
590.07	40.459
590.40	40.480
590.73	40.544
591.07	40.246
591.40	41.638
591.74	41.486
592.07	40.946
592.41	39.533
592.74	39.969
593.08	39.547
593.41	39.441
593.75	39.004
594.08	40.546
594.41	40.333
594.75	40.279
595.08	40.414
595.42	40.137
595.75	39.655
596.09	40.396
596.42	41.121
596.75	40.880
597.09	40.873
597.42	39.939
597.75	40.080
598.09	40.578
598.42	40.698
598.76	39.410
599.09	40.055
599.42	39.792
599.76	39.411
600.09	40.802
600.42	39.765
600.76	39.925
601.09	40.144
601.42	40.047
601.76	40.576
602.09	40.532
602.42	40.535
602.76	40.050
603.09	39.798
603.42	40.693
603.76	40.128
604.09	39.688
604.42	39.800
604.76	40.340
605.09	40.099
605.42	40.691
605.75	40.190
606.09	39.269
606.42	39.296
606.75	40.017
607.09	39.876
607.42	39.965
607.75	40.353
608.08	41.618
608.42	40.303
608.75	39.206
609.08	40.477
609.41	40.757
609.75	40.127
610.08	40.882
610.41	40.819
610.74	41.344
611.07	41.430
611.41	39.536
611.74	41.183
612.07	42.320
612.40	41.738
612.73	41.088
613.07	41.882
613.40	41.653
613.73	40.272
614.06	40.637
614.39	41.545
614.72	40.950
615.06	40.815
615.39	41.563
615.72	40.847
616.05	40.199
616.38	40.395
616.71	41.381
617.05	42.280
617.38	41.920
617.71	40.848
618.04	42.609
618.37	42.201
618.70	41.917
619.03	42.112
619.36	43.199
619.69	43.719
620.03	40.909
620.36	41.632
620.69	42.211
621.02	43.379
621.35	43.548
621.68	42.295
622.01	41.667
622.34	43.168
622.67	41.172
623.00	42.311
623.33	43.433
623.66	42.171
623.99	41.654
624.32	41.220
624.65	41.575
624.99	41.449
625.32	42.141
625.65	42.347
625.98	43.114
626.31	44.617
626.64	43.598
626.97	43.408
627.30	43.574
627.63	41.710
627.96	42.820
628.29	43.474
628.62	44.126
628.95	44.685
629.28	43.233
629.61	43.376
629.94	44.234
630.26	46.123
630.59	45.226
630.92	44.845
631.25	45.262
631.58	44.762
631.91	44.468
632.24	45.000
632.57	46.444
632.90	45.977
633.23	45.678
633.56	45.263
633.89	46.226
634.22	44.274
634.55	45.793
634.88	46.070
635.20	45.818
