SpectraSuite Data File
++++++++++++++++++++++++++++++++++++
Date: Sat May 16 11:15:02 PDT 2015
User: schluterlab
Dark Spectrum Present: Yes
Reference Spectrum Present: Yes
Number of Sampled Component Spectra: 1
Spectrometers: USB2E3373
Integration Time (usec): 3000 (USB2E3373)
Spectra Averaged: 3 (USB2E3373)
Boxcar Smoothing: 0 (USB2E3373)
Correct for Electrical Dark: No (USB2E3373)
Strobe/Lamp Enabled: No (USB2E3373)
Correct for Detector Non-linearity: No (USB2E3373)
Correct for Stray Light: No (USB2E3373)
Number of Pixels in Processed Spectrum: 2048
>>>>>Begin Processed Spectral Data<<<<<
178.53	0.000
178.91	53.333
179.29	233.333
179.67	-400.000
180.04	-76.923
180.42	600.000
180.80	250.000
181.18	325.000
181.56	75.000
181.94	500.000
182.31	425.000
182.69	7.692
183.07	-533.333
183.45	900.000
183.83	633.333
184.20	-171.429
184.58	75.000
184.96	-375.000
185.34	125.000
185.72	-125.000
186.09	83.333
186.47	-75.000
186.85	-125.000
187.23	-12.500
187.61	-375.000
187.98	-187.500
188.36	-137.500
188.74	-62.500
189.12	1400.000
189.49	185.714
189.87	-25.000
190.25	125.000
190.63	50.000
191.00	-44.444
191.38	300.000
191.76	20.000
192.14	420.000
192.51	-280.000
192.89	-366.667
193.27	0.000
193.65	33.333
194.02	-214.286
194.40	633.333
194.78	0.000
195.15	-800.000
195.53	-63.636
195.91	-300.000
196.29	40.000
196.66	-300.000
197.04	2100.000
197.42	0.000
197.79	-20.000
198.17	-100.000
198.55	-400.000
198.92	-1300.000
199.30	87.500
199.68	-750.000
200.05	-77.778
200.43	-66.667
200.81	-200.000
201.18	-66.667
201.56	142.857
201.94	-40.000
202.31	27.273
202.69	0.000
203.07	-80.000
203.44	266.667
203.82	-233.333
204.19	-275.000
204.57	-200.000
204.95	-700.000
205.32	18.750
205.70	100.000
206.08	-1900.000
206.45	-44.444
206.83	-900.000
207.20	-100.000
207.58	-566.667
207.96	-400.000
208.33	-200.000
208.71	-88.889
209.08	90.000
209.46	-57.143
209.84	850.000
210.21	0.000
210.59	50.000
210.96	500.000
211.34	-316.667
211.71	-200.000
212.09	250.000
212.46	1400.000
212.84	-1000.000
213.22	233.333
213.59	100.000
213.97	-88.889
214.34	50.000
214.72	50.000
215.09	-466.667
215.47	-16.667
215.84	-110.000
216.22	-110.000
216.59	33.333
216.97	-225.000
217.34	750.000
217.72	-114.286
218.09	-166.667
218.47	-214.286
218.84	142.857
219.22	42.857
219.59	0.000
219.97	185.714
220.34	200.000
220.72	225.000
221.09	-61.538
221.47	0.000
221.84	466.667
222.22	-200.000
222.59	500.000
222.97	-200.000
223.34	-850.000
223.72	-133.333
224.09	-57.143
224.46	-300.000
224.84	-35.714
225.21	-200.000
225.59	-36.364
225.96	-137.500
226.34	-157.143
226.71	-66.667
227.08	35.000
227.46	-0.000
227.83	-142.857
228.21	-162.500
228.58	250.000
228.95	-25.000
229.33	-900.000
229.70	-360.000
230.08	-150.000
230.45	-33.333
230.82	-266.667
231.20	-800.000
231.57	-300.000
231.95	2000.000
232.32	33.333
232.69	-211.111
233.07	-271.429
233.44	-750.000
233.81	-40.000
234.19	-33.333
234.56	-62.500
234.93	18.750
235.31	-200.000
235.68	-85.714
236.05	-94.118
236.43	-104.545
236.80	-29.032
237.17	-25.000
237.55	-61.905
237.92	-77.273
238.29	8.571
238.67	-32.353
239.04	16.667
239.41	-12.903
239.79	-41.026
240.16	-35.714
240.53	-16.364
240.91	10.256
241.28	-9.091
241.65	-4.615
242.02	-4.918
242.40	-16.393
242.77	-12.121
243.14	-6.780
243.51	-24.286
243.89	-13.924
244.26	-3.371
244.63	-12.632
245.00	-7.368
245.38	-11.864
245.75	-7.080
246.12	-0.800
246.49	-1.575
246.87	-7.317
247.24	-11.017
247.61	-11.864
247.98	-4.225
248.36	-8.392
248.73	-2.532
249.10	-4.459
249.47	-7.602
249.84	-4.545
250.22	-13.690
250.59	-1.130
250.96	-2.094
251.33	3.318
251.70	-6.731
252.08	-5.687
252.45	-3.791
252.82	-5.714
253.19	-4.681
253.56	-2.419
253.94	-0.844
254.31	-7.296
254.68	1.220
255.05	-2.823
255.42	-1.984
255.79	-7.168
256.16	-0.784
256.54	-3.309
256.91	0.000
257.28	-2.564
257.65	-0.709
258.02	2.516
258.39	-1.003
258.76	-5.743
259.14	-1.543
259.51	0.984
259.88	-2.439
260.25	2.484
260.62	-1.286
260.99	-2.671
261.36	1.220
261.73	-0.867
262.10	-0.833
262.47	-0.855
262.85	2.857
263.22	-0.573
263.59	-4.615
263.96	-3.478
264.33	1.084
264.70	-1.657
265.07	-2.747
265.44	-1.809
265.81	0.258
266.18	-1.013
266.55	0.490
266.92	1.511
267.29	0.000
267.66	-2.469
268.03	3.382
268.40	-1.643
268.77	-2.410
269.14	-4.872
269.51	0.230
269.88	-2.064
270.25	-2.098
270.62	-1.144
270.99	-0.676
271.36	-3.963
271.73	0.448
272.10	-1.831
272.47	-2.667
272.84	1.778
273.21	-2.294
273.58	-0.659
273.95	0.877
274.32	-1.584
274.69	1.094
275.06	1.636
275.43	-5.134
275.80	2.037
276.17	0.209
276.54	0.407
276.91	0.206
277.28	0.609
277.65	0.413
278.02	-0.209
278.39	-1.572
278.76	-1.992
279.13	1.976
279.50	-0.199
279.87	-2.537
280.23	0.202
280.60	-1.193
280.97	-1.359
281.34	-1.741
281.71	0.192
282.08	-1.815
282.45	-3.462
282.82	-1.938
283.19	0.909
283.56	2.198
283.92	-0.353
284.29	-1.487
284.66	0.000
285.03	1.248
285.40	-0.185
285.77	0.175
286.14	-2.166
286.51	-0.710
286.87	1.089
287.24	-0.171
287.61	1.818
287.98	-3.293
288.35	-1.653
288.72	-0.849
289.08	0.000
289.45	-0.337
289.82	-0.865
290.19	0.657
290.56	-1.818
290.93	-0.954
291.29	-0.810
291.66	-1.610
292.03	1.413
292.40	0.602
292.77	0.311
293.13	0.000
293.50	-0.446
293.87	0.307
294.24	0.603
294.60	0.455
294.97	0.910
295.34	0.148
295.71	-0.149
296.08	-0.922
296.44	0.715
296.81	0.712
297.18	-0.704
297.55	0.141
297.91	0.837
298.28	-0.822
298.65	0.558
299.02	1.738
299.38	-0.134
299.75	0.408
300.12	2.436
300.48	-0.639
300.85	-0.262
301.22	0.388
301.59	-1.040
301.95	2.267
302.32	-1.956
302.69	0.734
303.05	-0.366
303.42	0.500
303.79	0.837
304.15	-0.592
304.52	-0.467
304.89	1.063
305.25	-1.709
305.62	-0.705
305.99	2.945
306.35	1.887
306.72	-0.114
307.09	1.022
307.45	0.227
307.82	0.782
308.19	0.671
308.55	1.307
308.92	0.967
309.29	0.757
309.65	0.636
310.02	0.972
310.38	1.405
310.75	1.844
311.12	1.963
311.48	1.879
311.85	1.751
312.22	0.721
312.58	2.848
312.95	1.631
313.31	2.398
313.68	3.116
314.05	2.868
314.41	1.610
314.78	2.298
315.14	2.764
315.51	2.229
315.87	4.356
316.24	3.790
316.61	4.127
316.97	2.786
317.34	3.468
317.70	3.061
318.07	4.104
318.43	4.682
318.80	5.822
319.16	3.846
319.53	4.229
319.89	4.892
320.26	6.569
320.62	5.000
320.99	5.174
321.35	4.532
321.72	4.401
322.08	7.023
322.45	5.347
322.81	7.301
323.18	6.916
323.54	5.915
323.91	7.136
324.27	6.749
324.64	7.587
325.00	7.679
325.37	7.964
325.73	8.399
326.10	7.883
326.46	9.807
326.83	8.255
327.19	9.425
327.56	10.136
327.92	9.431
328.29	10.736
328.65	8.727
329.01	9.982
329.38	10.437
329.74	11.172
330.11	11.242
330.47	10.899
330.84	11.182
331.20	11.282
331.56	12.124
331.93	12.611
332.29	12.055
332.66	11.940
333.02	11.855
333.38	12.186
333.75	12.021
334.11	11.467
334.48	10.768
334.84	11.899
335.20	12.589
335.57	11.552
335.93	13.071
336.29	12.400
336.66	11.542
337.02	12.342
337.38	10.784
337.75	12.467
338.11	11.270
338.47	11.655
338.84	12.069
339.20	12.830
339.56	13.012
339.93	11.817
340.29	11.603
340.65	11.801
341.02	11.636
341.38	12.553
341.74	12.362
342.11	12.201
342.47	12.532
342.83	11.755
343.20	12.383
343.56	11.347
343.92	12.771
344.28	12.532
344.65	11.221
345.01	11.933
345.37	11.877
345.73	10.065
346.10	10.384
346.46	11.942
346.82	12.029
347.19	10.518
347.55	11.717
347.91	12.598
348.27	10.740
348.63	13.328
349.00	13.047
349.36	10.773
349.72	12.739
350.08	11.147
350.45	11.742
350.81	12.341
351.17	10.048
351.53	11.297
351.89	11.075
352.26	11.550
352.62	13.518
352.98	12.896
353.34	12.150
353.70	11.737
354.07	12.352
354.43	12.490
354.79	11.490
355.15	10.863
355.51	11.797
355.87	11.067
356.24	11.517
356.60	12.571
356.96	12.702
357.32	11.322
357.68	11.648
358.04	11.701
358.40	12.142
358.77	11.206
359.13	10.941
359.49	12.396
359.85	11.814
360.21	11.111
360.57	12.123
360.93	12.444
361.29	11.659
361.66	10.366
362.02	10.503
362.38	11.592
362.74	12.015
363.10	11.406
363.46	12.678
363.82	11.808
364.18	12.084
364.54	12.652
364.90	11.181
365.26	10.556
365.62	11.832
365.98	12.020
366.35	12.324
366.71	11.839
367.07	11.856
367.43	13.452
367.79	12.371
368.15	11.238
368.51	12.238
368.87	12.294
369.23	11.368
369.59	12.014
369.95	12.333
370.31	13.010
370.67	11.135
371.03	11.808
371.39	11.315
371.75	11.302
372.11	11.908
372.47	11.497
372.83	12.656
373.19	12.143
373.55	12.315
373.91	12.660
374.27	11.978
374.63	11.525
374.99	12.726
375.35	11.844
375.71	12.221
376.07	12.320
376.42	11.391
376.78	12.549
377.14	12.339
377.50	12.766
377.86	12.289
378.22	11.809
378.58	12.415
378.94	12.454
379.30	12.614
379.66	12.629
380.02	12.299
380.38	12.628
380.74	12.251
381.09	12.361
381.45	12.291
381.81	11.857
382.17	12.343
382.53	11.854
382.89	12.620
383.25	12.944
383.61	12.264
383.97	12.186
384.32	12.140
384.68	13.120
385.04	11.896
385.40	12.599
385.76	12.439
386.12	12.367
386.48	13.304
386.83	11.902
387.19	12.194
387.55	12.659
387.91	12.745
388.27	11.821
388.62	12.260
388.98	12.720
389.34	12.852
389.70	12.485
390.06	11.560
390.42	11.667
390.77	12.240
391.13	13.540
391.49	13.475
391.85	12.781
392.20	11.954
392.56	12.584
392.92	12.721
393.28	12.227
393.64	12.207
393.99	12.615
394.35	13.017
394.71	12.230
395.07	12.932
395.42	12.157
395.78	11.376
396.14	12.586
396.50	12.783
396.85	12.338
397.21	12.758
397.57	13.131
397.92	12.881
398.28	13.111
398.64	13.385
399.00	12.697
399.35	12.514
399.71	12.602
400.07	12.836
400.42	12.956
400.78	12.343
401.14	12.695
401.49	12.028
401.85	12.752
402.21	12.098
402.57	12.864
402.92	13.656
403.28	12.439
403.63	12.103
403.99	12.865
404.35	13.043
404.70	13.049
405.06	13.206
405.42	12.177
405.77	12.500
406.13	11.868
406.49	12.463
406.84	12.478
407.20	13.428
407.55	12.793
407.91	12.759
408.27	13.051
408.62	13.109
408.98	12.674
409.34	12.188
409.69	12.980
410.05	13.341
410.40	13.427
410.76	12.626
411.11	12.594
411.47	12.404
411.83	13.753
412.18	12.067
412.54	13.179
412.89	12.515
413.25	12.102
413.60	11.968
413.96	11.583
414.31	13.089
414.67	12.444
415.03	12.678
415.38	13.012
415.74	12.500
416.09	13.107
416.45	12.302
416.80	13.394
417.16	12.226
417.51	13.986
417.87	13.010
418.22	13.274
418.58	13.094
418.93	13.857
419.29	13.363
419.64	12.626
420.00	13.973
420.35	13.010
420.71	13.085
421.06	13.550
421.42	12.529
421.77	13.456
422.12	13.654
422.48	13.736
422.83	12.472
423.19	13.140
423.54	13.660
423.90	13.534
424.25	13.914
424.61	13.872
424.96	14.687
425.31	13.807
425.67	13.524
426.02	13.540
426.38	14.519
426.73	13.968
427.09	13.909
427.44	14.830
427.79	14.012
428.15	14.662
428.50	14.135
428.85	15.108
429.21	14.499
429.56	14.844
429.92	13.778
430.27	13.858
430.62	14.995
430.98	14.375
431.33	14.301
431.68	15.013
432.04	15.501
432.39	15.043
432.74	14.149
433.10	14.463
433.45	14.680
433.80	14.278
434.16	15.368
434.51	14.521
434.86	15.876
435.22	15.089
435.57	14.382
435.92	15.475
436.28	14.837
436.63	15.602
436.98	15.235
437.34	15.239
437.69	14.877
438.04	15.088
438.39	15.343
438.75	16.065
439.10	15.380
439.45	14.243
439.81	15.663
440.16	15.048
440.51	15.824
440.86	14.980
441.22	14.483
441.57	15.947
441.92	15.192
442.27	15.639
442.63	15.182
442.98	15.011
443.33	15.321
443.68	15.581
444.03	15.521
444.39	15.565
444.74	16.079
445.09	15.406
445.44	15.701
445.79	15.400
446.15	15.991
446.50	14.698
446.85	15.649
447.20	15.322
447.55	15.691
447.91	16.115
448.26	16.257
448.61	15.110
448.96	15.462
449.31	15.445
449.66	16.085
450.02	15.235
450.37	15.130
450.72	14.915
451.07	16.405
451.42	14.994
451.77	16.816
452.12	15.614
452.47	16.310
452.83	16.540
453.18	16.256
453.53	15.734
453.88	15.730
454.23	15.780
454.58	16.594
454.93	15.554
455.28	15.743
455.63	16.216
455.98	16.265
456.34	15.756
456.69	16.323
457.04	17.087
457.39	16.388
457.74	16.361
458.09	15.777
458.44	16.339
458.79	15.527
459.14	16.543
459.49	15.631
459.84	16.245
460.19	16.050
460.54	16.092
460.89	15.078
461.24	16.151
461.59	16.002
461.94	16.677
462.29	16.379
462.64	16.140
462.99	16.801
463.34	16.070
463.69	16.094
464.04	15.934
464.39	16.129
464.74	15.839
465.09	15.695
465.44	16.695
465.79	16.131
466.14	16.513
466.49	15.717
466.84	15.546
467.19	16.272
467.54	15.570
467.89	16.708
468.24	15.914
468.59	16.052
468.94	16.141
469.29	15.789
469.64	15.970
469.99	16.408
470.34	16.433
470.68	16.424
471.03	16.793
471.38	14.028
471.73	16.364
472.08	16.466
472.43	15.894
472.78	16.867
473.13	15.706
473.48	16.337
473.83	15.757
474.17	15.414
474.52	16.432
474.87	16.084
475.22	15.575
475.57	15.056
475.92	15.713
476.27	16.629
476.61	15.718
476.96	15.595
477.31	15.823
477.66	16.159
478.01	15.667
478.36	15.244
478.70	15.537
479.05	15.738
479.40	15.544
479.75	15.800
480.10	15.526
480.45	15.135
480.79	15.844
481.14	15.504
481.49	15.828
481.84	15.626
482.19	14.893
482.53	15.104
482.88	14.760
483.23	16.197
483.58	16.004
483.92	15.576
484.27	14.400
484.62	15.421
484.97	15.121
485.31	14.208
485.66	14.535
486.01	14.099
486.36	14.616
486.70	14.133
487.05	14.473
487.40	14.450
487.75	14.935
488.09	14.731
488.44	14.750
488.79	14.715
489.13	15.101
489.48	14.886
489.83	15.022
490.17	15.020
490.52	15.670
490.87	14.088
491.22	14.946
491.56	15.000
491.91	15.076
492.26	15.519
492.60	14.320
492.95	15.754
493.30	14.960
493.64	14.480
493.99	14.675
494.34	15.381
494.68	14.981
495.03	14.388
495.37	14.208
495.72	14.342
496.07	14.688
496.41	14.868
496.76	13.973
497.11	15.261
497.45	15.469
497.80	14.507
498.14	15.079
498.49	14.365
498.84	14.515
499.18	14.279
499.53	14.321
499.87	14.093
500.22	15.049
500.56	13.807
500.91	14.532
501.26	15.284
501.60	13.529
501.95	14.251
502.29	13.888
502.64	14.333
502.98	14.087
503.33	14.004
503.67	13.793
504.02	13.423
504.36	14.608
504.71	14.539
505.06	13.280
505.40	14.022
505.75	13.770
506.09	14.661
506.44	14.637
506.78	14.651
507.13	13.903
507.47	14.085
507.82	13.784
508.16	13.679
508.51	13.653
508.85	13.975
509.19	13.553
509.54	14.482
509.88	13.936
510.23	13.732
510.57	13.757
510.92	13.963
511.26	14.248
511.61	13.445
511.95	13.416
512.30	13.304
512.64	13.300
512.98	14.521
513.33	14.278
513.67	13.959
514.02	13.870
514.36	13.740
514.70	12.903
515.05	13.894
515.39	12.514
515.74	14.427
516.08	13.718
516.42	13.598
516.77	13.807
517.11	13.158
517.46	13.696
517.80	13.357
518.14	13.466
518.49	13.389
518.83	13.887
519.17	14.210
519.52	13.534
519.86	13.262
520.20	13.447
520.55	13.538
520.89	13.024
521.23	13.858
521.58	14.044
521.92	13.110
522.26	13.016
522.61	12.357
522.95	13.338
523.29	13.292
523.64	12.680
523.98	13.304
524.32	13.074
524.66	13.043
525.01	12.460
525.35	12.629
525.69	13.533
526.04	13.251
526.38	13.940
526.72	11.686
527.06	12.826
527.41	12.805
527.75	12.937
528.09	12.707
528.43	12.328
528.78	12.940
529.12	12.484
529.46	13.273
529.80	12.524
530.15	12.428
530.49	12.419
530.83	12.967
531.17	11.717
531.51	11.922
531.86	13.232
532.20	12.146
532.54	13.035
532.88	12.121
533.22	11.698
533.57	12.467
533.91	11.423
534.25	11.754
534.59	10.931
534.93	11.388
535.27	12.524
535.62	13.299
535.96	12.411
536.30	11.453
536.64	11.620
536.98	11.653
537.32	11.610
537.66	11.337
538.01	10.859
538.35	12.095
538.69	11.163
539.03	11.510
539.37	11.045
539.71	11.808
540.05	11.378
540.39	11.704
540.73	11.679
541.07	11.270
541.42	11.816
541.76	10.565
542.10	11.479
542.44	12.059
542.78	11.601
543.12	10.659
543.46	11.301
543.80	10.635
544.14	10.745
544.48	11.155
544.82	11.231
545.16	11.335
545.50	10.363
545.84	10.709
546.18	10.333
546.52	11.166
546.86	10.684
547.20	10.830
547.54	10.193
547.88	10.551
548.22	10.550
548.56	9.820
548.90	10.984
549.24	10.652
549.58	10.021
549.92	11.449
550.26	11.922
550.60	10.455
550.94	10.584
551.28	10.384
551.62	10.561
551.96	10.637
552.30	11.220
552.64	10.345
552.98	11.633
553.32	9.957
553.66	10.526
554.00	10.590
554.34	9.531
554.68	10.161
555.02	10.781
555.36	9.490
555.69	10.029
556.03	9.754
556.37	10.455
556.71	10.093
557.05	10.643
557.39	9.057
557.73	11.014
558.07	10.324
558.41	9.424
558.75	10.114
559.08	9.183
559.42	10.107
559.76	10.199
560.10	10.291
560.44	10.188
560.78	9.743
561.12	9.662
561.45	9.452
561.79	9.547
562.13	9.187
562.47	9.104
562.81	9.335
563.15	9.447
563.48	9.330
563.82	8.452
564.16	9.060
564.50	9.543
564.84	9.722
565.17	9.151
565.51	10.039
565.85	9.601
566.19	9.881
566.52	8.937
566.86	7.965
567.20	9.988
567.54	9.155
567.88	7.873
568.21	8.837
568.55	8.908
568.89	8.549
569.23	8.607
569.56	8.113
569.90	8.576
570.24	8.305
570.57	8.225
570.91	7.990
571.25	8.074
571.59	7.868
571.92	8.006
572.26	8.059
572.60	7.850
572.93	7.680
573.27	7.622
573.61	7.313
573.95	8.169
574.28	7.354
574.62	7.550
574.96	7.353
575.29	7.876
575.63	7.805
575.97	7.228
576.30	7.262
576.64	7.702
576.98	7.141
577.31	7.390
577.65	7.426
577.98	7.494
578.32	7.220
578.66	7.384
578.99	7.284
579.33	7.209
579.67	7.177
580.00	7.490
580.34	7.314
580.67	7.085
581.01	6.970
581.35	7.448
581.68	7.137
582.02	6.958
582.35	7.082
582.69	7.124
583.02	6.720
583.36	7.197
583.70	6.861
584.03	7.139
584.37	7.037
584.70	7.190
585.04	7.367
585.37	6.969
585.71	6.749
586.04	7.270
586.38	6.656
586.72	7.187
587.05	7.165
587.39	6.993
587.72	7.035
588.06	6.933
588.39	6.950
588.73	7.423
589.06	7.129
589.40	7.592
589.73	7.330
590.07	7.101
590.40	7.380
590.73	6.877
591.07	7.213
591.40	7.106
591.74	6.994
592.07	6.622
592.41	6.794
592.74	6.726
593.08	7.209
593.41	6.678
593.75	6.495
594.08	6.470
594.41	7.874
594.75	6.871
595.08	6.654
595.42	7.334
595.75	6.578
596.09	6.791
596.42	7.079
596.75	6.641
597.09	7.836
597.42	6.940
597.75	7.219
598.09	6.869
598.42	6.805
598.76	6.478
599.09	6.630
599.42	6.574
599.76	6.720
600.09	7.137
600.42	6.798
600.76	6.855
601.09	6.494
601.42	6.569
601.76	6.970
602.09	5.849
602.42	6.667
602.76	6.149
603.09	6.411
603.42	7.131
603.76	6.861
604.09	6.848
604.42	6.162
604.76	6.106
605.09	6.872
605.42	6.560
605.75	6.080
606.09	6.725
606.42	5.949
606.75	6.355
607.09	6.220
607.42	6.646
607.75	6.269
608.08	6.733
608.42	6.149
608.75	6.822
609.08	6.478
609.41	5.830
609.75	6.046
610.08	6.373
610.41	5.783
610.74	6.818
611.07	5.984
611.41	5.951
611.74	7.249
612.07	6.767
612.40	6.183
612.73	6.893
613.07	6.109
613.40	6.459
613.73	6.485
614.06	6.205
614.39	6.483
614.72	5.642
615.06	5.815
615.39	6.023
615.72	5.703
616.05	5.798
616.38	6.152
616.71	6.006
617.05	6.634
617.38	6.873
617.71	6.020
618.04	5.466
618.37	6.101
618.70	6.780
619.03	6.500
619.36	6.624
619.69	6.604
620.03	6.818
620.36	5.767
620.69	5.958
621.02	5.479
621.35	6.774
621.68	6.148
622.01	5.906
622.34	6.056
622.67	5.391
623.00	6.197
623.33	6.866
623.66	5.687
623.99	6.165
624.32	6.250
624.65	6.770
624.99	6.199
625.32	5.464
625.65	6.216
625.98	5.790
626.31	6.199
626.64	5.356
626.97	5.394
627.30	7.149
627.63	4.318
627.96	6.005
628.29	5.147
628.62	6.877
628.95	6.201
629.28	6.203
629.61	4.514
629.94	6.333
630.26	6.064
630.59	5.930
630.92	5.906
631.25	6.149
631.58	6.032
631.91	5.000
632.24	5.111
632.57	6.556
632.90	5.517
633.23	5.841
633.56	5.614
633.89	6.132
634.22	5.431
634.55	6.731
634.88	5.925
635.20	4.869
635.53	5.725
635.86	6.045
636.19	5.739
636.52	5.974
636.85	4.332
637.18	4.750
637.51	6.568
637.83	4.927
638.16	5.132
638.49	4.414
638.82	5.405
639.15	7.004
639.48	4.540
639.81	5.394
640.13	5.676
