SpectraSuite Data File
++++++++++++++++++++++++++++++++++++
Date: Sat May 16 11:09:42 PDT 2015
User: schluterlab
Dark Spectrum Present: Yes
Reference Spectrum Present: Yes
Number of Sampled Component Spectra: 1
Spectrometers: USB2E3373
Integration Time (usec): 3000 (USB2E3373)
Spectra Averaged: 3 (USB2E3373)
Boxcar Smoothing: 0 (USB2E3373)
Correct for Electrical Dark: No (USB2E3373)
Strobe/Lamp Enabled: No (USB2E3373)
Correct for Detector Non-linearity: No (USB2E3373)
Correct for Stray Light: No (USB2E3373)
Number of Pixels in Processed Spectrum: 2048
>>>>>Begin Processed Spectral Data<<<<<
178.53	0.000
178.91	46.667
179.29	266.667
179.67	-600.000
180.04	46.154
180.42	300.000
180.80	-0.000
181.18	200.000
181.56	125.000
181.94	400.000
182.31	475.000
182.69	46.154
183.07	-233.333
183.45	750.000
183.83	33.333
184.20	0.000
184.58	-37.500
184.96	-200.000
185.34	62.500
185.72	-425.000
186.09	33.333
186.47	-150.000
186.85	62.500
187.23	-12.500
187.61	0.000
187.98	-137.500
188.36	25.000
188.74	-50.000
189.12	900.000
189.49	-0.000
189.87	50.000
190.25	-125.000
190.63	28.571
191.00	11.111
191.38	180.000
191.76	26.667
192.14	140.000
192.51	100.000
192.89	200.000
193.27	0.000
193.65	22.222
194.02	-142.857
194.40	533.333
194.78	-80.000
195.15	0.000
195.53	-18.182
195.91	-66.667
196.29	80.000
196.66	0.000
197.04	800.000
197.42	-225.000
197.79	86.667
198.17	-233.333
198.55	-150.000
198.92	-600.000
199.30	87.500
199.68	0.000
200.05	-66.667
200.43	-77.778
200.81	-300.000
201.18	-58.333
201.56	57.143
201.94	46.667
202.31	54.545
202.69	90.000
203.07	40.000
203.44	333.333
203.82	-200.000
204.19	-125.000
204.57	225.000
204.95	-1700.000
205.32	56.250
205.70	-700.000
206.08	-400.000
206.45	16.667
206.83	-800.000
207.20	400.000
207.58	-200.000
207.96	-200.000
208.33	-25.000
208.71	-44.444
209.08	170.000
209.46	-157.143
209.84	-0.000
210.21	0.000
210.59	75.000
210.96	500.000
211.34	-300.000
211.71	-100.000
212.09	100.000
212.46	750.000
212.84	-1800.000
213.22	366.667
213.59	91.667
213.97	88.889
214.34	70.000
214.72	30.000
215.09	33.333
215.47	100.000
215.84	0.000
216.22	30.000
216.59	100.000
216.97	-175.000
217.34	400.000
217.72	-142.857
218.09	-83.333
218.47	-85.714
218.84	171.429
219.22	-128.571
219.59	0.000
219.97	71.429
220.34	325.000
220.72	150.000
221.09	69.231
221.47	0.000
221.84	33.333
222.22	450.000
222.59	-300.000
222.97	-125.000
223.34	-650.000
223.72	-33.333
224.09	21.429
224.46	-125.000
224.84	64.286
225.21	-228.571
225.59	36.364
225.96	-62.500
226.34	-42.857
226.71	-66.667
227.08	65.000
227.46	1100.000
227.83	57.143
228.21	-162.500
228.58	300.000
228.95	6.250
229.33	-1600.000
229.70	-80.000
230.08	-450.000
230.45	50.000
230.82	-33.333
231.20	-300.000
231.57	50.000
231.95	200.000
232.32	-19.048
232.69	-66.667
233.07	0.000
233.44	-550.000
233.81	-20.000
234.19	-155.556
234.56	-6.250
234.93	40.625
235.31	-128.571
235.68	-7.143
236.05	70.588
236.43	-45.455
236.80	51.613
237.17	4.167
237.55	4.762
237.92	-31.818
238.29	-28.571
238.67	44.118
239.04	22.222
239.41	-16.129
239.79	-28.205
240.16	-4.762
240.53	-1.818
240.91	12.821
241.28	7.273
241.65	15.385
242.02	-19.672
242.40	-22.951
242.77	-3.030
243.14	-11.864
243.51	-12.857
243.89	-1.266
244.26	8.989
244.63	1.053
245.00	9.474
245.38	1.695
245.75	9.735
246.12	3.200
246.49	7.087
246.87	-4.878
247.24	-5.085
247.61	3.390
247.98	4.930
248.36	2.797
248.73	0.633
249.10	1.911
249.47	5.263
249.84	5.114
250.22	-3.571
250.59	2.825
250.96	3.665
251.33	3.791
251.70	2.885
252.08	1.896
252.45	4.739
252.82	-1.905
253.19	1.277
253.56	4.435
253.94	0.000
254.31	2.575
254.68	3.659
255.05	-1.613
255.42	4.762
255.79	-0.358
256.16	1.961
256.54	2.574
256.91	3.409
257.28	0.000
257.65	-2.837
258.02	4.717
258.39	0.000
258.76	-1.351
259.14	6.173
259.51	3.607
259.88	1.220
260.25	5.280
260.62	-2.894
260.99	2.967
261.36	2.439
261.73	3.757
262.10	4.167
262.47	3.989
262.85	4.857
263.22	0.573
263.59	0.308
263.96	0.580
264.33	2.439
264.70	1.934
265.07	3.571
265.44	0.000
265.81	-0.258
266.18	1.013
266.55	2.696
266.92	0.756
267.29	2.421
267.66	2.469
268.03	3.623
268.40	4.460
268.77	3.133
269.14	3.944
269.51	4.828
269.88	-1.147
270.25	-0.466
270.62	1.602
270.99	2.703
271.36	1.632
271.73	1.794
272.10	1.144
272.47	0.000
272.84	4.444
273.21	1.606
273.58	2.198
273.95	2.412
274.32	1.810
274.69	2.188
275.06	2.658
275.43	-0.223
275.80	4.684
276.17	2.301
276.54	4.888
276.91	2.058
277.28	3.651
277.65	0.413
278.02	1.670
278.39	0.589
278.76	0.598
279.13	3.755
279.50	2.783
279.87	1.691
280.23	2.024
280.60	2.187
280.97	2.913
281.34	0.580
281.71	2.885
282.08	4.032
282.45	0.000
282.82	2.132
283.19	1.455
283.56	2.381
283.92	2.473
284.29	2.045
284.66	2.518
285.03	5.169
285.40	3.321
285.77	1.579
286.14	1.083
286.51	1.776
286.87	2.541
287.24	1.536
287.61	3.140
287.98	0.347
288.35	0.992
288.72	3.226
289.08	1.186
289.45	2.189
289.82	1.903
290.19	4.269
290.56	1.322
290.93	2.862
291.29	0.648
291.66	2.254
292.03	4.082
292.40	2.861
292.77	1.708
293.13	2.602
293.50	3.715
293.87	2.607
294.24	2.866
294.60	1.515
294.97	2.276
295.34	1.037
295.71	3.125
296.08	0.307
296.44	2.718
296.81	0.997
297.18	2.958
297.55	2.684
297.91	3.626
298.28	1.781
298.65	2.232
299.02	4.011
299.38	2.139
299.75	3.397
300.12	3.077
300.48	4.987
300.85	1.704
301.22	2.329
301.59	3.641
301.95	3.652
302.32	2.347
302.69	2.081
303.05	3.297
303.42	3.500
303.79	2.273
304.15	4.028
304.52	3.617
304.89	4.250
305.25	4.151
305.62	2.820
305.99	5.771
306.35	4.329
306.72	1.822
307.09	4.881
307.45	3.405
307.82	4.022
308.19	5.034
308.55	3.704
308.92	2.685
309.29	3.568
309.65	4.560
310.02	3.240
310.38	4.324
310.75	3.791
311.12	4.132
311.48	4.175
311.85	5.355
312.22	4.016
312.58	4.069
312.95	3.976
313.31	4.196
313.68	4.221
314.05	4.352
314.41	2.616
314.78	3.297
315.14	3.751
315.51	4.255
315.87	3.582
316.24	4.568
316.61	4.798
316.97	4.677
317.34	4.432
317.70	2.968
318.07	4.384
318.43	4.401
318.80	5.164
319.16	4.409
319.53	5.169
319.89	4.233
320.26	4.412
320.62	3.462
320.99	5.672
321.35	3.842
321.72	2.968
322.08	5.638
322.45	5.149
322.81	4.707
323.18	4.515
323.54	4.713
323.91	4.541
324.27	5.513
324.64	4.479
325.00	5.497
325.37	5.249
325.73	6.299
326.10	3.632
326.46	5.342
326.83	4.851
327.19	5.588
327.56	6.133
327.92	5.523
328.29	5.541
328.65	3.545
329.01	5.035
329.38	4.371
329.74	6.136
330.11	4.986
330.47	4.995
330.84	6.324
331.20	4.693
331.56	5.469
331.93	4.796
332.29	5.571
332.66	4.565
333.02	4.977
333.38	5.735
333.75	5.610
334.11	5.067
334.48	4.854
334.84	6.124
335.20	6.649
335.57	5.505
335.93	7.162
336.29	4.340
336.66	4.581
337.02	6.396
337.38	5.258
337.75	5.707
338.11	5.367
338.47	4.359
338.84	5.445
339.20	5.536
339.56	5.882
339.93	5.026
340.29	4.960
340.65	4.983
341.02	6.408
341.38	5.476
341.74	5.758
342.11	5.461
342.47	5.236
342.83	4.534
343.20	5.465
343.56	4.000
343.92	5.843
344.28	5.467
344.65	4.620
345.01	4.622
345.37	5.648
345.73	4.255
346.10	4.088
346.46	5.524
346.82	5.694
347.19	4.848
347.55	5.698
347.91	4.961
348.27	5.012
348.63	7.108
349.00	5.091
349.36	5.230
349.72	7.086
350.08	5.854
350.45	5.359
350.81	5.653
351.17	4.823
351.53	4.932
351.89	5.416
352.26	5.349
352.62	6.298
352.98	5.142
353.34	5.276
353.70	4.247
354.07	6.058
354.43	5.375
354.79	6.101
355.15	5.112
355.51	5.312
355.87	4.585
356.24	5.639
356.60	6.285
356.96	6.543
357.32	4.434
357.68	4.981
358.04	5.466
358.40	5.182
358.77	5.023
359.13	6.503
359.49	5.215
359.85	5.716
360.21	5.175
360.57	5.648
360.93	6.000
361.29	5.306
361.66	5.564
362.02	5.399
362.38	5.943
362.74	6.300
363.10	5.237
363.46	6.481
363.82	5.466
364.18	5.644
364.54	6.791
364.90	6.010
365.26	5.920
365.62	5.773
365.98	6.330
366.35	5.563
366.71	5.426
367.07	5.716
367.43	7.001
367.79	5.223
368.15	5.050
368.51	6.713
368.87	6.799
369.23	6.526
369.59	6.111
369.95	6.342
370.31	6.399
370.67	5.351
371.03	6.487
371.39	5.728
371.75	5.866
372.11	6.743
372.47	6.580
372.83	6.467
373.19	5.857
373.55	6.193
373.91	6.188
374.27	6.160
374.63	6.211
374.99	6.259
375.35	6.057
375.71	7.022
376.07	5.749
376.42	5.828
376.78	7.059
377.14	5.966
377.50	6.834
377.86	6.437
378.22	6.533
378.58	5.930
378.94	6.597
379.30	6.459
379.66	7.104
380.02	6.358
380.38	6.526
380.74	5.920
381.09	6.913
381.45	7.518
381.81	5.929
382.17	6.454
382.53	6.201
382.89	6.220
383.25	7.646
383.61	6.781
383.97	7.348
384.32	6.821
384.68	7.134
385.04	6.763
385.40	6.208
385.76	7.134
386.12	6.621
386.48	7.240
386.83	7.423
387.19	7.412
387.55	6.965
387.91	7.054
388.27	6.454
388.62	6.611
388.98	6.723
389.34	6.610
389.70	6.760
390.06	6.712
390.42	7.051
390.77	7.066
391.13	8.075
391.49	7.299
391.85	6.983
392.20	6.553
392.56	6.475
392.92	7.017
393.28	7.635
393.64	7.517
393.99	7.323
394.35	7.908
394.71	7.227
395.07	8.286
395.42	6.377
395.78	6.348
396.14	7.664
396.50	7.156
396.85	7.094
397.21	7.473
397.57	7.356
397.92	7.787
398.28	7.389
398.64	6.603
399.00	7.472
399.35	7.666
399.71	7.898
400.07	7.164
400.42	8.212
400.78	7.513
401.14	7.186
401.49	6.781
401.85	7.261
402.21	7.867
402.57	7.342
402.92	7.300
403.28	7.475
403.63	6.111
403.99	7.458
404.35	7.126
404.70	7.841
405.06	7.497
405.42	6.704
405.77	7.466
406.13	7.439
406.49	7.969
406.84	7.079
407.20	7.479
407.55	7.283
407.91	7.124
408.27	7.537
408.62	7.035
408.98	7.580
409.34	7.008
409.69	8.129
410.05	7.520
410.40	7.664
410.76	7.943
411.11	7.606
411.47	7.417
411.83	7.702
412.18	7.054
412.54	7.200
412.89	7.351
413.25	6.494
413.60	7.230
413.96	6.839
414.31	7.768
414.67	7.302
415.03	6.856
415.38	7.352
415.74	8.247
416.09	6.841
416.45	7.275
416.80	7.542
417.16	6.645
417.51	7.748
417.87	7.638
418.22	8.028
418.58	7.766
418.93	7.848
419.29	7.905
419.64	7.412
420.00	8.688
420.35	7.215
420.71	8.643
421.06	8.462
421.42	7.319
421.77	7.984
422.12	8.002
422.48	7.964
422.83	8.200
423.19	8.073
423.54	7.781
423.90	8.271
424.25	7.410
424.61	8.866
424.96	8.602
425.31	8.944
425.67	8.711
426.02	8.204
426.38	8.167
426.73	9.176
427.09	8.946
427.44	9.602
427.79	7.733
428.15	8.737
428.50	8.915
428.85	7.914
429.21	8.688
429.56	8.281
429.92	8.717
430.27	8.624
430.62	9.457
430.98	9.043
431.33	9.232
431.68	8.954
432.04	9.010
432.39	9.003
432.74	8.453
433.10	9.567
433.45	9.326
433.80	8.511
434.16	9.242
434.51	9.041
434.86	9.900
435.22	9.577
435.57	9.364
435.92	8.792
436.28	9.852
436.63	9.214
436.98	9.278
437.34	9.510
437.69	9.335
438.04	9.302
438.39	9.627
438.75	9.255
439.10	9.939
439.45	8.389
439.81	10.120
440.16	9.938
440.51	9.706
440.86	9.948
441.22	8.955
441.57	8.842
441.92	9.463
442.27	9.361
442.63	9.871
442.98	9.199
443.33	9.500
443.68	10.214
444.03	9.676
444.39	10.132
444.74	9.251
445.09	9.430
445.44	10.073
445.79	9.842
446.15	10.350
446.50	9.962
446.85	9.851
447.20	10.163
447.55	10.055
447.91	10.780
448.26	9.777
448.61	9.847
448.96	10.532
449.31	8.850
449.66	10.132
450.02	9.584
450.37	8.986
450.72	9.774
451.07	10.119
451.42	10.037
451.77	9.635
452.12	9.654
452.47	9.572
452.83	9.493
453.18	10.057
453.53	10.137
453.88	10.885
454.23	10.097
454.58	10.379
454.93	11.020
455.28	9.433
455.63	9.951
455.98	10.723
456.34	9.593
456.69	9.506
457.04	11.309
457.39	9.689
457.74	9.923
458.09	10.441
458.44	10.219
458.79	9.697
459.14	10.268
459.49	10.184
459.84	10.174
460.19	10.024
460.54	10.103
460.89	9.641
461.24	9.957
461.59	10.961
461.94	10.376
462.29	10.661
462.64	10.079
462.99	10.509
463.34	10.736
463.69	10.369
464.04	10.018
464.39	10.036
464.74	10.520
465.09	9.922
465.44	10.152
465.79	10.773
466.14	10.587
466.49	10.075
466.84	10.384
467.19	10.661
467.54	10.000
467.89	10.974
468.24	10.986
468.59	10.056
468.94	9.711
469.29	9.357
469.64	10.647
469.99	10.736
470.34	10.554
470.68	10.683
471.03	11.425
471.38	10.833
471.73	10.629
472.08	9.973
472.43	10.746
472.78	11.000
473.13	9.675
473.48	10.593
473.83	10.546
474.17	10.064
474.52	11.893
474.87	11.422
475.22	10.324
475.57	9.944
475.92	11.231
476.27	10.686
476.61	10.141
476.96	11.012
477.31	10.549
477.66	10.570
478.01	10.859
478.36	10.529
478.70	10.571
479.05	10.330
479.40	10.052
479.75	9.735
480.10	10.069
480.45	9.816
480.79	10.365
481.14	10.637
481.49	10.697
481.84	10.125
482.19	10.781
482.53	10.748
482.88	10.252
483.23	10.282
483.58	11.101
483.92	10.655
484.27	10.279
484.62	10.497
484.97	10.795
485.31	9.632
485.66	9.720
486.01	9.706
486.36	10.068
486.70	10.292
487.05	9.657
487.40	10.016
487.75	10.219
488.09	9.728
488.44	10.555
488.79	10.435
489.13	10.422
489.48	11.378
489.83	10.699
490.17	11.232
490.52	10.688
490.87	9.977
491.22	10.182
491.56	10.694
491.91	10.687
492.26	10.283
492.60	9.562
492.95	10.662
493.30	10.148
493.64	10.343
493.99	10.468
494.34	10.381
494.68	10.955
495.03	10.612
495.37	10.177
495.72	10.756
496.07	11.028
496.41	10.977
496.76	10.457
497.11	11.022
497.45	10.489
497.80	10.805
498.14	10.756
498.49	10.748
498.84	10.534
499.18	10.916
499.53	10.180
499.87	10.087
500.22	10.098
500.56	10.305
500.91	10.542
501.26	11.111
501.60	10.448
501.95	11.401
502.29	10.439
502.64	11.363
502.98	10.110
503.33	10.949
503.67	10.632
504.02	10.961
504.36	10.637
504.71	10.030
505.06	10.534
505.40	11.427
505.75	10.620
506.09	10.566
506.44	10.526
506.78	11.039
507.13	11.071
507.47	10.798
507.82	10.738
508.16	10.415
508.51	9.995
508.85	10.559
509.19	10.518
509.54	11.047
509.88	10.745
510.23	11.426
510.57	11.376
510.92	11.869
511.26	10.845
511.61	10.691
511.95	10.129
512.30	11.050
512.64	10.239
512.98	11.001
513.33	11.093
513.67	10.609
514.02	10.403
514.36	11.468
514.70	10.922
515.05	10.978
515.39	10.669
515.74	11.169
516.08	10.548
516.42	10.878
516.77	10.919
517.11	10.698
517.46	11.244
517.80	11.974
518.14	10.447
518.49	11.476
518.83	11.632
519.17	11.486
519.52	11.394
519.86	11.708
520.20	10.941
520.55	10.954
520.89	11.021
521.23	11.661
521.58	11.411
521.92	11.020
522.26	11.492
522.61	11.724
522.95	10.338
523.29	11.223
523.64	11.118
523.98	11.712
524.32	10.937
524.66	10.745
525.01	11.432
525.35	11.405
525.69	11.516
526.04	10.901
526.38	11.649
526.72	10.856
527.06	11.849
527.41	10.891
527.75	10.957
528.09	11.582
528.43	11.016
528.78	11.558
529.12	12.100
529.46	10.631
529.80	10.910
530.15	11.204
530.49	10.931
530.83	12.508
531.17	11.313
531.51	10.181
531.86	12.113
532.20	10.459
532.54	11.430
532.88	11.528
533.22	10.094
533.57	11.162
533.91	10.737
534.25	11.125
534.59	10.056
534.93	9.583
535.27	11.517
535.62	11.829
535.96	11.377
536.30	10.733
536.64	11.355
536.98	11.582
537.32	10.574
537.66	10.794
538.01	11.134
538.35	12.230
538.69	10.294
539.03	11.713
539.37	11.710
539.71	11.141
540.05	10.144
540.39	11.080
540.73	11.196
541.07	10.861
541.42	10.331
541.76	10.698
542.10	11.546
542.44	10.993
542.78	10.923
543.12	11.473
543.46	11.301
543.80	10.502
544.14	10.745
544.48	11.352
544.82	10.487
545.16	10.463
545.50	10.902
545.84	11.683
546.18	11.928
546.52	11.380
546.86	10.826
547.20	10.619
547.54	10.331
547.88	10.617
548.22	10.747
548.56	10.888
548.90	11.321
549.24	10.231
549.58	11.362
549.92	11.025
550.26	12.572
550.60	11.593
550.94	11.168
551.28	11.211
551.62	10.487
551.96	10.709
552.30	11.150
552.64	10.415
552.98	11.423
553.32	9.740
553.66	11.247
554.00	12.011
554.34	11.119
554.68	10.526
555.02	13.314
555.36	11.718
555.69	9.957
556.03	10.456
556.37	11.522
556.71	11.310
557.05	12.491
557.39	11.359
557.73	12.400
558.07	11.605
558.41	11.070
558.75	11.331
559.08	10.117
559.42	10.567
559.76	10.813
560.10	11.931
560.44	11.127
560.78	10.508
561.12	11.249
561.45	11.781
561.79	11.010
562.13	11.080
562.47	10.994
562.81	10.962
563.15	11.127
563.48	12.232
563.82	11.832
564.16	9.872
564.50	11.223
564.84	10.913
565.17	11.340
565.51	11.278
565.85	11.291
566.19	11.199
566.52	10.568
566.86	10.872
567.20	11.259
567.54	11.459
567.88	10.944
568.21	10.123
568.55	10.817
568.89	10.338
569.23	10.875
569.56	10.214
569.90	10.543
570.24	9.808
570.57	9.525
570.91	10.031
571.25	10.636
571.59	10.147
571.92	9.911
572.26	9.886
572.60	9.742
572.93	10.158
573.27	10.549
573.61	9.894
573.95	10.059
574.28	9.891
574.62	10.041
574.96	9.995
575.29	9.807
575.63	9.849
575.97	9.493
576.30	10.112
576.64	10.052
576.98	9.903
577.31	9.917
577.65	9.819
577.98	10.069
578.32	9.451
578.66	9.396
578.99	9.816
579.33	9.972
579.67	10.068
580.00	9.449
580.34	9.932
580.67	9.782
581.01	9.438
581.35	9.720
581.68	9.561
582.02	9.693
582.35	9.235
582.69	9.841
583.02	9.836
583.36	9.890
583.70	9.985
584.03	10.022
584.37	9.851
584.70	9.807
585.04	9.696
585.37	9.761
585.71	10.015
586.04	9.954
586.38	9.409
586.72	10.175
587.05	10.167
587.39	9.697
587.72	9.955
588.06	10.289
588.39	9.997
588.73	10.410
589.06	10.134
589.40	10.787
589.73	10.482
590.07	9.723
590.40	10.221
590.73	10.316
591.07	10.492
591.40	10.615
591.74	10.730
592.07	10.901
592.41	10.531
592.74	10.723
593.08	10.814
593.41	9.803
593.75	9.430
594.08	10.029
594.41	10.647
594.75	10.117
595.08	10.038
595.42	10.188
595.75	10.143
596.09	10.322
596.42	10.884
596.75	10.220
597.09	10.997
597.42	10.127
597.75	10.319
598.09	10.890
598.42	10.561
598.76	10.341
599.09	9.629
599.42	10.188
599.76	10.306
600.09	10.725
600.42	10.216
600.76	10.282
601.09	10.444
601.42	10.249
601.76	10.787
602.09	10.552
602.42	10.165
602.76	10.220
603.09	10.242
603.42	11.080
603.76	10.650
604.09	10.693
604.42	10.283
604.76	10.292
605.09	10.036
605.42	11.259
605.75	9.961
606.09	10.170
606.42	10.096
606.75	10.520
607.09	10.543
607.42	10.299
607.75	10.287
608.08	10.935
608.42	10.265
608.75	9.813
609.08	11.203
609.41	10.115
609.75	10.775
610.08	11.078
610.41	10.892
610.74	11.267
611.07	10.903
611.41	10.388
611.74	11.877
612.07	11.493
612.40	10.768
612.73	11.309
613.07	11.007
613.40	11.494
613.73	11.553
614.06	10.489
614.39	10.428
614.72	10.615
615.06	10.707
615.39	10.147
615.72	10.646
616.05	10.436
616.38	10.389
616.71	11.051
617.05	11.399
617.38	12.012
617.71	10.688
618.04	11.118
618.37	11.069
618.70	11.538
619.03	10.697
619.36	11.980
619.69	11.701
620.03	10.882
620.36	11.392
620.69	11.342
621.02	11.035
621.35	11.613
621.68	12.049
622.01	12.298
622.34	11.335
622.67	11.328
623.00	11.171
623.33	11.493
623.66	10.414
623.99	11.053
624.32	10.714
624.65	11.185
624.99	11.501
625.32	10.928
625.65	11.966
625.98	11.502
626.31	11.419
626.64	11.715
626.97	11.729
627.30	13.617
627.63	9.499
627.96	12.446
628.29	11.305
628.62	11.939
628.95	12.795
629.28	12.218
629.61	10.991
629.94	12.949
630.26	11.829
630.59	13.266
630.92	10.911
631.25	12.198
631.58	11.111
631.91	11.596
632.24	13.111
632.57	11.667
632.90	12.184
633.23	11.799
633.56	11.696
633.89	12.854
634.22	11.806
634.55	13.101
634.88	12.696
635.20	11.735
635.53	12.977
635.86	12.594
636.19	12.454
636.52	11.828
636.85	11.793
637.18	12.250
637.51	13.135
637.83	14.381
638.16	12.895
638.49	12.690
638.82	12.484
639.15	12.711
639.48	12.322
639.81	13.831
640.13	13.108
640.46	12.821
640.79	13.165
641.12	12.553
641.45	12.912
641.77	13.174
642.10	12.236
642.43	11.381
642.76	12.756
643.09	12.540
643.41	15.238
643.74	13.514
644.07	14.353
644.40	12.156
644.73	14.521
645.05	11.853
645.38	13.079
645.71	14.089
646.04	13.613
646.36	12.740
646.69	12.630
647.02	14.621
647.35	13.899
