SpectraSuite Data File
++++++++++++++++++++++++++++++++++++
Date: Sat May 16 11:36:34 PDT 2015
User: schluterlab
Dark Spectrum Present: Yes
Reference Spectrum Present: Yes
Number of Sampled Component Spectra: 1
Spectrometers: USB2E3373
Integration Time (usec): 3000 (USB2E3373)
Spectra Averaged: 3 (USB2E3373)
Boxcar Smoothing: 0 (USB2E3373)
Correct for Electrical Dark: No (USB2E3373)
Strobe/Lamp Enabled: No (USB2E3373)
Correct for Detector Non-linearity: No (USB2E3373)
Correct for Stray Light: No (USB2E3373)
Number of Pixels in Processed Spectrum: 2048
>>>>>Begin Processed Spectral Data<<<<<
178.53	0.000
178.91	113.333
179.29	666.667
179.67	-1200.000
180.04	-46.154
180.42	1000.000
180.80	375.000
181.18	400.000
181.56	-162.500
181.94	1400.000
182.31	275.000
182.69	-15.385
183.07	-533.333
183.45	1650.000
183.83	533.333
184.20	-142.857
184.58	-225.000
184.96	-175.000
185.34	156.250
185.72	-375.000
186.09	100.000
186.47	-275.000
186.85	-212.500
187.23	-25.000
187.61	-275.000
187.98	-237.500
188.36	-162.500
188.74	-100.000
189.12	2000.000
189.49	228.571
189.87	-75.000
190.25	575.000
190.63	-14.286
191.00	-155.556
191.38	280.000
191.76	-100.000
192.14	560.000
192.51	-340.000
192.89	-600.000
193.27	0.000
193.65	-122.222
194.02	-342.857
194.40	633.333
194.78	-170.000
195.15	-1300.000
195.53	-127.273
195.91	-400.000
196.29	300.000
196.66	-666.667
197.04	3000.000
197.42	-300.000
197.79	13.333
198.17	-500.000
198.55	-950.000
198.92	-1500.000
199.30	225.000
199.68	-1000.000
200.05	-100.000
200.43	-255.556
200.81	-1700.000
201.18	-83.333
201.56	200.000
201.94	-73.333
202.31	-13.636
202.69	-60.000
203.07	-140.000
203.44	466.667
203.82	-200.000
204.19	-475.000
204.57	-275.000
204.95	-2300.000
205.32	18.750
205.70	1100.000
206.08	-2200.000
206.45	-50.000
206.83	-750.000
207.20	-200.000
207.58	-666.667
207.96	-433.333
208.33	-200.000
208.71	-200.000
209.08	210.000
209.46	-242.857
209.84	1050.000
210.21	0.000
210.59	-10.000
210.96	500.000
211.34	-366.667
211.71	-400.000
212.09	400.000
212.46	1400.000
212.84	-2300.000
213.22	500.000
213.59	233.333
213.97	-100.000
214.34	160.000
214.72	-100.000
215.09	-333.333
215.47	-200.000
215.84	-150.000
216.22	-190.000
216.59	-13.333
216.97	-450.000
217.34	550.000
217.72	-100.000
218.09	-283.333
218.47	-228.571
218.84	242.857
219.22	-114.286
219.59	0.000
219.97	271.429
220.34	525.000
220.72	200.000
221.09	-184.615
221.47	0.000
221.84	333.333
222.22	-1050.000
222.59	900.000
222.97	-225.000
223.34	-800.000
223.72	-633.333
224.09	-28.571
224.46	-150.000
224.84	-64.286
225.21	-257.143
225.59	-109.091
225.96	-287.500
226.34	14.286
226.71	-200.000
227.08	-40.000
227.46	2600.000
227.83	-185.714
228.21	-287.500
228.58	650.000
228.95	-56.250
229.33	-2000.000
229.70	-280.000
230.08	-1300.000
230.45	-33.333
230.82	-100.000
231.20	-2400.000
231.57	-850.000
231.95	700.000
232.32	-19.048
232.69	-155.556
233.07	-200.000
233.44	-1150.000
233.81	-133.333
234.19	-88.889
234.56	-62.500
234.93	12.500
235.31	-328.571
235.68	-142.857
236.05	-100.000
236.43	-63.636
236.80	-32.258
237.17	-45.833
237.55	-42.857
237.92	-86.364
238.29	-51.429
238.67	-11.765
239.04	-13.889
239.41	12.903
239.79	-48.718
240.16	-7.143
240.53	-16.364
240.91	-23.077
241.28	9.091
241.65	1.538
242.02	-9.836
242.40	-24.590
242.77	-12.121
243.14	-33.898
243.51	-21.429
243.89	-3.797
244.26	-14.607
244.63	-8.421
245.00	5.263
245.38	1.695
245.75	-0.885
246.12	-4.000
246.49	-0.787
246.87	-7.317
247.24	-16.102
247.61	-9.322
247.98	0.704
248.36	-9.790
248.73	-0.633
249.10	-2.548
249.47	1.754
249.84	3.409
250.22	-10.119
250.59	2.825
250.96	4.188
251.33	0.474
251.70	1.442
252.08	4.265
252.45	0.000
252.82	-0.476
253.19	2.128
253.56	1.613
253.94	3.376
254.31	3.004
254.68	0.813
255.05	0.000
255.42	3.175
255.79	-0.717
256.16	4.314
256.54	5.147
256.91	-2.652
257.28	-2.564
257.65	0.355
258.02	6.289
258.39	5.017
258.76	2.027
259.14	-0.617
259.51	2.623
259.88	1.524
260.25	6.832
260.62	-2.894
260.99	4.154
261.36	4.878
261.73	4.046
262.10	6.111
262.47	1.994
262.85	4.286
263.22	7.163
263.59	0.308
263.96	3.768
264.33	2.168
264.70	4.696
265.07	2.747
265.44	3.876
265.81	2.067
266.18	1.519
266.55	3.676
266.92	4.030
267.29	4.843
267.66	1.481
268.03	4.106
268.40	6.573
268.77	3.614
269.14	1.856
269.51	6.667
269.88	1.606
270.25	1.865
270.62	0.686
270.99	4.054
271.36	3.963
271.73	3.139
272.10	4.348
272.47	2.000
272.84	6.000
273.21	1.606
273.58	3.516
273.95	1.754
274.32	4.751
274.69	6.565
275.06	4.703
275.43	1.786
275.80	6.721
276.17	4.812
276.54	6.721
276.91	4.115
277.28	3.854
277.65	4.132
278.02	5.637
278.39	6.090
278.76	0.996
279.13	6.126
279.50	2.982
279.87	3.383
280.23	4.251
280.60	4.374
280.97	4.078
281.34	2.321
281.71	3.077
282.08	2.419
282.45	-0.611
282.82	4.651
283.19	4.545
283.56	6.960
283.92	5.477
284.29	1.487
284.66	6.295
285.03	6.774
285.40	4.244
285.77	5.789
286.14	4.513
286.51	5.151
286.87	2.904
287.24	4.778
287.61	5.785
287.98	3.293
288.35	2.810
288.72	5.942
289.08	5.593
289.45	7.407
289.82	2.422
290.19	4.762
290.56	2.975
290.93	4.610
291.29	4.052
291.66	3.543
292.03	5.338
292.40	5.572
292.77	4.814
293.13	6.667
293.50	5.498
293.87	4.755
294.24	6.184
294.60	3.636
294.97	5.766
295.34	5.333
295.71	4.167
296.08	3.533
296.44	4.721
296.81	5.983
297.18	4.789
297.55	7.203
297.91	5.997
298.28	5.890
298.65	4.324
299.02	6.283
299.38	4.144
299.75	5.842
300.12	6.923
300.48	6.138
300.85	4.849
301.22	7.115
301.59	5.592
301.95	6.675
302.32	4.694
302.69	6.242
303.05	5.495
303.42	5.875
303.79	5.263
304.15	6.517
304.52	6.884
304.89	5.667
305.25	5.861
305.62	7.756
305.99	7.892
306.35	4.994
306.72	5.581
307.09	7.151
307.45	6.810
307.82	6.145
308.19	6.264
308.55	5.773
308.92	5.693
309.29	5.730
309.65	6.363
310.02	6.479
310.38	5.838
310.75	7.275
311.12	7.851
311.48	6.994
311.85	7.209
312.22	7.003
312.58	8.138
312.95	6.626
313.31	7.992
313.68	7.739
314.05	7.814
314.41	6.539
314.78	6.194
315.14	8.193
315.51	6.991
315.87	8.132
316.24	7.775
316.61	8.253
316.97	9.353
317.34	8.285
317.70	7.050
318.07	9.328
318.43	7.491
318.80	9.296
319.16	6.285
319.53	8.553
319.89	8.278
320.26	8.039
320.62	7.308
320.99	8.557
321.35	7.783
321.72	7.165
322.08	7.616
322.45	7.624
322.81	9.414
323.18	7.781
323.54	8.688
323.91	8.434
324.27	8.365
324.64	8.958
325.00	8.813
325.37	8.869
325.73	10.061
326.10	8.503
326.46	9.107
326.83	8.255
327.19	10.008
327.56	9.455
327.92	10.195
328.29	9.524
328.65	8.727
329.01	10.071
329.38	8.475
329.74	8.883
330.11	9.338
330.47	8.992
330.84	11.091
331.20	9.206
331.56	9.298
331.93	10.213
332.29	9.772
332.66	10.009
333.02	8.959
333.38	10.215
333.75	9.795
334.11	9.333
334.48	9.003
334.84	10.849
335.20	9.840
335.57	9.838
335.93	9.848
336.29	9.035
336.66	9.075
337.02	9.730
337.38	8.734
337.75	9.482
338.11	10.197
338.47	9.609
338.84	8.893
339.20	10.105
339.56	10.250
339.93	9.612
340.29	10.363
340.65	9.441
341.02	9.949
341.38	10.362
341.74	9.992
342.11	9.130
342.47	9.356
342.83	8.816
343.20	9.137
343.56	8.735
343.92	9.850
344.28	10.934
344.65	9.983
345.01	8.067
345.37	9.136
345.73	8.265
346.10	7.441
346.46	8.855
346.82	9.944
347.19	8.217
347.55	9.551
347.91	9.685
348.27	8.035
348.63	9.370
349.00	10.740
349.36	8.821
349.72	9.634
350.08	9.543
350.45	8.589
350.81	8.997
351.17	8.923
351.53	8.990
351.89	8.973
352.26	8.915
352.62	10.292
352.98	9.494
353.34	9.273
353.70	9.112
354.07	9.520
354.43	9.565
354.79	8.796
355.15	9.105
355.51	8.359
355.87	8.379
356.24	9.055
356.60	9.670
356.96	9.777
357.32	8.709
357.68	8.659
358.04	8.699
358.40	8.894
358.77	9.428
359.13	8.569
359.49	9.599
359.85	7.927
360.21	9.513
360.57	9.864
360.93	9.481
361.29	9.492
361.66	7.927
362.02	8.950
362.38	9.391
362.74	8.645
363.10	8.178
363.46	9.615
363.82	9.184
364.18	9.986
364.54	10.079
364.90	9.085
365.26	8.845
365.62	8.767
365.98	11.166
366.35	9.225
366.71	8.809
367.07	9.386
367.43	10.021
367.79	9.691
368.15	8.962
368.51	9.371
368.87	9.684
369.23	10.105
369.59	9.375
369.95	10.430
370.31	10.127
370.67	8.604
371.03	9.475
371.39	9.830
371.75	9.871
372.11	10.115
372.47	9.834
372.83	10.501
373.19	8.786
373.55	10.274
373.91	9.744
374.27	9.719
374.63	9.662
374.99	10.431
375.35	8.681
375.71	10.466
376.07	9.993
376.42	9.205
376.78	9.869
377.14	10.237
377.50	10.187
377.86	9.948
378.22	9.548
378.58	9.512
378.94	10.604
379.30	10.116
379.66	10.383
380.02	10.101
380.38	9.607
380.74	10.610
381.09	10.721
381.45	10.680
381.81	9.679
382.17	10.401
382.53	9.970
382.89	10.706
383.25	10.235
383.61	11.026
383.97	11.023
384.32	9.762
384.68	10.157
385.04	10.326
385.40	10.347
385.76	11.037
386.12	10.868
386.48	11.015
386.83	10.982
387.19	11.476
387.55	11.387
387.91	11.381
388.27	10.012
388.62	10.697
388.98	10.418
389.34	10.526
389.70	11.145
390.06	10.938
390.42	11.090
390.77	10.599
391.13	11.429
391.49	11.167
391.85	10.973
392.20	10.680
392.56	10.385
392.92	11.067
393.28	11.596
393.64	11.786
393.99	11.385
394.35	10.523
394.71	11.489
395.07	11.299
395.42	10.608
395.78	10.999
396.14	11.464
396.50	11.376
396.85	10.857
397.21	11.179
397.57	11.064
397.92	11.066
398.28	11.778
398.64	10.946
399.00	11.910
399.35	10.485
399.71	11.150
400.07	12.239
400.42	11.800
400.78	11.389
401.14	11.437
401.49	11.439
401.85	10.982
402.21	10.906
402.57	11.954
402.92	11.705
403.28	12.010
403.63	10.905
403.99	11.436
404.35	11.534
404.70	12.054
405.06	11.419
405.42	10.640
405.77	11.029
406.13	10.960
406.49	11.084
406.84	11.278
407.20	12.073
407.55	11.716
407.91	10.881
408.27	12.010
408.62	12.147
408.98	11.947
409.34	11.395
409.69	11.027
410.05	11.704
410.40	11.465
410.76	11.678
411.11	11.035
411.47	11.317
411.83	11.369
412.18	11.262
412.54	11.592
412.89	11.543
413.25	10.862
413.60	10.510
413.96	11.152
414.31	11.070
414.67	11.238
415.03	12.160
415.38	12.036
415.74	12.049
416.09	11.829
416.45	11.905
416.80	12.614
417.16	11.296
417.51	12.475
417.87	11.974
418.22	11.252
418.58	12.067
418.93	11.772
419.29	11.920
419.64	11.055
420.00	11.968
420.35	12.241
420.71	11.525
421.06	11.716
421.42	10.714
421.77	11.725
422.12	11.696
422.48	11.919
422.83	11.959
423.19	11.971
423.54	11.700
423.90	11.972
424.25	11.878
424.61	12.002
424.96	12.580
425.31	11.683
425.67	11.748
426.02	11.015
426.38	11.797
426.73	11.806
427.09	11.765
427.44	12.216
427.79	12.093
428.15	11.849
428.50	12.141
428.85	12.410
429.21	12.009
429.56	12.656
429.92	12.124
430.27	12.213
430.62	13.218
430.98	12.337
431.33	12.006
431.68	12.279
432.04	12.031
432.39	11.909
432.74	12.170
433.10	12.099
433.45	11.514
433.80	12.542
434.16	12.090
434.51	12.493
434.86	12.712
435.22	12.305
435.57	12.607
435.92	12.603
436.28	12.166
436.63	11.984
436.98	12.085
437.34	12.109
437.69	11.902
438.04	11.741
438.39	12.876
438.75	12.631
439.10	12.160
439.45	11.527
439.81	13.554
440.16	12.777
440.51	13.118
440.86	12.088
441.22	11.940
441.57	12.053
441.92	12.685
442.27	12.067
442.63	12.285
442.98	11.456
443.33	11.971
443.68	12.350
444.03	12.279
444.39	12.482
444.74	12.720
445.09	12.061
445.44	11.761
445.79	12.443
446.15	12.760
446.50	11.649
446.85	12.314
447.20	12.564
447.55	12.541
447.91	12.970
448.26	11.844
448.61	11.828
448.96	12.941
449.31	12.345
449.66	12.536
450.02	12.465
450.37	12.290
450.72	12.260
451.07	12.696
451.42	11.276
451.77	12.867
452.12	12.694
452.47	12.846
452.83	12.522
453.18	12.966
453.53	12.687
453.88	12.679
454.23	12.213
454.58	12.989
454.93	12.720
455.28	12.811
455.63	13.391
455.98	13.554
456.34	11.881
456.69	13.071
457.04	13.276
457.39	13.218
457.74	12.227
458.09	13.631
458.44	13.395
458.79	12.220
459.14	12.379
459.49	13.558
459.84	12.479
460.19	13.246
460.54	12.765
460.89	12.332
461.24	12.508
461.59	13.306
461.94	12.858
462.29	13.699
462.64	12.582
462.99	13.588
463.34	13.032
463.69	12.214
464.04	12.595
464.39	12.186
464.74	13.239
465.09	12.447
465.44	12.183
465.79	13.536
466.14	13.176
466.49	13.184
466.84	13.085
467.19	12.718
467.54	11.835
467.89	13.872
468.24	13.242
468.59	12.742
468.94	12.990
469.29	12.021
469.64	13.410
469.99	13.774
470.34	13.761
470.68	13.372
471.03	13.765
471.38	11.736
471.73	13.007
472.08	12.918
472.43	11.840
472.78	13.400
473.13	12.127
473.48	12.699
473.83	13.027
474.17	12.994
474.52	13.555
474.87	12.937
475.22	12.802
475.57	13.000
475.92	13.445
476.27	13.600
476.61	13.070
476.96	13.862
477.31	13.132
477.66	13.835
478.01	13.398
478.36	13.515
478.70	13.454
479.05	12.980
479.40	13.523
479.75	13.609
480.10	12.698
480.45	12.573
480.79	13.524
481.14	13.347
481.49	14.085
481.84	13.777
482.19	13.659
482.53	13.116
482.88	13.052
483.23	13.005
483.58	13.691
483.92	13.569
484.27	12.583
484.62	13.909
484.97	13.172
485.31	12.960
485.66	12.586
486.01	12.629
486.36	12.966
486.70	13.291
487.05	13.111
487.40	13.221
487.75	13.139
488.09	12.878
488.44	13.126
488.79	13.265
489.13	13.123
489.48	13.091
489.83	13.100
490.17	13.278
490.52	13.315
490.87	13.072
491.22	13.218
491.56	13.241
491.91	13.597
492.26	13.302
492.60	13.463
492.95	13.422
493.30	13.816
493.64	12.694
493.99	13.384
494.34	13.857
494.68	13.717
495.03	12.620
495.37	13.078
495.72	13.851
496.07	13.890
496.41	13.756
496.76	13.242
497.11	13.895
497.45	14.033
497.80	13.207
498.14	13.703
498.49	13.360
498.84	13.592
499.18	13.743
499.53	13.590
499.87	13.224
500.22	13.824
500.56	14.007
500.91	13.350
501.26	13.974
501.60	13.240
501.95	14.300
502.29	13.462
502.64	14.333
502.98	13.704
503.33	13.064
503.67	13.410
504.02	13.472
504.36	14.216
504.71	13.576
505.06	13.979
505.40	14.371
505.75	13.872
506.09	14.105
506.44	14.185
506.78	13.798
507.13	13.234
507.47	13.354
507.82	13.629
508.16	13.420
508.51	13.550
508.85	14.130
509.19	13.396
509.54	13.372
509.88	13.457
510.23	13.574
510.57	14.656
510.92	14.339
511.26	14.035
511.61	13.661
511.95	14.062
512.30	14.184
512.64	12.632
512.98	15.072
513.33	13.729
513.67	14.573
514.02	14.038
514.36	14.681
514.70	14.827
515.05	13.951
515.39	14.072
515.74	14.718
516.08	14.063
516.42	14.221
516.77	15.540
517.11	14.760
517.46	14.833
517.80	13.658
518.14	14.432
518.49	13.927
518.83	14.184
519.17	14.565
519.52	14.575
519.86	15.054
520.20	14.976
520.55	15.015
520.89	13.838
521.23	15.263
521.58	14.483
521.92	14.693
522.26	14.603
522.61	15.082
522.95	14.422
523.29	15.110
523.64	14.179
523.98	14.768
524.32	14.708
524.66	14.783
525.01	14.579
525.35	14.755
525.69	14.834
526.04	14.817
526.38	14.449
526.72	14.623
527.06	14.583
527.41	14.719
527.75	14.917
528.09	15.553
528.43	14.557
528.78	14.322
529.12	16.389
529.46	14.626
529.80	14.138
530.15	16.162
530.49	15.395
530.83	15.783
531.17	14.074
531.51	14.468
531.86	14.944
532.20	14.777
532.54	15.441
532.88	15.152
533.22	14.973
533.57	15.992
533.91	14.357
534.25	15.211
534.59	15.053
534.93	14.561
535.27	15.293
535.62	15.409
535.96	15.579
536.30	14.398
536.64	15.272
536.98	15.254
537.32	14.651
537.66	14.325
538.01	14.983
538.35	16.351
538.69	13.904
539.03	14.895
539.37	14.438
539.71	14.676
540.05	14.668
540.39	15.859
540.73	15.204
541.07	14.686
541.42	14.180
541.76	14.286
542.10	15.530
542.44	14.657
542.78	14.858
543.12	15.614
543.46	13.767
543.80	14.314
544.14	14.305
544.48	15.617
544.82	15.223
545.16	15.292
545.50	14.670
545.84	16.064
546.18	14.840
546.52	15.292
546.86	14.103
547.20	15.260
547.54	15.083
547.88	14.665
548.22	14.548
548.56	15.030
548.90	14.960
549.24	14.996
549.58	15.173
549.92	15.548
550.26	15.607
550.60	15.220
550.94	14.161
551.28	15.049
551.62	14.549
551.96	15.195
552.30	14.634
552.64	14.849
552.98	15.837
553.32	14.214
553.66	14.564
554.00	15.068
554.34	15.235
554.68	15.936
555.02	15.051
555.36	14.666
555.69	14.828
556.03	14.737
556.37	14.936
556.71	14.889
557.05	15.152
557.39	14.922
557.73	15.317
558.07	14.544
558.41	15.108
558.75	15.285
559.08	14.708
559.42	14.931
559.76	15.261
560.10	15.213
560.44	15.462
560.78	14.196
561.12	14.631
561.45	15.274
561.79	14.774
562.13	14.937
562.47	15.056
562.81	14.003
563.15	14.836
563.48	15.411
563.82	14.334
564.16	14.402
564.50	15.054
564.84	15.608
565.17	14.920
565.51	14.798
565.85	15.145
566.19	14.690
566.52	14.938
566.86	14.159
567.20	14.346
567.54	14.885
567.88	14.461
568.21	14.430
568.55	14.528
568.89	13.917
569.23	14.068
569.56	13.745
569.90	14.713
570.24	14.130
570.57	13.708
570.91	13.635
571.25	13.975
571.59	14.205
571.92	13.988
572.26	13.871
572.60	13.776
572.93	13.565
573.27	13.232
573.61	13.020
573.95	13.837
574.28	13.698
574.62	14.006
574.96	13.385
575.29	13.338
575.63	13.671
575.97	13.188
576.30	13.593
576.64	13.368
576.98	13.312
577.31	13.445
577.65	13.442
577.98	13.203
578.32	13.387
578.66	13.487
578.99	12.969
579.33	13.363
579.67	13.315
580.00	13.170
580.34	13.185
580.67	13.484
581.01	12.729
581.35	13.381
581.68	13.244
582.02	13.365
582.35	13.390
582.69	13.685
583.02	14.036
583.36	13.370
583.70	13.185
584.03	13.901
584.37	13.315
584.70	13.719
585.04	13.038
585.37	12.959
585.71	13.425
586.04	13.754
586.38	13.205
586.72	13.613
587.05	13.481
587.39	13.767
587.72	13.459
588.06	13.673
588.39	13.614
588.73	13.820
589.06	14.290
589.40	13.604
589.73	13.952
590.07	13.438
590.40	13.690
590.73	13.515
591.07	14.426
591.40	14.428
591.74	13.640
592.07	13.333
592.41	13.631
592.74	13.720
593.08	14.349
593.41	13.816
593.75	13.353
594.08	13.911
594.41	14.344
594.75	13.892
595.08	13.647
595.42	14.162
595.75	13.304
596.09	13.194
596.42	14.566
596.75	13.972
597.09	14.025
597.42	13.531
597.75	13.463
598.09	13.601
598.42	14.317
598.76	14.078
599.09	13.694
599.42	13.110
599.76	13.628
600.09	14.160
600.42	13.825
600.76	14.313
601.09	14.166
601.42	13.415
601.76	14.097
602.09	13.742
602.42	14.156
602.76	12.879
603.09	13.871
603.42	13.940
603.76	13.801
604.09	13.817
604.42	13.863
604.76	14.653
605.09	13.834
605.42	14.716
605.75	13.454
606.09	13.782
606.42	13.448
606.75	14.126
607.09	14.204
607.42	13.908
607.75	13.819
608.08	14.550
608.42	14.428
608.75	13.598
609.08	14.223
609.41	14.101
609.75	14.237
610.08	14.118
610.41	14.120
610.74	14.410
611.07	14.757
611.41	13.717
611.74	14.602
612.07	15.306
612.40	14.339
612.73	14.647
613.07	14.695
613.40	15.380
613.73	14.496
614.06	13.564
614.39	14.882
614.72	13.073
615.06	14.239
615.39	13.945
615.72	14.883
616.05	13.749
616.38	14.974
616.71	14.715
617.05	15.742
617.38	15.542
617.71	14.066
618.04	14.783
618.37	14.403
618.70	15.254
619.03	14.421
619.36	15.011
619.69	16.009
620.03	14.945
620.36	13.854
620.69	16.009
621.02	14.764
621.35	15.806
621.68	15.164
622.01	15.453
622.34	15.450
622.67	15.312
623.00	15.379
623.33	16.418
623.66	13.885
623.99	16.466
624.32	14.286
624.65	14.864
624.99	14.488
625.32	14.671
625.65	14.685
625.98	14.476
626.31	14.845
626.64	15.565
626.97	15.839
627.30	14.809
627.63	14.853
627.96	16.623
628.29	15.625
628.62	14.327
628.95	16.240
629.28	16.353
629.61	13.739
629.94	15.595
630.26	16.799
630.59	16.382
630.92	16.316
631.25	16.230
631.58	15.661
631.91	13.723
632.24	16.111
632.57	16.222
632.90	15.862
633.23	16.472
633.56	15.439
633.89	15.920
634.22	16.057
634.55	16.106
634.88	17.170
635.20	16.105
635.53	16.794
635.86	15.995
636.19	16.484
636.52	15.771
636.85	16.125
637.18	14.750
637.51	16.481
637.83	14.780
