SpectraSuite Data File
++++++++++++++++++++++++++++++++++++
Date: Sat May 16 11:15:10 PDT 2015
User: schluterlab
Dark Spectrum Present: Yes
Reference Spectrum Present: Yes
Number of Sampled Component Spectra: 1
Spectrometers: USB2E3373
Integration Time (usec): 3000 (USB2E3373)
Spectra Averaged: 3 (USB2E3373)
Boxcar Smoothing: 0 (USB2E3373)
Correct for Electrical Dark: No (USB2E3373)
Strobe/Lamp Enabled: No (USB2E3373)
Correct for Detector Non-linearity: No (USB2E3373)
Correct for Stray Light: No (USB2E3373)
Number of Pixels in Processed Spectrum: 2048
>>>>>Begin Processed Spectral Data<<<<<
178.53	0.000
178.91	86.667
179.29	166.667
179.67	-400.000
180.04	-30.769
180.42	200.000
180.80	300.000
181.18	-50.000
181.56	-100.000
181.94	300.000
182.31	375.000
182.69	123.077
183.07	-500.000
183.45	1050.000
183.83	66.667
184.20	-200.000
184.58	-225.000
184.96	-350.000
185.34	93.750
185.72	-475.000
186.09	50.000
186.47	-87.500
186.85	12.500
187.23	62.500
187.61	-175.000
187.98	-225.000
188.36	0.000
188.74	-62.500
189.12	500.000
189.49	328.571
189.87	-8.333
190.25	350.000
190.63	-35.714
191.00	-66.667
191.38	60.000
191.76	26.667
192.14	440.000
192.51	-100.000
192.89	-333.333
193.27	0.000
193.65	-22.222
194.02	-128.571
194.40	166.667
194.78	-120.000
195.15	-800.000
195.53	-18.182
195.91	-300.000
196.29	280.000
196.66	-366.667
197.04	500.000
197.42	-25.000
197.79	20.000
198.17	-33.333
198.55	-200.000
198.92	-1500.000
199.30	200.000
199.68	-400.000
200.05	-33.333
200.43	-122.222
200.81	-1600.000
201.18	-83.333
201.56	-14.286
201.94	0.000
202.31	45.455
202.69	-10.000
203.07	40.000
203.44	233.333
203.82	-150.000
204.19	-375.000
204.57	-100.000
204.95	-900.000
205.32	-25.000
205.70	1200.000
206.08	-2400.000
206.45	50.000
206.83	-450.000
207.20	250.000
207.58	-833.333
207.96	-166.667
208.33	-125.000
208.71	-22.222
209.08	170.000
209.46	71.429
209.84	650.000
210.21	0.000
210.59	20.000
210.96	300.000
211.34	-150.000
211.71	-366.667
212.09	25.000
212.46	700.000
212.84	-2600.000
213.22	533.333
213.59	83.333
213.97	-22.222
214.34	130.000
214.72	-80.000
215.09	-33.333
215.47	66.667
215.84	-30.000
216.22	-40.000
216.59	-93.333
216.97	-250.000
217.34	300.000
217.72	-100.000
218.09	50.000
218.47	-71.429
218.84	114.286
219.22	-85.714
219.59	0.000
219.97	128.571
220.34	275.000
220.72	212.500
221.09	7.692
221.47	0.000
221.84	300.000
222.22	-500.000
222.59	300.000
222.97	-137.500
223.34	-100.000
223.72	-333.333
224.09	7.143
224.46	-250.000
224.84	35.714
225.21	-100.000
225.59	109.091
225.96	-87.500
226.34	-57.143
226.71	-200.000
227.08	-20.000
227.46	2400.000
227.83	-28.571
228.21	-112.500
228.58	200.000
228.95	43.750
229.33	-1100.000
229.70	-180.000
230.08	-550.000
230.45	16.667
230.82	-33.333
231.20	-1000.000
231.57	-450.000
231.95	-300.000
232.32	52.381
232.69	-55.556
233.07	-142.857
233.44	-250.000
233.81	-26.667
234.19	-111.111
234.56	-62.500
234.93	71.875
235.31	-28.571
235.68	-78.571
236.05	0.000
236.43	-27.273
236.80	-32.258
237.17	-25.000
237.55	-80.952
237.92	-77.273
238.29	-25.714
238.67	17.647
239.04	-19.444
239.41	-25.806
239.79	-33.333
240.16	-35.714
240.53	-3.636
240.91	-10.256
241.28	10.909
241.65	9.231
242.02	-13.115
242.40	-16.393
242.77	-16.667
243.14	-33.898
243.51	-10.000
243.89	-5.063
244.26	-2.247
244.63	-6.316
245.00	-2.105
245.38	-4.237
245.75	7.080
246.12	4.000
246.49	-3.937
246.87	-4.065
247.24	-10.169
247.61	-5.932
247.98	-7.746
248.36	-4.895
248.73	1.266
249.10	-4.459
249.47	-4.678
249.84	1.136
250.22	-6.548
250.59	-2.825
250.96	-1.047
251.33	2.370
251.70	1.442
252.08	2.370
252.45	-4.739
252.82	0.952
253.19	0.000
253.56	-1.210
253.94	-2.532
254.31	-0.858
254.68	-2.033
255.05	-4.032
255.42	3.175
255.79	-1.792
256.16	0.784
256.54	-4.779
256.91	-1.894
257.28	-5.128
257.65	-2.837
258.02	1.258
258.39	-1.338
258.76	-1.014
259.14	-1.852
259.51	0.656
259.88	-0.305
260.25	0.000
260.62	-2.894
260.99	-2.374
261.36	0.305
261.73	1.734
262.10	2.222
262.47	-1.994
262.85	2.000
263.22	-1.433
263.59	-4.308
263.96	-0.580
264.33	1.897
264.70	0.276
265.07	-2.473
265.44	0.775
265.81	-3.359
266.18	-2.532
266.55	-0.735
266.92	1.259
267.29	-3.148
267.66	-0.494
268.03	1.932
268.40	0.235
268.77	0.241
269.14	-1.624
269.51	0.230
269.88	-2.064
270.25	-1.865
270.62	-1.602
270.99	1.351
271.36	-0.699
271.73	-1.345
272.10	-1.144
272.47	-0.444
272.84	0.889
273.21	1.376
273.58	-1.978
273.95	-1.096
274.32	-2.489
274.69	1.532
275.06	0.818
275.43	-0.670
275.80	2.648
276.17	-0.209
276.54	0.611
276.91	2.058
277.28	-1.217
277.65	-0.413
278.02	-1.461
278.39	0.589
278.76	0.398
279.13	1.383
279.50	0.994
279.87	-1.480
280.23	1.417
280.60	-2.187
280.97	-0.971
281.34	-0.774
281.71	0.192
282.08	-0.403
282.45	-4.073
282.82	-2.132
283.19	0.909
283.56	3.297
283.92	-1.060
284.29	-1.115
284.66	0.360
285.03	2.852
285.40	1.292
285.77	0.877
286.14	-0.722
286.51	-1.243
286.87	0.544
287.24	2.048
287.61	-0.496
287.98	-1.213
288.35	-0.165
288.72	-1.358
289.08	-2.203
289.45	1.515
289.82	-1.038
290.19	1.149
290.56	-2.149
290.93	-2.544
291.29	-2.107
291.66	-0.805
292.03	0.942
292.40	1.807
292.77	-0.155
293.13	0.650
293.50	-0.149
293.87	0.920
294.24	1.961
294.60	-2.273
294.97	0.910
295.34	-0.741
295.71	0.000
296.08	-1.075
296.44	-1.574
296.81	-0.427
297.18	-1.831
297.55	-0.282
297.91	0.976
298.28	-1.096
298.65	0.558
299.02	1.070
299.38	-1.337
299.75	-0.408
300.12	0.385
300.48	1.151
300.85	-0.524
301.22	0.259
301.59	-0.650
301.95	2.015
302.32	-1.304
302.69	0.122
303.05	0.366
303.42	-0.750
303.79	-0.359
304.15	-0.829
304.52	1.167
304.89	1.417
305.25	-0.488
305.62	1.058
305.99	2.002
306.35	1.221
306.72	0.569
307.09	1.589
307.45	0.568
307.82	1.229
308.19	0.895
308.55	0.436
308.92	-1.719
309.29	-0.108
309.65	0.424
310.02	-0.324
310.38	-0.757
310.75	1.947
311.12	2.169
311.48	0.000
311.85	1.854
312.22	0.927
312.58	1.424
312.95	2.446
313.31	0.699
313.68	0.905
314.05	2.176
314.41	1.207
314.78	0.899
315.14	2.863
315.51	1.013
315.87	2.323
316.24	1.944
316.61	3.071
316.97	3.980
317.34	2.119
317.70	2.319
318.07	2.985
318.43	2.715
318.80	3.474
319.16	2.533
319.53	2.726
319.89	1.317
320.26	3.235
320.62	2.981
320.99	4.975
321.35	3.448
321.72	4.094
322.08	4.550
322.45	4.455
322.81	3.939
323.18	4.515
323.54	5.268
323.91	4.727
324.27	4.848
324.64	6.216
325.00	5.236
325.37	5.611
325.73	7.874
326.10	5.492
326.46	7.093
326.83	6.383
327.19	7.423
327.56	6.899
327.92	6.882
328.29	7.013
328.65	6.455
329.01	8.569
329.38	7.493
329.74	9.066
330.11	8.250
330.47	7.175
330.84	8.799
331.20	7.671
331.56	7.475
331.93	8.259
332.29	9.406
332.66	8.780
333.02	7.873
333.38	8.781
333.75	8.638
334.11	9.067
334.48	6.708
334.84	9.274
335.20	8.865
335.57	8.755
335.93	10.474
336.29	9.035
336.66	8.987
337.02	10.360
337.38	9.537
337.75	9.745
338.11	9.571
338.47	9.075
338.84	11.071
339.20	9.754
339.56	9.982
339.93	9.700
340.29	9.477
340.65	9.528
341.02	10.877
341.38	10.531
341.74	9.738
342.11	9.215
342.47	9.871
342.83	8.396
343.20	9.991
343.56	8.898
343.92	10.684
344.28	10.849
344.65	9.076
345.01	9.580
345.37	9.385
345.73	8.756
346.10	10.139
346.46	10.073
346.82	9.383
347.19	9.778
347.55	8.507
347.91	9.843
348.27	9.228
348.63	10.582
349.00	10.979
349.36	9.133
349.72	11.146
350.08	10.184
350.45	8.432
350.81	10.271
351.17	9.405
351.53	9.308
351.89	9.782
352.26	9.690
352.62	10.522
352.98	10.285
353.34	10.312
353.70	10.347
354.07	10.543
354.43	10.751
354.79	10.380
355.15	9.505
355.51	10.234
355.87	10.198
356.24	8.817
356.60	11.684
356.96	10.470
357.32	10.689
357.68	10.038
358.04	11.470
358.40	9.899
358.77	10.124
359.13	11.247
359.49	10.960
359.85	9.985
360.21	10.122
360.57	11.973
360.93	11.333
361.29	10.164
361.66	9.527
362.02	9.985
362.38	10.785
362.74	10.842
363.10	10.402
363.46	11.823
363.82	9.913
364.18	11.650
364.54	12.080
364.90	10.552
365.26	10.485
365.62	11.190
365.98	11.380
366.35	10.141
366.71	10.218
367.07	10.868
367.43	11.736
367.79	11.959
368.15	10.100
368.51	11.888
368.87	12.775
369.23	11.509
369.59	11.875
369.95	12.403
370.31	11.392
370.67	11.208
371.03	11.297
371.39	11.103
371.75	11.946
372.11	11.693
372.47	11.931
372.83	10.987
373.19	11.286
373.55	12.104
373.91	11.380
374.27	11.978
374.63	12.353
374.99	11.961
375.35	11.507
375.71	12.964
376.07	11.773
376.42	11.656
376.78	12.614
377.14	11.390
377.50	12.250
377.86	12.159
378.22	12.312
378.58	12.044
378.94	11.652
379.30	12.797
379.66	12.872
380.02	12.834
380.38	12.326
380.74	12.896
381.09	13.181
381.45	12.709
381.81	12.402
382.17	12.406
382.53	12.584
382.89	12.978
383.25	13.727
383.61	12.795
383.97	13.105
384.32	12.390
384.68	13.785
385.04	12.802
385.40	13.025
385.76	13.110
386.12	13.054
386.48	13.490
386.83	13.129
387.19	13.688
387.55	12.962
387.91	12.745
388.27	13.812
388.62	13.702
388.98	13.204
389.34	13.035
389.70	13.276
390.06	13.176
390.42	13.590
390.77	13.691
391.13	14.037
391.49	13.724
391.85	13.591
392.20	13.835
392.56	13.317
392.92	13.349
393.28	13.720
393.64	14.191
393.99	13.600
394.35	12.895
394.71	13.650
395.07	14.187
395.42	13.290
395.78	13.388
396.14	15.202
396.50	14.190
396.85	14.744
397.21	12.880
397.57	14.590
397.92	14.286
398.28	13.889
398.64	14.277
399.00	14.157
399.35	13.529
399.71	14.634
400.07	14.149
400.42	14.173
400.78	13.119
401.14	13.473
401.49	13.208
401.85	13.789
402.21	14.184
402.57	14.138
402.92	13.719
403.28	15.257
403.63	14.380
403.99	14.170
404.35	14.070
404.70	13.926
405.06	14.129
405.42	14.022
405.77	14.480
406.13	13.969
406.49	14.739
406.84	12.897
407.20	14.547
407.55	13.870
407.91	13.925
408.27	15.380
408.62	14.552
408.98	14.433
409.34	13.467
409.69	14.178
410.05	14.433
410.40	14.470
410.76	14.049
411.11	13.466
411.47	14.450
411.83	14.548
412.18	13.923
412.54	14.643
412.89	14.824
413.25	13.577
413.60	13.913
413.96	13.617
414.31	14.679
414.67	14.730
415.03	14.166
415.38	14.769
415.74	14.046
416.09	13.555
416.45	14.881
416.80	13.784
417.16	13.887
417.51	14.576
417.87	14.563
418.22	14.918
418.58	14.827
418.93	14.408
419.29	14.429
419.64	14.322
420.00	14.824
420.35	14.725
420.71	14.586
421.06	14.970
421.42	14.696
421.77	15.020
422.12	14.438
422.48	14.751
422.83	14.920
423.19	14.031
423.54	14.813
423.90	14.054
424.25	15.215
424.61	14.717
424.96	14.862
425.31	14.869
425.67	14.613
426.02	14.171
426.38	15.064
426.73	15.137
427.09	14.277
427.44	15.284
427.79	14.651
428.15	15.560
428.50	15.425
428.85	15.348
429.21	14.333
429.56	15.208
429.92	15.731
430.27	15.404
430.62	15.517
430.98	15.003
431.33	15.315
431.68	15.603
432.04	15.837
432.39	16.068
432.74	15.707
433.10	15.701
433.45	15.199
433.80	15.677
434.16	15.852
434.51	15.288
434.86	16.110
435.22	15.869
435.57	15.361
435.92	16.295
436.28	16.083
436.63	15.998
436.98	15.006
437.34	16.893
437.69	15.928
438.04	15.769
438.39	15.644
438.75	15.425
439.10	16.602
439.45	15.631
439.81	16.687
440.16	16.298
440.51	16.647
440.86	16.541
441.22	15.036
441.57	16.211
441.92	16.675
442.27	16.667
442.63	16.363
442.98	15.576
443.33	16.859
443.68	16.675
444.03	16.552
444.39	16.985
444.74	16.960
445.09	16.557
445.44	16.263
445.79	15.655
446.15	16.813
446.50	15.406
446.85	15.803
447.20	16.650
447.55	17.735
447.91	16.339
448.26	16.425
448.61	17.035
448.96	17.199
449.31	16.855
449.66	16.829
450.02	16.620
450.37	16.464
450.72	16.158
451.07	17.096
451.42	16.481
451.77	16.876
452.12	16.210
452.47	17.191
452.83	16.191
453.18	17.078
453.53	16.294
453.88	17.763
454.23	16.687
454.58	16.967
454.93	17.947
455.28	15.934
455.63	16.769
455.98	16.687
456.34	17.471
456.69	17.386
457.04	17.578
457.39	16.627
457.74	16.952
458.09	16.937
458.44	18.418
458.79	17.040
459.14	17.056
459.49	17.466
459.84	17.707
460.19	17.780
460.54	17.725
460.89	17.321
461.24	17.608
461.59	18.464
461.94	17.314
462.29	18.225
462.64	17.852
462.99	18.072
463.34	16.880
463.69	16.539
464.04	16.930
464.39	17.204
464.74	17.671
465.09	16.657
465.44	16.920
465.79	17.428
466.14	17.319
466.49	16.926
466.84	17.767
467.19	17.955
467.54	17.278
467.89	18.187
468.24	17.874
468.59	17.114
468.94	17.878
469.29	17.934
469.64	17.925
469.99	18.366
470.34	17.635
470.68	18.750
471.03	17.825
471.38	17.292
471.73	17.203
472.08	17.336
472.43	17.696
472.78	17.800
473.13	16.965
473.48	17.805
473.83	17.928
474.17	18.025
474.52	18.478
474.87	18.240
475.22	17.640
475.57	16.556
475.92	17.927
476.27	17.086
476.61	17.859
476.96	17.272
477.31	17.546
477.66	17.764
478.01	19.071
478.36	17.810
478.70	17.939
479.05	17.956
479.40	17.824
479.75	18.654
480.10	18.353
480.45	17.408
480.79	17.572
481.14	18.264
481.49	18.393
481.84	18.031
482.19	17.953
482.53	18.229
482.88	17.703
483.23	17.981
483.58	18.640
483.92	17.917
484.27	17.545
484.62	17.624
484.97	17.966
485.31	18.048
485.66	17.767
486.01	18.107
486.36	18.469
486.70	18.468
487.05	17.709
487.40	18.082
487.75	17.799
488.09	17.881
488.44	18.099
488.79	18.323
489.13	18.258
489.48	18.067
489.83	18.428
490.17	18.807
490.52	18.342
490.87	18.430
491.22	18.496
491.56	18.519
491.91	17.891
492.26	18.255
492.60	17.793
492.95	18.229
493.30	17.723
493.64	18.007
493.99	18.595
494.34	18.524
494.68	18.352
495.03	18.403
495.37	17.847
495.72	18.369
496.07	18.724
496.41	18.712
496.76	18.447
497.11	18.606
497.45	19.205
497.80	17.959
498.14	18.124
498.49	18.785
498.84	18.350
499.18	18.957
499.53	18.997
499.87	18.002
500.22	18.333
500.56	18.809
500.91	18.128
501.26	19.117
501.60	19.066
501.95	19.710
502.29	18.281
502.64	18.482
502.98	18.256
503.33	18.515
503.67	18.582
504.02	19.169
504.36	19.314
504.71	19.149
505.06	17.973
505.40	19.212
505.75	18.547
506.09	19.666
506.44	18.897
506.78	19.267
507.13	18.847
507.47	19.301
507.82	18.895
508.16	19.378
508.51	18.650
508.85	19.203
509.19	18.420
509.54	18.869
509.88	19.468
510.23	19.025
510.57	19.153
510.92	18.690
511.26	18.448
511.61	18.898
511.95	19.397
512.30	19.626
512.64	18.976
512.98	19.637
513.33	19.110
513.67	18.425
514.02	18.904
514.36	19.058
514.70	19.411
515.05	19.383
515.39	19.089
515.74	19.255
516.08	19.424
516.42	19.377
516.77	19.988
517.11	19.394
517.46	19.617
517.80	19.916
518.14	18.780
518.49	20.562
518.83	19.763
519.17	20.663
519.52	19.607
519.86	19.654
520.20	19.438
520.55	19.938
520.89	18.284
521.23	19.841
521.58	18.683
521.92	19.886
522.26	19.492
522.61	18.821
522.95	18.890
523.29	20.251
523.64	19.488
523.98	19.987
524.32	19.107
524.66	18.261
525.01	19.461
525.35	19.652
525.69	19.909
526.04	20.627
526.38	19.924
526.72	18.519
527.06	20.964
527.41	19.274
527.75	18.944
528.09	20.185
528.43	20.131
528.78	20.666
529.12	19.718
529.46	19.588
529.80	19.819
530.15	20.283
530.49	19.534
530.83	20.629
531.17	20.269
531.51	19.826
531.86	20.408
532.20	19.906
532.54	20.187
532.88	20.422
533.22	20.053
533.57	20.431
533.91	19.226
534.25	19.673
534.59	18.488
534.93	19.415
535.27	20.013
535.62	20.844
535.96	19.974
536.30	20.092
536.64	20.385
536.98	20.268
537.32	19.903
537.66	20.978
538.01	20.069
538.35	20.676
538.69	20.120
539.03	20.988
539.37	19.561
539.71	20.347
540.05	20.151
540.39	20.429
540.73	20.733
541.07	20.628
541.42	19.311
541.76	18.472
542.10	20.054
542.44	19.454
542.78	20.217
543.12	20.163
543.46	19.041
543.80	19.732
544.14	19.140
544.48	20.866
544.82	19.892
545.16	19.987
545.50	19.314
545.84	20.515
546.18	20.111
546.52	20.057
546.86	20.157
547.20	20.956
547.54	19.353
547.88	20.770
548.22	19.987
548.56	20.374
548.90	20.148
549.24	20.533
549.58	20.748
549.92	21.131
550.26	20.954
550.60	20.270
550.94	18.394
551.28	20.241
551.62	20.236
551.96	21.491
552.30	20.627
552.64	20.479
552.98	20.673
553.32	20.707
553.66	21.053
554.00	20.327
554.34	19.350
554.68	20.322
555.02	21.056
555.36	19.554
555.69	19.771
556.03	20.632
556.37	20.413
556.71	20.902
557.05	21.064
557.39	19.896
557.73	21.590
558.07	20.950
558.41	20.494
558.75	19.848
559.08	18.988
559.42	20.827
559.76	20.322
560.10	20.731
560.44	21.460
560.78	20.529
561.12	20.704
561.45	20.616
561.79	20.906
562.13	20.477
562.47	20.448
562.81	20.226
563.15	20.154
563.48	20.940
563.82	20.216
564.16	19.878
564.50	20.699
564.84	20.503
565.17	21.088
565.51	20.730
565.85	20.352
566.19	21.278
566.52	20.026
566.86	21.302
567.20	21.005
567.54	22.091
567.88	20.659
568.21	20.134
568.55	21.368
568.89	20.527
569.23	21.009
569.56	20.933
569.90	21.086
570.24	20.932
570.57	20.316
570.91	20.299
571.25	20.460
571.59	20.574
571.92	20.655
572.26	21.240
572.60	20.509
572.93	20.037
573.27	20.274
573.61	20.132
573.95	20.809
574.28	20.689
574.62	20.641
574.96	20.115
575.29	20.528
575.63	20.892
575.97	20.307
576.30	20.252
576.64	20.992
576.98	20.254
577.31	20.453
577.65	20.711
577.98	20.843
578.32	20.480
578.66	20.827
578.99	20.635
579.33	20.322
579.67	20.264
580.00	20.387
580.34	21.086
580.67	20.667
581.01	20.087
581.35	20.829
581.68	20.172
582.02	20.800
582.35	20.529
582.69	20.769
583.02	20.778
583.36	21.139
583.70	20.405
584.03	20.797
584.37	20.568
584.70	20.592
585.04	20.051
585.37	19.857
585.71	20.440
586.04	20.871
586.38	20.315
586.72	20.688
587.05	20.674
587.39	21.169
587.72	20.945
588.06	20.633
588.39	20.165
588.73	20.760
589.06	20.876
589.40	20.989
589.73	20.715
590.07	20.211
590.40	20.812
590.73	21.152
591.07	20.902
591.40	20.581
591.74	20.721
592.07	20.495
592.41	20.849
592.74	21.291
593.08	20.941
593.41	21.020
593.75	20.277
594.08	20.956
594.41	21.109
594.75	21.102
595.08	20.414
595.42	20.592
595.75	20.360
596.09	21.226
596.42	21.686
596.75	20.655
597.09	21.549
597.42	20.821
597.75	21.391
598.09	20.831
598.42	21.078
598.76	20.058
599.09	21.034
599.42	20.646
599.76	21.329
600.09	21.527
600.42	21.344
600.76	21.205
601.09	20.889
601.42	21.211
601.76	21.456
602.09	21.227
602.42	20.658
602.76	21.313
603.09	20.726
603.42	21.193
603.76	21.260
604.09	20.745
604.42	20.733
604.76	21.195
605.09	20.615
605.42	21.232
605.75	21.173
606.09	21.129
606.42	21.156
606.75	20.824
607.09	21.394
607.42	20.907
607.75	20.530
608.08	20.786
608.42	21.287
608.75	20.327
609.08	20.994
609.41	20.578
609.75	21.307
610.08	21.275
610.41	21.446
610.74	21.373
611.07	21.907
611.41	21.483
611.74	20.925
612.07	21.643
612.40	20.629
612.73	21.756
613.07	20.693
613.40	21.894
613.73	20.381
614.06	20.319
614.39	21.815
614.72	20.279
615.06	21.033
615.39	20.619
615.72	21.456
616.05	20.320
616.38	21.010
616.71	20.120
617.05	20.808
617.38	20.248
617.71	21.622
618.04	20.932
618.37	21.258
618.70	22.099
619.03	21.395
619.36	21.987
619.69	22.254
620.03	20.868
620.36	21.519
620.69	20.531
621.02	21.157
621.35	20.081
621.68	21.967
622.01	20.712
622.34	21.894
622.67	20.703
623.00	21.117
623.33	22.239
623.66	20.679
623.99	20.827
624.32	21.503
624.65	21.854
624.99	21.509
625.32	21.108
625.65	22.222
625.98	20.579
626.31	22.186
626.64	21.088
626.97	21.661
627.30	22.468
627.63	19.862
627.96	20.714
628.29	21.415
628.62	21.299
628.95	21.752
629.28	20.489
629.61	21.394
629.94	22.306
630.26	21.769
630.59	22.412
630.92	21.221
631.25	23.085
631.58	21.693
631.91	20.638
632.24	21.111
632.57	20.778
632.90	21.724
633.23	21.379
633.56	20.234
633.89	20.755
634.22	21.015
634.55	22.476
634.88	20.556
635.20	21.348
635.53	22.137
635.86	20.907
636.19	22.100
636.52	21.625
