SpectraSuite Data File
++++++++++++++++++++++++++++++++++++
Date: Sat May 16 11:16:06 PDT 2015
User: schluterlab
Dark Spectrum Present: Yes
Reference Spectrum Present: Yes
Number of Sampled Component Spectra: 1
Spectrometers: USB2E3373
Integration Time (usec): 3000 (USB2E3373)
Spectra Averaged: 3 (USB2E3373)
Boxcar Smoothing: 0 (USB2E3373)
Correct for Electrical Dark: No (USB2E3373)
Strobe/Lamp Enabled: No (USB2E3373)
Correct for Detector Non-linearity: No (USB2E3373)
Correct for Stray Light: No (USB2E3373)
Number of Pixels in Processed Spectrum: 2048
>>>>>Begin Processed Spectral Data<<<<<
178.53	0.000
178.91	113.333
179.29	-33.333
179.67	200.000
180.04	-53.846
180.42	700.000
180.80	225.000
181.18	375.000
181.56	-50.000
181.94	500.000
182.31	75.000
182.69	-30.769
183.07	-533.333
183.45	1050.000
183.83	233.333
184.20	-200.000
184.58	-112.500
184.96	-275.000
185.34	75.000
185.72	-75.000
186.09	233.333
186.47	-175.000
186.85	-125.000
187.23	50.000
187.61	-125.000
187.98	-250.000
188.36	-62.500
188.74	-75.000
189.12	1300.000
189.49	242.857
189.87	-8.333
190.25	425.000
190.63	42.857
191.00	-55.556
191.38	180.000
191.76	60.000
192.14	400.000
192.51	-100.000
192.89	-266.667
193.27	0.000
193.65	-122.222
194.02	-28.571
194.40	233.333
194.78	50.000
195.15	-200.000
195.53	-63.636
195.91	-416.667
196.29	220.000
196.66	-33.333
197.04	1300.000
197.42	0.000
197.79	40.000
198.17	233.333
198.55	-300.000
198.92	-800.000
199.30	225.000
199.68	-500.000
200.05	-244.444
200.43	-66.667
200.81	-1300.000
201.18	-58.333
201.56	157.143
201.94	13.333
202.31	36.364
202.69	120.000
203.07	-50.000
203.44	533.333
203.82	-216.667
204.19	-225.000
204.57	50.000
204.95	-600.000
205.32	-18.750
205.70	200.000
206.08	-1100.000
206.45	22.222
206.83	-600.000
207.20	250.000
207.58	-433.333
207.96	-100.000
208.33	-75.000
208.71	22.222
209.08	150.000
209.46	-85.714
209.84	450.000
210.21	0.000
210.59	35.000
210.96	600.000
211.34	-150.000
211.71	-133.333
212.09	300.000
212.46	550.000
212.84	-1300.000
213.22	66.667
213.59	66.667
213.97	88.889
214.34	110.000
214.72	-10.000
215.09	-166.667
215.47	-50.000
215.84	-40.000
216.22	-80.000
216.59	6.667
216.97	-350.000
217.34	900.000
217.72	0.000
218.09	-183.333
218.47	-185.714
218.84	200.000
219.22	-28.571
219.59	0.000
219.97	14.286
220.34	100.000
220.72	137.500
221.09	-46.154
221.47	0.000
221.84	366.667
222.22	-200.000
222.59	800.000
222.97	-150.000
223.34	100.000
223.72	-233.333
224.09	35.714
224.46	-225.000
224.84	-50.000
225.21	-100.000
225.59	-54.545
225.96	-125.000
226.34	14.286
226.71	33.333
227.08	30.000
227.46	400.000
227.83	-71.429
228.21	-125.000
228.58	-150.000
228.95	-25.000
229.33	-900.000
229.70	100.000
230.08	-850.000
230.45	66.667
230.82	-66.667
231.20	-200.000
231.57	50.000
231.95	200.000
232.32	14.286
232.69	-11.111
233.07	-85.714
233.44	-550.000
233.81	-40.000
234.19	-44.444
234.56	25.000
234.93	21.875
235.31	-185.714
235.68	-78.571
236.05	-52.941
236.43	-4.545
236.80	38.710
237.17	4.167
237.55	42.857
237.92	-40.909
238.29	-8.571
238.67	35.294
239.04	19.444
239.41	-3.226
239.79	-12.821
240.16	0.000
240.53	-5.455
240.91	35.897
241.28	23.636
241.65	30.769
242.02	1.639
242.40	22.951
242.77	18.182
243.14	22.034
243.51	32.857
243.89	13.924
244.26	23.596
244.63	25.263
245.00	35.789
245.38	18.644
245.75	33.628
246.12	23.200
246.49	22.047
246.87	20.325
247.24	20.339
247.61	22.034
247.98	21.831
248.36	21.678
248.73	27.215
249.10	21.019
249.47	24.561
249.84	23.295
250.22	19.048
250.59	28.249
250.96	27.225
251.33	28.910
251.70	21.635
252.08	22.749
252.45	23.697
252.82	26.667
253.19	24.255
253.56	26.210
253.94	26.582
254.31	23.176
254.68	29.268
255.05	27.823
255.42	23.810
255.79	25.448
256.16	25.490
256.54	23.162
256.91	27.273
257.28	23.077
257.65	28.014
258.02	30.189
258.39	23.077
258.76	20.270
259.14	25.000
259.51	22.623
259.88	24.390
260.25	26.398
260.62	26.688
260.99	24.629
261.36	27.134
261.73	26.301
262.10	25.000
262.47	24.501
262.85	28.857
263.22	23.496
263.59	21.538
263.96	28.696
264.33	27.100
264.70	25.414
265.07	26.648
265.44	26.098
265.81	24.548
266.18	27.848
266.55	23.775
266.92	26.196
267.29	23.971
267.66	25.926
268.03	27.536
268.40	26.526
268.77	24.578
269.14	24.594
269.51	22.759
269.88	20.872
270.25	22.378
270.62	22.426
270.99	25.000
271.36	27.739
271.73	23.991
272.10	26.545
272.47	26.444
272.84	27.333
273.21	27.294
273.58	27.033
273.95	26.535
274.32	25.113
274.69	28.884
275.06	25.153
275.43	22.321
275.80	27.291
276.17	26.360
276.54	28.106
276.91	27.366
277.28	24.138
277.65	23.140
278.02	27.140
278.39	23.772
278.76	25.498
279.13	23.123
279.50	23.857
279.87	25.159
280.23	25.506
280.60	25.050
280.97	23.689
281.34	24.178
281.71	25.000
282.08	25.806
282.45	21.181
282.82	25.581
283.19	25.273
283.56	27.656
283.92	24.558
284.29	25.836
284.66	24.640
285.03	24.599
285.40	23.801
285.77	24.912
286.14	23.466
286.51	23.446
286.87	23.412
287.24	25.768
287.61	22.645
287.98	25.477
288.35	20.992
288.72	22.920
289.08	23.559
289.45	22.896
289.82	24.048
290.19	25.780
290.56	22.479
290.93	23.052
291.29	21.880
291.66	22.222
292.03	22.135
292.40	23.042
292.77	22.050
293.13	23.252
293.50	24.814
293.87	21.933
294.24	21.569
294.60	21.061
294.97	23.065
295.34	20.741
295.71	20.536
296.08	21.813
296.44	20.458
296.81	22.222
297.18	20.704
297.55	21.469
297.91	23.013
298.28	20.959
298.65	20.921
299.02	20.989
299.38	20.053
299.75	19.429
300.12	21.282
300.48	20.205
300.85	20.052
301.22	20.310
301.59	19.246
301.95	21.662
302.32	19.817
302.69	20.808
303.05	20.147
303.42	19.000
303.79	22.967
304.15	21.564
304.52	20.070
304.89	21.015
305.25	20.879
305.62	20.212
305.99	20.141
306.35	21.310
306.72	19.590
307.09	21.339
307.45	19.750
307.82	19.441
308.19	20.582
308.55	20.806
308.92	20.193
309.29	20.757
309.65	20.148
310.02	21.490
310.38	20.757
310.75	20.389
311.12	22.314
311.48	22.025
311.85	21.215
312.22	21.833
312.58	23.093
312.95	21.611
313.31	21.678
313.68	22.714
314.05	24.530
314.41	22.837
314.78	22.877
315.14	23.692
315.51	22.492
315.87	24.879
316.24	23.810
316.61	25.528
316.97	24.776
317.34	24.085
317.70	25.325
318.07	25.746
318.43	24.064
318.80	26.948
319.16	25.985
319.53	26.692
319.89	25.776
320.26	25.980
320.62	26.154
320.99	26.965
321.35	25.911
321.72	29.273
322.08	29.080
322.45	29.208
322.81	29.587
323.18	30.548
323.54	30.499
323.91	30.399
324.27	33.080
324.64	31.444
325.00	30.716
325.37	33.484
325.73	32.633
326.10	31.709
326.46	33.450
326.83	34.128
327.19	33.862
327.56	35.860
327.92	35.769
328.29	36.017
328.65	36.364
329.01	35.689
329.38	35.682
329.74	37.454
330.11	38.622
330.47	37.239
330.84	39.505
331.20	39.170
331.56	39.015
331.93	39.254
332.29	39.817
332.66	38.718
333.02	39.548
333.38	39.427
333.75	40.784
334.11	40.178
334.48	39.453
334.84	41.907
335.20	40.426
335.57	39.982
335.93	42.167
336.29	39.947
336.66	41.586
337.02	40.901
337.38	40.998
337.75	41.264
338.11	41.234
338.47	42.349
338.84	42.105
339.20	41.740
339.56	41.533
339.93	41.799
340.29	41.187
340.65	42.045
341.02	41.906
341.38	41.112
341.74	42.252
342.11	41.297
342.47	41.803
342.83	41.142
343.20	42.186
343.56	41.306
343.92	43.072
344.28	43.398
344.65	41.254
345.01	42.521
345.37	43.605
345.73	42.062
346.10	41.455
346.46	41.998
346.82	42.101
347.19	42.564
347.55	41.493
347.91	43.150
348.27	41.846
348.63	43.457
349.00	43.516
349.36	40.906
349.72	45.382
350.08	42.261
350.45	42.002
350.81	43.710
351.17	42.685
351.53	41.687
351.89	43.250
352.26	43.023
352.62	43.779
352.98	43.117
353.34	44.365
353.70	41.622
354.07	44.375
354.43	44.980
354.79	42.948
355.15	43.450
355.51	41.094
355.87	43.399
356.24	44.241
356.60	44.480
356.96	44.727
357.32	43.151
357.68	43.908
358.04	43.033
358.40	44.238
358.77	43.509
359.13	44.223
359.49	44.671
359.85	43.979
360.21	45.586
360.57	45.105
360.93	44.889
361.29	45.815
361.66	44.436
362.02	45.414
362.38	43.654
362.74	45.275
363.10	45.768
363.46	46.083
363.82	44.971
364.18	46.889
364.54	46.962
364.90	45.353
365.26	45.150
365.62	46.115
365.98	47.013
366.35	47.606
366.71	44.609
367.07	44.954
367.43	47.289
367.79	46.942
368.15	46.657
368.51	47.343
368.87	48.283
369.23	46.947
369.59	47.014
369.95	47.569
370.31	47.820
370.67	47.505
371.03	47.303
371.39	48.091
371.75	48.069
372.11	49.354
372.47	48.084
372.83	48.122
373.19	49.857
373.55	48.346
373.91	48.151
374.27	48.460
374.63	47.826
374.99	49.791
375.35	48.520
375.71	49.156
376.07	50.513
376.42	48.609
376.78	49.869
377.14	50.847
377.50	50.613
377.86	50.195
378.22	50.942
378.58	51.081
378.94	52.343
379.30	50.152
379.66	50.941
380.02	51.456
380.38	51.843
380.74	51.231
381.09	50.732
381.45	52.506
381.81	51.543
382.17	52.694
382.53	51.854
382.89	51.077
383.25	52.679
383.61	52.653
383.97	53.399
384.32	52.753
384.68	53.990
385.04	53.744
385.40	54.047
385.76	53.232
386.12	54.029
386.48	54.146
386.83	54.233
387.19	55.828
387.55	55.724
387.91	54.772
388.27	55.187
388.62	54.507
388.98	55.239
389.34	54.590
389.70	56.151
390.06	56.370
390.42	57.756
390.77	56.341
391.13	57.329
391.49	56.269
391.85	58.728
392.20	56.068
392.56	55.467
392.92	56.874
393.28	58.037
393.64	58.028
393.99	58.338
394.35	57.482
394.71	57.690
395.07	59.196
395.42	56.555
395.78	57.637
396.14	58.692
396.50	58.777
396.85	60.086
397.21	58.931
397.57	59.149
397.92	58.841
398.28	59.389
398.64	59.369
399.00	59.663
399.35	59.470
399.71	60.105
400.07	60.060
400.42	61.375
400.78	59.630
401.14	60.419
401.49	59.847
401.85	60.952
402.21	59.952
402.57	61.104
402.92	62.177
403.28	61.458
403.63	59.676
403.99	62.275
404.35	61.473
404.70	61.556
405.06	61.822
405.42	61.070
405.77	60.464
406.13	62.181
406.49	63.451
406.84	62.388
407.20	62.544
407.55	63.205
407.91	61.528
408.27	62.929
408.62	63.079
408.98	63.372
409.34	63.071
409.69	61.878
410.05	63.190
410.40	63.765
410.76	63.308
411.11	63.840
411.47	63.171
411.83	63.936
412.18	64.233
412.54	63.819
412.89	65.674
413.25	63.577
413.60	63.913
413.96	64.510
414.31	65.382
414.67	64.952
415.03	65.847
415.38	65.582
415.74	65.915
416.09	65.153
416.45	66.204
416.80	65.540
417.16	66.379
417.51	66.382
417.87	67.508
418.22	67.193
418.58	67.202
418.93	67.382
419.29	67.001
419.64	67.839
420.00	67.922
420.35	67.357
420.71	68.968
421.06	67.633
421.42	67.564
421.77	67.839
422.12	70.062
422.48	68.520
422.83	66.800
423.19	68.430
423.54	69.452
423.90	68.999
424.25	68.156
424.61	70.024
424.96	71.211
425.31	69.983
425.67	70.315
426.02	69.593
426.38	70.236
426.73	71.303
427.09	72.917
427.44	70.284
427.79	70.523
428.15	72.651
428.50	71.789
428.85	72.242
429.21	71.887
429.56	72.188
429.92	70.741
430.27	72.183
430.62	72.727
430.98	71.458
431.33	74.760
431.68	74.102
432.04	74.314
432.39	74.530
432.74	74.041
433.10	74.676
433.45	73.057
433.80	74.804
434.16	73.348
434.51	74.795
434.86	74.985
435.22	74.610
435.57	74.480
435.92	74.853
436.28	76.380
436.63	75.579
436.98	74.112
437.34	74.129
437.69	73.979
438.04	75.610
438.39	75.150
438.75	74.680
439.10	75.347
439.45	75.196
439.81	75.422
440.16	75.128
440.51	78.235
440.86	75.940
441.22	76.783
441.57	75.211
441.92	76.777
442.27	75.703
442.63	77.146
442.98	76.354
443.33	76.167
443.68	76.342
444.03	76.621
444.39	76.211
444.74	78.414
445.09	77.961
445.44	76.533
445.79	77.817
446.15	77.273
446.50	76.701
446.85	76.142
447.20	75.945
447.55	77.238
447.91	78.495
448.26	76.760
448.61	77.646
448.96	78.768
449.31	77.790
449.66	76.703
450.02	76.343
450.37	77.797
450.72	76.949
451.07	80.138
451.42	77.076
451.77	78.396
452.12	78.188
452.47	77.330
452.83	78.858
453.18	78.874
453.53	77.425
453.88	80.263
454.23	77.993
454.58	79.366
454.93	78.212
455.28	80.115
455.63	79.730
455.98	79.759
456.34	78.272
456.69	80.175
457.04	77.873
457.39	79.306
457.74	78.145
458.09	78.248
458.44	79.099
458.79	79.989
459.14	79.635
459.49	78.567
459.84	77.459
460.19	78.878
460.54	77.677
460.89	80.437
461.24	80.267
461.59	78.019
461.94	80.395
462.29	78.142
462.64	80.105
462.99	78.581
463.34	78.123
463.69	80.916
464.04	77.387
464.39	77.479
464.74	77.541
465.09	77.330
465.44	78.737
465.79	78.962
466.14	80.265
466.49	78.814
466.84	79.832
467.19	78.990
467.54	78.544
467.89	79.223
468.24	79.691
468.59	79.700
468.94	79.678
469.29	78.622
469.64	79.111
469.99	79.473
470.34	79.225
470.68	80.959
471.03	81.005
471.38	78.889
471.73	80.699
472.08	80.054
472.43	79.215
472.78	80.067
473.13	79.920
473.48	78.494
473.83	80.211
474.17	77.962
474.52	79.987
474.87	77.914
475.22	77.758
475.57	79.444
475.92	79.212
476.27	77.886
476.61	78.930
476.96	78.591
477.31	79.548
477.66	78.639
478.01	78.174
478.36	78.208
478.70	79.605
479.05	78.908
479.40	79.119
479.75	77.829
480.10	78.274
480.45	77.805
480.79	79.023
481.14	79.328
481.49	79.671
481.84	77.161
482.19	77.661
482.53	78.835
482.88	77.836
483.23	77.418
483.58	77.752
483.92	78.643
484.27	76.518
484.62	77.322
484.97	77.163
485.31	74.304
485.66	71.733
486.01	72.629
486.36	74.171
486.70	76.500
487.05	76.089
487.40	75.801
487.75	75.604
488.09	76.436
488.44	77.977
488.79	77.255
489.13	78.357
489.48	77.896
489.83	77.773
490.17	77.449
490.52	76.857
490.87	78.291
491.22	78.094
491.56	76.481
491.91	78.292
492.26	76.840
492.60	78.735
492.95	77.201
493.30	76.751
493.64	76.634
493.99	76.530
494.34	77.714
494.68	78.324
495.03	77.868
495.37	78.269
495.72	77.112
496.07	76.725
496.41	76.702
496.76	76.849
497.11	77.956
497.45	77.347
497.80	77.739
498.14	77.701
498.49	79.106
498.84	76.311
499.18	78.265
499.53	77.642
499.87	77.847
500.22	77.157
500.56	77.239
500.91	78.079
501.26	77.487
501.60	77.179
501.95	78.261
502.29	75.295
502.64	76.190
502.98	76.521
503.33	76.081
503.67	75.239
504.02	76.002
504.36	76.029
504.71	76.798
505.06	76.485
505.40	78.194
505.75	76.321
506.09	76.744
506.44	76.992
506.78	76.116
507.13	76.880
507.47	77.152
507.82	76.871
508.16	77.979
508.51	77.280
508.85	76.812
509.19	76.818
509.54	76.744
509.88	77.340
510.23	76.101
510.57	75.926
510.92	77.658
511.26	76.555
511.61	76.188
511.95	77.532
512.30	78.175
512.64	77.073
512.98	76.513
513.33	77.595
513.67	77.331
514.02	75.671
514.36	76.510
514.70	77.929
515.05	77.301
515.39	77.278
515.74	78.360
516.08	77.867
516.42	75.864
516.77	78.047
517.11	77.231
517.46	79.486
517.80	78.761
518.14	77.959
518.49	77.884
518.83	77.626
519.17	77.620
519.52	75.882
519.86	79.809
520.20	79.951
520.55	77.231
520.89	78.773
521.23	76.801
521.58	78.746
521.92	78.214
522.26	78.794
522.61	77.757
522.95	77.601
523.29	77.680
523.64	77.452
523.98	78.167
524.32	78.504
524.66	75.901
525.01	76.879
525.35	78.866
525.69	77.749
526.04	78.655
526.38	78.867
526.72	77.586
527.06	79.036
527.41	78.944
527.75	77.096
528.09	79.087
528.43	76.656
528.78	76.382
529.12	78.745
529.46	77.899
529.80	77.921
530.15	77.399
530.49	77.749
530.83	79.371
531.17	78.384
531.51	78.098
531.86	76.761
532.20	77.193
532.54	78.409
532.88	76.746
533.22	79.880
533.57	77.415
533.91	76.030
534.25	77.310
534.59	75.265
534.93	76.229
535.27	76.337
535.62	78.197
535.96	76.665
536.30	76.178
536.64	76.760
536.98	80.650
537.32	78.438
537.66	77.461
538.01	78.694
538.35	77.973
538.69	77.072
539.03	76.236
539.37	76.713
539.71	76.184
540.05	77.930
540.39	78.324
540.73	77.609
541.07	76.708
541.42	76.367
541.76	76.412
542.10	78.393
542.44	75.949
542.78	76.934
543.12	78.276
543.46	75.068
543.80	75.385
544.14	75.823
544.48	77.034
544.82	77.876
545.16	76.190
545.50	75.841
545.84	74.200
546.18	76.907
546.52	78.307
546.86	78.063
547.20	77.496
547.54	75.413
547.88	76.178
548.22	75.098
548.56	76.754
548.90	76.415
549.24	75.683
549.58	75.018
549.92	76.254
550.26	78.251
550.60	74.822
550.94	77.226
551.28	77.728
551.62	77.326
551.96	76.700
552.30	75.749
552.64	76.425
552.98	76.244
553.32	77.417
553.66	77.145
554.00	75.835
554.34	75.668
554.68	77.120
555.02	76.339
555.36	75.845
555.69	76.074
556.03	75.439
556.37	76.600
556.71	76.807
557.05	76.497
557.39	76.986
557.73	77.170
558.07	77.016
558.41	76.664
558.75	77.795
559.08	76.420
559.42	76.034
559.76	77.301
560.10	78.747
560.44	75.939
560.78	76.340
561.12	75.845
561.45	76.575
561.79	75.749
562.13	74.825
562.47	75.910
562.81	75.389
563.15	75.577
563.48	75.121
563.82	75.997
564.16	76.606
564.50	75.739
564.84	73.942
565.17	75.597
565.51	76.467
565.85	77.755
566.19	74.506
566.52	75.082
566.86	74.589
567.20	74.879
567.54	75.724
567.88	73.423
568.21	74.888
568.55	74.019
568.89	72.217
569.23	71.726
569.56	70.534
569.90	71.361
570.24	72.266
570.57	69.736
570.91	70.486
571.25	70.006
571.59	68.686
571.92	68.125
572.26	68.933
572.60	69.376
572.93	69.340
573.27	69.238
573.61	68.139
573.95	69.452
574.28	67.659
574.62	68.048
574.96	67.722
575.29	68.750
575.63	68.304
575.97	68.770
576.30	68.293
576.64	68.799
576.98	67.878
577.31	68.462
577.65	68.016
577.98	68.051
578.32	69.059
578.66	68.340
578.99	69.358
579.33	68.299
579.67	68.755
580.00	68.031
580.34	69.765
580.67	69.453
581.01	67.253
581.35	68.946
581.68	67.595
582.02	67.946
582.35	67.177
582.69	68.726
583.02	69.076
583.36	68.970
583.70	68.792
584.03	70.555
584.37	70.744
584.70	69.839
585.04	69.190
585.37	67.900
585.71	68.070
586.04	68.668
586.38	68.698
586.72	68.348
587.05	69.244
587.39	68.834
587.72	68.728
588.06	69.354
588.39	69.211
588.73	70.157
589.06	70.524
589.40	71.384
589.73	69.370
590.07	70.357
590.40	69.410
590.73	70.852
591.07	71.352
591.40	72.877
591.74	70.678
592.07	73.514
592.41	71.338
592.74	70.945
593.08	69.276
593.41	69.046
593.75	68.975
594.08	71.603
594.41	70.499
594.75	69.838
595.08	70.752
595.42	70.376
595.75	70.195
596.09	70.858
596.42	72.340
596.75	72.661
597.09	71.995
597.42	71.803
597.75	71.789
598.09	70.764
598.42	70.658
598.76	70.183
599.09	70.403
599.42	70.012
599.76	70.744
600.09	71.489
600.42	70.338
600.76	70.621
601.09	70.262
601.42	70.795
601.76	70.950
602.09	70.716
602.42	70.947
602.76	71.251
603.09	72.056
603.42	70.709
603.76	71.600
604.09	70.284
604.42	69.942
604.76	71.173
605.09	71.609
605.42	70.479
605.75	70.677
606.09	70.320
606.42	70.884
606.75	69.257
607.09	71.681
607.42	70.158
607.75	71.214
608.08	71.080
608.42	73.179
608.75	69.860
609.08	71.408
609.41	72.446
609.75	70.063
610.08	72.353
610.41	72.867
610.74	72.727
611.07	72.211
611.41	70.701
611.74	71.825
612.07	72.556
612.40	72.388
612.73	71.190
613.07	71.602
613.40	73.454
613.73	73.188
614.06	71.774
614.39	74.408
614.72	72.067
615.06	70.870
615.39	71.677
615.72	73.058
616.05	72.225
616.38	72.490
616.71	73.874
617.05	72.859
617.38	73.498
617.71	73.956
618.04	72.609
618.37	74.214
618.70	75.880
619.03	73.731
619.36	74.700
619.69	74.587
620.03	74.105
620.36	75.668
620.69	74.946
621.02	77.549
621.35	77.258
621.68	77.131
622.01	77.023
622.34	75.078
622.67	76.719
623.00	75.440
623.33	74.776
623.66	74.446
623.99	74.586
624.32	75.744
624.65	74.246
624.99	75.653
625.32	74.401
625.65	75.758
625.98	74.804
626.31	76.101
626.64	76.151
626.97	76.541
627.30	76.170
627.63	75.561
627.96	76.762
628.29	78.493
628.62	78.415
628.95	79.921
629.28	76.034
629.61	78.018
629.94	78.922
630.26	80.716
630.59	80.804
630.92	78.378
631.25	79.536
631.58	81.058
631.91	79.362
632.24	82.111
632.57	80.556
632.90	82.644
