SpectraSuite Data File
++++++++++++++++++++++++++++++++++++
Date: Sat May 16 11:20:15 PDT 2015
User: schluterlab
Dark Spectrum Present: Yes
Reference Spectrum Present: Yes
Number of Sampled Component Spectra: 1
Spectrometers: USB2E3373
Integration Time (usec): 3000 (USB2E3373)
Spectra Averaged: 3 (USB2E3373)
Boxcar Smoothing: 0 (USB2E3373)
Correct for Electrical Dark: No (USB2E3373)
Strobe/Lamp Enabled: No (USB2E3373)
Correct for Detector Non-linearity: No (USB2E3373)
Correct for Stray Light: No (USB2E3373)
Number of Pixels in Processed Spectrum: 2048
>>>>>Begin Processed Spectral Data<<<<<
178.53	0.000
178.91	113.333
179.29	433.333
179.67	-1800.000
180.04	-100.000
180.42	500.000
180.80	50.000
181.18	300.000
181.56	-87.500
181.94	1600.000
182.31	100.000
182.69	-7.692
183.07	-766.667
183.45	1050.000
183.83	233.333
184.20	-228.571
184.58	-175.000
184.96	-225.000
185.34	131.250
185.72	-425.000
186.09	116.667
186.47	-212.500
186.85	-162.500
187.23	12.500
187.61	-300.000
187.98	-237.500
188.36	-100.000
188.74	-175.000
189.12	1100.000
189.49	257.143
189.87	16.667
190.25	575.000
190.63	-28.571
191.00	-88.889
191.38	200.000
191.76	0.000
192.14	580.000
192.51	-280.000
192.89	-200.000
193.27	0.000
193.65	33.333
194.02	-242.857
194.40	333.333
194.78	-140.000
195.15	-400.000
195.53	-9.091
195.91	-216.667
196.29	160.000
196.66	-400.000
197.04	1700.000
197.42	-125.000
197.79	6.667
198.17	-200.000
198.55	-250.000
198.92	-800.000
199.30	225.000
199.68	-400.000
200.05	-111.111
200.43	-222.222
200.81	-1200.000
201.18	-58.333
201.56	157.143
201.94	6.667
202.31	59.091
202.69	-20.000
203.07	-70.000
203.44	366.667
203.82	-216.667
204.19	-325.000
204.57	0.000
204.95	-1200.000
205.32	-18.750
205.70	900.000
206.08	-1400.000
206.45	-5.556
206.83	-650.000
207.20	-50.000
207.58	-633.333
207.96	-333.333
208.33	-112.500
208.71	-66.667
209.08	160.000
209.46	-185.714
209.84	150.000
210.21	0.000
210.59	25.000
210.96	1200.000
211.34	-116.667
211.71	-133.333
212.09	50.000
212.46	700.000
212.84	-1700.000
213.22	266.667
213.59	83.333
213.97	-177.778
214.34	100.000
214.72	0.000
215.09	-366.667
215.47	-116.667
215.84	60.000
216.22	-120.000
216.59	26.667
216.97	-200.000
217.34	650.000
217.72	-171.429
218.09	-183.333
218.47	-14.286
218.84	228.571
219.22	-28.571
219.59	0.000
219.97	214.286
220.34	450.000
220.72	125.000
221.09	-53.846
221.47	0.000
221.84	433.333
222.22	-400.000
222.59	900.000
222.97	-175.000
223.34	-350.000
223.72	33.333
224.09	-85.714
224.46	-200.000
224.84	-28.571
225.21	-185.714
225.59	-90.909
225.96	-100.000
226.34	14.286
226.71	0.000
227.08	-5.000
227.46	100.000
227.83	-71.429
228.21	-200.000
228.58	400.000
228.95	25.000
229.33	-600.000
229.70	-160.000
230.08	-550.000
230.45	-25.000
230.82	-16.667
231.20	-500.000
231.57	-150.000
231.95	1700.000
232.32	57.143
232.69	-77.778
233.07	-242.857
233.44	-550.000
233.81	-13.333
234.19	-11.111
234.56	-31.250
234.93	3.125
235.31	-171.429
235.68	-21.429
236.05	-23.529
236.43	-59.091
236.80	38.710
237.17	4.167
237.55	38.095
237.92	-40.909
238.29	34.286
238.67	47.059
239.04	16.667
239.41	-16.129
239.79	28.205
240.16	11.905
240.53	36.364
240.91	64.103
241.28	40.000
241.65	36.923
242.02	42.623
242.40	32.787
242.77	39.394
243.14	49.153
243.51	22.857
243.89	48.101
244.26	41.573
244.63	40.000
245.00	46.316
245.38	40.678
245.75	32.743
246.12	36.800
246.49	47.244
246.87	37.398
247.24	38.983
247.61	39.831
247.98	40.845
248.36	44.755
248.73	44.304
249.10	33.121
249.47	44.444
249.84	46.591
250.22	38.095
250.59	42.373
250.96	50.785
251.33	45.024
251.70	44.712
252.08	46.445
252.45	45.024
252.82	40.000
253.19	42.979
253.56	45.968
253.94	48.523
254.31	47.210
254.68	50.000
255.05	43.952
255.42	48.810
255.79	41.219
256.16	50.980
256.54	48.162
256.91	46.591
257.28	47.985
257.65	43.262
258.02	46.855
258.39	46.154
258.76	44.595
259.14	40.432
259.51	45.574
259.88	45.122
260.25	47.516
260.62	47.588
260.99	38.576
261.36	44.207
261.73	46.821
262.10	47.222
262.47	47.293
262.85	46.857
263.22	40.974
263.59	47.077
263.96	46.087
264.33	44.715
264.70	47.514
265.07	45.330
265.44	43.411
265.81	44.444
266.18	46.582
266.55	43.627
266.92	49.370
267.29	42.615
267.66	45.679
268.03	49.034
268.40	43.897
268.77	46.506
269.14	44.548
269.51	45.057
269.88	41.972
270.25	41.958
270.62	46.224
270.99	43.919
271.36	46.387
271.73	43.946
272.10	46.911
272.47	44.000
272.84	45.556
273.21	44.725
273.58	45.055
273.95	46.272
274.32	45.023
274.69	47.046
275.06	46.830
275.43	45.536
275.80	47.454
276.17	46.025
276.54	45.214
276.91	44.650
277.28	45.639
277.65	44.628
278.02	42.589
278.39	44.794
278.76	43.625
279.13	44.862
279.50	42.942
279.87	45.877
280.23	46.964
280.60	42.744
280.97	43.883
281.34	46.228
281.71	45.000
282.08	46.169
282.45	44.196
282.82	43.217
283.19	44.909
283.56	44.139
283.92	44.876
284.29	43.866
284.66	42.266
285.03	41.533
285.40	43.727
285.77	44.737
286.14	44.224
286.51	47.425
286.87	41.742
287.24	42.833
287.61	42.479
287.98	44.887
288.35	39.835
288.72	41.426
289.08	42.373
289.45	41.246
289.82	37.889
290.19	42.529
290.56	39.174
290.93	39.587
291.29	39.870
291.66	39.936
292.03	39.403
292.40	37.801
292.77	38.199
293.13	41.463
293.50	38.782
293.87	38.650
294.24	35.747
294.60	36.667
294.97	36.571
295.34	36.741
295.71	36.756
296.08	35.484
296.44	34.192
296.81	37.607
297.18	33.944
297.55	36.299
297.91	37.796
298.28	33.836
298.65	35.844
299.02	35.561
299.38	33.824
299.75	33.424
300.12	34.487
300.48	33.248
300.85	33.945
301.22	33.118
301.59	32.770
301.95	35.013
302.32	32.073
302.69	33.415
303.05	31.624
303.42	32.500
303.79	31.579
304.15	31.161
304.52	32.672
304.89	31.759
305.25	30.037
305.62	31.610
305.99	32.509
306.35	30.966
306.72	31.891
307.09	32.236
307.45	31.328
307.82	29.832
308.19	32.215
308.55	32.135
308.92	32.223
309.29	31.784
309.65	30.541
310.02	31.102
310.38	29.946
310.75	30.943
311.12	30.888
311.48	31.106
311.85	30.690
312.22	30.484
312.58	30.722
312.95	30.173
313.31	30.569
313.68	31.558
314.05	31.355
314.41	31.187
314.78	30.470
315.14	30.898
315.51	30.496
315.87	31.655
316.24	31.098
316.61	32.630
316.97	32.637
317.34	32.852
317.70	32.004
318.07	32.090
318.43	31.835
318.80	33.897
319.16	31.989
319.53	32.049
319.89	31.138
320.26	32.157
320.62	30.481
320.99	33.134
321.35	31.823
321.72	33.572
322.08	35.213
322.45	34.356
322.81	34.870
323.18	34.678
323.54	35.582
323.91	34.754
324.27	34.030
324.64	34.552
325.00	34.031
325.37	35.204
325.73	35.958
326.10	34.987
326.46	35.989
326.83	34.723
327.19	36.197
327.56	37.990
327.92	36.788
328.29	37.489
328.65	36.455
329.01	38.074
329.38	36.664
329.74	39.286
330.11	37.443
330.47	37.330
330.84	39.505
331.20	37.726
331.56	38.742
331.93	38.544
332.29	39.635
332.66	40.211
333.02	39.367
333.38	39.695
333.75	39.626
334.11	39.556
334.48	38.305
334.84	40.332
335.20	39.450
335.57	38.899
335.93	39.749
336.29	39.238
336.66	39.471
337.02	39.099
337.38	40.463
337.75	38.543
338.11	40.877
338.47	39.591
338.84	39.474
339.20	38.401
339.56	40.463
339.93	39.065
340.29	39.947
340.65	39.423
341.02	39.460
341.38	39.174
341.74	38.950
342.11	38.652
342.47	39.485
342.83	38.287
343.20	40.051
343.56	37.633
343.92	39.065
344.28	40.706
344.65	38.614
345.01	38.908
345.37	39.535
345.73	39.198
346.10	38.185
346.46	37.774
346.82	39.936
347.19	38.455
347.55	37.560
347.91	39.685
348.27	38.345
348.63	39.176
349.00	39.459
349.36	37.939
349.72	39.650
350.08	39.695
350.45	37.983
350.81	38.615
351.17	38.666
351.53	38.425
351.89	38.884
352.26	38.527
352.62	40.169
352.98	39.241
353.34	39.329
353.70	37.529
354.07	39.103
354.43	38.814
354.79	40.333
355.15	38.898
355.51	39.141
355.87	39.763
356.24	38.920
356.60	40.048
356.96	40.493
357.32	39.113
357.68	39.540
358.04	39.107
358.40	38.283
358.77	39.490
359.13	39.939
359.49	39.683
359.85	38.872
360.21	39.802
360.57	39.458
360.93	40.148
361.29	39.537
361.66	39.329
362.02	39.497
362.38	39.472
362.74	41.172
363.10	39.168
363.46	40.598
363.82	40.889
364.18	40.810
364.54	40.386
364.90	40.461
365.26	40.799
365.62	40.699
365.98	40.825
366.35	40.352
366.71	39.887
367.07	39.873
367.43	40.151
367.79	41.031
368.15	40.469
368.51	40.979
368.87	41.277
369.23	41.404
369.59	40.278
369.95	42.072
370.31	41.491
370.67	41.070
371.03	41.545
371.39	40.170
371.75	41.917
372.11	41.750
372.47	42.372
372.83	43.115
373.19	42.571
373.55	41.731
373.91	42.603
374.27	42.710
374.63	41.546
374.99	42.559
375.35	42.194
375.71	42.944
376.07	41.821
376.42	42.318
376.78	42.876
377.14	43.322
377.50	44.036
377.86	42.913
378.22	44.535
378.58	43.360
378.94	42.787
379.30	43.144
379.66	43.959
380.02	43.850
380.38	44.109
380.74	44.490
381.09	43.117
381.45	44.153
381.81	42.589
382.17	44.298
382.53	43.587
382.89	43.301
383.25	44.491
383.61	45.578
383.97	43.723
384.32	45.932
384.68	45.345
385.04	44.324
385.40	43.883
385.76	45.427
386.12	44.847
386.48	45.916
386.83	46.626
387.19	45.188
387.55	45.003
387.91	44.873
388.27	44.632
388.62	45.252
388.98	45.185
389.34	45.838
389.70	45.311
390.06	45.929
390.42	47.051
390.77	45.489
391.13	46.894
391.49	46.600
391.85	45.761
392.20	46.359
392.56	45.938
392.92	45.750
393.28	46.785
393.64	48.346
393.99	46.154
394.35	47.749
394.71	45.769
395.07	47.144
395.42	46.186
395.78	46.952
396.14	47.664
396.50	46.789
396.85	47.316
397.21	47.448
397.57	46.869
397.92	46.487
398.28	46.944
398.64	47.174
399.00	48.090
399.35	48.309
399.71	47.967
400.07	47.642
400.42	47.810
400.78	47.287
401.14	47.904
401.49	47.288
401.85	48.322
402.21	47.974
402.57	47.816
402.92	48.081
403.28	47.794
403.63	46.555
403.99	47.359
404.35	47.041
404.70	47.923
405.06	47.001
405.42	47.663
405.77	47.172
406.13	46.962
406.49	48.472
406.84	47.690
407.20	47.114
407.55	48.448
407.91	47.992
408.27	47.855
408.62	48.106
408.98	48.029
409.34	47.776
409.69	47.826
410.05	47.544
410.40	48.437
410.76	48.429
411.11	48.691
411.47	49.361
411.83	48.839
412.18	48.391
412.54	48.139
412.89	48.542
413.25	47.934
413.60	48.846
413.96	48.059
414.31	48.440
414.67	49.079
415.03	48.900
415.38	49.967
415.74	49.356
416.09	48.913
416.45	48.347
416.80	49.025
417.16	49.236
417.51	49.508
417.87	50.550
418.22	49.810
418.58	48.524
418.93	50.337
419.29	48.996
419.64	49.749
420.00	51.033
420.35	50.857
420.71	50.840
421.06	49.763
421.42	48.829
421.77	51.312
422.12	50.867
422.48	50.454
422.83	51.822
423.19	51.225
423.54	51.182
423.90	50.434
424.25	51.753
424.61	52.352
424.96	52.779
425.31	51.984
425.67	52.149
426.02	51.291
426.38	51.119
426.73	53.127
427.09	54.105
427.44	52.500
427.79	52.733
428.15	53.501
428.50	53.021
428.85	53.897
429.21	53.680
429.56	54.219
429.92	53.657
430.27	53.539
430.62	54.598
430.98	52.274
431.33	54.696
431.68	55.335
432.04	55.960
432.39	55.726
432.74	54.496
433.10	53.630
433.45	54.347
433.80	54.871
434.16	54.111
434.51	55.890
434.86	55.653
435.22	55.512
435.57	55.692
435.92	54.631
436.28	56.558
436.63	55.964
436.98	55.899
437.34	56.940
437.69	56.243
438.04	56.608
438.39	56.438
438.75	54.948
439.10	56.247
439.45	56.850
439.81	55.964
440.16	56.388
440.51	57.824
440.86	56.391
441.22	56.772
441.57	56.000
441.92	56.215
442.27	56.494
442.63	57.403
442.98	55.926
443.33	57.716
443.68	56.644
444.03	56.876
444.39	56.535
444.74	59.526
445.09	56.853
445.44	57.738
445.79	59.001
446.15	57.996
446.50	56.614
446.85	57.004
447.20	57.967
447.55	57.735
447.91	58.619
448.26	57.598
448.61	57.102
448.96	58.768
449.31	57.159
449.66	58.042
450.02	57.341
450.37	58.435
450.72	57.966
451.07	57.888
451.42	58.364
451.77	59.126
452.12	59.476
452.47	59.887
452.83	58.066
453.18	59.962
453.53	58.644
453.88	60.467
454.23	58.283
454.58	60.970
454.93	59.194
455.28	59.783
455.63	59.275
455.98	60.181
456.34	59.720
456.69	59.287
457.04	59.312
457.39	59.091
457.74	58.476
458.09	59.919
458.44	59.584
458.79	60.034
459.14	59.498
459.49	58.851
459.84	58.460
460.19	59.427
460.54	59.770
460.89	59.193
461.24	58.834
461.59	59.320
461.94	60.917
462.29	60.334
462.64	60.408
462.99	58.835
463.34	58.677
463.69	60.751
464.04	58.289
464.39	59.857
464.74	58.688
465.09	58.689
465.44	58.940
465.79	59.052
466.14	59.781
466.49	59.240
466.84	60.024
467.19	60.411
467.54	58.671
467.89	60.789
468.24	60.511
468.59	60.150
468.94	60.707
469.29	59.974
469.64	60.310
469.99	61.175
470.34	61.122
470.68	60.247
471.03	60.220
471.38	60.347
471.73	61.119
472.08	60.107
472.43	60.296
472.78	58.733
473.13	60.040
473.48	60.689
473.83	59.553
474.17	61.083
474.52	60.997
474.87	58.566
475.22	58.820
475.57	60.333
475.92	58.261
476.27	59.829
476.61	60.451
476.96	60.537
477.31	58.719
477.66	59.602
478.01	59.860
478.36	59.665
478.70	60.224
479.05	61.763
479.40	60.259
479.75	59.582
480.10	59.524
480.45	58.607
480.79	58.786
481.14	59.960
481.49	59.874
481.84	59.593
482.19	58.840
482.53	60.085
482.88	59.374
483.23	58.967
483.58	59.389
483.92	59.436
484.27	57.732
484.62	58.315
484.97	58.730
485.31	57.760
485.66	54.975
486.01	55.827
486.36	57.282
486.70	59.182
487.05	57.602
487.40	58.467
487.75	58.282
488.09	58.956
488.44	58.999
488.79	59.392
489.13	59.528
489.48	59.462
489.83	60.830
490.17	58.206
490.52	58.922
490.87	59.122
491.22	59.925
491.56	58.981
491.91	59.160
492.26	59.858
492.60	59.229
492.95	59.781
493.30	59.171
493.64	58.580
493.99	59.130
494.34	60.476
494.68	59.925
495.03	59.130
495.37	59.194
495.72	59.971
496.07	59.690
496.41	60.537
496.76	60.320
497.11	59.915
497.45	59.100
497.80	59.380
498.14	60.118
498.49	58.815
498.84	58.786
499.18	59.844
499.53	58.889
499.87	59.556
500.22	59.265
500.56	60.780
500.91	59.458
501.26	58.952
501.60	58.161
501.95	59.807
502.29	57.818
502.64	59.736
502.98	58.936
503.33	58.318
503.67	57.854
504.02	58.474
504.36	59.461
504.71	59.878
505.06	58.962
505.40	58.882
505.75	59.146
506.09	58.645
506.44	58.947
506.78	59.659
507.13	57.878
507.47	58.998
507.82	58.338
508.16	59.171
508.51	59.557
508.85	59.110
509.19	58.085
509.54	58.932
509.88	59.787
510.23	58.700
510.57	59.153
510.92	60.150
511.26	59.171
511.61	59.287
511.95	60.129
512.30	59.483
512.64	58.431
512.98	60.011
513.33	59.143
513.67	58.682
514.02	60.459
514.36	59.114
514.70	58.687
515.05	58.891
515.39	58.535
515.74	59.628
516.08	60.346
516.42	59.037
516.77	60.485
517.11	59.668
517.46	61.065
517.80	61.552
518.14	59.420
518.49	60.729
518.83	59.347
519.17	59.858
519.52	59.341
519.86	61.410
520.20	61.797
520.55	60.554
520.89	59.299
521.23	59.402
521.58	60.502
521.92	61.368
522.26	60.762
522.61	60.583
522.95	61.072
523.29	60.313
523.64	60.275
523.98	60.407
524.32	60.402
524.66	57.950
525.01	59.409
525.35	62.113
525.69	59.792
526.04	61.031
526.38	60.917
526.72	60.409
527.06	61.198
527.41	60.198
527.75	60.792
528.09	60.225
528.43	59.082
528.78	59.548
529.12	61.332
529.46	60.825
529.80	58.941
530.15	59.176
530.49	59.379
530.83	59.398
531.17	61.212
531.51	60.080
531.86	58.855
532.20	60.594
532.54	60.027
532.88	58.959
533.22	58.155
533.57	60.052
533.91	58.052
534.25	58.642
534.59	58.339
534.93	58.370
535.27	58.968
535.62	59.847
535.96	58.048
536.30	58.181
536.64	60.292
536.98	60.664
537.32	59.779
537.66	58.656
538.01	60.756
538.35	59.595
538.69	58.422
539.03	58.835
539.37	58.417
539.71	58.239
540.05	58.533
540.39	59.695
540.73	60.746
541.07	59.358
541.42	59.959
541.76	56.877
542.10	59.959
542.44	59.427
542.78	58.548
543.12	58.792
543.46	58.014
543.80	58.595
544.14	58.630
544.48	59.318
544.82	60.690
545.16	57.679
545.50	57.672
545.84	58.414
546.18	59.085
546.52	58.606
546.86	58.974
547.20	58.931
547.54	57.989
547.88	58.792
548.22	57.143
548.56	58.450
548.90	57.817
549.24	58.024
549.58	58.433
549.92	59.435
550.26	59.249
550.60	58.393
550.94	60.146
551.28	58.691
551.62	58.641
551.96	58.611
552.30	57.909
552.64	58.832
552.98	58.655
553.32	58.153
553.66	59.409
554.00	59.844
554.34	58.051
554.68	58.041
555.02	59.262
555.36	57.441
555.69	59.241
556.03	58.175
556.37	60.455
556.71	60.272
557.05	60.606
557.39	59.465
557.73	59.008
558.07	59.231
558.41	59.088
558.75	57.490
559.08	56.498
559.42	58.652
559.76	60.583
560.10	59.210
560.44	59.899
560.78	57.898
561.12	58.178
561.45	58.219
561.79	59.094
562.13	58.205
562.47	58.403
562.81	57.426
563.15	57.593
563.48	58.328
563.82	58.756
564.16	58.756
564.50	57.191
564.84	58.399
565.17	58.090
565.51	57.757
565.85	59.567
566.19	58.564
566.52	56.947
566.86	58.028
567.20	58.232
567.54	58.417
567.88	56.672
568.21	56.600
568.55	56.257
568.89	55.716
569.23	55.160
569.56	54.309
569.90	55.114
570.24	55.092
570.57	54.095
570.91	53.621
571.25	53.145
571.59	53.637
571.92	53.631
572.26	53.265
572.60	53.397
572.93	53.143
573.27	52.470
573.61	51.792
573.95	53.060
574.28	52.874
574.62	52.847
574.96	52.767
575.29	52.947
575.63	52.694
575.97	51.699
576.30	52.645
576.64	52.846
576.98	52.103
577.31	52.610
577.65	52.382
577.98	51.900
578.32	52.452
578.66	52.266
578.99	53.523
579.33	52.575
579.67	52.625
580.00	52.579
580.34	52.495
580.67	52.660
581.01	51.577
581.35	52.409
581.68	51.355
582.02	51.974
582.35	51.804
582.69	53.089
583.02	53.183
583.36	52.550
583.70	52.688
584.03	53.960
584.37	53.478
584.70	53.212
585.04	52.785
585.37	51.909
585.71	52.709
586.04	53.293
586.38	52.526
586.72	52.537
587.05	53.271
587.39	52.609
587.72	52.721
588.06	52.820
588.39	53.147
588.73	53.621
589.06	53.804
589.40	54.895
589.73	54.462
590.07	54.406
590.40	53.506
590.73	54.578
591.07	54.344
591.40	56.326
591.74	55.430
592.07	54.550
592.41	56.093
592.74	53.805
593.08	53.759
593.41	54.408
593.75	53.610
594.08	55.032
594.41	55.823
594.75	54.285
595.08	54.361
595.42	54.082
595.75	55.494
596.09	54.637
596.42	55.687
596.75	55.326
597.09	55.654
597.42	54.430
597.75	55.757
598.09	54.767
598.42	55.325
598.76	54.153
599.09	53.828
599.42	54.325
599.76	53.454
600.09	54.847
600.42	53.969
600.76	55.217
601.09	54.766
601.42	55.046
601.76	54.283
602.09	55.174
602.42	55.391
602.76	54.508
603.09	54.758
603.42	55.238
603.76	54.647
604.09	54.465
604.42	54.496
604.76	54.557
605.09	55.335
605.42	55.851
605.75	54.722
606.09	55.791
606.42	55.006
606.75	54.702
607.09	55.624
607.42	54.269
607.75	54.746
608.08	55.942
608.42	57.048
608.75	55.327
609.08	55.675
609.41	56.004
609.75	54.169
610.08	56.716
610.41	56.867
610.74	56.141
611.07	55.984
611.41	55.320
611.74	56.298
612.07	56.284
612.40	56.663
612.73	56.974
613.07	56.357
613.40	58.894
613.73	56.621
614.06	56.288
614.39	57.779
614.72	56.536
615.06	56.304
615.39	55.996
615.72	54.753
616.05	55.439
616.38	57.400
616.71	56.517
617.05	58.082
617.38	57.152
617.71	57.985
618.04	57.888
618.37	58.113
618.70	59.518
619.03	57.684
619.36	60.113
619.69	60.158
620.03	58.058
620.36	58.931
620.69	59.368
621.02	59.132
621.35	60.968
621.68	60.246
622.01	59.951
622.34	58.463
622.67	59.531
623.00	58.761
623.33	59.254
623.66	59.453
623.99	59.023
624.32	59.003
624.65	59.088
624.99	59.746
625.32	58.982
625.65	58.275
625.98	59.624
626.31	59.788
626.64	61.088
626.97	60.959
627.30	60.170
627.63	59.758
627.96	61.619
628.29	60.662
628.62	62.369
628.95	62.697
629.28	60.902
629.61	61.237
629.94	60.586
630.26	62.724
630.59	63.116
630.92	62.963
631.25	61.895
631.58	62.328
631.91	62.340
632.24	63.778
