SpectraSuite Data File
++++++++++++++++++++++++++++++++++++
Date: Sat May 16 11:29:16 PDT 2015
User: schluterlab
Dark Spectrum Present: Yes
Reference Spectrum Present: Yes
Number of Sampled Component Spectra: 1
Spectrometers: USB2E3373
Integration Time (usec): 3000 (USB2E3373)
Spectra Averaged: 3 (USB2E3373)
Boxcar Smoothing: 0 (USB2E3373)
Correct for Electrical Dark: No (USB2E3373)
Strobe/Lamp Enabled: No (USB2E3373)
Correct for Detector Non-linearity: No (USB2E3373)
Correct for Stray Light: No (USB2E3373)
Number of Pixels in Processed Spectrum: 2048
>>>>>Begin Processed Spectral Data<<<<<
178.53	0.000
178.91	160.000
179.29	600.000
179.67	-600.000
180.04	23.077
180.42	1800.000
180.80	175.000
181.18	275.000
181.56	-112.500
181.94	900.000
182.31	525.000
182.69	-92.308
183.07	-700.000
183.45	1200.000
183.83	533.333
184.20	-185.714
184.58	-112.500
184.96	-300.000
185.34	118.750
185.72	-300.000
186.09	266.667
186.47	-212.500
186.85	-212.500
187.23	-12.500
187.61	-25.000
187.98	-312.500
188.36	-87.500
188.74	-175.000
189.12	800.000
189.49	214.286
189.87	-150.000
190.25	350.000
190.63	-28.571
191.00	-200.000
191.38	260.000
191.76	0.000
192.14	500.000
192.51	-60.000
192.89	-333.333
193.27	0.000
193.65	-55.556
194.02	-200.000
194.40	433.333
194.78	-170.000
195.15	-600.000
195.53	-172.727
195.91	-366.667
196.29	560.000
196.66	-633.333
197.04	2500.000
197.42	-275.000
197.79	-13.333
198.17	-433.333
198.55	-750.000
198.92	-1500.000
199.30	312.500
199.68	-650.000
200.05	-166.667
200.43	-166.667
200.81	-2200.000
201.18	-125.000
201.56	157.143
201.94	-113.333
202.31	18.182
202.69	-60.000
203.07	-80.000
203.44	566.667
203.82	-366.667
204.19	-475.000
204.57	-375.000
204.95	-1300.000
205.32	-62.500
205.70	1100.000
206.08	-2000.000
206.45	-72.222
206.83	-1150.000
207.20	-100.000
207.58	-566.667
207.96	-233.333
208.33	-212.500
208.71	-177.778
209.08	260.000
209.46	-242.857
209.84	1000.000
210.21	0.000
210.59	20.000
210.96	700.000
211.34	-233.333
211.71	-200.000
212.09	325.000
212.46	900.000
212.84	-2500.000
213.22	466.667
213.59	116.667
213.97	0.000
214.34	70.000
214.72	-60.000
215.09	-500.000
215.47	-116.667
215.84	-30.000
216.22	40.000
216.59	13.333
216.97	-625.000
217.34	1200.000
217.72	-142.857
218.09	-283.333
218.47	-271.429
218.84	314.286
219.22	-185.714
219.59	0.000
219.97	214.286
220.34	450.000
220.72	312.500
221.09	-115.385
221.47	0.000
221.84	300.000
222.22	-700.000
222.59	1400.000
222.97	-137.500
223.34	-850.000
223.72	-666.667
224.09	-114.286
224.46	-225.000
224.84	-21.429
225.21	-214.286
225.59	-136.364
225.96	-237.500
226.34	-57.143
226.71	-155.556
227.08	-15.000
227.46	1500.000
227.83	-185.714
228.21	-300.000
228.58	900.000
228.95	-156.250
229.33	-1900.000
229.70	0.000
230.08	-650.000
230.45	-108.333
230.82	-183.333
231.20	-300.000
231.57	-450.000
231.95	2100.000
232.32	-28.571
232.69	-122.222
233.07	-285.714
233.44	-1050.000
233.81	-66.667
234.19	-66.667
234.56	-112.500
234.93	31.250
235.31	-314.286
235.68	-100.000
236.05	-70.588
236.43	-18.182
236.80	0.000
237.17	-20.833
237.55	-61.905
237.92	-113.636
238.29	-11.429
238.67	-14.706
239.04	5.556
239.41	-35.484
239.79	-48.718
240.16	4.762
240.53	-3.636
240.91	-20.513
241.28	-1.818
241.65	26.154
242.02	0.000
242.40	-4.918
242.77	0.000
243.14	-15.254
243.51	-4.286
243.89	-2.532
244.26	-7.865
244.63	17.895
245.00	1.053
245.38	12.712
245.75	12.389
246.12	10.400
246.49	22.047
246.87	0.813
247.24	5.932
247.61	13.559
247.98	9.155
248.36	15.385
248.73	6.329
249.10	11.465
249.47	19.298
249.84	12.500
250.22	7.143
250.59	13.559
250.96	13.613
251.33	19.431
251.70	18.269
252.08	13.744
252.45	13.270
252.82	10.476
253.19	17.872
253.56	11.694
253.94	15.612
254.31	12.446
254.68	19.919
255.05	15.323
255.42	14.683
255.79	14.337
256.16	17.647
256.54	20.588
256.91	12.879
257.28	15.385
257.65	19.504
258.02	21.384
258.39	17.726
258.76	13.514
259.14	15.741
259.51	20.000
259.88	16.768
260.25	20.186
260.62	16.720
260.99	12.463
261.36	18.293
261.73	19.075
262.10	19.167
262.47	15.954
262.85	20.857
263.22	16.332
263.59	15.692
263.96	16.232
264.33	14.363
264.70	17.680
265.07	16.484
265.44	17.054
265.81	15.245
266.18	14.937
266.55	16.176
266.92	15.113
267.29	18.402
267.66	16.049
268.03	19.807
268.40	20.892
268.77	17.831
269.14	17.865
269.51	19.540
269.88	14.679
270.25	16.317
270.62	16.934
270.99	18.243
271.36	17.949
271.73	16.816
272.10	19.451
272.47	16.000
272.84	18.667
273.21	16.055
273.58	16.044
273.95	14.474
274.32	20.814
274.69	17.943
275.06	18.405
275.43	17.411
275.80	18.737
276.17	16.527
276.54	18.534
276.91	16.049
277.28	15.010
277.65	18.388
278.02	17.328
278.39	16.306
278.76	17.331
279.13	16.601
279.50	17.296
279.87	15.645
280.23	18.623
280.60	16.899
280.97	16.505
281.34	18.956
281.71	16.731
282.08	16.331
282.45	15.071
282.82	19.380
283.19	16.364
283.56	18.315
283.92	17.668
284.29	17.472
284.66	15.827
285.03	16.043
285.40	16.421
285.77	18.421
286.14	17.329
286.51	17.052
286.87	17.604
287.24	15.700
287.61	15.207
287.98	16.811
288.35	15.207
288.72	14.261
289.08	15.593
289.45	15.825
289.82	15.225
290.19	16.420
290.56	13.388
290.93	17.488
291.29	15.073
291.66	16.103
292.03	14.443
292.40	17.319
292.77	14.596
293.13	15.122
293.50	15.750
293.87	15.951
294.24	14.630
294.60	13.485
294.97	15.478
295.34	12.741
295.71	15.327
296.08	11.214
296.44	12.589
296.81	13.960
297.18	13.803
297.55	16.243
297.91	14.644
298.28	13.425
298.65	13.250
299.02	15.241
299.38	13.904
299.75	13.995
300.12	14.103
300.48	12.916
300.85	11.664
301.22	13.195
301.59	12.224
301.95	12.720
302.32	12.386
302.69	12.729
303.05	11.111
303.42	11.750
303.79	12.440
304.15	12.559
304.52	14.586
304.89	14.050
305.25	11.477
305.62	12.456
305.99	15.194
306.35	12.653
306.72	11.390
307.09	13.848
307.45	11.691
307.82	13.184
308.19	11.633
308.55	12.963
308.92	10.419
309.29	12.324
309.65	13.043
310.02	11.987
310.38	11.243
310.75	13.012
311.12	12.810
311.48	11.273
311.85	11.946
312.22	12.770
312.58	12.818
312.95	12.742
313.31	12.987
313.68	12.965
314.05	12.760
314.41	11.569
314.78	11.089
315.14	11.747
315.51	11.246
315.87	12.875
316.24	12.342
316.61	11.900
316.97	12.736
317.34	10.790
317.70	11.596
318.07	11.940
318.43	10.768
318.80	13.052
319.16	10.600
319.53	10.714
319.89	10.536
320.26	11.667
320.62	10.096
320.99	11.045
321.35	9.655
321.72	11.975
322.08	12.166
322.45	10.891
322.81	12.200
323.18	11.720
323.54	10.721
323.91	11.029
324.27	11.882
324.64	11.426
325.00	11.082
325.37	12.127
325.73	11.636
326.10	10.452
326.46	10.946
326.83	10.809
327.19	11.093
327.56	12.266
327.92	10.875
328.29	11.255
328.65	11.182
329.01	10.689
329.38	10.794
329.74	11.447
330.11	11.242
330.47	10.536
330.84	12.282
331.20	11.552
331.56	11.304
331.93	10.124
332.29	11.142
332.66	10.799
333.02	10.498
333.38	11.022
333.75	12.556
334.11	11.022
334.48	9.620
334.84	12.161
335.20	9.574
335.57	10.740
335.93	11.370
336.29	10.363
336.66	11.278
337.02	12.252
337.38	10.071
337.75	10.272
338.11	10.286
338.47	10.231
338.84	11.162
339.20	10.633
339.56	11.943
339.93	11.199
340.29	9.743
340.65	9.441
341.02	10.540
341.38	11.626
341.74	10.500
342.11	11.519
342.47	10.043
342.83	9.908
343.20	10.162
343.56	9.796
343.92	12.104
344.28	12.027
344.65	9.323
345.01	9.664
345.37	10.631
345.73	9.493
346.10	9.321
346.46	9.911
346.82	9.783
347.19	10.107
347.55	10.353
347.91	10.000
348.27	8.990
348.63	10.662
349.00	10.581
349.36	9.133
349.72	10.430
350.08	10.585
350.45	9.062
350.81	10.350
351.17	10.370
351.53	9.069
351.89	10.509
352.26	10.155
352.62	10.829
352.98	10.206
353.34	9.512
353.70	8.880
354.07	9.992
354.43	10.672
354.79	9.429
355.15	9.984
355.51	9.844
355.87	8.775
356.24	8.817
356.60	11.039
356.96	10.547
357.32	8.868
357.68	9.732
358.04	10.239
358.40	9.126
358.77	10.124
359.13	9.564
359.49	9.751
359.85	9.680
360.21	9.361
360.57	11.069
360.93	9.926
361.29	10.463
361.66	9.680
362.02	9.393
362.38	10.051
362.74	9.890
363.10	10.258
363.46	10.826
363.82	8.673
364.18	10.203
364.54	11.651
364.90	9.783
365.26	9.629
365.62	9.907
365.98	10.882
366.35	8.732
366.71	9.584
367.07	10.797
367.43	10.570
367.79	9.553
368.15	9.602
368.51	9.790
368.87	10.027
369.23	10.246
369.59	10.139
369.95	9.725
370.31	10.759
370.67	9.834
371.03	10.423
371.39	9.477
371.75	9.585
372.11	9.828
372.47	9.400
372.83	9.875
373.19	8.571
373.55	10.274
373.91	9.957
374.27	9.240
374.63	10.076
374.99	9.736
375.35	8.816
375.71	9.926
376.07	9.856
376.42	9.139
376.78	9.935
377.14	9.627
377.50	10.445
377.86	9.363
378.22	9.862
378.58	9.883
378.94	9.618
379.30	9.872
379.66	10.261
380.02	9.745
380.38	10.151
380.74	10.023
381.09	10.193
381.45	10.442
381.81	10.284
382.17	9.649
382.53	9.301
382.89	9.629
383.25	10.295
383.61	10.142
383.97	10.043
384.32	9.762
384.68	10.762
385.04	9.843
385.40	9.982
385.76	10.183
386.12	10.056
386.48	10.829
386.83	10.675
387.19	9.683
387.55	10.176
387.91	10.551
388.27	9.107
388.62	10.216
388.98	10.176
389.34	9.976
389.70	9.988
390.06	10.068
390.42	10.385
390.77	9.590
391.13	10.807
391.49	10.356
391.85	10.349
392.20	8.677
392.56	10.263
392.92	10.782
393.28	10.103
393.64	10.403
393.99	10.154
394.35	9.793
394.71	10.006
395.07	10.421
395.42	10.012
395.78	9.805
396.14	10.218
396.50	10.275
396.85	9.932
397.21	9.964
397.57	10.152
397.92	10.773
398.28	11.000
398.64	10.827
399.00	10.955
399.35	10.090
399.71	10.743
400.07	10.627
400.42	10.341
400.78	9.958
401.14	10.719
401.49	10.436
401.85	10.250
402.21	10.310
402.57	10.073
402.92	11.328
403.28	10.723
403.63	9.407
403.99	10.566
404.35	9.964
404.70	10.708
405.06	10.842
405.42	10.578
405.77	9.955
406.13	9.938
406.49	10.186
406.84	9.958
407.20	10.660
407.55	10.070
407.91	10.363
408.27	10.539
408.62	10.463
408.98	10.006
409.34	10.238
409.69	10.208
410.05	10.491
410.40	10.607
410.76	9.721
411.11	9.726
411.47	10.230
411.83	10.208
412.18	10.025
412.54	10.982
412.89	10.328
413.25	8.855
413.60	9.721
413.96	9.982
414.31	9.786
414.67	10.413
415.03	10.155
415.38	10.020
415.74	10.954
416.09	9.910
416.45	8.995
416.80	9.558
417.16	10.365
417.51	10.834
417.87	9.709
418.22	10.619
418.58	11.553
418.93	10.730
419.29	10.100
419.64	9.611
420.00	10.328
420.35	10.053
420.71	10.564
421.06	10.473
421.42	9.543
421.77	10.329
422.12	10.241
422.48	9.460
422.83	10.023
423.19	10.022
423.54	9.971
423.90	10.237
424.25	10.916
424.61	10.736
424.96	10.650
425.31	9.894
425.67	10.372
426.02	10.212
426.38	11.131
426.73	10.871
427.09	10.662
427.44	10.227
427.79	10.523
428.15	10.772
428.50	10.440
428.85	10.072
429.21	10.017
429.56	10.208
429.92	10.822
430.27	10.169
430.62	10.502
430.98	10.664
431.33	10.352
431.68	10.563
432.04	10.409
432.39	10.940
432.74	10.372
433.10	10.129
433.45	9.614
433.80	10.414
434.16	10.532
434.51	10.466
434.86	10.838
435.22	10.635
435.57	10.282
435.92	9.965
436.28	10.682
436.63	9.780
436.98	9.966
437.34	10.041
437.69	11.027
438.04	9.983
438.39	10.289
438.75	10.594
439.10	10.772
439.45	9.475
439.81	10.000
440.16	10.505
440.51	11.118
440.86	10.468
441.22	9.729
441.57	10.421
441.92	10.742
442.27	9.740
442.63	10.086
442.98	9.707
443.33	10.928
443.68	9.953
444.03	10.609
444.39	9.692
444.74	10.407
445.09	9.978
445.44	10.298
445.79	10.199
446.15	10.624
446.50	9.799
446.85	9.903
447.20	9.959
447.55	11.215
447.91	10.668
448.26	10.056
448.61	10.583
448.96	10.812
449.31	9.977
449.66	10.933
450.02	10.028
450.37	10.261
450.72	10.113
451.07	10.057
451.42	10.347
451.77	10.174
452.12	10.608
452.47	10.264
452.83	9.959
453.18	10.626
453.53	11.132
453.88	10.467
454.23	9.674
454.58	10.752
454.93	10.894
455.28	10.261
455.63	11.179
455.98	10.241
456.34	10.165
456.69	10.632
457.04	10.940
457.39	10.885
457.74	10.514
458.09	11.311
458.44	10.739
458.79	10.202
459.14	11.124
459.49	10.598
459.84	10.736
460.19	11.396
460.54	10.405
460.89	10.762
461.24	10.565
461.59	10.258
461.94	10.630
462.29	10.899
462.64	10.540
462.99	11.111
463.34	10.466
463.69	11.132
464.04	10.252
464.39	10.394
464.74	11.348
465.09	10.463
465.44	10.434
465.79	10.603
466.14	10.990
466.49	10.478
466.84	11.044
467.19	10.411
467.54	10.316
467.89	10.912
468.24	10.689
468.59	10.868
468.94	10.804
469.29	10.266
469.64	10.243
469.99	11.411
470.34	9.686
470.68	11.773
471.03	11.493
471.38	10.625
471.73	11.329
472.08	10.710
472.43	10.682
472.78	11.000
473.13	10.205
473.48	11.615
473.83	10.918
474.17	10.701
474.52	11.829
474.87	11.072
475.22	10.796
475.57	10.500
475.92	11.339
476.27	10.343
476.61	10.592
476.96	10.341
477.31	10.980
477.66	11.455
478.01	10.751
478.36	11.839
478.70	11.372
479.05	10.979
479.40	10.984
479.75	11.162
480.10	10.962
480.45	10.155
480.79	11.352
481.14	10.838
481.49	11.229
481.84	11.003
482.19	12.289
482.53	10.938
482.88	10.346
483.23	11.502
483.58	12.165
483.92	11.467
484.27	10.368
484.62	11.058
484.97	11.107
485.31	10.784
485.66	10.821
486.01	10.496
486.36	10.814
486.70	11.175
487.05	11.092
487.40	10.737
487.75	11.145
488.09	10.408
488.44	11.333
488.79	11.567
489.13	11.944
489.48	11.746
489.83	11.441
490.17	11.624
490.52	11.368
490.87	11.594
491.22	11.537
491.56	11.435
491.91	12.071
492.26	11.887
492.60	11.608
492.95	11.376
493.30	11.434
493.64	11.425
493.99	11.329
494.34	12.238
494.68	11.938
495.03	11.090
495.37	11.111
495.72	11.149
496.07	12.013
496.41	11.255
496.76	11.735
497.11	11.211
497.45	12.308
497.80	10.955
498.14	11.984
498.49	11.401
498.84	11.845
499.18	11.940
499.53	12.323
499.87	11.100
500.22	11.814
500.56	11.556
500.91	11.724
501.26	12.373
501.60	11.266
501.95	12.560
502.29	11.904
502.64	12.258
502.98	11.739
503.33	13.111
503.67	11.303
504.02	11.830
504.36	11.520
504.71	10.740
505.06	11.583
505.40	12.275
505.75	11.789
506.09	12.437
506.44	12.180
506.78	12.393
507.13	11.535
507.47	12.363
507.82	11.616
508.16	12.124
508.51	11.850
508.85	12.319
509.19	11.355
509.54	12.738
509.88	12.181
510.23	12.212
510.57	12.540
510.92	12.030
511.26	11.962
511.61	12.419
511.95	12.231
512.30	12.259
512.64	12.298
512.98	13.091
513.33	12.740
513.67	12.674
514.02	12.808
514.36	12.188
514.70	12.394
515.05	12.579
515.39	12.226
515.74	12.798
516.08	12.507
516.42	12.691
516.77	13.114
517.11	12.872
517.46	12.022
517.80	12.094
518.14	11.413
518.49	12.433
518.83	12.404
519.17	12.493
519.52	13.071
519.86	13.620
520.20	13.020
520.55	12.677
520.89	12.774
521.23	13.126
521.58	13.041
521.92	13.806
522.26	12.889
522.61	12.991
522.95	12.508
523.29	13.166
523.64	12.804
523.98	13.558
524.32	13.388
524.66	12.795
525.01	12.139
525.35	13.144
525.69	12.687
526.04	12.859
526.38	13.686
526.72	13.027
527.06	12.695
527.41	12.673
527.75	12.211
528.09	12.310
528.43	12.656
528.78	12.500
529.12	12.740
529.46	12.822
529.80	13.299
530.15	12.943
530.49	12.807
530.83	14.407
531.17	12.323
531.51	12.793
531.86	12.377
532.20	11.876
532.54	13.102
532.88	13.439
533.22	12.767
533.57	13.316
533.91	12.297
534.25	12.822
534.59	12.242
534.93	12.383
535.27	13.216
535.62	13.363
535.96	13.704
536.30	12.696
536.64	13.147
536.98	12.571
537.32	11.818
537.66	12.763
538.01	12.577
538.35	12.230
538.69	12.166
539.03	13.135
539.37	13.373
539.71	12.608
540.05	12.886
540.39	13.781
540.73	13.200
541.07	13.730
541.42	12.829
541.76	12.824
542.10	12.492
542.44	12.592
542.78	13.840
543.12	13.374
543.46	12.466
543.80	12.441
544.14	12.156
544.48	13.780
544.82	12.855
545.16	13.481
545.50	12.046
545.84	13.282
546.18	13.384
546.52	12.873
546.86	11.111
547.20	13.432
547.54	12.534
547.88	12.674
548.22	11.796
548.56	12.826
548.90	12.399
549.24	11.843
549.58	12.915
549.92	12.792
550.26	14.017
550.60	13.158
550.94	13.504
551.28	13.093
551.62	13.146
551.96	12.663
552.30	13.101
552.64	13.371
552.98	13.735
553.32	12.193
553.66	13.482
554.00	14.215
554.34	11.986
554.68	12.061
555.02	13.314
555.36	13.084
555.69	12.894
556.03	12.561
556.37	12.802
556.71	13.028
557.05	12.712
557.39	12.027
557.73	13.858
558.07	12.434
558.41	13.014
558.75	13.460
559.08	12.374
559.42	13.093
559.76	12.040
560.10	14.019
560.44	13.656
560.78	13.292
561.12	13.112
561.45	12.534
561.79	12.892
562.13	12.693
562.47	13.095
562.81	12.871
563.15	13.016
563.48	13.062
563.82	12.373
564.16	12.508
564.50	12.903
564.84	12.897
565.17	12.732
565.51	12.712
565.85	13.861
566.19	12.780
566.52	12.720
566.86	13.338
567.20	13.317
567.54	13.408
567.88	13.121
568.21	12.584
568.55	12.089
568.89	12.276
569.23	11.661
569.56	11.517
569.90	11.762
570.24	12.063
570.57	12.127
570.91	11.595
571.25	11.900
571.59	11.739
571.92	11.786
572.26	12.223
572.60	11.883
572.93	11.799
573.27	11.555
573.61	11.156
573.95	11.283
574.28	11.833
574.62	11.744
574.96	11.341
575.29	11.484
575.63	11.282
575.97	11.327
576.30	11.811
576.64	11.384
576.98	11.620
577.31	11.442
577.65	11.049
577.98	11.231
578.32	11.534
578.66	11.254
578.99	11.583
579.33	11.480
579.67	11.058
580.00	11.657
580.34	11.448
580.67	11.939
581.01	11.243
581.35	11.424
581.68	11.240
582.02	11.125
582.35	11.161
582.69	11.572
583.02	11.715
583.36	11.725
583.70	11.060
584.03	11.719
584.37	11.637
584.70	11.605
585.04	11.392
585.37	11.193
585.71	11.611
586.04	11.398
586.38	11.280
586.72	11.330
587.05	11.470
587.39	11.827
587.72	11.362
588.06	11.197
588.39	11.450
588.73	11.617
589.06	11.541
589.40	11.955
589.73	12.004
590.07	11.216
590.40	12.435
590.73	11.795
591.07	11.721
591.40	11.872
591.74	12.076
592.07	12.387
592.41	11.932
592.74	11.722
593.08	11.912
593.41	11.579
593.75	10.781
594.08	11.431
594.41	12.015
594.75	12.042
595.08	11.541
595.42	11.633
595.75	11.650
596.09	11.952
596.42	11.825
596.75	12.074
597.09	12.689
597.42	11.000
597.75	11.603
598.09	11.794
598.42	11.887
598.76	11.752
599.09	11.208
599.42	11.726
599.76	11.552
600.09	11.565
600.42	11.850
600.76	12.090
601.09	11.660
601.42	10.803
601.76	11.955
602.09	11.329
602.42	12.016
602.76	11.010
603.09	11.895
603.42	11.442
603.76	11.408
604.09	11.694
604.42	11.657
604.76	11.426
605.09	12.206
605.42	12.677
605.75	11.298
606.09	11.582
606.42	11.269
606.75	11.765
607.09	11.866
607.42	12.060
607.75	11.656
608.08	12.291
608.42	12.015
608.75	11.589
609.08	11.934
609.41	11.609
609.75	11.458
610.08	12.255
610.41	11.614
610.74	12.427
611.07	12.323
611.41	11.296
611.74	12.751
612.07	12.352
612.40	12.313
612.73	11.847
613.07	11.447
613.40	12.370
613.73	12.207
614.06	11.367
614.39	12.289
614.72	12.235
615.06	12.011
615.39	11.612
615.72	12.004
616.05	12.203
616.38	11.608
616.71	12.012
617.05	12.545
617.38	12.570
617.71	12.285
618.04	11.739
618.37	11.635
618.70	12.647
619.03	11.645
619.36	12.121
619.69	13.209
620.03	11.777
620.36	12.307
620.69	12.204
621.02	12.481
621.35	11.774
621.68	12.705
622.01	13.188
622.34	13.975
622.67	11.016
623.00	12.242
623.33	12.761
623.66	12.038
623.99	12.256
624.32	12.128
624.65	13.466
624.99	12.621
625.32	12.350
625.65	12.199
625.98	11.424
626.31	13.540
626.64	12.636
626.97	12.500
627.30	12.340
627.63	11.140
627.96	13.490
628.29	12.684
628.62	13.085
628.95	15.551
629.28	13.064
629.61	11.973
629.94	12.665
630.26	12.724
630.59	14.372
630.92	13.013
631.25	13.911
631.58	13.545
631.91	11.383
632.24	11.556
632.57	13.222
632.90	13.103
633.23	13.435
633.56	12.982
633.89	13.679
634.22	13.695
