SpectraSuite Data File
++++++++++++++++++++++++++++++++++++
Date: Sat May 16 11:20:31 PDT 2015
User: schluterlab
Dark Spectrum Present: Yes
Reference Spectrum Present: Yes
Number of Sampled Component Spectra: 1
Spectrometers: USB2E3373
Integration Time (usec): 3000 (USB2E3373)
Spectra Averaged: 3 (USB2E3373)
Boxcar Smoothing: 0 (USB2E3373)
Correct for Electrical Dark: No (USB2E3373)
Strobe/Lamp Enabled: No (USB2E3373)
Correct for Detector Non-linearity: No (USB2E3373)
Correct for Stray Light: No (USB2E3373)
Number of Pixels in Processed Spectrum: 2048
>>>>>Begin Processed Spectral Data<<<<<
178.53	0.000
178.91	126.667
179.29	666.667
179.67	-1200.000
180.04	-107.692
180.42	1200.000
180.80	275.000
181.18	300.000
181.56	-37.500
181.94	600.000
182.31	525.000
182.69	-38.462
183.07	-100.000
183.45	800.000
183.83	733.333
184.20	-157.143
184.58	-162.500
184.96	-300.000
185.34	193.750
185.72	-325.000
186.09	66.667
186.47	-75.000
186.85	-187.500
187.23	-75.000
187.61	25.000
187.98	-200.000
188.36	-150.000
188.74	-87.500
189.12	1100.000
189.49	314.286
189.87	-116.667
190.25	350.000
190.63	-28.571
191.00	-66.667
191.38	240.000
191.76	13.333
192.14	440.000
192.51	-300.000
192.89	-333.333
193.27	0.000
193.65	-111.111
194.02	-85.714
194.40	233.333
194.78	-170.000
195.15	-1100.000
195.53	-100.000
195.91	-266.667
196.29	100.000
196.66	-300.000
197.04	1900.000
197.42	-75.000
197.79	-40.000
198.17	-533.333
198.55	-750.000
198.92	-300.000
199.30	150.000
199.68	-100.000
200.05	-77.778
200.43	-200.000
200.81	-1200.000
201.18	-50.000
201.56	400.000
201.94	-33.333
202.31	31.818
202.69	70.000
203.07	-90.000
203.44	500.000
203.82	-50.000
204.19	-450.000
204.57	-175.000
204.95	-1100.000
205.32	12.500
205.70	900.000
206.08	-1500.000
206.45	-33.333
206.83	-550.000
207.20	200.000
207.58	-533.333
207.96	-566.667
208.33	-25.000
208.71	-88.889
209.08	140.000
209.46	-57.143
209.84	600.000
210.21	0.000
210.59	5.000
210.96	700.000
211.34	-166.667
211.71	-300.000
212.09	350.000
212.46	1150.000
212.84	-1900.000
213.22	233.333
213.59	75.000
213.97	33.333
214.34	230.000
214.72	-70.000
215.09	-200.000
215.47	-266.667
215.84	-120.000
216.22	-30.000
216.59	-13.333
216.97	-325.000
217.34	800.000
217.72	-242.857
218.09	-400.000
218.47	-157.143
218.84	157.143
219.22	-128.571
219.59	0.000
219.97	271.429
220.34	400.000
220.72	262.500
221.09	-130.769
221.47	0.000
221.84	166.667
222.22	-550.000
222.59	700.000
222.97	-212.500
223.34	-650.000
223.72	-633.333
224.09	-78.571
224.46	-450.000
224.84	-92.857
225.21	-142.857
225.59	-72.727
225.96	-150.000
226.34	-85.714
226.71	-144.444
227.08	-25.000
227.46	1900.000
227.83	-185.714
228.21	-137.500
228.58	350.000
228.95	-68.750
229.33	-1600.000
229.70	-100.000
230.08	-500.000
230.45	-66.667
230.82	0.000
231.20	-2500.000
231.57	-700.000
231.95	400.000
232.32	14.286
232.69	-88.889
233.07	-285.714
233.44	-400.000
233.81	-93.333
234.19	-55.556
234.56	-25.000
234.93	25.000
235.31	-185.714
235.68	-142.857
236.05	-29.412
236.43	-63.636
236.80	-9.677
237.17	4.167
237.55	-52.381
237.92	-59.091
238.29	-14.286
238.67	-52.941
239.04	11.111
239.41	-32.258
239.79	7.692
240.16	-16.667
240.53	-20.000
240.91	23.077
241.28	-7.273
241.65	13.846
242.02	-18.033
242.40	-14.754
242.77	-15.152
243.14	-16.949
243.51	-2.857
243.89	-8.861
244.26	-14.607
244.63	-2.105
245.00	4.211
245.38	-5.932
245.75	-3.540
246.12	4.000
246.49	7.874
246.87	-11.382
247.24	-4.237
247.61	-5.932
247.98	-9.859
248.36	-2.797
248.73	7.595
249.10	-2.548
249.47	-2.339
249.84	6.250
250.22	-11.310
250.59	-1.130
250.96	1.571
251.33	4.739
251.70	5.769
252.08	6.161
252.45	2.370
252.82	-2.381
253.19	5.957
253.56	2.016
253.94	0.844
254.31	7.725
254.68	2.033
255.05	3.226
255.42	6.746
255.79	0.717
256.16	1.176
256.54	2.574
256.91	2.273
257.28	1.832
257.65	2.482
258.02	5.975
258.39	0.669
258.76	3.378
259.14	1.543
259.51	5.246
259.88	0.915
260.25	4.348
260.62	1.608
260.99	1.484
261.36	6.098
261.73	5.202
262.10	5.556
262.47	3.704
262.85	6.286
263.22	3.438
263.59	-1.231
263.96	4.058
264.33	5.149
264.70	3.315
265.07	4.121
265.44	4.393
265.81	2.584
266.18	0.506
266.55	0.980
266.92	2.015
267.29	2.179
267.66	0.988
268.03	3.140
268.40	3.991
268.77	4.819
269.14	2.784
269.51	4.828
269.88	2.064
270.25	1.166
270.62	4.348
270.99	1.351
271.36	3.497
271.73	3.363
272.10	2.975
272.47	3.111
272.84	4.889
273.21	3.440
273.58	3.297
273.95	4.605
274.32	3.394
274.69	7.002
275.06	5.317
275.43	2.679
275.80	6.517
276.17	1.464
276.54	6.925
276.91	1.235
277.28	3.854
277.65	4.339
278.02	3.132
278.39	3.733
278.76	3.984
279.13	4.941
279.50	2.783
279.87	2.748
280.23	2.429
280.60	3.777
280.97	0.583
281.34	4.062
281.71	3.462
282.08	2.621
282.45	0.407
282.82	2.326
283.19	5.273
283.56	6.593
283.92	4.064
284.29	2.788
284.66	2.158
285.03	5.348
285.40	3.690
285.77	4.737
286.14	4.693
286.51	3.730
286.87	3.811
287.24	5.119
287.61	3.802
287.98	3.986
288.35	3.967
288.72	2.377
289.08	2.712
289.45	3.535
289.82	3.460
290.19	4.269
290.56	2.479
290.93	3.816
291.29	2.593
291.66	3.221
292.03	4.396
292.40	4.819
292.77	4.814
293.13	4.065
293.50	3.863
293.87	5.061
294.24	4.977
294.60	3.030
294.97	4.704
295.34	3.407
295.71	4.018
296.08	3.533
296.44	4.006
296.81	3.134
297.18	3.662
297.55	4.379
297.91	5.718
298.28	3.699
298.65	4.603
299.02	7.487
299.38	3.877
299.75	4.212
300.12	4.615
300.48	4.604
300.85	3.277
301.22	5.045
301.59	4.031
301.95	6.423
302.32	4.302
302.69	5.998
303.05	5.250
303.42	4.625
303.79	3.708
304.15	7.227
304.52	5.134
304.89	5.903
305.25	4.762
305.62	5.170
305.99	6.949
306.35	5.660
306.72	3.645
307.09	5.902
307.45	5.108
307.82	4.916
308.19	5.257
308.55	6.100
308.92	4.082
309.29	5.297
309.65	5.408
310.02	6.479
310.38	6.270
310.75	6.967
311.12	7.541
311.48	6.681
311.85	8.033
312.22	6.900
312.58	8.138
312.95	7.645
313.31	8.891
313.68	8.844
314.05	9.792
314.41	7.445
314.78	7.093
315.14	8.983
315.51	8.409
315.87	9.681
316.24	8.552
316.61	9.981
316.97	9.453
317.34	10.308
317.70	9.833
318.07	10.075
318.43	9.925
318.80	11.643
319.16	10.882
319.53	10.996
319.89	11.101
320.26	11.275
320.62	10.385
320.99	10.846
321.35	11.823
321.72	12.282
322.08	12.265
322.45	12.673
322.81	13.737
323.18	13.064
323.54	14.048
323.91	13.438
324.27	15.399
324.64	14.260
325.00	14.136
325.37	15.475
325.73	17.148
326.10	15.678
326.46	16.112
326.83	16.596
327.19	18.015
327.56	17.717
327.92	18.862
328.29	17.835
328.65	18.091
329.01	20.141
329.38	19.358
329.74	20.421
330.11	19.402
330.47	20.345
330.84	21.815
331.20	21.209
331.56	21.696
331.93	20.959
332.29	22.374
332.66	22.739
333.02	22.262
333.38	22.760
333.75	24.043
334.11	22.133
334.48	21.977
334.84	23.797
335.20	23.316
335.57	23.466
335.93	23.903
336.29	22.498
336.66	22.907
337.02	24.505
337.38	23.084
337.75	24.671
338.11	24.597
338.47	23.577
338.84	23.866
339.20	23.989
339.56	24.064
339.93	23.721
340.29	23.915
340.65	23.077
341.02	24.199
341.38	23.336
341.74	24.725
342.11	23.891
342.47	24.721
342.83	23.594
343.20	23.057
343.56	23.265
343.92	24.958
344.28	25.736
344.65	23.185
345.01	23.613
345.37	25.083
345.73	23.486
346.10	22.731
346.46	23.639
346.82	23.095
347.19	24.076
347.55	23.756
347.91	23.307
348.27	23.389
348.63	23.910
349.00	24.105
349.36	22.170
349.72	23.328
350.08	25.341
350.45	23.719
350.81	25.080
351.17	23.794
351.53	23.309
351.89	24.576
352.26	24.341
352.62	25.269
352.98	23.655
353.34	23.581
353.70	23.707
354.07	25.098
354.43	24.664
354.79	23.772
355.15	23.962
355.51	24.141
355.87	25.455
356.24	24.543
356.60	26.591
356.96	24.711
357.32	23.911
357.68	24.215
358.04	25.327
358.40	24.517
358.77	24.266
359.13	24.790
359.49	24.868
359.85	25.229
360.21	25.342
360.57	25.226
360.93	26.222
361.29	25.635
361.66	24.924
362.02	25.296
362.38	25.459
362.74	25.421
363.10	25.610
363.46	26.709
363.82	26.676
364.18	26.194
364.54	27.162
364.90	25.227
365.26	25.535
365.62	26.158
365.98	26.956
366.35	26.549
366.71	26.075
367.07	26.323
367.43	26.561
367.79	26.873
368.15	25.818
368.51	26.224
368.87	26.717
369.23	26.596
369.59	26.458
369.95	26.357
370.31	27.496
370.67	27.187
371.03	27.551
371.39	26.450
371.75	27.969
372.11	28.336
372.47	27.260
372.83	28.512
373.19	28.143
373.55	28.642
373.91	28.307
374.27	27.721
374.63	29.124
374.99	29.138
375.35	28.937
375.71	28.697
376.07	28.611
376.42	28.013
376.78	29.804
377.14	28.475
377.50	28.885
377.86	29.974
378.22	28.957
378.58	29.154
378.94	27.990
379.30	29.860
379.66	30.298
380.02	29.174
380.38	29.970
380.74	28.898
381.09	29.643
381.45	29.117
381.81	30.067
382.17	29.135
382.53	29.422
382.89	29.426
383.25	30.283
383.61	30.071
383.97	30.312
384.32	30.976
384.68	30.774
385.04	30.374
385.40	29.945
385.76	30.427
386.12	30.668
386.48	31.188
386.83	31.350
387.19	30.962
387.55	31.859
387.91	31.298
388.27	30.217
388.62	30.769
388.98	31.435
389.34	31.089
389.70	31.060
390.06	31.386
390.42	32.500
390.77	31.293
391.13	31.429
391.49	31.753
391.85	32.107
392.20	31.675
392.56	31.277
392.92	32.059
393.28	32.893
393.64	32.411
393.99	32.985
394.35	31.630
394.71	31.069
395.07	31.952
395.42	31.108
395.78	30.295
396.14	31.776
396.50	32.416
396.85	31.524
397.21	31.896
397.57	30.821
397.92	31.499
398.28	32.722
398.64	32.838
399.00	31.910
399.35	32.300
399.71	33.217
400.07	31.522
400.42	32.299
400.78	31.067
401.14	31.377
401.49	31.722
401.85	31.727
402.21	32.479
402.57	30.765
402.92	31.781
403.28	30.760
403.63	31.276
403.99	31.635
404.35	31.522
404.70	31.129
405.06	31.373
405.42	32.103
405.77	31.109
406.13	31.005
406.49	32.235
406.84	32.034
407.20	32.038
407.55	31.602
407.91	31.736
408.27	31.985
408.62	32.952
408.98	30.200
409.34	30.774
409.69	31.695
410.05	30.685
410.40	31.576
410.76	31.061
411.11	30.860
411.47	31.394
411.83	32.457
412.18	30.941
412.54	31.300
412.89	32.078
413.25	30.579
413.60	30.802
413.96	31.793
414.31	32.294
414.67	31.048
415.03	31.759
415.38	32.531
415.74	31.314
416.09	31.650
416.45	31.019
416.80	32.250
417.16	31.229
417.51	31.911
417.87	31.715
418.22	32.111
418.58	30.809
418.93	32.434
419.29	32.936
419.64	30.967
420.00	32.989
420.35	32.643
420.71	32.773
421.06	32.959
421.42	32.787
421.77	32.496
422.12	32.904
422.48	33.511
422.83	33.656
423.19	32.906
423.54	33.487
423.90	33.372
424.25	33.710
424.61	34.318
424.96	34.699
425.31	32.756
425.67	33.467
426.02	34.251
426.38	34.906
426.73	35.652
427.09	33.701
427.44	34.830
427.79	34.012
428.15	34.710
428.50	35.543
428.85	34.712
429.21	35.307
429.56	36.042
429.92	35.922
430.27	34.995
430.62	35.423
430.98	35.651
431.33	35.912
431.68	36.676
432.04	37.213
432.39	36.467
432.74	36.811
433.10	37.648
433.45	36.960
433.80	37.682
434.16	36.593
434.51	38.247
434.86	37.727
435.22	37.305
435.57	37.393
435.92	37.573
436.28	37.507
436.63	37.196
436.98	36.712
437.34	38.512
437.69	37.981
438.04	38.514
438.39	38.989
438.75	38.475
439.10	38.145
439.45	37.658
439.81	38.976
440.16	38.558
440.51	39.588
440.86	38.809
441.22	38.087
441.57	39.158
441.92	39.540
442.27	39.394
442.63	39.217
442.98	38.995
443.33	39.649
443.68	39.448
444.03	39.587
444.39	39.794
444.74	40.639
445.09	39.748
445.44	39.955
445.79	41.560
446.15	40.416
446.50	39.956
446.85	40.995
447.20	39.888
447.55	39.282
447.91	41.381
448.26	40.615
448.61	40.125
448.96	42.017
449.31	40.586
449.66	41.671
450.02	40.388
450.37	40.580
450.72	40.791
451.07	41.798
451.42	40.335
451.77	41.113
452.12	41.776
452.47	41.247
452.83	41.351
453.18	41.240
453.53	41.542
453.88	41.388
454.23	40.145
454.58	42.387
454.93	41.688
455.28	41.045
455.63	42.506
455.98	42.470
456.34	40.851
456.69	41.964
457.04	41.610
457.39	41.208
457.74	41.937
458.09	42.981
458.44	41.859
458.79	42.040
459.14	42.099
459.49	43.043
459.84	42.159
460.19	42.542
460.54	42.952
460.89	41.368
461.24	42.016
461.59	41.852
461.94	43.412
462.29	41.453
462.64	41.963
462.99	42.503
463.34	43.011
463.69	40.649
464.04	40.773
464.39	42.294
464.74	42.139
465.09	41.191
465.44	42.922
465.79	42.696
466.14	43.383
466.49	42.948
466.84	41.116
467.19	42.456
467.54	42.025
467.89	41.430
468.24	42.162
468.59	42.099
468.94	42.958
469.29	43.210
469.64	43.261
469.99	43.687
470.34	43.153
470.68	43.605
471.03	43.152
471.38	43.194
471.73	43.357
472.08	41.834
472.43	42.921
472.78	42.800
473.13	42.942
473.48	42.693
473.83	43.300
474.17	43.121
474.52	43.159
474.87	42.483
475.22	42.773
475.57	42.889
475.92	43.575
476.27	42.629
476.61	43.944
476.96	42.761
477.31	43.111
477.66	43.442
478.01	43.760
478.36	42.378
478.70	43.246
479.05	42.455
479.40	43.161
479.75	42.508
480.10	43.452
480.45	42.602
480.79	43.731
481.14	43.402
481.49	43.078
481.84	42.996
482.19	42.988
482.53	42.992
482.88	42.383
483.23	42.629
483.58	43.478
483.92	43.956
484.27	41.693
484.62	42.462
484.97	41.738
485.31	40.544
485.66	39.729
486.01	40.368
486.36	41.330
486.70	42.276
487.05	41.693
487.40	42.174
487.75	42.364
488.09	41.754
488.44	42.963
488.79	43.014
489.13	42.564
489.48	43.801
489.83	42.489
490.17	43.056
490.52	42.799
490.87	42.356
491.22	42.690
491.56	43.287
491.91	42.128
492.26	43.491
492.60	43.435
492.95	43.360
493.30	42.687
493.64	41.890
493.99	43.642
494.34	42.333
494.68	44.335
495.03	43.547
495.37	42.478
495.72	43.762
496.07	43.641
496.41	43.261
496.76	42.603
497.11	43.618
497.45	43.534
497.80	43.222
498.14	42.682
498.49	43.245
498.84	42.621
499.18	43.665
499.53	44.033
499.87	42.809
500.22	42.892
500.56	43.422
500.91	43.596
501.26	43.037
501.60	43.476
501.95	44.251
502.29	42.041
502.64	43.564
502.98	42.789
503.33	42.434
503.67	42.289
504.02	43.023
504.36	42.990
504.71	43.161
505.06	42.986
505.40	43.862
505.75	43.242
506.09	44.237
506.44	43.409
506.78	43.703
507.13	42.894
507.47	43.714
507.82	43.314
508.16	43.834
508.51	42.658
508.85	43.012
509.19	43.747
509.54	43.446
509.88	44.628
510.23	44.864
510.57	44.339
510.92	44.146
511.26	43.222
511.61	42.765
511.95	42.672
512.30	44.035
512.64	42.682
512.98	44.609
513.33	43.218
513.67	43.160
514.02	43.680
514.36	43.712
514.70	43.407
515.05	44.483
515.39	43.772
515.74	45.666
516.08	43.112
516.42	43.626
516.77	44.021
517.11	43.764
517.46	45.156
517.80	45.668
518.14	44.143
518.49	45.009
518.83	45.579
519.17	44.405
519.52	43.667
519.86	45.281
520.20	45.905
520.55	44.800
520.89	45.398
521.23	43.651
521.58	44.828
521.92	45.345
522.26	44.508
522.61	44.804
522.95	44.416
523.29	44.639
523.64	43.098
523.98	45.767
524.32	44.752
524.66	44.099
525.01	44.894
525.35	45.619
525.69	44.502
526.04	46.410
526.38	45.321
526.72	44.572
527.06	44.206
527.41	43.564
527.75	43.960
528.09	45.136
528.43	44.787
528.78	44.284
529.12	43.918
529.46	44.137
529.80	43.577
530.15	43.915
530.49	43.855
530.83	45.252
531.17	45.387
531.51	44.340
531.86	42.989
532.20	43.927
532.54	43.783
532.88	45.059
533.22	44.318
533.57	43.538
533.91	42.509
534.25	42.866
534.59	42.598
534.93	42.315
535.27	43.675
535.62	43.095
535.96	43.956
536.30	43.521
536.64	43.493
536.98	45.056
537.32	43.538
537.66	42.363
538.01	43.162
538.35	43.919
538.69	43.182
539.03	42.586
539.37	42.981
539.71	42.628
540.05	42.221
540.39	43.421
540.73	43.262
541.07	44.262
541.42	43.754
541.76	41.860
542.10	43.282
542.44	42.705
542.78	42.130
543.12	43.245
543.46	42.603
543.80	41.472
544.14	42.579
544.48	43.438
544.82	43.572
545.16	43.192
545.50	41.117
545.84	43.255
546.18	42.857
546.52	43.243
546.86	43.875
547.20	43.319
547.54	42.080
547.88	42.933
548.22	42.661
548.56	43.353
548.90	43.059
549.24	43.658
549.58	43.472
549.92	44.523
550.26	43.353
550.60	42.176
550.94	42.993
551.28	43.266
551.62	43.648
551.96	43.705
552.30	42.300
552.64	44.194
552.98	43.027
553.32	44.517
553.66	45.061
554.00	44.065
554.34	42.310
554.68	43.494
555.02	44.428
555.36	43.422
555.69	43.052
556.03	43.439
556.37	43.243
556.71	44.309
557.05	45.085
557.39	42.762
557.73	44.201
558.07	44.763
558.41	44.727
558.75	43.574
559.08	43.891
559.42	44.564
559.76	42.868
560.10	43.400
560.44	44.220
560.78	43.006
561.12	43.202
561.45	43.219
561.79	44.808
562.13	42.987
562.47	43.627
562.81	42.362
563.15	42.407
563.48	43.193
563.82	43.002
564.16	43.002
564.50	42.608
564.84	43.320
565.17	42.706
565.51	42.177
565.85	43.678
566.19	43.412
566.52	44.488
566.86	42.288
567.20	43.462
567.54	43.414
567.88	42.044
568.21	43.009
568.55	41.410
568.89	41.004
569.23	40.676
569.56	40.017
569.90	40.559
570.24	40.060
570.57	38.875
570.91	39.680
571.25	39.462
571.59	39.963
571.92	38.810
572.26	38.856
572.60	38.970
572.93	38.836
573.27	38.506
573.61	38.601
573.95	39.569
574.28	38.219
574.62	39.197
574.96	38.260
575.29	37.983
575.63	38.731
575.97	38.107
576.30	38.065
576.64	38.251
576.98	37.945
577.31	37.974
577.65	38.470
577.98	37.824
578.32	38.581
578.66	38.227
578.99	38.428
579.33	38.809
579.67	38.879
580.00	38.021
580.34	37.940
580.67	38.563
581.01	37.888
581.35	38.902
581.68	38.416
582.02	38.351
582.35	38.168
582.69	38.318
583.02	39.103
583.36	38.632
583.70	38.812
584.03	39.601
584.37	39.242
584.70	39.307
585.04	39.139
585.37	38.282
585.71	38.921
586.04	39.488
586.38	39.321
586.72	39.233
587.05	39.564
587.39	39.962
587.72	39.501
588.06	39.147
588.39	39.761
588.73	40.072
589.06	40.185
589.40	40.295
589.73	39.554
590.07	39.840
590.40	40.185
590.73	40.424
591.07	40.820
591.40	40.728
591.74	41.312
592.07	40.766
592.41	40.042
592.74	40.546
593.08	40.130
593.41	39.507
593.75	39.268
594.08	40.582
594.41	40.813
594.75	40.128
595.08	40.752
595.42	40.571
595.75	40.794
596.09	40.318
596.42	41.653
596.75	40.190
597.09	42.119
597.42	41.423
597.75	41.231
598.09	40.804
598.42	39.991
598.76	39.659
599.09	40.253
599.42	40.446
599.76	40.430
600.09	40.687
600.42	40.676
600.76	40.264
601.09	39.689
601.42	39.770
601.76	39.681
602.09	41.268
602.42	40.494
602.76	40.091
603.09	40.847
603.42	40.371
603.76	41.045
604.09	40.609
604.42	40.383
604.76	40.427
605.09	41.230
605.42	40.115
605.75	41.052
606.09	40.100
606.42	40.888
606.75	40.447
607.09	40.538
607.42	40.405
607.75	40.839
608.08	41.347
608.42	41.675
608.75	39.533
609.08	41.257
609.41	41.455
609.75	39.980
610.08	41.765
610.41	40.867
610.74	41.393
611.07	42.140
611.41	40.746
611.74	40.977
612.07	42.696
612.40	41.098
612.73	40.442
613.07	40.892
613.40	42.693
613.73	41.580
614.06	41.571
614.39	43.236
614.72	41.229
615.06	41.033
615.39	40.477
615.72	41.065
616.05	41.303
616.38	41.207
616.71	41.261
617.05	41.556
617.38	43.220
617.71	42.015
618.04	42.050
618.37	42.201
618.70	43.872
619.03	42.383
619.36	43.411
619.69	43.001
620.03	41.942
620.36	41.913
620.69	43.073
621.02	43.151
621.35	45.323
621.68	42.705
622.01	43.123
622.34	42.003
622.67	42.266
623.00	42.693
623.33	41.791
623.66	42.541
623.99	43.008
624.32	42.857
624.65	42.899
624.99	42.868
625.32	43.413
625.65	43.512
625.98	44.053
626.31	44.535
626.64	44.184
626.97	44.264
627.30	43.489
627.63	42.573
627.96	44.648
628.29	43.658
628.62	42.598
628.95	44.882
629.28	43.327
629.61	44.946
629.94	44.140
630.26	44.732
630.59	45.025
630.92	44.645
631.25	44.758
631.58	43.280
631.91	43.830
632.24	47.222
632.57	45.333
632.90	45.402
633.23	46.145
633.56	45.263
633.89	45.519
634.22	44.982
634.55	45.433
634.88	44.256
635.20	44.694
635.53	45.929
635.86	46.096
