SpectraSuite Data File
++++++++++++++++++++++++++++++++++++
Date: Sat May 16 11:16:16 PDT 2015
User: schluterlab
Dark Spectrum Present: Yes
Reference Spectrum Present: Yes
Number of Sampled Component Spectra: 1
Spectrometers: USB2E3373
Integration Time (usec): 3000 (USB2E3373)
Spectra Averaged: 3 (USB2E3373)
Boxcar Smoothing: 0 (USB2E3373)
Correct for Electrical Dark: No (USB2E3373)
Strobe/Lamp Enabled: No (USB2E3373)
Correct for Detector Non-linearity: No (USB2E3373)
Correct for Stray Light: No (USB2E3373)
Number of Pixels in Processed Spectrum: 2048
>>>>>Begin Processed Spectral Data<<<<<
178.53	0.000
178.91	133.333
179.29	100.000
179.67	-700.000
180.04	7.692
180.42	400.000
180.80	400.000
181.18	-0.000
181.56	-175.000
181.94	-700.000
182.31	575.000
182.69	30.769
183.07	-700.000
183.45	900.000
183.83	300.000
184.20	-28.571
184.58	-187.500
184.96	50.000
185.34	87.500
185.72	-475.000
186.09	166.667
186.47	-100.000
186.85	0.000
187.23	-25.000
187.61	-200.000
187.98	-137.500
188.36	-62.500
188.74	-37.500
189.12	500.000
189.49	228.571
189.87	-66.667
190.25	25.000
190.63	-64.286
191.00	-144.444
191.38	360.000
191.76	53.333
192.14	480.000
192.51	-40.000
192.89	-233.333
193.27	0.000
193.65	0.000
194.02	-157.143
194.40	133.333
194.78	-90.000
195.15	-700.000
195.53	-72.727
195.91	-333.333
196.29	260.000
196.66	-266.667
197.04	2000.000
197.42	250.000
197.79	86.667
198.17	-333.333
198.55	-150.000
198.92	0.000
199.30	250.000
199.68	-400.000
200.05	-66.667
200.43	-133.333
200.81	-1200.000
201.18	-58.333
201.56	85.714
201.94	-46.667
202.31	4.545
202.69	60.000
203.07	0.000
203.44	-0.000
203.82	0.000
204.19	-375.000
204.57	50.000
204.95	-1000.000
205.32	37.500
205.70	100.000
206.08	0.000
206.45	-27.778
206.83	-550.000
207.20	400.000
207.58	-433.333
207.96	133.333
208.33	-50.000
208.71	-33.333
209.08	150.000
209.46	-42.857
209.84	550.000
210.21	0.000
210.59	35.000
210.96	-0.000
211.34	-100.000
211.71	-300.000
212.09	200.000
212.46	500.000
212.84	-1400.000
213.22	300.000
213.59	-25.000
213.97	22.222
214.34	30.000
214.72	-60.000
215.09	-266.667
215.47	-16.667
215.84	-10.000
216.22	50.000
216.59	33.333
216.97	-125.000
217.34	750.000
217.72	-28.571
218.09	-133.333
218.47	-57.143
218.84	85.714
219.22	28.571
219.59	0.000
219.97	271.429
220.34	250.000
220.72	200.000
221.09	-53.846
221.47	0.000
221.84	533.333
222.22	200.000
222.59	600.000
222.97	-75.000
223.34	-850.000
223.72	-866.667
224.09	-28.571
224.46	-150.000
224.84	-28.571
225.21	-142.857
225.59	-81.818
225.96	-12.500
226.34	-28.571
226.71	-44.444
227.08	25.000
227.46	1600.000
227.83	-28.571
228.21	-112.500
228.58	100.000
228.95	-106.250
229.33	-1400.000
229.70	-60.000
230.08	-600.000
230.45	-58.333
230.82	33.333
231.20	-300.000
231.57	-50.000
231.95	600.000
232.32	52.381
232.69	11.111
233.07	-14.286
233.44	-300.000
233.81	33.333
234.19	-11.111
234.56	-31.250
234.93	12.500
235.31	-57.143
235.68	-100.000
236.05	-35.294
236.43	-22.727
236.80	16.129
237.17	25.000
237.55	-4.762
237.92	-31.818
238.29	34.286
238.67	23.529
239.04	36.111
239.41	3.226
239.79	-20.513
240.16	4.762
240.53	20.000
240.91	33.333
241.28	23.636
241.65	30.769
242.02	26.230
242.40	22.951
242.77	30.303
243.14	15.254
243.51	12.857
243.89	25.316
244.26	14.607
244.63	33.684
245.00	38.947
245.38	27.119
245.75	29.204
246.12	32.000
246.49	24.409
246.87	18.699
247.24	25.424
247.61	29.661
247.98	31.690
248.36	28.671
248.73	31.013
249.10	21.019
249.47	25.731
249.84	33.523
250.22	21.429
250.59	33.898
250.96	30.366
251.33	32.701
251.70	26.442
252.08	33.649
252.45	29.384
252.82	24.762
253.19	31.915
253.56	24.597
253.94	34.599
254.31	30.472
254.68	33.740
255.05	32.258
255.42	30.159
255.79	25.448
256.16	33.725
256.54	27.206
256.91	31.818
257.28	24.908
257.65	23.759
258.02	31.761
258.39	31.773
258.76	24.662
259.14	31.481
259.51	33.115
259.88	27.439
260.25	31.366
260.62	30.547
260.99	25.223
261.36	31.098
261.73	33.815
262.10	28.333
262.47	28.775
262.85	33.143
263.22	29.513
263.59	29.846
263.96	30.435
264.33	28.997
264.70	31.215
265.07	30.769
265.44	30.491
265.81	28.165
266.18	28.354
266.55	31.618
266.92	31.234
267.29	29.056
267.66	28.889
268.03	30.918
268.40	29.577
268.77	27.952
269.14	30.858
269.51	31.954
269.88	26.376
270.25	30.303
270.62	30.435
270.99	29.955
271.36	29.138
271.73	26.682
272.10	28.375
272.47	28.889
272.84	31.778
273.21	31.193
273.58	30.769
273.95	30.044
274.32	29.186
274.69	33.042
275.06	29.243
275.43	26.786
275.80	31.365
276.17	29.916
276.54	28.513
276.91	28.807
277.28	31.237
277.65	28.719
278.02	30.063
278.39	29.470
278.76	28.287
279.13	29.447
279.50	29.622
279.87	31.501
280.23	29.555
280.60	28.429
280.97	28.544
281.34	28.627
281.71	27.885
282.08	28.024
282.45	27.291
282.82	28.682
283.19	28.000
283.56	30.037
283.92	30.212
284.29	28.625
284.66	26.439
285.03	28.699
285.40	30.258
285.77	29.825
286.14	27.256
286.51	28.597
286.87	30.127
287.24	29.010
287.61	27.603
287.98	27.903
288.35	26.942
288.72	29.202
289.08	27.458
289.45	26.768
289.82	26.125
290.19	28.736
290.56	24.959
290.93	27.027
291.29	25.446
291.66	25.443
292.03	27.316
292.40	26.506
292.77	25.776
293.13	27.480
293.50	26.300
293.87	26.687
294.24	25.339
294.60	20.909
294.97	27.011
295.34	23.704
295.71	23.512
296.08	23.041
296.44	23.462
296.81	24.359
297.18	24.225
297.55	25.282
297.91	24.826
298.28	23.699
298.65	23.152
299.02	24.866
299.38	22.995
299.75	23.777
300.12	23.590
300.48	21.995
300.85	22.543
301.22	23.933
301.59	21.717
301.95	23.552
302.32	22.295
302.69	22.399
303.05	22.222
303.42	22.375
303.79	22.608
304.15	23.934
304.52	21.937
304.89	22.078
305.25	21.734
305.62	22.092
305.99	24.382
306.35	22.198
306.72	23.007
307.09	23.610
307.45	23.156
307.82	21.788
308.19	21.588
308.55	22.331
308.92	21.590
309.29	21.838
309.65	23.224
310.02	22.786
310.38	21.405
310.75	22.541
311.12	23.450
311.48	22.547
311.85	22.863
312.22	22.966
312.58	24.415
312.95	21.814
313.31	22.877
313.68	23.819
314.05	23.937
314.41	23.139
314.78	24.376
315.14	26.357
315.51	24.620
315.87	25.169
316.24	25.948
316.61	26.967
316.97	26.667
317.34	26.686
317.70	25.510
318.07	27.612
318.43	25.843
318.80	28.638
319.16	27.674
319.53	27.914
319.89	28.128
320.26	28.333
320.62	28.365
320.99	29.254
321.35	28.571
321.72	29.580
322.08	31.652
322.45	31.089
322.81	32.853
323.18	33.814
323.54	33.364
323.91	34.847
324.27	34.316
324.64	35.283
325.00	35.340
325.37	37.557
325.73	39.545
326.10	38.530
326.46	39.054
326.83	39.234
327.19	40.450
327.56	42.334
327.92	41.716
328.29	41.299
328.65	42.636
329.01	43.198
329.38	42.908
329.74	46.245
330.11	47.144
330.47	46.503
330.84	48.396
331.20	46.841
331.56	48.040
331.93	49.290
332.29	51.142
332.66	50.571
333.02	50.950
333.38	50.538
333.75	52.093
334.11	51.733
334.48	52.074
334.84	52.843
335.20	53.989
335.57	54.061
335.93	55.237
336.29	52.790
336.66	53.480
337.02	54.775
337.38	53.030
337.75	53.205
338.11	54.562
338.47	55.605
338.84	54.900
339.20	55.272
339.56	57.398
339.93	53.968
340.29	56.244
340.65	54.633
341.02	54.132
341.38	53.917
341.74	54.530
342.11	54.608
342.47	56.395
342.83	53.317
343.20	55.764
343.56	54.694
343.92	55.426
344.28	57.275
344.65	55.198
345.01	55.042
345.37	56.146
345.73	54.501
346.10	54.456
346.46	54.102
346.82	55.734
347.19	55.136
347.55	56.019
347.91	55.197
348.27	56.404
348.63	56.381
349.00	56.881
349.36	53.084
349.72	56.131
350.08	56.616
350.45	54.846
350.81	57.166
351.17	56.672
351.53	53.938
351.89	56.023
352.26	55.349
352.62	54.839
352.98	56.329
353.34	55.875
353.70	55.521
354.07	56.806
354.43	56.206
354.79	55.705
355.15	57.907
355.51	56.875
355.87	56.917
356.24	56.791
356.60	58.098
356.96	56.736
357.32	57.799
357.68	56.475
358.04	56.659
358.40	57.077
358.77	56.491
359.13	57.077
359.49	57.067
359.85	58.079
360.21	57.458
360.57	55.873
360.93	58.741
361.29	58.520
361.66	57.774
362.02	57.766
362.38	58.474
362.74	58.608
363.10	56.528
363.46	58.903
363.82	58.090
364.18	58.104
364.54	59.400
364.90	57.442
365.26	58.131
365.62	58.945
365.98	58.890
366.35	57.394
366.71	58.351
367.07	58.927
367.43	59.025
367.79	58.007
368.15	59.175
368.51	59.021
368.87	61.058
369.23	58.526
369.59	59.028
369.95	60.183
370.31	61.322
370.67	59.364
371.03	60.204
371.39	59.052
371.75	59.299
372.11	61.119
372.47	61.316
372.83	61.127
373.19	60.500
373.55	60.099
373.91	62.873
374.27	60.164
374.63	60.524
374.99	61.474
375.35	61.709
375.71	63.065
376.07	61.739
376.42	61.391
376.78	63.595
377.14	63.661
377.50	63.121
377.86	62.679
378.22	64.259
378.58	62.569
378.94	62.947
379.30	63.803
379.66	62.295
380.02	62.507
380.38	64.109
380.74	63.306
381.09	62.742
381.45	63.842
381.81	63.884
382.17	63.972
382.53	64.073
382.89	65.012
383.25	64.238
383.61	63.502
383.97	65.891
384.32	66.834
384.68	64.510
385.04	64.734
385.40	65.125
385.76	65.427
386.12	65.709
386.48	65.470
386.83	65.890
387.19	66.109
387.55	66.505
387.91	67.220
388.27	65.682
388.62	64.964
388.98	66.929
389.34	65.606
389.70	66.443
390.06	67.247
390.42	68.526
390.77	66.877
391.13	67.826
391.49	67.249
391.85	68.204
392.20	66.930
392.56	66.524
392.92	67.827
393.28	67.738
393.64	68.250
393.99	67.446
394.35	67.762
394.71	67.326
395.07	68.550
395.42	67.998
395.78	67.505
396.14	68.224
396.50	67.339
396.85	68.661
397.21	68.894
397.57	68.754
397.92	68.911
398.28	69.389
398.64	69.066
399.00	69.494
399.35	68.320
399.71	70.209
400.07	69.851
400.42	68.856
400.78	68.277
401.14	68.623
401.49	67.689
401.85	69.372
402.21	68.892
402.57	69.721
402.92	69.792
403.28	68.995
403.63	69.263
403.99	69.049
404.35	67.935
404.70	67.583
405.06	69.089
405.42	68.696
405.77	70.305
406.13	69.052
406.49	70.342
406.84	69.046
407.20	69.965
407.55	69.538
407.91	68.718
408.27	70.588
408.62	69.633
408.98	70.649
409.34	69.653
409.69	68.746
410.05	69.254
410.40	70.509
410.76	69.354
411.11	69.950
411.47	71.164
411.83	70.171
412.18	70.235
412.54	69.311
412.89	69.866
413.25	68.654
413.60	69.320
413.96	68.577
414.31	69.969
414.67	70.667
415.03	70.310
415.38	70.202
415.74	71.392
416.09	70.716
416.45	69.246
416.80	70.091
417.16	71.296
417.51	72.620
417.87	73.139
418.22	70.607
418.58	70.539
418.93	71.429
419.29	70.514
419.64	73.367
420.00	72.053
420.35	73.743
420.71	73.109
421.06	72.012
421.42	72.541
421.77	72.641
422.12	73.195
422.48	72.261
422.83	74.089
423.19	73.608
423.54	73.199
423.90	72.759
424.25	73.133
424.61	74.548
424.96	75.073
425.31	73.896
425.67	73.868
426.02	73.207
426.38	74.350
426.73	75.453
427.09	74.877
427.44	73.693
427.79	76.105
428.15	75.464
428.50	75.953
428.85	76.079
429.21	75.429
429.56	76.094
429.92	76.553
430.27	76.122
430.62	77.273
430.98	75.588
431.33	77.428
431.68	77.534
432.04	77.672
432.39	76.866
432.74	77.638
433.10	78.334
433.45	77.087
433.80	79.171
434.16	78.076
434.51	79.945
434.86	79.145
435.22	78.619
435.57	78.335
435.92	78.839
436.28	80.119
436.63	78.462
436.98	78.064
437.34	77.968
437.69	78.005
438.04	78.446
438.39	81.288
438.75	79.162
439.10	79.733
439.45	81.412
439.81	79.699
440.16	78.648
440.51	81.235
440.86	79.931
441.22	79.989
441.57	80.368
441.92	79.233
442.27	79.870
442.63	81.009
442.98	80.813
443.33	80.890
443.68	80.980
444.03	80.697
444.39	80.323
444.74	81.498
445.09	81.250
445.44	82.442
445.79	82.152
446.15	81.599
446.50	81.492
446.85	80.554
447.20	79.162
447.55	81.492
447.91	81.640
448.26	81.229
448.61	81.777
448.96	82.017
449.31	81.229
449.66	82.484
450.02	81.274
450.37	81.797
450.72	81.582
451.07	84.412
451.42	81.475
451.77	83.064
452.12	83.790
452.47	81.738
452.83	83.285
453.18	82.732
453.53	82.463
453.88	82.895
454.23	82.044
454.58	83.903
454.93	82.368
455.28	84.194
455.63	83.292
455.98	83.614
456.34	81.893
456.69	83.114
457.04	82.852
457.39	81.998
457.74	82.044
458.09	83.063
458.44	84.122
458.79	82.735
459.14	83.628
459.49	83.718
459.84	83.867
460.19	81.921
460.54	82.577
460.89	81.951
461.24	82.149
461.59	83.529
461.94	84.596
462.29	83.740
462.64	84.256
462.99	84.203
463.34	82.242
463.69	84.669
464.04	82.367
464.39	83.393
464.74	81.797
465.09	82.983
465.44	84.151
465.79	83.080
466.14	84.350
466.49	83.132
466.84	84.934
467.19	85.661
467.54	83.481
467.89	82.614
468.24	82.660
468.59	83.823
468.94	84.502
469.29	83.431
469.64	82.951
469.99	83.592
470.34	84.168
470.68	86.337
471.03	83.414
471.38	84.375
471.73	86.783
472.08	83.601
472.43	83.076
472.78	83.867
473.13	83.632
473.48	84.748
473.83	83.995
474.17	84.013
474.52	85.678
474.87	83.858
475.22	83.717
475.57	84.278
475.92	83.531
476.27	82.514
476.61	83.099
476.96	84.293
477.31	85.091
477.66	85.390
478.01	84.441
478.36	83.133
478.70	85.371
479.05	83.288
479.40	84.301
479.75	83.537
480.10	83.581
480.45	82.979
480.79	84.995
481.14	86.051
481.49	85.915
481.84	84.050
482.19	84.102
482.53	84.517
482.88	83.958
483.23	84.601
483.58	84.413
483.92	86.097
484.27	82.676
484.62	84.104
484.97	83.087
485.31	82.432
485.66	81.958
486.01	82.004
486.36	83.406
486.70	84.408
487.05	83.654
487.40	83.894
487.75	83.352
488.09	82.366
488.44	83.525
488.79	82.561
489.13	83.872
489.48	84.951
489.83	85.197
490.17	83.631
490.52	85.100
490.87	84.665
491.22	85.801
491.56	83.611
491.91	83.969
492.26	84.575
492.60	84.206
492.95	84.388
493.30	84.135
493.64	83.310
493.99	84.656
494.34	84.762
494.68	86.189
495.03	84.895
495.37	87.119
495.72	85.658
496.07	84.890
496.41	86.753
496.76	84.795
497.11	87.235
497.45	85.249
497.80	85.593
498.14	85.216
498.49	84.932
498.84	84.612
499.18	84.552
499.53	86.069
499.87	85.907
500.22	86.667
500.56	85.993
500.91	85.025
501.26	86.075
501.60	84.352
501.95	86.039
502.29	85.262
502.64	84.347
502.98	84.236
503.33	84.539
503.67	85.249
504.02	85.176
504.36	87.059
504.71	86.069
505.06	85.472
505.40	84.930
505.75	85.976
506.09	86.198
506.44	85.614
506.78	85.650
507.13	85.582
507.47	85.655
507.82	85.906
508.16	85.389
508.51	84.802
508.85	85.507
509.19	86.081
509.54	87.791
509.88	86.489
510.23	86.268
510.57	85.979
510.92	87.648
511.26	85.380
511.61	87.041
511.95	85.022
512.30	87.356
512.64	86.978
512.98	86.634
513.33	87.424
513.67	85.762
514.02	86.353
514.36	86.925
514.70	85.682
515.05	87.593
515.39	86.909
515.74	88.424
516.08	87.262
516.42	86.289
516.77	86.655
517.11	86.156
517.46	88.517
517.80	87.786
518.14	87.319
518.49	88.285
518.83	88.487
519.17	86.146
519.52	86.003
519.86	87.336
520.20	88.020
520.55	88.677
520.89	86.725
521.23	86.691
521.58	87.774
521.92	87.207
522.26	85.714
522.61	88.973
522.95	88.385
523.29	87.398
523.64	86.196
523.98	87.969
524.32	86.361
524.66	87.019
525.01	87.026
525.35	88.724
525.69	87.833
526.04	88.773
526.38	89.243
526.72	86.271
527.06	88.542
527.41	86.733
527.75	87.789
528.09	88.154
528.43	86.820
528.78	86.809
529.12	88.540
529.46	87.178
529.80	87.024
530.15	88.410
530.49	87.840
530.83	88.540
531.17	88.148
531.51	88.279
531.86	86.570
532.20	87.382
532.54	88.770
532.88	86.957
533.22	87.634
533.57	89.295
533.91	87.203
534.25	85.732
534.59	85.197
534.93	84.505
535.27	88.609
535.62	88.171
535.96	87.201
536.30	86.584
536.64	86.388
536.98	90.113
537.32	87.353
537.66	85.472
538.01	87.835
538.35	88.514
538.69	87.634
539.03	87.881
539.37	86.228
539.71	85.924
540.05	88.759
540.39	88.781
540.73	87.215
541.07	88.798
541.42	87.576
541.76	86.312
542.10	87.103
542.44	85.809
542.78	87.856
543.12	87.305
543.46	87.123
543.80	86.555
544.14	85.359
544.48	86.745
544.82	87.618
545.16	87.324
545.50	86.608
545.84	88.943
546.18	88.696
546.52	86.913
546.86	87.536
547.20	88.326
547.54	86.983
547.88	86.596
548.22	86.632
548.56	86.172
548.90	87.668
549.24	87.036
549.58	86.239
549.92	88.057
550.26	89.162
550.60	85.562
550.94	86.496
551.28	89.616
551.62	87.371
551.96	88.495
552.30	86.551
552.64	88.318
552.98	86.055
553.32	88.167
553.66	88.104
554.00	87.491
554.34	85.704
554.68	87.646
555.02	86.614
555.36	87.635
555.69	87.607
556.03	88.982
556.37	88.976
556.71	89.191
557.05	88.914
557.39	89.087
557.73	87.090
558.07	88.395
558.41	88.631
558.75	88.973
559.08	87.315
559.42	89.357
559.76	90.261
560.10	90.231
560.44	88.728
560.78	88.100
561.12	87.164
561.45	87.466
561.79	88.780
562.13	88.289
562.47	86.625
562.81	86.846
563.15	88.104
563.48	86.938
563.82	87.897
564.16	87.762
564.50	88.105
564.84	86.839
565.17	88.528
565.51	87.484
565.85	88.641
566.19	89.130
566.52	87.932
566.86	87.358
567.20	88.196
567.54	89.841
567.88	86.991
568.21	87.696
568.55	86.479
568.89	86.183
569.23	85.285
569.56	84.531
569.90	85.602
570.24	85.043
570.57	83.374
570.91	83.407
571.25	84.403
571.59	83.672
571.92	82.351
572.26	82.684
572.60	82.718
572.93	81.790
573.27	81.738
573.61	82.220
573.95	82.624
574.28	81.279
574.62	82.791
574.96	82.104
575.29	82.063
575.63	81.656
575.97	81.688
576.30	82.159
576.64	81.854
576.98	80.318
577.31	81.097
577.65	81.928
577.98	81.731
578.32	82.067
578.66	82.069
578.99	81.251
579.33	81.588
579.67	81.588
580.00	81.349
580.34	81.678
580.67	81.466
581.01	81.307
581.35	81.359
581.68	80.954
582.02	81.311
582.35	81.586
582.69	82.029
583.02	82.980
583.36	81.459
583.70	81.976
584.03	82.193
584.37	82.111
584.70	82.395
585.04	81.418
585.37	81.695
585.71	80.745
586.04	82.700
586.38	81.449
586.72	81.933
587.05	82.243
587.39	82.355
587.72	81.524
588.06	82.558
588.39	82.284
588.73	81.382
589.06	83.344
589.40	83.099
589.73	82.967
590.07	82.520
590.40	81.587
590.73	83.727
591.07	82.377
591.40	82.279
591.74	82.841
592.07	82.928
592.41	84.374
592.74	84.243
593.08	82.046
593.41	83.191
593.75	82.624
594.08	84.867
594.41	84.362
594.75	83.201
595.08	84.398
595.42	82.659
595.75	82.764
596.09	83.624
596.42	83.633
596.75	83.614
597.09	84.105
597.42	83.544
597.75	83.747
598.09	83.868
598.42	82.634
598.76	83.306
599.09	82.123
599.42	83.083
599.76	82.635
600.09	83.511
600.42	82.681
600.76	82.712
601.09	82.681
601.42	82.390
601.76	81.503
602.09	82.986
602.42	82.428
602.76	83.257
603.09	82.944
603.42	84.126
603.76	83.606
604.09	82.619
604.42	81.515
604.76	83.079
605.09	82.731
605.42	83.378
605.75	82.449
606.09	82.897
606.42	82.405
606.75	82.310
607.09	83.194
607.42	83.363
607.75	83.709
608.08	83.732
608.42	83.822
608.75	82.103
609.08	84.364
609.41	83.757
609.75	80.400
610.08	84.167
610.41	83.855
610.74	83.946
611.07	84.838
611.41	82.552
611.74	82.365
612.07	85.499
612.40	83.316
612.73	82.929
613.07	83.049
613.40	85.495
613.73	85.613
614.06	82.867
614.39	84.555
614.72	83.128
615.06	83.370
615.39	82.746
615.72	84.302
616.05	82.772
616.38	85.142
616.71	84.384
617.05	85.525
617.38	84.520
617.71	84.029
618.04	84.534
618.37	86.667
618.70	85.593
619.03	84.834
619.36	86.469
619.69	87.006
620.03	84.780
620.36	85.935
620.69	86.791
621.02	85.769
621.35	85.726
621.68	88.033
622.01	87.702
622.34	85.404
622.67	86.328
623.00	86.151
623.33	85.970
623.66	84.934
623.99	85.038
624.32	84.747
624.65	86.534
624.99	86.632
625.32	87.949
625.65	86.014
625.98	84.898
626.31	87.602
626.64	87.782
626.97	86.130
627.30	87.574
627.63	87.047
627.96	87.990
628.29	88.235
628.62	87.106
628.95	89.862
629.28	88.346
629.61	88.126
629.94	85.822
630.26	91.054
630.59	89.246
630.92	89.590
631.25	87.601
631.58	89.101
631.91	87.979
632.24	88.556
632.57	89.889
632.90	90.920
633.23	90.771
