SpectraSuite Data File
++++++++++++++++++++++++++++++++++++
Date: Sat May 16 11:43:21 PDT 2015
User: schluterlab
Dark Spectrum Present: Yes
Reference Spectrum Present: Yes
Number of Sampled Component Spectra: 1
Spectrometers: USB2E3373
Integration Time (usec): 3000 (USB2E3373)
Spectra Averaged: 3 (USB2E3373)
Boxcar Smoothing: 0 (USB2E3373)
Correct for Electrical Dark: No (USB2E3373)
Strobe/Lamp Enabled: No (USB2E3373)
Correct for Detector Non-linearity: No (USB2E3373)
Correct for Stray Light: No (USB2E3373)
Number of Pixels in Processed Spectrum: 2048
>>>>>Begin Processed Spectral Data<<<<<
178.53	0.000
178.91	126.667
179.29	300.000
179.67	-1200.000
180.04	-84.615
180.42	900.000
180.80	150.000
181.18	375.000
181.56	-150.000
181.94	900.000
182.31	400.000
182.69	-84.615
183.07	-600.000
183.45	1450.000
183.83	300.000
184.20	-285.714
184.58	-162.500
184.96	-300.000
185.34	87.500
185.72	-575.000
186.09	316.667
186.47	-225.000
186.85	-225.000
187.23	-62.500
187.61	-350.000
187.98	-125.000
188.36	-100.000
188.74	-337.500
189.12	900.000
189.49	285.714
189.87	-100.000
190.25	100.000
190.63	-7.143
191.00	-211.111
191.38	380.000
191.76	-40.000
192.14	520.000
192.51	-200.000
192.89	-666.667
193.27	0.000
193.65	-144.444
194.02	-157.143
194.40	566.667
194.78	-80.000
195.15	-1600.000
195.53	-118.182
195.91	-466.667
196.29	200.000
196.66	-533.333
197.04	2700.000
197.42	-25.000
197.79	13.333
198.17	-733.333
198.55	-450.000
198.92	-800.000
199.30	212.500
199.68	-300.000
200.05	-155.556
200.43	-233.333
200.81	-1700.000
201.18	-133.333
201.56	200.000
201.94	13.333
202.31	27.273
202.69	-60.000
203.07	-130.000
203.44	166.667
203.82	-333.333
204.19	-600.000
204.57	-250.000
204.95	-1500.000
205.32	-31.250
205.70	600.000
206.08	-1800.000
206.45	-44.444
206.83	-600.000
207.20	-100.000
207.58	-300.000
207.96	-300.000
208.33	-237.500
208.71	0.000
209.08	200.000
209.46	-242.857
209.84	750.000
210.21	0.000
210.59	60.000
210.96	700.000
211.34	-250.000
211.71	-366.667
212.09	175.000
212.46	800.000
212.84	-2800.000
213.22	500.000
213.59	66.667
213.97	-133.333
214.34	150.000
214.72	-140.000
215.09	-300.000
215.47	-383.333
215.84	-60.000
216.22	-120.000
216.59	-20.000
216.97	-325.000
217.34	500.000
217.72	-328.571
218.09	-200.000
218.47	-214.286
218.84	142.857
219.22	-128.571
219.59	0.000
219.97	242.857
220.34	350.000
220.72	325.000
221.09	-61.538
221.47	0.000
221.84	600.000
222.22	-450.000
222.59	1300.000
222.97	-275.000
223.34	-600.000
223.72	-700.000
224.09	-7.143
224.46	-500.000
224.84	-7.143
225.21	-328.571
225.59	-72.727
225.96	-137.500
226.34	-185.714
226.71	-122.222
227.08	-15.000
227.46	2100.000
227.83	-271.429
228.21	-150.000
228.58	500.000
228.95	-68.750
229.33	-1200.000
229.70	-400.000
230.08	-1050.000
230.45	-58.333
230.82	-200.000
231.20	-1000.000
231.57	-400.000
231.95	1400.000
232.32	19.048
232.69	-111.111
233.07	-214.286
233.44	-200.000
233.81	-133.333
234.19	-133.333
234.56	-18.750
234.93	0.000
235.31	-257.143
235.68	-64.286
236.05	-41.176
236.43	-50.000
236.80	-29.032
237.17	-33.333
237.55	-23.810
237.92	-27.273
238.29	-25.714
238.67	2.941
239.04	-13.889
239.41	-9.677
239.79	-48.718
240.16	-4.762
240.53	5.455
240.91	10.256
241.28	9.091
241.65	16.923
242.02	26.230
242.40	-1.639
242.77	18.182
243.14	-10.169
243.51	7.143
243.89	13.924
244.26	4.494
244.63	21.053
245.00	14.737
245.38	18.644
245.75	12.389
246.12	20.800
246.49	22.835
246.87	16.260
247.24	20.339
247.61	24.576
247.98	21.127
248.36	15.385
248.73	17.722
249.10	11.465
249.47	23.392
249.84	23.295
250.22	11.310
250.59	24.859
250.96	28.796
251.33	21.327
251.70	24.038
252.08	26.066
252.45	20.379
252.82	25.714
253.19	25.106
253.56	23.790
253.94	24.051
254.31	24.034
254.68	28.049
255.05	25.000
255.42	22.222
255.79	23.656
256.16	25.490
256.54	27.941
256.91	23.864
257.28	22.711
257.65	29.787
258.02	28.931
258.39	22.074
258.76	21.959
259.14	24.691
259.51	27.869
259.88	27.744
260.25	28.571
260.62	25.402
260.99	23.739
261.36	25.915
261.73	28.324
262.10	25.278
262.47	26.781
262.85	29.143
263.22	24.642
263.59	23.077
263.96	26.957
264.33	24.661
264.70	29.006
265.07	28.571
265.44	26.098
265.81	26.357
266.18	25.823
266.55	23.284
266.92	24.937
267.29	24.455
267.66	25.432
268.03	29.469
268.40	26.526
268.77	27.711
269.14	24.130
269.51	28.046
269.88	25.229
270.25	24.242
270.62	25.172
270.99	28.378
271.36	25.874
271.73	26.682
272.10	24.943
272.47	26.444
272.84	28.000
273.21	24.771
273.58	26.593
273.95	24.561
274.32	26.923
274.69	27.352
275.06	25.971
275.43	26.116
275.80	27.088
276.17	24.895
276.54	27.088
276.91	25.514
277.28	25.355
277.65	26.860
278.02	25.887
278.39	27.701
278.76	26.693
279.13	24.506
279.50	26.044
279.87	26.427
280.23	24.089
280.60	28.231
280.97	26.602
281.34	26.886
281.71	25.577
282.08	26.008
282.45	23.422
282.82	26.357
283.19	25.455
283.56	26.923
283.92	25.972
284.29	26.022
284.66	25.899
285.03	25.134
285.40	27.306
285.77	26.667
286.14	25.993
286.51	24.867
286.87	25.045
287.24	25.768
287.61	25.289
287.98	23.224
288.35	23.140
288.72	23.939
289.08	23.220
289.45	23.569
289.82	23.010
290.19	25.944
290.56	22.645
290.93	24.960
291.29	23.015
291.66	23.349
292.03	24.490
292.40	22.741
292.77	23.292
293.13	23.089
293.50	21.397
293.87	23.006
294.24	21.116
294.60	20.303
294.97	21.396
295.34	21.926
295.71	20.833
296.08	20.584
296.44	19.027
296.81	22.650
297.18	21.268
297.55	20.763
297.91	22.176
298.28	21.096
298.65	19.944
299.02	21.524
299.38	20.588
299.75	19.565
300.12	20.513
300.48	19.565
300.85	19.659
301.22	21.604
301.59	17.555
301.95	21.537
302.32	16.949
302.69	19.461
303.05	19.292
303.42	19.000
303.79	19.019
304.15	20.735
304.52	18.203
304.89	18.300
305.25	19.536
305.62	19.036
305.99	20.259
306.35	19.090
306.72	17.768
307.09	19.523
307.45	17.934
307.82	18.659
308.19	17.785
308.55	17.647
308.92	16.971
309.29	18.486
309.65	18.558
310.02	17.063
310.38	18.054
310.75	19.365
311.12	18.595
311.48	17.954
311.85	17.405
312.22	19.567
312.58	18.616
312.95	17.023
313.31	18.881
313.68	18.291
314.05	18.200
314.41	18.008
314.78	15.984
315.14	18.164
315.51	17.730
315.87	16.747
316.24	15.841
316.61	16.891
316.97	18.408
317.34	17.341
317.70	17.069
318.07	17.910
318.43	16.948
318.80	19.249
319.16	16.979
319.53	16.541
319.89	17.215
320.26	16.765
320.62	16.442
320.99	16.418
321.35	15.271
321.72	17.605
322.08	17.903
322.45	17.030
322.81	16.427
323.18	17.291
323.54	17.190
323.91	16.311
324.27	15.970
324.64	17.459
325.00	16.143
325.37	17.104
325.73	19.073
326.10	15.589
326.46	16.287
326.83	17.362
327.19	17.264
327.56	17.547
327.92	16.737
328.29	16.797
328.65	16.727
329.01	17.403
329.38	16.236
329.74	17.033
330.11	16.682
330.47	15.895
330.84	16.774
331.20	16.155
331.56	16.226
331.93	15.897
332.29	15.708
332.66	16.330
333.02	14.932
333.38	16.667
333.75	17.008
334.11	15.022
334.48	15.446
334.84	16.798
335.20	16.223
335.57	14.982
335.93	17.726
336.29	15.058
336.66	15.507
337.02	17.117
337.38	14.617
337.75	15.189
338.11	15.742
338.47	15.391
338.84	15.971
339.20	14.763
339.56	16.310
339.93	16.490
340.29	14.349
340.65	14.773
341.02	14.755
341.38	15.838
341.74	15.495
342.11	15.870
342.47	16.481
342.83	15.533
343.20	15.115
343.56	13.714
343.92	15.860
344.28	16.064
344.65	14.686
345.01	13.950
345.37	16.196
345.73	15.057
346.10	14.800
346.46	15.841
346.82	14.996
347.19	14.708
347.55	14.848
347.91	15.748
348.27	14.956
348.63	15.347
349.00	15.831
349.36	14.286
349.72	15.287
350.08	15.878
350.45	14.657
350.81	15.366
351.17	14.550
351.53	14.081
351.89	14.309
352.26	15.891
352.62	15.975
352.98	15.981
353.34	15.508
353.70	14.131
354.07	13.769
354.43	14.545
354.79	14.659
355.15	14.377
355.51	14.766
355.87	14.387
356.24	13.264
356.60	15.068
356.96	15.089
357.32	14.173
357.68	14.483
358.04	14.088
358.40	14.540
358.77	14.529
359.13	14.461
359.49	14.135
359.85	14.101
360.21	13.623
360.57	14.383
360.93	15.259
361.29	14.948
361.66	13.262
362.02	14.349
362.38	15.187
362.74	14.505
363.10	14.060
363.46	15.313
363.82	13.630
364.18	15.123
364.54	15.225
364.90	14.186
365.26	14.479
365.62	15.467
365.98	14.936
366.35	15.211
366.71	13.953
367.07	14.114
367.43	15.443
367.79	14.708
368.15	13.656
368.51	14.895
368.87	15.522
369.23	14.807
369.59	13.750
369.95	14.588
370.31	15.049
370.67	14.027
371.03	14.067
371.39	13.932
371.75	14.664
372.11	15.208
372.47	14.389
372.83	14.743
373.19	13.429
373.55	15.201
373.91	14.723
374.27	14.168
374.63	15.114
374.99	14.882
375.35	14.401
375.71	15.463
376.07	14.579
376.42	13.113
376.78	15.033
377.14	14.508
377.50	15.603
377.86	14.759
378.22	14.510
378.58	14.453
378.94	14.427
379.30	14.077
379.66	14.693
380.02	14.082
380.38	15.106
380.74	14.420
381.09	15.641
381.45	14.797
381.81	14.156
382.17	13.847
382.53	13.556
382.89	14.533
383.25	15.172
383.61	15.035
383.97	15.248
384.32	14.956
384.68	15.538
385.04	15.097
385.40	14.364
385.76	14.939
386.12	15.428
386.48	15.161
386.83	14.540
387.19	14.704
387.55	14.900
387.91	14.404
388.27	14.897
388.62	13.702
388.98	15.142
389.34	14.749
389.70	15.164
390.06	14.108
390.42	14.872
390.77	14.637
391.13	15.342
391.49	15.034
391.85	14.651
392.20	14.138
392.56	14.661
392.92	15.003
393.28	15.385
393.64	15.394
393.99	15.385
394.35	14.477
394.71	14.639
395.07	15.191
395.42	15.256
395.78	15.022
396.14	15.701
396.50	15.046
396.85	14.621
397.21	14.642
397.57	15.502
397.92	15.457
398.28	15.667
398.64	15.526
399.00	15.562
399.35	15.051
399.71	15.796
400.07	15.821
400.42	16.302
400.78	14.550
401.14	15.449
401.49	14.623
401.85	15.192
402.21	15.137
402.57	15.473
402.92	15.607
403.28	14.890
403.63	14.320
403.99	15.538
404.35	15.278
404.70	15.272
405.06	16.032
405.42	14.084
405.77	14.989
406.13	14.708
406.49	15.279
406.84	14.997
407.20	15.194
407.55	15.579
407.91	15.155
408.27	15.809
408.62	15.514
408.98	15.646
409.34	15.113
409.69	15.627
410.05	15.343
410.40	15.512
410.76	15.116
411.11	15.274
411.47	14.962
411.83	15.526
412.18	15.594
412.54	15.009
412.89	15.674
413.25	14.699
413.60	14.763
413.96	15.034
414.31	15.596
414.67	14.794
415.03	15.201
415.38	15.810
415.74	15.271
416.09	14.642
416.45	14.418
416.80	15.605
417.16	14.551
417.51	15.824
417.87	15.210
418.22	14.918
418.58	15.404
418.93	15.880
419.29	15.747
419.64	15.264
420.00	14.642
420.35	15.967
420.71	14.886
421.06	15.030
421.42	14.520
421.77	15.187
422.12	15.893
422.48	14.805
422.83	15.376
423.19	14.588
423.54	15.735
423.90	15.442
424.25	15.328
424.61	16.285
424.96	15.623
425.31	15.372
425.67	14.499
426.02	14.687
426.38	16.152
426.73	15.897
427.09	16.115
427.44	15.682
427.79	15.233
428.15	15.440
428.50	15.953
428.85	14.988
429.21	15.661
429.56	15.573
429.92	15.782
430.27	15.753
430.62	15.778
430.98	14.950
431.33	15.848
431.68	15.174
432.04	16.172
432.39	15.783
432.74	15.588
433.10	16.095
433.45	15.141
433.80	15.677
434.16	15.261
434.51	15.452
434.86	17.282
435.22	16.537
435.57	15.973
435.92	15.592
436.28	16.439
436.63	15.206
436.98	15.006
437.34	15.948
437.69	15.869
438.04	15.372
438.39	16.606
438.75	15.949
439.10	15.602
439.45	15.751
439.81	15.482
440.16	15.673
440.51	16.706
440.86	16.484
441.22	14.760
441.57	16.053
441.92	16.266
442.27	15.747
442.63	15.826
442.98	15.688
443.33	15.870
443.68	16.311
444.03	15.275
444.39	16.055
444.74	16.355
445.09	15.296
445.44	16.095
445.79	16.420
446.15	16.101
446.50	15.678
446.85	16.060
447.20	15.271
447.55	16.133
447.91	16.283
448.26	16.369
448.61	15.789
448.96	16.471
449.31	15.727
449.66	16.199
450.02	16.454
450.37	16.000
450.72	15.593
451.07	16.405
451.42	15.613
451.77	16.577
452.12	15.733
452.47	16.688
452.83	16.016
453.18	17.015
453.53	16.915
453.88	16.926
454.23	15.780
454.58	16.781
454.93	16.562
455.28	15.870
455.63	17.015
455.98	16.867
456.34	15.883
456.69	17.011
457.04	16.349
457.39	16.627
457.74	15.889
458.09	16.879
458.44	16.917
458.79	15.751
459.14	16.258
459.49	16.755
459.84	16.976
460.19	16.169
460.54	16.818
460.89	15.919
461.24	16.272
461.59	16.882
461.94	16.168
462.29	16.736
462.64	16.403
462.99	17.135
463.34	15.868
463.69	16.603
464.04	16.872
464.39	15.830
464.74	17.021
465.09	16.536
465.44	15.792
465.79	16.808
466.14	16.456
466.49	16.120
466.84	17.047
467.19	17.269
467.54	15.633
467.89	17.139
468.24	16.865
468.59	15.553
468.94	15.498
469.29	16.764
469.64	17.183
469.99	17.083
470.34	16.767
470.68	17.878
471.03	17.756
471.38	16.528
471.73	16.923
472.08	16.734
472.43	16.924
472.78	16.133
473.13	16.368
473.48	17.294
473.83	16.625
474.17	17.006
474.52	17.072
474.87	17.075
475.22	17.109
475.57	16.111
475.92	16.901
476.27	16.800
476.61	16.620
476.96	16.713
477.31	17.438
477.66	17.654
478.01	17.180
478.36	17.129
478.70	17.138
479.05	17.793
479.40	16.839
479.75	16.565
480.10	17.560
480.45	16.779
480.79	17.572
481.14	16.909
481.49	16.844
481.84	16.690
482.19	16.629
482.53	16.951
482.88	17.371
483.23	16.620
483.58	17.114
483.92	16.770
484.27	16.216
484.62	16.890
484.97	16.524
485.31	15.648
485.66	15.979
486.01	15.846
486.36	16.421
486.70	16.804
487.05	16.590
487.40	16.934
487.75	16.030
488.09	16.275
488.44	16.746
488.79	16.661
489.13	16.660
489.48	17.047
489.83	16.769
490.17	16.892
490.52	17.663
490.87	17.367
491.22	17.562
491.56	17.083
491.91	17.653
492.26	17.972
492.60	17.222
492.95	18.087
493.30	17.342
493.64	17.348
493.99	17.065
494.34	16.714
494.68	17.416
495.03	18.021
495.37	16.912
495.72	17.289
496.07	17.504
496.41	18.434
496.76	17.626
497.11	17.852
497.45	17.912
497.80	17.459
498.14	17.829
498.49	18.332
498.84	17.087
499.18	18.372
499.53	17.584
499.87	16.458
500.22	17.500
500.56	17.759
500.91	17.488
501.26	17.952
501.60	17.670
501.95	18.551
502.29	17.572
502.64	18.010
502.98	17.585
503.33	17.669
503.67	17.433
504.02	17.817
504.36	18.235
504.71	17.882
505.06	17.224
505.40	18.363
505.75	17.988
506.09	18.959
506.44	17.895
506.78	17.612
507.13	17.353
507.47	18.623
507.82	18.069
508.16	18.031
508.51	18.032
508.85	18.427
509.19	17.687
509.54	18.446
509.88	18.191
510.23	18.291
510.57	19.101
510.92	18.690
511.26	17.916
511.61	18.305
511.95	18.804
512.30	18.857
512.64	17.807
512.98	18.702
513.33	18.726
513.67	18.370
514.02	18.848
514.36	18.726
514.70	19.015
515.05	19.097
515.39	19.377
515.74	19.604
516.08	18.732
516.42	18.584
516.77	19.584
517.11	19.050
517.46	18.361
517.80	19.434
518.14	18.357
518.49	19.665
518.83	19.466
519.17	20.012
519.52	19.086
519.86	19.713
520.20	19.438
520.55	19.138
520.89	19.349
521.23	19.536
521.58	19.248
521.92	19.443
522.26	19.619
522.61	19.202
522.95	19.017
523.29	19.060
523.64	19.238
523.98	19.414
524.32	19.107
524.66	18.075
525.01	19.011
525.35	18.943
525.69	19.649
526.04	19.256
526.38	19.796
526.72	19.029
527.06	19.401
527.41	18.878
527.75	19.208
528.09	19.590
528.43	19.541
528.78	19.410
529.12	19.910
529.46	19.459
529.80	19.690
530.15	20.798
530.49	19.405
530.83	19.908
531.17	20.202
531.51	20.027
531.86	19.552
532.20	19.028
532.54	19.586
532.88	19.104
533.22	19.586
533.57	19.713
533.91	19.413
534.25	18.919
534.59	18.364
534.93	19.228
535.27	20.076
535.62	20.077
535.96	19.198
536.30	19.241
536.64	19.256
536.98	18.291
537.32	18.314
537.66	19.620
538.01	19.038
538.35	19.527
538.69	18.382
539.03	19.025
539.37	19.894
539.71	19.680
540.05	20.219
540.39	18.698
540.73	19.834
541.07	18.921
541.42	19.244
541.76	18.339
542.10	19.716
542.44	20.187
542.78	18.928
543.12	20.027
543.46	18.562
543.80	19.064
544.14	18.402
544.48	20.210
544.82	19.215
545.16	20.657
545.50	19.044
545.84	19.680
546.18	20.458
546.52	19.844
546.86	19.373
547.20	19.620
547.54	18.871
547.88	19.575
548.22	19.004
548.56	19.038
548.90	20.283
549.24	19.271
549.58	19.619
549.92	20.424
550.26	19.798
550.60	20.199
550.94	18.613
551.28	20.692
551.62	19.202
551.96	19.899
552.30	19.582
552.64	19.353
552.98	19.552
553.32	18.398
553.66	20.260
554.00	19.900
554.34	18.267
554.68	19.591
555.02	20.912
555.36	19.986
555.69	19.556
556.03	19.649
556.37	19.844
556.71	19.256
557.05	20.990
557.39	19.154
557.73	20.569
558.07	18.990
558.41	19.521
558.75	20.532
559.08	19.377
559.42	20.521
559.76	20.859
560.10	19.985
560.44	19.870
560.78	20.042
561.12	19.807
561.45	19.726
561.79	19.512
562.13	19.425
562.47	19.538
562.81	18.953
563.15	18.824
563.48	19.627
563.82	19.608
564.16	20.014
564.50	19.489
564.84	19.378
565.17	19.695
565.51	18.774
565.85	19.337
566.19	19.697
566.52	18.982
566.86	18.584
567.20	19.189
567.54	19.079
567.88	19.095
568.21	18.568
568.55	18.717
568.89	18.091
569.23	18.417
569.56	17.823
569.90	17.899
570.24	18.339
570.57	17.575
570.91	17.375
571.25	17.769
571.59	17.796
571.92	17.500
572.26	17.705
572.60	17.065
572.93	17.033
573.27	16.524
573.61	17.092
573.95	17.908
574.28	16.960
574.62	17.336
574.96	16.949
575.29	16.972
575.63	16.990
575.97	16.667
576.30	16.909
576.64	16.789
576.98	17.069
577.31	16.639
577.65	16.976
577.98	16.732
578.32	16.481
578.66	16.715
578.99	17.220
579.33	16.905
579.67	16.485
580.00	16.815
580.34	16.781
580.67	17.038
581.01	16.499
581.35	16.327
581.68	16.393
582.02	16.523
582.35	16.676
582.69	16.724
583.02	16.755
583.36	16.635
583.70	17.025
584.03	17.268
584.37	17.429
584.70	16.336
585.04	16.633
585.37	16.539
585.71	16.957
586.04	16.717
586.38	16.520
586.72	16.939
587.05	16.879
587.39	17.427
587.72	17.043
588.06	17.331
588.39	17.089
588.73	17.049
589.06	17.295
589.40	17.795
589.73	17.528
590.07	17.589
590.40	16.937
590.73	17.233
591.07	18.197
591.40	17.981
591.74	17.550
592.07	17.838
592.41	17.113
592.74	17.794
593.08	17.439
593.41	17.171
593.75	17.112
594.08	17.074
594.41	17.486
594.75	17.516
595.08	17.030
595.42	17.449
595.75	16.391
596.09	16.919
596.42	17.921
596.75	17.033
597.09	18.522
597.42	17.896
597.75	17.981
598.09	18.301
598.42	17.322
598.76	17.151
599.09	17.088
599.42	16.801
599.76	17.290
600.09	16.985
600.42	17.471
600.76	17.589
601.09	17.091
601.42	16.898
601.76	17.407
602.09	17.219
602.42	17.325
602.76	16.909
603.09	17.218
603.42	17.284
603.76	18.030
604.09	17.621
604.42	16.903
604.76	17.750
605.09	17.676
605.42	18.218
605.75	17.335
606.09	17.601
606.42	16.548
606.75	17.733
607.09	17.600
607.42	17.694
607.75	17.528
608.08	17.894
608.42	17.171
608.75	17.009
609.08	18.266
609.41	17.140
609.75	16.626
610.08	17.549
610.41	17.253
610.74	18.665
611.07	18.357
611.41	18.356
611.74	17.995
612.07	18.582
612.40	17.964
612.73	17.771
613.07	17.777
613.40	18.719
613.73	17.875
614.06	17.683
614.39	18.151
614.72	17.598
615.06	17.880
615.39	18.123
615.72	17.708
616.05	17.891
616.38	17.934
616.71	17.898
617.05	18.456
617.38	18.452
617.71	17.629
618.04	18.385
618.37	18.553
618.70	18.774
619.03	18.822
619.36	19.450
619.69	18.737
620.03	18.595
620.36	17.722
620.69	18.378
621.02	19.330
621.35	18.952
621.68	18.607
622.01	19.094
622.34	19.488
622.67	19.297
623.00	19.051
623.33	19.328
623.66	18.981
623.99	19.173
624.32	18.452
624.65	19.647
624.99	18.745
625.32	19.162
625.65	19.658
625.98	18.623
626.31	19.494
626.64	19.163
626.97	19.349
627.30	19.234
627.63	17.703
627.96	19.582
628.29	18.842
628.62	18.243
628.95	20.866
629.28	19.455
629.61	19.529
629.94	19.187
630.26	19.781
630.59	21.005
630.92	20.220
631.25	19.052
631.58	19.577
