SpectraSuite Data File
++++++++++++++++++++++++++++++++++++
Date: Sat May 16 11:45:46 PDT 2015
User: schluterlab
Dark Spectrum Present: Yes
Reference Spectrum Present: Yes
Number of Sampled Component Spectra: 1
Spectrometers: USB2E3373
Integration Time (usec): 3000 (USB2E3373)
Spectra Averaged: 3 (USB2E3373)
Boxcar Smoothing: 0 (USB2E3373)
Correct for Electrical Dark: No (USB2E3373)
Strobe/Lamp Enabled: No (USB2E3373)
Correct for Detector Non-linearity: No (USB2E3373)
Correct for Stray Light: No (USB2E3373)
Number of Pixels in Processed Spectrum: 2048
>>>>>Begin Processed Spectral Data<<<<<
178.53	0.000
178.91	113.333
179.29	700.000
179.67	-2300.000
180.04	-92.308
180.42	2400.000
180.80	300.000
181.18	450.000
181.56	-250.000
181.94	2100.000
182.31	600.000
182.69	-69.231
183.07	-733.333
183.45	1100.000
183.83	433.333
184.20	-228.571
184.58	-112.500
184.96	-350.000
185.34	112.500
185.72	-450.000
186.09	200.000
186.47	-150.000
186.85	-112.500
187.23	-112.500
187.61	-275.000
187.98	-162.500
188.36	-212.500
188.74	-175.000
189.12	2000.000
189.49	357.143
189.87	-33.333
190.25	500.000
190.63	-64.286
191.00	-266.667
191.38	520.000
191.76	-26.667
192.14	500.000
192.51	-260.000
192.89	-466.667
193.27	0.000
193.65	-144.444
194.02	-314.286
194.40	633.333
194.78	-150.000
195.15	-1400.000
195.53	-118.182
195.91	-333.333
196.29	220.000
196.66	-633.333
197.04	2500.000
197.42	-250.000
197.79	-33.333
198.17	-300.000
198.55	-400.000
198.92	-1000.000
199.30	337.500
199.68	-700.000
200.05	-11.111
200.43	-188.889
200.81	-1000.000
201.18	-116.667
201.56	257.143
201.94	-73.333
202.31	0.000
202.69	-20.000
203.07	-120.000
203.44	400.000
203.82	-200.000
204.19	-600.000
204.57	-525.000
204.95	-800.000
205.32	-68.750
205.70	1600.000
206.08	-2000.000
206.45	-22.222
206.83	-1200.000
207.20	-50.000
207.58	-700.000
207.96	-333.333
208.33	-37.500
208.71	-66.667
209.08	240.000
209.46	-242.857
209.84	550.000
210.21	0.000
210.59	30.000
210.96	1500.000
211.34	-250.000
211.71	-266.667
212.09	400.000
212.46	1150.000
212.84	-1000.000
213.22	500.000
213.59	158.333
213.97	100.000
214.34	240.000
214.72	-70.000
215.09	-466.667
215.47	-266.667
215.84	-130.000
216.22	-30.000
216.59	80.000
216.97	-500.000
217.34	950.000
217.72	-157.143
218.09	-316.667
218.47	-314.286
218.84	185.714
219.22	-200.000
219.59	0.000
219.97	371.429
220.34	600.000
220.72	200.000
221.09	-46.154
221.47	0.000
221.84	333.333
222.22	-400.000
222.59	1900.000
222.97	-175.000
223.34	-750.000
223.72	-166.667
224.09	-85.714
224.46	-200.000
224.84	-21.429
225.21	-171.429
225.59	-154.545
225.96	-200.000
226.34	-185.714
226.71	-144.444
227.08	-25.000
227.46	2300.000
227.83	-214.286
228.21	-225.000
228.58	450.000
228.95	0.000
229.33	-1100.000
229.70	-460.000
230.08	-1600.000
230.45	16.667
230.82	-116.667
231.20	-1000.000
231.57	-400.000
231.95	900.000
232.32	9.524
232.69	-211.111
233.07	-300.000
233.44	-800.000
233.81	-66.667
234.19	-66.667
234.56	-50.000
234.93	-15.625
235.31	-142.857
235.68	-64.286
236.05	-35.294
236.43	-50.000
236.80	38.710
237.17	20.833
237.55	-42.857
237.92	-59.091
238.29	-2.857
238.67	2.941
239.04	36.111
239.41	19.355
239.79	-15.385
240.16	-23.810
240.53	12.727
240.91	33.333
241.28	29.091
241.65	40.000
242.02	3.279
242.40	19.672
242.77	36.364
243.14	18.644
243.51	8.571
243.89	22.785
244.26	17.978
244.63	35.789
245.00	15.789
245.38	22.881
245.75	25.664
246.12	22.400
246.49	29.134
246.87	27.642
247.24	31.356
247.61	32.203
247.98	26.761
248.36	27.972
248.73	31.646
249.10	30.573
249.47	31.579
249.84	32.386
250.22	19.643
250.59	38.418
250.96	30.366
251.33	31.754
251.70	31.250
252.08	32.227
252.45	30.806
252.82	32.857
253.19	36.596
253.56	36.290
253.94	30.380
254.31	33.906
254.68	36.585
255.05	31.048
255.42	32.937
255.79	36.559
256.16	37.255
256.54	34.926
256.91	35.985
257.28	30.403
257.65	31.206
258.02	35.535
258.39	33.445
258.76	31.419
259.14	31.173
259.51	34.426
259.88	31.707
260.25	34.161
260.62	35.370
260.99	31.751
261.36	37.805
261.73	37.861
262.10	33.889
262.47	32.194
262.85	37.714
263.22	34.670
263.59	36.923
263.96	36.232
264.33	33.604
264.70	33.425
265.07	36.264
265.44	33.850
265.81	35.917
266.18	31.899
266.55	33.088
266.92	36.776
267.29	35.351
267.66	36.296
268.03	36.957
268.40	35.446
268.77	35.422
269.14	37.123
269.51	34.483
269.88	30.963
270.25	34.033
270.62	34.554
270.99	34.234
271.36	34.266
271.73	34.753
272.10	35.469
272.47	34.667
272.84	37.111
273.21	37.385
273.58	34.286
273.95	33.553
274.32	35.747
274.69	38.074
275.06	35.787
275.43	33.929
275.80	36.049
276.17	36.192
276.54	36.253
276.91	34.362
277.28	35.700
277.65	32.645
278.02	35.491
278.39	34.971
278.76	36.653
279.13	36.957
279.50	35.586
279.87	34.249
280.23	36.437
280.60	36.581
280.97	34.369
281.34	35.783
281.71	35.577
282.08	36.694
282.45	34.216
282.82	37.209
283.19	36.000
283.56	35.165
283.92	34.982
284.29	35.130
284.66	33.273
285.03	33.155
285.40	36.531
285.77	36.667
286.14	33.935
286.51	34.636
286.87	34.483
287.24	33.788
287.61	33.388
287.98	33.449
288.35	30.413
288.72	34.635
289.08	31.695
289.45	32.155
289.82	32.526
290.19	33.662
290.56	31.901
290.93	32.273
291.29	29.822
291.66	31.240
292.03	31.554
292.40	31.476
292.77	30.590
293.13	29.919
293.50	30.312
293.87	30.368
294.24	30.317
294.60	27.879
294.97	29.742
295.34	27.852
295.71	28.869
296.08	25.960
296.44	27.897
296.81	27.778
297.18	26.761
297.55	27.119
297.91	29.149
298.28	27.808
298.65	25.802
299.02	28.743
299.38	26.471
299.75	27.310
300.12	25.513
300.48	27.238
300.85	27.261
301.22	25.744
301.59	27.438
301.95	27.204
302.32	23.729
302.69	25.092
303.05	25.763
303.42	25.750
303.79	25.837
304.15	24.645
304.52	24.737
304.89	24.321
305.25	23.199
305.62	25.147
305.99	27.326
306.35	24.861
306.72	23.462
307.09	25.766
307.45	25.085
307.82	22.905
308.19	24.832
308.55	23.312
308.92	23.308
309.29	23.243
309.65	23.542
310.02	24.514
310.38	22.270
310.75	25.410
311.12	23.140
311.48	23.278
311.85	24.305
312.22	23.687
312.58	24.517
312.95	22.528
313.31	23.377
313.68	24.724
314.05	23.343
314.41	23.139
314.78	23.477
315.14	22.014
315.51	22.999
315.87	23.717
316.24	23.712
316.61	22.457
316.97	24.179
317.34	22.543
317.70	23.098
318.07	22.575
318.43	23.315
318.80	23.662
319.16	22.045
319.53	22.180
319.89	22.201
320.26	22.941
320.62	22.885
320.99	23.085
321.35	21.478
321.72	21.904
322.08	21.761
322.45	22.277
322.81	21.998
323.18	24.688
323.54	22.181
323.91	23.911
324.27	23.384
324.64	22.303
325.00	22.949
325.37	23.982
325.73	23.272
326.10	20.815
326.46	21.804
326.83	21.957
327.19	22.185
327.56	23.339
327.92	22.260
328.29	22.511
328.65	22.000
329.01	21.996
329.38	21.499
329.74	22.894
330.11	21.850
330.47	20.436
330.84	23.465
331.20	22.022
331.56	21.696
331.93	21.492
332.29	21.553
332.66	21.773
333.02	21.719
333.38	21.864
333.75	20.570
334.11	21.333
334.48	21.094
334.84	22.222
335.20	21.809
335.57	21.390
335.93	22.471
336.29	21.612
336.66	21.410
337.02	22.703
337.38	21.123
337.75	21.510
338.11	21.109
338.47	22.153
338.84	21.869
339.20	21.705
339.56	22.727
339.93	19.841
340.29	21.701
340.65	20.717
341.02	20.658
341.38	20.893
341.74	21.084
342.11	21.843
342.47	21.202
342.83	21.662
343.20	21.520
343.56	20.000
343.92	20.785
344.28	21.951
344.65	20.380
345.01	20.672
345.37	22.924
345.73	18.822
346.10	20.360
346.46	20.065
346.82	19.487
347.19	20.378
347.55	20.867
347.91	20.472
348.27	20.207
348.63	20.598
349.00	19.889
349.36	20.765
349.72	21.497
350.08	20.529
350.45	19.937
350.81	21.338
351.17	20.900
351.53	19.570
351.89	21.342
352.26	20.620
352.62	21.659
352.98	20.491
353.34	20.384
353.70	20.849
354.07	21.086
354.43	20.158
354.79	19.572
355.15	19.569
355.51	19.766
355.87	19.289
356.24	20.254
356.60	20.548
356.96	20.631
357.32	19.873
357.68	20.230
358.04	20.554
358.40	19.954
358.77	19.784
359.13	19.893
359.49	19.577
359.85	19.970
360.21	19.559
360.57	20.858
360.93	20.815
361.29	21.226
361.66	18.293
362.02	19.896
362.38	19.369
362.74	19.560
363.10	19.154
363.46	21.296
363.82	20.190
364.18	19.826
364.54	20.801
364.90	18.658
365.26	19.330
365.62	21.169
365.98	20.484
366.35	19.507
366.71	19.450
367.07	19.760
367.43	19.904
367.79	19.244
368.15	19.346
368.51	19.930
368.87	19.437
369.23	19.579
369.59	20.694
369.95	20.860
370.31	19.831
370.67	18.872
371.03	19.971
371.39	18.600
371.75	20.744
372.11	19.512
372.47	19.450
372.83	19.263
373.19	19.500
373.55	19.986
373.91	19.630
374.27	20.123
374.63	20.083
374.99	20.376
375.35	19.852
375.71	20.189
376.07	18.754
376.42	18.411
376.78	19.216
377.14	19.458
377.50	19.600
377.86	19.506
378.22	19.347
378.58	19.395
378.94	19.112
379.30	19.927
379.66	20.036
380.02	19.133
380.38	18.912
380.74	18.933
381.09	20.328
381.45	19.869
381.81	18.814
382.17	19.486
382.53	18.967
382.89	19.438
383.25	19.567
383.61	19.340
383.97	19.902
384.32	19.212
384.68	19.891
385.04	18.780
385.40	18.868
385.76	20.244
386.12	19.363
386.48	19.431
386.83	18.834
387.19	19.785
387.55	19.867
387.91	19.798
388.27	18.335
388.62	19.111
388.98	19.261
389.34	19.767
389.70	19.245
390.06	18.956
390.42	18.718
390.77	20.126
391.13	19.814
391.49	19.588
391.85	19.638
392.20	18.932
392.56	19.120
392.92	20.308
393.28	19.747
393.64	19.423
393.99	19.938
394.35	19.891
394.71	20.012
395.07	19.586
395.42	19.070
395.78	18.919
396.14	19.190
396.50	19.511
396.85	19.432
397.21	19.077
397.57	19.271
397.92	20.199
398.28	19.889
398.64	19.155
399.00	20.506
399.35	19.448
399.71	19.861
400.07	20.119
400.42	19.951
400.78	19.261
401.14	18.922
401.49	18.986
401.85	19.158
402.21	19.845
402.57	19.660
402.92	20.076
403.28	19.730
403.63	19.593
403.99	19.515
404.35	18.841
404.70	19.602
405.06	19.839
405.42	18.696
405.77	17.930
406.13	19.080
406.49	19.593
406.84	19.556
407.20	19.611
407.55	19.443
407.91	18.394
408.27	20.037
408.62	18.821
408.98	18.860
409.34	18.708
409.69	20.038
410.05	19.163
410.40	19.191
410.76	19.087
411.11	19.825
411.47	19.373
411.83	19.682
412.18	18.936
412.54	18.609
412.89	19.745
413.25	18.359
413.60	19.198
413.96	19.717
414.31	20.428
414.67	20.127
415.03	19.664
415.38	19.974
415.74	19.652
416.09	19.693
416.45	18.254
416.80	18.856
417.16	19.136
417.51	19.698
417.87	19.417
418.22	19.406
418.58	19.897
418.93	19.620
419.29	18.632
419.64	18.405
420.00	19.866
420.35	19.692
420.71	18.727
421.06	19.704
421.42	18.501
421.77	19.095
422.12	19.586
422.48	18.920
422.83	19.590
423.19	18.653
423.54	19.769
423.90	19.260
424.25	18.609
424.61	19.481
424.96	20.246
425.31	19.117
425.67	19.484
426.02	18.589
426.38	19.843
426.73	20.105
427.09	19.853
427.44	19.545
427.79	19.767
428.15	20.287
428.50	19.765
428.85	19.065
429.21	19.314
429.56	19.844
429.92	19.238
430.27	19.342
430.62	19.697
430.98	19.446
431.33	19.584
431.68	20.000
432.04	19.754
432.39	20.000
432.74	19.484
433.10	19.471
433.45	19.747
433.80	19.037
434.16	19.613
434.51	19.616
434.86	19.801
435.22	19.488
435.57	19.033
435.92	19.695
436.28	19.763
436.63	18.711
436.98	19.187
437.34	19.728
437.69	19.720
438.04	19.796
438.39	20.217
438.75	19.616
439.10	20.155
439.45	19.433
439.81	18.916
440.16	18.796
440.51	20.118
440.86	19.086
441.22	19.182
441.57	19.474
441.92	19.693
442.27	19.643
442.63	19.796
442.98	18.792
443.33	19.495
443.68	19.072
444.03	19.745
444.39	19.383
444.74	19.548
445.09	19.518
445.44	19.696
445.79	19.429
446.15	20.044
446.50	18.998
446.85	19.138
447.20	19.561
447.55	19.724
447.91	20.045
448.26	19.553
448.61	19.525
448.96	20.224
449.31	19.786
449.66	19.519
450.02	18.892
450.37	19.478
450.72	19.096
451.07	20.176
451.42	19.641
451.77	19.928
452.12	20.381
452.47	20.151
452.83	19.569
453.18	20.114
453.53	19.963
453.88	20.395
454.23	20.012
454.58	20.945
454.93	20.529
455.28	19.758
455.63	19.595
455.98	20.542
456.34	19.250
456.69	21.513
457.04	20.959
457.39	20.156
457.74	20.791
458.09	20.650
458.44	20.381
458.79	19.395
459.14	19.966
459.49	20.308
459.84	19.562
460.19	19.928
460.54	19.419
460.89	19.507
461.24	20.522
461.59	20.340
461.94	21.260
462.29	20.369
462.64	20.619
462.99	20.750
463.34	19.311
463.69	19.911
464.04	19.684
464.39	20.012
464.74	19.563
465.09	18.821
465.44	19.064
465.79	20.361
466.14	20.138
466.49	20.553
466.84	19.868
467.19	20.324
467.54	20.316
467.89	19.729
468.24	20.071
468.59	20.800
468.94	20.514
469.29	20.143
469.64	21.159
469.99	20.527
470.34	19.840
470.68	20.422
471.03	20.647
471.38	20.139
471.73	21.469
472.08	19.478
472.43	20.463
472.78	20.667
473.13	20.345
473.48	21.187
473.83	20.409
474.17	21.274
474.52	21.292
474.87	19.988
475.22	21.357
475.57	19.667
475.92	21.004
476.27	20.114
476.61	20.394
476.96	20.961
477.31	20.721
477.66	20.919
478.01	21.556
478.36	20.639
478.70	21.356
479.05	20.606
479.40	20.466
479.75	20.693
480.10	20.486
480.45	20.406
480.79	20.632
481.14	20.873
481.49	20.426
481.84	19.834
482.19	20.923
482.53	20.502
482.88	20.408
483.23	20.657
483.58	21.508
483.92	21.882
484.27	20.071
484.62	19.957
484.97	20.109
485.31	19.488
485.66	18.822
486.01	19.265
486.36	19.962
486.70	20.070
487.05	20.092
487.40	20.246
487.75	20.382
488.09	20.198
488.44	20.399
488.79	20.799
489.13	20.997
489.48	20.962
489.83	20.699
490.17	21.680
490.52	22.101
490.87	20.647
491.22	20.691
491.56	21.435
491.91	21.613
492.26	21.179
492.60	20.932
492.95	21.276
493.30	21.105
493.64	21.110
493.99	20.889
494.34	21.667
494.68	21.536
495.03	21.128
495.37	21.485
495.72	21.955
496.07	21.586
496.41	21.769
496.76	20.411
497.11	21.102
497.45	22.701
497.80	21.361
498.14	21.758
498.49	22.099
498.84	21.165
499.18	21.881
499.53	21.529
499.87	21.236
500.22	21.765
500.56	21.361
500.91	21.576
501.26	22.368
501.60	21.329
501.95	21.787
502.29	21.304
502.64	22.442
502.98	20.939
503.33	21.617
503.67	21.264
504.02	21.680
504.36	21.471
504.71	21.581
505.06	21.767
505.40	22.505
505.75	21.697
506.09	22.093
506.44	21.805
506.78	21.676
507.13	21.782
507.47	22.118
507.82	22.354
508.16	21.813
508.51	22.514
508.85	21.998
509.19	21.088
509.54	22.093
509.88	22.128
510.23	22.013
510.57	22.328
510.92	23.093
511.26	21.478
511.61	21.220
511.95	21.659
512.30	22.485
512.64	21.647
512.98	23.377
513.33	22.625
513.67	22.334
514.02	22.315
514.36	22.493
514.70	23.713
515.05	23.499
515.39	22.953
515.74	22.804
516.08	23.285
516.42	22.946
516.77	22.184
517.11	22.712
517.46	23.505
517.80	23.285
518.14	22.585
518.49	23.192
518.83	23.086
519.17	22.972
519.52	22.614
519.86	23.596
520.20	22.555
520.55	24.554
520.89	23.544
521.23	24.542
521.58	23.448
521.92	23.749
522.26	23.619
522.61	23.764
522.95	22.974
523.29	23.636
523.64	23.548
523.98	23.043
524.32	23.130
524.66	23.478
525.01	22.800
525.35	23.196
525.69	23.748
526.04	22.781
526.38	23.297
526.72	23.116
527.06	23.047
527.41	22.838
527.75	23.300
528.09	22.899
528.43	23.016
528.78	23.618
529.12	24.008
529.46	22.938
529.80	22.983
530.15	24.018
530.49	23.351
530.83	25.016
531.17	23.838
531.51	22.639
531.86	22.844
532.20	23.279
532.54	24.599
532.88	23.254
533.22	23.663
533.57	23.760
533.91	22.722
534.25	22.816
534.59	22.611
534.93	22.589
535.27	23.411
535.62	23.593
535.96	24.370
536.30	23.168
536.64	23.506
536.98	24.011
537.32	22.737
537.66	23.625
538.01	23.368
538.35	23.716
538.69	23.195
539.03	24.171
539.37	23.287
539.71	23.682
540.05	23.509
540.39	22.784
540.73	23.290
541.07	23.497
541.42	24.240
541.76	22.658
542.10	23.768
542.44	22.452
542.78	24.763
543.12	23.829
543.46	23.082
543.80	22.408
544.14	22.968
544.48	24.081
544.82	23.410
545.16	24.480
545.50	23.217
545.84	22.740
546.18	23.717
546.52	24.395
546.86	24.074
547.20	23.910
547.54	22.452
547.88	22.960
548.22	22.280
548.56	22.779
548.90	23.383
549.24	23.336
549.58	23.077
549.92	24.240
550.26	23.699
550.60	23.969
550.94	24.380
551.28	23.853
551.62	24.372
551.96	23.517
552.30	24.111
552.64	24.279
552.98	23.826
553.32	23.449
553.66	24.802
554.00	24.094
554.34	22.888
554.68	23.392
555.02	24.819
555.36	23.077
555.69	23.138
556.03	23.579
556.37	23.400
556.71	24.123
557.05	24.390
557.39	23.460
557.73	23.559
558.07	23.512
558.41	23.785
558.75	23.270
559.08	23.035
559.42	24.273
559.76	26.227
560.10	24.236
560.44	24.494
560.78	24.913
561.12	23.602
561.45	23.973
561.79	23.972
562.13	23.773
562.47	24.020
562.81	22.984
563.15	23.933
563.48	24.672
563.82	23.800
564.16	23.191
564.50	23.925
564.84	23.611
565.17	23.475
565.51	23.403
565.85	25.085
566.19	23.715
566.52	23.483
566.86	23.072
567.20	24.334
567.54	23.745
567.88	22.725
568.21	23.154
568.55	22.747
568.89	22.217
569.23	22.304
569.56	21.858
569.90	22.148
570.24	22.623
570.57	21.301
570.91	21.863
571.25	21.368
571.59	21.324
571.92	20.893
572.26	20.821
572.60	21.347
572.93	21.276
573.27	20.549
573.61	21.394
573.95	20.915
574.28	20.741
574.62	20.386
574.96	20.189
575.29	20.427
575.63	20.334
575.97	20.334
576.30	20.444
576.64	20.496
576.98	20.453
577.31	20.477
577.65	20.599
577.98	20.262
578.32	20.333
578.66	20.473
578.99	20.611
579.33	20.372
579.67	20.593
580.00	21.032
580.34	20.548
580.67	20.201
581.01	20.064
581.35	20.072
581.68	19.885
582.02	20.654
582.35	19.887
582.69	20.024
583.02	20.668
583.36	21.068
583.70	20.635
584.03	20.366
584.37	20.650
584.70	20.566
585.04	20.253
585.37	19.952
585.71	20.223
586.04	20.643
586.38	20.289
586.72	21.026
587.05	20.844
587.39	19.967
587.72	20.228
588.06	20.715
588.39	20.792
588.73	20.851
589.06	20.876
589.40	21.539
589.73	21.707
590.07	21.122
590.40	20.775
590.73	21.152
591.07	20.902
591.40	22.140
591.74	21.720
592.07	20.856
592.41	21.911
592.74	21.368
593.08	21.318
593.41	20.855
593.75	20.376
594.08	20.956
594.41	21.183
594.75	21.480
595.08	21.617
595.42	21.387
595.75	20.838
596.09	20.605
596.42	21.563
596.75	21.820
597.09	22.484
597.42	21.432
597.75	21.125
598.09	21.148
598.42	20.946
598.76	21.262
599.09	21.152
599.42	20.992
599.76	20.838
600.09	21.527
600.42	21.231
600.76	20.979
601.09	21.306
601.42	20.538
601.76	21.612
602.09	21.636
602.42	20.741
602.76	20.607
603.09	20.968
603.42	21.515
603.76	21.819
604.09	20.585
604.42	21.357
604.76	21.500
605.09	22.197
605.42	21.676
605.75	21.518
606.09	21.669
606.42	20.695
606.75	21.211
607.09	21.482
607.42	21.391
607.75	21.236
608.08	22.323
608.42	22.327
608.75	21.308
609.08	21.042
609.41	21.923
609.75	20.965
610.08	21.912
610.41	22.072
610.74	21.857
611.07	21.552
611.41	22.289
611.74	22.005
612.07	22.449
612.40	22.441
612.73	21.863
613.07	22.179
613.40	22.879
613.73	22.289
614.06	21.472
614.39	21.702
614.72	21.564
615.06	21.304
615.39	22.301
615.72	21.945
616.05	21.204
616.38	22.171
616.71	22.162
617.05	22.437
617.38	21.920
617.71	21.744
618.04	21.988
618.37	22.767
618.70	24.055
619.03	23.155
619.36	23.326
619.69	24.408
620.03	22.107
620.36	22.996
620.69	22.757
621.02	24.505
621.35	23.065
621.68	23.361
622.01	23.786
622.34	24.301
622.67	23.125
623.00	23.565
623.33	23.507
623.66	22.083
623.99	22.707
624.32	22.247
624.65	22.737
624.99	22.479
625.32	23.578
625.65	23.388
625.98	23.239
626.31	24.959
626.64	24.184
626.97	24.401
627.30	23.319
627.63	23.316
627.96	24.543
628.29	23.437
628.62	23.591
628.95	25.098
629.28	23.496
629.61	24.436
629.94	24.953
630.26	24.254
630.59	25.025
630.92	23.223
631.25	25.101
