SpectraSuite Data File
++++++++++++++++++++++++++++++++++++
Date: Sat May 16 11:27:19 PDT 2015
User: schluterlab
Dark Spectrum Present: Yes
Reference Spectrum Present: Yes
Number of Sampled Component Spectra: 1
Spectrometers: USB2E3373
Integration Time (usec): 3000 (USB2E3373)
Spectra Averaged: 3 (USB2E3373)
Boxcar Smoothing: 0 (USB2E3373)
Correct for Electrical Dark: No (USB2E3373)
Strobe/Lamp Enabled: No (USB2E3373)
Correct for Detector Non-linearity: No (USB2E3373)
Correct for Stray Light: No (USB2E3373)
Number of Pixels in Processed Spectrum: 2048
>>>>>Begin Processed Spectral Data<<<<<
178.53	0.000
178.91	126.667
179.29	566.667
179.67	-700.000
180.04	-76.923
180.42	600.000
180.80	275.000
181.18	275.000
181.56	-175.000
181.94	900.000
182.31	450.000
182.69	-15.385
183.07	-666.667
183.45	1350.000
183.83	633.333
184.20	-157.143
184.58	-112.500
184.96	-375.000
185.34	125.000
185.72	-475.000
186.09	183.333
186.47	-137.500
186.85	-250.000
187.23	-187.500
187.61	-400.000
187.98	-287.500
188.36	-112.500
188.74	-137.500
189.12	2400.000
189.49	214.286
189.87	-66.667
190.25	200.000
190.63	-100.000
191.00	-166.667
191.38	340.000
191.76	-53.333
192.14	540.000
192.51	-160.000
192.89	-333.333
193.27	0.000
193.65	-77.778
194.02	-242.857
194.40	333.333
194.78	-30.000
195.15	-1400.000
195.53	-81.818
195.91	-266.667
196.29	220.000
196.66	-433.333
197.04	2500.000
197.42	-175.000
197.79	13.333
198.17	-400.000
198.55	-1250.000
198.92	-400.000
199.30	200.000
199.68	-650.000
200.05	-122.222
200.43	-233.333
200.81	-1200.000
201.18	-66.667
201.56	300.000
201.94	-33.333
202.31	-18.182
202.69	-10.000
203.07	-180.000
203.44	633.333
203.82	-300.000
204.19	-475.000
204.57	-325.000
204.95	-1300.000
205.32	0.000
205.70	-0.000
206.08	-3100.000
206.45	-50.000
206.83	-550.000
207.20	-100.000
207.58	-833.333
207.96	-466.667
208.33	-250.000
208.71	-222.222
209.08	190.000
209.46	-171.429
209.84	1050.000
210.21	0.000
210.59	20.000
210.96	600.000
211.34	-233.333
211.71	-200.000
212.09	300.000
212.46	1200.000
212.84	-1600.000
213.22	833.333
213.59	166.667
213.97	0.000
214.34	160.000
214.72	10.000
215.09	-366.667
215.47	-100.000
215.84	-60.000
216.22	-70.000
216.59	-20.000
216.97	-350.000
217.34	950.000
217.72	-142.857
218.09	-333.333
218.47	-400.000
218.84	242.857
219.22	-71.429
219.59	0.000
219.97	242.857
220.34	400.000
220.72	175.000
221.09	-100.000
221.47	0.000
221.84	300.000
222.22	-650.000
222.59	1300.000
222.97	-187.500
223.34	-200.000
223.72	-466.667
224.09	-135.714
224.46	-325.000
224.84	-64.286
225.21	-214.286
225.59	-54.545
225.96	-237.500
226.34	-157.143
226.71	-244.444
227.08	-15.000
227.46	1600.000
227.83	-128.571
228.21	-237.500
228.58	200.000
228.95	-18.750
229.33	-1800.000
229.70	-260.000
230.08	-1050.000
230.45	0.000
230.82	50.000
231.20	-1600.000
231.57	-300.000
231.95	2100.000
232.32	42.857
232.69	-111.111
233.07	-114.286
233.44	-250.000
233.81	-60.000
234.19	0.000
234.56	12.500
234.93	-9.375
235.31	-257.143
235.68	-100.000
236.05	-47.059
236.43	-72.727
236.80	-9.677
237.17	-20.833
237.55	-80.952
237.92	-86.364
238.29	-11.429
238.67	-17.647
239.04	-36.111
239.41	-54.839
239.79	-58.974
240.16	-21.429
240.53	-34.545
240.91	-23.077
241.28	-25.455
241.65	-1.538
242.02	-16.393
242.40	-29.508
242.77	-13.636
243.14	-30.508
243.51	-17.143
243.89	-18.987
244.26	-10.112
244.63	-6.316
245.00	4.211
245.38	-0.847
245.75	-8.850
246.12	-5.600
246.49	-9.449
246.87	-7.317
247.24	-13.559
247.61	-21.186
247.98	-7.042
248.36	-8.392
248.73	-5.063
249.10	-7.006
249.47	-3.509
249.84	-3.409
250.22	-13.690
250.59	-2.825
250.96	-2.618
251.33	1.422
251.70	-1.442
252.08	-2.844
252.45	-5.687
252.82	-9.524
253.19	-4.255
253.56	-4.839
253.94	-5.063
254.31	-3.004
254.68	-7.317
255.05	-3.226
255.42	1.190
255.79	-6.093
256.16	-1.961
256.54	-3.309
256.91	-3.788
257.28	-6.960
257.65	-3.546
258.02	0.314
258.39	-1.672
258.76	-3.041
259.14	-0.926
259.51	-3.279
259.88	-3.659
260.25	2.174
260.62	-6.109
260.99	-2.374
261.36	-3.049
261.73	-2.023
262.10	1.111
262.47	-3.419
262.85	3.143
263.22	-0.860
263.59	-5.538
263.96	-1.449
264.33	-3.523
264.70	-0.552
265.07	-1.923
265.44	0.258
265.81	-4.910
266.18	-3.797
266.55	-2.696
266.92	-0.756
267.29	-3.148
267.66	-1.975
268.03	0.966
268.40	-3.052
268.77	-2.410
269.14	0.000
269.51	1.839
269.88	-4.128
270.25	-3.730
270.62	-1.602
270.99	-0.676
271.36	-2.331
271.73	-0.448
272.10	-2.517
272.47	-1.111
272.84	1.333
273.21	-0.917
273.58	0.440
273.95	-2.412
274.32	-0.905
274.69	0.875
275.06	2.454
275.43	-3.795
275.80	1.426
276.17	0.418
276.54	0.407
276.91	-0.617
277.28	-0.811
277.65	-2.893
278.02	-2.505
278.39	1.375
278.76	-1.793
279.13	0.198
279.50	0.994
279.87	-1.903
280.23	-1.215
280.60	-0.994
280.97	-0.777
281.34	-0.580
281.71	0.385
282.08	2.823
282.45	-4.481
282.82	-0.194
283.19	-1.273
283.56	1.648
283.92	0.530
284.29	-2.230
284.66	-0.899
285.03	0.535
285.40	-0.738
285.77	-0.175
286.14	-1.805
286.51	-2.309
286.87	-0.726
287.24	2.218
287.61	-1.488
287.98	-0.520
288.35	-1.322
288.72	-0.509
289.08	-3.559
289.45	-0.505
289.82	-2.768
290.19	0.985
290.56	-1.157
290.93	-1.431
291.29	-1.621
291.66	-0.644
292.03	0.000
292.40	-0.904
292.77	1.553
293.13	0.488
293.50	0.446
293.87	-0.613
294.24	0.603
294.60	-1.667
294.97	0.455
295.34	-0.741
295.71	0.298
296.08	-1.690
296.44	-0.715
296.81	-0.142
297.18	-1.408
297.55	-0.141
297.91	2.232
298.28	-0.822
298.65	-1.534
299.02	1.070
299.38	-0.401
299.75	0.136
300.12	1.154
300.48	1.279
300.85	-0.917
301.22	0.129
301.59	-0.910
301.95	2.267
302.32	-1.043
302.69	0.734
303.05	0.611
303.42	-0.750
303.79	-0.359
304.15	0.592
304.52	0.350
304.89	0.472
305.25	-0.244
305.62	-0.705
305.99	2.238
306.35	0.999
306.72	-1.139
307.09	1.022
307.45	-1.022
307.82	-0.223
308.19	0.671
308.55	0.763
308.92	-0.967
309.29	0.541
309.65	0.530
310.02	1.404
310.38	0.541
310.75	1.742
311.12	0.930
311.48	2.296
311.85	0.824
312.22	1.442
312.58	2.543
312.95	1.121
313.31	2.098
313.68	3.116
314.05	2.473
314.41	0.503
314.78	1.099
315.14	2.468
315.51	0.811
315.87	2.033
316.24	3.013
316.61	4.511
316.97	3.980
317.34	2.890
317.70	3.154
318.07	3.731
318.43	3.558
318.80	4.413
319.16	3.002
319.53	3.665
319.89	4.139
320.26	4.510
320.62	3.462
320.99	4.677
321.35	3.054
321.72	3.378
322.08	4.154
322.45	3.267
322.81	5.187
323.18	3.939
323.54	5.638
323.91	5.283
324.27	5.418
324.64	5.210
325.00	6.108
325.37	6.425
325.73	7.524
326.10	6.023
326.46	7.093
326.83	7.404
327.19	6.505
327.56	7.240
327.92	7.477
328.29	8.139
328.65	7.364
329.01	9.276
329.38	9.099
329.74	9.524
330.11	8.613
330.47	8.901
330.84	9.716
331.20	8.394
331.56	9.389
331.93	9.236
332.29	9.954
332.66	9.219
333.02	10.045
333.38	9.767
333.75	10.062
334.11	9.511
334.48	8.561
334.84	11.024
335.20	10.018
335.57	10.108
335.93	12.175
336.29	10.275
336.66	10.661
337.02	10.541
337.38	9.804
337.75	10.448
338.11	10.197
338.47	9.520
338.84	9.619
339.20	10.369
339.56	11.676
339.93	9.259
340.29	10.540
340.65	9.615
341.02	11.467
341.38	10.110
341.74	10.754
342.11	10.324
342.47	10.472
342.83	9.992
343.20	9.735
343.56	10.122
343.92	10.768
344.28	12.195
344.65	10.561
345.01	10.000
345.37	10.548
345.73	9.820
346.10	10.057
346.46	9.748
346.82	9.062
347.19	10.107
347.55	10.032
347.91	10.945
348.27	10.263
348.63	10.258
349.00	11.695
349.36	9.914
349.72	11.385
350.08	9.062
350.45	9.614
350.81	10.032
351.17	11.415
351.53	10.183
351.89	10.348
352.26	10.233
352.62	11.367
352.98	10.601
353.34	10.951
353.70	10.656
354.07	10.936
354.43	11.858
354.79	11.569
355.15	10.623
355.51	10.703
355.87	11.146
356.24	10.882
356.60	12.168
356.96	11.239
357.32	10.293
357.68	10.268
358.04	10.624
358.40	10.286
358.77	9.969
359.13	10.252
359.49	11.036
359.85	11.128
360.21	10.883
360.57	11.145
360.93	11.704
361.29	10.912
361.66	10.061
362.02	10.947
362.38	11.959
362.74	11.429
363.10	10.832
363.46	12.464
363.82	11.516
364.18	11.939
364.54	12.366
364.90	11.391
365.26	11.555
365.62	11.761
365.98	11.735
366.35	11.761
366.71	11.205
367.07	11.785
367.43	12.903
367.79	12.165
368.15	10.526
368.51	11.888
368.87	13.187
369.23	13.123
369.59	12.986
369.95	13.390
370.31	13.221
370.67	11.786
371.03	11.880
371.39	12.518
371.75	13.019
372.11	12.841
372.47	12.364
372.83	13.143
373.19	12.857
373.55	13.160
373.91	12.660
374.27	12.868
374.63	12.284
374.99	14.256
375.35	12.315
375.71	13.639
376.07	13.484
376.42	12.384
376.78	13.725
377.14	13.627
377.50	13.475
377.86	14.174
378.22	13.945
378.58	13.712
378.94	14.180
379.30	13.772
379.66	14.511
380.02	14.379
380.38	14.502
380.74	13.423
381.09	14.470
381.45	15.036
381.81	14.882
382.17	15.038
382.53	14.286
382.89	14.234
383.25	15.111
383.61	15.212
383.97	15.370
384.32	14.956
384.68	14.752
385.04	15.217
385.40	15.277
385.76	15.427
386.12	15.428
386.48	15.718
386.83	15.890
387.19	16.079
387.55	14.961
387.91	16.301
388.27	15.139
388.62	16.166
388.98	15.566
389.34	16.463
389.70	15.773
390.06	15.973
390.42	16.667
390.77	16.467
391.13	16.025
391.49	16.095
391.85	16.085
392.20	16.323
392.56	16.127
392.92	16.315
393.28	16.820
393.64	17.138
393.99	16.492
394.35	16.971
394.71	16.677
395.07	16.510
395.42	16.031
395.78	15.965
396.14	16.822
396.50	16.820
396.85	16.841
397.21	16.889
397.57	16.657
397.92	17.506
398.28	17.056
398.64	16.181
399.00	17.978
399.35	16.347
399.71	17.364
400.07	17.194
400.42	16.788
400.78	15.981
401.14	15.868
401.49	17.748
401.85	17.389
402.21	17.640
402.57	17.476
402.92	17.873
403.28	17.034
403.63	16.836
403.99	17.029
404.35	17.150
404.70	17.730
405.06	17.359
405.42	16.298
405.77	16.629
406.13	17.036
406.49	17.316
406.84	17.037
407.20	16.902
407.55	16.846
407.91	16.904
408.27	17.463
408.62	17.378
408.98	17.283
409.34	16.332
409.69	16.950
410.05	17.950
410.40	17.597
410.76	17.427
411.11	17.394
411.47	17.711
411.83	18.521
412.18	17.327
412.54	17.084
412.89	17.618
413.25	17.237
413.60	16.768
413.96	16.882
414.31	17.370
414.67	16.889
415.03	17.206
415.38	19.063
415.74	18.363
416.09	18.223
416.45	17.857
416.80	17.815
417.16	18.272
417.51	18.516
417.87	18.317
418.22	17.952
418.58	18.742
418.93	17.964
419.29	18.130
419.64	17.776
420.00	18.226
420.35	18.096
420.71	18.788
421.06	19.172
421.42	17.623
421.77	18.425
422.12	18.523
422.48	17.691
422.83	17.882
423.19	18.597
423.54	18.156
423.90	18.450
424.25	17.986
424.61	19.361
424.96	19.544
425.31	18.278
425.67	18.682
426.02	18.703
426.38	19.117
426.73	19.112
427.09	18.750
427.44	18.693
427.79	18.547
428.15	19.210
428.50	18.827
428.85	19.005
429.21	18.982
429.56	20.052
429.92	19.389
430.27	19.043
430.62	19.383
430.98	19.341
431.33	19.264
431.68	19.893
432.04	19.978
432.39	19.430
432.74	20.144
433.10	19.584
433.45	18.423
433.80	19.821
434.16	19.774
434.51	20.767
434.86	20.387
435.22	20.156
435.57	19.461
435.92	19.695
436.28	19.881
436.63	18.937
436.98	19.187
437.34	20.201
437.69	19.078
438.04	19.796
438.39	20.638
438.75	19.267
439.10	20.877
439.45	19.372
439.81	20.060
440.16	19.875
440.51	20.412
440.86	19.607
441.22	19.900
441.57	20.316
441.92	20.512
442.27	19.589
442.63	19.903
442.98	20.655
443.33	19.495
443.68	20.063
444.03	20.039
444.39	20.460
444.74	20.760
445.09	20.175
445.44	21.216
445.79	20.602
446.15	20.811
446.50	20.250
446.85	20.318
447.20	20.378
447.55	20.442
447.91	21.898
448.26	20.112
448.61	20.770
448.96	21.008
449.31	20.349
449.66	20.836
450.02	20.166
450.37	20.580
450.72	19.209
451.07	21.119
451.42	20.012
451.77	21.424
452.12	20.858
452.47	20.277
452.83	20.559
453.18	21.252
453.53	20.833
453.88	21.711
454.23	20.073
454.58	21.131
454.93	21.159
455.28	21.160
455.63	21.499
455.98	21.506
456.34	20.712
456.69	21.451
457.04	20.467
457.39	20.933
457.74	20.732
458.09	21.230
458.44	20.670
458.79	21.357
459.14	21.506
459.49	21.255
459.84	21.641
460.19	21.599
460.54	21.416
460.89	20.516
461.24	20.826
461.59	21.454
461.94	21.770
462.29	21.858
462.64	21.476
462.99	21.419
463.34	20.189
463.69	21.438
464.04	21.207
464.39	21.326
464.74	20.804
465.09	21.106
465.44	21.263
465.79	21.827
466.14	22.152
466.49	20.380
466.84	21.729
467.19	22.070
467.54	20.886
467.89	21.517
468.24	21.675
468.59	21.799
468.94	21.222
469.29	20.793
469.64	21.361
469.99	21.675
470.34	21.710
470.68	22.020
471.03	22.299
471.38	21.944
471.73	21.189
472.08	21.888
472.43	21.429
472.78	21.800
473.13	21.074
473.48	22.846
473.83	21.650
474.17	21.975
474.52	22.251
474.87	21.620
475.22	21.062
475.57	22.000
475.92	22.030
476.27	21.657
476.61	22.141
476.96	22.247
477.31	22.605
477.66	22.247
478.01	21.718
478.36	21.844
478.70	22.851
479.05	22.607
479.40	22.487
479.75	21.916
480.10	22.321
480.45	22.099
480.79	22.211
481.14	22.529
481.49	22.362
481.84	22.977
482.19	22.385
482.53	22.491
482.88	21.927
483.23	22.160
483.58	22.757
483.92	22.074
484.27	21.887
484.62	21.857
484.97	22.019
485.31	21.760
485.66	21.619
486.01	21.085
486.36	22.253
486.70	22.658
487.05	22.428
487.40	22.837
487.75	22.291
488.09	21.773
488.44	22.497
488.79	22.391
489.13	22.442
489.48	22.471
489.83	23.493
490.17	22.812
490.52	22.736
490.87	22.032
491.22	22.933
491.56	22.407
491.91	22.615
492.26	22.406
492.60	21.884
492.95	22.656
493.30	22.535
493.64	22.379
493.99	23.184
494.34	22.619
494.68	23.361
495.03	22.992
495.37	21.878
495.72	23.035
496.07	22.712
496.41	23.390
496.76	22.922
497.11	22.751
497.45	23.276
497.80	22.911
498.14	23.330
498.49	23.405
498.84	23.301
499.18	23.246
499.53	23.137
499.87	22.104
500.22	22.941
500.56	22.961
500.91	23.103
501.26	23.872
501.60	22.918
501.95	24.155
502.29	23.240
502.64	23.338
502.98	23.814
503.33	23.167
503.67	23.180
504.02	24.288
504.36	23.382
504.71	23.404
505.06	22.317
505.40	24.351
505.75	23.526
506.09	24.166
506.44	24.261
506.78	23.432
507.13	23.738
507.47	23.474
507.82	23.593
508.16	24.560
508.51	23.545
508.85	23.913
509.19	23.653
509.54	23.573
509.88	24.202
510.23	23.952
510.57	24.550
510.92	24.060
511.26	24.189
511.61	24.082
511.95	24.192
512.30	23.969
512.64	22.760
512.98	24.532
513.33	23.613
513.67	24.009
514.02	24.553
514.36	24.321
514.70	24.052
515.05	24.929
515.39	24.452
515.74	25.887
516.08	24.265
516.42	24.873
516.77	24.899
517.11	25.000
517.46	25.120
517.80	25.933
518.14	24.638
518.49	24.447
518.83	25.460
519.17	24.452
519.52	24.870
519.86	26.105
520.20	25.183
520.55	25.354
520.89	25.924
521.23	25.641
521.58	25.643
521.92	25.902
522.26	25.016
522.61	25.539
522.95	23.995
523.29	25.266
523.64	25.547
523.98	25.843
524.32	25.079
524.66	25.590
525.01	24.920
525.35	25.709
525.69	26.025
526.04	25.718
526.38	26.098
526.72	25.032
527.06	26.172
527.41	25.677
527.75	24.884
528.09	26.075
528.43	26.361
528.78	25.942
529.12	26.312
529.46	26.160
529.80	25.242
530.15	26.014
530.49	25.291
530.83	25.868
531.17	24.781
531.51	25.385
531.86	26.267
532.20	25.776
532.54	26.203
532.88	25.560
533.22	24.933
533.57	25.522
533.91	25.780
534.25	25.896
534.59	25.609
534.93	25.451
535.27	26.306
535.62	26.598
535.96	26.438
536.30	25.785
536.64	25.896
536.98	26.130
537.32	25.639
537.66	25.526
538.01	25.773
538.35	26.419
538.69	26.003
539.03	26.202
539.37	25.549
539.71	25.884
540.05	26.936
540.39	25.831
540.73	26.054
541.07	27.049
541.42	25.861
541.76	25.382
542.10	26.806
542.44	27.182
542.78	25.712
543.12	25.662
543.46	25.137
543.80	25.552
544.14	25.453
544.48	27.165
544.82	26.455
545.16	26.157
545.50	25.572
545.84	26.078
546.18	26.838
546.52	25.960
546.86	25.997
547.20	25.527
547.54	25.413
547.88	26.145
548.22	25.950
548.56	25.384
548.90	25.809
549.24	26.629
549.58	26.323
549.92	25.159
550.26	27.023
550.60	25.818
550.94	25.766
551.28	26.110
551.62	25.849
551.96	25.832
552.30	25.157
552.64	24.842
552.98	26.840
553.32	24.892
553.66	27.253
554.00	26.084
554.34	26.715
554.68	25.804
555.02	26.266
555.36	26.671
555.69	25.716
556.03	25.333
556.37	25.676
556.71	26.485
557.05	26.312
557.39	25.464
557.73	26.769
558.07	27.280
558.41	27.674
558.75	24.791
559.08	24.825
559.42	26.417
559.76	26.840
560.10	26.249
560.44	26.662
560.78	25.818
561.12	26.225
561.45	26.986
561.79	26.481
562.13	26.227
562.47	26.821
562.81	24.823
563.15	26.382
563.48	25.086
563.82	26.234
564.16	25.558
564.50	25.941
564.84	26.521
565.17	26.061
565.51	26.467
565.85	26.234
566.19	27.009
566.52	26.549
566.86	26.169
567.20	26.634
567.54	27.289
567.88	25.349
568.21	25.951
568.55	25.875
568.89	24.851
569.23	25.081
569.56	25.515
569.90	25.570
570.24	25.179
570.57	24.991
570.91	25.332
571.25	25.195
571.59	24.758
571.92	24.494
572.26	25.225
572.60	25.411
572.93	24.868
573.27	25.061
573.61	24.520
573.95	24.667
574.28	24.521
574.62	24.682
574.96	24.352
575.29	24.746
575.63	24.768
575.97	24.353
576.30	24.719
576.64	25.170
576.98	24.533
577.31	24.243
577.65	25.207
577.98	24.372
578.32	24.668
578.66	25.028
578.99	24.695
579.33	24.039
579.67	25.006
580.00	24.926
580.34	24.560
580.67	24.687
581.01	24.200
581.35	24.679
581.68	24.580
582.02	24.692
582.35	24.551
582.69	25.035
583.02	25.199
583.36	25.191
583.70	24.629
584.03	25.485
584.37	25.007
584.70	24.610
585.04	24.253
585.37	24.153
585.71	24.698
586.04	24.772
586.38	23.897
586.72	25.028
587.05	25.234
587.39	24.638
587.72	24.847
588.06	25.309
588.39	24.665
588.73	25.226
589.06	25.288
589.40	25.455
589.73	25.177
590.07	25.237
590.40	25.240
590.73	25.110
591.07	25.533
591.40	25.823
591.74	25.543
592.07	25.270
592.41	25.180
592.74	25.711
593.08	24.133
593.41	25.197
593.75	24.332
594.08	25.521
594.41	25.508
594.75	25.255
595.08	24.812
595.42	25.650
595.75	24.991
596.09	25.378
596.42	25.777
596.75	25.183
597.09	26.358
597.42	25.229
597.75	26.041
598.09	25.576
598.42	24.702
598.76	25.083
599.09	25.414
599.42	24.875
599.76	25.217
600.09	25.229
600.42	25.826
600.76	24.482
601.09	24.307
601.42	24.614
601.76	24.766
602.09	25.399
602.42	25.432
602.76	24.553
603.09	24.516
603.42	25.342
603.76	25.209
604.09	25.190
604.42	24.646
604.76	24.291
605.09	24.910
605.42	25.266
605.75	25.528
606.09	24.907
606.42	25.094
606.75	25.032
607.09	25.540
607.42	24.956
607.75	25.342
608.08	25.350
608.42	24.503
608.75	24.486
609.08	25.280
609.41	25.262
609.75	24.671
610.08	26.569
610.41	25.494
610.74	26.064
611.07	25.659
611.41	24.811
611.74	26.067
612.07	25.403
612.40	25.320
612.73	25.579
613.07	24.106
613.40	26.054
613.73	25.286
614.06	25.590
614.39	25.761
614.72	25.084
615.06	25.054
615.39	25.122
615.72	25.421
616.05	24.627
616.38	25.189
616.71	26.246
617.05	25.875
617.38	24.706
617.71	25.061
618.04	25.093
618.37	25.220
618.70	26.206
619.03	26.134
619.36	25.370
619.69	26.131
620.03	25.551
620.36	25.527
620.69	26.131
621.02	26.636
621.35	27.177
621.68	25.000
622.01	25.081
622.34	26.087
622.67	26.328
623.00	26.779
623.33	26.940
623.66	25.775
623.99	26.165
624.32	25.446
624.65	26.196
624.99	26.064
625.32	26.422
625.65	26.573
625.98	25.196
626.31	26.427
626.64	26.695
626.97	27.568
627.30	26.809
627.63	26.079
627.96	26.371
628.29	26.287
628.62	25.692
628.95	27.854
629.28	26.316
629.61	26.693
629.94	27.032
630.26	25.944
630.59	27.337
630.92	25.826
631.25	27.117
631.58	26.455
631.91	24.787
632.24	24.889
632.57	27.111
632.90	28.046
633.23	26.986
633.56	25.848
633.89	27.358
634.22	27.509
