SpectraSuite Data File
++++++++++++++++++++++++++++++++++++
Date: Sat May 16 11:22:11 PDT 2015
User: schluterlab
Dark Spectrum Present: Yes
Reference Spectrum Present: Yes
Number of Sampled Component Spectra: 1
Spectrometers: USB2E3373
Integration Time (usec): 3000 (USB2E3373)
Spectra Averaged: 3 (USB2E3373)
Boxcar Smoothing: 0 (USB2E3373)
Correct for Electrical Dark: No (USB2E3373)
Strobe/Lamp Enabled: No (USB2E3373)
Correct for Detector Non-linearity: No (USB2E3373)
Correct for Stray Light: No (USB2E3373)
Number of Pixels in Processed Spectrum: 2048
>>>>>Begin Processed Spectral Data<<<<<
178.53	0.000
178.91	100.000
179.29	366.667
179.67	-900.000
180.04	-38.462
180.42	1700.000
180.80	475.000
181.18	300.000
181.56	-50.000
181.94	300.000
182.31	375.000
182.69	15.385
183.07	-366.667
183.45	1000.000
183.83	366.667
184.20	-242.857
184.58	-100.000
184.96	-325.000
185.34	118.750
185.72	-625.000
186.09	250.000
186.47	-300.000
186.85	-100.000
187.23	-37.500
187.61	-100.000
187.98	-300.000
188.36	-87.500
188.74	-187.500
189.12	900.000
189.49	328.571
189.87	-41.667
190.25	150.000
190.63	-100.000
191.00	-66.667
191.38	340.000
191.76	-66.667
192.14	420.000
192.51	-160.000
192.89	-300.000
193.27	0.000
193.65	-111.111
194.02	-42.857
194.40	466.667
194.78	-100.000
195.15	-1000.000
195.53	-136.364
195.91	-383.333
196.29	400.000
196.66	-633.333
197.04	2000.000
197.42	-175.000
197.79	40.000
198.17	-133.333
198.55	-550.000
198.92	-1200.000
199.30	212.500
199.68	-950.000
200.05	-100.000
200.43	-200.000
200.81	-1400.000
201.18	-91.667
201.56	271.429
201.94	-66.667
202.31	13.636
202.69	-10.000
203.07	-70.000
203.44	666.667
203.82	-333.333
204.19	-500.000
204.57	-475.000
204.95	-900.000
205.32	-6.250
205.70	1400.000
206.08	-2300.000
206.45	-11.111
206.83	-650.000
207.20	-250.000
207.58	-666.667
207.96	-300.000
208.33	-175.000
208.71	-144.444
209.08	200.000
209.46	-185.714
209.84	500.000
210.21	0.000
210.59	65.000
210.96	200.000
211.34	-266.667
211.71	-200.000
212.09	325.000
212.46	1350.000
212.84	-2500.000
213.22	500.000
213.59	200.000
213.97	-133.333
214.34	110.000
214.72	-80.000
215.09	-500.000
215.47	-200.000
215.84	-10.000
216.22	-100.000
216.59	-6.667
216.97	-550.000
217.34	600.000
217.72	-85.714
218.09	-266.667
218.47	-200.000
218.84	142.857
219.22	42.857
219.59	0.000
219.97	414.286
220.34	200.000
220.72	150.000
221.09	-107.692
221.47	0.000
221.84	333.333
222.22	-300.000
222.59	200.000
222.97	-125.000
223.34	-600.000
223.72	-233.333
224.09	-85.714
224.46	-500.000
224.84	-78.571
225.21	-171.429
225.59	-27.273
225.96	-287.500
226.34	-200.000
226.71	-66.667
227.08	-30.000
227.46	2300.000
227.83	-85.714
228.21	-162.500
228.58	600.000
228.95	-25.000
229.33	-2700.000
229.70	-200.000
230.08	-850.000
230.45	0.000
230.82	-66.667
231.20	-1000.000
231.57	-350.000
231.95	1400.000
232.32	0.000
232.69	-122.222
233.07	-257.143
233.44	-1050.000
233.81	-86.667
234.19	-133.333
234.56	-87.500
234.93	3.125
235.31	-157.143
235.68	-157.143
236.05	-47.059
236.43	-63.636
236.80	-9.677
237.17	-33.333
237.55	-28.571
237.92	-95.455
238.29	-11.429
238.67	-2.941
239.04	-47.222
239.41	-9.677
239.79	-69.231
240.16	-7.143
240.53	-36.364
240.91	-2.564
241.28	-16.364
241.65	-4.615
242.02	-11.475
242.40	-16.393
242.77	-33.333
243.14	-13.559
243.51	-31.429
243.89	-16.456
244.26	-23.596
244.63	-3.158
245.00	-4.211
245.38	5.085
245.75	-5.310
246.12	-5.600
246.49	-1.575
246.87	-10.569
247.24	-14.407
247.61	-16.102
247.98	-14.789
248.36	-9.790
248.73	1.899
249.10	-11.465
249.47	3.509
249.84	-1.705
250.22	-18.452
250.59	-6.780
250.96	-1.571
251.33	1.422
251.70	1.923
252.08	-4.739
252.45	-2.370
252.82	-7.619
253.19	-1.277
253.56	-2.823
253.94	-3.376
254.31	-3.433
254.68	-1.220
255.05	0.403
255.42	-1.984
255.79	-3.584
256.16	-3.529
256.54	-1.471
256.91	-4.167
257.28	-5.495
257.65	-2.128
258.02	0.629
258.39	-3.010
258.76	-4.054
259.14	-0.926
259.51	2.623
259.88	-2.744
260.25	1.242
260.62	-2.894
260.99	-5.638
261.36	1.220
261.73	-0.578
262.10	-0.833
262.47	-1.709
262.85	0.000
263.22	-1.146
263.59	-6.154
263.96	-3.188
264.33	0.813
264.70	-1.381
265.07	-3.022
265.44	-1.809
265.81	-0.517
266.18	-3.038
266.55	-1.225
266.92	-0.504
267.29	-1.211
267.66	-3.210
268.03	0.966
268.40	0.000
268.77	0.000
269.14	-3.016
269.51	-0.690
269.88	-2.064
270.25	-3.263
270.62	-1.373
270.99	-0.450
271.36	-1.166
271.73	-2.242
272.10	0.229
272.47	-3.333
272.84	2.222
273.21	-0.459
273.58	-0.220
273.95	-1.316
274.32	-1.131
274.69	0.875
275.06	1.431
275.43	-1.562
275.80	0.611
276.17	-0.418
276.54	1.018
276.91	-0.206
277.28	-0.609
277.65	0.000
278.02	0.418
278.39	0.196
278.76	-2.390
279.13	1.383
279.50	0.000
279.87	-2.326
280.23	1.012
280.60	-2.187
280.97	-3.883
281.34	-0.774
281.71	1.923
282.08	-1.008
282.45	-3.055
282.82	-1.744
283.19	-3.273
283.56	1.099
283.92	0.000
284.29	-1.115
284.66	0.000
285.03	1.604
285.40	0.738
285.77	0.175
286.14	-1.805
286.51	1.066
286.87	0.181
287.24	-0.171
287.61	0.496
287.98	-2.426
288.35	-2.810
288.72	-0.849
289.08	-1.695
289.45	0.673
289.82	-1.557
290.19	0.657
290.56	-1.488
290.93	0.636
291.29	-1.135
291.66	0.161
292.03	1.099
292.40	0.151
292.77	-0.932
293.13	-1.138
293.50	1.634
293.87	0.153
294.24	2.262
294.60	-0.152
294.97	2.124
295.34	0.593
295.71	0.595
296.08	-2.304
296.44	0.000
296.81	-1.282
297.18	0.282
297.55	1.130
297.91	1.116
298.28	-0.137
298.65	-0.418
299.02	1.604
299.38	0.134
299.75	0.951
300.12	0.513
300.48	1.662
300.85	0.131
301.22	1.552
301.59	0.260
301.95	0.882
302.32	-0.782
302.69	1.714
303.05	0.366
303.42	0.000
303.79	1.196
304.15	0.829
304.52	0.583
304.89	-0.354
305.25	-0.488
305.62	0.000
305.99	1.649
306.35	1.887
306.72	-0.228
307.09	2.611
307.45	1.930
307.82	-0.559
308.19	2.125
308.55	1.307
308.92	0.537
309.29	0.432
309.65	1.166
310.02	2.592
310.38	0.541
310.75	2.357
311.12	2.273
311.48	2.088
311.85	1.339
312.22	1.442
312.58	2.543
312.95	2.345
313.31	1.598
313.68	2.613
314.05	2.967
314.41	1.107
314.78	2.098
315.14	2.863
315.51	1.722
315.87	2.227
316.24	2.721
316.61	3.839
316.97	3.781
317.34	2.987
317.70	2.505
318.07	2.985
318.43	4.026
318.80	4.225
319.16	2.533
319.53	3.008
319.89	2.822
320.26	3.922
320.62	2.981
320.99	3.781
321.35	2.463
321.72	2.252
322.08	3.264
322.45	3.069
322.81	3.939
323.18	3.362
323.54	3.604
323.91	5.097
324.27	4.563
324.64	4.022
325.00	6.021
325.37	4.525
325.73	7.437
326.10	3.986
326.46	5.342
326.83	5.362
327.19	5.922
327.56	5.963
327.92	6.202
328.29	6.061
328.65	5.636
329.01	5.830
329.38	6.334
329.74	7.875
330.11	6.981
330.47	7.629
330.84	7.791
331.20	6.769
331.56	7.019
331.93	7.549
332.29	6.758
332.66	7.550
333.02	6.968
333.38	7.885
333.75	8.459
334.11	8.533
334.48	8.561
334.84	8.574
335.20	8.245
335.57	8.123
335.93	8.863
336.29	7.883
336.66	7.313
337.02	8.829
337.38	8.289
337.75	8.428
338.11	7.066
338.47	8.719
338.84	7.985
339.20	8.260
339.56	9.091
339.93	8.025
340.29	7.883
340.65	7.955
341.02	8.853
341.38	7.919
341.74	8.298
342.11	8.362
342.47	7.554
342.83	7.641
343.20	7.942
343.56	8.490
343.92	10.017
344.28	9.167
344.65	7.921
345.01	8.487
345.37	8.970
345.73	8.674
346.10	7.850
346.46	8.123
346.82	8.500
347.19	7.888
347.55	8.828
347.91	8.898
348.27	8.194
348.63	8.885
349.00	9.228
349.36	7.260
349.72	10.430
350.08	7.859
350.45	7.644
350.81	8.678
351.17	7.958
351.53	7.637
351.89	7.518
352.26	8.295
352.62	9.601
352.98	7.674
353.34	8.393
353.70	8.340
354.07	8.576
354.43	9.407
354.79	8.082
355.15	8.147
355.51	8.594
355.87	8.300
356.24	7.625
356.60	9.186
356.96	8.545
357.32	8.789
357.68	8.659
358.04	8.237
358.40	7.734
358.77	9.351
359.13	9.258
359.49	8.995
359.85	8.613
360.21	8.828
360.57	8.961
360.93	9.630
361.29	8.819
361.66	8.155
362.02	8.728
362.38	9.244
362.74	9.451
363.10	8.752
363.46	9.829
363.82	9.257
364.18	10.275
364.54	10.579
364.90	9.504
365.26	9.130
365.62	9.836
365.98	8.819
366.35	8.944
366.71	8.457
367.07	9.386
367.43	10.844
367.79	9.691
368.15	8.962
368.51	10.769
368.87	11.058
369.23	10.035
369.59	10.347
369.95	10.994
370.31	10.689
370.67	9.834
371.03	9.621
371.39	11.315
371.75	10.300
372.11	10.976
372.47	10.557
372.83	11.057
373.19	10.500
373.55	10.767
373.91	11.807
374.27	11.362
374.63	10.973
374.99	12.031
375.35	10.902
375.71	11.816
376.07	11.704
376.42	10.066
376.78	11.699
377.14	11.390
377.50	12.186
377.86	11.638
378.22	12.060
378.58	11.797
378.94	12.454
379.30	11.700
379.66	12.447
380.02	12.062
380.38	11.964
380.74	12.544
381.09	13.415
381.45	12.709
381.81	12.220
382.17	13.221
382.53	12.280
382.89	13.278
383.25	13.245
383.61	13.384
383.97	13.717
384.32	13.079
384.68	13.906
385.04	13.647
385.40	14.242
385.76	13.841
386.12	13.179
386.48	13.057
386.83	13.865
387.19	14.824
387.55	14.234
387.91	14.286
388.27	12.786
388.62	13.462
388.98	14.234
389.34	15.239
389.70	14.190
390.06	13.611
390.42	15.449
390.77	15.079
391.13	15.155
391.49	14.910
391.85	15.461
392.20	14.988
392.56	15.211
392.92	14.946
393.28	15.385
393.64	15.274
393.99	15.877
394.35	16.363
394.71	15.998
395.07	16.321
395.42	14.779
395.78	14.959
396.14	16.075
396.50	16.208
396.85	15.176
397.21	15.310
397.57	16.474
397.92	15.632
398.28	16.000
398.64	15.526
399.00	15.618
399.35	16.065
399.71	16.551
400.07	16.418
400.42	16.423
400.78	15.921
401.14	15.988
401.49	15.566
401.85	15.314
402.21	15.554
402.57	16.141
402.92	16.614
403.28	15.809
403.63	15.339
403.99	15.724
404.35	15.519
404.70	16.618
405.06	16.148
405.42	15.621
405.77	16.742
406.13	16.184
406.49	16.477
406.84	16.077
407.20	16.726
407.55	16.466
407.91	15.609
408.27	17.034
408.62	16.176
408.98	16.070
409.34	16.271
409.69	16.131
410.05	16.737
410.40	16.432
410.76	16.242
411.11	16.022
411.47	16.368
411.83	17.115
412.18	16.089
412.54	15.680
412.89	17.193
413.25	15.289
413.60	15.614
413.96	16.328
414.31	16.697
414.67	16.635
415.03	16.624
415.38	16.656
415.74	17.010
416.09	15.921
416.45	15.542
416.80	16.190
417.16	15.349
417.51	17.137
417.87	16.311
418.22	15.803
418.58	16.239
418.93	17.474
419.29	16.248
419.64	16.583
420.00	17.618
420.35	16.499
420.71	16.807
421.06	16.982
421.42	16.569
421.77	17.141
422.12	17.403
422.48	16.996
422.83	17.483
423.19	16.871
423.54	17.637
423.90	17.004
424.25	17.421
424.61	17.129
424.96	18.315
425.31	17.105
425.67	18.395
426.02	16.466
426.38	17.604
426.73	17.241
427.09	17.096
427.44	17.898
427.79	16.744
428.15	18.253
428.50	17.830
428.85	17.266
429.21	16.602
429.56	17.813
429.92	17.285
430.27	17.149
430.62	18.234
430.98	16.989
431.33	18.463
431.68	17.802
432.04	17.795
432.39	18.462
432.74	17.806
433.10	17.389
433.45	17.214
433.80	17.133
434.16	17.732
434.51	18.411
434.86	18.219
435.22	17.539
435.57	17.013
435.92	18.581
436.28	17.211
436.63	17.185
436.98	17.812
437.34	17.956
437.69	17.270
438.04	16.960
438.39	18.592
438.75	17.520
439.10	17.490
439.45	17.743
439.81	17.590
440.16	18.342
440.51	18.529
440.86	18.276
441.22	18.021
441.57	18.368
441.92	18.465
442.27	18.344
442.63	18.616
442.98	17.551
443.33	18.342
443.68	18.291
444.03	18.075
444.39	17.572
444.74	19.218
445.09	18.366
445.44	18.908
445.79	17.746
446.15	18.565
446.50	17.910
446.85	18.112
447.20	17.978
447.55	19.116
447.91	18.529
448.26	18.156
448.61	17.544
448.96	18.880
449.31	18.320
449.66	17.974
450.02	18.172
450.37	18.029
450.72	17.910
451.07	18.982
451.42	18.897
451.77	18.432
452.12	18.832
452.47	18.955
452.83	18.462
453.18	18.406
453.53	18.346
453.88	18.959
454.23	18.501
454.58	19.640
454.93	18.388
455.28	18.483
455.63	19.226
455.98	18.735
456.34	18.488
456.69	19.199
457.04	19.053
457.39	18.062
457.74	18.606
458.09	18.910
458.44	20.381
458.79	19.114
459.14	19.624
459.49	19.479
459.84	19.168
460.19	18.735
460.54	18.391
460.89	19.787
461.24	18.822
461.59	19.402
461.94	18.778
462.29	18.940
462.64	18.709
462.99	19.545
463.34	18.974
463.69	18.957
464.04	19.508
464.39	18.459
464.74	19.563
465.09	18.821
465.44	19.966
465.79	19.120
466.14	20.196
466.49	19.229
466.84	18.727
467.19	19.015
467.54	19.114
467.89	19.420
468.24	19.062
468.59	18.988
468.94	19.807
469.29	18.908
469.64	19.003
469.99	20.324
470.34	19.238
470.68	19.549
471.03	19.546
471.38	19.306
471.73	20.140
472.08	19.143
472.43	18.983
472.78	19.467
473.13	18.224
473.48	19.464
473.83	18.734
474.17	19.554
474.52	20.396
474.87	20.280
475.22	19.410
475.57	18.722
475.92	19.168
476.27	19.371
476.61	19.831
476.96	19.508
477.31	19.214
477.66	18.650
478.01	20.583
478.36	19.487
478.70	20.662
479.05	19.794
479.40	19.845
479.75	19.368
480.10	19.940
480.45	19.439
480.79	20.632
481.14	19.819
481.49	20.281
481.84	19.279
482.19	19.918
482.53	20.218
482.88	20.171
483.23	20.188
483.58	20.074
483.92	19.924
484.27	19.761
484.62	19.957
484.97	19.953
485.31	19.136
485.66	19.578
486.01	19.632
486.36	19.823
486.70	20.419
487.05	19.874
487.40	19.818
487.75	20.017
488.09	19.518
488.44	19.756
488.79	19.703
489.13	19.855
489.48	20.310
489.83	20.655
490.17	20.157
490.52	20.380
490.87	19.630
491.22	19.897
491.56	20.139
491.91	20.802
492.26	20.094
492.60	19.791
492.95	20.133
493.30	20.200
493.64	20.545
493.99	19.742
494.34	20.000
494.68	20.740
495.03	19.694
495.37	20.305
495.72	20.580
496.07	20.131
496.41	20.380
496.76	19.863
497.11	20.490
497.45	20.546
497.80	20.510
498.14	20.629
498.49	20.442
498.84	19.806
499.18	21.540
499.53	20.068
499.87	19.739
500.22	20.784
500.56	20.560
500.91	20.591
501.26	20.767
501.60	20.221
501.95	21.498
502.29	20.170
502.64	21.075
502.98	20.220
503.33	20.724
503.67	20.067
504.02	20.280
504.36	20.490
504.71	20.314
505.06	20.170
505.40	21.457
505.75	20.528
506.09	20.627
506.44	20.652
506.78	20.672
507.13	20.803
507.47	20.762
507.82	21.218
508.16	21.140
508.51	20.866
508.85	21.118
509.19	20.984
509.54	20.877
509.88	21.436
510.23	21.751
510.57	22.063
510.92	21.429
511.26	20.893
511.61	21.112
511.95	20.905
512.30	21.165
512.64	20.812
512.98	22.167
513.33	21.417
513.67	20.156
514.02	22.092
514.36	21.551
514.70	21.166
515.05	22.241
515.39	21.626
515.74	22.280
516.08	22.075
516.42	21.530
516.77	22.415
517.11	22.082
517.46	22.428
517.80	22.864
518.14	20.713
518.49	20.921
518.83	21.662
519.17	22.202
519.52	21.631
519.86	22.640
520.20	22.372
520.55	22.585
520.89	21.415
521.23	22.955
521.58	21.944
521.92	22.989
522.26	22.095
522.61	22.243
522.95	21.761
523.29	22.571
523.64	22.174
523.98	23.361
524.32	22.502
524.66	22.360
525.01	22.158
525.35	22.745
525.69	22.186
526.04	22.324
526.38	23.106
526.72	22.797
527.06	22.786
527.41	21.914
527.75	21.452
528.09	22.038
528.43	22.623
528.78	23.304
529.12	23.431
529.46	22.036
529.80	21.821
530.15	23.696
530.49	21.604
530.83	23.903
531.17	22.290
531.51	22.773
531.86	22.449
532.20	22.740
532.54	22.928
532.88	22.793
533.22	21.725
533.57	22.846
533.91	21.848
534.25	22.250
534.59	21.549
534.93	22.651
535.27	22.467
535.62	22.698
535.96	21.590
536.30	21.859
536.64	22.377
536.98	22.316
537.32	21.838
537.66	23.014
538.01	22.337
538.35	22.703
538.69	21.791
539.03	22.681
539.37	22.888
539.71	22.348
540.05	22.481
540.39	22.230
540.73	22.668
541.07	23.907
541.42	21.877
541.76	21.462
542.10	23.430
542.44	22.918
542.78	23.134
543.12	22.403
543.46	22.192
543.80	21.940
544.14	21.558
544.48	22.310
544.82	22.192
545.16	22.334
545.50	20.592
545.84	22.392
546.18	22.261
546.52	22.760
546.86	22.222
547.20	24.051
547.54	21.350
547.88	23.291
548.22	20.708
548.56	21.309
548.90	23.113
549.24	22.425
549.58	22.583
549.92	21.696
550.26	23.266
550.60	21.835
550.94	22.701
551.28	22.423
551.62	22.083
551.96	22.721
552.30	23.484
552.64	22.730
552.98	21.794
553.32	22.655
553.66	22.711
554.00	23.028
554.34	22.383
554.68	22.003
555.02	22.431
555.36	22.142
555.69	22.063
556.03	22.316
556.37	22.831
556.71	23.336
557.05	22.912
557.39	22.272
557.73	22.465
558.07	23.210
558.41	22.438
558.75	24.259
559.08	21.323
559.42	22.665
559.76	23.160
560.10	23.788
560.44	23.410
560.78	22.617
561.12	21.946
561.45	22.260
561.79	22.300
562.13	21.739
562.47	21.849
562.81	22.136
563.15	22.253
563.48	22.046
563.82	22.515
564.16	22.042
564.50	22.110
564.84	22.619
565.17	22.878
565.51	23.272
565.85	22.380
566.19	22.398
566.52	22.179
566.86	22.250
567.20	21.671
567.54	22.327
567.88	22.166
568.21	22.651
568.55	22.694
568.89	21.223
569.23	21.703
569.56	21.185
569.90	22.384
570.24	22.135
570.57	21.898
570.91	21.965
571.25	21.660
571.59	22.073
571.92	21.786
572.26	21.600
572.60	21.998
572.93	20.780
573.27	21.524
573.61	20.734
573.95	22.006
574.28	21.284
574.62	21.505
574.96	21.560
575.29	21.824
575.63	21.529
575.97	21.063
576.30	21.595
576.64	21.802
576.98	21.573
577.31	21.669
577.65	21.606
577.98	21.590
578.32	21.448
578.66	21.424
578.99	21.662
579.33	21.879
579.67	21.608
580.00	20.908
580.34	21.208
580.67	21.647
581.01	20.704
581.35	21.124
581.68	21.088
582.02	21.553
582.35	21.303
582.69	21.715
583.02	21.353
583.36	21.640
583.70	21.608
584.03	21.686
584.37	21.434
584.70	21.464
585.04	21.266
585.37	20.716
585.71	21.214
586.04	21.302
586.38	21.411
586.72	21.223
587.05	21.920
587.39	20.869
587.72	21.688
588.06	21.788
588.39	21.760
588.73	21.635
589.06	21.931
589.40	21.642
589.73	21.211
590.07	21.631
590.40	21.255
590.73	21.831
591.07	21.352
591.40	22.054
591.74	21.894
592.07	21.171
592.41	21.741
592.74	21.752
593.08	21.902
593.41	21.743
593.75	21.233
594.08	21.891
594.41	22.070
594.75	21.216
595.08	22.256
595.42	21.243
595.75	21.095
596.09	21.459
596.42	22.422
596.75	21.173
597.09	22.173
597.42	21.694
597.75	21.789
598.09	21.329
598.42	21.564
598.76	21.262
599.09	21.271
599.42	21.761
599.76	21.404
600.09	21.412
600.42	22.256
600.76	22.072
601.09	21.231
601.42	21.567
601.76	21.495
602.09	21.636
602.42	20.453
602.76	21.313
603.09	21.089
603.42	21.475
603.76	21.061
604.09	21.666
604.42	21.149
604.76	21.413
605.09	21.338
605.42	22.119
605.75	21.863
606.09	21.378
606.42	21.282
606.75	21.683
607.09	21.041
607.42	21.215
607.75	21.148
608.08	21.419
608.42	21.239
608.75	21.168
609.08	21.773
609.41	21.126
609.75	21.258
610.08	21.863
610.41	21.880
610.74	22.147
611.07	21.805
611.41	21.130
611.74	22.879
612.07	22.395
612.40	21.215
612.73	21.379
613.07	22.289
613.40	22.824
613.73	21.417
614.06	20.758
614.39	22.661
614.72	21.453
615.06	21.033
615.39	21.324
615.72	21.782
616.05	20.928
616.38	21.126
616.71	21.141
617.05	21.653
617.38	21.734
617.71	21.314
618.04	21.491
618.37	22.075
618.70	22.099
619.03	21.530
619.36	22.199
619.69	22.541
620.03	21.488
620.36	21.378
620.69	22.398
621.02	21.689
621.35	21.774
621.68	21.803
622.01	21.521
622.34	22.438
622.67	21.562
623.00	22.035
623.33	22.388
623.66	21.787
623.99	20.977
624.32	21.280
624.65	20.971
624.99	22.255
625.32	21.632
625.65	21.756
625.98	21.362
626.31	22.186
626.64	20.837
626.97	21.832
627.30	22.468
627.63	20.466
627.96	21.497
628.29	21.415
628.62	23.305
628.95	22.539
629.28	22.368
629.61	21.394
629.94	22.779
630.26	22.068
630.59	21.910
630.92	21.722
631.25	22.480
631.58	22.963
631.91	19.574
632.24	21.000
632.57	22.000
632.90	22.299
633.23	21.379
633.56	22.222
633.89	22.170
634.22	21.488
634.55	21.514
634.88	21.282
635.20	21.348
635.53	22.392
635.86	20.277
636.19	21.123
636.52	21.983
