SpectraSuite Data File
++++++++++++++++++++++++++++++++++++
Date: Sat May 16 11:45:56 PDT 2015
User: schluterlab
Dark Spectrum Present: Yes
Reference Spectrum Present: Yes
Number of Sampled Component Spectra: 1
Spectrometers: USB2E3373
Integration Time (usec): 3000 (USB2E3373)
Spectra Averaged: 3 (USB2E3373)
Boxcar Smoothing: 0 (USB2E3373)
Correct for Electrical Dark: No (USB2E3373)
Strobe/Lamp Enabled: No (USB2E3373)
Correct for Detector Non-linearity: No (USB2E3373)
Correct for Stray Light: No (USB2E3373)
Number of Pixels in Processed Spectrum: 2048
>>>>>Begin Processed Spectral Data<<<<<
178.53	0.000
178.91	106.667
179.29	733.333
179.67	-800.000
180.04	-123.077
180.42	800.000
180.80	525.000
181.18	300.000
181.56	-225.000
181.94	1100.000
182.31	625.000
182.69	0.000
183.07	-466.667
183.45	1050.000
183.83	500.000
184.20	-100.000
184.58	-200.000
184.96	-200.000
185.34	125.000
185.72	-575.000
186.09	466.667
186.47	-225.000
186.85	-225.000
187.23	-75.000
187.61	-175.000
187.98	-387.500
188.36	-212.500
188.74	-200.000
189.12	2800.000
189.49	371.429
189.87	-125.000
190.25	575.000
190.63	-7.143
191.00	-211.111
191.38	460.000
191.76	-66.667
192.14	600.000
192.51	-320.000
192.89	-666.667
193.27	0.000
193.65	-77.778
194.02	-171.429
194.40	500.000
194.78	-90.000
195.15	-1000.000
195.53	-100.000
195.91	-483.333
196.29	300.000
196.66	-966.667
197.04	2000.000
197.42	-350.000
197.79	-6.667
198.17	-800.000
198.55	-750.000
198.92	-1500.000
199.30	262.500
199.68	-700.000
200.05	-111.111
200.43	-266.667
200.81	-200.000
201.18	-175.000
201.56	185.714
201.94	-46.667
202.31	18.182
202.69	-70.000
203.07	-130.000
203.44	833.333
203.82	-216.667
204.19	-425.000
204.57	-100.000
204.95	-900.000
205.32	-6.250
205.70	1800.000
206.08	-1500.000
206.45	-83.333
206.83	-900.000
207.20	0.000
207.58	-666.667
207.96	-466.667
208.33	-250.000
208.71	-88.889
209.08	260.000
209.46	-200.000
209.84	600.000
210.21	0.000
210.59	35.000
210.96	700.000
211.34	-300.000
211.71	266.667
212.09	300.000
212.46	800.000
212.84	-1400.000
213.22	500.000
213.59	108.333
213.97	-88.889
214.34	170.000
214.72	-40.000
215.09	-333.333
215.47	-66.667
215.84	-30.000
216.22	-40.000
216.59	6.667
216.97	-350.000
217.34	1050.000
217.72	-214.286
218.09	-300.000
218.47	-185.714
218.84	200.000
219.22	14.286
219.59	0.000
219.97	200.000
220.34	600.000
220.72	300.000
221.09	0.000
221.47	0.000
221.84	433.333
222.22	-600.000
222.59	1500.000
222.97	-237.500
223.34	-700.000
223.72	-633.333
224.09	-35.714
224.46	-225.000
224.84	-35.714
225.21	-214.286
225.59	-72.727
225.96	-262.500
226.34	-71.429
226.71	-100.000
227.08	-65.000
227.46	2700.000
227.83	-214.286
228.21	-262.500
228.58	350.000
228.95	-43.750
229.33	-2500.000
229.70	-300.000
230.08	-500.000
230.45	-33.333
230.82	-66.667
231.20	-1100.000
231.57	-300.000
231.95	1800.000
232.32	-52.381
232.69	-100.000
233.07	-300.000
233.44	-1100.000
233.81	-93.333
234.19	-122.222
234.56	-25.000
234.93	12.500
235.31	-185.714
235.68	-150.000
236.05	-41.176
236.43	-9.091
236.80	3.226
237.17	-12.500
237.55	-47.619
237.92	-45.455
238.29	17.143
238.67	-17.647
239.04	-11.111
239.41	-3.226
239.79	-33.333
240.16	-7.143
240.53	-10.909
240.91	7.692
241.28	12.727
241.65	21.538
242.02	29.508
242.40	24.590
242.77	7.576
243.14	3.390
243.51	0.000
243.89	7.595
244.26	14.607
244.63	25.263
245.00	18.947
245.38	21.186
245.75	15.044
246.12	19.200
246.49	6.299
246.87	12.195
247.24	16.949
247.61	13.559
247.98	12.676
248.36	9.790
248.73	19.620
249.10	22.293
249.47	21.053
249.84	17.045
250.22	11.310
250.59	25.424
250.96	18.848
251.33	27.014
251.70	22.596
252.08	19.431
252.45	14.692
252.82	17.143
253.19	23.830
253.56	23.790
253.94	21.941
254.31	19.313
254.68	22.764
255.05	18.145
255.42	22.222
255.79	20.789
256.16	23.529
256.54	22.059
256.91	23.864
257.28	20.147
257.65	21.986
258.02	26.415
258.39	22.408
258.76	20.946
259.14	21.296
259.51	23.607
259.88	20.732
260.25	22.671
260.62	18.650
260.99	21.365
261.36	25.610
261.73	20.809
262.10	23.889
262.47	22.507
262.85	25.429
263.22	24.642
263.59	17.231
263.96	21.449
264.33	23.035
264.70	22.652
265.07	24.451
265.44	21.189
265.81	24.806
266.18	22.278
266.55	22.059
266.92	24.181
267.29	23.487
267.66	21.975
268.03	25.121
268.40	23.474
268.77	21.205
269.14	22.970
269.51	23.218
269.88	23.394
270.25	18.881
270.62	22.654
270.99	22.748
271.36	26.107
271.73	21.525
272.10	23.799
272.47	23.556
272.84	24.667
273.21	21.789
273.58	21.319
273.95	24.781
274.32	23.756
274.69	24.070
275.06	26.380
275.43	22.768
275.80	23.829
276.17	22.803
276.54	24.440
276.91	21.193
277.28	21.095
277.65	24.174
278.02	24.008
278.39	24.361
278.76	23.108
279.13	23.913
279.50	24.254
279.87	24.313
280.23	23.279
280.60	23.260
280.97	21.942
281.34	21.663
281.71	25.192
282.08	24.798
282.45	19.756
282.82	25.000
283.19	24.364
283.56	26.007
283.92	21.555
284.29	21.933
284.66	20.504
285.03	22.816
285.40	22.140
285.77	25.263
286.14	23.466
286.51	23.268
286.87	22.142
287.24	22.184
287.61	22.314
287.98	21.317
288.35	20.165
288.72	20.713
289.08	21.186
289.45	21.044
289.82	19.031
290.19	21.839
290.56	19.504
290.93	20.986
291.29	19.611
291.66	21.095
292.03	21.350
292.40	19.729
292.77	20.807
293.13	19.187
293.50	21.694
293.87	20.552
294.24	20.362
294.60	17.727
294.97	19.727
295.34	18.074
295.71	19.048
296.08	17.051
296.44	18.598
296.81	18.661
297.18	18.028
297.55	18.503
297.91	19.944
298.28	17.945
298.65	17.713
299.02	19.519
299.38	18.984
299.75	18.750
300.12	18.846
300.48	19.054
300.85	16.776
301.22	17.335
301.59	17.555
301.95	19.144
302.32	16.428
302.69	16.891
303.05	17.582
303.42	17.625
303.79	16.986
304.15	15.640
304.52	17.970
304.89	17.473
305.25	17.460
305.62	15.864
305.99	18.846
306.35	16.759
306.72	16.743
307.09	18.161
307.45	17.026
307.82	16.089
308.19	18.009
308.55	16.340
308.92	14.930
309.29	16.757
309.65	15.164
310.02	15.551
310.38	15.784
310.75	16.393
311.12	17.149
311.48	16.806
311.85	16.478
312.22	15.860
312.58	16.582
312.95	16.412
313.31	17.383
313.68	16.482
314.05	16.518
314.41	16.600
314.78	15.485
315.14	16.881
315.51	16.616
315.87	17.038
316.24	14.869
316.61	16.219
316.97	16.816
317.34	16.281
317.70	15.213
318.07	15.112
318.43	16.199
318.80	16.432
319.16	15.947
319.53	15.695
319.89	15.052
320.26	16.176
320.62	16.635
320.99	16.219
321.35	14.975
321.72	17.195
322.08	16.123
322.45	16.733
322.81	16.619
323.18	16.811
323.54	18.207
323.91	16.311
324.27	16.160
324.64	16.362
325.00	16.056
325.37	18.009
325.73	18.460
326.10	16.740
326.46	17.688
326.83	18.128
327.19	18.599
327.56	18.143
327.92	18.862
328.29	18.268
328.65	16.364
329.01	18.375
329.38	17.306
329.74	19.048
330.11	17.679
330.47	18.710
330.84	19.798
331.20	18.502
331.56	19.599
331.93	18.384
332.29	19.452
332.66	19.579
333.02	18.552
333.38	18.459
333.75	19.590
334.11	18.933
334.48	18.094
334.84	19.948
335.20	19.504
335.57	18.592
335.93	20.859
336.29	19.398
336.66	18.062
337.02	19.189
337.38	18.627
337.75	18.964
338.11	19.499
338.47	19.929
338.84	19.238
339.20	19.156
339.56	19.875
339.93	19.841
340.29	18.335
340.65	19.493
341.02	18.718
341.38	18.618
341.74	19.136
342.11	18.430
342.47	18.798
342.83	18.808
343.20	18.958
343.56	18.776
343.92	19.783
344.28	20.858
344.65	18.894
345.01	18.739
345.37	19.435
345.73	18.167
346.10	17.416
346.46	18.684
346.82	17.883
347.19	18.488
347.55	18.941
347.91	18.268
348.27	18.616
348.63	19.790
349.00	18.377
349.36	18.735
349.72	19.188
350.08	18.605
350.45	18.361
350.81	18.631
351.17	18.408
351.53	18.457
351.89	17.947
352.26	18.372
352.62	19.278
352.98	18.908
353.34	19.265
353.70	17.606
354.07	18.804
354.43	19.605
354.79	19.017
355.15	19.569
355.51	18.359
355.87	18.419
356.24	18.666
356.60	19.984
356.96	19.477
357.32	18.290
357.68	19.464
358.04	19.400
358.40	18.020
358.77	18.006
359.13	18.898
359.49	18.292
359.85	19.436
360.21	19.254
360.57	19.729
360.93	19.333
361.29	19.581
361.66	18.750
362.02	19.083
362.38	19.149
362.74	19.560
363.10	19.512
363.46	20.228
363.82	19.534
364.18	19.175
364.54	20.086
364.90	19.078
365.26	19.044
365.62	19.244
365.98	19.559
366.35	18.662
366.71	18.746
367.07	19.478
367.43	20.933
367.79	19.794
368.15	18.350
368.51	20.000
368.87	19.437
369.23	20.070
369.59	19.792
369.95	20.155
370.31	20.183
370.67	19.667
371.03	19.752
371.39	18.458
371.75	19.671
372.11	21.019
372.47	20.029
372.83	20.515
373.19	20.071
373.55	20.408
373.91	19.915
374.27	20.192
374.63	20.635
374.99	21.210
375.35	20.256
375.71	21.607
376.07	20.602
376.42	19.139
376.78	20.392
377.14	20.610
377.50	20.567
377.86	20.611
378.22	21.043
378.58	20.506
378.94	20.530
379.30	20.902
379.66	20.401
380.02	20.261
380.38	20.906
380.74	20.106
381.09	20.797
381.45	20.346
381.81	20.690
382.17	20.614
382.53	20.486
382.89	21.172
383.25	20.590
383.61	20.637
383.97	20.514
384.32	21.277
384.68	21.403
385.04	19.686
385.40	21.120
385.76	21.280
386.12	21.549
386.48	21.782
386.83	21.534
387.19	21.937
387.55	20.957
387.91	20.925
388.27	20.386
388.62	21.815
388.98	21.563
389.34	21.359
389.70	20.889
390.06	21.193
390.42	21.218
390.77	21.514
391.13	21.801
391.49	20.898
391.85	21.322
392.20	21.481
392.56	20.770
392.92	21.905
393.28	21.929
393.64	21.648
393.99	21.662
394.35	22.080
394.71	22.174
395.07	22.411
395.42	20.679
395.78	20.805
396.14	22.679
396.50	21.713
396.85	22.702
397.21	21.507
397.57	21.824
397.92	21.604
398.28	21.556
398.64	21.416
399.00	22.079
399.35	21.308
399.71	22.764
400.07	23.343
400.42	21.898
400.78	22.302
401.14	21.437
401.49	21.108
401.85	21.843
402.21	22.467
402.57	22.451
402.92	22.215
403.28	22.610
403.63	21.510
403.99	21.690
404.35	21.618
404.70	21.475
405.06	22.780
405.42	22.017
405.77	21.663
406.13	21.749
406.49	22.169
406.84	22.016
407.20	23.086
407.55	22.293
407.91	21.438
408.27	22.794
408.62	22.189
408.98	21.468
409.34	21.572
409.69	23.125
410.05	22.498
410.40	22.624
410.76	23.889
411.11	22.569
411.47	22.315
411.83	23.227
412.18	22.649
412.54	22.026
412.89	23.390
413.25	22.078
413.60	21.750
413.96	21.627
414.31	21.957
414.67	22.159
415.03	22.574
415.38	23.357
415.74	22.874
416.09	22.890
416.45	22.288
416.80	22.432
417.16	22.326
417.51	22.193
417.87	22.460
418.22	22.440
418.58	23.620
418.93	22.134
419.29	22.836
419.64	22.362
420.00	22.965
420.35	22.708
420.71	22.569
421.06	22.899
421.42	22.775
421.77	22.111
422.12	23.111
422.48	22.822
422.83	23.235
423.19	22.160
423.54	23.228
423.90	23.424
424.25	23.190
424.61	24.427
424.96	23.932
425.31	23.868
425.67	23.610
426.02	23.293
426.38	23.775
426.73	24.196
427.09	24.081
427.44	23.580
427.79	24.186
428.15	24.357
428.50	24.575
428.85	24.041
429.21	23.796
429.56	24.375
429.92	24.549
430.27	23.579
430.62	24.608
430.98	23.680
431.33	24.013
431.68	25.255
432.04	24.958
432.39	24.501
432.74	24.161
433.10	24.198
433.45	24.122
433.80	24.524
434.16	24.879
434.51	24.548
434.86	25.542
435.22	25.501
435.57	24.847
435.92	25.205
436.28	25.223
436.63	24.816
436.98	25.601
437.34	25.281
437.69	25.496
438.04	25.355
438.39	25.211
438.75	25.437
439.10	25.264
439.45	24.864
439.81	26.386
440.16	25.099
440.51	25.471
440.86	25.159
441.22	25.428
441.57	25.947
441.92	26.240
442.27	25.162
442.63	25.215
442.98	25.113
443.33	25.920
443.68	25.899
444.03	25.639
444.39	26.481
444.74	26.872
445.09	26.206
445.44	26.055
445.79	26.568
446.15	26.396
446.50	25.204
446.85	26.680
447.20	25.792
447.55	25.746
447.91	26.558
448.26	26.536
448.61	26.259
448.96	26.106
449.31	25.986
449.66	27.132
450.02	25.873
450.37	25.681
450.72	25.763
451.07	27.216
451.42	26.766
451.77	26.332
452.12	27.473
452.47	27.267
452.83	26.907
453.18	26.629
453.53	27.550
453.88	27.392
454.23	25.635
454.58	27.657
454.93	27.078
455.28	26.832
455.63	27.334
455.98	27.108
456.34	26.112
456.69	28.080
457.04	26.859
457.39	26.435
457.74	26.757
458.09	27.726
458.44	27.656
458.79	26.738
459.14	27.153
459.49	27.886
459.84	27.150
460.19	27.148
460.54	26.860
460.89	27.074
461.24	27.626
461.59	27.667
461.94	27.435
462.29	27.576
462.64	28.986
462.99	28.648
463.34	27.279
463.69	27.545
464.04	27.299
464.39	27.479
464.74	28.014
465.09	28.262
465.44	27.862
465.79	27.580
466.14	28.136
466.49	27.001
466.84	27.971
467.19	27.993
467.54	27.215
467.89	28.113
468.24	28.147
468.59	27.733
468.94	28.039
469.29	27.615
469.64	28.504
469.99	29.372
470.34	28.925
470.68	29.433
471.03	28.630
471.38	29.097
471.73	28.811
472.08	29.050
472.43	28.764
472.78	28.200
473.13	27.237
473.48	28.973
473.83	28.474
474.17	28.662
474.52	29.795
474.87	28.030
475.22	27.906
475.57	27.889
475.92	29.482
476.27	28.457
476.61	29.296
476.96	29.122
477.31	28.956
477.66	28.113
478.01	29.173
478.36	28.968
478.70	28.884
479.05	29.313
479.40	29.223
479.75	29.001
480.10	29.663
480.45	28.240
480.79	30.010
481.14	29.854
481.49	29.961
481.84	28.294
482.19	28.141
482.53	29.545
482.88	29.093
483.23	29.531
483.58	29.556
483.92	30.148
484.27	28.578
484.62	29.158
484.97	28.878
485.31	27.840
485.66	27.327
486.01	27.371
486.36	28.676
486.70	28.800
487.05	28.825
487.40	28.526
487.75	29.197
488.09	29.432
488.44	30.413
488.79	29.572
489.13	29.821
489.48	30.098
489.83	30.087
490.17	30.387
490.52	30.480
490.87	30.023
491.22	30.406
491.56	29.769
491.91	30.153
492.26	30.236
492.60	29.686
492.95	30.176
493.30	30.634
493.64	30.371
493.99	29.828
494.34	30.714
494.68	30.805
495.03	30.927
495.37	31.121
495.72	29.961
496.07	31.018
496.41	31.218
496.76	30.411
497.11	30.570
497.45	31.178
497.80	30.115
498.14	31.287
498.49	30.688
498.84	29.854
499.18	30.897
499.53	30.687
499.87	30.985
500.22	31.078
500.56	31.866
500.91	31.232
501.26	31.198
501.60	30.380
501.95	30.870
502.29	31.271
502.64	31.777
502.98	30.810
503.33	30.968
503.67	31.370
504.02	31.048
504.36	30.931
504.71	31.915
505.06	30.954
505.40	32.535
505.75	31.657
506.09	32.154
506.44	32.080
506.78	32.012
507.13	31.823
507.47	32.603
507.82	31.699
508.16	32.850
508.51	31.994
508.85	32.453
509.19	32.025
509.54	33.245
509.88	32.926
510.23	32.652
510.57	32.063
510.92	32.546
511.26	32.536
511.61	32.505
511.95	32.220
512.30	32.930
512.64	32.332
512.98	33.773
513.33	33.443
513.67	33.222
514.02	32.718
514.36	33.186
514.70	32.258
515.05	33.848
515.39	33.564
515.74	34.322
516.08	34.640
516.42	34.108
516.77	33.911
517.11	33.124
517.46	35.048
517.80	34.416
518.14	34.239
518.49	34.549
518.83	34.421
519.17	34.636
519.52	34.008
519.86	34.707
520.20	34.902
520.55	35.385
520.89	33.563
521.23	35.165
521.58	34.984
521.92	35.465
522.26	35.429
522.61	33.904
522.95	34.971
523.29	35.110
523.64	35.290
523.98	35.073
524.32	35.324
524.66	34.596
525.01	34.682
525.35	35.631
525.69	34.483
526.04	35.248
526.38	36.028
526.72	35.313
527.06	34.766
527.41	34.917
527.75	35.380
528.09	36.400
528.43	36.000
528.78	35.239
529.12	35.915
529.46	35.631
529.80	35.378
530.15	35.158
530.49	36.158
530.83	36.215
531.17	35.960
531.51	34.963
531.86	34.496
532.20	36.235
532.54	36.364
532.88	36.430
533.22	35.762
533.57	35.444
533.91	34.270
534.25	34.947
534.59	34.916
534.93	35.532
535.27	36.312
535.62	35.742
535.96	35.876
536.30	35.864
536.64	35.325
536.98	36.935
537.32	36.351
537.66	34.759
538.01	37.045
538.35	35.878
538.69	35.227
539.03	36.154
539.37	35.196
539.71	34.356
540.05	37.012
540.39	37.258
540.73	36.006
541.07	35.587
541.42	35.314
541.76	34.020
542.10	37.272
542.44	35.643
542.78	35.550
543.12	36.320
543.46	35.479
543.80	34.716
544.14	35.662
544.48	36.286
544.82	35.656
545.16	36.016
545.50	35.397
545.84	35.535
546.18	37.171
546.52	36.273
546.86	36.254
547.20	36.779
547.54	35.262
547.88	36.629
548.22	34.666
548.56	35.337
548.90	36.590
549.24	35.809
549.58	37.262
549.92	36.961
550.26	37.211
550.60	36.131
550.94	36.569
551.28	37.622
551.62	35.820
551.96	36.397
552.30	36.585
552.64	36.312
552.98	37.351
553.32	36.869
553.66	37.130
554.00	36.603
554.34	37.401
554.68	36.257
555.02	36.975
555.36	34.795
555.69	37.034
556.03	36.281
556.37	36.273
556.71	37.795
557.05	36.881
557.39	35.412
557.73	37.710
558.07	37.227
558.41	36.874
558.75	36.806
559.08	37.043
559.42	36.830
559.76	37.960
560.10	36.689
560.44	37.861
560.78	36.534
561.12	36.577
561.45	37.603
561.79	36.864
562.13	35.905
562.47	37.395
562.81	35.856
563.15	36.809
563.48	37.664
563.82	37.458
564.16	35.632
564.50	37.030
564.84	36.376
565.17	35.942
565.51	37.288
565.85	38.134
566.19	38.472
566.52	36.791
566.86	35.841
567.20	37.772
567.54	36.976
567.88	35.902
568.21	35.906
568.55	36.214
568.89	34.990
569.23	35.030
569.56	34.090
569.90	35.130
570.24	34.611
570.57	33.392
570.91	33.900
571.25	34.274
571.59	34.124
571.92	33.274
572.26	32.894
572.60	33.137
572.93	32.858
573.27	32.652
573.61	32.722
573.95	32.597
574.28	32.626
574.62	33.299
574.96	32.203
575.29	32.597
575.63	32.652
575.97	32.605
576.30	33.023
576.64	32.559
576.98	32.894
577.31	33.063
577.65	33.214
577.98	32.593
578.32	32.351
578.66	32.943
578.99	32.458
579.33	32.856
579.67	33.097
580.00	32.837
580.34	32.583
580.67	33.440
581.01	32.038
581.35	32.506
581.68	32.156
582.02	32.513
582.35	32.691
582.69	33.387
583.02	33.201
583.36	33.627
583.70	32.770
584.03	33.459
584.37	33.072
584.70	33.016
585.04	33.114
585.37	32.005
585.71	32.801
586.04	33.131
586.38	32.665
586.72	33.512
587.05	33.673
587.39	33.379
587.72	33.369
588.06	33.398
588.39	33.352
588.73	33.524
589.06	34.303
589.40	34.249
589.73	34.525
590.07	34.122
590.40	34.317
590.73	35.106
591.07	34.918
591.40	36.135
591.74	34.622
592.07	34.595
592.41	35.372
592.74	34.051
593.08	33.642
593.41	33.618
593.75	33.432
594.08	34.472
594.41	34.270
594.75	34.126
595.08	34.023
595.42	34.140
595.75	33.921
596.09	34.148
596.42	34.615
596.75	35.015
597.09	35.085
597.42	34.308
597.75	36.005
598.09	35.246
598.42	34.291
598.76	33.970
599.09	34.767
599.42	34.141
599.76	33.786
600.09	34.809
600.42	34.637
600.76	34.501
601.09	34.599
601.42	34.032
601.76	34.424
602.09	34.315
602.42	35.226
602.76	34.441
603.09	35.403
603.42	34.609
603.76	34.942
604.09	34.121
604.42	35.054
604.76	35.325
605.09	35.081
605.42	35.018
605.75	35.144
606.09	34.288
606.42	33.850
606.75	34.951
607.09	35.112
607.42	36.224
607.75	34.349
608.08	35.834
608.42	34.957
608.75	35.000
609.08	35.850
609.41	34.728
609.75	34.812
610.08	36.275
610.41	35.855
610.74	36.074
611.07	35.751
611.41	36.107
611.74	35.835
612.07	36.520
612.40	36.194
612.73	35.703
613.07	35.938
613.40	36.617
613.73	36.512
614.06	35.475
614.39	35.908
614.72	36.257
615.06	35.870
615.39	35.811
615.72	35.198
616.05	35.119
616.38	37.086
616.71	35.976
617.05	36.429
617.38	37.523
617.71	36.302
618.04	37.019
618.37	35.975
618.70	38.266
619.03	37.508
619.36	37.350
619.69	37.401
620.03	36.433
620.36	37.412
620.69	38.622
621.02	37.215
621.35	38.226
621.68	39.426
622.01	37.298
622.34	38.276
622.67	37.188
623.00	38.332
623.33	38.060
623.66	37.518
623.99	36.992
624.32	38.170
624.65	36.718
624.99	37.341
625.32	36.901
625.65	39.705
625.98	37.324
626.31	38.499
626.64	38.577
626.97	37.500
627.30	39.319
627.63	38.169
627.96	39.774
628.29	38.879
628.62	40.019
628.95	40.551
629.28	38.440
629.61	38.763
629.94	39.130
630.26	40.159
630.59	41.106
630.92	40.340
631.25	39.919
631.58	40.106
631.91	39.043
