SpectraSuite Data File
++++++++++++++++++++++++++++++++++++
Date: Sat May 16 11:34:26 PDT 2015
User: schluterlab
Dark Spectrum Present: Yes
Reference Spectrum Present: Yes
Number of Sampled Component Spectra: 1
Spectrometers: USB2E3373
Integration Time (usec): 3000 (USB2E3373)
Spectra Averaged: 3 (USB2E3373)
Boxcar Smoothing: 0 (USB2E3373)
Correct for Electrical Dark: No (USB2E3373)
Strobe/Lamp Enabled: No (USB2E3373)
Correct for Detector Non-linearity: No (USB2E3373)
Correct for Stray Light: No (USB2E3373)
Number of Pixels in Processed Spectrum: 2048
>>>>>Begin Processed Spectral Data<<<<<
178.53	0.000
178.91	53.333
179.29	133.333
179.67	-500.000
180.04	-61.538
180.42	1700.000
180.80	550.000
181.18	400.000
181.56	-162.500
181.94	1900.000
182.31	475.000
182.69	-7.692
183.07	-366.667
183.45	1350.000
183.83	766.667
184.20	-271.429
184.58	-150.000
184.96	-400.000
185.34	112.500
185.72	-550.000
186.09	133.333
186.47	-50.000
186.85	-212.500
187.23	-50.000
187.61	-175.000
187.98	-200.000
188.36	-137.500
188.74	-137.500
189.12	1300.000
189.49	328.571
189.87	-83.333
190.25	475.000
190.63	-21.429
191.00	-77.778
191.38	440.000
191.76	-66.667
192.14	620.000
192.51	-260.000
192.89	-633.333
193.27	0.000
193.65	-155.556
194.02	-342.857
194.40	566.667
194.78	-160.000
195.15	-800.000
195.53	-154.545
195.91	-400.000
196.29	300.000
196.66	-500.000
197.04	2800.000
197.42	-175.000
197.79	0.000
198.17	-300.000
198.55	-950.000
198.92	-900.000
199.30	262.500
199.68	-500.000
200.05	-100.000
200.43	-177.778
200.81	-2300.000
201.18	-66.667
201.56	171.429
201.94	-66.667
202.31	-27.273
202.69	-60.000
203.07	-120.000
203.44	600.000
203.82	-466.667
204.19	-700.000
204.57	-500.000
204.95	-1900.000
205.32	-31.250
205.70	1800.000
206.08	-2400.000
206.45	0.000
206.83	-950.000
207.20	-100.000
207.58	-666.667
207.96	-433.333
208.33	-87.500
208.71	-66.667
209.08	300.000
209.46	-185.714
209.84	400.000
210.21	0.000
210.59	-5.000
210.96	700.000
211.34	-450.000
211.71	-700.000
212.09	500.000
212.46	950.000
212.84	-2200.000
213.22	600.000
213.59	208.333
213.97	22.222
214.34	180.000
214.72	-130.000
215.09	-533.333
215.47	-133.333
215.84	-130.000
216.22	-150.000
216.59	13.333
216.97	-400.000
217.34	1200.000
217.72	71.429
218.09	-250.000
218.47	-314.286
218.84	142.857
219.22	-28.571
219.59	0.000
219.97	314.286
220.34	600.000
220.72	225.000
221.09	-76.923
221.47	0.000
221.84	900.000
222.22	-500.000
222.59	1600.000
222.97	-225.000
223.34	-350.000
223.72	-700.000
224.09	-100.000
224.46	-100.000
224.84	0.000
225.21	-300.000
225.59	-63.636
225.96	-312.500
226.34	-142.857
226.71	-200.000
227.08	-70.000
227.46	1300.000
227.83	-300.000
228.21	-300.000
228.58	800.000
228.95	-25.000
229.33	-2000.000
229.70	-200.000
230.08	-1300.000
230.45	-33.333
230.82	-166.667
231.20	-1600.000
231.57	-250.000
231.95	1200.000
232.32	4.762
232.69	-133.333
233.07	-185.714
233.44	-1250.000
233.81	-106.667
234.19	-66.667
234.56	-93.750
234.93	3.125
235.31	-271.429
235.68	-228.571
236.05	-88.235
236.43	-77.273
236.80	-32.258
237.17	-50.000
237.55	-66.667
237.92	-150.000
238.29	-42.857
238.67	-17.647
239.04	-33.333
239.41	-58.065
239.79	-71.795
240.16	-54.762
240.53	-14.545
240.91	-35.897
241.28	-10.909
241.65	-12.308
242.02	0.000
242.40	-27.869
242.77	-15.152
243.14	-22.034
243.51	-18.571
243.89	-15.190
244.26	-7.865
244.63	-7.368
245.00	-8.421
245.38	-3.390
245.75	-1.770
246.12	-11.200
246.49	-1.575
246.87	-15.447
247.24	-15.254
247.61	-12.712
247.98	-10.563
248.36	-6.294
248.73	-3.797
249.10	-8.280
249.47	-5.848
249.84	0.000
250.22	-13.095
250.59	-4.520
250.96	-2.094
251.33	0.948
251.70	-2.885
252.08	-0.474
252.45	-4.739
252.82	-9.048
253.19	-2.553
253.56	-3.226
253.94	-2.532
254.31	-1.288
254.68	-2.439
255.05	-5.645
255.42	2.381
255.79	-2.509
256.16	1.176
256.54	-2.941
256.91	-4.924
257.28	-5.861
257.65	-2.482
258.02	-1.887
258.39	-2.007
258.76	-1.689
259.14	-2.160
259.51	-0.984
259.88	-1.524
260.25	1.553
260.62	-4.180
260.99	-2.967
261.36	0.305
261.73	-1.156
262.10	0.000
262.47	-0.855
262.85	2.286
263.22	-2.006
263.59	-3.692
263.96	0.290
264.33	2.168
264.70	-1.381
265.07	-3.571
265.44	-0.775
265.81	-2.842
266.18	-1.519
266.55	-0.735
266.92	0.504
267.29	0.000
267.66	-0.741
268.03	4.106
268.40	2.113
268.77	-0.241
269.14	-1.392
269.51	0.920
269.88	-2.752
270.25	-1.166
270.62	-0.229
270.99	-1.126
271.36	-1.632
271.73	0.224
272.10	0.686
272.47	1.333
272.84	1.778
273.21	0.917
273.58	-1.538
273.95	0.000
274.32	-1.810
274.69	3.282
275.06	1.840
275.43	-1.339
275.80	2.444
276.17	-0.628
276.54	1.629
276.91	0.206
277.28	1.014
277.65	0.207
278.02	1.044
278.39	0.589
278.76	-0.598
279.13	0.791
279.50	0.398
279.87	0.846
280.23	1.012
280.60	1.392
280.97	-0.388
281.34	-0.193
281.71	1.154
282.08	2.218
282.45	-4.684
282.82	0.581
283.19	2.364
283.56	2.564
283.92	0.177
284.29	-0.743
284.66	-1.079
285.03	2.317
285.40	1.476
285.77	2.456
286.14	0.361
286.51	-0.355
286.87	1.089
287.24	1.706
287.61	0.661
287.98	-0.693
288.35	0.496
288.72	0.679
289.08	-2.203
289.45	1.515
289.82	-0.692
290.19	2.299
290.56	0.000
290.93	1.113
291.29	0.324
291.66	0.805
292.03	2.355
292.40	1.054
292.77	0.776
293.13	1.301
293.50	0.594
293.87	1.227
294.24	3.469
294.60	0.000
294.97	2.124
295.34	2.370
295.71	-0.149
296.08	-1.690
296.44	-0.572
296.81	0.997
297.18	1.972
297.55	2.966
297.91	3.068
298.28	0.274
298.65	0.837
299.02	2.540
299.38	1.872
299.75	0.951
300.12	1.538
300.48	1.151
300.85	2.228
301.22	0.776
301.59	2.211
301.95	4.408
302.32	0.130
302.69	1.591
303.05	0.611
303.42	1.125
303.79	2.153
304.15	3.081
304.52	1.284
304.89	1.535
305.25	0.733
305.62	1.880
305.99	2.356
306.35	2.442
306.72	1.367
307.09	2.724
307.45	2.838
307.82	1.453
308.19	3.132
308.55	1.852
308.92	1.933
309.29	2.162
309.65	1.273
310.02	1.512
310.38	1.081
310.75	3.074
311.12	2.789
311.48	3.132
311.85	2.060
312.22	2.987
312.58	3.459
312.95	1.529
313.31	2.697
313.68	3.417
314.05	3.956
314.41	2.314
314.78	0.899
315.14	3.060
315.51	2.736
315.87	4.163
316.24	3.110
316.61	3.359
316.97	4.080
317.34	1.830
317.70	3.896
318.07	3.918
318.43	3.277
318.80	4.601
319.16	2.814
319.53	2.538
319.89	3.481
320.26	3.431
320.62	3.558
320.99	3.682
321.35	3.448
321.72	2.354
322.08	3.858
322.45	3.663
322.81	3.842
323.18	4.899
323.54	4.067
323.91	3.800
324.27	4.373
324.64	4.205
325.00	4.799
325.37	5.249
325.73	5.074
326.10	4.252
326.46	4.729
326.83	4.596
327.19	4.837
327.56	6.474
327.92	6.457
328.29	5.801
328.65	4.545
329.01	5.300
329.38	5.798
329.74	6.319
330.11	5.984
330.47	5.540
330.84	7.333
331.20	6.047
331.56	6.472
331.93	5.950
332.29	6.119
332.66	6.848
333.02	7.330
333.38	6.004
333.75	7.480
334.11	5.778
334.48	5.472
334.84	6.562
335.20	6.472
335.57	7.310
335.93	7.073
336.29	6.732
336.66	5.639
337.02	8.288
337.38	7.130
337.75	7.902
338.11	7.335
338.47	5.605
338.84	7.078
339.20	6.854
339.56	7.219
339.93	7.760
340.29	7.529
340.65	6.556
341.02	6.745
341.38	7.161
341.74	6.266
342.11	6.741
342.47	7.468
342.83	6.549
343.20	7.003
343.56	6.531
343.92	8.013
344.28	7.738
344.65	6.766
345.01	7.143
345.37	7.973
345.73	6.628
346.10	6.051
346.46	6.905
346.82	7.137
347.19	7.067
347.55	6.982
347.91	8.110
348.27	6.762
348.63	7.674
349.00	7.717
349.36	6.011
349.72	9.236
350.08	6.736
350.45	6.619
350.81	8.280
351.17	6.752
351.53	5.967
351.89	7.114
352.26	7.132
352.62	8.065
352.98	8.228
353.34	7.754
353.70	6.873
354.07	8.025
354.43	7.036
354.79	8.637
355.15	7.109
355.51	7.344
355.87	7.589
356.24	7.307
356.60	8.541
356.96	8.237
357.32	7.047
357.68	6.820
358.04	7.852
358.40	7.889
358.77	6.955
359.13	7.575
359.49	7.785
359.85	7.622
360.21	8.295
360.57	8.434
360.93	8.222
361.29	7.848
361.66	6.174
362.02	7.840
362.38	7.777
362.74	8.352
363.10	8.106
363.46	8.832
363.82	7.945
364.18	7.959
364.54	9.650
364.90	8.106
365.26	7.703
365.62	8.482
365.98	8.535
366.35	8.803
366.71	8.386
367.07	8.398
367.43	9.609
367.79	7.973
368.15	7.183
368.51	9.301
368.87	10.234
369.23	9.053
369.59	8.681
369.95	8.598
370.31	10.127
370.67	8.026
371.03	8.819
371.39	8.133
371.75	8.727
372.11	8.824
372.47	8.821
372.83	9.110
373.19	9.214
373.55	9.078
373.91	9.317
374.27	8.487
374.63	9.593
374.99	9.388
375.35	8.210
375.71	10.061
376.07	9.377
376.42	7.815
376.78	10.131
377.14	8.881
377.50	9.736
377.86	10.728
378.22	9.234
378.58	9.883
378.94	8.878
379.30	10.420
379.66	10.443
380.02	9.685
380.38	9.426
380.74	9.906
381.09	9.607
381.45	10.621
381.81	10.103
382.17	10.714
382.53	10.456
382.89	10.526
383.25	10.355
383.61	10.024
383.97	10.961
384.32	10.138
384.68	10.943
385.04	10.568
385.40	10.956
385.76	11.220
386.12	10.369
386.48	10.829
386.83	11.288
387.19	10.879
387.55	10.600
387.91	10.551
388.27	10.133
388.62	10.577
388.98	10.297
389.34	11.383
389.70	11.510
390.06	11.436
390.42	11.667
390.77	10.536
391.13	11.739
391.49	11.853
391.85	11.908
392.20	11.226
392.56	11.240
392.92	12.094
393.28	11.940
393.64	11.906
393.99	11.569
394.35	11.861
394.71	12.292
395.07	12.241
395.42	11.204
395.78	10.937
396.14	12.274
396.50	11.009
396.85	12.708
397.21	12.029
397.57	11.854
397.92	12.295
398.28	11.722
398.64	11.779
399.00	12.360
399.35	12.458
399.71	12.369
400.07	11.940
400.42	12.226
400.78	11.330
401.14	11.856
401.49	11.321
401.85	12.020
402.21	12.098
402.57	11.772
402.92	12.146
403.28	11.765
403.63	11.863
403.99	11.871
404.35	12.138
404.70	12.229
405.06	12.514
405.42	11.624
405.77	12.161
406.13	11.755
406.49	11.744
406.84	12.478
407.20	12.662
407.55	12.286
407.91	12.500
408.27	13.297
408.62	12.508
408.98	11.765
409.34	12.371
409.69	12.665
410.05	12.310
410.40	11.159
410.76	12.507
411.11	12.594
411.47	12.148
411.83	12.286
412.18	11.819
412.54	11.287
412.89	12.576
413.25	12.220
413.60	12.333
413.96	11.583
414.31	13.089
414.67	11.429
415.03	11.966
415.38	12.947
415.74	12.822
416.09	12.532
416.45	12.169
416.80	13.134
417.16	12.492
417.51	13.854
417.87	12.427
418.22	11.947
418.58	12.388
418.93	11.833
419.29	12.422
419.64	12.186
420.00	13.062
420.35	12.241
420.71	12.725
421.06	12.840
421.42	12.002
421.77	13.121
422.12	12.927
422.48	13.041
422.83	12.756
423.19	13.252
423.54	13.084
423.90	12.146
424.25	12.896
424.61	13.088
424.96	13.341
425.31	13.080
425.67	13.181
426.02	12.507
426.38	13.491
426.73	13.326
427.09	13.113
427.44	12.898
427.79	12.849
428.15	13.226
428.50	13.959
428.85	12.350
429.21	12.562
429.56	13.333
429.92	12.625
430.27	12.961
430.62	12.800
430.98	12.964
431.33	13.501
431.68	13.351
432.04	13.654
432.39	13.675
432.74	12.770
433.10	13.168
433.45	13.644
433.80	13.550
434.16	13.165
434.51	13.644
434.86	14.528
435.22	14.310
435.57	12.974
435.92	13.892
436.28	14.125
436.63	13.397
436.98	13.402
437.34	14.294
437.69	13.244
438.04	14.294
438.39	14.260
438.75	13.912
439.10	14.270
439.45	14.182
439.81	13.976
440.16	13.913
440.51	13.824
440.86	13.360
441.22	13.709
441.57	14.263
441.92	14.118
442.27	14.232
442.63	13.788
442.98	13.939
443.33	14.607
443.68	14.591
444.03	14.244
444.39	13.412
444.74	14.372
445.09	13.925
445.44	14.463
445.79	13.666
446.15	14.786
446.50	13.936
446.85	14.623
447.20	14.096
447.55	14.807
447.91	15.160
448.26	14.525
448.61	13.639
448.96	15.238
449.31	14.600
449.66	14.654
450.02	14.404
450.37	13.913
450.72	13.955
451.07	14.833
451.42	13.693
451.77	14.961
452.12	14.124
452.47	15.050
452.83	14.094
453.18	15.244
453.53	14.863
453.88	14.892
454.23	14.571
454.58	15.662
454.93	15.113
455.28	14.404
455.63	15.786
455.98	14.699
456.34	14.930
456.69	15.322
457.04	14.813
457.39	13.995
457.74	14.412
458.09	14.385
458.44	15.300
458.79	14.686
459.14	14.775
459.49	15.571
459.84	14.840
460.19	14.499
460.54	14.943
460.89	14.854
461.24	16.151
461.59	15.475
461.94	15.850
462.29	15.485
462.64	15.217
462.99	15.462
463.34	14.922
463.69	15.267
464.04	14.470
464.39	15.890
464.74	14.835
465.09	14.853
465.44	14.721
465.79	15.285
466.14	15.478
466.49	15.659
466.84	15.246
467.19	15.274
467.54	14.494
467.89	16.030
468.24	15.618
468.59	15.990
468.94	15.113
469.29	15.205
469.64	15.970
469.99	17.016
470.34	16.366
470.68	15.698
471.03	15.967
471.38	15.000
471.73	15.944
472.08	15.797
472.43	15.830
472.78	16.200
473.13	15.639
473.48	16.528
473.83	16.811
474.17	17.197
474.52	16.944
474.87	16.725
475.22	15.693
475.57	15.722
475.92	16.361
476.27	15.886
476.61	16.169
476.96	16.601
477.31	17.277
477.66	16.049
478.01	16.694
478.36	16.344
478.70	17.032
479.05	16.874
479.40	17.047
479.75	16.514
480.10	16.419
480.45	16.393
480.79	16.732
481.14	17.361
481.49	16.893
481.84	16.459
482.19	16.400
482.53	17.377
482.88	17.038
483.23	16.385
483.58	18.039
483.92	17.344
484.27	15.950
484.62	16.501
484.97	16.641
485.31	15.200
485.66	15.154
486.01	15.257
486.36	16.212
486.70	16.393
487.05	16.103
487.40	16.132
487.75	16.227
488.09	15.442
488.44	16.340
488.79	16.661
489.13	17.003
489.48	17.088
489.83	17.162
490.17	17.327
490.52	17.889
490.87	17.044
491.22	16.815
491.56	17.870
491.91	16.889
492.26	17.500
492.60	17.174
492.95	17.563
493.30	17.627
493.64	17.066
493.99	16.922
494.34	16.810
494.68	18.446
495.03	17.161
495.37	17.060
495.72	17.436
496.07	18.160
496.41	18.157
496.76	17.534
497.11	17.758
497.45	18.008
497.80	17.709
498.14	18.271
498.49	17.880
498.84	17.670
499.18	18.567
499.53	17.681
499.87	17.278
500.22	17.402
500.56	17.709
500.91	18.128
501.26	18.049
501.60	17.477
501.95	18.647
502.29	17.667
502.64	18.340
502.98	17.106
503.33	17.293
503.67	17.768
504.02	17.866
504.36	18.480
504.71	18.136
505.06	18.073
505.40	19.411
505.75	18.801
506.09	18.352
506.44	18.897
506.78	19.067
507.13	18.229
507.47	19.197
507.82	18.895
508.16	18.705
508.51	18.650
508.85	18.944
509.19	18.420
509.54	19.345
509.88	19.521
510.23	18.187
510.57	19.259
510.92	19.979
511.26	19.405
511.61	18.737
511.95	19.127
512.30	19.461
512.64	19.421
512.98	19.967
513.33	20.319
513.67	20.380
514.02	19.016
514.36	19.058
514.70	19.694
515.05	20.869
515.39	19.781
515.74	20.768
516.08	19.827
516.42	20.283
516.77	20.682
517.11	19.394
517.46	20.096
517.80	20.698
518.14	20.471
518.49	19.964
518.83	20.772
519.17	20.426
519.52	20.879
519.86	21.326
520.20	21.333
520.55	21.600
520.89	20.351
521.23	21.673
521.58	21.505
521.92	21.406
522.26	21.270
522.61	21.610
522.95	21.251
523.29	21.129
523.64	21.112
523.98	21.642
524.32	22.690
524.66	21.304
525.01	21.387
525.35	21.972
525.69	22.316
526.04	21.932
526.38	22.533
526.72	21.648
527.06	22.266
527.41	21.716
527.75	21.254
528.09	23.031
528.43	22.164
528.78	21.796
529.12	23.175
529.46	21.843
529.80	22.466
530.15	22.730
530.49	21.539
530.83	22.790
531.17	22.424
531.51	21.902
531.86	22.120
532.20	22.807
532.54	23.463
532.88	22.332
533.22	21.992
533.57	22.454
533.91	22.097
534.25	21.622
534.59	22.611
534.93	22.278
535.27	22.089
535.62	23.593
535.96	22.237
536.30	20.550
536.64	22.377
536.98	22.387
537.32	21.493
537.66	21.928
538.01	22.955
538.35	22.905
538.69	22.193
539.03	21.936
539.37	21.956
539.71	21.815
540.05	23.235
540.39	22.299
540.73	22.875
541.07	22.678
541.42	21.810
541.76	21.595
542.10	23.363
542.44	21.652
542.78	22.727
543.12	23.761
543.46	21.575
543.80	21.873
544.14	22.700
544.48	22.638
544.82	23.004
545.16	22.535
545.50	21.198
545.84	22.740
546.18	22.816
546.52	23.115
546.86	22.792
547.20	22.433
547.54	21.212
547.88	22.296
548.22	20.839
548.56	21.844
548.90	22.507
549.24	22.705
549.58	22.583
549.92	23.322
550.26	23.049
550.60	22.119
550.94	22.774
551.28	23.326
551.62	23.191
551.96	22.431
552.30	22.857
552.64	22.730
552.98	23.125
553.32	21.645
553.66	23.071
554.00	22.530
554.34	22.166
554.68	22.734
555.02	23.010
555.36	23.005
555.69	21.347
556.03	22.667
556.37	22.973
556.71	22.477
557.05	23.060
557.39	23.014
557.73	23.851
558.07	22.758
558.41	21.915
558.75	22.510
559.08	23.035
559.42	22.665
559.76	22.929
560.10	23.043
560.44	22.399
560.78	22.477
561.12	22.015
561.45	23.425
561.79	21.742
562.13	22.651
562.47	22.059
562.81	22.631
563.15	21.833
563.48	22.460
563.82	23.259
564.16	22.245
564.50	21.774
564.84	21.693
565.17	21.419
565.51	21.056
565.85	22.853
566.19	21.805
566.52	21.461
566.86	20.354
567.20	21.731
567.54	21.618
567.88	21.496
568.21	21.309
568.55	20.838
568.89	20.278
569.23	20.037
569.56	20.135
569.90	20.456
570.24	20.970
570.57	19.684
570.91	20.163
571.25	19.682
571.59	19.575
571.92	19.643
572.26	19.353
572.60	19.082
572.93	19.046
573.27	19.116
573.61	18.899
573.95	19.212
574.28	18.307
574.62	19.141
574.96	18.744
575.29	18.420
575.63	18.928
575.97	18.635
576.30	19.101
576.64	19.008
576.98	18.562
577.31	18.903
577.65	18.743
577.98	18.642
578.32	18.459
578.66	18.417
578.99	18.701
579.33	18.739
579.67	18.818
580.00	18.700
580.34	18.640
580.67	18.338
581.01	18.122
581.35	18.325
581.68	18.454
582.02	18.597
582.35	18.451
582.69	18.877
583.02	18.700
583.36	19.209
583.70	18.510
584.03	19.289
584.37	18.593
584.70	18.583
585.04	18.430
585.37	18.138
585.71	18.795
586.04	18.794
586.38	18.337
586.72	18.658
587.05	19.173
587.39	18.683
587.72	18.928
588.06	18.680
588.39	19.026
588.73	18.950
589.06	19.214
589.40	19.993
589.73	19.263
590.07	19.192
590.40	18.930
590.73	18.593
591.07	19.467
591.40	19.931
591.74	20.243
592.07	19.099
592.41	19.873
592.74	19.370
593.08	19.464
593.41	18.980
593.75	18.628
594.08	19.375
594.41	19.482
594.75	19.857
595.08	19.624
595.42	19.906
595.75	18.927
596.09	19.441
596.42	19.722
596.75	19.534
597.09	20.525
597.42	19.642
597.75	19.752
598.09	20.289
598.42	19.664
598.76	19.228
599.09	19.021
599.42	18.839
599.76	19.290
600.09	19.466
600.42	19.787
600.76	19.397
601.09	18.914
601.42	18.757
601.76	19.354
602.09	18.978
602.42	19.053
602.76	19.194
603.09	19.677
603.42	19.541
603.76	19.266
604.09	19.383
604.42	19.276
604.76	19.451
605.09	19.801
605.42	19.947
605.75	19.319
606.09	19.303
606.42	18.685
606.75	19.622
607.09	19.232
607.42	19.102
607.75	18.940
608.08	19.385
608.42	19.300
608.75	19.019
609.08	19.289
609.41	20.478
609.75	19.600
610.08	19.853
610.41	19.711
610.74	20.309
611.07	20.588
611.41	19.415
611.74	21.028
612.07	20.462
612.40	19.616
612.73	20.140
613.07	20.198
613.40	20.963
613.73	20.109
614.06	19.660
614.39	20.462
614.72	19.721
615.06	19.837
615.39	19.371
615.72	20.043
616.05	20.596
616.38	20.197
616.71	20.000
617.05	20.145
617.38	20.619
617.71	20.270
618.04	19.814
618.37	20.000
618.70	21.969
619.03	20.718
619.36	21.776
619.69	21.608
620.03	20.730
620.36	19.480
620.69	21.177
621.02	21.385
621.35	21.210
621.68	21.230
622.01	20.793
622.34	22.360
622.67	20.859
623.00	20.964
623.33	22.015
623.66	20.015
623.99	21.203
624.32	21.503
624.65	21.266
624.99	20.836
625.32	20.210
625.65	20.746
625.98	20.579
626.31	22.512
626.64	20.921
626.97	21.147
627.30	20.511
627.63	20.466
627.96	20.975
628.29	22.794
628.62	21.299
628.95	23.425
629.28	22.462
629.61	22.964
629.94	20.794
630.26	23.956
630.59	22.312
630.92	22.523
631.25	23.992
631.58	21.905
631.91	21.809
632.24	23.222
632.57	23.222
632.90	22.644
633.23	22.079
633.56	23.509
633.89	22.995
634.22	22.668
634.55	23.798
634.88	23.700
635.20	23.471
635.53	23.410
635.86	22.670
636.19	22.344
636.52	22.103
636.85	23.827
637.18	22.625
637.51	24.907
