SpectraSuite Data File
++++++++++++++++++++++++++++++++++++
Date: Sat May 16 11:09:48 PDT 2015
User: schluterlab
Dark Spectrum Present: Yes
Reference Spectrum Present: Yes
Number of Sampled Component Spectra: 1
Spectrometers: USB2E3373
Integration Time (usec): 3000 (USB2E3373)
Spectra Averaged: 3 (USB2E3373)
Boxcar Smoothing: 0 (USB2E3373)
Correct for Electrical Dark: No (USB2E3373)
Strobe/Lamp Enabled: No (USB2E3373)
Correct for Detector Non-linearity: No (USB2E3373)
Correct for Stray Light: No (USB2E3373)
Number of Pixels in Processed Spectrum: 2048
>>>>>Begin Processed Spectral Data<<<<<
178.53	0.000
178.91	53.333
179.29	200.000
179.67	-900.000
180.04	84.615
180.42	700.000
180.80	175.000
181.18	350.000
181.56	12.500
181.94	-200.000
182.31	300.000
182.69	76.923
183.07	-433.333
183.45	1350.000
183.83	-233.333
184.20	-28.571
184.58	-62.500
184.96	-200.000
185.34	106.250
185.72	-550.000
186.09	116.667
186.47	-112.500
186.85	-75.000
187.23	50.000
187.61	-100.000
187.98	-162.500
188.36	75.000
188.74	-125.000
189.12	700.000
189.49	300.000
189.87	0.000
190.25	100.000
190.63	121.429
191.00	-144.444
191.38	500.000
191.76	-13.333
192.14	220.000
192.51	-200.000
192.89	0.000
193.27	0.000
193.65	33.333
194.02	-200.000
194.40	133.333
194.78	-30.000
195.15	-1000.000
195.53	36.364
195.91	-316.667
196.29	140.000
196.66	-166.667
197.04	900.000
197.42	100.000
197.79	80.000
198.17	0.000
198.55	550.000
198.92	-100.000
199.30	112.500
199.68	-300.000
200.05	-66.667
200.43	44.444
200.81	-700.000
201.18	-25.000
201.56	114.286
201.94	-26.667
202.31	77.273
202.69	140.000
203.07	-50.000
203.44	166.667
203.82	-133.333
204.19	-75.000
204.57	50.000
204.95	-100.000
205.32	18.750
205.70	600.000
206.08	-900.000
206.45	11.111
206.83	-800.000
207.20	500.000
207.58	-566.667
207.96	-200.000
208.33	12.500
208.71	-33.333
209.08	150.000
209.46	-28.571
209.84	300.000
210.21	0.000
210.59	80.000
210.96	-100.000
211.34	-16.667
211.71	-166.667
212.09	75.000
212.46	350.000
212.84	-1100.000
213.22	433.333
213.59	100.000
213.97	55.556
214.34	30.000
214.72	-10.000
215.09	-200.000
215.47	-16.667
215.84	-20.000
216.22	30.000
216.59	66.667
216.97	-375.000
217.34	200.000
217.72	28.571
218.09	-116.667
218.47	-71.429
218.84	14.286
219.22	71.429
219.59	0.000
219.97	71.429
220.34	125.000
220.72	-50.000
221.09	15.385
221.47	0.000
221.84	33.333
222.22	150.000
222.59	100.000
222.97	-37.500
223.34	-550.000
223.72	33.333
224.09	21.429
224.46	-225.000
224.84	-35.714
225.21	-14.286
225.59	63.636
225.96	62.500
226.34	85.714
226.71	11.111
227.08	35.000
227.46	1100.000
227.83	57.143
228.21	-112.500
228.58	-250.000
228.95	62.500
229.33	-1600.000
229.70	-100.000
230.08	-150.000
230.45	-25.000
230.82	-116.667
231.20	-600.000
231.57	300.000
231.95	1700.000
232.32	38.095
232.69	44.444
233.07	-71.429
233.44	-350.000
233.81	0.000
234.19	-33.333
234.56	0.000
234.93	50.000
235.31	-200.000
235.68	-92.857
236.05	-58.824
236.43	9.091
236.80	6.452
237.17	20.833
237.55	28.571
237.92	-50.000
238.29	0.000
238.67	8.824
239.04	25.000
239.41	-3.226
239.79	-20.513
240.16	-30.952
240.53	-14.545
240.91	7.692
241.28	-10.909
241.65	9.231
242.02	0.000
242.40	-13.115
242.77	-4.545
243.14	-8.475
243.51	-14.286
243.89	-12.658
244.26	1.124
244.63	2.105
245.00	-5.263
245.38	0.847
245.75	9.735
246.12	2.400
246.49	-5.512
246.87	3.252
247.24	-5.085
247.61	-11.017
247.98	2.113
248.36	-10.490
248.73	5.696
249.10	-0.637
249.47	3.509
249.84	1.705
250.22	-4.167
250.59	3.955
250.96	0.000
251.33	6.635
251.70	3.365
252.08	3.318
252.45	3.791
252.82	0.000
253.19	0.426
253.56	1.210
253.94	2.532
254.31	-3.433
254.68	3.659
255.05	0.000
255.42	0.397
255.79	-1.792
256.16	1.569
256.54	0.735
256.91	-1.515
257.28	-2.930
257.65	1.773
258.02	6.289
258.39	0.000
258.76	-2.703
259.14	-1.543
259.51	2.295
259.88	-1.220
260.25	0.311
260.62	-1.286
260.99	-0.297
261.36	3.354
261.73	4.913
262.10	0.556
262.47	-0.285
262.85	4.571
263.22	1.146
263.59	1.231
263.96	2.319
264.33	-0.813
264.70	1.934
265.07	-0.824
265.44	2.067
265.81	-0.517
266.18	-1.772
266.55	1.225
266.92	1.511
267.29	1.695
267.66	2.469
268.03	3.865
268.40	0.469
268.77	2.169
269.14	2.552
269.51	2.299
269.88	0.000
270.25	0.233
270.62	-1.373
270.99	1.577
271.36	2.564
271.73	0.448
272.10	0.686
272.47	1.333
272.84	3.333
273.21	2.523
273.58	2.198
273.95	0.658
274.32	-0.679
274.69	3.720
275.06	2.249
275.43	0.670
275.80	4.481
276.17	0.209
276.54	4.073
276.91	2.263
277.28	-0.406
277.65	3.512
278.02	-1.253
278.39	2.947
278.76	1.793
279.13	2.372
279.50	0.398
279.87	0.211
280.23	2.024
280.60	1.590
280.97	2.524
281.34	0.000
281.71	0.962
282.08	2.218
282.45	-0.611
282.82	-0.194
283.19	0.909
283.56	3.480
283.92	1.413
284.29	1.487
284.66	0.719
285.03	2.674
285.40	3.137
285.77	2.281
286.14	0.000
286.51	1.954
286.87	2.359
287.24	1.877
287.61	2.479
287.98	-0.173
288.35	0.826
288.72	0.679
289.08	0.169
289.45	1.178
289.82	-0.692
290.19	2.135
290.56	0.165
290.93	-0.159
291.29	0.648
291.66	1.127
292.03	2.669
292.40	3.614
292.77	2.174
293.13	3.415
293.50	1.486
293.87	1.994
294.24	2.564
294.60	1.061
294.97	1.669
295.34	1.185
295.71	2.232
296.08	-0.461
296.44	0.572
296.81	0.285
297.18	1.972
297.55	2.401
297.91	2.789
298.28	1.233
298.65	0.697
299.02	2.941
299.38	0.936
299.75	1.902
300.12	2.179
300.48	2.302
300.85	1.180
301.22	1.035
301.59	0.260
301.95	3.149
302.32	0.000
302.69	2.203
303.05	0.611
303.42	2.000
303.79	1.435
304.15	1.540
304.52	1.634
304.89	0.945
305.25	0.977
305.62	1.293
305.99	3.062
306.35	2.331
306.72	1.481
307.09	3.859
307.45	1.135
307.82	2.458
308.19	2.125
308.55	2.070
308.92	2.900
309.29	1.514
309.65	2.545
310.02	1.836
310.38	1.514
310.75	2.049
311.12	2.686
311.48	1.879
311.85	2.369
312.22	2.678
312.58	2.848
312.95	3.976
313.31	4.296
313.68	4.724
314.05	3.165
314.41	2.113
314.78	1.499
315.14	3.751
315.51	3.951
315.87	4.066
316.24	3.887
316.61	3.647
316.97	4.876
317.34	4.143
317.70	4.731
318.07	5.224
318.43	3.745
318.80	5.540
319.16	4.034
319.53	5.921
319.89	4.798
320.26	5.000
320.62	5.000
320.99	6.567
321.35	4.335
321.72	5.629
322.08	6.627
322.45	5.842
322.81	6.724
323.18	5.764
323.54	6.654
323.91	7.044
324.27	6.559
324.64	7.221
325.00	7.592
325.37	7.602
325.73	9.186
326.10	6.643
326.46	8.932
326.83	8.000
327.19	8.424
327.56	9.284
327.92	8.411
328.29	9.091
328.65	8.091
329.01	9.629
329.38	9.723
329.74	10.714
330.11	9.429
330.47	10.536
330.84	11.457
331.20	10.740
331.56	10.574
331.93	10.835
332.29	11.963
332.66	11.853
333.02	11.403
333.38	11.290
333.75	10.419
334.11	11.022
334.48	12.004
334.84	12.423
335.20	12.323
335.57	13.267
335.93	12.355
336.29	12.400
336.66	11.189
337.02	12.432
337.38	11.141
337.75	12.994
338.11	12.433
338.47	12.189
338.84	12.523
339.20	11.424
339.56	12.299
339.93	12.257
340.29	10.629
340.65	11.276
341.02	12.563
341.38	11.289
341.74	11.600
342.11	12.031
342.47	11.845
342.83	11.839
343.20	12.383
343.56	10.776
343.92	11.102
344.28	13.204
344.65	10.314
345.01	12.101
345.37	12.625
345.73	10.802
346.10	10.711
346.46	11.698
346.82	11.227
347.19	10.846
347.55	12.681
347.91	11.575
348.27	10.422
348.63	11.389
349.00	11.535
349.36	10.695
349.72	12.102
350.08	11.788
350.45	10.717
350.81	11.863
351.17	11.093
351.53	10.740
351.89	11.075
352.26	11.783
352.62	12.289
352.98	11.472
353.34	11.031
353.70	11.197
354.07	12.825
354.43	12.174
354.79	11.490
355.15	11.502
355.51	11.719
355.87	10.435
356.24	10.326
356.60	12.087
356.96	12.625
357.32	10.689
357.68	11.188
358.04	10.855
358.40	12.297
358.77	11.901
359.13	11.936
359.49	10.809
359.85	11.052
360.21	10.274
360.57	12.123
360.93	11.926
361.29	12.033
361.66	10.518
362.02	11.243
362.38	11.886
362.74	11.575
363.10	11.334
363.46	12.464
363.82	11.880
364.18	11.795
364.54	12.223
364.90	11.041
365.26	10.770
365.62	11.761
365.98	11.949
366.35	11.620
366.71	10.148
367.07	11.080
367.43	12.080
367.79	11.684
368.15	11.024
368.51	12.727
368.87	12.431
369.23	11.158
369.59	11.597
369.95	11.557
370.31	11.674
370.67	10.991
371.03	12.099
371.39	10.608
371.75	11.803
372.11	11.765
372.47	12.003
372.83	11.266
373.19	11.571
373.55	12.597
373.91	12.091
374.27	11.362
374.63	11.732
374.99	12.517
375.35	10.969
375.71	11.816
376.07	11.704
376.42	10.530
376.78	12.092
377.14	11.390
377.50	12.444
377.86	11.443
378.22	11.307
378.58	10.809
378.94	11.344
379.30	11.213
379.66	11.475
380.02	11.349
380.38	11.057
380.74	11.723
381.09	11.658
381.45	11.158
381.81	10.829
382.17	11.090
382.53	11.429
382.89	11.304
383.25	11.860
383.61	11.557
383.97	11.145
384.32	11.514
384.68	11.427
385.04	11.413
385.40	11.990
385.76	11.585
386.12	11.305
386.48	11.448
386.83	11.840
387.19	11.417
387.55	11.508
387.91	11.381
388.27	10.736
388.62	10.697
388.98	11.629
389.34	11.138
389.70	10.962
390.06	11.374
390.42	11.603
390.77	10.978
391.13	10.745
391.49	10.605
391.85	10.411
392.20	10.437
392.56	10.629
392.92	11.010
393.28	11.596
393.64	10.884
393.99	11.200
394.35	10.462
394.71	11.056
395.07	10.797
395.42	10.072
395.78	9.679
396.14	11.838
396.50	11.009
396.85	11.104
397.21	10.571
397.57	11.246
397.92	10.948
398.28	10.833
398.64	10.767
399.00	10.225
399.35	11.048
399.71	11.498
400.07	10.328
400.42	10.949
400.78	10.018
401.14	9.940
401.49	10.908
401.85	10.311
402.21	11.085
402.57	10.740
402.92	10.761
403.28	10.723
403.63	9.646
403.99	10.752
404.35	10.326
404.70	10.240
405.06	9.977
405.42	10.148
405.77	10.238
406.13	10.108
406.49	9.826
406.84	9.958
407.20	10.954
407.55	10.006
407.91	10.427
408.27	10.784
408.62	10.583
408.98	9.703
409.34	9.811
409.69	10.145
410.05	9.885
410.40	9.994
410.76	9.899
411.11	9.726
411.47	10.870
411.83	10.758
412.18	10.272
412.54	9.823
412.89	9.599
413.25	8.619
413.60	9.964
413.96	9.673
414.31	9.969
414.67	8.952
415.03	9.767
415.38	10.280
415.74	10.245
416.09	10.422
416.45	9.325
416.80	10.078
417.16	8.970
417.51	10.506
417.87	8.932
418.22	9.608
418.58	10.719
418.93	9.687
419.29	11.041
419.64	9.673
420.00	10.389
420.35	9.876
420.71	10.264
421.06	10.769
421.42	9.719
421.77	10.385
422.12	10.185
422.48	10.529
422.83	10.080
423.19	9.855
423.54	10.836
423.90	10.179
424.25	9.898
424.61	10.495
424.96	10.708
425.31	10.900
425.67	10.888
426.02	9.466
426.38	11.192
426.73	11.280
427.09	10.600
427.44	10.966
427.79	9.826
428.15	10.952
428.50	11.144
428.85	10.971
429.21	11.013
429.56	10.938
429.92	11.373
430.27	11.316
430.62	11.755
430.98	10.664
431.33	10.619
431.68	11.367
432.04	10.632
432.39	11.225
432.74	10.911
433.10	10.917
433.45	10.420
433.80	10.638
434.16	11.069
434.51	11.397
434.86	11.541
435.22	11.748
435.57	11.077
435.92	11.313
436.28	11.276
436.63	11.136
436.98	11.283
437.34	12.286
437.69	11.494
438.04	11.514
438.39	12.034
438.75	11.409
439.10	11.938
439.45	12.251
439.81	11.325
440.16	11.414
440.51	12.176
440.86	11.278
441.22	11.609
441.57	11.895
441.92	11.611
442.27	12.121
442.63	12.607
442.98	11.851
443.33	11.752
443.68	11.621
444.03	11.935
444.39	11.698
444.74	12.335
445.09	11.623
445.44	12.662
445.79	12.392
446.15	12.322
446.50	11.758
446.85	12.160
447.20	13.228
447.55	12.044
447.91	12.521
448.26	11.955
448.61	12.790
448.96	13.669
449.31	11.725
449.66	12.707
450.02	12.078
450.37	12.116
450.72	11.695
451.07	12.382
451.42	11.462
451.77	12.567
452.12	12.813
452.47	12.909
452.83	12.347
453.18	12.903
453.53	12.873
453.88	13.038
454.23	12.394
454.58	12.492
454.93	13.035
455.28	12.365
455.63	13.022
455.98	12.711
456.34	11.436
456.69	13.446
457.04	13.030
457.39	12.500
457.74	12.817
458.09	12.703
458.44	13.453
458.79	12.724
459.14	12.607
459.49	12.789
459.84	13.491
460.19	12.768
460.54	12.281
460.89	12.388
461.24	12.993
461.59	12.954
461.94	12.540
462.29	13.877
462.64	12.648
462.99	13.521
463.34	12.289
463.69	12.659
464.04	12.068
464.39	12.664
464.74	13.239
465.09	12.327
465.44	12.690
465.79	13.085
466.14	13.176
466.49	12.493
466.84	13.385
467.19	13.404
467.54	11.266
467.89	11.899
468.24	13.836
468.59	12.804
468.94	13.376
469.29	13.320
469.64	13.342
469.99	13.302
470.34	12.892
470.68	13.517
471.03	13.696
471.38	11.597
471.73	12.727
472.08	12.584
472.43	12.677
472.78	14.267
473.13	12.194
473.48	13.465
473.83	13.213
474.17	12.675
474.52	13.491
474.87	13.112
475.22	12.979
475.57	12.611
475.92	13.013
476.27	12.000
476.61	12.451
476.96	12.689
477.31	12.379
477.66	12.950
478.01	13.020
478.36	13.620
478.70	12.653
479.05	12.223
479.40	12.591
479.75	12.895
480.10	12.946
480.45	12.524
480.79	13.425
481.14	12.995
481.49	12.197
481.84	12.344
482.19	13.111
482.53	13.163
482.88	12.435
483.23	12.911
483.58	12.951
483.92	12.996
484.27	12.317
484.62	12.311
484.97	12.705
485.31	12.448
485.66	12.288
486.01	11.801
486.36	11.925
486.70	12.325
487.05	12.090
487.40	12.260
487.75	12.690
488.09	12.075
488.44	12.145
488.79	12.699
489.13	12.628
489.48	13.010
489.83	12.271
490.17	12.712
490.52	12.772
490.87	12.425
491.22	12.424
491.56	12.639
491.91	12.929
492.26	12.925
492.60	13.035
492.95	13.517
493.30	12.339
493.64	12.365
493.99	12.428
494.34	12.381
494.68	12.547
495.03	11.807
495.37	12.340
495.72	12.819
496.07	12.999
496.41	12.923
496.76	12.740
497.11	12.859
497.45	12.883
497.80	12.156
498.14	13.310
498.49	12.707
498.84	12.282
499.18	13.158
499.53	12.713
499.87	12.355
500.22	12.451
500.56	12.656
500.91	12.315
501.26	13.440
501.60	12.951
501.95	12.560
502.29	12.896
502.64	13.201
502.98	12.218
503.33	12.735
503.67	12.356
504.02	12.168
504.36	13.088
504.71	12.057
505.06	12.681
505.40	12.874
505.75	12.754
506.09	13.246
506.44	13.183
506.78	12.243
507.13	11.740
507.47	12.780
507.82	12.907
508.16	13.212
508.51	12.931
508.85	11.957
509.19	12.140
509.54	12.844
509.88	12.713
510.23	12.945
510.57	13.122
510.92	12.782
511.26	13.344
511.61	12.527
511.95	12.931
512.30	12.040
512.64	12.298
512.98	12.871
513.33	13.234
513.67	13.177
514.02	13.087
514.36	13.352
514.70	13.016
515.05	13.036
515.39	13.552
515.74	13.380
516.08	13.660
516.42	13.428
516.77	13.749
517.11	13.330
517.46	13.038
517.80	13.839
518.14	12.500
518.49	13.210
518.83	13.353
519.17	14.269
519.52	12.435
519.86	14.277
520.20	13.814
520.55	13.538
520.89	13.463
521.23	13.553
521.58	12.790
521.92	13.933
522.26	13.587
522.61	13.181
522.95	11.870
523.29	13.103
523.64	13.179
523.98	14.131
524.32	13.891
524.66	12.795
525.01	13.359
525.35	13.982
525.69	13.728
526.04	14.034
526.38	13.940
526.72	13.091
527.06	13.932
527.41	12.475
527.75	12.475
528.09	12.641
528.43	13.180
528.78	12.814
529.12	14.020
529.46	13.595
529.80	12.782
530.15	13.844
530.49	14.489
530.83	13.949
531.17	12.054
531.51	12.793
531.86	13.167
532.20	13.900
532.54	13.369
532.88	13.307
533.22	12.901
533.57	13.120
533.91	13.171
534.25	14.205
534.59	12.680
534.93	13.006
535.27	14.034
535.62	14.450
535.96	14.286
536.30	12.827
536.64	13.745
536.98	13.630
537.32	13.822
537.66	13.103
538.01	13.196
538.35	13.784
538.69	12.767
539.03	14.015
539.37	13.373
539.71	14.410
540.05	13.365
540.39	13.158
540.73	13.407
541.07	13.593
541.42	12.221
541.76	12.226
542.10	14.517
542.44	13.258
542.78	13.229
543.12	13.306
543.46	12.740
543.80	12.910
544.14	13.163
544.48	13.845
544.82	12.855
545.16	13.950
545.50	12.921
545.84	14.186
546.18	13.592
546.52	14.154
546.86	12.536
547.20	13.432
547.54	12.879
547.88	13.470
548.22	12.189
548.56	12.358
548.90	13.005
549.24	12.263
549.58	13.126
549.92	13.145
550.26	14.451
550.60	12.162
550.94	13.212
551.28	12.942
551.62	13.146
551.96	13.242
552.30	13.728
552.64	13.019
552.98	13.525
553.32	13.059
553.66	13.771
554.00	13.149
554.34	13.935
554.68	13.158
555.02	13.531
555.36	12.940
555.69	12.679
556.03	12.561
556.37	13.158
556.71	13.243
557.05	13.599
557.39	12.992
557.73	13.713
558.07	12.509
558.41	13.837
558.75	13.080
559.08	12.062
559.42	13.783
559.76	13.497
560.10	13.870
560.44	13.656
560.78	13.431
561.12	13.320
561.45	13.767
561.79	13.380
562.13	13.464
562.47	13.655
562.81	12.518
563.15	13.296
563.48	12.785
563.82	12.711
564.16	12.373
564.50	13.441
564.84	12.765
565.17	13.462
565.51	13.038
565.85	13.590
566.19	13.570
566.52	13.372
566.86	12.832
567.20	13.499
567.54	13.763
567.88	12.842
568.21	12.025
568.55	12.513
568.89	12.326
569.23	11.985
569.56	12.526
569.90	12.628
570.24	12.289
570.57	11.775
570.91	11.901
571.25	12.289
571.59	11.864
571.92	11.667
572.26	11.803
572.60	11.883
572.93	11.490
573.27	11.677
573.61	11.299
573.95	11.948
574.28	11.600
574.62	11.515
574.96	11.291
575.29	11.611
575.63	11.733
575.97	11.327
576.30	11.839
576.64	11.436
576.98	11.097
577.31	11.251
577.65	11.787
577.98	11.646
578.32	11.324
578.66	11.519
578.99	11.727
579.33	11.555
579.67	11.565
580.00	11.235
580.34	11.815
580.67	11.253
581.01	11.243
581.35	11.256
581.68	11.698
582.02	11.401
582.35	11.388
582.69	11.632
583.02	11.583
583.36	11.511
583.70	11.444
584.03	11.800
584.37	11.313
584.70	11.842
585.04	11.873
585.37	11.432
585.71	11.829
586.04	11.930
586.38	11.494
586.72	11.669
587.05	11.810
587.39	11.472
587.72	12.052
588.06	11.774
588.39	11.820
588.73	12.161
589.06	12.052
589.40	12.195
589.73	11.331
590.07	11.872
590.40	12.399
590.73	12.355
591.07	12.295
591.40	12.348
591.74	12.641
592.07	12.117
592.41	12.187
592.74	12.337
593.08	11.603
593.41	11.908
593.75	11.078
594.08	11.395
594.41	11.682
594.75	12.231
595.08	11.767
595.42	12.319
595.75	12.054
596.09	12.224
596.42	12.643
596.75	11.902
597.09	12.778
597.42	12.047
597.75	12.046
598.09	12.201
598.42	12.152
598.76	12.292
599.09	12.115
599.42	11.918
599.76	12.193
600.09	11.450
600.42	12.153
600.76	12.203
601.09	11.660
601.42	12.030
601.76	12.967
602.09	12.025
602.42	12.305
602.76	11.757
603.09	12.016
603.42	12.329
603.76	12.206
604.09	12.335
604.42	11.657
604.76	11.862
605.09	11.890
605.42	12.589
605.75	11.643
606.09	11.748
606.42	11.856
606.75	12.194
607.09	11.910
607.42	11.136
607.75	12.097
608.08	12.653
608.42	12.299
608.75	11.822
609.08	12.421
609.41	12.357
609.75	11.897
610.08	12.500
610.41	12.193
610.74	12.911
611.07	12.576
611.41	11.901
611.74	12.905
612.07	12.836
612.40	12.473
612.73	12.224
613.07	12.988
613.40	12.479
613.73	11.335
614.06	12.191
614.39	13.021
614.72	11.341
615.06	12.228
615.39	11.557
615.72	12.276
616.05	11.761
616.38	11.840
616.71	12.673
617.05	13.088
617.38	12.632
617.71	11.671
618.04	11.615
618.37	12.201
618.70	12.386
619.03	11.781
619.36	13.108
619.69	13.209
620.03	12.534
620.36	12.588
620.69	12.276
621.02	12.100
621.35	13.145
621.68	12.705
622.01	13.188
622.34	13.665
622.67	12.266
623.00	12.624
623.33	13.358
623.66	12.112
623.99	11.880
624.32	12.128
624.65	12.804
624.99	12.323
625.32	12.275
625.65	13.131
625.98	11.033
626.31	12.398
626.64	12.552
626.97	13.271
627.30	13.021
627.63	11.744
627.96	13.229
628.29	12.868
628.62	11.843
628.95	13.287
629.28	12.500
629.61	12.169
629.94	13.611
630.26	13.618
630.59	12.563
630.92	12.613
631.25	13.710
631.58	13.122
631.91	12.234
632.24	12.889
632.57	13.222
632.90	12.759
633.23	13.318
633.56	13.801
633.89	13.679
634.22	14.286
634.55	14.423
634.88	13.301
635.20	12.235
635.53	14.122
635.86	11.587
636.19	13.919
636.52	12.903
636.85	11.432
637.18	11.000
637.51	15.366
637.83	12.916
638.16	13.684
638.49	13.379
