SpectraSuite Data File
++++++++++++++++++++++++++++++++++++
Date: Sat May 16 11:17:36 PDT 2015
User: schluterlab
Dark Spectrum Present: Yes
Reference Spectrum Present: Yes
Number of Sampled Component Spectra: 1
Spectrometers: USB2E3373
Integration Time (usec): 3000 (USB2E3373)
Spectra Averaged: 3 (USB2E3373)
Boxcar Smoothing: 0 (USB2E3373)
Correct for Electrical Dark: No (USB2E3373)
Strobe/Lamp Enabled: No (USB2E3373)
Correct for Detector Non-linearity: No (USB2E3373)
Correct for Stray Light: No (USB2E3373)
Number of Pixels in Processed Spectrum: 2048
>>>>>Begin Processed Spectral Data<<<<<
178.53	0.000
178.91	86.667
179.29	333.333
179.67	-700.000
180.04	-76.923
180.42	200.000
180.80	125.000
181.18	150.000
181.56	50.000
181.94	700.000
182.31	300.000
182.69	-38.462
183.07	-300.000
183.45	700.000
183.83	733.333
184.20	-100.000
184.58	-175.000
184.96	-350.000
185.34	143.750
185.72	-250.000
186.09	200.000
186.47	-100.000
186.85	-75.000
187.23	12.500
187.61	125.000
187.98	-200.000
188.36	-250.000
188.74	-137.500
189.12	1200.000
189.49	157.143
189.87	-50.000
190.25	225.000
190.63	-14.286
191.00	-100.000
191.38	400.000
191.76	20.000
192.14	580.000
192.51	-300.000
192.89	-433.333
193.27	0.000
193.65	-55.556
194.02	-171.429
194.40	433.333
194.78	-10.000
195.15	-900.000
195.53	-90.909
195.91	-350.000
196.29	320.000
196.66	-66.667
197.04	1200.000
197.42	-75.000
197.79	60.000
198.17	-200.000
198.55	-700.000
198.92	-600.000
199.30	137.500
199.68	-400.000
200.05	-88.889
200.43	-111.111
200.81	-200.000
201.18	-25.000
201.56	142.857
201.94	-53.333
202.31	27.273
202.69	130.000
203.07	-30.000
203.44	233.333
203.82	-233.333
204.19	-300.000
204.57	25.000
204.95	-100.000
205.32	-12.500
205.70	600.000
206.08	-1300.000
206.45	-11.111
206.83	-350.000
207.20	-400.000
207.58	-400.000
207.96	-233.333
208.33	-100.000
208.71	-11.111
209.08	250.000
209.46	-300.000
209.84	250.000
210.21	0.000
210.59	55.000
210.96	-700.000
211.34	-66.667
211.71	-166.667
212.09	200.000
212.46	600.000
212.84	-900.000
213.22	166.667
213.59	133.333
213.97	77.778
214.34	60.000
214.72	0.000
215.09	-400.000
215.47	-183.333
215.84	40.000
216.22	-30.000
216.59	-33.333
216.97	-350.000
217.34	750.000
217.72	-85.714
218.09	-333.333
218.47	-214.286
218.84	85.714
219.22	-185.714
219.59	0.000
219.97	100.000
220.34	75.000
220.72	162.500
221.09	0.000
221.47	0.000
221.84	400.000
222.22	-300.000
222.59	-200.000
222.97	-237.500
223.34	-500.000
223.72	-133.333
224.09	-21.429
224.46	-425.000
224.84	-64.286
225.21	-42.857
225.59	-63.636
225.96	-125.000
226.34	-114.286
226.71	-11.111
227.08	40.000
227.46	1100.000
227.83	-100.000
228.21	-100.000
228.58	-50.000
228.95	0.000
229.33	-1400.000
229.70	-200.000
230.08	-650.000
230.45	-16.667
230.82	-133.333
231.20	-700.000
231.57	-500.000
231.95	400.000
232.32	4.762
232.69	11.111
233.07	-142.857
233.44	-250.000
233.81	-53.333
234.19	-100.000
234.56	-43.750
234.93	25.000
235.31	-257.143
235.68	-85.714
236.05	-17.647
236.43	-59.091
236.80	-3.226
237.17	-62.500
237.55	-42.857
237.92	-59.091
238.29	-5.714
238.67	-20.588
239.04	-30.556
239.41	-35.484
239.79	-41.026
240.16	-11.905
240.53	-18.182
240.91	-2.564
241.28	3.636
241.65	-4.615
242.02	-6.557
242.40	-6.557
242.77	-21.212
243.14	-25.424
243.51	-27.143
243.89	-7.595
244.26	0.000
244.63	8.421
245.00	3.158
245.38	-3.390
245.75	-0.885
246.12	1.600
246.49	-1.575
246.87	-4.065
247.24	-4.237
247.61	-5.085
247.98	-1.408
248.36	-9.790
248.73	-2.532
249.10	-1.274
249.47	2.339
249.84	4.545
250.22	-5.952
250.59	0.565
250.96	2.094
251.33	-6.161
251.70	-7.692
252.08	0.000
252.45	-6.161
252.82	-5.714
253.19	-4.681
253.56	-2.419
253.94	0.422
254.31	0.000
254.68	2.033
255.05	0.000
255.42	0.794
255.79	-3.943
256.16	-1.176
256.54	-2.574
256.91	-3.788
257.28	-2.930
257.65	-3.546
258.02	2.830
258.39	0.669
258.76	-2.365
259.14	-2.160
259.51	2.623
259.88	-0.305
260.25	0.932
260.62	-3.859
260.99	0.000
261.36	-0.915
261.73	0.289
262.10	0.833
262.47	0.570
262.85	0.857
263.22	-2.579
263.59	-3.692
263.96	-1.449
264.33	0.813
264.70	-1.657
265.07	-1.648
265.44	-3.359
265.81	-0.517
266.18	-2.025
266.55	-1.225
266.92	-0.252
267.29	0.242
267.66	-0.741
268.03	0.725
268.40	1.643
268.77	1.205
269.14	0.232
269.51	1.149
269.88	-3.211
270.25	-2.564
270.62	0.000
270.99	-2.027
271.36	2.098
271.73	0.897
272.10	-1.602
272.47	-3.556
272.84	2.000
273.21	2.064
273.58	0.659
273.95	-2.851
274.32	-1.131
274.69	0.000
275.06	2.454
275.43	-1.562
275.80	1.018
276.17	0.000
276.54	1.833
276.91	0.823
277.28	0.609
277.65	0.207
278.02	0.209
278.39	-0.982
278.76	-1.793
279.13	0.395
279.50	2.187
279.87	-1.480
280.23	1.012
280.60	-0.596
280.97	-1.359
281.34	-0.193
281.71	1.731
282.08	-0.806
282.45	-4.073
282.82	-0.969
283.19	0.000
283.56	2.930
283.92	1.590
284.29	-0.929
284.66	1.259
285.03	3.387
285.40	0.738
285.77	1.754
286.14	0.722
286.51	-1.776
286.87	1.089
287.24	1.024
287.61	0.661
287.98	-0.347
288.35	1.983
288.72	0.340
289.08	-1.525
289.45	-0.168
289.82	-0.519
290.19	0.821
290.56	-1.157
290.93	0.954
291.29	-2.107
291.66	1.288
292.03	1.413
292.40	1.506
292.77	0.776
293.13	0.000
293.50	2.229
293.87	0.613
294.24	1.810
294.60	0.303
294.97	2.731
295.34	0.148
295.71	1.339
296.08	-0.922
296.44	0.429
296.81	0.855
297.18	0.423
297.55	0.847
297.91	2.371
298.28	2.329
298.65	-0.139
299.02	2.807
299.38	0.802
299.75	1.902
300.12	1.667
300.48	0.256
300.85	0.917
301.22	1.035
301.59	0.910
301.95	1.763
302.32	0.391
302.69	2.326
303.05	0.000
303.42	0.500
303.79	1.316
304.15	1.777
304.52	1.984
304.89	1.299
305.25	0.977
305.62	1.293
305.99	2.591
306.35	2.553
306.72	0.797
307.09	2.270
307.45	2.724
307.82	1.899
308.19	2.349
308.55	2.832
308.92	0.644
309.29	2.595
309.65	2.439
310.02	2.700
310.38	0.432
310.75	2.664
311.12	2.789
311.48	2.401
311.85	1.751
312.22	2.678
312.58	2.543
312.95	2.650
313.31	2.797
313.68	3.618
314.05	2.967
314.41	1.610
314.78	1.698
315.14	3.258
315.51	3.445
315.87	3.969
316.24	3.304
316.61	3.935
316.97	3.582
317.34	2.890
317.70	2.968
318.07	4.011
318.43	3.464
318.80	4.413
319.16	3.752
319.53	3.571
319.89	3.575
320.26	4.216
320.62	3.462
320.99	4.478
321.35	3.251
321.72	4.401
322.08	4.451
322.45	4.257
322.81	4.131
323.18	4.131
323.54	5.545
323.91	5.561
324.27	6.274
324.64	5.850
325.00	5.236
325.37	7.059
325.73	7.874
326.10	6.112
326.46	6.217
326.83	7.574
327.19	7.256
327.56	8.518
327.92	7.392
328.29	9.524
328.65	8.818
329.01	10.071
329.38	9.010
329.74	10.165
330.11	9.248
330.47	9.900
330.84	11.274
331.20	9.386
331.56	10.574
331.93	11.723
332.29	12.237
332.66	12.643
333.02	11.765
333.38	12.455
333.75	13.001
334.11	11.200
334.48	12.268
334.84	13.648
335.20	13.032
335.57	13.177
335.93	14.951
336.29	12.755
336.66	12.952
337.02	14.324
337.38	12.923
337.75	13.960
338.11	12.970
338.47	14.146
338.84	12.976
339.20	13.796
339.56	15.686
339.93	14.286
340.29	12.312
340.65	13.899
341.02	13.828
341.38	14.659
341.74	14.395
342.11	13.908
342.47	14.592
342.83	13.938
343.20	13.664
343.56	13.633
343.92	14.441
344.28	14.886
344.65	14.356
345.01	14.874
345.37	15.864
345.73	14.075
346.10	14.146
346.46	12.916
346.82	14.034
347.19	14.215
347.55	13.804
347.91	13.780
348.27	13.683
348.63	14.459
349.00	15.513
349.36	13.115
349.72	14.172
350.08	14.274
350.45	15.051
350.81	15.048
351.17	13.183
351.53	13.524
351.89	13.662
352.26	14.651
352.62	15.284
352.98	14.399
353.34	14.468
353.70	14.363
354.07	15.106
354.43	15.099
354.79	14.025
355.15	14.137
355.51	14.062
355.87	13.360
356.24	14.297
356.60	15.471
356.96	13.857
357.32	14.252
357.68	14.100
358.04	14.242
358.40	15.004
358.77	14.683
359.13	13.772
359.49	14.815
359.85	13.720
360.21	14.916
360.57	15.211
360.93	14.222
361.29	14.798
361.66	13.796
362.02	14.349
362.38	15.114
362.74	13.626
363.10	13.917
363.46	15.883
363.82	14.723
364.18	15.412
364.54	15.868
364.90	14.256
365.26	13.909
365.62	14.754
365.98	14.509
366.35	14.437
366.71	14.517
367.07	14.679
367.43	15.168
367.79	14.708
368.15	14.083
368.51	15.245
368.87	15.865
369.23	15.649
369.59	15.000
369.95	14.729
370.31	15.331
370.67	14.389
371.03	15.525
371.39	14.144
371.75	14.878
372.11	14.634
372.47	15.474
372.83	15.508
373.19	16.143
373.55	15.834
373.91	15.718
374.27	14.648
374.63	15.597
374.99	16.064
375.35	15.478
375.71	16.678
376.07	14.990
376.42	14.901
376.78	15.294
377.14	15.390
377.50	15.990
377.86	16.125
378.22	15.704
378.58	15.812
378.94	15.906
379.30	16.514
379.66	16.940
380.02	16.875
380.38	16.012
380.74	16.647
381.09	16.755
381.45	16.229
381.81	16.576
382.17	16.165
382.53	16.657
382.89	17.225
383.25	16.978
383.61	17.158
383.97	16.473
384.32	17.272
384.68	17.050
385.04	16.425
385.40	16.677
385.76	16.829
386.12	17.427
386.48	18.441
386.83	17.239
387.19	17.932
387.55	17.323
387.91	17.546
388.27	16.224
388.62	17.067
388.98	17.505
389.34	17.809
389.70	16.565
390.06	17.216
390.42	17.308
390.77	18.297
391.13	18.385
391.49	17.904
391.85	17.332
392.20	16.808
392.56	17.593
392.92	17.741
393.28	17.107
393.64	17.378
393.99	18.092
394.35	17.762
394.71	18.036
395.07	18.707
395.42	17.521
395.78	17.725
396.14	18.255
396.50	17.676
396.85	18.692
397.21	17.801
397.57	17.872
397.92	18.501
398.28	17.944
398.64	18.382
399.00	17.978
399.35	17.982
399.71	18.177
400.07	17.493
400.42	17.457
400.78	17.591
401.14	17.904
401.49	17.925
401.85	16.901
402.21	18.176
402.57	18.386
402.92	17.936
403.28	17.279
403.63	17.076
403.99	18.459
404.35	16.908
404.70	17.262
405.06	18.051
405.42	16.974
405.77	16.799
406.13	16.979
406.49	17.855
406.84	17.037
407.20	18.198
407.55	16.783
407.91	16.969
408.27	18.505
408.62	16.897
408.98	18.011
409.34	17.916
409.69	17.832
410.05	16.980
410.40	17.658
410.76	16.953
411.11	17.020
411.47	17.583
411.83	16.870
412.18	16.770
412.54	16.351
412.89	17.375
413.25	16.588
413.60	17.193
413.96	16.574
414.31	17.737
414.67	17.143
415.03	17.529
415.38	17.502
415.74	17.526
416.09	16.560
416.45	16.468
416.80	18.270
417.16	17.209
417.51	17.728
417.87	17.670
418.22	17.067
418.58	17.972
418.93	17.229
419.29	18.319
419.64	17.714
420.00	16.707
420.35	17.445
420.71	17.287
421.06	18.225
421.42	16.920
421.77	17.755
422.12	18.075
422.48	17.638
422.83	18.052
423.19	18.040
423.54	17.810
423.90	16.773
424.25	17.364
424.61	18.396
424.96	19.134
425.31	18.278
425.67	18.166
426.02	17.441
426.38	18.209
426.73	17.826
427.09	18.566
427.44	18.239
427.79	18.837
428.15	18.492
428.50	18.534
428.85	18.106
429.21	18.318
429.56	18.438
429.92	18.287
430.27	17.896
430.62	18.443
430.98	17.930
431.33	17.823
431.68	18.660
432.04	19.138
432.39	18.860
432.74	18.825
433.10	18.289
433.45	18.423
433.80	17.301
434.16	18.216
434.51	18.301
434.86	19.215
435.22	18.597
435.57	17.931
435.92	18.875
436.28	19.169
436.63	18.033
436.98	17.468
437.34	19.905
437.69	18.903
438.04	19.002
438.39	19.314
438.75	18.393
439.10	18.712
439.45	18.890
439.81	19.639
440.16	18.626
440.51	18.176
440.86	18.913
441.22	18.021
441.57	19.053
441.92	18.721
442.27	18.615
442.63	18.401
442.98	18.454
443.33	18.781
443.68	19.802
444.03	19.499
444.39	19.530
444.74	19.273
445.09	18.257
445.44	19.471
445.79	19.123
446.15	19.496
446.50	18.454
446.85	19.497
447.20	19.152
447.55	19.282
447.91	19.483
448.26	18.603
448.61	19.015
448.96	19.440
449.31	19.109
449.66	20.321
450.02	19.003
450.37	19.072
450.72	19.435
451.07	20.867
451.42	19.207
451.77	19.509
452.12	19.845
452.47	19.962
452.83	19.103
453.18	20.114
453.53	19.465
453.88	19.677
454.23	19.347
454.58	20.447
454.93	19.899
455.28	19.184
455.63	20.086
455.98	19.880
456.34	19.314
456.69	20.638
457.04	20.344
457.39	20.036
457.74	20.791
458.09	20.534
458.44	19.457
458.79	20.740
459.14	20.251
459.49	20.189
459.84	19.618
460.19	19.570
460.54	18.996
460.89	19.619
461.24	20.279
461.59	21.043
461.94	20.051
462.29	20.131
462.64	20.158
462.99	19.880
463.34	19.514
463.69	20.611
464.04	20.269
464.39	20.072
464.74	19.858
465.09	19.363
465.44	20.135
465.79	20.869
466.14	20.541
466.49	19.919
466.84	19.868
467.19	20.200
467.54	19.810
467.89	20.777
468.24	19.774
468.59	20.300
468.94	20.000
469.29	20.078
469.64	19.744
469.99	21.472
470.34	19.906
470.68	20.858
471.03	20.165
471.38	19.028
471.73	20.490
472.08	21.553
472.43	20.142
472.78	19.533
473.13	18.754
473.48	20.613
473.83	19.479
474.17	20.064
474.52	20.716
474.87	19.814
475.22	19.705
475.57	20.389
475.92	20.572
476.27	20.114
476.61	20.056
476.96	20.626
477.31	19.645
477.66	19.923
478.01	21.016
478.36	20.587
478.70	19.861
479.05	20.984
479.40	20.207
479.75	20.387
480.10	21.131
480.45	19.391
480.79	20.780
481.14	20.472
481.49	20.232
481.84	20.435
482.19	20.649
482.53	20.455
482.88	19.839
483.23	20.282
483.58	21.092
483.92	20.497
484.27	19.229
484.62	20.475
484.97	19.291
485.31	19.616
485.66	18.799
486.01	19.301
486.36	20.153
486.70	20.316
487.05	19.801
487.40	20.032
487.75	20.073
488.09	19.642
488.44	20.399
488.79	20.764
489.13	20.654
489.48	21.207
489.83	20.655
490.17	20.810
490.52	20.833
490.87	20.416
491.22	20.878
491.56	20.556
491.91	20.134
492.26	21.462
492.60	20.504
492.95	20.990
493.30	20.200
493.64	19.887
493.99	20.124
494.34	20.524
494.68	20.272
495.03	20.841
495.37	19.272
495.72	20.481
496.07	20.835
496.41	20.889
496.76	21.005
497.11	21.102
497.45	20.929
497.80	21.161
498.14	21.120
498.49	20.894
498.84	21.165
499.18	21.491
499.53	20.555
499.87	20.849
500.22	20.686
500.56	21.011
500.91	20.591
501.26	20.864
501.60	20.751
501.95	21.304
502.29	20.406
502.64	21.311
502.98	20.843
503.33	20.771
503.67	20.977
504.02	20.425
504.36	21.422
504.71	21.175
505.06	21.018
505.40	21.607
505.75	19.817
506.09	20.880
506.44	21.053
506.78	21.174
507.13	20.752
507.47	21.701
507.82	21.167
508.16	21.710
508.51	20.814
508.85	20.342
509.19	21.141
509.54	21.142
509.88	21.543
510.23	21.017
510.57	21.481
510.92	21.805
511.26	20.734
511.61	20.896
511.95	21.606
512.30	21.275
512.64	21.146
512.98	21.452
513.33	21.472
513.67	21.161
514.02	21.085
514.36	20.997
514.70	21.902
515.05	22.241
515.39	21.107
515.74	22.106
516.08	21.787
516.42	21.303
516.77	22.126
517.11	22.140
517.46	22.010
517.80	22.022
518.14	20.954
518.49	22.475
518.83	21.068
519.17	21.551
519.52	21.342
519.86	21.147
520.20	21.944
520.55	21.292
520.89	21.102
521.23	21.551
521.58	21.881
521.92	21.469
522.26	21.079
522.61	21.863
522.95	20.421
523.29	21.379
523.64	21.299
523.98	22.597
524.32	22.062
524.66	20.683
525.01	21.259
525.35	21.521
525.69	20.950
526.04	21.671
526.38	21.897
526.72	21.073
527.06	22.396
527.41	21.584
527.75	21.452
528.09	21.575
528.43	22.033
528.78	21.545
529.12	22.407
529.46	21.714
529.80	21.691
530.15	21.185
530.49	21.410
530.83	21.807
531.17	20.741
531.51	21.433
531.86	22.186
532.20	21.795
532.54	21.257
532.88	21.014
533.22	21.123
533.57	21.084
533.91	20.662
534.25	20.805
534.59	20.862
534.93	20.971
535.27	21.712
535.62	20.972
535.96	20.621
536.30	20.419
536.64	21.315
536.98	22.105
537.32	21.769
537.66	21.589
538.01	21.581
538.35	22.432
538.69	20.856
539.03	20.921
539.37	21.291
539.71	22.148
540.05	21.042
540.39	21.676
540.73	22.046
541.07	21.653
541.42	20.459
541.76	20.664
542.10	21.472
542.44	20.720
542.78	21.710
543.12	21.589
543.46	20.959
543.80	21.271
544.14	20.887
544.48	21.194
544.82	21.110
545.16	21.395
545.50	20.525
545.84	21.905
546.18	22.053
546.52	21.764
546.86	21.581
547.20	21.660
547.54	20.592
547.88	20.637
548.22	20.708
548.56	21.510
548.90	21.092
549.24	21.303
549.58	21.383
549.92	22.049
550.26	22.471
550.60	21.408
550.94	21.679
551.28	22.122
551.62	20.384
551.96	21.708
552.30	22.578
552.64	20.408
552.98	21.374
553.32	20.058
553.66	21.485
554.00	21.891
554.34	21.227
554.68	21.345
555.02	21.346
555.36	20.417
555.69	21.203
556.03	21.754
556.37	21.408
556.71	21.832
557.05	21.656
557.39	21.232
557.73	22.174
558.07	21.251
558.41	21.316
558.75	21.065
559.08	20.311
559.42	22.129
559.76	21.856
560.10	23.117
560.44	22.182
560.78	21.712
561.12	21.670
561.45	21.849
561.79	21.254
562.13	20.898
562.47	21.289
562.81	20.085
563.15	21.134
563.48	21.355
563.82	20.960
564.16	20.892
564.50	21.505
564.84	21.759
565.17	20.093
565.51	21.382
565.85	22.177
566.19	21.410
566.52	21.265
566.86	21.239
567.20	21.731
567.54	22.032
567.88	20.882
568.21	21.141
568.55	20.520
568.89	19.682
569.23	20.315
569.56	19.798
569.90	20.810
570.24	19.992
570.57	19.789
570.91	19.007
571.25	19.844
571.59	19.825
571.92	19.940
572.26	19.952
572.60	19.578
572.93	19.139
573.27	19.390
573.61	19.100
573.95	19.505
574.28	19.032
574.62	19.522
574.96	18.644
575.29	19.309
575.63	19.512
575.97	18.824
576.30	19.348
576.64	19.112
576.98	18.960
577.31	18.903
577.65	19.414
577.98	19.286
578.32	19.301
578.66	19.080
578.99	19.561
579.33	19.216
579.67	18.945
580.00	19.048
580.34	19.251
580.67	19.417
581.01	18.533
581.35	19.125
581.68	19.198
582.02	18.983
582.35	18.772
582.69	19.259
583.02	19.673
583.36	19.209
583.70	19.073
584.03	20.070
584.37	19.350
584.70	19.165
585.04	19.190
585.37	19.141
585.71	19.037
586.04	19.149
586.38	18.605
586.72	19.560
587.05	19.541
587.39	19.339
587.72	19.352
588.06	19.147
588.39	19.766
588.73	20.036
589.06	19.757
589.40	20.062
589.73	19.901
590.07	19.483
590.40	20.111
590.73	20.512
591.07	19.959
591.40	20.277
591.74	20.113
592.07	20.270
592.41	20.127
592.74	19.562
593.08	19.293
593.41	19.704
593.75	19.552
594.08	20.237
594.41	20.333
594.75	19.894
595.08	19.699
595.42	19.725
595.75	19.919
596.09	20.295
596.42	20.336
596.75	19.922
597.09	20.525
597.42	19.817
597.75	19.973
598.09	20.063
598.42	20.681
598.76	19.560
599.09	19.495
599.42	19.223
599.76	19.517
600.09	20.344
600.42	20.281
600.76	19.887
601.09	19.294
601.42	19.153
601.76	20.093
602.09	19.632
602.42	20.206
602.76	19.693
603.09	20.161
603.42	19.782
603.76	19.944
604.09	19.704
604.42	19.484
604.76	20.061
605.09	19.575
605.42	20.479
605.75	19.707
606.09	20.050
606.42	19.313
606.75	19.450
607.09	20.247
607.42	19.806
607.75	20.000
608.08	20.470
608.42	20.246
608.75	19.813
609.08	19.971
609.41	19.731
609.75	19.746
610.08	20.441
610.41	20.434
610.74	20.600
611.07	20.183
611.41	19.718
611.74	21.131
612.07	20.730
612.40	19.883
612.73	20.086
613.07	20.363
613.40	21.073
613.73	20.163
614.06	20.483
614.39	21.139
614.72	20.056
615.06	20.000
615.39	19.154
615.72	20.315
616.05	19.879
616.38	20.488
616.71	20.180
617.05	21.592
617.38	20.062
617.71	19.287
618.04	20.497
618.37	21.069
618.70	21.578
619.03	20.041
619.36	21.635
619.69	21.321
620.03	20.455
620.36	21.308
620.69	20.818
621.02	20.700
621.35	21.532
621.68	19.590
622.01	21.197
622.34	21.040
622.67	20.625
623.00	21.959
623.33	21.269
623.66	21.123
623.99	21.203
624.32	21.503
624.65	20.603
624.99	21.135
625.32	20.060
625.65	21.134
625.98	19.953
626.31	21.533
626.64	21.506
626.97	22.089
627.30	21.702
627.63	20.380
627.96	20.279
628.29	22.243
628.62	21.394
628.95	22.539
629.28	21.711
629.61	20.314
629.94	20.321
630.26	22.167
630.59	22.513
630.92	22.422
631.25	22.278
631.58	22.540
631.91	20.000
632.24	24.111
632.57	23.333
632.90	21.839
633.23	22.196
633.56	22.339
633.89	21.580
634.22	21.724
634.55	21.274
634.88	23.458
635.20	21.973
635.53	22.519
635.86	22.418
