SpectraSuite Data File
++++++++++++++++++++++++++++++++++++
Date: Sat May 16 11:41:29 PDT 2015
User: schluterlab
Dark Spectrum Present: Yes
Reference Spectrum Present: Yes
Number of Sampled Component Spectra: 1
Spectrometers: USB2E3373
Integration Time (usec): 3000 (USB2E3373)
Spectra Averaged: 3 (USB2E3373)
Boxcar Smoothing: 0 (USB2E3373)
Correct for Electrical Dark: No (USB2E3373)
Strobe/Lamp Enabled: No (USB2E3373)
Correct for Detector Non-linearity: No (USB2E3373)
Correct for Stray Light: No (USB2E3373)
Number of Pixels in Processed Spectrum: 2048
>>>>>Begin Processed Spectral Data<<<<<
178.53	0.000
178.91	146.667
179.29	333.333
179.67	-900.000
180.04	-200.000
180.42	1400.000
180.80	275.000
181.18	250.000
181.56	-62.500
181.94	1300.000
182.31	675.000
182.69	7.692
183.07	-400.000
183.45	1600.000
183.83	533.333
184.20	-328.571
184.58	-150.000
184.96	-425.000
185.34	118.750
185.72	-800.000
186.09	-16.667
186.47	-300.000
186.85	-225.000
187.23	-50.000
187.61	-125.000
187.98	-262.500
188.36	-162.500
188.74	-125.000
189.12	1400.000
189.49	371.429
189.87	-75.000
190.25	400.000
190.63	-100.000
191.00	-188.889
191.38	420.000
191.76	-20.000
192.14	620.000
192.51	-220.000
192.89	-633.333
193.27	0.000
193.65	-11.111
194.02	-128.571
194.40	666.667
194.78	-70.000
195.15	-1100.000
195.53	-172.727
195.91	-433.333
196.29	360.000
196.66	-900.000
197.04	2800.000
197.42	-175.000
197.79	20.000
198.17	-200.000
198.55	-400.000
198.92	-1100.000
199.30	262.500
199.68	-550.000
200.05	-177.778
200.43	-288.889
200.81	-1500.000
201.18	-50.000
201.56	242.857
201.94	-113.333
202.31	0.000
202.69	30.000
203.07	-30.000
203.44	800.000
203.82	-250.000
204.19	-325.000
204.57	-125.000
204.95	-600.000
205.32	31.250
205.70	700.000
206.08	-1300.000
206.45	-77.778
206.83	-450.000
207.20	-150.000
207.58	-866.667
207.96	-366.667
208.33	12.500
208.71	-144.444
209.08	250.000
209.46	-214.286
209.84	300.000
210.21	0.000
210.59	-15.000
210.96	500.000
211.34	-166.667
211.71	-266.667
212.09	325.000
212.46	1150.000
212.84	-2300.000
213.22	333.333
213.59	141.667
213.97	-111.111
214.34	180.000
214.72	-90.000
215.09	-633.333
215.47	-250.000
215.84	-20.000
216.22	-60.000
216.59	-46.667
216.97	-525.000
217.34	900.000
217.72	-114.286
218.09	-266.667
218.47	-128.571
218.84	328.571
219.22	-242.857
219.59	0.000
219.97	242.857
220.34	400.000
220.72	237.500
221.09	-46.154
221.47	0.000
221.84	400.000
222.22	-400.000
222.59	1800.000
222.97	-212.500
223.34	-700.000
223.72	-533.333
224.09	-107.143
224.46	-175.000
224.84	-100.000
225.21	-214.286
225.59	-45.455
225.96	-162.500
226.34	-271.429
226.71	-188.889
227.08	45.000
227.46	2200.000
227.83	-200.000
228.21	-300.000
228.58	300.000
228.95	-62.500
229.33	-2400.000
229.70	-400.000
230.08	-650.000
230.45	-58.333
230.82	-133.333
231.20	-100.000
231.57	-500.000
231.95	1100.000
232.32	14.286
232.69	-111.111
233.07	-242.857
233.44	-700.000
233.81	-113.333
234.19	-155.556
234.56	-56.250
234.93	15.625
235.31	-214.286
235.68	-142.857
236.05	-76.471
236.43	-72.727
236.80	-70.968
237.17	-37.500
237.55	-28.571
237.92	-63.636
238.29	-25.714
238.67	-32.353
239.04	-11.111
239.41	-54.839
239.79	-28.205
240.16	-38.095
240.53	-21.818
240.91	-12.821
241.28	-7.273
241.65	20.000
242.02	6.557
242.40	-19.672
242.77	3.030
243.14	-18.644
243.51	-15.714
243.89	-6.329
244.26	-5.618
244.63	12.632
245.00	-4.211
245.38	4.237
245.75	2.655
246.12	-8.800
246.49	3.150
246.87	-1.626
247.24	-4.237
247.61	-12.712
247.98	5.634
248.36	3.497
248.73	0.000
249.10	-4.459
249.47	-0.585
249.84	3.409
250.22	-7.738
250.59	4.520
250.96	1.047
251.33	9.005
251.70	1.923
252.08	6.635
252.45	3.791
252.82	2.857
253.19	4.681
253.56	7.258
253.94	2.532
254.31	0.858
254.68	6.504
255.05	0.806
255.42	5.556
255.79	2.509
256.16	3.137
256.54	3.309
256.91	0.758
257.28	2.198
257.65	2.482
258.02	8.176
258.39	6.355
258.76	4.392
259.14	6.173
259.51	7.869
259.88	5.793
260.25	5.590
260.62	3.859
260.99	6.825
261.36	5.488
261.73	6.936
262.10	5.556
262.47	3.989
262.85	6.857
263.22	7.450
263.59	2.769
263.96	4.058
264.33	6.504
264.70	7.459
265.07	4.670
265.44	5.168
265.81	5.168
266.18	6.582
266.55	3.676
266.92	9.320
267.29	6.053
267.66	6.667
268.03	8.696
268.40	8.216
268.77	4.096
269.14	4.640
269.51	7.356
269.88	4.587
270.25	2.098
270.62	5.263
270.99	5.180
271.36	7.226
271.73	6.951
272.10	3.890
272.47	4.889
272.84	6.000
273.21	5.046
273.58	6.813
273.95	6.579
274.32	8.145
274.69	7.659
275.06	7.771
275.43	2.232
275.80	6.517
276.17	8.577
276.54	5.703
276.91	5.556
277.28	4.868
277.65	3.926
278.02	6.054
278.39	8.841
278.76	4.582
279.13	7.312
279.50	6.163
279.87	4.017
280.23	6.478
280.60	6.163
280.97	6.214
281.34	3.675
281.71	6.346
282.08	5.847
282.45	6.110
282.82	6.008
283.19	6.364
283.56	5.128
283.92	6.360
284.29	4.647
284.66	5.396
285.03	8.021
285.40	7.380
285.77	7.368
286.14	5.957
286.51	6.039
286.87	5.626
287.24	6.485
287.61	5.289
287.98	4.333
288.35	3.802
288.72	3.396
289.08	6.610
289.45	5.387
289.82	5.190
290.19	7.389
290.56	3.471
290.93	4.928
291.29	5.348
291.66	5.475
292.03	6.279
292.40	7.229
292.77	6.522
293.13	5.366
293.50	7.132
293.87	4.601
294.24	6.335
294.60	5.455
294.97	5.766
295.34	3.852
295.71	5.952
296.08	3.687
296.44	5.150
296.81	5.271
297.18	4.225
297.55	4.096
297.91	7.531
298.28	4.384
298.65	5.858
299.02	7.353
299.38	5.481
299.75	4.891
300.12	5.128
300.48	5.371
300.85	4.849
301.22	4.398
301.59	4.941
301.95	7.179
302.32	4.302
302.69	6.120
303.05	5.250
303.42	5.000
303.79	6.220
304.15	4.502
304.52	6.301
304.89	5.667
305.25	5.006
305.62	3.878
305.99	6.949
306.35	6.104
306.72	3.872
307.09	7.264
307.45	4.881
307.82	4.916
308.19	7.047
308.55	5.773
308.92	4.941
309.29	4.324
309.65	6.151
310.02	6.911
310.38	5.514
310.75	7.275
311.12	7.231
311.48	8.559
311.85	8.033
312.22	7.209
312.58	7.833
312.95	6.320
313.31	8.891
313.68	8.643
314.05	8.605
314.41	6.942
314.78	7.992
315.14	10.069
315.51	9.119
315.87	9.487
316.24	9.329
316.61	11.516
316.97	9.851
317.34	10.886
317.70	10.946
318.07	12.500
318.43	11.891
318.80	13.615
319.16	12.570
319.53	13.064
319.89	13.641
320.26	13.725
320.62	13.173
320.99	14.925
321.35	13.695
321.72	15.763
322.08	16.617
322.45	15.446
322.81	16.715
323.18	16.523
323.54	18.022
323.91	18.072
324.27	19.487
324.64	17.733
325.00	19.284
325.37	20.362
325.73	21.960
326.10	20.992
326.46	22.329
326.83	23.149
327.19	22.936
327.56	24.020
327.92	23.195
328.29	25.022
328.65	24.364
329.01	25.707
329.38	25.335
329.74	27.289
330.11	26.927
330.47	27.702
330.84	28.781
331.20	26.444
331.56	28.350
331.93	29.041
332.29	29.680
332.66	28.973
333.02	29.502
333.38	30.824
333.75	30.899
334.11	29.333
334.48	30.450
334.84	32.283
335.20	32.624
335.57	30.776
335.93	33.035
336.29	31.355
336.66	31.806
337.02	32.883
337.38	31.729
337.75	32.221
338.11	33.184
338.47	34.609
338.84	32.668
339.20	33.040
339.56	33.244
339.93	32.628
340.29	31.887
340.65	33.741
341.02	31.788
341.38	32.519
341.74	33.362
342.11	32.679
342.47	33.391
342.83	32.997
343.20	34.159
343.56	31.429
343.92	33.139
344.28	34.903
344.65	33.168
345.01	33.277
345.37	34.884
345.73	32.651
346.10	33.034
346.46	32.819
346.82	34.162
347.19	33.607
347.55	33.628
347.91	34.409
348.27	33.731
348.63	34.330
349.00	35.004
349.36	31.928
349.72	35.589
350.08	35.926
350.45	34.043
350.81	34.873
351.17	34.244
351.53	33.890
351.89	34.519
352.26	34.496
352.62	34.946
352.98	35.206
353.34	34.452
353.70	33.977
354.07	35.090
354.43	34.941
354.79	34.311
355.15	33.946
355.51	34.609
355.87	34.783
356.24	34.710
356.60	37.309
356.96	37.105
357.32	35.471
357.68	35.479
358.04	35.489
358.40	35.886
358.77	35.703
359.13	35.807
359.49	36.054
359.85	36.357
360.21	37.062
360.57	36.521
360.93	37.185
361.29	36.472
361.66	34.832
362.02	37.352
362.38	37.564
362.74	38.535
363.10	36.585
363.46	38.105
363.82	36.662
364.18	37.120
364.54	38.242
364.90	37.107
365.26	37.874
365.62	38.346
365.98	37.553
366.35	37.254
366.71	37.421
367.07	39.661
367.43	38.916
367.79	38.832
368.15	38.905
368.51	39.021
368.87	39.423
369.23	38.246
369.59	39.792
369.95	39.323
370.31	40.084
370.67	38.973
371.03	40.598
371.39	39.675
371.75	40.415
372.11	40.961
372.47	39.262
372.83	41.725
373.19	41.357
373.55	41.802
373.91	42.532
374.27	40.657
374.63	40.511
374.99	41.933
375.35	41.252
375.71	44.159
376.07	42.710
376.42	41.854
376.78	42.288
377.14	44.814
377.50	43.778
377.86	43.693
378.22	43.656
378.58	43.298
378.94	43.527
379.30	44.607
379.66	43.534
380.02	43.672
380.38	45.015
380.74	44.549
381.09	44.405
381.45	46.181
381.81	45.977
382.17	45.301
382.53	44.863
382.89	46.411
383.25	45.575
383.61	45.991
383.97	46.111
384.32	47.872
384.68	48.126
385.04	47.403
385.40	48.144
385.76	48.902
386.12	48.720
386.48	49.196
386.83	49.264
387.19	49.014
387.55	48.577
387.91	49.555
388.27	49.216
388.62	49.159
388.98	50.151
389.34	48.898
389.70	49.939
390.06	50.466
390.42	51.410
390.77	50.915
391.13	50.435
391.49	50.717
391.85	51.995
392.20	51.214
392.56	49.786
392.92	52.196
393.28	52.067
393.64	51.954
393.99	53.354
394.35	51.642
394.71	52.007
395.07	53.296
395.42	52.443
395.78	52.546
396.14	51.963
396.50	52.477
396.85	53.239
397.21	52.916
397.57	52.948
397.92	53.396
398.28	54.111
398.64	53.123
399.00	54.045
399.35	53.946
399.71	53.310
400.07	53.791
400.42	54.319
400.78	53.965
401.14	54.012
401.49	53.302
401.85	53.996
402.21	54.052
402.57	54.490
402.92	56.325
403.28	54.779
403.63	53.325
403.99	54.506
404.35	54.650
404.70	54.535
405.06	54.152
405.42	53.629
405.77	53.054
406.13	54.003
406.49	54.763
406.84	54.289
407.20	55.771
407.55	55.035
407.91	55.117
408.27	55.331
408.62	55.562
408.98	55.064
409.34	55.820
409.69	55.640
410.05	54.336
410.40	55.487
410.76	54.772
411.11	56.172
411.47	55.691
411.83	56.663
412.18	55.817
412.54	55.461
412.89	56.136
413.25	54.664
413.60	55.468
413.96	56.131
414.31	56.697
414.67	57.016
415.03	55.821
415.38	57.775
415.74	57.603
416.09	57.417
416.45	55.423
416.80	56.762
417.16	55.814
417.51	56.271
417.87	56.828
418.22	58.470
418.58	56.996
418.93	58.063
419.29	56.148
419.64	57.475
420.00	58.141
420.35	57.658
420.71	58.944
421.06	58.698
421.42	57.026
421.77	58.124
422.12	57.862
422.48	57.509
422.83	58.599
423.19	57.461
423.54	58.329
423.90	58.762
424.25	58.371
424.61	59.891
424.96	59.977
425.31	58.413
425.67	59.255
426.02	59.266
426.38	59.347
426.73	59.147
427.09	60.417
427.44	58.864
427.79	60.988
428.15	60.024
428.50	60.117
428.85	59.832
429.21	59.657
429.56	60.417
429.92	60.671
430.27	59.621
430.62	60.763
430.98	59.697
431.33	61.099
431.68	61.769
432.04	62.339
432.39	61.709
432.74	61.571
433.10	61.733
433.45	61.370
433.80	62.654
434.16	61.956
434.51	62.356
434.86	63.503
435.22	63.029
435.57	61.506
435.92	61.489
436.28	62.493
436.63	61.391
436.98	61.054
437.34	62.197
437.69	63.069
438.04	64.209
438.39	62.395
438.75	61.292
439.10	62.410
439.45	62.704
439.81	63.735
440.16	62.351
440.51	63.824
440.86	64.025
441.22	62.134
441.57	63.053
441.92	63.836
442.27	64.502
442.63	63.036
442.98	63.431
443.33	63.262
443.68	63.054
444.03	64.980
444.39	64.121
444.74	64.537
445.09	65.077
445.44	65.110
445.79	64.406
446.15	64.732
446.50	63.636
446.85	63.776
447.20	63.534
447.55	64.641
447.91	65.469
448.26	63.017
448.61	64.120
448.96	64.874
449.31	63.360
449.66	64.511
450.02	64.598
450.37	64.464
450.72	63.729
451.07	66.248
451.42	63.445
451.77	64.871
452.12	64.303
452.47	65.113
452.83	65.230
453.18	65.528
453.53	64.988
453.88	65.311
454.23	64.389
454.58	65.507
454.93	65.239
455.28	64.563
455.63	65.111
455.98	66.386
456.34	64.231
456.69	65.041
457.04	65.950
457.39	66.208
457.74	65.564
458.09	65.023
458.44	65.185
458.79	66.424
459.14	64.746
459.49	66.371
459.84	64.699
460.19	64.499
460.54	65.154
460.89	65.527
461.24	65.149
461.59	65.299
461.94	65.563
462.29	65.158
462.64	66.535
462.99	66.533
463.34	65.226
463.69	65.649
464.04	64.089
464.39	64.158
464.74	64.775
465.09	64.281
465.44	65.426
465.79	64.636
466.14	65.305
466.49	64.940
466.84	63.806
467.19	65.150
467.54	65.380
467.89	65.536
468.24	66.508
468.59	66.084
468.94	66.817
469.29	66.277
469.64	65.499
469.99	66.307
470.34	66.934
470.68	68.314
471.03	66.139
471.38	66.528
471.73	68.112
472.08	65.863
472.43	65.766
472.78	66.933
473.13	64.811
473.48	66.752
473.83	66.129
474.17	66.943
474.52	68.095
474.87	65.210
475.22	66.313
475.57	65.111
475.92	64.687
476.27	65.086
476.61	65.746
476.96	65.959
477.31	65.823
477.66	65.191
478.01	67.045
478.36	64.327
478.70	67.592
479.05	66.739
479.40	66.684
479.75	65.291
480.10	65.079
480.45	64.894
480.79	66.436
481.14	65.630
481.49	66.360
481.84	66.204
482.19	66.697
482.53	66.430
482.88	65.401
483.23	65.117
483.58	65.726
483.92	66.364
484.27	64.732
484.62	65.788
484.97	63.757
485.31	63.584
485.66	61.417
486.01	63.235
486.36	64.433
486.70	66.249
487.05	65.045
487.40	64.797
487.75	64.149
488.09	64.114
488.44	65.426
488.79	64.804
489.13	65.196
489.48	65.457
489.83	66.157
490.17	66.304
490.52	66.259
490.87	65.866
491.22	65.950
491.56	66.852
491.91	66.221
492.26	66.604
492.60	65.937
492.95	65.778
493.30	65.174
493.64	65.820
493.99	67.782
494.34	68.143
494.68	66.854
495.03	66.635
495.37	67.552
495.72	67.141
496.07	67.105
496.41	66.327
496.76	66.164
497.11	65.756
497.45	67.050
497.80	67.434
498.14	66.503
498.49	66.801
498.84	65.680
499.18	67.885
499.53	67.219
499.87	65.975
500.22	66.961
500.56	69.085
500.91	67.340
501.26	67.006
501.60	66.827
501.95	68.986
502.29	67.123
502.64	66.997
502.98	67.178
503.33	67.058
503.67	67.050
504.02	66.876
504.36	66.569
504.71	67.781
505.06	67.149
505.40	67.715
505.75	68.750
506.09	68.605
506.44	68.571
506.78	67.336
507.13	68.847
507.47	69.275
507.82	67.682
508.16	68.342
508.51	67.439
508.85	69.151
509.19	68.341
509.54	68.235
509.88	69.947
510.23	68.553
510.57	70.000
510.92	70.354
511.26	68.049
511.61	68.952
511.95	69.073
512.30	69.929
512.64	68.336
512.98	69.252
513.33	68.424
513.67	68.844
514.02	69.128
514.36	69.307
514.70	69.496
515.05	69.297
515.39	69.896
515.74	70.797
516.08	69.337
516.42	69.405
516.77	70.653
517.11	69.680
517.46	72.249
517.80	72.684
518.14	70.894
518.49	71.010
518.83	70.623
519.17	70.930
519.52	68.942
519.86	72.043
520.20	71.822
520.55	70.954
520.89	70.445
521.23	70.940
521.58	71.411
521.92	71.691
522.26	72.444
522.61	71.610
522.95	69.943
523.29	72.163
523.64	70.456
523.98	72.183
524.32	71.779
524.66	70.186
525.01	71.162
525.35	70.812
525.69	72.154
526.04	71.802
526.38	72.502
526.72	71.137
527.06	72.591
527.41	72.013
527.75	71.089
528.09	72.998
528.43	72.393
528.78	71.106
529.12	73.111
529.46	73.518
529.80	71.788
530.15	72.634
530.49	71.928
530.83	73.281
531.17	72.323
531.51	73.610
531.86	70.309
532.20	72.065
532.54	71.190
532.88	71.871
533.22	72.928
533.57	72.650
533.91	69.600
534.25	70.962
534.59	70.706
534.93	69.633
535.27	70.422
535.62	70.396
535.96	70.394
536.30	70.419
536.64	71.049
536.98	73.517
537.32	73.186
537.66	72.369
538.01	72.027
538.35	73.378
538.69	71.992
539.03	71.361
539.37	71.391
539.71	70.781
540.05	73.132
540.39	73.961
540.73	72.149
541.07	73.497
541.42	72.856
541.76	71.827
542.10	72.721
542.44	71.552
542.78	71.370
543.12	71.690
543.46	70.616
543.80	71.104
544.14	71.860
544.48	72.966
544.82	72.395
545.16	73.172
545.50	72.005
545.84	72.323
546.18	72.191
546.52	71.764
546.86	72.293
547.20	74.262
547.54	71.074
547.88	72.595
548.22	70.380
548.56	71.276
548.90	71.968
549.24	72.950
549.58	72.759
549.92	72.721
550.26	73.844
550.60	71.195
550.94	72.774
551.28	73.740
551.62	73.781
551.96	73.227
552.30	71.847
552.64	73.821
552.98	73.160
553.32	72.727
553.66	74.549
554.00	71.286
554.34	71.986
554.68	71.930
555.02	72.648
555.36	72.969
555.69	73.424
556.03	72.491
556.37	73.044
556.71	73.228
557.05	73.466
557.39	73.794
557.73	74.398
558.07	74.830
558.41	73.598
558.75	73.688
559.08	73.307
559.42	74.809
559.76	74.617
560.10	73.154
560.44	73.844
560.78	73.138
561.12	72.671
561.45	72.740
561.79	73.937
562.13	72.090
562.47	72.899
562.81	72.702
563.15	73.408
563.48	72.149
563.82	72.955
564.16	73.631
564.50	72.581
564.84	71.693
565.17	72.016
565.51	72.229
565.85	75.254
566.19	73.518
566.52	73.125
566.86	71.997
567.20	73.547
567.54	72.711
567.88	70.519
568.21	73.434
568.55	72.004
568.89	70.477
569.23	70.893
569.56	68.810
569.90	70.653
570.24	69.598
570.57	68.155
570.91	68.174
571.25	68.936
571.59	69.216
571.92	68.036
572.26	67.885
572.60	68.166
572.93	67.049
573.27	67.835
573.61	66.533
573.95	67.669
574.28	66.908
574.62	67.616
574.96	67.024
575.29	67.429
575.63	67.587
575.97	66.370
576.30	66.648
576.64	67.755
576.98	66.136
577.31	66.698
577.65	66.562
577.98	66.950
578.32	67.375
578.66	67.566
578.99	67.160
579.33	66.767
579.67	66.675
580.00	66.592
580.34	66.781
580.67	67.296
581.01	66.065
581.35	66.632
581.68	66.565
582.02	66.973
582.35	66.969
582.69	68.183
583.02	68.192
583.36	67.207
583.70	67.665
584.03	68.481
584.37	68.011
584.70	67.645
585.04	67.367
585.37	67.184
585.71	66.957
586.04	67.503
586.38	67.950
586.72	67.418
587.05	68.394
587.39	67.577
587.72	68.038
588.06	68.776
588.39	67.645
588.73	68.014
589.06	68.606
589.40	68.533
589.73	68.272
590.07	69.228
590.40	67.897
590.73	69.372
591.07	69.836
591.40	70.277
591.74	70.287
592.07	69.910
592.41	70.149
592.74	69.101
593.08	68.349
593.41	69.309
593.75	68.249
594.08	69.626
594.41	69.575
594.75	70.593
595.08	70.827
595.42	69.256
595.75	68.872
596.09	70.276
596.42	70.827
596.75	70.246
597.09	70.525
597.42	70.537
597.75	69.796
598.09	69.679
598.42	69.907
598.76	69.145
599.09	69.771
599.42	69.243
599.76	69.611
600.09	69.046
600.42	69.502
600.76	70.094
601.09	69.313
601.42	69.727
601.76	69.509
602.09	69.407
602.42	69.630
602.76	69.423
603.09	70.766
603.42	70.467
603.76	71.241
604.09	69.844
604.42	69.775
604.76	71.391
605.09	70.886
605.42	70.479
605.75	69.426
606.09	70.984
606.42	70.591
606.75	69.000
607.09	69.740
607.42	70.114
607.75	70.375
608.08	70.854
608.42	71.003
608.75	69.860
609.08	71.359
609.41	71.699
609.75	70.648
610.08	70.882
610.41	71.133
610.74	71.905
611.07	72.008
611.41	69.692
611.74	71.620
612.07	72.825
612.40	71.055
612.73	71.190
613.07	72.207
613.40	73.344
613.73	72.316
614.06	70.016
614.39	74.014
614.72	71.955
615.06	70.435
615.39	69.615
615.72	72.515
616.05	69.851
616.38	71.619
616.71	72.312
617.05	72.376
617.38	73.498
617.71	72.420
618.04	73.354
618.37	72.579
618.70	74.185
619.03	72.580
619.36	73.714
619.69	74.803
620.03	73.003
620.36	73.066
620.69	73.869
621.02	74.962
621.35	75.887
621.68	75.984
622.01	74.353
622.34	74.224
622.67	74.453
623.00	75.210
623.33	74.627
623.66	73.929
623.99	74.060
624.32	73.661
624.65	74.393
624.99	74.981
625.32	75.075
625.65	74.981
625.98	74.961
626.31	75.693
626.64	75.146
626.97	75.514
627.30	76.085
627.63	77.116
627.96	75.979
628.29	77.298
628.62	76.313
628.95	79.035
629.28	76.880
629.61	78.018
629.94	77.599
630.26	79.125
630.59	79.799
630.92	77.477
631.25	78.528
631.58	77.989
631.91	79.787
632.24	81.000
632.57	78.222
632.90	78.506
633.23	80.958
633.56	80.117
633.89	79.481
634.22	78.749
634.55	78.846
634.88	79.202
635.20	78.027
