SpectraSuite Data File
++++++++++++++++++++++++++++++++++++
Date: Sat May 16 11:12:09 PDT 2015
User: schluterlab
Dark Spectrum Present: Yes
Reference Spectrum Present: Yes
Number of Sampled Component Spectra: 1
Spectrometers: USB2E3373
Integration Time (usec): 3000 (USB2E3373)
Spectra Averaged: 3 (USB2E3373)
Boxcar Smoothing: 0 (USB2E3373)
Correct for Electrical Dark: No (USB2E3373)
Strobe/Lamp Enabled: No (USB2E3373)
Correct for Detector Non-linearity: No (USB2E3373)
Correct for Stray Light: No (USB2E3373)
Number of Pixels in Processed Spectrum: 2048
>>>>>Begin Processed Spectral Data<<<<<
178.53	0.000
178.91	120.000
179.29	-233.333
179.67	-1100.000
180.04	-46.154
180.42	300.000
180.80	125.000
181.18	200.000
181.56	-62.500
181.94	-200.000
182.31	325.000
182.69	61.538
183.07	-366.667
183.45	600.000
183.83	233.333
184.20	-128.571
184.58	-137.500
184.96	-100.000
185.34	68.750
185.72	-25.000
186.09	50.000
186.47	-137.500
186.85	-137.500
187.23	-12.500
187.61	25.000
187.98	-162.500
188.36	87.500
188.74	-75.000
189.12	1100.000
189.49	128.571
189.87	-41.667
190.25	300.000
190.63	35.714
191.00	0.000
191.38	100.000
191.76	53.333
192.14	280.000
192.51	-140.000
192.89	-166.667
193.27	0.000
193.65	-44.444
194.02	-157.143
194.40	266.667
194.78	-90.000
195.15	100.000
195.53	-54.545
195.91	-466.667
196.29	-60.000
196.66	-200.000
197.04	1200.000
197.42	375.000
197.79	60.000
198.17	-333.333
198.55	-150.000
198.92	-1000.000
199.30	125.000
199.68	-150.000
200.05	-44.444
200.43	-144.444
200.81	0.000
201.18	8.333
201.56	100.000
201.94	13.333
202.31	54.545
202.69	150.000
203.07	60.000
203.44	266.667
203.82	-283.333
204.19	-300.000
204.57	-175.000
204.95	-600.000
205.32	-12.500
205.70	-100.000
206.08	-800.000
206.45	5.556
206.83	-700.000
207.20	850.000
207.58	-466.667
207.96	-133.333
208.33	-62.500
208.71	-44.444
209.08	80.000
209.46	-71.429
209.84	450.000
210.21	0.000
210.59	40.000
210.96	-500.000
211.34	-100.000
211.71	100.000
212.09	150.000
212.46	550.000
212.84	-1500.000
213.22	166.667
213.59	108.333
213.97	-44.444
214.34	50.000
214.72	-20.000
215.09	-266.667
215.47	16.667
215.84	0.000
216.22	-70.000
216.59	66.667
216.97	-75.000
217.34	-150.000
217.72	-14.286
218.09	-200.000
218.47	-142.857
218.84	42.857
219.22	57.143
219.59	0.000
219.97	71.429
220.34	200.000
220.72	87.500
221.09	-38.462
221.47	0.000
221.84	33.333
222.22	-150.000
222.59	-500.000
222.97	-137.500
223.34	100.000
223.72	-233.333
224.09	-14.286
224.46	-350.000
224.84	14.286
225.21	-100.000
225.59	-9.091
225.96	-87.500
226.34	0.000
226.71	-133.333
227.08	35.000
227.46	1000.000
227.83	-28.571
228.21	-100.000
228.58	50.000
228.95	-12.500
229.33	-600.000
229.70	0.000
230.08	-550.000
230.45	41.667
230.82	0.000
231.20	100.000
231.57	100.000
231.95	100.000
232.32	0.000
232.69	-155.556
233.07	-185.714
233.44	-150.000
233.81	-6.667
234.19	88.889
234.56	-31.250
234.93	31.250
235.31	-128.571
235.68	-42.857
236.05	-29.412
236.43	-72.727
236.80	0.000
237.17	45.833
237.55	-52.381
237.92	-50.000
238.29	5.714
238.67	23.529
239.04	41.667
239.41	3.226
239.79	-15.385
240.16	-19.048
240.53	-9.091
240.91	33.333
241.28	14.545
241.65	40.000
242.02	13.115
242.40	18.033
242.77	24.242
243.14	13.559
243.51	14.286
243.89	10.127
244.26	10.112
244.63	24.211
245.00	20.000
245.38	21.186
245.75	23.894
246.12	20.800
246.49	10.236
246.87	10.569
247.24	14.407
247.61	18.644
247.98	16.197
248.36	15.385
248.73	13.291
249.10	13.376
249.47	18.713
249.84	17.614
250.22	5.357
250.59	19.774
250.96	14.136
251.33	20.853
251.70	21.635
252.08	19.431
252.45	14.692
252.82	19.048
253.19	14.468
253.56	19.355
253.94	14.768
254.31	18.455
254.68	21.951
255.05	17.742
255.42	21.825
255.79	17.563
256.16	16.863
256.54	18.382
256.91	18.939
257.28	15.385
257.65	15.248
258.02	21.069
258.39	16.388
258.76	14.865
259.14	16.667
259.51	18.689
259.88	17.988
260.25	16.460
260.62	18.650
260.99	15.134
261.36	15.854
261.73	19.364
262.10	16.111
262.47	15.954
262.85	19.143
263.22	20.630
263.59	13.846
263.96	14.783
264.33	17.615
264.70	13.260
265.07	17.033
265.44	15.504
265.81	15.762
266.18	14.177
266.55	13.480
266.92	18.388
267.29	15.012
267.66	14.074
268.03	18.599
268.40	17.136
268.77	19.277
269.14	16.009
269.51	17.471
269.88	13.761
270.25	12.121
270.62	13.959
270.99	14.189
271.36	13.520
271.73	16.368
272.10	14.188
272.47	13.111
272.84	17.778
273.21	16.055
273.58	16.264
273.95	14.254
274.32	16.516
274.69	16.849
275.06	17.587
275.43	16.518
275.80	16.497
276.17	15.272
276.54	15.071
276.91	12.963
277.28	18.053
277.65	15.083
278.02	16.075
278.39	15.914
278.76	13.944
279.13	15.810
279.50	14.115
279.87	16.702
280.23	16.599
280.60	15.706
280.97	15.922
281.34	13.540
281.71	14.038
282.08	14.516
282.45	13.238
282.82	13.760
283.19	15.818
283.56	15.934
283.92	14.841
284.29	14.870
284.66	16.727
285.03	16.578
285.40	17.159
285.77	16.842
286.14	15.884
286.51	13.854
286.87	13.975
287.24	16.553
287.61	15.207
287.98	13.345
288.35	13.884
288.72	14.941
289.08	14.068
289.45	15.993
289.82	13.841
290.19	16.585
290.56	14.380
290.93	15.103
291.29	14.100
291.66	15.298
292.03	14.600
292.40	15.964
292.77	14.441
293.13	13.008
293.50	15.602
293.87	15.184
294.24	14.329
294.60	11.515
294.97	15.933
295.34	14.667
295.71	14.732
296.08	11.674
296.44	13.448
296.81	15.385
297.18	12.817
297.55	15.113
297.91	14.784
298.28	12.603
298.65	15.063
299.02	14.439
299.38	13.904
299.75	14.266
300.12	13.462
300.48	14.194
300.85	12.058
301.22	15.006
301.59	13.134
301.95	15.491
302.32	13.950
302.69	12.974
303.05	13.553
303.42	12.875
303.79	13.517
304.15	15.047
304.52	13.652
304.89	14.404
305.25	15.263
305.62	14.571
305.99	15.783
306.35	14.872
306.72	14.465
307.09	15.664
307.45	16.345
307.82	15.307
308.19	15.101
308.55	14.924
308.92	14.178
309.29	15.784
309.65	15.907
310.02	16.415
310.38	14.703
310.75	17.008
311.12	18.388
311.48	16.910
311.85	18.126
312.22	16.478
312.58	17.904
312.95	18.145
313.31	19.081
313.68	20.101
314.05	19.585
314.41	18.612
314.78	19.181
315.14	20.237
315.51	20.162
315.87	21.297
316.24	22.060
316.61	21.113
316.97	22.488
317.34	21.869
317.70	21.800
318.07	23.507
318.43	22.378
318.80	25.352
319.16	24.015
319.53	25.000
319.89	24.177
320.26	24.608
320.62	24.135
320.99	24.577
321.35	24.532
321.72	27.226
322.08	28.487
322.45	27.426
322.81	28.530
323.18	29.011
323.54	28.835
323.91	31.325
324.27	31.369
324.64	31.536
325.00	31.937
325.37	33.122
325.73	34.296
326.10	33.835
326.46	35.639
326.83	35.574
327.19	37.865
327.56	37.479
327.92	38.148
328.29	38.528
328.65	38.727
329.01	40.283
329.38	40.946
329.74	43.315
330.11	43.336
330.47	42.325
330.84	43.263
331.20	43.863
331.56	42.753
331.93	44.671
332.29	45.936
332.66	46.883
333.02	46.425
333.38	46.595
333.75	46.928
334.11	47.022
334.48	46.955
334.84	46.982
335.20	48.404
335.57	47.473
335.93	49.150
336.29	48.361
336.66	48.282
337.02	50.450
337.38	47.504
337.75	49.781
338.11	48.748
338.47	49.644
338.84	49.365
339.20	49.033
339.56	49.911
339.93	51.235
340.29	50.221
340.65	49.213
341.02	50.843
341.38	48.863
341.74	49.111
342.11	50.085
342.47	51.073
342.83	50.042
343.20	49.530
343.56	49.633
343.92	49.499
344.28	51.724
344.65	50.495
345.01	49.916
345.37	50.664
345.73	49.509
346.10	47.424
346.46	48.903
346.82	49.078
347.19	50.205
347.55	49.518
347.91	49.921
348.27	49.881
348.63	49.677
349.00	51.074
349.36	47.697
349.72	50.159
350.08	49.559
350.45	48.779
350.81	50.239
351.17	50.241
351.53	48.926
351.89	50.283
352.26	47.907
352.62	48.694
352.98	50.396
353.34	48.841
353.70	47.413
354.07	49.882
354.43	48.933
354.79	49.049
355.15	49.601
355.51	48.906
355.87	49.328
356.24	49.563
356.60	50.443
356.96	50.192
357.32	50.356
357.68	50.345
358.04	48.114
358.40	49.111
358.77	50.000
359.13	49.656
359.49	49.509
359.85	50.762
360.21	48.935
360.57	49.699
360.93	50.000
361.29	50.598
361.66	48.399
362.02	49.482
362.38	49.010
362.74	50.769
363.10	48.422
363.46	50.071
363.82	49.417
364.18	50.868
364.54	51.251
364.90	50.594
365.26	49.715
365.62	51.675
365.98	50.427
366.35	50.141
366.71	49.471
367.07	50.388
367.43	51.064
367.79	49.553
368.15	50.427
368.51	50.699
368.87	50.275
369.23	50.596
369.59	49.722
369.95	50.740
370.31	52.180
370.67	50.036
371.03	50.656
371.39	49.576
371.75	52.289
372.11	51.793
372.47	51.265
372.83	52.156
373.19	53.143
373.55	50.317
373.91	51.991
374.27	51.061
374.63	50.932
374.99	51.252
375.35	51.009
375.71	51.789
376.07	52.156
376.42	50.199
376.78	52.614
377.14	53.085
377.50	52.289
377.86	52.666
378.22	52.387
378.58	52.007
378.94	53.822
379.30	51.615
379.66	51.245
380.02	51.812
380.38	53.474
380.74	52.286
381.09	51.845
381.45	52.924
381.81	52.874
382.17	53.822
382.53	51.733
382.89	52.990
383.25	53.101
383.61	52.300
383.97	54.378
384.32	53.880
384.68	53.748
385.04	54.046
385.40	52.952
385.76	53.232
386.12	53.154
386.48	53.960
386.83	53.742
387.19	53.975
387.55	53.240
387.91	53.231
388.27	53.317
388.62	53.365
388.98	54.331
389.34	54.039
389.70	54.141
390.06	53.760
390.42	54.103
390.77	53.502
391.13	55.155
391.49	54.148
391.85	55.549
392.20	53.216
392.56	53.940
392.92	53.565
393.28	53.846
393.64	55.622
393.99	54.585
394.35	54.197
394.71	54.046
395.07	54.112
395.42	53.516
395.78	55.437
396.14	55.452
396.50	54.312
396.85	54.164
397.21	54.921
397.57	55.380
397.92	54.625
398.28	55.333
398.64	53.659
399.00	54.775
399.35	54.059
399.71	54.936
400.07	54.985
400.42	54.745
400.78	54.562
401.14	54.790
401.49	54.717
401.85	55.522
402.21	54.052
402.57	55.765
402.92	55.507
403.28	54.596
403.63	53.265
403.99	55.438
404.35	54.469
404.70	54.125
405.06	54.787
405.42	54.428
405.77	54.299
406.13	54.798
406.49	55.303
406.84	54.049
407.20	54.476
407.55	55.985
407.91	53.109
408.27	54.779
408.62	54.360
408.98	54.882
409.34	54.784
409.69	54.820
410.05	54.457
410.40	56.284
410.76	55.305
411.11	55.798
411.47	55.243
411.83	55.134
412.18	55.322
412.54	54.667
412.89	55.407
413.25	54.368
413.60	54.192
413.96	54.282
414.31	55.474
414.67	54.413
415.03	54.528
415.38	56.148
415.74	55.863
416.09	56.586
416.45	55.291
416.80	55.592
417.16	56.478
417.51	56.796
417.87	56.958
418.22	57.332
418.58	56.868
418.93	58.369
419.29	56.713
419.64	56.470
420.00	56.258
420.35	57.244
420.71	58.103
421.06	58.876
421.42	57.670
421.77	57.231
422.12	58.926
422.48	57.456
422.83	57.517
423.19	57.851
423.54	58.444
423.90	58.994
424.25	58.371
424.61	59.952
424.96	60.562
425.31	60.984
425.67	59.771
426.02	58.979
426.38	61.162
426.73	61.777
427.09	61.703
427.44	60.170
427.79	61.105
428.15	60.383
428.50	61.701
428.85	61.451
429.21	62.147
429.56	63.229
429.92	61.423
430.27	62.712
430.62	63.323
430.98	63.147
431.33	64.354
431.68	63.807
432.04	64.689
432.39	63.932
432.74	65.348
433.10	64.772
433.45	64.824
433.80	66.237
434.16	65.502
434.51	65.479
434.86	66.081
435.22	66.815
435.57	65.728
435.92	66.061
436.28	66.409
436.63	67.044
436.98	65.693
437.34	66.450
437.69	66.861
438.04	67.215
438.39	66.667
438.75	66.589
439.10	66.741
439.45	66.989
439.81	65.120
440.16	65.872
440.51	68.765
440.86	67.727
441.22	67.496
441.57	68.053
441.92	67.110
442.27	67.370
442.63	69.099
442.98	69.018
443.33	68.918
443.68	69.307
444.03	68.517
444.39	68.771
444.74	68.888
445.09	70.724
445.44	69.893
445.79	70.933
446.15	69.387
446.50	69.080
446.85	68.651
447.20	69.101
447.55	71.050
447.91	70.298
448.26	70.000
448.61	70.345
448.96	71.036
449.31	70.462
449.66	71.036
450.02	71.302
450.37	71.188
450.72	70.395
451.07	71.716
451.42	70.384
451.77	72.053
452.12	72.825
452.47	72.229
452.83	71.578
453.18	72.486
453.53	72.264
453.88	73.684
454.23	72.491
454.58	74.518
454.93	71.977
455.28	73.869
455.63	73.157
455.98	73.855
456.34	72.808
456.69	74.109
457.04	72.895
457.39	73.864
457.74	73.066
458.09	73.608
458.44	74.480
458.79	74.159
459.14	75.128
459.49	75.192
459.84	74.368
460.19	73.687
460.54	74.592
460.89	74.776
461.24	72.253
461.59	74.150
461.94	74.602
462.29	74.151
462.64	75.889
462.99	75.971
463.34	74.139
463.69	77.354
464.04	74.575
464.39	74.970
464.74	73.404
465.09	74.023
465.44	76.424
465.79	74.619
466.14	75.892
466.49	75.590
466.84	75.990
467.19	75.998
467.54	74.557
467.89	75.462
468.24	74.703
468.59	75.890
468.94	78.199
469.29	77.453
469.64	76.685
469.99	76.570
470.34	78.424
470.68	77.544
471.03	77.564
471.38	76.250
471.73	78.531
472.08	77.175
472.43	78.185
472.78	77.333
473.13	77.336
473.48	77.473
473.83	76.737
474.17	77.134
474.52	79.731
474.87	75.816
475.22	77.168
475.57	77.722
475.92	77.970
476.27	76.971
476.61	77.352
476.96	77.138
477.31	77.234
477.66	78.639
478.01	77.742
478.36	76.689
478.70	78.163
479.05	77.718
479.40	78.497
479.75	77.982
480.10	77.927
480.45	76.112
480.79	78.184
481.14	79.428
481.49	77.880
481.84	77.670
482.19	76.245
482.53	77.794
482.88	77.456
483.23	77.277
483.58	77.660
483.92	78.404
484.27	76.030
484.62	76.976
484.97	76.929
485.31	76.640
485.66	74.989
486.01	75.588
486.36	76.445
486.70	77.568
487.05	76.356
487.40	76.816
487.75	75.884
488.09	75.201
488.44	76.928
488.79	75.946
489.13	75.922
489.48	78.059
489.83	78.559
490.17	77.710
490.52	79.484
490.87	78.661
491.22	79.682
491.56	78.657
491.91	79.723
492.26	79.057
492.60	78.354
492.95	77.772
493.30	78.180
493.64	78.467
493.99	79.589
494.34	79.762
494.68	79.401
495.03	79.350
495.37	80.236
495.72	79.813
496.07	79.916
496.41	80.269
496.76	78.721
497.11	78.191
497.45	78.640
497.80	78.839
498.14	78.733
498.49	79.357
498.84	78.107
499.18	79.045
499.53	79.688
499.87	78.861
500.22	79.118
500.56	80.440
500.91	79.261
501.26	78.651
501.60	78.334
501.95	80.580
502.29	77.657
502.64	78.501
502.98	78.582
503.33	79.041
503.67	79.693
504.02	78.947
504.36	80.000
504.71	78.825
505.06	78.382
505.40	78.792
505.75	79.522
506.09	79.929
506.44	79.599
506.78	79.428
507.13	78.424
507.47	78.508
507.82	78.162
508.16	80.674
508.51	79.186
508.85	78.157
509.19	78.912
509.54	79.757
509.88	79.149
510.23	79.717
510.57	79.788
510.92	81.525
511.26	78.203
511.61	79.752
511.95	79.957
512.30	80.044
512.64	78.464
512.98	78.823
513.33	79.572
513.67	79.453
514.02	78.244
514.36	78.393
514.70	79.513
515.05	78.788
515.39	78.720
515.74	79.872
516.08	78.501
516.42	78.980
516.77	79.145
517.11	79.863
517.46	81.340
517.80	80.325
518.14	78.925
518.49	79.319
518.83	77.864
519.17	78.982
519.52	77.559
519.86	79.510
520.20	80.746
520.55	78.585
520.89	79.023
521.23	78.694
521.58	79.875
521.92	80.874
522.26	78.540
522.61	78.644
522.95	79.068
523.29	78.746
523.64	78.139
523.98	79.504
524.32	79.258
524.66	76.025
525.01	79.191
525.35	78.930
525.69	78.595
526.04	80.287
526.38	79.440
526.72	78.225
527.06	78.711
527.41	79.538
527.75	78.548
528.09	78.888
528.43	77.836
528.78	77.827
529.12	78.105
529.46	77.577
529.80	77.340
530.15	77.077
530.49	76.197
530.83	77.996
531.17	78.855
531.51	77.093
531.86	77.222
532.20	77.665
532.54	78.676
532.88	77.668
533.22	78.676
533.57	76.371
533.91	76.155
534.25	75.739
534.59	74.204
534.93	74.860
535.27	76.589
535.62	77.685
535.96	74.984
536.30	76.963
536.64	75.697
536.98	79.449
537.32	76.849
537.66	75.628
538.01	76.838
538.35	76.554
538.69	76.404
539.03	75.423
539.37	74.251
539.71	75.250
540.05	75.805
540.39	75.831
540.73	77.125
541.07	76.503
541.42	74.747
541.76	75.083
542.10	76.030
542.44	73.751
542.78	74.763
543.12	76.035
543.46	73.699
543.80	73.311
544.14	73.539
544.48	74.016
544.82	75.034
545.16	75.050
545.50	73.620
545.84	73.783
546.18	75.173
546.52	74.609
546.86	73.718
547.20	73.910
547.54	72.727
547.88	74.652
548.22	72.608
548.56	74.749
548.90	75.067
549.24	74.352
549.58	74.947
549.92	73.640
550.26	73.844
550.60	73.044
550.94	73.869
551.28	74.868
551.62	74.889
551.96	73.806
552.30	72.265
552.64	74.243
552.98	72.600
553.32	74.747
553.66	74.694
554.00	72.992
554.34	73.863
554.68	72.807
555.02	73.155
555.36	72.753
555.69	74.570
556.03	73.965
556.37	73.186
556.71	73.944
557.05	76.053
557.39	73.571
557.73	73.596
558.07	75.283
558.41	73.672
558.75	72.776
559.08	73.696
559.42	73.507
559.76	74.463
560.10	74.571
560.44	72.832
560.78	72.582
561.12	72.533
561.45	72.671
561.79	72.404
562.13	73.913
562.47	71.779
562.81	72.207
563.15	71.728
563.48	73.255
563.82	73.022
564.16	71.670
564.50	72.581
564.84	72.222
565.17	72.281
565.51	71.773
565.85	73.766
566.19	73.123
566.52	71.885
566.86	71.302
567.20	72.215
567.54	72.770
567.88	70.017
568.21	71.477
568.55	70.838
568.89	70.328
569.23	70.153
569.56	68.222
569.90	69.079
570.24	69.297
570.57	67.873
570.91	66.848
571.25	67.510
571.59	67.000
571.92	65.923
572.26	67.166
572.60	67.204
572.93	66.584
573.27	66.433
573.61	65.787
573.95	66.791
574.28	65.044
574.62	66.167
574.96	65.578
575.29	65.930
575.63	66.047
575.97	65.049
576.30	65.141
576.64	65.822
576.98	64.892
577.31	65.340
577.65	65.690
577.98	64.293
578.32	64.976
578.66	65.200
578.99	65.202
579.33	64.758
579.67	64.722
580.00	65.030
580.34	65.117
580.67	65.040
581.01	64.602
581.35	65.138
581.68	64.389
582.02	65.394
582.35	64.816
582.69	65.607
583.02	65.606
583.36	65.372
583.70	64.900
584.03	65.706
584.37	65.683
584.70	64.816
585.04	64.709
585.37	64.296
585.71	64.054
586.04	65.299
586.38	64.742
586.72	64.572
587.05	65.619
587.39	65.556
587.72	65.516
588.06	64.952
588.39	64.739
588.73	66.023
589.06	65.985
589.40	66.025
589.73	65.439
590.07	65.368
590.40	64.428
590.73	66.293
591.07	65.533
591.40	66.898
591.74	65.378
592.07	65.721
592.41	66.752
592.74	66.487
593.08	65.705
593.41	65.230
593.75	64.919
594.08	66.283
594.41	66.470
594.75	65.308
595.08	65.977
595.42	65.499
595.75	65.050
596.09	66.007
596.42	67.226
596.75	65.589
597.09	66.028
597.42	65.735
597.75	66.740
598.09	65.748
598.42	65.223
598.76	65.698
599.09	65.391
599.42	65.898
599.76	65.459
600.09	65.649
600.42	65.173
600.76	65.763
601.09	65.705
601.42	67.194
601.76	65.615
602.09	65.644
602.42	65.885
602.76	65.351
603.09	65.968
603.42	67.083
603.76	66.215
604.09	66.039
604.42	65.237
604.76	65.373
605.09	66.184
605.42	66.445
605.75	66.235
606.09	64.425
606.42	65.270
606.75	64.105
607.09	66.343
607.42	65.317
607.75	65.784
608.08	67.329
608.42	65.894
608.75	64.579
609.08	66.050
609.41	65.770
609.75	64.213
610.08	66.373
610.41	66.265
610.74	66.393
611.07	66.481
611.41	65.507
611.74	66.067
612.07	67.078
612.40	66.258
612.73	65.751
613.07	66.979
613.40	67.433
613.73	66.594
614.06	65.513
614.39	67.475
614.72	67.039
615.06	66.902
615.39	65.274
615.72	66.594
616.05	65.765
616.38	66.744
616.71	66.547
617.05	66.767
617.38	67.864
617.71	66.708
618.04	66.957
618.37	66.541
618.70	67.797
619.03	67.705
619.36	67.724
619.69	67.767
620.03	66.460
620.36	69.269
620.69	67.767
621.02	67.808
621.35	69.032
621.68	69.262
622.01	70.227
622.34	68.168
622.67	69.922
623.00	68.630
623.33	67.910
623.66	67.356
623.99	66.165
624.32	68.899
624.65	67.403
624.99	68.633
625.32	67.440
625.65	68.765
625.98	69.171
626.31	69.902
626.64	68.368
626.97	69.692
627.30	69.617
627.63	67.703
627.96	68.842
628.29	70.772
628.62	69.245
628.95	69.193
629.28	69.831
629.61	69.480
629.94	69.187
630.26	71.869
630.59	71.256
630.92	70.971
631.25	69.355
631.58	70.265
631.91	70.532
632.24	71.778
632.57	71.444
632.90	71.839
633.23	72.780
