SpectraSuite Data File
++++++++++++++++++++++++++++++++++++
Date: Sat May 16 11:29:22 PDT 2015
User: schluterlab
Dark Spectrum Present: Yes
Reference Spectrum Present: Yes
Number of Sampled Component Spectra: 1
Spectrometers: USB2E3373
Integration Time (usec): 3000 (USB2E3373)
Spectra Averaged: 3 (USB2E3373)
Boxcar Smoothing: 0 (USB2E3373)
Correct for Electrical Dark: No (USB2E3373)
Strobe/Lamp Enabled: No (USB2E3373)
Correct for Detector Non-linearity: No (USB2E3373)
Correct for Stray Light: No (USB2E3373)
Number of Pixels in Processed Spectrum: 2048
>>>>>Begin Processed Spectral Data<<<<<
178.53	0.000
178.91	100.000
179.29	533.333
179.67	-200.000
180.04	-61.538
180.42	1600.000
180.80	375.000
181.18	500.000
181.56	0.000
181.94	1100.000
182.31	400.000
182.69	-38.462
183.07	-600.000
183.45	1900.000
183.83	633.333
184.20	-242.857
184.58	-125.000
184.96	-450.000
185.34	62.500
185.72	-550.000
186.09	200.000
186.47	-187.500
186.85	-200.000
187.23	-112.500
187.61	-225.000
187.98	-337.500
188.36	-37.500
188.74	-175.000
189.12	2200.000
189.49	314.286
189.87	-108.333
190.25	275.000
190.63	-142.857
191.00	-211.111
191.38	260.000
191.76	-100.000
192.14	480.000
192.51	-260.000
192.89	-33.333
193.27	0.000
193.65	-88.889
194.02	-42.857
194.40	566.667
194.78	-130.000
195.15	-1200.000
195.53	-109.091
195.91	-250.000
196.29	300.000
196.66	-433.333
197.04	2500.000
197.42	150.000
197.79	20.000
198.17	-433.333
198.55	-1300.000
198.92	-800.000
199.30	187.500
199.68	-650.000
200.05	-88.889
200.43	-144.444
200.81	-400.000
201.18	-133.333
201.56	185.714
201.94	-6.667
202.31	-45.455
202.69	90.000
203.07	-80.000
203.44	400.000
203.82	-366.667
204.19	-175.000
204.57	-300.000
204.95	0.000
205.32	-93.750
205.70	600.000
206.08	-1400.000
206.45	-5.556
206.83	-550.000
207.20	50.000
207.58	-633.333
207.96	-200.000
208.33	-200.000
208.71	-200.000
209.08	130.000
209.46	-128.571
209.84	550.000
210.21	0.000
210.59	25.000
210.96	1500.000
211.34	-216.667
211.71	-233.333
212.09	200.000
212.46	1350.000
212.84	-1700.000
213.22	600.000
213.59	166.667
213.97	-22.222
214.34	60.000
214.72	-150.000
215.09	-533.333
215.47	-216.667
215.84	-60.000
216.22	-150.000
216.59	13.333
216.97	-325.000
217.34	900.000
217.72	-157.143
218.09	-266.667
218.47	-314.286
218.84	285.714
219.22	-14.286
219.59	0.000
219.97	328.571
220.34	500.000
220.72	125.000
221.09	-38.462
221.47	0.000
221.84	233.333
222.22	-300.000
222.59	1200.000
222.97	-262.500
223.34	-600.000
223.72	-866.667
224.09	-107.143
224.46	-350.000
224.84	42.857
225.21	-242.857
225.59	-54.545
225.96	-237.500
226.34	-185.714
226.71	-233.333
227.08	-60.000
227.46	2200.000
227.83	-42.857
228.21	-175.000
228.58	350.000
228.95	-81.250
229.33	-1500.000
229.70	-140.000
230.08	-600.000
230.45	0.000
230.82	-100.000
231.20	-2200.000
231.57	-900.000
231.95	1500.000
232.32	-4.762
232.69	-177.778
233.07	-357.143
233.44	-1350.000
233.81	-86.667
234.19	11.111
234.56	-62.500
234.93	0.000
235.31	-214.286
235.68	-135.714
236.05	-70.588
236.43	-127.273
236.80	-48.387
237.17	-16.667
237.55	-33.333
237.92	-81.818
238.29	-34.286
238.67	11.765
239.04	2.778
239.41	-64.516
239.79	-30.769
240.16	-23.810
240.53	-18.182
240.91	-17.949
241.28	-14.545
241.65	3.077
242.02	-11.475
242.40	-13.115
242.77	-18.182
243.14	-20.339
243.51	-2.857
243.89	-8.861
244.26	-11.236
244.63	10.526
245.00	-2.105
245.38	5.085
245.75	-0.885
246.12	7.200
246.49	-3.150
246.87	-0.813
247.24	-7.627
247.61	-7.627
247.98	-1.408
248.36	0.699
248.73	3.797
249.10	5.732
249.47	9.357
249.84	7.386
250.22	-7.738
250.59	5.650
250.96	4.712
251.33	9.005
251.70	-0.481
252.08	3.318
252.45	5.213
252.82	2.381
253.19	4.681
253.56	7.661
253.94	5.063
254.31	3.004
254.68	8.130
255.05	0.806
255.42	8.730
255.79	1.434
256.16	7.451
256.54	7.353
256.91	5.682
257.28	4.029
257.65	4.610
258.02	11.635
258.39	5.017
258.76	4.392
259.14	2.778
259.51	7.213
259.88	7.012
260.25	9.627
260.62	7.395
260.99	5.045
261.36	8.537
261.73	8.671
262.10	9.167
262.47	2.849
262.85	8.857
263.22	6.590
263.59	2.154
263.96	6.667
264.33	8.130
264.70	6.630
265.07	6.593
265.44	5.168
265.81	5.943
266.18	4.557
266.55	4.657
266.92	7.809
267.29	6.780
267.66	5.432
268.03	9.179
268.40	8.216
268.77	6.506
269.14	6.497
269.51	7.586
269.88	6.881
270.25	5.361
270.62	5.950
270.99	6.532
271.36	6.760
271.73	6.726
272.10	7.780
272.47	5.333
272.84	8.889
273.21	5.734
273.58	6.593
273.95	5.482
274.32	7.014
274.69	9.409
275.06	7.566
275.43	6.696
275.80	7.332
276.17	7.113
276.54	6.925
276.91	7.202
277.28	6.897
277.65	5.785
278.02	6.263
278.39	8.055
278.76	8.167
279.13	8.103
279.50	7.555
279.87	6.977
280.23	6.275
280.60	7.555
280.97	6.214
281.34	5.222
281.71	6.731
282.08	7.863
282.45	4.277
282.82	6.783
283.19	5.455
283.56	8.791
283.92	8.304
284.29	5.576
284.66	7.554
285.03	7.487
285.40	8.303
285.77	8.596
286.14	7.040
286.51	7.638
286.87	6.534
287.24	7.167
287.61	5.785
287.98	8.492
288.35	6.281
288.72	5.772
289.08	4.915
289.45	6.061
289.82	4.152
290.19	8.867
290.56	5.620
290.93	8.267
291.29	4.700
291.66	6.119
292.03	8.948
292.40	8.584
292.77	7.143
293.13	7.967
293.50	6.984
293.87	7.669
294.24	8.899
294.60	4.697
294.97	7.132
295.34	7.111
295.71	7.589
296.08	5.837
296.44	6.152
296.81	7.265
297.18	5.634
297.55	7.203
297.91	7.950
298.28	7.671
298.65	6.555
299.02	7.487
299.38	6.016
299.75	7.201
300.12	6.538
300.48	8.440
300.85	6.553
301.22	8.021
301.59	7.412
301.95	8.060
302.32	5.346
302.69	9.058
303.05	6.960
303.42	7.250
303.79	7.895
304.15	7.583
304.52	8.401
304.89	6.375
305.25	7.204
305.62	6.698
305.99	7.774
306.35	7.769
306.72	7.403
307.09	9.421
307.45	8.286
307.82	6.592
308.19	7.159
308.55	7.190
308.92	6.552
309.29	8.649
309.65	8.378
310.02	8.099
310.38	6.486
310.75	8.607
311.12	8.368
311.48	7.724
311.85	8.548
312.22	8.857
312.58	9.461
312.95	7.645
313.31	8.492
313.68	8.844
314.05	8.506
314.41	7.545
314.78	6.893
315.14	8.588
315.51	8.815
315.87	9.584
316.24	8.844
316.61	8.829
316.97	8.259
317.34	8.382
317.70	6.865
318.07	8.302
318.43	8.052
318.80	10.235
319.16	6.942
319.53	8.553
319.89	8.749
320.26	7.647
320.62	7.788
320.99	9.751
321.35	6.601
321.72	9.928
322.08	9.397
322.45	8.317
322.81	9.510
323.18	9.318
323.54	9.982
323.91	8.619
324.27	10.266
324.64	9.598
325.00	9.773
325.37	10.226
325.73	10.411
326.10	8.680
326.46	9.282
326.83	10.213
327.19	10.008
327.56	11.244
327.92	10.025
328.29	10.736
328.65	9.909
329.01	11.131
329.38	11.062
329.74	11.813
330.11	10.335
330.47	11.717
330.84	12.374
331.20	12.365
331.56	11.486
331.93	12.522
332.29	12.694
332.66	11.062
333.02	12.851
333.38	11.828
333.75	12.912
334.11	12.533
334.48	12.445
334.84	13.911
335.20	12.589
335.57	12.455
335.93	14.235
336.29	13.286
336.66	12.247
337.02	14.144
337.38	13.191
337.75	13.960
338.11	13.327
338.47	12.722
338.84	12.704
339.20	13.357
339.56	14.795
339.93	13.757
340.29	13.286
340.65	13.374
341.02	13.406
341.38	13.816
341.74	13.294
342.11	14.078
342.47	13.219
342.83	14.610
343.20	13.151
343.56	13.061
343.92	14.023
344.28	14.298
344.65	13.861
345.01	14.034
345.37	13.704
345.73	13.421
346.10	12.674
346.46	13.323
346.82	13.553
347.19	13.722
347.55	13.965
347.91	13.780
348.27	13.206
348.63	14.943
349.00	14.320
349.36	12.568
349.72	14.729
350.08	13.953
350.45	14.500
350.81	14.570
351.17	12.540
351.53	12.092
351.89	14.066
352.26	14.574
352.62	15.361
352.98	13.449
353.34	13.269
353.70	13.050
354.07	13.533
354.43	14.071
354.79	14.659
355.15	13.099
355.51	14.531
355.87	12.806
356.24	13.741
356.60	15.310
356.96	14.473
357.32	13.698
357.68	14.636
358.04	15.166
358.40	13.070
358.77	13.679
359.13	13.695
359.49	15.193
359.85	14.024
360.21	14.460
360.57	15.060
360.93	14.519
361.29	14.948
361.66	13.720
362.02	15.089
362.38	15.040
362.74	15.165
363.10	14.204
363.46	15.242
363.82	15.816
364.18	15.195
364.54	16.726
364.90	15.374
365.26	13.766
365.62	15.966
365.98	15.220
366.35	16.197
366.71	14.940
367.07	15.808
367.43	16.266
367.79	15.120
368.15	15.647
368.51	15.594
368.87	16.621
369.23	16.140
369.59	15.694
369.95	16.138
370.31	16.315
370.67	15.618
371.03	16.035
371.39	14.710
371.75	17.024
372.11	15.782
372.47	14.967
372.83	16.829
373.19	17.357
373.55	16.538
373.91	17.212
374.27	16.290
374.63	16.425
374.99	18.011
375.35	16.824
375.71	17.353
376.07	16.975
376.42	16.424
376.78	17.255
377.14	18.237
377.50	18.246
377.86	17.620
378.22	18.090
378.58	18.036
378.94	17.571
379.30	18.403
379.66	17.911
380.02	17.706
380.38	17.583
380.74	17.937
381.09	18.629
381.45	18.914
381.81	18.209
382.17	18.233
382.53	18.602
382.89	18.481
383.25	19.145
383.61	19.281
383.97	19.902
384.32	19.650
384.68	20.193
385.04	19.444
385.40	18.624
385.76	19.512
386.12	20.050
386.48	19.802
386.83	20.429
387.19	20.442
387.55	19.624
387.91	19.976
388.27	19.843
388.62	20.553
388.98	20.472
389.34	20.073
389.70	19.915
390.06	20.323
390.42	21.090
390.77	20.063
391.13	20.994
391.49	20.711
391.85	20.262
392.20	19.964
392.56	19.976
392.92	20.536
393.28	21.527
393.64	20.806
393.99	21.108
394.35	21.107
394.71	21.804
395.07	21.406
395.42	20.381
395.78	20.050
396.14	21.994
396.50	21.407
396.85	20.975
397.21	21.081
397.57	20.790
397.92	20.609
398.28	21.722
398.64	20.880
399.00	22.416
399.35	20.800
399.71	21.835
400.07	21.612
400.42	22.202
400.78	20.394
401.14	21.018
401.49	20.814
401.85	20.744
402.21	22.110
402.57	21.723
402.92	22.907
403.28	22.120
403.63	21.330
403.99	21.815
404.35	21.920
404.70	21.416
405.06	21.396
405.42	21.279
405.77	20.758
406.13	22.033
406.49	22.229
406.84	21.536
407.20	22.850
407.55	22.483
407.91	21.373
408.27	22.488
408.62	22.129
408.98	22.013
409.34	21.450
409.69	22.621
410.05	21.225
410.40	21.888
410.76	22.584
411.11	22.880
411.47	21.419
411.83	22.066
412.18	21.720
412.54	20.927
412.89	22.539
413.25	21.015
413.60	22.053
413.96	20.764
414.31	22.080
414.67	20.762
415.03	21.928
415.38	21.731
415.74	22.745
416.09	22.442
416.45	21.495
416.80	22.562
417.16	22.193
417.51	23.047
417.87	22.071
418.22	22.630
418.58	22.208
418.93	23.299
419.29	22.208
419.64	21.608
420.00	23.572
420.35	22.590
420.71	21.669
421.06	22.604
421.42	22.014
421.77	22.334
422.12	24.119
422.48	22.662
422.83	22.893
423.19	22.606
423.54	22.363
423.90	23.308
424.25	22.285
424.61	22.618
424.96	23.230
425.31	22.694
425.67	23.152
426.02	22.146
426.38	23.351
426.73	23.729
427.09	23.591
427.44	23.295
427.79	22.209
428.15	22.980
428.50	23.519
428.85	23.261
429.21	24.184
429.56	23.594
429.92	23.146
430.27	22.832
430.62	23.302
430.98	23.105
431.33	23.426
431.68	24.290
432.04	23.335
432.39	22.963
432.74	24.041
433.10	23.523
433.45	24.122
433.80	23.348
434.16	24.181
434.51	23.507
434.86	25.015
435.22	24.276
435.57	23.807
435.92	23.916
436.28	24.392
436.63	24.025
436.98	24.227
437.34	24.335
437.69	23.979
438.04	24.390
438.39	25.030
438.75	23.574
439.10	24.708
439.45	24.140
439.81	24.940
440.16	23.509
440.51	24.706
440.86	24.696
441.22	24.655
441.57	24.316
441.92	24.808
442.27	23.810
442.63	24.142
442.98	23.928
443.33	24.163
443.68	24.075
444.03	24.853
444.39	24.425
444.74	25.055
445.09	25.274
445.44	25.098
445.79	25.344
446.15	25.794
446.50	23.789
446.85	25.192
447.20	25.026
447.55	24.420
447.91	25.042
448.26	24.525
448.61	25.071
448.96	25.266
449.31	25.028
449.66	24.556
450.02	23.712
450.37	24.348
450.72	25.650
451.07	25.204
451.42	24.969
451.77	25.075
452.12	25.745
452.47	26.071
452.83	25.743
453.18	25.806
453.53	25.435
453.88	26.136
454.23	25.030
454.58	26.911
454.93	26.637
455.28	25.112
455.63	26.536
455.98	26.325
456.34	24.778
456.69	26.454
457.04	26.060
457.39	25.658
457.74	26.757
458.09	25.522
458.44	26.674
458.79	26.009
459.14	26.355
459.49	25.873
459.84	26.138
460.19	26.313
460.54	26.316
460.89	26.289
461.24	26.108
461.59	26.319
461.94	26.926
462.29	26.861
462.64	26.614
462.99	26.171
463.34	27.076
463.69	25.573
464.04	25.776
464.39	26.225
464.74	26.005
465.09	26.939
465.44	26.396
465.79	27.750
466.14	27.215
466.49	26.310
466.84	27.071
467.19	26.247
467.54	25.823
467.89	26.880
468.24	27.316
468.59	26.608
468.94	27.267
469.29	27.031
469.64	26.146
469.99	28.089
470.34	28.591
470.68	28.852
471.03	29.181
471.38	26.944
471.73	28.252
472.08	27.309
472.43	27.220
472.78	28.400
473.13	27.038
473.48	28.143
473.83	26.427
474.17	28.471
474.52	29.220
474.87	27.506
475.22	27.788
475.57	26.889
475.92	27.322
476.27	28.457
476.61	28.056
476.96	28.172
477.31	28.525
477.66	28.500
478.01	28.201
478.36	27.082
478.70	28.617
479.05	29.313
479.40	28.964
479.75	28.287
480.10	28.869
480.45	28.046
480.79	29.319
481.14	29.052
481.49	28.267
481.84	27.924
482.19	28.049
482.53	29.214
482.88	28.809
483.23	28.498
483.58	29.695
483.92	28.571
484.27	28.223
484.62	28.337
484.97	28.293
485.31	27.232
485.66	26.020
486.01	26.305
486.36	26.905
486.70	27.671
487.05	26.976
487.40	27.484
487.75	27.625
488.09	27.548
488.44	28.552
488.79	28.688
489.13	28.033
489.48	28.834
489.83	29.694
490.17	28.994
490.52	29.212
490.87	29.330
491.22	29.379
491.56	29.306
491.91	29.580
492.26	29.811
492.60	30.304
492.95	29.938
493.30	28.823
493.64	28.961
493.99	30.306
494.34	30.714
494.68	30.243
495.03	29.589
495.37	29.990
495.72	29.862
496.07	30.690
496.41	30.199
496.76	30.228
497.11	30.382
497.45	30.364
497.80	30.015
498.14	29.568
498.49	30.537
498.84	29.417
499.18	30.750
499.53	30.833
499.87	30.261
500.22	30.637
500.56	30.815
500.91	30.443
501.26	31.004
501.60	30.140
501.95	31.111
502.29	31.034
502.64	30.929
502.98	30.283
503.33	30.357
503.67	30.747
504.02	31.048
504.36	30.833
504.71	30.952
505.06	29.955
505.40	30.888
505.75	31.352
506.09	32.204
506.44	31.128
506.78	31.811
507.13	31.359
507.47	32.029
507.82	31.595
508.16	32.124
508.51	31.170
508.85	31.781
509.19	31.293
509.54	32.294
509.88	31.915
510.23	32.652
510.57	32.222
510.92	32.546
511.26	31.207
511.61	31.641
511.95	32.651
512.30	32.655
512.64	32.165
512.98	33.168
513.33	33.608
513.67	33.445
514.02	32.383
514.36	33.186
514.70	32.711
515.05	33.047
515.39	32.468
515.74	33.682
516.08	32.161
516.42	32.975
516.77	34.200
517.11	34.497
517.46	35.108
517.80	34.116
518.14	33.635
518.49	33.652
518.83	33.056
519.17	34.577
519.52	33.892
519.86	34.409
520.20	34.474
520.55	33.908
520.89	34.565
521.23	34.432
521.58	34.984
521.92	33.946
522.26	34.667
522.61	34.284
522.95	33.121
523.29	34.295
523.64	33.854
523.98	34.628
524.32	34.758
524.66	34.037
525.01	34.425
525.35	34.472
525.69	34.548
526.04	34.269
526.38	34.755
526.72	33.972
527.06	35.352
527.41	34.917
527.75	34.521
528.09	35.076
528.43	34.820
528.78	35.239
529.12	35.980
529.46	34.149
529.80	35.055
530.15	35.608
530.49	34.347
530.83	35.756
531.17	34.343
531.51	35.231
531.86	35.945
532.20	35.560
532.54	34.826
532.88	34.980
533.22	35.027
533.57	34.465
533.91	34.332
534.25	34.632
534.59	33.729
534.93	34.225
535.27	34.487
535.62	34.399
535.96	34.195
536.30	33.966
536.64	34.661
536.98	35.593
537.32	34.485
537.66	35.709
538.01	34.845
538.35	35.541
538.69	35.227
539.03	34.733
539.37	34.664
539.71	35.157
540.05	35.367
540.39	36.150
540.73	34.969
541.07	35.178
541.42	34.031
541.76	33.355
542.10	34.639
542.44	35.510
542.78	34.735
543.12	34.487
543.46	33.425
543.80	33.980
544.14	34.318
544.48	35.761
544.82	33.829
545.16	35.345
545.50	34.253
545.84	35.883
546.18	35.229
546.52	34.922
546.86	35.185
547.20	35.302
547.54	33.540
547.88	34.240
548.22	34.273
548.56	34.202
548.90	34.838
549.24	33.707
549.58	34.580
549.92	35.265
550.26	36.199
550.60	35.491
550.94	35.109
551.28	36.644
551.62	35.672
551.96	34.877
552.30	34.983
552.64	35.398
552.98	35.109
553.32	35.354
553.66	35.905
554.00	35.252
554.34	35.307
554.68	35.234
555.02	35.456
555.36	36.377
555.69	34.384
556.03	34.807
556.37	34.922
556.71	36.292
557.05	35.994
557.39	34.744
557.73	36.324
558.07	36.850
558.41	35.976
558.75	35.665
559.08	34.163
559.42	36.217
559.76	36.120
560.10	34.825
560.44	36.055
560.78	35.421
561.12	34.507
561.45	36.370
561.79	35.958
562.13	35.273
562.47	35.364
562.81	34.866
563.15	34.080
563.48	36.282
563.82	35.903
564.16	34.821
564.50	34.946
564.84	35.582
565.17	33.355
565.51	34.876
565.85	35.227
566.19	34.453
566.52	34.768
566.86	35.777
567.20	35.230
567.54	34.141
567.88	33.724
568.21	34.004
568.55	33.351
568.89	32.157
569.23	32.392
569.56	31.568
569.90	31.275
570.24	31.680
570.57	31.002
570.91	30.704
571.25	30.447
571.59	30.565
571.92	30.060
572.26	30.407
572.60	30.065
572.93	29.762
573.27	30.213
573.61	30.141
573.95	29.830
574.28	29.337
574.62	30.020
574.96	29.212
575.29	29.548
575.63	29.918
575.97	28.776
576.30	29.488
576.64	29.426
576.98	29.211
577.31	29.035
577.65	29.188
577.98	28.607
578.32	28.836
578.66	29.140
578.99	29.544
579.33	29.390
579.67	29.825
580.00	29.191
580.34	29.697
580.67	29.615
581.01	28.633
581.35	28.824
581.68	28.225
582.02	28.511
582.35	28.933
582.69	29.342
583.02	29.288
583.36	29.385
583.70	29.800
584.03	29.741
584.37	29.689
584.70	29.950
585.04	29.570
585.37	28.711
585.71	29.076
586.04	29.331
586.38	29.618
586.72	29.791
587.05	29.765
587.39	29.637
587.72	29.413
588.06	29.739
588.39	30.276
588.73	30.416
589.06	30.211
589.40	30.986
589.73	30.772
590.07	30.626
590.40	31.218
590.73	30.788
591.07	30.738
591.40	31.239
591.74	31.017
592.07	31.081
592.41	31.677
592.74	31.245
593.08	30.141
593.41	30.066
593.75	29.773
594.08	30.877
594.41	31.534
594.75	30.993
595.08	31.504
595.42	30.564
595.75	30.614
596.09	30.733
596.42	31.669
596.75	30.660
597.09	31.256
597.42	31.558
597.75	31.887
598.09	32.219
598.42	30.446
598.76	30.025
599.09	30.584
599.42	30.450
599.76	30.464
600.09	31.336
600.42	30.232
600.76	30.998
601.09	31.029
601.42	30.748
601.76	31.036
602.09	30.634
602.42	31.276
602.76	30.536
603.09	30.565
603.42	31.467
603.76	30.634
604.09	30.837
604.42	31.266
604.76	31.182
605.09	31.555
605.42	31.117
605.75	31.522
606.09	30.760
606.42	30.792
606.75	30.743
607.09	31.054
607.42	31.294
607.75	31.435
608.08	31.179
608.42	31.883
608.75	30.607
609.08	31.466
609.41	31.290
609.75	31.643
610.08	32.353
610.41	31.229
610.74	32.544
611.07	31.795
611.41	31.165
611.74	31.928
612.07	32.760
612.40	32.143
612.73	32.418
613.07	31.425
613.40	33.498
613.73	32.098
614.06	31.631
614.39	33.145
614.72	32.402
615.06	32.065
615.39	32.339
615.72	33.188
616.05	32.358
616.38	32.908
616.71	32.072
617.05	33.957
617.38	33.189
617.71	31.695
618.04	32.422
618.37	32.704
618.70	33.833
619.03	33.243
619.36	34.672
619.69	34.745
620.03	33.196
620.36	32.630
620.69	34.243
621.02	34.855
621.35	35.000
621.68	36.885
622.01	35.275
622.34	34.239
622.67	34.297
623.00	35.042
623.33	34.328
623.66	33.900
623.99	33.684
624.32	34.449
624.65	33.407
624.99	34.429
625.32	34.281
625.65	34.577
625.98	33.099
626.31	35.808
626.64	36.067
626.97	36.729
627.30	35.745
627.63	35.406
627.96	36.554
628.29	35.570
628.62	35.912
628.95	36.220
629.28	35.432
629.61	36.408
629.94	35.917
630.26	35.984
630.59	37.085
630.92	36.336
631.25	38.710
631.58	37.037
631.91	36.915
632.24	40.222
632.57	38.111
632.90	38.966
633.23	37.500
633.56	36.842
633.89	38.561
634.22	39.197
634.55	38.221
634.88	38.210
635.20	36.579
635.53	38.550
635.86	38.287
636.19	36.264
