SpectraSuite Data File
++++++++++++++++++++++++++++++++++++
Date: Sat May 16 11:30:31 PDT 2015
User: schluterlab
Dark Spectrum Present: Yes
Reference Spectrum Present: Yes
Number of Sampled Component Spectra: 1
Spectrometers: USB2E3373
Integration Time (usec): 3000 (USB2E3373)
Spectra Averaged: 3 (USB2E3373)
Boxcar Smoothing: 0 (USB2E3373)
Correct for Electrical Dark: No (USB2E3373)
Strobe/Lamp Enabled: No (USB2E3373)
Correct for Detector Non-linearity: No (USB2E3373)
Correct for Stray Light: No (USB2E3373)
Number of Pixels in Processed Spectrum: 2048
>>>>>Begin Processed Spectral Data<<<<<
178.53	0.000
178.91	106.667
179.29	533.333
179.67	-700.000
180.04	-61.538
180.42	1000.000
180.80	400.000
181.18	450.000
181.56	-150.000
181.94	1100.000
182.31	375.000
182.69	-76.923
183.07	-333.333
183.45	1600.000
183.83	300.000
184.20	-271.429
184.58	-250.000
184.96	-500.000
185.34	112.500
185.72	-475.000
186.09	300.000
186.47	-150.000
186.85	-112.500
187.23	-62.500
187.61	-525.000
187.98	-350.000
188.36	-137.500
188.74	-200.000
189.12	-0.000
189.49	200.000
189.87	-41.667
190.25	500.000
190.63	-78.571
191.00	-244.444
191.38	260.000
191.76	26.667
192.14	440.000
192.51	-320.000
192.89	-200.000
193.27	0.000
193.65	-133.333
194.02	-271.429
194.40	533.333
194.78	-60.000
195.15	-1000.000
195.53	-100.000
195.91	-516.667
196.29	300.000
196.66	-633.333
197.04	1200.000
197.42	-50.000
197.79	26.667
198.17	-433.333
198.55	-850.000
198.92	-2300.000
199.30	175.000
199.68	-850.000
200.05	-77.778
200.43	-166.667
200.81	-1000.000
201.18	-91.667
201.56	228.571
201.94	-86.667
202.31	18.182
202.69	40.000
203.07	-110.000
203.44	400.000
203.82	-366.667
204.19	-275.000
204.57	-200.000
204.95	-500.000
205.32	-12.500
205.70	1300.000
206.08	-2900.000
206.45	-55.556
206.83	-1150.000
207.20	-750.000
207.58	-633.333
207.96	-300.000
208.33	-87.500
208.71	-144.444
209.08	120.000
209.46	-271.429
209.84	900.000
210.21	0.000
210.59	75.000
210.96	1000.000
211.34	-166.667
211.71	-633.333
212.09	475.000
212.46	700.000
212.84	-2300.000
213.22	566.667
213.59	166.667
213.97	-155.556
214.34	190.000
214.72	-160.000
215.09	-300.000
215.47	-166.667
215.84	-120.000
216.22	-140.000
216.59	-46.667
216.97	-400.000
217.34	550.000
217.72	-142.857
218.09	-233.333
218.47	-228.571
218.84	42.857
219.22	-100.000
219.59	0.000
219.97	271.429
220.34	325.000
220.72	162.500
221.09	-92.308
221.47	0.000
221.84	133.333
222.22	-750.000
222.59	1400.000
222.97	-150.000
223.34	-700.000
223.72	-433.333
224.09	-42.857
224.46	-200.000
224.84	7.143
225.21	-185.714
225.59	-72.727
225.96	-187.500
226.34	-57.143
226.71	-244.444
227.08	20.000
227.46	1200.000
227.83	-142.857
228.21	-250.000
228.58	1000.000
228.95	-31.250
229.33	-2300.000
229.70	-260.000
230.08	-700.000
230.45	-91.667
230.82	-233.333
231.20	-2100.000
231.57	-700.000
231.95	1900.000
232.32	-4.762
232.69	-144.444
233.07	-114.286
233.44	-450.000
233.81	-60.000
234.19	-177.778
234.56	-50.000
234.93	0.000
235.31	-157.143
235.68	-157.143
236.05	-58.824
236.43	-113.636
236.80	6.452
237.17	-29.167
237.55	-47.619
237.92	-68.182
238.29	14.286
238.67	5.882
239.04	2.778
239.41	-41.935
239.79	-17.949
240.16	-26.190
240.53	0.000
240.91	-2.564
241.28	21.818
241.65	26.154
242.02	13.115
242.40	8.197
242.77	15.152
243.14	15.254
243.51	0.000
243.89	17.722
244.26	4.494
244.63	14.737
245.00	16.842
245.38	18.644
245.75	19.469
246.12	14.400
246.49	17.323
246.87	15.447
247.24	5.085
247.61	9.322
247.98	11.268
248.36	3.497
248.73	20.253
249.10	11.465
249.47	23.392
249.84	19.886
250.22	14.286
250.59	20.904
250.96	17.801
251.33	17.062
251.70	16.346
252.08	16.588
252.45	16.114
252.82	17.143
253.19	22.128
253.56	18.952
253.94	18.143
254.31	16.738
254.68	24.390
255.05	19.355
255.42	20.635
255.79	15.771
256.16	17.647
256.54	20.588
256.91	20.455
257.28	17.216
257.65	22.340
258.02	24.843
258.39	23.077
258.76	18.581
259.14	20.062
259.51	22.295
259.88	23.171
260.25	24.224
260.62	19.936
260.99	20.178
261.36	21.341
261.73	19.942
262.10	25.000
262.47	19.373
262.85	25.429
263.22	22.350
263.59	17.846
263.96	17.391
264.33	25.745
264.70	22.652
265.07	23.077
265.44	19.638
265.81	21.189
266.18	21.013
266.55	18.873
266.92	21.914
267.29	23.002
267.66	20.000
268.03	24.879
268.40	17.136
268.77	22.169
269.14	21.346
269.51	21.609
269.88	19.954
270.25	19.347
270.62	20.824
270.99	21.847
271.36	21.212
271.73	20.404
272.10	22.426
272.47	20.444
272.84	24.000
273.21	21.101
273.58	20.440
273.95	18.860
274.32	20.362
274.69	24.289
275.06	21.881
275.43	19.866
275.80	22.607
276.17	21.339
276.54	22.811
276.91	21.399
277.28	21.095
277.65	17.975
278.02	21.503
278.39	21.415
278.76	22.311
279.13	21.344
279.50	22.266
279.87	22.833
280.23	20.850
280.60	20.676
280.97	21.359
281.34	21.277
281.71	22.692
282.08	21.371
282.45	21.589
282.82	20.543
283.19	21.273
283.56	21.795
283.92	22.968
284.29	21.004
284.66	18.525
285.03	23.351
285.40	21.218
285.77	23.158
286.14	20.578
286.51	22.025
286.87	18.512
287.24	21.672
287.61	20.000
287.98	18.371
288.35	17.190
288.72	18.846
289.08	17.458
289.45	19.529
289.82	16.782
290.19	20.361
290.56	18.347
290.93	18.124
291.29	18.963
291.66	18.680
292.03	20.094
292.40	19.277
292.77	16.770
293.13	17.561
293.50	16.642
293.87	17.485
294.24	16.591
294.60	15.909
294.97	20.030
295.34	17.926
295.71	17.411
296.08	15.668
296.44	16.595
296.81	16.667
297.18	16.620
297.55	18.503
297.91	17.434
298.28	17.534
298.65	14.644
299.02	17.914
299.38	16.578
299.75	16.440
300.12	16.154
300.48	17.391
300.85	16.383
301.22	15.912
301.59	15.605
301.95	17.884
302.32	14.342
302.69	15.300
303.05	15.018
303.42	15.750
303.79	15.311
304.15	15.284
304.52	14.819
304.89	15.230
305.25	15.263
305.62	14.806
305.99	16.372
306.35	16.870
306.72	15.148
307.09	16.913
307.45	13.394
307.82	14.302
308.19	12.864
308.55	14.488
308.92	14.178
309.29	15.351
309.65	15.695
310.02	13.823
310.38	12.324
310.75	14.652
311.12	14.773
311.48	13.779
311.85	15.036
312.22	14.624
312.58	14.649
312.95	14.883
313.31	15.285
313.68	15.276
314.05	14.639
314.41	12.575
314.78	13.586
315.14	14.116
315.51	13.273
315.87	15.586
316.24	14.286
316.61	14.012
316.97	15.224
317.34	14.066
317.70	14.100
318.07	15.019
318.43	13.951
318.80	15.023
319.16	13.227
319.53	13.534
319.89	12.135
320.26	14.510
320.62	14.038
320.99	14.229
321.35	12.414
321.72	13.101
322.08	14.243
322.45	13.168
322.81	13.929
323.18	15.178
323.54	13.216
323.91	13.068
324.27	13.973
324.64	13.711
325.00	14.485
325.37	13.756
325.73	15.573
326.10	13.818
326.46	13.923
326.83	13.532
327.19	14.012
327.56	15.077
327.92	14.953
328.29	13.853
328.65	13.545
329.01	13.516
329.38	14.005
329.74	14.744
330.11	13.690
330.47	12.716
330.84	14.482
331.20	13.538
331.56	13.765
331.93	13.499
332.29	15.068
332.66	13.960
333.02	13.394
333.38	13.799
333.75	14.248
334.11	14.400
334.48	13.945
334.84	14.436
335.20	14.007
335.57	13.718
335.93	15.309
336.29	15.058
336.66	12.863
337.02	14.685
337.38	13.280
337.75	14.311
338.11	14.222
338.47	14.591
338.84	13.793
339.20	13.269
339.56	14.884
339.93	13.845
340.29	13.818
340.65	14.685
341.02	14.334
341.38	13.142
341.74	13.633
342.11	13.737
342.47	13.734
342.83	13.686
343.20	14.005
343.56	12.327
343.92	14.691
344.28	14.130
344.65	12.624
345.01	13.445
345.37	14.452
345.73	12.684
346.10	13.164
346.46	12.835
346.82	13.312
347.19	11.915
347.55	13.483
347.91	12.205
348.27	13.286
348.63	13.489
349.00	13.922
349.36	11.397
349.72	14.331
350.08	12.751
350.45	12.845
350.81	13.057
351.17	12.379
351.53	12.888
351.89	13.500
352.26	14.574
352.62	14.055
352.98	12.658
353.34	13.349
353.70	11.969
354.07	13.061
354.43	13.043
354.79	12.916
355.15	12.061
355.51	13.359
355.87	12.253
356.24	12.708
356.60	13.376
356.96	13.241
357.32	13.460
357.68	12.644
358.04	12.625
358.40	12.684
358.77	12.365
359.13	12.701
359.49	12.320
359.85	13.186
360.21	12.709
360.57	13.479
360.93	13.333
361.29	12.556
361.66	12.195
362.02	13.240
362.38	13.573
362.74	12.821
363.10	12.482
363.46	13.960
363.82	12.318
364.18	12.663
364.54	13.724
364.90	12.648
365.26	12.268
365.62	13.257
365.98	13.798
366.35	13.239
366.71	12.403
367.07	12.773
367.43	13.178
367.79	12.715
368.15	12.447
368.51	13.077
368.87	13.599
369.23	13.404
369.59	12.778
369.95	13.672
370.31	13.854
370.67	11.424
371.03	13.484
371.39	13.437
371.75	13.805
372.11	12.769
372.47	13.087
372.83	12.656
373.19	12.786
373.55	13.582
373.91	13.514
374.27	13.279
374.63	12.698
374.99	13.074
375.35	13.257
375.71	14.180
376.07	13.689
376.42	11.921
376.78	13.660
377.14	13.288
377.50	12.701
377.86	12.874
378.22	13.317
378.58	13.959
378.94	12.947
379.30	12.736
379.66	13.054
380.02	13.131
380.38	13.353
380.74	12.427
381.09	13.240
381.45	13.186
381.81	13.430
382.17	12.970
382.53	13.070
382.89	13.876
383.25	13.426
383.61	13.502
383.97	13.656
384.32	14.205
384.68	14.087
385.04	12.379
385.40	13.390
385.76	13.415
386.12	13.554
386.48	13.676
386.83	13.436
387.19	14.465
387.55	14.113
387.91	13.930
388.27	12.485
388.62	13.882
388.98	12.841
389.34	13.647
389.70	14.799
390.06	13.424
390.42	13.782
390.77	13.691
391.13	13.665
391.49	13.288
391.85	14.464
392.20	14.381
392.56	13.745
392.92	14.661
393.28	14.638
393.64	14.131
393.99	13.354
394.35	14.659
394.71	13.897
395.07	14.501
395.42	12.574
395.78	13.576
396.14	14.517
396.50	14.373
396.85	14.374
397.21	13.913
397.57	14.529
397.92	14.696
398.28	14.222
398.64	13.920
399.00	15.225
399.35	13.923
399.71	13.589
400.07	14.866
400.42	14.112
400.78	13.894
401.14	13.772
401.49	13.856
401.85	13.911
402.21	14.303
402.57	14.078
402.92	14.412
403.28	13.787
403.63	13.841
403.99	13.984
404.35	13.285
404.70	13.400
405.06	13.552
405.42	13.899
405.77	13.857
406.13	13.742
406.49	14.739
406.84	13.917
407.20	14.723
407.55	14.440
407.91	13.018
408.27	14.645
408.62	13.650
408.98	14.676
409.34	13.772
409.69	14.997
410.05	13.948
410.40	14.040
410.76	14.464
411.11	14.277
411.47	13.939
411.83	13.875
412.18	13.800
412.54	13.911
412.89	14.216
413.25	13.400
413.60	13.426
413.96	12.877
414.31	13.517
414.67	13.270
415.03	13.777
415.38	13.208
415.74	13.402
416.09	14.322
416.45	14.220
416.80	13.849
417.16	13.887
417.51	15.167
417.87	14.110
418.22	14.412
418.58	13.864
418.93	14.040
419.29	14.680
419.64	13.819
420.00	13.852
420.35	13.483
420.71	14.466
421.06	14.024
421.42	13.349
421.77	13.512
422.12	14.214
422.48	14.003
422.83	14.237
423.19	14.421
423.54	14.006
423.90	14.170
424.25	13.914
424.61	13.993
424.96	14.160
425.31	13.583
425.67	13.983
426.02	13.712
426.38	13.612
426.73	14.436
427.09	14.154
427.44	14.034
427.79	13.663
428.15	14.542
428.50	14.839
428.85	14.209
429.21	14.112
429.56	14.115
429.92	14.379
430.27	14.307
430.62	14.054
430.98	13.696
431.33	14.354
431.68	14.424
432.04	14.717
432.39	14.359
432.74	13.849
433.10	15.025
433.45	13.529
433.80	14.334
434.16	14.293
434.51	14.082
434.86	14.411
435.22	14.421
435.57	14.259
435.92	13.892
436.28	14.362
436.63	13.850
436.98	13.173
437.34	14.058
437.69	15.169
438.04	13.727
438.39	14.561
438.75	13.446
439.10	14.436
439.45	13.699
439.81	14.639
440.16	13.856
440.51	14.294
440.86	13.997
441.22	13.488
441.57	13.947
441.92	13.708
442.27	13.582
442.63	14.324
442.98	13.939
443.33	14.058
443.68	14.070
444.03	13.998
444.39	13.950
444.74	14.152
445.09	13.651
445.44	13.506
445.79	14.023
446.15	14.294
446.50	13.664
446.85	14.418
447.20	14.351
447.55	14.254
447.91	14.599
448.26	14.190
448.61	14.544
448.96	14.622
449.31	13.754
449.66	14.482
450.02	13.684
450.37	13.391
450.72	13.559
451.07	14.268
451.42	14.436
451.77	14.303
452.12	14.005
452.47	15.239
452.83	13.745
453.18	13.662
453.53	14.739
453.88	14.833
454.23	14.692
454.58	14.978
454.93	14.484
455.28	14.085
455.63	14.128
455.98	14.699
456.34	14.549
456.69	14.759
457.04	14.505
457.39	14.175
457.74	14.235
458.09	14.385
458.44	15.185
458.79	14.350
459.14	14.432
459.49	14.091
459.84	14.390
460.19	14.260
460.54	14.761
460.89	14.742
461.24	15.240
461.59	14.478
461.94	13.686
462.29	14.235
462.64	13.439
462.99	14.391
463.34	14.180
463.69	14.377
464.04	14.294
464.39	14.456
464.74	14.421
465.09	14.672
465.44	13.706
465.79	15.454
466.14	15.247
466.49	14.393
466.84	14.586
467.19	14.651
467.54	14.557
467.89	15.783
468.24	14.371
468.59	14.179
468.94	14.148
469.29	13.710
469.64	15.364
469.99	14.045
470.34	14.896
470.68	14.826
471.03	14.178
471.38	13.889
471.73	14.965
472.08	14.659
472.43	15.058
472.78	14.467
473.13	14.248
473.48	15.252
473.83	14.268
474.17	14.650
474.52	15.665
474.87	14.452
475.22	14.631
475.57	14.500
475.92	15.065
476.27	14.171
476.61	14.930
476.96	14.757
477.31	14.693
477.66	14.499
478.01	14.479
478.36	14.510
478.70	15.163
479.05	15.251
479.40	14.508
479.75	14.781
480.10	14.633
480.45	14.023
480.79	15.054
481.14	15.454
481.49	14.956
481.84	14.887
482.19	15.349
482.53	14.773
482.88	14.381
483.23	14.742
483.58	15.726
483.92	15.050
484.27	14.488
484.62	14.989
484.97	14.263
485.31	14.368
485.66	14.420
486.01	14.430
486.36	14.928
486.70	15.304
487.05	14.911
487.40	15.037
487.75	14.683
488.09	14.145
488.44	13.735
488.79	14.255
489.13	14.644
489.48	15.131
489.83	14.192
490.17	15.150
490.52	15.217
490.87	14.226
491.22	15.133
491.56	14.907
491.91	14.647
492.26	14.623
492.60	15.271
492.95	15.040
493.30	15.245
493.64	15.092
493.99	15.010
494.34	14.571
494.68	15.918
495.03	15.296
495.37	14.503
495.72	14.293
496.07	15.673
496.41	15.748
496.76	15.205
497.11	15.261
497.45	15.900
497.80	15.458
498.14	15.472
498.49	14.214
498.84	15.388
499.18	16.033
499.53	15.490
499.87	15.203
500.22	15.833
500.56	15.508
500.91	15.665
501.26	16.254
501.60	15.262
501.95	15.797
502.29	14.832
502.64	16.407
502.98	15.046
503.33	15.226
503.67	15.469
504.02	15.403
504.36	15.833
504.71	15.046
505.06	15.676
505.40	15.619
505.75	14.888
506.09	15.925
506.44	16.642
506.78	16.006
507.13	15.963
507.47	16.223
507.82	15.591
508.16	16.010
508.51	16.177
508.85	15.424
509.19	15.594
509.54	15.962
509.88	16.330
510.23	16.195
510.57	16.243
510.92	16.488
511.26	16.108
511.61	15.983
511.95	16.110
512.30	15.558
512.64	15.415
512.98	16.117
513.33	16.145
513.67	15.634
514.02	15.436
514.36	16.454
514.70	16.412
515.05	16.810
515.39	16.263
515.74	17.452
516.08	16.715
516.42	16.431
516.77	16.638
517.11	16.476
517.46	16.806
517.80	16.245
518.14	16.123
518.49	17.035
518.83	16.973
519.17	17.407
519.52	15.847
519.86	15.950
520.20	16.565
520.55	16.554
520.89	16.093
521.23	17.399
521.58	16.865
521.92	17.923
522.26	16.698
522.61	16.223
522.95	15.954
523.29	16.614
523.64	16.615
523.98	16.996
524.32	15.839
524.66	16.398
525.01	17.469
525.35	17.461
525.69	16.981
526.04	17.167
526.38	16.868
526.72	16.156
527.06	17.253
527.41	16.634
527.75	16.436
528.09	16.942
528.43	17.115
528.78	17.714
529.12	17.542
529.46	16.495
529.80	16.591
530.15	17.386
530.49	16.882
530.83	17.289
531.17	16.902
531.51	17.147
531.86	16.919
532.20	16.464
532.54	17.513
532.88	17.128
533.22	16.310
533.57	16.710
533.91	16.916
534.25	17.033
534.59	16.490
534.93	16.055
535.27	17.558
535.62	17.199
535.96	17.001
536.30	16.427
536.64	17.131
536.98	17.232
537.32	16.586
537.66	16.701
538.01	16.770
538.35	17.297
538.69	16.176
539.03	16.994
539.37	17.498
539.71	17.145
540.05	17.135
540.39	17.036
540.73	16.793
541.07	16.872
541.42	16.340
541.76	16.080
542.10	17.286
542.44	17.722
542.78	16.621
543.12	16.565
543.46	16.301
543.80	16.522
544.14	16.118
544.48	17.060
544.82	17.050
545.16	16.633
545.50	16.622
545.84	17.177
546.18	17.060
546.52	17.852
546.86	17.023
547.20	17.370
547.54	16.460
547.88	17.253
548.22	16.514
548.56	17.101
548.90	17.183
549.24	16.608
549.58	17.361
549.92	17.951
550.26	17.847
550.60	16.501
550.94	16.423
551.28	17.833
551.62	17.504
551.96	17.438
552.30	17.422
552.64	17.030
552.98	18.010
553.32	16.522
553.66	18.673
554.00	18.053
554.34	16.173
554.68	17.325
555.02	17.800
555.36	17.038
555.69	16.547
556.03	16.982
556.37	17.496
556.71	16.893
557.05	17.443
557.39	16.407
557.73	17.214
558.07	17.332
558.41	16.455
558.75	16.730
559.08	15.175
559.42	16.922
559.76	18.021
560.10	17.524
560.44	18.858
560.78	18.024
561.12	17.391
561.45	17.877
561.79	16.725
562.13	17.041
562.47	17.577
562.81	16.407
563.15	17.215
563.48	17.623
563.82	17.782
564.16	16.836
564.50	17.339
564.84	17.130
565.17	17.573
565.51	16.884
565.85	17.377
566.19	17.194
566.52	17.482
566.86	16.941
567.20	17.373
567.54	18.074
567.88	17.588
568.21	17.617
568.55	17.073
568.89	16.451
569.23	16.937
569.56	17.108
569.90	17.703
570.24	16.873
570.57	16.766
570.91	16.763
571.25	16.894
571.59	17.109
571.92	17.024
572.26	16.777
572.60	16.817
572.93	15.980
573.27	16.250
573.61	16.203
573.95	16.658
574.28	16.753
574.62	16.548
574.96	16.301
575.29	16.565
575.63	16.883
575.97	16.235
576.30	16.607
576.64	16.736
576.98	16.522
577.31	16.329
577.65	16.641
577.98	16.525
578.32	16.081
578.66	16.096
578.99	16.503
579.33	16.604
579.67	16.257
580.00	16.121
580.34	16.389
580.67	16.328
581.01	15.859
581.35	16.474
581.68	16.107
582.02	16.651
582.35	16.374
582.69	16.764
583.02	16.844
583.36	17.064
583.70	16.206
584.03	17.080
584.37	16.617
584.70	15.887
585.04	16.354
585.37	15.776
585.71	16.449
586.04	16.489
586.38	15.691
586.72	16.432
587.05	16.907
587.39	16.498
587.72	16.830
588.06	16.699
588.39	16.633
588.73	17.019
589.06	17.391
589.40	17.108
589.73	16.926
590.07	16.205
590.40	16.753
590.73	16.593
591.07	16.721
591.40	17.071
591.74	16.811
592.07	16.622
592.41	17.028
592.74	17.333
593.08	16.958
593.41	17.072
593.75	16.683
594.08	16.822
594.41	16.636
594.75	17.139
595.08	17.030
595.42	17.305
595.75	16.428
596.09	16.725
596.42	17.103
596.75	16.386
597.09	17.142
597.42	16.979
597.75	16.652
598.09	16.493
598.42	16.748
598.76	16.694
599.09	16.890
599.42	17.378
599.76	16.837
600.09	17.290
600.42	17.015
600.76	16.949
601.09	16.901
601.42	16.383
601.76	17.251
602.09	16.196
602.42	16.955
602.76	16.660
603.09	16.492
603.42	17.043
603.76	16.992
604.09	16.900
604.42	16.445
604.76	16.703
605.09	17.722
605.42	17.243
605.75	16.990
606.09	17.435
606.42	16.716
606.75	16.531
607.09	17.468
607.42	17.121
607.75	16.600
608.08	18.030
608.42	17.171
608.75	16.402
609.08	17.633
609.41	17.339
609.75	17.114
610.08	17.255
610.41	17.349
610.74	17.166
611.07	17.039
611.41	16.591
611.74	17.481
612.07	17.777
612.40	17.324
612.73	16.424
613.07	17.501
613.40	17.625
613.73	17.548
614.06	16.804
614.39	17.587
614.72	16.369
615.06	16.522
615.39	16.603
615.72	17.816
616.05	16.731
616.38	17.353
616.71	17.778
617.05	17.310
617.38	16.904
617.71	17.445
618.04	17.702
618.37	17.296
618.70	17.601
619.03	17.536
619.36	18.182
619.69	18.521
620.03	16.598
620.36	17.300
620.69	17.085
621.02	17.352
621.35	17.258
621.68	17.541
622.01	17.718
622.34	17.624
622.67	17.187
623.00	18.210
623.33	18.582
623.66	16.839
623.99	17.669
624.32	17.411
624.65	17.734
624.99	17.028
625.32	17.290
625.65	18.182
625.98	16.901
626.31	18.679
626.64	18.075
626.97	17.723
627.30	16.936
627.63	17.271
627.96	17.929
628.29	17.647
628.62	17.479
628.95	18.012
629.28	17.481
629.61	17.272
629.94	18.053
630.26	18.290
630.59	20.402
630.92	17.117
631.25	18.548
631.58	18.095
