SpectraSuite Data File
++++++++++++++++++++++++++++++++++++
Date: Wed May 13 16:25:01 PDT 2015
User: schluterlab
Dark Spectrum Present: Yes
Reference Spectrum Present: Yes
Number of Sampled Component Spectra: 1
Spectrometers: USB2E3373
Integration Time (usec): 3000 (USB2E3373)
Spectra Averaged: 3 (USB2E3373)
Boxcar Smoothing: 0 (USB2E3373)
Correct for Electrical Dark: No (USB2E3373)
Strobe/Lamp Enabled: No (USB2E3373)
Correct for Detector Non-linearity: No (USB2E3373)
Correct for Stray Light: No (USB2E3373)
Number of Pixels in Processed Spectrum: 2048
>>>>>Begin Processed Spectral Data<<<<<
178.53	0.000
178.91	-1200.000
179.29	-1275.000
179.67	-200.000
180.04	-1250.000
180.42	2600.000
180.80	1020.000
181.18	-1000.000
181.56	800.000
181.94	0.000
182.31	-614.286
182.69	1666.667
183.07	-612.500
183.45	-411.111
183.83	527.273
184.20	-490.000
184.58	1950.000
184.96	5700.000
185.34	-880.000
185.72	-712.500
186.09	-2350.000
186.47	2300.000
186.85	2600.000
187.23	4600.000
187.61	-1566.667
187.98	1350.000
188.36	490.909
188.74	436.364
189.12	-800.000
189.49	490.000
189.87	-4400.000
190.25	-1125.000
190.63	392.857
191.00	484.615
191.38	900.000
191.76	-1275.000
192.14	1375.000
192.51	587.500
192.89	883.333
193.27	650.000
193.65	-975.000
194.02	550.000
194.40	700.000
194.78	480.000
195.15	458.333
195.53	580.000
195.91	-1950.000
196.29	337.500
196.66	273.684
197.04	-350.000
197.42	0.000
197.79	590.000
198.17	-4300.000
198.55	614.286
198.92	662.500
199.30	820.000
199.68	0.000
200.05	322.222
200.43	557.143
200.81	4300.000
201.18	1433.333
201.56	-1566.667
201.94	411.111
202.31	577.778
202.69	425.000
203.07	540.000
203.44	0.000
203.82	1150.000
204.19	742.857
204.57	428.571
204.95	625.000
205.32	1533.333
205.70	581.818
206.08	378.571
206.45	2650.000
206.83	356.250
207.20	1050.000
207.58	560.000
207.96	316.667
208.33	662.500
208.71	-816.667
209.08	700.000
209.46	611.111
209.84	463.636
210.21	-1533.333
210.59	1225.000
210.96	-500.000
211.34	2450.000
211.71	690.000
212.09	733.333
212.46	0.000
212.84	1700.000
213.22	1200.000
213.59	-4000.000
213.97	800.000
214.34	628.571
214.72	554.545
215.09	900.000
215.47	-2100.000
215.84	-2350.000
216.22	1600.000
216.59	342.857
216.97	1225.000
217.34	472.727
217.72	-683.333
218.09	0.000
218.47	-4400.000
218.84	688.889
219.22	742.857
219.59	1300.000
219.97	-628.571
220.34	1140.000
220.72	-1600.000
221.09	371.429
221.47	1500.000
221.84	-900.000
222.22	0.000
222.59	1250.000
222.97	-2300.000
223.34	1220.000
223.72	438.462
224.09	1140.000
224.46	2200.000
224.84	-5300.000
225.21	-860.000
225.59	-4800.000
225.96	540.000
226.34	335.000
226.71	2250.000
227.08	725.000
227.46	510.000
227.83	-825.000
228.21	-2100.000
228.58	511.111
228.95	-2050.000
229.33	-2500.000
229.70	1366.667
230.08	757.143
230.45	-920.000
230.82	425.000
231.20	900.000
231.57	671.429
231.95	458.333
232.32	259.091
232.69	372.727
233.07	814.286
233.44	338.462
233.81	-1733.333
234.19	231.579
234.56	475.000
234.93	366.667
235.31	409.091
235.68	323.077
236.05	300.000
236.43	181.818
236.80	273.684
237.17	3800.000
237.55	247.619
237.92	210.714
238.29	223.810
238.67	145.161
239.04	172.414
239.41	138.889
239.79	113.043
240.16	95.238
240.53	104.545
240.91	60.784
241.28	86.000
241.65	94.000
242.02	72.464
242.40	58.065
242.77	63.333
243.14	58.065
243.51	59.551
243.89	63.529
244.26	34.444
244.63	56.989
245.00	38.298
245.38	42.574
245.75	40.187
246.12	36.697
246.49	47.445
246.87	48.000
247.24	33.077
247.61	36.429
247.98	39.216
248.36	30.405
248.73	28.025
249.10	28.025
249.47	27.684
249.84	29.947
250.22	25.668
250.59	28.402
250.96	25.253
251.33	29.858
251.70	29.703
252.08	23.333
252.45	18.386
252.82	21.739
253.19	24.255
253.56	18.431
253.94	23.651
254.31	16.406
254.68	21.154
255.05	19.926
255.42	20.325
255.79	16.544
256.16	19.134
256.54	13.781
256.91	14.947
257.28	14.748
257.65	16.172
258.02	18.944
258.39	15.773
258.76	15.385
259.14	16.369
259.51	14.894
259.88	10.248
260.25	13.293
260.62	14.451
260.99	13.665
261.36	13.514
261.73	13.754
262.10	12.791
262.47	14.930
262.85	13.649
263.22	9.402
263.59	14.815
263.96	12.637
264.33	13.838
264.70	12.368
265.07	13.811
265.44	13.889
265.81	10.949
266.18	11.558
266.55	12.683
266.92	9.337
267.29	10.648
267.66	11.009
268.03	12.045
268.40	11.682
268.77	8.353
269.14	10.811
269.51	13.770
269.88	11.888
270.25	9.932
270.62	12.360
270.99	14.839
271.36	10.730
271.73	10.748
272.10	10.435
272.47	11.828
272.84	12.121
273.21	10.692
273.58	8.734
273.95	9.015
274.32	10.124
274.69	9.422
275.06	10.433
275.43	8.936
275.80	10.421
276.17	8.758
276.54	9.356
276.91	10.672
277.28	9.180
277.65	9.284
278.02	7.246
278.39	10.742
278.76	9.636
279.13	10.755
279.50	11.173
279.87	9.363
280.23	6.786
280.60	8.704
280.97	7.948
281.34	10.088
281.71	10.727
282.08	9.981
282.45	9.818
282.82	9.059
283.19	6.952
283.56	8.246
283.92	9.306
284.29	9.700
284.66	7.804
285.03	5.967
285.40	7.923
285.77	9.933
286.14	8.463
286.51	8.500
286.87	7.692
287.24	10.912
287.61	8.026
287.98	8.442
288.35	6.815
288.72	8.723
289.08	8.451
289.45	5.766
289.82	8.130
290.19	7.535
290.56	8.729
290.93	6.042
291.29	8.129
291.66	7.670
292.03	8.866
292.40	10.279
292.77	6.953
293.13	7.313
293.50	6.851
293.87	6.519
294.24	5.481
294.60	6.841
294.97	7.267
295.34	9.450
295.71	6.818
296.08	6.980
296.44	6.190
296.81	7.001
297.18	8.943
297.55	5.145
297.91	6.596
298.28	8.166
298.65	7.180
299.02	5.797
299.38	6.507
299.75	3.639
300.12	5.364
300.48	6.000
300.85	5.795
301.22	7.134
301.59	4.419
301.95	6.423
302.32	5.520
302.69	6.093
303.05	5.333
303.42	4.691
303.79	6.682
304.15	4.312
304.52	5.562
304.89	5.459
305.25	6.148
305.62	5.889
305.99	6.375
306.35	6.600
306.72	5.269
307.09	5.549
307.45	6.194
307.82	4.688
308.19	7.285
308.55	6.688
308.92	6.337
309.29	5.069
309.65	5.196
310.02	5.708
310.38	5.591
310.75	5.280
311.12	5.425
311.48	6.479
311.85	6.709
312.22	5.619
312.58	5.405
312.95	5.702
313.31	5.146
313.68	5.509
314.05	7.298
314.41	5.327
314.78	4.632
315.14	6.058
315.51	5.252
315.87	6.139
316.24	6.256
316.61	5.750
316.97	4.990
317.34	4.795
317.70	6.023
318.07	4.909
318.43	5.479
318.80	7.310
319.16	6.121
319.53	5.347
319.89	6.190
320.26	7.200
320.62	6.548
320.99	6.364
321.35	5.758
321.72	6.879
322.08	7.502
322.45	6.269
322.81	7.267
323.18	7.707
323.54	6.772
323.91	7.736
324.27	6.119
324.64	6.710
325.00	6.673
325.37	6.369
325.73	7.899
326.10	7.061
326.46	6.631
326.83	7.852
327.19	7.088
327.56	6.620
327.92	7.087
328.29	7.808
328.65	8.195
329.01	8.123
329.38	8.326
329.74	8.310
330.11	7.823
330.47	7.346
330.84	8.732
331.20	7.468
331.56	7.064
331.93	7.963
332.29	8.607
332.66	8.584
333.02	8.867
333.38	7.678
333.75	8.111
334.11	7.384
334.48	8.163
334.84	8.548
335.20	8.273
335.57	7.888
335.93	7.321
336.29	6.777
336.66	8.206
337.02	7.511
337.38	7.407
337.75	7.130
338.11	7.878
338.47	7.643
338.84	8.158
339.20	6.972
339.56	8.394
339.93	6.909
340.29	6.793
340.65	7.576
341.02	7.941
341.38	6.851
341.74	7.368
342.11	8.035
342.47	7.137
342.83	8.219
343.20	8.485
343.56	8.256
343.92	7.105
344.28	7.228
344.65	7.567
345.01	7.576
345.37	6.261
345.73	7.530
346.10	7.502
346.46	6.949
346.82	8.649
347.19	6.600
347.55	7.553
347.91	8.495
348.27	8.381
348.63	7.943
349.00	7.929
349.36	7.635
349.72	6.977
350.08	6.159
350.45	7.648
350.81	7.311
351.17	8.023
351.53	7.043
351.89	6.353
352.26	7.814
352.62	7.378
352.98	7.618
353.34	7.477
353.70	6.710
354.07	7.581
354.43	8.254
354.79	7.080
355.15	7.422
355.51	7.994
355.87	7.510
356.24	6.922
356.60	7.458
356.96	6.195
357.32	6.296
357.68	8.110
358.04	8.234
358.40	8.234
358.77	7.668
359.13	7.103
359.49	7.451
359.85	6.746
360.21	7.097
360.57	8.093
360.93	8.538
361.29	8.239
361.66	6.889
362.02	8.060
362.38	8.213
362.74	7.440
363.10	6.958
363.46	7.263
363.82	6.576
364.18	7.416
364.54	8.024
364.90	7.295
365.26	7.426
365.62	7.889
365.98	7.232
366.35	6.948
366.71	8.098
367.07	6.773
367.43	7.983
367.79	7.923
368.15	8.549
368.51	7.122
368.87	7.138
369.23	7.169
369.59	7.169
369.95	7.206
370.31	7.692
370.67	7.609
371.03	9.139
371.39	7.726
371.75	7.868
372.11	7.681
372.47	7.698
372.83	7.493
373.19	7.587
373.55	7.391
373.91	8.395
374.27	7.835
374.63	6.909
374.99	7.839
375.35	7.467
375.71	8.156
376.07	8.505
376.42	7.221
376.78	8.350
377.14	7.123
377.50	8.543
377.86	7.048
378.22	8.217
378.58	6.767
378.94	7.417
379.30	7.252
379.66	8.566
380.02	7.617
380.38	7.590
380.74	8.403
381.09	8.252
381.45	7.253
381.81	8.354
382.17	8.280
382.53	8.302
382.89	8.395
383.25	7.317
383.61	8.426
383.97	8.193
384.32	7.673
384.68	7.807
385.04	8.666
385.40	8.483
385.76	8.354
386.12	8.679
386.48	8.874
386.83	8.659
387.19	8.163
387.55	8.905
387.91	8.283
388.27	8.093
388.62	8.851
388.98	8.477
389.34	8.824
389.70	8.400
390.06	8.682
390.42	8.366
390.77	8.842
391.13	9.062
391.49	8.122
391.85	8.211
392.20	7.760
392.56	7.891
392.92	8.299
393.28	8.225
393.64	9.053
393.99	9.224
394.35	8.685
394.71	8.908
395.07	7.788
395.42	8.653
395.78	8.206
396.14	8.876
396.50	9.712
396.85	8.900
397.21	8.570
397.57	9.113
397.92	8.834
398.28	7.679
398.64	8.542
399.00	9.289
399.35	8.291
399.71	8.507
400.07	8.516
400.42	8.712
400.78	8.866
401.14	8.049
401.49	8.716
401.85	8.530
402.21	7.904
402.57	8.020
402.92	8.764
403.28	9.369
403.63	9.035
403.99	7.771
404.35	8.545
404.70	7.914
405.06	8.853
405.42	8.921
405.77	8.343
406.13	8.634
406.49	8.693
406.84	8.328
407.20	8.629
407.55	8.998
407.91	9.400
408.27	8.870
408.62	9.151
408.98	8.211
409.34	8.364
409.69	8.710
410.05	9.046
410.40	8.807
410.76	8.184
411.11	8.806
411.47	9.712
411.83	9.285
412.18	8.658
412.54	8.780
412.89	9.217
413.25	8.678
413.60	8.833
413.96	8.561
414.31	9.235
414.67	9.506
415.03	8.808
415.38	8.763
415.74	9.582
416.09	9.406
416.45	9.438
416.80	8.394
417.16	9.450
417.51	9.821
417.87	9.313
418.22	9.022
418.58	9.361
418.93	9.398
419.29	9.166
419.64	10.894
420.00	9.085
420.35	9.623
420.71	9.743
421.06	8.831
421.42	9.181
421.77	9.081
422.12	8.815
422.48	8.743
422.83	9.377
423.19	8.453
423.54	8.416
423.90	8.812
424.25	8.934
424.61	9.048
424.96	8.805
425.31	9.358
425.67	8.989
426.02	9.029
426.38	9.524
426.73	8.836
427.09	8.754
427.44	8.683
427.79	8.913
428.15	8.810
428.50	8.660
428.85	10.131
429.21	8.172
429.56	8.813
429.92	8.505
430.27	8.838
430.62	8.858
430.98	8.926
431.33	9.175
431.68	8.586
432.04	8.520
432.39	8.567
432.74	9.336
433.10	9.394
433.45	9.388
433.80	8.537
434.16	9.776
434.51	9.316
434.86	9.236
435.22	8.783
435.57	8.815
435.92	8.953
436.28	9.668
436.63	9.934
436.98	9.159
437.34	9.958
437.69	9.393
438.04	9.387
438.39	9.493
438.75	9.413
439.10	9.162
439.45	9.976
439.81	9.668
440.16	9.768
440.51	9.256
440.86	9.844
441.22	8.954
441.57	9.979
441.92	9.672
442.27	9.419
442.63	9.584
442.98	9.915
443.33	9.348
443.68	9.293
444.03	9.663
444.39	8.569
444.74	9.632
445.09	9.865
445.44	9.076
445.79	9.352
446.15	10.482
446.50	9.801
446.85	9.404
447.20	9.128
447.55	9.045
447.91	9.708
448.26	9.405
448.61	9.949
448.96	10.410
449.31	10.236
449.66	9.848
450.02	9.304
450.37	9.921
450.72	9.927
451.07	9.141
451.42	9.240
451.77	9.924
452.12	9.931
452.47	10.075
452.83	9.907
453.18	10.208
453.53	9.709
453.88	9.451
454.23	10.161
454.58	10.357
454.93	10.807
455.28	9.414
455.63	9.527
455.98	10.774
456.34	10.050
456.69	9.706
457.04	10.155
457.39	10.053
457.74	9.402
458.09	10.178
458.44	10.604
458.79	9.273
459.14	10.440
459.49	9.457
459.84	9.418
460.19	9.546
460.54	9.896
460.89	9.929
461.24	10.383
461.59	11.098
461.94	9.679
462.29	9.970
462.64	9.828
462.99	9.954
463.34	10.800
463.69	10.819
464.04	10.435
464.39	10.029
464.74	10.576
465.09	10.736
465.44	9.529
465.79	10.403
466.14	9.633
466.49	9.622
466.84	10.450
467.19	9.656
467.54	11.312
467.89	10.024
468.24	10.995
468.59	11.111
468.94	9.896
469.29	9.897
469.64	11.178
469.99	10.825
470.34	9.908
470.68	10.273
471.03	10.680
471.38	10.910
471.73	10.593
472.08	10.987
472.43	8.857
472.78	9.612
473.13	10.398
473.48	10.112
473.83	10.244
474.17	10.392
474.52	10.174
474.87	10.566
475.22	10.331
475.57	9.726
475.92	10.037
476.27	9.470
476.61	9.818
476.96	9.566
477.31	9.524
477.66	10.284
478.01	9.932
478.36	10.524
478.70	9.709
479.05	10.064
479.40	9.724
479.75	9.914
480.10	9.592
480.45	9.329
480.79	9.173
481.14	9.393
481.49	9.824
481.84	9.511
482.19	9.995
482.53	10.321
482.88	10.377
483.23	9.393
483.58	9.645
483.92	10.309
484.27	9.542
484.62	9.569
484.97	9.105
485.31	9.281
485.66	8.063
486.01	7.480
486.36	7.251
486.70	7.284
487.05	7.691
487.40	7.916
487.75	8.160
488.09	8.826
488.44	8.939
488.79	8.969
489.13	9.664
489.48	8.646
489.83	9.107
490.17	10.127
490.52	9.389
490.87	9.588
491.22	9.686
491.56	9.112
491.91	9.632
492.26	9.463
492.60	9.631
492.95	9.214
493.30	9.486
493.64	9.753
493.99	9.424
494.34	9.158
494.68	9.936
495.03	9.868
495.37	9.958
495.72	9.211
496.07	9.559
496.41	9.381
496.76	9.455
497.11	9.770
497.45	9.967
497.80	10.317
498.14	9.614
498.49	9.317
498.84	10.115
499.18	10.000
499.53	9.259
499.87	9.599
500.22	10.127
500.56	10.437
500.91	9.471
501.26	9.436
501.60	9.919
501.95	9.716
502.29	9.934
502.64	9.777
502.98	9.210
503.33	9.644
503.67	9.745
504.02	10.196
504.36	9.967
504.71	9.722
505.06	10.554
505.40	9.334
505.75	9.884
506.09	9.572
506.44	9.620
506.78	9.985
507.13	9.692
507.47	10.707
507.82	10.689
508.16	9.878
508.51	10.350
508.85	10.278
509.19	10.153
509.54	10.051
509.88	10.613
510.23	9.820
510.57	11.507
510.92	10.202
511.26	10.586
511.61	10.892
511.95	9.916
512.30	9.968
512.64	10.639
512.98	10.772
513.33	10.814
513.67	11.206
514.02	10.281
514.36	11.524
514.70	10.736
515.05	10.764
515.39	11.554
515.74	10.417
516.08	11.794
516.42	11.154
516.77	11.594
517.11	10.766
517.46	11.569
517.80	11.847
518.14	10.191
518.49	11.319
518.83	11.705
519.17	11.316
519.52	11.262
519.86	11.865
520.20	11.850
520.55	11.730
520.89	12.165
521.23	12.183
521.58	11.525
521.92	11.390
522.26	11.531
522.61	11.776
522.95	11.418
523.29	11.564
523.64	11.463
523.98	11.522
524.32	12.244
524.66	11.906
525.01	11.581
525.35	12.020
525.69	11.392
526.04	11.713
526.38	12.325
526.72	11.472
527.06	12.178
527.41	11.386
527.75	12.090
528.09	12.267
528.43	11.918
528.78	12.723
529.12	11.576
529.46	12.002
529.80	12.252
530.15	12.025
530.49	11.262
530.83	13.354
531.17	12.924
531.51	13.489
531.86	12.774
532.20	12.516
532.54	13.389
532.88	12.452
533.22	11.805
533.57	12.222
533.91	11.740
534.25	11.847
534.59	10.799
534.93	11.719
535.27	11.768
535.62	11.477
535.96	12.304
536.30	11.634
536.64	12.428
536.98	12.674
537.32	12.047
537.66	12.067
538.01	13.035
538.35	11.765
538.69	12.763
539.03	11.566
539.37	11.629
539.71	11.017
540.05	11.830
540.39	12.691
540.73	12.354
541.07	12.524
541.42	11.937
541.76	12.323
542.10	12.678
542.44	11.722
542.78	12.516
543.12	11.580
543.46	12.787
543.80	12.752
544.14	11.938
544.48	12.444
544.82	11.738
545.16	12.167
545.50	12.468
545.84	12.298
546.18	12.795
546.52	13.008
546.86	11.546
547.20	12.812
547.54	12.358
547.88	12.564
548.22	12.142
548.56	11.824
548.90	11.780
549.24	11.919
549.58	12.824
549.92	11.607
550.26	12.216
550.60	12.241
550.94	11.268
551.28	12.143
551.62	12.150
551.96	12.140
552.30	12.901
552.64	12.035
552.98	13.153
553.32	12.475
553.66	12.952
554.00	11.942
554.34	11.801
554.68	13.448
555.02	12.059
555.36	11.761
555.69	11.502
556.03	12.382
556.37	12.960
556.71	12.005
557.05	12.395
557.39	12.596
557.73	12.562
558.07	13.270
558.41	11.795
558.75	12.858
559.08	12.603
559.42	12.094
559.76	12.574
560.10	12.491
560.44	12.299
560.78	12.309
561.12	12.071
561.45	11.930
561.79	12.657
562.13	11.268
562.47	12.295
562.81	12.762
563.15	12.040
563.48	12.003
563.82	11.872
564.16	11.445
564.50	11.003
564.84	11.378
565.17	11.326
565.51	11.629
565.85	12.119
566.19	11.835
566.52	11.716
566.86	11.151
567.20	11.910
567.54	11.416
567.88	11.407
568.21	11.058
568.55	11.223
568.89	10.214
569.23	10.116
569.56	9.879
569.90	9.811
570.24	8.934
570.57	9.181
570.91	9.341
571.25	8.709
571.59	9.013
571.92	9.044
572.26	8.983
572.60	9.279
572.93	9.145
573.27	9.287
573.61	9.380
573.95	9.354
574.28	8.643
574.62	8.528
574.96	8.507
575.29	8.778
575.63	9.045
575.97	9.060
576.30	9.241
576.64	8.542
576.98	8.556
577.31	8.341
577.65	8.252
577.98	8.042
578.32	7.903
578.66	8.532
578.99	8.560
579.33	8.739
579.67	8.319
580.00	8.487
580.34	8.685
580.67	8.769
581.01	8.523
581.35	8.325
581.68	8.090
582.02	7.854
582.35	8.083
582.69	8.338
583.02	8.328
583.36	8.577
583.70	8.891
584.03	8.804
584.37	9.117
584.70	8.673
585.04	8.929
585.37	8.691
585.71	8.529
586.04	9.084
586.38	8.986
586.72	8.782
587.05	8.802
587.39	8.522
587.72	8.786
588.06	8.351
588.39	9.026
588.73	8.859
589.06	9.162
589.40	9.428
589.73	9.328
590.07	9.609
590.40	9.280
590.73	9.368
591.07	9.931
591.40	9.911
591.74	10.043
592.07	9.511
592.41	9.797
592.74	9.288
593.08	9.194
593.41	9.111
593.75	8.776
594.08	9.252
594.41	8.943
594.75	9.649
595.08	8.948
595.42	9.632
595.75	9.330
596.09	9.839
596.42	10.452
596.75	10.131
597.09	10.433
597.42	9.781
597.75	9.444
598.09	10.348
598.42	9.880
598.76	9.445
599.09	9.312
599.42	9.352
599.76	9.261
600.09	8.743
600.42	9.021
600.76	9.071
601.09	9.253
601.42	9.551
601.76	9.715
602.09	9.130
602.42	9.912
602.76	10.439
603.09	9.441
603.42	9.606
603.76	9.261
604.09	8.996
604.42	9.499
604.76	10.502
605.09	9.786
605.42	9.363
605.75	9.768
606.09	9.557
606.42	9.236
606.75	9.996
607.09	9.879
607.42	9.713
607.75	8.565
608.08	9.249
608.42	10.533
608.75	9.423
609.08	9.621
609.41	10.090
609.75	10.005
610.08	10.792
610.41	10.196
610.74	9.130
611.07	10.375
611.41	10.304
611.74	10.106
612.07	10.197
612.40	10.598
612.73	9.842
613.07	10.614
613.40	10.269
613.73	9.491
614.06	9.946
614.39	10.068
614.72	10.316
615.06	10.294
615.39	9.501
615.72	10.072
616.05	10.473
616.38	10.395
616.71	10.629
617.05	10.306
617.38	10.583
617.71	10.330
618.04	10.697
618.37	10.467
618.70	10.828
619.03	11.776
619.36	11.881
619.69	11.972
620.03	11.676
620.36	11.430
620.69	12.534
621.02	11.947
621.35	11.433
621.68	11.215
622.01	12.229
622.34	12.103
622.67	11.483
623.00	10.932
623.33	11.222
623.66	12.294
623.99	11.708
624.32	10.913
624.65	11.229
624.99	11.898
625.32	11.513
625.65	11.195
625.98	11.606
626.31	11.897
626.64	11.837
626.97	12.801
627.30	12.136
627.63	12.469
627.96	12.868
628.29	12.511
628.62	13.449
628.95	13.962
629.28	13.139
629.61	13.657
629.94	13.619
630.26	12.869
630.59	12.488
630.92	12.835
631.25	11.945
631.58	13.113
631.91	13.185
632.24	13.713
632.57	14.481
632.90	13.706
633.23	13.647
633.56	14.915
633.89	15.855
634.22	14.756
634.55	15.858
634.88	14.012
635.20	14.217
635.53	14.940
635.86	14.109
636.19	15.059
636.52	14.302
636.85	12.944
637.18	12.097
637.51	16.667
637.83	13.317
638.16	13.683
638.49	14.610
638.82	13.906
639.15	15.125
639.48	15.337
639.81	14.879
640.13	15.104
640.46	15.973
640.79	15.984
641.12	14.993
641.45	14.944
641.77	16.053
642.10	15.058
642.43	13.814
642.76	16.563
643.09	16.718
643.41	16.237
643.74	18.673
644.07	15.549
644.40	16.564
644.73	16.535
645.05	17.274
645.38	16.114
645.71	17.552
646.04	16.611
646.36	18.531
