SpectraSuite Data File
++++++++++++++++++++++++++++++++++++
Date: Wed May 13 16:29:33 PDT 2015
User: schluterlab
Dark Spectrum Present: Yes
Reference Spectrum Present: Yes
Number of Sampled Component Spectra: 1
Spectrometers: USB2E3373
Integration Time (usec): 3000 (USB2E3373)
Spectra Averaged: 3 (USB2E3373)
Boxcar Smoothing: 0 (USB2E3373)
Correct for Electrical Dark: No (USB2E3373)
Strobe/Lamp Enabled: No (USB2E3373)
Correct for Detector Non-linearity: No (USB2E3373)
Correct for Stray Light: No (USB2E3373)
Number of Pixels in Processed Spectrum: 2048
>>>>>Begin Processed Spectral Data<<<<<
178.53	0.000
178.91	-1200.000
179.29	-1275.000
179.67	-216.667
180.04	-1000.000
180.42	2200.000
180.80	1080.000
181.18	-1125.000
181.56	728.571
181.94	0.000
182.31	-600.000
182.69	1633.333
183.07	-550.000
183.45	-455.556
183.83	527.273
184.20	-420.000
184.58	2300.000
184.96	5100.000
185.34	-600.000
185.72	-525.000
186.09	-2350.000
186.47	2650.000
186.85	2050.000
187.23	3800.000
187.61	-1866.667
187.98	1075.000
188.36	445.455
188.74	400.000
189.12	-780.000
189.49	510.000
189.87	-4500.000
190.25	-1000.000
190.63	371.429
191.00	384.615
191.38	816.667
191.76	-1275.000
192.14	1375.000
192.51	612.500
192.89	850.000
193.27	487.500
193.65	-1150.000
194.02	450.000
194.40	760.000
194.78	470.000
195.15	475.000
195.53	540.000
195.91	-2450.000
196.29	375.000
196.66	278.947
197.04	-310.000
197.42	0.000
197.79	540.000
198.17	-4500.000
198.55	500.000
198.92	600.000
199.30	840.000
199.68	0.000
200.05	294.444
200.43	742.857
200.81	3300.000
201.18	1466.667
201.56	-1433.333
201.94	555.556
202.31	555.556
202.69	358.333
203.07	460.000
203.44	0.000
203.82	1000.000
204.19	714.286
204.57	450.000
204.95	537.500
205.32	1366.667
205.70	500.000
206.08	421.429
206.45	2150.000
206.83	393.750
207.20	916.667
207.58	600.000
207.96	266.667
208.33	762.500
208.71	-733.333
209.08	757.143
209.46	600.000
209.84	436.364
210.21	-1533.333
210.59	1325.000
210.96	-375.000
211.34	1700.000
211.71	580.000
212.09	716.667
212.46	0.000
212.84	1300.000
213.22	1275.000
213.59	-4300.000
213.97	783.333
214.34	785.714
214.72	490.909
215.09	840.000
215.47	-1700.000
215.84	-2100.000
216.22	1466.667
216.59	371.429
216.97	1025.000
217.34	400.000
217.72	-616.667
218.09	0.000
218.47	-5600.000
218.84	633.333
219.22	785.714
219.59	1533.333
219.97	-700.000
220.34	860.000
220.72	-1466.667
221.09	300.000
221.47	1125.000
221.84	-866.667
222.22	0.000
222.59	1050.000
222.97	-2000.000
223.34	900.000
223.72	415.385
224.09	960.000
224.46	1850.000
224.84	-5600.000
225.21	-980.000
225.59	-4100.000
225.96	510.000
226.34	290.000
226.71	2300.000
227.08	637.500
227.46	430.000
227.83	-800.000
228.21	-1950.000
228.58	622.222
228.95	-2200.000
229.33	-2350.000
229.70	1300.000
230.08	728.571
230.45	-640.000
230.82	475.000
231.20	850.000
231.57	628.571
231.95	450.000
232.32	209.091
232.69	254.545
233.07	614.286
233.44	361.538
233.81	-1366.667
234.19	226.316
234.56	383.333
234.93	350.000
235.31	372.727
235.68	323.077
236.05	285.714
236.43	145.455
236.80	231.579
237.17	3700.000
237.55	209.524
237.92	189.286
238.29	171.429
238.67	154.839
239.04	148.276
239.41	80.556
239.79	82.609
240.16	111.905
240.53	93.182
240.91	76.471
241.28	100.000
241.65	84.000
242.02	66.667
242.40	61.290
242.77	60.000
243.14	58.065
243.51	61.798
243.89	60.000
244.26	41.111
244.63	44.086
245.00	43.617
245.38	47.525
245.75	35.514
246.12	41.284
246.49	37.226
246.87	47.200
247.24	41.538
247.61	35.714
247.98	26.144
248.36	25.676
248.73	29.299
249.10	32.484
249.47	25.989
249.84	27.807
250.22	23.529
250.59	26.036
250.96	23.232
251.33	26.066
251.70	24.752
252.08	19.048
252.45	22.422
252.82	18.261
253.19	23.830
253.56	16.471
253.94	22.822
254.31	22.266
254.68	23.077
255.05	20.295
255.42	17.073
255.79	17.279
256.16	18.051
256.54	18.021
256.91	19.573
257.28	14.029
257.65	16.502
258.02	18.012
258.39	14.826
258.76	18.060
259.14	16.964
259.51	17.021
259.88	12.733
260.25	16.012
260.62	11.561
260.99	13.354
261.36	15.616
261.73	13.467
262.10	13.081
262.47	15.211
262.85	12.256
263.22	11.681
263.59	17.094
263.96	9.890
264.33	14.099
264.70	11.579
265.07	12.276
265.44	10.606
265.81	11.922
266.18	10.553
266.55	12.683
266.92	13.022
267.29	13.194
267.66	11.927
268.03	10.909
268.40	13.318
268.77	9.069
269.14	11.036
269.51	12.415
269.88	11.888
270.25	11.061
270.62	10.337
270.99	15.914
271.36	11.159
271.73	11.916
272.10	10.870
272.47	12.473
272.84	12.121
273.21	11.321
273.58	10.699
273.95	8.386
274.32	10.537
274.69	10.064
275.06	9.252
275.43	12.979
275.80	9.619
276.17	12.220
276.54	12.266
276.91	8.300
277.28	10.742
277.65	11.992
278.02	8.696
278.39	9.961
278.76	8.909
279.13	10.943
279.50	11.918
279.87	8.964
280.23	10.579
280.60	8.511
280.97	9.242
281.34	9.381
281.71	11.273
282.08	9.021
282.45	9.455
282.82	8.348
283.19	8.734
283.56	8.246
283.92	8.291
284.29	8.995
284.66	9.256
285.03	9.403
285.40	9.155
285.77	10.101
286.14	10.017
286.51	8.167
286.87	8.889
287.24	8.958
287.61	9.149
287.98	10.552
288.35	8.082
288.72	8.723
289.08	9.077
289.45	7.249
289.82	8.943
290.19	6.593
290.56	7.504
290.93	6.495
291.29	8.436
291.66	7.670
292.03	9.593
292.40	8.517
292.77	6.657
293.13	7.164
293.50	8.309
293.87	8.296
294.24	7.704
294.60	5.822
294.97	8.721
295.34	8.039
295.71	7.102
296.08	7.123
296.44	6.465
296.81	6.341
297.18	8.130
297.55	3.826
297.91	7.520
298.28	7.363
298.65	6.789
299.02	6.719
299.38	6.109
299.75	4.852
300.12	4.853
300.48	6.250
300.85	6.905
301.22	5.987
301.59	5.051
301.95	7.053
302.32	5.520
302.69	6.691
303.05	6.424
303.42	5.679
303.79	7.135
304.15	4.196
304.52	6.721
304.89	5.575
305.25	5.684
305.62	7.022
305.99	5.785
306.35	5.817
306.72	6.502
307.09	7.325
307.45	7.095
307.82	4.688
308.19	6.181
308.55	5.609
308.92	5.908
309.29	5.280
309.65	4.666
310.02	5.920
310.38	6.129
310.75	5.280
311.12	5.937
311.48	5.329
311.85	5.765
312.22	6.139
312.58	5.821
312.95	6.547
313.31	6.311
313.68	5.925
314.05	7.692
314.41	5.126
314.78	6.042
315.14	6.356
315.51	6.076
315.87	6.733
316.24	6.455
316.61	5.750
316.97	5.479
317.34	5.675
317.70	6.119
318.07	7.026
318.43	7.143
318.80	7.873
319.16	7.910
319.53	6.567
319.89	7.429
320.26	7.400
320.62	6.746
320.99	8.384
321.35	7.677
321.72	8.727
322.08	8.983
322.45	9.154
322.81	8.140
323.18	8.671
323.54	9.091
323.91	9.245
324.27	8.700
324.64	7.176
325.00	7.845
325.37	9.281
325.73	10.323
326.10	8.826
326.46	8.244
326.83	9.922
327.19	9.137
327.56	9.059
327.92	8.661
328.29	10.115
328.65	10.129
329.01	9.477
329.38	9.713
329.74	7.664
330.11	8.765
330.47	9.458
330.84	9.743
331.20	8.288
331.56	9.908
331.93	9.259
332.29	9.938
332.66	11.593
333.02	10.512
333.38	10.659
333.75	10.963
334.11	9.698
334.48	9.406
334.84	9.926
335.20	10.091
335.57	9.791
335.93	8.393
336.29	9.615
336.66	10.460
337.02	9.321
337.38	10.000
337.75	9.091
338.11	9.669
338.47	10.129
338.84	10.999
339.20	8.899
339.56	10.401
339.93	9.636
340.29	9.239
340.65	9.626
341.02	9.860
341.38	10.409
341.74	9.386
342.11	9.345
342.47	9.956
342.83	10.445
343.20	10.823
343.56	9.941
343.92	9.474
344.28	10.119
344.65	9.544
345.01	9.596
345.37	8.148
345.73	9.898
346.10	11.850
346.46	9.661
346.82	10.214
347.19	8.521
347.55	9.524
347.91	9.304
348.27	10.025
348.63	10.368
349.00	9.223
349.36	9.524
349.72	9.062
350.08	10.130
350.45	10.903
350.81	9.829
351.17	10.859
351.53	9.992
351.89	9.076
352.26	10.418
352.62	10.345
352.98	10.049
353.34	9.285
353.70	9.165
354.07	9.032
354.43	9.603
354.79	9.010
355.15	9.737
355.51	9.592
355.87	9.551
356.24	9.853
356.60	9.783
356.96	10.378
357.32	9.567
357.68	9.764
358.04	9.580
358.40	9.105
358.77	10.094
359.13	9.471
359.49	9.490
359.85	8.413
360.21	9.729
360.57	9.961
360.93	9.769
361.29	9.524
361.66	9.056
362.02	9.627
362.38	9.734
362.74	9.152
363.10	8.734
363.46	9.244
363.82	9.675
364.18	9.325
364.54	9.881
364.90	10.269
365.26	9.779
365.62	9.934
365.98	9.204
366.35	9.169
366.71	10.629
367.07	9.395
367.43	9.942
367.79	10.278
368.15	10.489
368.51	9.448
368.87	9.565
369.23	9.437
369.59	10.065
369.95	9.265
370.31	11.111
370.67	9.275
371.03	9.888
371.39	10.423
371.75	9.706
372.11	9.388
372.47	10.044
372.83	10.159
373.19	9.899
373.55	10.347
373.91	11.708
374.27	9.759
374.63	9.018
374.99	10.946
375.35	9.560
375.71	10.418
376.07	11.180
376.42	9.904
376.78	10.736
377.14	10.380
377.50	11.192
377.86	10.173
378.22	10.999
378.58	10.088
378.94	10.245
379.30	10.496
379.66	10.660
380.02	10.934
380.38	10.200
380.74	11.345
381.09	11.614
381.45	11.186
381.81	11.486
382.17	11.401
382.53	10.818
382.89	11.543
383.25	11.069
383.61	12.020
383.97	11.257
384.32	11.728
384.68	10.781
385.04	11.494
385.40	11.579
385.76	11.364
386.12	12.241
386.48	11.391
386.83	11.931
387.19	12.987
387.55	11.441
387.91	11.911
388.27	11.527
388.62	12.108
388.98	12.224
389.34	12.328
389.70	11.956
390.06	13.498
390.42	12.646
390.77	12.214
391.13	12.317
391.49	12.437
391.85	12.222
392.20	11.483
392.56	11.806
392.92	12.242
393.28	11.538
393.64	12.530
393.99	13.378
394.35	11.911
394.71	13.300
395.07	11.713
395.42	12.485
395.78	12.405
396.14	12.725
396.50	12.531
396.85	11.952
397.21	12.824
397.57	12.523
397.92	13.281
398.28	11.771
398.64	12.843
399.00	12.983
399.35	11.901
399.71	12.558
400.07	13.128
400.42	12.822
400.78	13.088
401.14	12.866
401.49	12.716
401.85	12.402
402.21	12.575
402.57	11.659
402.92	12.863
403.28	12.929
403.63	12.562
403.99	12.357
404.35	13.030
404.70	13.369
405.06	12.871
405.42	12.477
405.77	11.714
406.13	12.641
406.49	12.241
406.84	12.995
407.20	12.293
407.55	12.444
407.91	13.000
408.27	13.019
408.62	13.125
408.98	12.684
409.34	12.977
409.69	13.161
410.05	12.825
410.40	12.661
410.76	12.485
411.11	12.244
411.47	12.268
411.83	13.073
412.18	12.121
412.54	12.702
412.89	12.651
413.25	12.692
413.60	12.724
413.96	12.325
414.31	12.697
414.67	12.738
415.03	12.715
415.38	12.887
415.74	12.154
416.09	12.345
416.45	12.851
416.80	12.888
417.16	13.003
417.51	13.271
417.87	12.909
418.22	12.744
418.58	12.008
418.93	13.084
419.29	12.603
419.64	13.098
420.00	12.378
420.35	12.522
420.71	13.210
421.06	11.874
421.42	12.398
421.77	12.612
422.12	11.960
422.48	11.603
422.83	13.046
423.19	12.099
423.54	12.362
423.90	12.232
424.25	12.451
424.61	11.845
424.96	11.895
425.31	12.569
425.67	11.742
426.02	12.514
426.38	12.271
426.73	12.288
427.09	12.644
427.44	11.903
427.79	11.673
428.15	12.738
428.50	12.815
428.85	12.157
429.21	11.982
429.56	12.286
429.92	11.726
430.27	12.016
430.62	11.316
430.98	11.572
431.33	11.495
431.68	11.990
432.04	11.928
432.39	11.422
432.74	11.550
433.10	12.168
433.45	12.012
433.80	11.973
434.16	12.393
434.51	11.737
434.86	12.714
435.22	11.451
435.57	12.036
435.92	11.644
436.28	12.693
436.63	12.417
436.98	11.734
437.34	11.986
437.69	11.785
438.04	11.523
438.39	11.343
438.75	12.725
439.10	12.011
439.45	12.456
439.81	12.326
440.16	11.971
440.51	12.127
440.86	12.623
441.22	11.958
441.57	11.943
441.92	11.361
442.27	11.679
442.63	11.374
442.98	12.169
443.33	12.391
443.68	12.184
444.03	11.957
444.39	11.100
444.74	11.688
445.09	10.943
445.44	11.755
445.79	11.430
446.15	11.699
446.50	11.632
446.85	11.768
447.20	11.729
447.55	11.669
447.91	11.693
448.26	11.630
448.61	11.871
448.96	12.292
449.31	11.586
449.66	12.099
450.02	11.532
450.37	11.848
450.72	12.408
451.07	11.335
451.42	11.611
451.77	11.920
452.12	11.663
452.47	11.132
452.83	11.713
453.18	12.408
453.53	11.503
453.88	11.754
454.23	12.373
454.58	11.993
454.93	12.142
455.28	12.032
455.63	12.075
455.98	11.845
456.34	12.312
456.69	11.522
457.04	12.074
457.39	12.098
457.74	10.737
458.09	11.443
458.44	11.288
458.79	10.900
459.14	12.359
459.49	11.442
459.84	11.856
460.19	11.491
460.54	11.748
460.89	11.190
461.24	11.840
461.59	12.958
461.94	11.961
462.29	12.641
462.64	11.806
462.99	10.475
463.34	12.867
463.69	11.945
464.04	11.768
464.39	11.246
464.74	11.468
465.09	11.279
465.44	11.080
465.79	10.682
466.14	11.823
466.49	10.901
466.84	12.259
467.19	11.829
467.54	12.000
467.89	10.864
468.24	11.926
468.59	12.637
468.94	10.324
469.29	11.632
469.64	12.316
469.99	12.111
470.34	10.964
470.68	12.356
471.03	11.088
471.38	11.466
471.73	12.258
472.08	11.711
472.43	12.123
472.78	11.257
473.13	12.003
473.48	10.737
473.83	11.829
474.17	10.952
474.52	11.663
474.87	11.734
475.22	11.317
475.57	11.553
475.92	10.940
476.27	10.034
476.61	11.418
476.96	10.775
477.31	10.884
477.66	10.886
478.01	11.291
478.36	10.735
478.70	9.813
479.05	10.330
479.40	10.594
479.75	10.371
480.10	10.586
480.45	10.614
480.79	10.177
481.14	10.861
481.49	10.584
481.84	10.242
482.19	9.905
482.53	9.725
482.88	10.889
483.23	10.467
483.58	10.919
483.92	10.590
484.27	9.891
484.62	9.914
484.97	9.657
485.31	10.000
485.66	8.972
486.01	8.493
486.36	8.315
486.70	8.254
487.05	8.954
487.40	8.810
487.75	8.817
488.09	9.584
488.44	9.406
488.79	9.729
489.13	9.702
489.48	9.910
489.83	9.366
490.17	10.302
490.52	9.522
490.87	9.815
491.22	9.959
491.56	9.112
491.91	9.772
492.26	10.473
492.60	9.954
492.95	9.495
493.30	10.280
493.64	9.893
493.99	9.796
494.34	10.222
494.68	10.073
495.03	10.056
495.37	9.819
495.72	9.649
496.07	9.606
496.41	9.735
496.76	9.894
497.11	9.950
497.45	10.154
497.80	10.509
498.14	9.662
498.49	9.756
498.84	9.684
499.18	10.143
499.53	9.687
499.87	10.345
500.22	10.080
500.56	9.951
500.91	9.904
501.26	10.052
501.60	9.919
501.95	9.258
502.29	9.888
502.64	10.009
502.98	9.818
503.33	9.415
503.67	9.466
504.02	9.822
504.36	10.061
504.71	9.722
505.06	9.880
505.40	9.869
505.75	9.161
506.09	9.524
506.44	9.521
506.78	9.985
507.13	10.247
507.47	10.152
507.82	9.980
508.16	10.436
508.51	9.234
508.85	9.533
509.19	9.694
509.54	9.592
509.88	9.274
510.23	9.820
510.57	10.475
510.92	10.357
511.26	9.764
511.61	10.062
511.95	9.864
512.30	9.014
512.64	9.726
512.98	10.021
513.33	10.278
513.67	9.979
514.02	9.361
514.36	10.104
514.70	10.847
515.05	9.704
515.39	11.105
515.74	10.698
516.08	10.509
516.42	10.821
516.77	10.591
517.11	9.989
517.46	10.892
517.80	9.756
518.14	9.902
518.49	11.027
518.83	10.398
519.17	10.104
519.52	10.187
519.86	11.067
520.20	10.347
520.55	10.174
520.89	10.766
521.23	10.676
521.58	10.984
521.92	11.084
522.26	9.945
522.61	10.592
522.95	9.883
523.29	10.773
523.64	10.732
523.98	9.858
524.32	10.193
524.66	10.343
525.01	10.478
525.35	10.409
525.69	10.345
526.04	10.280
526.38	10.189
526.72	10.184
527.06	10.358
527.41	9.282
527.75	11.061
528.09	11.175
528.43	10.134
528.78	10.510
529.12	10.364
529.46	10.778
529.80	10.334
530.15	10.654
530.49	10.523
530.83	10.506
531.17	10.640
531.51	11.349
531.86	9.871
532.20	11.538
532.54	11.083
532.88	10.526
533.22	10.244
533.57	10.494
533.91	10.054
534.25	10.085
534.59	10.677
534.93	9.756
535.27	10.501
535.62	10.195
535.96	10.734
536.30	9.917
536.64	10.882
536.98	10.816
537.32	10.336
537.66	10.000
538.01	10.665
538.35	10.730
538.69	10.721
539.03	9.942
539.37	9.521
539.71	8.749
540.05	10.000
540.39	10.831
540.73	9.897
541.07	11.421
541.42	11.416
541.76	11.290
542.10	11.514
542.44	10.464
542.78	11.265
543.12	9.661
543.46	9.902
543.80	10.475
544.14	10.334
544.48	10.794
544.82	9.365
545.16	10.345
545.50	9.897
545.84	9.610
546.18	10.236
546.52	10.255
546.86	10.241
547.20	11.126
547.54	9.686
547.88	11.798
548.22	10.212
548.56	10.566
548.90	10.179
549.24	9.360
549.58	10.505
549.92	10.852
550.26	10.582
550.60	10.719
550.94	10.634
551.28	9.583
551.62	10.280
551.96	10.105
552.30	11.331
552.64	10.412
552.98	9.831
553.32	11.059
553.66	10.702
554.00	10.021
554.34	10.076
554.68	10.587
555.02	10.296
555.36	10.230
555.69	10.487
556.03	9.892
556.37	10.232
556.71	9.686
557.05	10.434
557.39	10.007
557.73	10.868
558.07	10.370
558.41	9.768
558.75	10.434
559.08	10.738
559.42	9.751
559.76	10.735
560.10	9.850
560.44	10.552
560.78	10.246
561.12	9.763
561.45	10.365
561.79	10.020
562.13	10.396
562.47	10.929
562.81	9.623
563.15	9.833
563.48	9.483
563.82	9.850
564.16	10.399
564.50	9.115
564.84	9.798
565.17	10.103
565.51	9.904
565.85	9.391
566.19	9.393
566.52	9.943
566.86	8.861
567.20	9.611
567.54	9.418
567.88	9.125
568.21	9.524
568.55	8.847
568.89	8.414
569.23	8.824
569.56	8.502
569.90	8.679
570.24	8.145
570.57	8.024
570.91	7.951
571.25	7.752
571.59	7.982
571.92	7.604
572.26	7.915
572.60	7.988
572.93	7.496
573.27	8.075
573.61	7.929
573.95	7.778
574.28	7.889
574.62	7.556
574.96	7.312
575.29	7.299
575.63	7.546
575.97	7.368
576.30	8.285
576.64	7.632
576.98	7.389
577.31	7.255
577.65	7.405
577.98	7.238
578.32	7.327
578.66	7.317
578.99	7.327
579.33	7.383
579.67	7.127
580.00	7.576
580.34	7.404
580.67	7.351
581.01	7.668
581.35	7.138
581.68	7.197
582.02	7.049
582.35	7.016
582.69	7.315
583.02	7.031
583.36	7.217
583.70	7.368
584.03	7.654
584.37	7.747
584.70	7.602
585.04	7.657
585.37	7.759
585.71	7.660
586.04	7.538
586.38	7.497
586.72	8.202
587.05	7.661
587.39	7.124
587.72	7.498
588.06	7.577
588.39	7.572
588.73	7.744
589.06	8.009
589.40	8.114
589.73	8.272
590.07	7.900
590.40	7.526
590.73	7.845
591.07	8.873
591.40	8.562
591.74	8.615
592.07	8.464
592.41	8.475
592.74	7.603
593.08	7.895
593.41	7.529
593.75	6.964
594.08	7.677
594.41	8.095
594.75	7.357
595.08	7.874
595.42	7.916
595.75	7.870
596.09	7.661
596.42	8.566
596.75	7.725
597.09	8.442
597.42	7.631
597.75	7.848
598.09	8.174
598.42	8.204
598.76	8.107
599.09	7.716
599.42	7.751
599.76	7.760
600.09	7.905
600.42	7.743
600.76	7.393
601.09	7.905
601.42	7.572
601.76	7.666
602.09	8.142
602.42	7.683
602.76	8.343
603.09	8.261
603.42	8.317
603.76	7.470
604.09	7.600
604.42	8.316
604.76	8.730
605.09	7.514
605.42	8.337
605.75	7.533
606.09	7.483
606.42	7.519
606.75	7.590
607.09	8.204
607.42	7.831
607.75	7.679
608.08	7.469
608.42	8.158
608.75	8.386
609.08	7.817
609.41	8.948
609.75	7.861
610.08	8.058
610.41	7.635
610.74	7.852
611.07	7.708
611.41	8.685
611.74	8.899
612.07	8.954
612.40	8.709
612.73	8.263
613.07	7.866
613.40	8.794
613.73	7.499
614.06	8.441
614.39	8.443
614.72	9.053
615.06	8.771
615.39	7.325
615.72	8.538
616.05	8.240
616.38	8.004
616.71	8.254
617.05	8.598
617.38	8.298
617.71	9.309
618.04	8.474
618.37	8.634
618.70	8.836
619.03	9.605
619.36	8.961
619.69	8.732
620.03	9.272
620.36	9.225
620.69	9.863
621.02	9.587
621.35	9.005
621.68	9.891
622.01	8.978
622.34	9.607
622.67	9.886
623.00	9.538
623.33	9.364
623.66	9.650
623.99	8.984
624.32	9.415
624.65	9.322
624.99	8.074
625.32	8.762
625.65	9.316
625.98	8.916
626.31	10.420
626.64	9.469
626.97	10.224
627.30	9.476
627.63	10.254
627.96	10.597
628.29	10.236
628.62	11.345
628.95	11.226
629.28	9.489
629.61	11.824
629.94	10.476
630.26	9.914
630.59	10.391
630.92	9.579
631.25	8.786
631.58	11.311
631.91	9.432
632.24	10.127
632.57	10.808
632.90	9.759
633.23	12.752
633.56	11.073
633.89	11.665
634.22	10.443
634.55	11.716
634.88	10.898
635.20	11.947
635.53	11.928
635.86	12.376
636.19	12.706
636.52	10.842
636.85	11.111
637.18	11.175
637.51	10.284
637.83	9.864
638.16	11.509
638.49	13.350
638.82	12.263
639.15	12.625
639.48	11.970
639.81	11.662
640.13	12.240
640.46	13.020
640.79	12.285
641.12	10.454
641.45	12.570
641.77	11.782
642.10	11.404
642.43	11.862
