SpectraSuite Data File
++++++++++++++++++++++++++++++++++++
Date: Wed May 13 16:08:05 PDT 2015
User: schluterlab
Dark Spectrum Present: Yes
Reference Spectrum Present: Yes
Number of Sampled Component Spectra: 1
Spectrometers: USB2E3373
Integration Time (usec): 3000 (USB2E3373)
Spectra Averaged: 3 (USB2E3373)
Boxcar Smoothing: 0 (USB2E3373)
Correct for Electrical Dark: No (USB2E3373)
Strobe/Lamp Enabled: No (USB2E3373)
Correct for Detector Non-linearity: No (USB2E3373)
Correct for Stray Light: No (USB2E3373)
Number of Pixels in Processed Spectrum: 2048
>>>>>Begin Processed Spectral Data<<<<<
178.53	0.000
178.91	-1050.000
179.29	-800.000
179.67	-133.333
180.04	-825.000
180.42	1450.000
180.80	480.000
181.18	-575.000
181.56	414.286
181.94	0.000
182.31	-442.857
182.69	1266.667
183.07	-350.000
183.45	-311.111
183.83	463.636
184.20	-320.000
184.58	1500.000
184.96	4200.000
185.34	-540.000
185.72	-500.000
186.09	-1950.000
186.47	2300.000
186.85	1200.000
187.23	2500.000
187.61	-1000.000
187.98	1050.000
188.36	418.182
188.74	436.364
189.12	-700.000
189.49	430.000
189.87	-2000.000
190.25	-650.000
190.63	350.000
191.00	330.769
191.38	483.333
191.76	-525.000
192.14	900.000
192.51	362.500
192.89	666.667
193.27	437.500
193.65	-950.000
194.02	280.000
194.40	680.000
194.78	420.000
195.15	316.667
195.53	530.000
195.91	-1150.000
196.29	268.750
196.66	215.789
197.04	-230.000
197.42	0.000
197.79	440.000
198.17	-3800.000
198.55	557.143
198.92	500.000
199.30	400.000
199.68	0.000
200.05	272.222
200.43	542.857
200.81	2700.000
201.18	1300.000
201.56	-1033.333
201.94	333.333
202.31	477.778
202.69	325.000
203.07	380.000
203.44	0.000
203.82	825.000
204.19	528.571
204.57	300.000
204.95	387.500
205.32	1066.667
205.70	427.273
206.08	271.429
206.45	2050.000
206.83	256.250
207.20	533.333
207.58	460.000
207.96	183.333
208.33	362.500
208.71	-666.667
209.08	485.714
209.46	400.000
209.84	400.000
210.21	-933.333
210.59	1125.000
210.96	-225.000
211.34	1850.000
211.71	350.000
212.09	650.000
212.46	0.000
212.84	1300.000
213.22	950.000
213.59	-2700.000
213.97	700.000
214.34	700.000
214.72	463.636
215.09	640.000
215.47	-1100.000
215.84	-1450.000
216.22	1033.333
216.59	235.714
216.97	1025.000
217.34	236.364
217.72	-600.000
218.09	0.000
218.47	-3400.000
218.84	466.667
219.22	514.286
219.59	1266.667
219.97	-371.429
220.34	580.000
220.72	-1300.000
221.09	307.143
221.47	1075.000
221.84	-550.000
222.22	0.000
222.59	900.000
222.97	-1950.000
223.34	820.000
223.72	330.769
224.09	680.000
224.46	1450.000
224.84	-3400.000
225.21	-640.000
225.59	-4000.000
225.96	370.000
226.34	170.000
226.71	1750.000
227.08	412.500
227.46	360.000
227.83	-625.000
228.21	-1850.000
228.58	388.889
228.95	-1250.000
229.33	-1050.000
229.70	1200.000
230.08	557.143
230.45	-600.000
230.82	283.333
231.20	483.333
231.57	328.571
231.95	366.667
232.32	204.545
232.69	318.182
233.07	471.429
233.44	192.308
233.81	-1033.333
234.19	231.579
234.56	350.000
234.93	266.667
235.31	327.273
235.68	153.846
236.05	207.143
236.43	145.455
236.80	236.842
237.17	3600.000
237.55	157.143
237.92	182.143
238.29	147.619
238.67	109.677
239.04	175.862
239.41	127.778
239.79	106.522
240.16	126.190
240.53	106.818
240.91	82.353
241.28	84.000
241.65	108.000
242.02	86.957
242.40	72.581
242.77	90.000
243.14	76.344
243.51	79.775
243.89	69.412
244.26	67.778
244.63	64.516
245.00	62.766
245.38	64.356
245.75	52.336
246.12	48.624
246.49	60.584
246.87	68.000
247.24	68.462
247.61	55.000
247.98	64.052
248.36	59.459
248.73	63.057
249.10	66.242
249.47	53.672
249.84	50.267
250.22	51.337
250.59	53.846
250.96	51.010
251.33	53.081
251.70	62.376
252.08	49.048
252.45	46.637
252.82	46.957
253.19	46.383
253.56	47.451
253.94	48.963
254.31	46.094
254.68	52.692
255.05	47.601
255.42	48.374
255.79	50.368
256.16	48.014
256.54	42.756
256.91	43.060
257.28	46.043
257.65	46.205
258.02	48.758
258.39	45.741
258.76	43.144
259.14	44.643
259.51	43.465
259.88	41.615
260.25	42.296
260.62	44.509
260.99	43.478
261.36	41.441
261.73	40.115
262.10	46.221
262.47	44.507
262.85	44.847
263.22	42.450
263.59	40.456
263.96	39.560
264.33	40.209
264.70	41.579
265.07	44.246
265.44	38.636
265.81	39.903
266.18	41.206
266.55	41.220
266.92	42.260
267.29	42.130
267.66	36.927
268.03	40.682
268.40	40.888
268.77	40.811
269.14	38.514
269.51	38.826
269.88	40.326
270.25	39.503
270.62	40.000
270.99	41.720
271.36	39.270
271.73	39.486
272.10	39.348
272.47	39.355
272.84	38.312
273.21	37.736
273.58	37.773
273.95	37.107
274.32	38.017
274.69	37.687
275.06	36.024
275.43	40.000
275.80	38.076
276.17	40.122
276.54	37.630
276.91	40.316
277.28	36.328
277.65	37.524
278.02	36.025
278.39	37.891
278.76	35.455
279.13	36.792
279.50	36.685
279.87	38.247
280.23	36.727
280.60	36.750
280.97	36.229
281.34	36.283
281.71	36.909
282.08	37.620
282.45	36.000
282.82	37.300
283.19	36.185
283.56	36.316
283.92	35.702
284.29	34.392
284.66	37.024
285.03	34.539
285.40	35.035
285.77	34.007
286.14	36.788
286.51	36.333
286.87	35.897
287.24	36.971
287.61	34.350
287.98	37.500
288.35	34.073
288.72	34.112
289.08	32.551
289.45	32.949
289.82	34.309
290.19	31.711
290.56	32.159
290.93	30.211
291.29	32.669
291.66	31.858
292.03	32.558
292.40	32.159
292.77	30.178
293.13	30.746
293.50	30.904
293.87	29.481
294.24	29.185
294.60	29.258
294.97	28.343
295.34	29.478
295.71	29.261
296.08	28.632
296.44	28.748
296.81	28.666
297.18	29.675
297.55	27.441
297.91	28.628
298.28	29.853
298.65	28.590
299.02	28.590
299.38	27.756
299.75	25.606
300.12	26.692
300.48	24.625
300.85	27.127
301.22	26.624
301.59	25.379
301.95	27.078
302.32	26.316
302.69	27.599
303.05	24.970
303.42	25.062
303.79	25.595
304.15	25.058
304.52	25.492
304.89	24.739
305.25	25.754
305.62	24.689
305.99	25.030
306.35	25.615
306.72	26.794
307.09	25.305
307.45	26.914
307.82	23.661
308.19	25.607
308.55	26.106
308.92	25.564
309.29	23.970
309.65	23.542
310.02	25.687
310.38	25.484
310.75	24.815
311.12	26.100
311.48	25.183
311.85	26.625
312.22	25.286
312.58	26.403
312.95	26.294
313.31	23.689
313.68	26.299
314.05	26.134
314.41	25.226
314.78	24.471
315.14	24.131
315.51	25.747
315.87	26.238
316.24	25.422
316.61	25.634
316.97	24.364
317.34	25.734
317.70	26.291
318.07	26.179
318.43	26.517
318.80	27.460
319.16	27.307
319.53	25.610
319.89	28.571
320.26	27.600
320.62	28.770
320.99	27.475
321.35	27.273
321.72	28.029
322.08	28.134
322.45	31.045
322.81	27.907
323.18	29.480
323.54	29.221
323.91	30.377
324.27	29.159
324.64	29.264
325.00	28.765
325.37	30.755
325.73	31.688
326.10	31.156
326.46	31.362
326.83	32.614
327.19	31.768
327.56	31.969
327.92	31.671
328.29	32.121
328.65	33.517
329.01	31.588
329.38	33.673
329.74	33.426
330.11	33.648
330.47	33.150
330.84	34.099
331.20	33.060
331.56	32.844
331.93	33.426
332.29	32.742
332.66	33.274
333.02	34.369
333.38	33.604
333.75	32.620
334.11	33.185
334.48	33.363
334.84	34.651
335.20	33.909
335.57	33.273
335.93	32.232
336.29	33.516
336.66	33.634
337.02	33.665
337.38	34.907
337.75	32.442
338.11	34.467
338.47	34.715
338.84	33.822
339.20	32.385
339.56	34.580
339.93	33.909
340.29	32.790
340.65	34.046
341.02	33.682
341.38	34.786
341.74	32.982
342.11	33.974
342.47	33.744
342.83	32.962
343.20	34.286
343.56	32.350
343.92	33.158
344.28	34.184
344.65	34.652
345.01	32.071
345.37	32.590
345.73	32.910
346.10	33.333
346.46	34.322
346.82	32.784
347.19	32.916
347.55	33.251
347.91	33.091
348.27	33.443
348.63	35.033
349.00	33.252
349.36	33.087
349.72	32.959
350.08	31.686
350.45	34.581
350.81	32.656
351.17	32.172
351.53	32.924
351.89	31.518
352.26	32.991
352.62	33.921
352.98	32.577
353.34	32.786
353.70	31.260
354.07	31.935
354.43	30.556
354.79	32.100
355.15	32.083
355.51	33.973
355.87	32.408
356.24	32.818
356.60	32.318
356.96	32.663
357.32	31.971
357.68	33.465
358.04	32.225
358.40	33.333
358.77	33.646
359.13	32.044
359.49	32.314
359.85	31.587
360.21	31.579
360.57	34.163
360.93	32.385
361.29	33.333
361.66	31.192
362.02	33.134
362.38	33.232
362.74	32.961
363.10	31.532
363.46	31.842
363.82	32.351
364.18	32.305
364.54	32.615
364.90	33.357
365.26	32.721
365.62	33.309
365.98	32.067
366.35	31.805
366.71	32.755
367.07	32.484
367.43	34.180
367.79	33.619
368.15	33.261
368.51	31.904
368.87	32.049
369.23	32.553
369.59	32.947
369.95	31.618
370.31	33.476
370.67	32.826
371.03	32.734
371.39	32.872
371.75	33.235
372.11	31.792
372.47	33.138
372.83	32.925
373.19	32.948
373.55	33.186
373.91	34.021
374.27	32.027
374.63	32.509
374.99	34.040
375.35	32.589
375.71	33.242
376.07	32.853
376.42	33.425
376.78	32.472
377.14	32.225
377.50	32.781
377.86	32.580
378.22	32.933
378.58	32.895
378.94	33.061
379.30	34.669
379.66	33.312
380.02	33.415
380.38	33.090
380.74	33.673
381.09	34.230
381.45	34.358
381.81	33.722
382.17	34.395
382.53	33.459
382.89	33.395
383.25	34.084
383.61	34.077
383.97	33.834
384.32	33.562
384.68	34.325
385.04	33.989
385.40	34.118
385.76	34.029
386.12	33.938
386.48	33.669
386.83	34.060
387.19	34.694
387.55	34.323
387.91	33.011
388.27	32.863
388.62	34.481
388.98	33.907
389.34	34.105
389.70	33.538
390.06	34.347
390.42	33.722
390.77	32.952
391.13	34.269
391.49	33.058
391.85	32.272
392.20	32.429
392.56	33.081
392.92	33.078
393.28	31.716
393.64	33.153
393.99	33.415
394.35	33.437
394.71	33.375
395.07	32.150
395.42	33.684
395.78	32.761
396.14	32.837
396.50	33.271
396.85	33.058
397.21	32.984
397.57	32.982
397.92	33.834
398.28	32.287
398.64	33.453
399.00	32.960
399.35	32.600
399.71	32.465
400.07	32.348
400.42	32.945
400.78	32.931
401.14	32.683
401.49	32.060
401.85	32.668
402.21	31.976
402.57	32.079
402.92	31.904
403.28	32.605
403.63	31.745
403.99	31.465
404.35	32.242
404.70	31.835
405.06	30.984
405.42	32.564
405.77	31.886
406.13	30.530
406.49	31.579
406.84	31.542
407.20	30.733
407.55	32.482
407.91	31.733
408.27	32.036
408.62	31.788
408.98	30.086
409.34	30.627
409.69	31.613
410.05	30.979
410.40	31.376
410.76	31.302
411.11	31.725
411.47	30.160
411.83	30.299
412.18	30.241
412.54	31.133
412.89	31.084
413.25	30.165
413.60	30.760
413.96	31.087
414.31	31.227
414.67	31.496
415.03	30.132
415.38	31.057
415.74	30.418
416.09	31.548
416.45	30.321
416.80	29.941
417.16	31.501
417.51	30.060
417.87	30.315
418.22	30.726
418.58	30.988
418.93	30.835
419.29	31.063
419.64	30.793
420.00	30.549
420.35	30.029
420.71	31.022
421.06	29.893
421.42	31.053
421.77	30.101
422.12	29.759
422.48	30.113
422.83	31.159
423.19	29.890
423.54	30.354
423.90	29.333
424.25	30.486
424.61	29.762
424.96	30.379
425.31	30.233
425.67	28.933
426.02	29.943
426.38	31.258
426.73	29.432
427.09	29.058
427.44	29.040
427.79	29.845
428.15	30.298
428.50	29.842
428.85	30.334
429.21	29.818
429.56	29.497
429.92	30.448
430.27	29.940
430.62	29.135
430.98	29.839
431.33	29.227
431.68	30.000
432.04	29.553
432.39	30.154
432.74	29.803
433.10	31.353
433.45	31.370
433.80	29.712
434.16	29.808
434.51	29.316
434.86	29.761
435.22	29.572
435.57	29.666
435.92	29.666
436.28	30.486
436.63	29.636
436.98	29.823
437.34	30.710
437.69	29.755
438.04	30.410
438.39	30.030
438.75	30.273
439.10	30.335
439.45	30.224
439.81	30.091
440.16	29.983
440.51	30.873
440.86	29.936
441.22	29.700
441.57	29.883
441.92	30.450
442.27	30.571
442.63	30.332
442.98	30.817
443.33	30.652
443.68	28.807
444.03	30.015
444.39	29.406
444.74	30.574
445.09	29.488
445.44	29.907
445.79	29.738
446.15	29.381
446.50	30.318
446.85	30.010
447.20	30.546
447.55	31.100
447.91	29.619
448.26	29.661
448.61	29.565
448.96	30.122
449.31	30.652
449.66	31.120
450.02	28.914
450.37	28.968
450.72	30.231
451.07	30.347
451.42	29.726
451.77	29.654
452.12	29.792
452.47	30.535
452.83	30.245
453.18	29.645
453.53	31.231
453.88	29.415
454.23	29.946
454.58	29.921
454.93	31.341
455.28	30.237
455.63	30.158
455.98	31.369
456.34	29.585
456.69	30.432
457.04	31.146
457.39	30.333
457.74	29.483
458.09	30.190
458.44	29.418
458.79	29.555
459.14	30.361
459.49	30.123
459.84	29.917
460.19	29.464
460.54	29.109
460.89	29.896
461.24	29.933
461.59	30.099
461.94	29.778
462.29	29.852
462.64	29.930
462.99	29.473
463.34	29.533
463.69	30.019
464.04	29.391
464.39	29.565
464.74	30.006
465.09	29.614
465.44	29.197
465.79	28.412
466.14	28.517
466.49	29.032
466.84	29.305
467.19	29.934
467.54	29.313
467.89	28.391
468.24	28.563
468.59	29.670
468.94	28.161
469.29	29.049
469.64	29.317
469.99	29.499
470.34	29.524
470.68	29.526
471.03	29.252
471.38	28.909
471.73	28.714
472.08	28.487
472.43	28.957
472.78	29.164
473.13	29.397
473.48	29.526
473.83	28.902
474.17	28.811
474.52	29.156
474.87	29.013
475.22	28.555
475.57	28.318
475.92	28.200
476.27	28.185
476.61	28.461
476.96	29.192
477.31	28.624
477.66	28.173
478.01	27.235
478.36	29.244
478.70	27.830
479.05	28.222
479.40	27.687
479.75	27.961
480.10	27.336
480.45	28.177
480.79	27.377
481.14	28.718
481.49	28.049
481.84	28.258
482.19	28.169
482.53	28.073
482.88	27.780
483.23	27.944
483.58	27.616
483.92	27.929
484.27	26.405
484.62	27.716
484.97	27.355
485.31	28.219
485.66	28.736
486.01	27.211
486.36	26.072
486.70	25.842
487.05	26.094
487.40	26.251
487.75	26.451
488.09	26.388
488.44	26.551
488.79	27.269
489.13	27.196
489.48	27.814
489.83	27.190
490.17	27.093
490.52	27.015
490.87	26.685
491.22	26.694
491.56	26.834
491.91	26.710
492.26	26.367
492.60	26.682
492.95	26.193
493.30	26.402
493.64	26.505
493.99	26.973
494.34	27.382
494.68	27.060
495.03	27.585
495.37	26.384
495.72	26.608
496.07	27.332
496.41	26.460
496.76	26.737
497.11	26.475
497.45	26.456
497.80	27.543
498.14	26.522
498.49	26.634
498.84	26.989
499.18	26.048
499.53	25.831
499.87	26.747
500.22	26.755
500.56	26.942
500.91	25.962
501.26	26.221
501.60	27.195
501.95	26.077
502.29	26.617
502.64	27.235
502.98	26.180
503.33	26.371
503.67	25.661
504.02	25.491
504.36	25.924
504.71	25.843
505.06	26.410
505.40	26.349
505.75	25.747
506.09	25.462
506.44	25.654
506.78	25.475
507.13	26.401
507.47	26.717
507.82	25.785
508.16	25.279
508.51	25.774
508.85	25.521
509.19	25.867
509.54	26.173
509.88	25.348
510.23	25.296
510.57	26.832
510.92	25.893
511.26	26.670
511.61	26.504
511.95	25.157
512.30	25.928
512.64	26.115
512.98	25.188
513.33	25.482
513.67	25.507
514.02	25.379
514.36	25.123
514.70	25.844
515.05	25.376
515.39	26.584
515.74	26.070
516.08	26.328
516.42	25.194
516.77	25.808
517.11	24.861
517.46	25.564
517.80	25.610
518.14	24.957
518.49	25.613
518.83	25.852
519.17	25.346
519.52	25.297
519.86	25.442
520.20	26.127
520.55	26.032
520.89	26.156
521.23	26.055
521.58	26.230
521.92	25.903
522.26	25.015
522.61	25.919
522.95	24.678
523.29	24.893
523.64	25.244
523.98	25.570
524.32	24.608
524.66	25.376
525.01	25.858
525.35	24.349
525.69	24.692
526.04	25.047
526.38	24.893
526.72	25.521
527.06	25.549
527.41	23.329
527.75	24.823
528.09	25.177
528.43	25.876
528.78	25.015
529.12	24.606
529.46	25.658
529.80	25.000
530.15	25.109
530.49	24.615
530.83	24.873
531.17	25.718
531.51	25.940
531.86	25.290
532.20	25.880
532.54	25.817
532.88	24.454
533.22	24.360
533.57	24.877
533.91	24.142
534.25	24.727
534.59	24.039
534.93	23.498
535.27	24.321
535.62	24.969
535.96	25.047
536.30	24.285
536.64	24.920
536.98	25.481
537.32	24.358
537.66	24.667
538.01	24.885
538.35	24.111
538.69	25.654
539.03	24.237
539.37	24.473
539.71	22.942
540.05	24.052
540.39	23.787
540.73	23.868
541.07	24.724
541.42	24.527
541.76	25.548
542.10	25.420
542.44	25.563
542.78	25.231
543.12	24.056
543.46	25.508
543.80	25.049
544.14	24.005
544.48	25.079
544.82	24.375
545.16	24.593
545.50	24.036
545.84	24.261
546.18	24.848
546.52	24.776
546.86	24.124
547.20	24.140
547.54	24.315
547.88	24.745
548.22	24.159
548.56	24.403
548.90	23.367
549.24	23.771
549.58	24.420
549.92	24.519
550.26	24.858
550.60	23.721
550.94	23.803
551.28	23.409
551.62	24.659
551.96	24.561
552.30	24.437
552.64	24.206
552.98	24.339
553.32	24.073
553.66	24.949
554.00	24.296
554.34	24.017
554.68	24.607
555.02	24.118
555.36	24.008
555.69	23.681
556.03	22.948
556.37	23.056
556.71	22.715
557.05	23.389
557.39	24.283
557.73	22.724
558.07	24.365
558.41	23.734
558.75	24.026
559.08	24.385
559.42	23.507
559.76	24.412
560.10	22.841
560.44	23.480
560.78	22.621
561.12	23.219
561.45	23.990
561.79	23.731
562.13	23.206
562.47	24.180
562.81	23.082
563.15	23.478
563.48	23.342
563.82	24.136
564.16	22.695
564.50	22.852
564.84	23.135
565.17	22.716
565.51	23.323
565.85	23.541
566.19	23.419
566.52	23.306
566.86	22.905
567.20	23.408
567.54	23.402
567.88	22.488
568.21	23.545
568.55	22.750
568.89	23.006
569.23	22.638
569.56	21.822
569.90	22.491
570.24	22.713
570.57	22.169
570.91	21.719
571.25	21.958
571.59	22.209
571.92	21.573
572.26	22.270
572.60	21.952
572.93	21.649
573.27	22.153
573.61	22.111
573.95	22.506
574.28	21.709
574.62	21.939
574.96	21.888
575.29	21.387
575.63	21.596
575.97	21.375
576.30	21.827
576.64	21.860
576.98	21.731
577.31	22.458
577.65	22.085
577.98	21.371
578.32	21.585
578.66	21.509
578.99	21.479
579.33	21.835
579.67	20.968
580.00	22.057
580.34	21.547
580.67	21.862
581.01	22.015
581.35	21.763
581.68	21.685
582.02	21.707
582.35	21.736
582.69	21.489
583.02	21.699
583.36	21.628
583.70	21.678
584.03	21.970
584.37	22.793
584.70	22.153
585.04	21.795
585.37	22.064
585.71	21.758
586.04	21.648
586.38	21.891
586.72	22.149
587.05	21.516
587.39	21.689
587.72	21.953
588.06	21.638
588.39	21.728
588.73	21.883
589.06	22.032
589.40	22.424
589.73	21.507
590.07	21.352
590.40	21.958
590.73	21.897
591.07	22.589
591.40	22.311
591.74	22.987
592.07	22.339
592.41	22.034
592.74	21.648
593.08	22.152
593.41	22.050
593.75	21.205
594.08	21.321
594.41	21.916
594.75	21.442
595.08	21.725
595.42	22.312
595.75	21.688
596.09	21.780
596.42	21.650
596.75	22.541
597.09	22.468
597.42	21.712
597.75	21.863
598.09	21.957
598.42	21.778
598.76	21.727
599.09	21.779
599.42	21.507
599.76	21.413
600.09	21.530
600.42	21.402
600.76	21.250
601.09	21.421
601.42	21.423
601.76	21.404
602.09	21.739
602.42	22.094
602.76	21.765
603.09	21.794
603.42	22.140
603.76	22.104
604.09	21.249
604.42	21.728
604.76	21.341
605.09	21.713
605.42	21.334
605.75	22.020
606.09	21.553
606.42	21.986
606.75	21.609
607.09	21.808
607.42	21.994
607.75	21.435
608.08	21.190
608.42	21.605
608.75	21.416
609.08	21.323
609.41	21.466
609.75	21.296
610.08	22.903
610.41	21.695
610.74	21.429
611.07	22.184
611.41	21.394
611.74	21.719
612.07	22.050
612.40	22.718
612.73	21.474
613.07	22.306
613.40	21.538
613.73	20.661
614.06	21.290
614.39	22.129
614.72	21.368
615.06	21.586
615.39	21.656
615.72	21.421
616.05	21.531
616.38	22.012
616.71	22.565
617.05	23.086
617.38	22.129
617.71	21.502
618.04	21.875
618.37	21.289
618.70	22.215
619.03	22.105
619.36	22.471
619.69	22.465
620.03	23.283
620.36	22.059
620.69	22.603
621.02	22.566
621.35	22.083
621.68	21.963
622.01	21.672
622.34	22.617
622.67	22.053
623.00	21.717
623.33	21.730
623.66	21.515
623.99	22.018
624.32	21.184
624.65	22.246
624.99	21.601
625.32	21.723
625.65	21.262
625.98	21.983
626.31	20.995
626.64	23.102
626.97	22.444
627.30	22.195
627.63	23.298
627.96	22.456
628.29	22.485
628.62	22.415
628.95	23.019
629.28	23.175
629.61	23.465
629.94	22.762
630.26	22.402
630.59	21.640
630.92	21.935
631.25	22.113
