SpectraSuite Data File
++++++++++++++++++++++++++++++++++++
Date: Wed May 13 16:38:33 PDT 2015
User: schluterlab
Dark Spectrum Present: Yes
Reference Spectrum Present: Yes
Number of Sampled Component Spectra: 1
Spectrometers: USB2E3373
Integration Time (usec): 3000 (USB2E3373)
Spectra Averaged: 3 (USB2E3373)
Boxcar Smoothing: 0 (USB2E3373)
Correct for Electrical Dark: No (USB2E3373)
Strobe/Lamp Enabled: No (USB2E3373)
Correct for Detector Non-linearity: No (USB2E3373)
Correct for Stray Light: No (USB2E3373)
Number of Pixels in Processed Spectrum: 2048
>>>>>Begin Processed Spectral Data<<<<<
178.53	0.000
178.91	-1300.000
179.29	-1450.000
179.67	-272.222
180.04	-1250.000
180.42	2550.000
180.80	1080.000
181.18	-1250.000
181.56	571.429
181.94	0.000
182.31	-657.143
182.69	1600.000
183.07	-637.500
183.45	-555.556
183.83	618.182
184.20	-430.000
184.58	2500.000
184.96	5200.000
185.34	-740.000
185.72	-575.000
186.09	-2150.000
186.47	2850.000
186.85	2200.000
187.23	4200.000
187.61	-1666.667
187.98	1275.000
188.36	536.364
188.74	527.273
189.12	-1000.000
189.49	600.000
189.87	-4600.000
190.25	-1225.000
190.63	407.143
191.00	415.385
191.38	666.667
191.76	-1275.000
192.14	1600.000
192.51	675.000
192.89	866.667
193.27	500.000
193.65	-1100.000
194.02	600.000
194.40	940.000
194.78	580.000
195.15	475.000
195.53	560.000
195.91	-2000.000
196.29	368.750
196.66	347.368
197.04	-280.000
197.42	0.000
197.79	660.000
198.17	-5200.000
198.55	685.714
198.92	662.500
199.30	840.000
199.68	0.000
200.05	372.222
200.43	742.857
200.81	4500.000
201.18	1866.667
201.56	-1900.000
201.94	600.000
202.31	500.000
202.69	391.667
203.07	590.000
203.44	0.000
203.82	1475.000
204.19	885.714
204.57	400.000
204.95	675.000
205.32	1766.667
205.70	436.364
206.08	371.429
206.45	2300.000
206.83	387.500
207.20	733.333
207.58	680.000
207.96	333.333
208.33	712.500
208.71	-833.333
209.08	842.857
209.46	588.889
209.84	463.636
210.21	-1333.333
210.59	1425.000
210.96	-487.500
211.34	2500.000
211.71	700.000
212.09	650.000
212.46	0.000
212.84	1700.000
213.22	1450.000
213.59	-4500.000
213.97	766.667
214.34	900.000
214.72	572.727
215.09	1160.000
215.47	-2450.000
215.84	-2400.000
216.22	1533.333
216.59	442.857
216.97	1275.000
217.34	463.636
217.72	-783.333
218.09	0.000
218.47	-3800.000
218.84	666.667
219.22	685.714
219.59	1766.667
219.97	-671.429
220.34	1080.000
220.72	-1800.000
221.09	471.429
221.47	1300.000
221.84	-866.667
222.22	0.000
222.59	1400.000
222.97	-2450.000
223.34	1220.000
223.72	400.000
224.09	1060.000
224.46	2600.000
224.84	-5800.000
225.21	-760.000
225.59	-4900.000
225.96	560.000
226.34	290.000
226.71	2600.000
227.08	650.000
227.46	500.000
227.83	-1125.000
228.21	-2350.000
228.58	588.889
228.95	-2200.000
229.33	-2300.000
229.70	1733.333
230.08	857.143
230.45	-820.000
230.82	441.667
231.20	933.333
231.57	685.714
231.95	383.333
232.32	254.545
232.69	536.364
233.07	671.429
233.44	353.846
233.81	-1666.667
234.19	336.842
234.56	475.000
234.93	258.333
235.31	509.091
235.68	415.385
236.05	350.000
236.43	178.788
236.80	236.842
237.17	3900.000
237.55	238.095
237.92	250.000
238.29	204.762
238.67	203.226
239.04	203.448
239.41	158.333
239.79	143.478
240.16	142.857
240.53	120.455
240.91	100.000
241.28	114.000
241.65	126.000
242.02	107.246
242.40	96.774
242.77	118.333
243.14	87.097
243.51	85.393
243.89	82.353
244.26	75.556
244.63	77.419
245.00	75.532
245.38	70.297
245.75	63.551
246.12	55.046
246.49	67.883
246.87	74.400
247.24	64.615
247.61	59.286
247.98	56.209
248.36	50.000
248.73	57.962
249.10	56.688
249.47	51.412
249.84	52.406
250.22	45.989
250.59	50.888
250.96	48.990
251.33	52.607
251.70	51.485
252.08	43.333
252.45	42.152
252.82	43.043
253.19	44.255
253.56	44.706
253.94	47.718
254.31	47.266
254.68	45.769
255.05	44.280
255.42	43.089
255.79	45.221
256.16	41.877
256.54	37.456
256.91	42.705
257.28	39.568
257.65	39.274
258.02	40.683
258.39	35.331
258.76	38.796
259.14	38.393
259.51	35.562
259.88	34.472
260.25	36.858
260.62	34.971
260.99	37.578
261.36	40.240
261.73	35.530
262.10	38.081
262.47	36.901
262.85	36.212
263.22	35.043
263.59	40.456
263.96	32.418
264.33	32.115
264.70	36.316
265.07	37.596
265.44	34.848
265.81	33.820
266.18	34.673
266.55	33.659
266.92	37.838
267.29	34.722
267.66	34.174
268.03	32.955
268.40	31.308
268.77	32.220
269.14	34.459
269.51	33.183
269.88	34.499
270.25	31.377
270.62	32.360
270.99	32.903
271.36	32.618
271.73	32.710
272.10	33.043
272.47	33.978
272.84	33.550
273.21	35.010
273.58	31.441
273.95	31.447
274.32	27.893
274.69	30.835
275.06	31.299
275.43	31.702
275.80	32.665
276.17	30.754
276.54	32.640
276.91	32.411
277.28	31.641
277.65	31.141
278.02	29.400
278.39	32.617
278.76	30.545
279.13	30.377
279.50	31.099
279.87	31.873
280.23	30.140
280.60	29.594
280.97	30.684
281.34	30.796
281.71	32.909
282.08	30.518
282.45	27.455
282.82	30.728
283.19	27.986
283.56	29.474
283.92	29.103
284.29	30.864
284.66	28.675
285.03	29.656
285.40	29.049
285.77	28.451
286.14	27.979
286.51	29.833
286.87	30.427
287.24	29.153
287.61	29.374
287.98	28.571
288.35	26.466
288.72	27.103
289.08	28.169
289.45	26.030
289.82	27.642
290.19	27.316
290.56	27.412
290.93	25.529
291.29	26.994
291.66	27.876
292.03	28.488
292.40	26.872
292.77	25.296
293.13	25.970
293.50	26.531
293.87	25.778
294.24	26.222
294.60	24.891
294.97	24.709
295.34	28.914
295.71	26.847
296.08	26.638
296.44	25.860
296.81	24.439
297.18	27.371
297.55	23.615
297.91	25.594
298.28	24.632
298.65	25.979
299.02	25.428
299.38	24.967
299.75	23.989
300.12	23.372
300.48	24.625
300.85	24.414
301.22	25.860
301.59	25.253
301.95	24.811
302.32	25.160
302.69	25.090
303.05	24.364
303.42	25.556
303.79	24.009
304.15	22.611
304.52	23.523
304.89	24.971
305.25	24.362
305.62	24.802
305.99	24.911
306.35	24.609
306.72	24.103
307.09	24.750
307.45	26.464
307.82	25.112
308.19	25.938
308.55	25.566
308.92	25.671
309.29	24.393
309.65	24.602
310.02	25.370
310.38	25.054
310.75	25.026
311.12	25.793
311.48	25.183
311.85	25.891
312.22	27.367
312.58	24.844
312.95	26.505
313.31	23.592
313.68	24.740
314.05	27.416
314.41	26.231
314.78	26.485
315.14	25.819
315.51	27.291
315.87	27.228
316.24	26.117
316.61	25.828
316.97	25.930
317.34	26.027
317.70	27.725
318.07	28.489
318.43	28.571
318.80	28.491
319.16	27.872
319.53	28.236
319.89	28.095
320.26	29.500
320.62	29.960
320.99	29.192
321.35	29.192
321.72	31.314
322.08	30.701
322.45	33.234
322.81	31.492
323.18	32.081
323.54	32.189
323.91	32.358
324.27	31.358
324.64	32.432
325.00	31.289
325.37	34.759
325.73	34.470
326.10	33.363
326.46	33.871
326.83	35.289
327.19	35.440
327.56	35.279
327.92	35.433
328.29	36.025
328.65	37.477
329.01	36.191
329.38	36.448
329.74	36.934
330.11	37.323
330.47	38.200
330.84	37.132
331.20	35.974
331.56	36.330
331.93	37.222
332.29	37.799
332.66	35.752
333.02	37.203
333.38	37.398
333.75	37.522
334.11	35.943
334.48	36.025
334.84	38.419
335.20	37.909
335.57	37.534
335.93	36.696
336.29	37.088
336.66	38.323
337.02	35.385
337.38	37.130
337.75	36.542
338.11	36.616
338.47	36.924
338.84	37.947
339.20	35.872
339.56	37.591
339.93	37.091
340.29	37.681
340.65	35.294
341.02	38.307
341.38	37.989
341.74	35.789
342.11	37.555
342.47	37.709
342.83	36.473
343.20	36.277
343.56	35.805
343.92	35.263
344.28	37.075
344.65	36.457
345.01	35.606
345.37	35.678
345.73	36.125
346.10	37.255
346.46	36.525
346.82	35.997
347.19	35.505
347.55	36.043
347.91	36.974
348.27	37.387
348.63	35.702
349.00	34.628
349.36	36.700
349.72	35.445
350.08	35.008
350.45	35.801
350.81	34.525
351.17	37.196
351.53	35.627
351.89	34.488
352.26	36.148
352.62	35.445
352.98	35.332
353.34	36.237
353.70	35.843
354.07	35.242
354.43	34.841
354.79	36.122
355.15	35.674
355.51	36.691
355.87	36.980
356.24	35.749
356.60	35.926
356.96	37.570
357.32	36.304
357.68	37.323
358.04	36.184
358.40	35.550
358.77	36.385
359.13	35.912
359.49	36.000
359.85	34.921
360.21	36.762
360.57	36.965
360.93	37.077
361.29	36.508
361.66	35.913
362.02	36.567
362.38	37.262
362.74	36.533
363.10	36.195
363.46	35.657
363.82	36.508
364.18	34.949
364.54	36.553
364.90	35.552
365.26	36.544
365.62	36.158
365.98	36.231
366.35	34.670
366.71	36.876
367.07	35.761
367.43	36.430
367.79	37.616
368.15	37.069
368.51	35.465
368.87	36.688
369.23	36.284
369.59	38.088
369.95	36.838
370.31	37.108
370.67	36.957
371.03	36.629
371.39	36.953
371.75	36.618
372.11	35.775
372.47	37.170
372.83	38.040
373.19	36.561
373.55	38.064
373.91	38.218
374.27	36.357
374.63	37.164
374.99	37.218
375.35	36.776
375.71	36.806
376.07	37.860
376.42	37.964
376.78	37.641
377.14	37.449
377.50	38.543
377.86	37.367
378.22	37.042
378.58	37.469
378.94	37.524
379.30	37.723
379.66	39.023
380.02	37.961
380.38	36.976
380.74	38.595
381.09	38.081
381.45	38.168
381.81	38.698
382.17	38.790
382.53	38.868
382.89	38.765
383.25	39.024
383.61	39.529
383.97	39.024
384.32	38.553
384.68	38.042
385.04	39.705
385.40	38.514
385.76	38.759
386.12	39.508
386.48	38.389
386.83	39.641
387.19	39.456
387.55	38.528
387.91	39.541
388.27	38.933
388.62	40.012
388.98	39.189
389.34	39.299
389.70	38.565
390.06	39.037
390.42	39.754
390.77	39.186
391.13	41.225
391.49	38.642
391.85	39.465
392.20	37.918
392.56	38.510
392.92	38.552
393.28	38.698
393.64	38.609
393.99	37.996
394.35	38.151
394.71	36.575
395.07	37.632
395.42	38.875
395.78	37.341
396.14	37.803
396.50	39.662
396.85	38.398
397.21	37.546
397.57	37.322
397.92	37.921
398.28	37.500
398.64	36.798
399.00	36.989
399.35	36.492
399.71	36.632
400.07	37.020
400.42	38.098
400.78	37.575
401.14	36.890
401.49	37.552
401.85	36.298
402.21	36.407
402.57	36.089
402.92	36.255
403.28	37.164
403.63	38.366
403.99	36.497
404.35	36.364
404.70	35.791
405.06	34.886
405.42	36.057
405.77	35.771
406.13	35.102
406.49	36.014
406.84	36.267
407.20	35.579
407.55	36.439
407.91	36.267
408.27	36.120
408.62	35.581
408.98	35.233
409.34	36.593
409.69	36.000
410.05	34.882
410.40	35.780
410.76	35.842
411.11	34.077
411.47	34.633
411.83	34.575
412.18	34.818
412.54	35.243
412.89	35.120
413.25	35.065
413.60	35.948
413.96	34.183
414.31	34.508
414.67	35.615
415.03	35.695
415.38	35.374
415.74	34.791
416.09	35.924
416.45	35.207
416.80	35.492
417.16	36.193
417.51	36.231
417.87	34.489
418.22	35.331
418.58	35.636
418.93	36.732
419.29	35.901
419.64	36.524
420.00	37.012
420.35	35.594
420.71	36.222
421.06	36.098
421.42	36.316
421.77	36.267
422.12	36.103
422.48	34.970
422.83	36.983
423.19	37.017
423.54	37.203
423.90	37.391
424.25	37.074
424.61	36.786
424.96	37.551
425.31	36.489
425.67	36.910
426.02	36.629
426.38	38.278
426.73	37.215
427.09	38.176
427.44	36.400
427.79	36.285
428.15	37.857
428.50	38.970
428.85	38.677
429.21	38.211
429.56	37.895
429.92	37.343
430.27	38.431
430.62	38.761
430.98	38.713
431.33	38.763
431.68	37.592
432.04	36.794
432.39	39.520
432.74	39.497
433.10	38.766
433.45	40.175
433.80	38.747
434.16	38.515
434.51	37.684
434.86	39.168
435.22	39.411
435.57	40.243
435.92	39.555
436.28	39.858
436.63	39.625
436.98	38.580
437.34	40.191
437.69	40.432
438.04	40.416
438.39	40.060
438.75	40.848
439.10	40.670
439.45	38.843
439.81	40.000
440.16	39.864
440.51	40.480
440.86	41.112
441.22	40.434
441.57	40.711
441.92	40.481
442.27	40.527
442.63	39.968
442.98	40.958
443.33	39.457
443.68	40.165
444.03	39.873
444.39	39.241
444.74	41.071
445.09	40.593
445.44	40.022
445.79	40.623
446.15	39.809
446.50	41.034
446.85	40.802
447.20	40.439
447.55	40.927
447.91	40.485
448.26	40.735
448.61	40.079
448.96	40.808
449.31	42.857
449.66	39.786
450.02	40.501
450.37	40.363
450.72	41.455
451.07	41.194
451.42	40.669
451.77	41.163
452.12	39.896
452.47	40.423
452.83	41.142
453.18	40.831
453.53	40.878
453.88	40.756
454.23	40.705
454.58	42.277
454.93	42.467
455.28	40.461
455.63	41.444
455.98	42.440
456.34	41.332
456.69	41.578
457.04	42.229
457.39	41.146
457.74	41.149
458.09	42.438
458.44	41.334
458.79	39.534
459.14	40.801
459.49	40.689
459.84	40.166
460.19	41.426
460.54	39.525
460.89	41.964
461.24	41.348
461.59	42.417
461.94	41.060
462.29	41.780
462.64	40.779
462.99	41.119
463.34	42.933
463.69	42.527
464.04	42.029
464.39	40.928
464.74	40.582
465.09	41.556
465.44	41.163
465.79	40.660
466.14	40.449
466.49	40.768
466.84	40.864
467.19	41.038
467.54	40.500
467.89	40.336
468.24	40.721
468.59	41.026
468.94	40.134
469.29	41.260
469.64	41.365
469.99	42.828
470.34	40.951
470.68	41.739
471.03	40.816
471.38	41.696
471.73	41.439
472.08	42.632
472.43	40.452
472.78	40.750
473.13	41.078
473.48	41.261
473.83	41.341
474.17	41.195
474.52	41.935
474.87	41.156
475.22	41.149
475.57	39.764
475.92	40.680
476.27	41.094
476.61	40.265
476.96	40.572
477.31	40.502
477.66	40.919
478.01	40.355
478.36	41.671
478.70	41.121
479.05	41.321
479.40	41.198
479.75	40.417
480.10	40.109
480.45	39.410
480.79	39.608
481.14	40.020
481.49	40.532
481.84	40.009
482.19	40.027
482.53	39.908
482.88	39.926
483.23	39.813
483.58	39.354
483.92	39.784
484.27	39.041
484.62	40.172
484.97	38.904
485.31	39.863
485.66	39.159
486.01	37.822
486.36	35.691
486.70	34.480
487.05	35.747
487.40	37.257
487.75	37.130
488.09	38.247
488.44	37.792
488.79	39.494
489.13	40.336
489.48	39.396
489.83	38.628
490.17	39.763
490.52	38.840
490.87	38.987
491.22	38.927
491.56	38.314
491.91	38.436
492.26	39.642
492.60	39.355
492.95	38.026
493.30	39.159
493.64	39.291
493.99	37.837
494.34	38.853
494.68	40.614
495.03	39.333
495.37	38.111
495.72	39.425
496.07	39.165
496.41	38.673
496.76	38.171
497.11	37.596
497.45	37.541
497.80	38.388
498.14	38.019
498.49	38.537
498.84	38.782
499.18	38.857
499.53	39.506
499.87	39.189
500.22	38.342
500.56	38.544
500.91	38.990
501.26	38.217
501.60	38.348
501.95	38.176
502.29	38.988
502.64	38.361
502.98	38.242
503.33	37.523
503.67	37.958
504.02	38.494
504.36	38.278
504.71	37.714
505.06	38.651
505.40	37.433
505.75	37.608
506.09	37.804
506.44	37.987
506.78	38.724
507.13	38.415
507.47	39.394
507.82	38.298
508.16	39.058
508.51	38.204
508.85	38.381
509.19	37.908
509.54	38.112
509.88	37.300
510.23	37.841
510.57	39.577
510.92	38.736
511.26	38.181
511.61	38.382
511.95	37.422
512.30	38.759
512.64	38.205
512.98	38.156
513.33	38.330
513.67	38.420
514.02	37.013
514.36	39.432
514.70	38.462
515.05	37.479
515.39	38.811
515.74	38.795
516.08	38.625
516.42	38.180
516.77	38.071
517.11	38.568
517.46	38.205
517.80	39.489
518.14	38.274
518.49	39.382
518.83	38.295
519.17	37.587
519.52	38.427
519.86	37.935
520.20	38.266
520.55	39.258
520.89	38.808
521.23	39.324
521.58	38.655
521.92	40.906
522.26	37.889
522.61	38.318
522.95	38.244
523.29	38.831
523.64	37.805
523.98	37.893
524.32	38.179
524.66	37.462
525.01	38.603
525.35	38.538
525.69	37.746
526.04	38.567
526.38	38.255
526.72	37.117
527.06	38.544
527.41	36.015
527.75	38.006
528.09	38.536
528.43	36.966
528.78	38.722
529.12	37.091
529.46	37.538
529.80	37.624
530.15	37.819
530.49	36.738
530.83	37.848
531.17	38.185
531.51	38.586
531.86	37.806
532.20	37.679
532.54	37.604
532.88	37.291
533.22	38.039
533.57	36.975
533.91	36.665
534.25	36.270
534.59	36.242
534.93	37.002
535.27	36.210
535.62	36.203
535.96	37.037
536.30	37.254
536.64	37.669
536.98	37.226
537.32	36.142
537.66	37.333
538.01	36.735
538.35	37.363
538.69	37.524
539.03	36.322
539.37	35.080
539.71	35.450
540.05	37.124
540.39	36.611
540.73	34.799
541.07	36.145
541.42	36.399
541.76	37.355
542.10	37.451
542.44	36.556
542.78	36.759
543.12	35.637
543.46	36.525
543.80	35.589
544.14	35.366
544.48	36.825
544.82	36.818
545.16	36.825
545.50	35.733
545.84	35.887
546.18	36.162
546.52	36.545
546.86	35.876
547.20	36.345
547.54	36.005
547.88	36.607
548.22	35.056
548.56	35.094
548.90	35.403
549.24	34.411
549.58	36.903
549.92	35.508
550.26	36.435
550.60	36.169
550.94	34.437
551.28	35.845
551.62	36.880
551.96	36.281
552.30	36.451
552.64	36.444
552.98	35.254
553.32	35.604
553.66	36.742
554.00	36.445
554.34	35.749
554.68	37.339
555.02	36.107
555.36	35.839
555.69	35.453
556.03	34.522
556.37	36.357
556.71	35.402
557.05	35.504
557.39	35.199
557.73	36.344
558.07	36.331
558.41	36.179
558.75	36.076
559.08	35.794
559.42	36.584
559.76	37.132
560.10	35.903
560.44	35.570
560.78	34.132
561.12	34.169
561.45	36.180
561.79	34.410
562.13	34.205
562.47	35.451
562.81	35.774
563.15	34.314
563.48	34.416
563.82	34.116
564.16	34.729
564.50	33.789
564.84	34.829
565.17	34.813
565.51	35.527
565.85	34.454
566.19	34.252
566.52	34.199
566.86	33.454
567.20	34.080
567.54	33.904
567.88	33.188
568.21	33.333
568.55	32.861
568.89	33.171
569.23	32.175
569.56	31.903
569.90	32.415
570.24	31.647
570.57	30.942
570.91	30.769
571.25	30.358
571.59	30.839
571.92	30.357
572.26	30.098
572.60	30.721
572.93	29.925
573.27	30.464
573.61	30.179
573.95	30.388
574.28	30.126
574.62	29.349
574.96	29.080
575.29	29.462
575.63	29.141
575.97	28.795
576.30	29.607
576.64	29.467
576.98	29.266
577.31	29.182
577.65	29.555
577.98	28.890
578.32	28.693
578.66	28.973
578.99	29.034
579.33	28.734
579.67	28.752
580.00	29.465
580.34	29.022
580.67	29.449
581.01	29.323
581.35	29.352
581.68	29.161
582.02	28.756
582.35	28.752
582.69	28.558
583.02	28.814
583.36	29.098
583.70	29.795
584.03	29.833
584.37	29.934
584.70	29.781
585.04	29.648
585.37	29.543
585.71	29.112
586.04	29.282
586.38	29.859
586.72	29.909
587.05	29.666
587.39	29.261
587.72	29.194
588.06	29.349
588.39	30.041
588.73	29.891
589.06	30.072
589.40	30.505
589.73	30.693
590.07	30.249
590.40	30.471
590.73	30.913
591.07	31.705
591.40	31.843
591.74	31.602
592.07	31.370
592.41	30.922
592.74	29.925
593.08	30.180
593.41	29.643
593.75	28.732
594.08	30.104
594.41	29.763
594.75	30.610
595.08	30.243
595.42	30.263
595.75	30.769
596.09	30.830
596.42	30.884
596.75	31.026
597.09	31.602
597.42	30.101
597.75	30.703
598.09	30.870
598.42	29.897
598.76	30.523
599.09	30.217
599.42	29.913
599.76	29.685
600.09	29.763
600.42	29.511
600.76	29.071
601.09	29.581
601.42	29.680
601.76	29.753
602.09	29.249
602.42	30.215
602.76	30.351
603.09	29.937
603.42	30.457
603.76	29.154
604.09	29.430
604.42	29.923
604.76	30.493
605.09	30.843
605.42	30.269
605.75	29.512
606.09	30.094
606.42	29.792
606.75	29.780
607.09	30.096
607.42	29.782
607.75	29.367
608.08	29.266
608.42	29.897
608.75	29.802
609.08	30.296
609.41	30.033
609.75	30.253
610.08	30.113
610.41	29.702
610.74	30.322
611.07	30.484
611.41	29.490
611.74	30.367
612.07	30.952
612.40	29.958
612.73	30.421
613.07	31.627
613.40	30.964
613.73	29.733
614.06	30.645
614.39	30.152
614.72	29.947
615.06	30.095
615.39	30.202
615.72	30.624
616.05	29.506
616.38	30.461
616.71	31.235
617.05	31.802
617.38	31.870
617.71	30.511
618.04	31.190
618.37	30.633
618.70	30.803
619.03	31.513
619.36	31.500
619.69	31.831
620.03	31.662
620.36	31.618
620.69	31.781
621.02	31.490
621.35	32.106
621.68	32.632
622.01	32.198
622.34	32.224
622.67	31.407
623.00	30.741
623.33	31.094
623.66	31.808
623.99	31.738
624.32	30.742
624.65	31.709
624.99	31.091
625.32	31.499
625.65	32.307
625.98	31.899
626.31	31.260
626.64	32.327
626.97	32.502
627.30	32.253
627.63	32.978
627.96	32.969
628.29	32.546
628.62	33.760
628.95	34.340
629.28	33.303
629.61	33.731
629.94	33.905
630.26	32.698
630.59	32.984
630.92	34.004
