SpectraSuite Data File
++++++++++++++++++++++++++++++++++++
Date: Wed May 13 16:07:26 PDT 2015
User: schluterlab
Dark Spectrum Present: Yes
Reference Spectrum Present: Yes
Number of Sampled Component Spectra: 1
Spectrometers: USB2E3373
Integration Time (usec): 3000 (USB2E3373)
Spectra Averaged: 3 (USB2E3373)
Boxcar Smoothing: 0 (USB2E3373)
Correct for Electrical Dark: No (USB2E3373)
Strobe/Lamp Enabled: No (USB2E3373)
Correct for Detector Non-linearity: No (USB2E3373)
Correct for Stray Light: No (USB2E3373)
Number of Pixels in Processed Spectrum: 2048
>>>>>Begin Processed Spectral Data<<<<<
178.53	0.000
178.91	-750.000
179.29	-1000.000
179.67	-161.111
180.04	-725.000
180.42	1950.000
180.80	600.000
181.18	-550.000
181.56	542.857
181.94	0.000
182.31	-414.286
182.69	1066.667
183.07	-337.500
183.45	-355.556
183.83	409.091
184.20	-300.000
184.58	1550.000
184.96	3500.000
185.34	-580.000
185.72	-487.500
186.09	-1700.000
186.47	1600.000
186.85	1750.000
187.23	3500.000
187.61	-966.667
187.98	850.000
188.36	400.000
188.74	263.636
189.12	-640.000
189.49	440.000
189.87	-2700.000
190.25	-650.000
190.63	307.143
191.00	338.462
191.38	450.000
191.76	-950.000
192.14	1025.000
192.51	500.000
192.89	700.000
193.27	287.500
193.65	-850.000
194.02	400.000
194.40	700.000
194.78	320.000
195.15	316.667
195.53	440.000
195.91	-1350.000
196.29	262.500
196.66	178.947
197.04	-200.000
197.42	0.000
197.79	360.000
198.17	-3200.000
198.55	371.429
198.92	400.000
199.30	660.000
199.68	0.000
200.05	222.222
200.43	571.429
200.81	2300.000
201.18	766.667
201.56	-933.333
201.94	411.111
202.31	422.222
202.69	250.000
203.07	450.000
203.44	0.000
203.82	700.000
204.19	700.000
204.57	300.000
204.95	487.500
205.32	833.333
205.70	372.727
206.08	192.857
206.45	1450.000
206.83	300.000
207.20	733.333
207.58	320.000
207.96	272.222
208.33	462.500
208.71	-466.667
209.08	528.571
209.46	344.444
209.84	300.000
210.21	-1300.000
210.59	800.000
210.96	-337.500
211.34	1450.000
211.71	280.000
212.09	516.667
212.46	0.000
212.84	1333.333
213.22	825.000
213.59	-2000.000
213.97	366.667
214.34	628.571
214.72	463.636
215.09	600.000
215.47	-1650.000
215.84	-1550.000
216.22	1000.000
216.59	300.000
216.97	675.000
217.34	372.727
217.72	-450.000
218.09	0.000
218.47	-3000.000
218.84	400.000
219.22	542.857
219.59	1066.667
219.97	-328.571
220.34	700.000
220.72	-1200.000
221.09	264.286
221.47	1125.000
221.84	-533.333
222.22	0.000
222.59	1000.000
222.97	-1200.000
223.34	780.000
223.72	230.769
224.09	800.000
224.46	1100.000
224.84	-2400.000
225.21	-680.000
225.59	-3200.000
225.96	340.000
226.34	250.000
226.71	1850.000
227.08	525.000
227.46	340.000
227.83	-675.000
228.21	-1500.000
228.58	500.000
228.95	-1100.000
229.33	-1400.000
229.70	1133.333
230.08	514.286
230.45	-420.000
230.82	341.667
231.20	500.000
231.57	371.429
231.95	291.667
232.32	159.091
232.69	281.818
233.07	414.286
233.44	261.538
233.81	-1266.667
234.19	226.316
234.56	216.667
234.93	191.667
235.31	245.455
235.68	253.846
236.05	214.286
236.43	154.545
236.80	94.737
237.17	2200.000
237.55	152.381
237.92	178.571
238.29	128.571
238.67	112.903
239.04	137.931
239.41	91.667
239.79	84.783
240.16	116.667
240.53	88.636
240.91	72.549
241.28	82.000
241.65	58.000
242.02	59.420
242.40	61.290
242.77	50.000
243.14	46.237
243.51	62.921
243.89	57.647
244.26	50.000
244.63	51.613
245.00	35.106
245.38	47.525
245.75	40.187
246.12	41.284
246.49	47.445
246.87	42.400
247.24	44.615
247.61	30.714
247.98	32.680
248.36	31.757
248.73	36.306
249.10	39.490
249.47	36.158
249.84	32.620
250.22	32.086
250.59	31.953
250.96	29.293
251.33	31.754
251.70	39.109
252.08	28.095
252.45	24.664
252.82	23.478
253.19	28.511
253.56	29.804
253.94	30.705
254.31	27.734
254.68	30.385
255.05	27.675
255.42	27.236
255.79	30.882
256.16	27.437
256.54	21.555
256.91	24.911
257.28	20.504
257.65	27.393
258.02	25.776
258.39	27.760
258.76	24.749
259.14	24.702
259.51	25.836
259.88	22.360
260.25	25.076
260.62	25.723
260.99	23.292
261.36	24.925
261.73	24.355
262.10	22.674
262.47	23.944
262.85	21.448
263.22	23.932
263.59	24.217
263.96	22.802
264.33	24.282
264.70	23.684
265.07	21.483
265.44	25.505
265.81	21.168
266.18	23.367
266.55	23.659
266.92	21.867
267.29	25.463
267.66	21.560
268.03	21.136
268.40	22.664
268.77	23.628
269.14	21.622
269.51	22.799
269.88	22.611
270.25	19.187
270.62	22.247
270.99	22.796
271.36	23.391
271.73	21.028
272.10	21.087
272.47	22.796
272.84	19.481
273.21	22.642
273.58	18.122
273.95	17.610
274.32	19.421
274.69	20.557
275.06	18.898
275.43	21.489
275.80	20.842
276.17	19.552
276.54	21.622
276.91	17.984
277.28	20.117
277.65	19.923
278.02	20.704
278.39	21.680
278.76	19.455
279.13	19.245
279.50	20.298
279.87	19.920
280.23	19.561
280.60	20.696
280.97	18.484
281.34	20.177
281.71	19.818
282.08	22.457
282.45	16.909
282.82	20.426
283.19	18.004
283.56	18.947
283.92	20.305
284.29	19.224
284.66	19.238
285.03	18.445
285.40	20.599
285.77	17.845
286.14	17.617
286.51	18.833
286.87	17.949
287.24	20.195
287.61	17.817
287.98	17.532
288.35	19.968
288.72	17.290
289.08	17.684
289.45	17.463
289.82	17.561
290.19	16.327
290.56	17.917
290.93	17.069
291.29	16.258
291.66	17.994
292.03	17.878
292.40	18.649
292.77	15.089
293.13	17.761
293.50	17.493
293.87	16.444
294.24	15.852
294.60	17.031
294.97	17.006
295.34	15.374
295.71	16.335
296.08	13.533
296.44	15.406
296.81	15.324
297.18	15.718
297.55	14.908
297.91	13.852
298.28	15.395
298.65	16.188
299.02	14.888
299.38	15.007
299.75	13.342
300.12	13.921
300.48	12.750
300.85	14.920
301.22	13.885
301.59	14.268
301.95	15.365
302.32	14.506
302.69	14.217
303.05	14.545
303.42	14.568
303.79	14.949
304.15	13.520
304.52	12.978
304.89	12.311
305.25	13.341
305.62	13.703
305.99	13.223
306.35	13.982
306.72	15.247
307.09	14.206
307.45	14.189
307.82	12.500
308.19	14.018
308.55	15.210
308.92	13.749
309.29	12.883
309.65	12.937
310.02	13.531
310.38	13.011
310.75	12.460
311.12	13.715
311.48	13.584
311.85	13.522
312.22	13.632
312.58	13.721
312.95	14.995
313.31	12.524
313.68	13.410
314.05	14.300
314.41	13.970
314.78	13.192
315.14	13.406
315.51	13.594
315.87	13.465
316.24	13.605
316.61	13.060
316.97	12.329
317.34	13.014
317.70	13.958
318.07	14.726
318.43	13.307
318.80	13.402
319.16	12.335
319.53	13.508
319.89	13.238
320.26	14.600
320.62	13.492
320.99	13.838
321.35	13.030
321.72	13.244
322.08	14.610
322.45	15.423
322.81	15.795
323.18	14.836
323.54	13.822
323.91	14.906
324.27	13.480
324.64	12.954
325.00	13.165
325.37	15.105
325.73	14.632
326.10	12.710
326.46	13.351
326.83	13.978
327.19	15.030
327.56	14.373
327.92	13.473
328.29	14.729
328.65	12.891
329.01	13.809
329.38	14.524
329.74	13.296
330.11	13.101
330.47	12.764
330.84	14.430
331.20	14.117
331.56	13.945
331.93	13.611
332.29	14.907
332.66	13.805
333.02	14.351
333.38	14.724
333.75	14.260
334.11	13.345
334.48	13.576
334.84	13.603
335.20	13.091
335.57	13.418
335.93	11.339
336.29	12.088
336.66	13.616
337.02	13.484
337.38	13.148
337.75	11.943
338.11	13.608
338.47	12.339
338.84	13.382
339.20	12.385
339.56	13.686
339.93	11.455
340.29	12.500
340.65	12.745
341.02	12.478
341.38	12.456
341.74	12.368
342.11	13.886
342.47	12.863
342.83	13.014
343.20	13.593
343.56	12.553
343.92	12.456
344.28	12.755
344.65	12.984
345.01	11.616
345.37	11.921
345.73	12.098
346.10	12.873
346.46	12.373
346.82	13.591
347.19	12.615
347.55	12.397
347.91	13.350
348.27	13.065
348.63	13.378
349.00	12.298
349.36	13.136
349.72	12.831
350.08	12.156
350.45	13.019
350.81	12.754
351.17	12.642
351.53	12.613
351.89	11.386
352.26	12.628
352.62	13.232
352.98	12.318
353.34	13.311
353.70	11.538
354.07	13.145
354.43	11.905
354.79	11.826
355.15	13.488
355.51	13.349
355.87	12.653
356.24	12.459
356.60	12.510
356.96	11.424
357.32	12.592
357.68	12.283
358.04	12.827
358.40	11.876
358.77	12.754
359.13	11.839
359.49	12.314
359.85	11.111
360.21	11.085
360.57	12.685
360.93	10.923
361.29	12.320
361.66	11.378
362.02	12.090
362.38	11.863
362.74	12.649
363.10	11.695
363.46	12.032
363.82	11.489
364.18	11.821
364.54	12.927
364.90	12.465
365.26	12.059
365.62	11.322
365.98	11.468
366.35	12.034
366.71	12.581
367.07	12.017
367.43	12.700
367.79	12.491
368.15	13.362
368.51	11.119
368.87	12.848
369.23	12.143
369.59	11.875
369.95	12.059
370.31	12.037
370.67	11.087
371.03	13.109
371.39	12.245
371.75	12.353
372.11	12.091
372.47	12.830
372.83	12.968
373.19	11.705
373.55	12.195
373.91	13.108
374.27	11.753
374.63	11.491
374.99	11.935
375.35	11.514
375.71	11.720
376.07	12.003
376.42	11.348
376.78	12.061
377.14	11.940
377.50	11.722
377.86	11.104
378.22	12.705
378.58	10.714
378.94	12.382
379.30	11.069
379.66	12.817
380.02	11.548
380.38	11.172
380.74	12.365
381.09	12.164
381.45	12.661
381.81	13.022
382.17	12.675
382.53	11.572
382.89	12.778
383.25	11.757
383.61	12.577
383.97	13.071
384.32	12.289
384.68	11.586
385.04	11.555
385.40	12.384
385.76	11.794
386.12	11.852
386.48	13.153
386.83	12.957
387.19	12.863
387.55	12.059
387.91	12.031
388.27	12.446
388.62	13.030
388.98	12.531
389.34	12.641
389.70	12.017
390.06	12.991
390.42	12.192
390.77	12.786
391.13	12.572
391.49	13.008
391.85	11.967
392.20	11.735
392.56	12.942
392.92	12.596
393.28	10.355
393.64	12.950
393.99	13.256
394.35	12.593
394.71	13.551
395.07	12.710
395.42	12.423
395.78	13.104
396.14	12.477
396.50	13.158
396.85	12.206
397.21	12.145
397.57	12.957
397.92	12.861
398.28	11.939
398.64	13.202
399.00	12.535
399.35	12.352
399.71	12.384
400.07	13.424
400.42	12.147
400.78	13.932
401.14	12.988
401.49	13.015
401.85	12.644
402.21	12.515
402.57	12.770
402.92	13.304
403.28	13.429
403.63	13.428
403.99	13.121
404.35	12.788
404.70	12.950
405.06	12.638
405.42	12.664
405.77	12.514
406.13	12.923
406.49	13.483
406.84	12.699
407.20	12.766
407.55	13.210
407.91	12.400
408.27	13.593
408.62	13.125
408.98	12.071
409.34	12.977
409.69	12.710
410.05	12.701
410.40	12.538
410.76	12.366
411.11	13.390
411.47	13.227
411.83	13.684
412.18	12.430
412.54	13.823
412.89	12.651
413.25	12.810
413.60	13.156
413.96	12.568
414.31	12.758
414.67	13.752
415.03	12.517
415.38	13.789
415.74	13.441
416.09	13.390
416.45	13.320
416.80	13.351
417.16	13.740
417.51	13.470
417.87	12.524
418.22	13.249
418.58	13.363
418.93	13.022
419.29	13.304
419.64	13.665
420.00	13.537
420.35	13.217
420.71	12.971
421.06	12.589
421.42	12.865
421.77	12.948
422.12	12.353
422.48	12.574
422.83	12.871
423.19	12.541
423.54	13.117
423.90	13.275
424.25	13.456
424.61	14.048
424.96	13.528
425.31	13.566
425.67	13.090
426.02	13.886
426.38	12.759
426.73	13.341
427.09	13.556
427.44	12.708
427.79	12.766
428.15	13.393
428.50	13.458
428.85	13.230
429.21	13.363
429.56	12.338
429.92	13.035
430.27	12.512
430.62	12.852
430.98	13.233
431.33	12.990
431.68	13.665
432.04	12.833
432.39	12.736
432.74	12.867
433.10	13.639
433.45	14.052
433.80	12.694
434.16	13.515
434.51	12.895
434.86	13.341
435.22	13.619
435.57	13.191
435.92	13.283
436.28	13.582
436.63	13.742
436.98	13.566
437.34	14.013
437.69	13.419
438.04	13.322
438.39	13.254
438.75	14.468
439.10	13.240
439.45	13.459
439.81	12.689
440.16	12.761
440.51	13.591
440.86	13.723
441.22	14.127
441.57	12.633
441.92	13.306
442.27	13.240
442.63	13.639
442.98	14.366
443.33	13.859
443.68	13.578
444.03	13.372
444.39	12.220
444.74	13.366
445.09	13.747
445.44	13.997
445.79	13.706
446.15	13.923
446.50	13.516
446.85	13.875
447.20	13.106
447.55	13.624
447.91	12.852
448.26	13.634
448.61	14.019
448.96	14.230
449.31	14.004
449.66	12.999
450.02	13.370
450.37	14.002
450.72	13.875
451.07	13.163
451.42	12.948
451.77	14.093
452.12	13.222
452.47	14.241
452.83	13.928
453.18	12.836
453.53	14.409
453.88	13.290
454.23	13.867
454.58	14.597
454.93	14.431
455.28	13.217
455.63	13.896
455.98	13.988
456.34	13.128
456.69	13.024
457.04	13.808
457.39	14.085
457.74	13.929
458.09	13.859
458.44	13.911
458.79	13.449
459.14	14.108
459.49	14.536
459.84	13.518
460.19	14.084
460.54	13.021
460.89	13.823
461.24	13.600
461.59	14.062
461.94	13.933
462.29	14.065
462.64	13.338
462.99	13.208
463.34	14.533
463.69	14.071
464.04	14.319
464.39	13.739
464.74	13.666
465.09	14.053
465.44	13.075
465.79	12.919
466.14	13.684
466.49	13.793
466.84	14.244
467.19	14.182
467.54	14.188
467.89	13.745
468.24	13.845
468.59	14.408
468.94	13.500
469.29	13.882
469.64	14.659
469.99	14.411
470.34	13.672
470.68	14.009
471.03	13.673
471.38	13.482
471.73	14.657
472.08	15.000
472.43	13.819
472.78	13.101
473.13	14.698
473.48	13.670
473.83	14.695
474.17	13.752
474.52	13.400
474.87	14.069
475.22	13.175
475.57	13.971
475.92	13.224
476.27	13.867
476.61	13.569
476.96	13.799
477.31	13.605
477.66	13.184
478.01	13.382
478.36	13.273
478.70	12.980
479.05	13.206
479.40	13.306
479.75	13.116
480.10	12.873
480.45	13.137
480.79	12.852
481.14	12.916
481.49	13.004
481.84	13.306
482.19	12.858
482.53	13.624
482.88	13.541
483.23	13.458
483.58	13.467
483.92	13.215
484.27	12.244
484.62	12.672
484.97	12.889
485.31	13.116
485.66	11.750
486.01	11.588
486.36	11.167
486.70	11.054
487.05	11.840
487.40	12.079
487.75	12.568
488.09	12.769
488.44	13.175
488.79	13.526
489.13	13.102
489.48	13.132
489.83	13.164
490.17	12.714
490.52	12.400
490.87	12.845
491.22	13.097
491.56	12.984
491.91	12.843
492.26	13.091
492.60	12.857
492.95	12.442
493.30	13.037
493.64	13.019
493.99	12.349
494.34	13.460
494.68	13.233
495.03	13.299
495.37	13.355
495.72	12.768
496.07	13.179
496.41	12.920
496.76	12.973
497.11	12.877
497.45	13.181
497.80	12.668
498.14	12.899
498.49	13.171
498.84	14.238
499.18	13.190
499.53	13.058
499.87	12.815
500.22	13.424
500.56	13.641
500.91	13.221
501.26	13.276
501.60	14.286
501.95	12.878
502.29	13.449
502.64	13.920
502.98	12.997
503.33	12.888
503.67	13.457
504.02	13.190
504.36	13.336
504.71	13.239
505.06	13.542
505.40	13.369
505.75	12.681
506.09	12.585
506.44	13.172
506.78	13.687
507.13	13.882
507.47	12.929
507.82	13.526
508.16	13.273
508.51	14.105
508.85	13.208
509.19	13.265
509.54	13.112
509.88	13.395
510.23	13.419
510.57	13.983
510.92	13.154
511.26	13.515
511.61	14.627
511.95	13.570
512.30	13.468
512.64	13.649
512.98	13.666
513.33	13.919
513.67	13.554
514.02	13.474
514.36	13.872
514.70	13.835
515.05	14.334
515.39	14.302
515.74	14.077
516.08	14.254
516.42	14.206
516.77	13.712
517.11	13.374
517.46	14.221
517.80	14.344
518.14	13.492
518.49	14.119
518.83	13.807
519.17	14.550
519.52	14.601
519.86	14.889
520.20	14.624
520.55	15.500
520.89	14.720
521.23	14.777
521.58	13.565
521.92	15.064
522.26	13.911
522.61	14.829
522.95	14.979
523.29	14.851
523.64	14.939
523.98	14.295
524.32	14.777
524.66	14.251
525.01	14.951
525.35	13.631
525.69	14.778
526.04	14.953
526.38	15.192
526.72	15.031
527.06	14.878
527.41	13.738
527.75	15.177
528.09	14.515
528.43	14.659
528.78	15.304
529.12	14.667
529.46	15.187
529.80	14.047
530.15	14.517
530.49	14.708
530.83	15.063
531.17	14.034
531.51	15.240
531.86	15.355
532.20	15.971
532.54	15.375
532.88	14.891
533.22	14.428
533.57	14.815
533.91	14.329
534.25	14.399
534.59	14.704
534.93	14.872
535.27	14.484
535.62	15.324
535.96	15.066
536.30	14.113
536.64	14.552
536.98	14.864
537.32	14.417
537.66	14.467
538.01	15.405
538.35	15.708
538.69	15.763
539.03	15.010
539.37	14.377
539.71	13.545
540.05	15.359
540.39	14.684
540.73	14.166
541.07	15.380
541.42	14.742
541.76	14.903
542.10	14.360
542.44	14.768
542.78	15.547
543.12	14.395
543.46	14.557
543.80	15.290
544.14	14.056
544.48	15.175
544.82	15.010
545.16	14.834
545.50	14.781
545.84	14.516
546.18	15.690
546.52	14.522
546.86	14.433
547.20	15.307
547.54	15.832
547.88	15.497
548.22	14.882
548.56	14.780
548.90	15.237
549.24	14.276
549.58	15.211
549.92	16.071
550.26	15.341
550.60	14.730
550.94	15.563
551.28	14.850
551.62	14.234
551.96	14.947
552.30	15.700
552.64	15.213
552.98	14.712
553.32	15.307
553.66	15.337
554.00	14.894
554.34	14.286
554.68	15.880
555.02	14.951
555.36	15.170
555.69	14.885
556.03	15.141
556.37	15.007
556.71	15.007
557.05	14.986
557.39	14.976
557.73	15.314
558.07	14.503
558.41	14.761
558.75	15.724
559.08	14.691
559.42	14.588
559.76	16.324
560.10	14.490
560.44	14.885
560.78	15.236
561.12	15.106
561.45	15.450
561.79	15.096
562.13	14.286
562.47	15.574
562.81	14.714
563.15	14.448
563.48	15.053
563.82	14.547
564.16	13.734
564.50	14.583
564.84	13.906
565.17	14.929
565.51	14.505
565.85	14.594
566.19	13.838
566.52	15.136
566.86	13.984
567.20	14.505
567.54	14.269
567.88	13.851
568.21	14.603
568.55	14.307
568.89	13.716
569.23	13.948
569.56	13.482
569.90	13.283
570.24	13.240
570.57	12.683
570.91	12.508
571.25	12.940
571.59	12.695
571.92	12.903
572.26	12.854
572.60	12.853
572.93	12.744
573.27	13.191
573.61	12.870
573.95	13.075
574.28	12.613
574.62	12.658
574.96	12.258
575.29	12.512
575.63	12.805
575.97	12.653
576.30	12.799
576.64	12.434
576.98	12.251
577.31	12.200
577.65	12.530
577.98	12.565
578.32	12.292
578.66	12.243
578.99	12.782
579.33	12.539
579.67	12.357
580.00	12.803
580.34	12.696
580.67	12.621
581.01	12.593
581.35	11.925
581.68	12.163
582.02	11.877
582.35	12.043
582.69	12.204
583.02	12.346
583.36	12.866
583.70	13.012
584.03	12.800
584.37	13.544
584.70	12.644
585.04	12.280
585.37	12.908
585.71	12.570
586.04	12.733
586.38	12.722
586.72	13.063
587.05	12.306
587.39	12.058
587.72	12.651
588.06	12.647
588.39	13.032
588.73	12.878
589.06	13.898
589.40	13.165
589.73	13.516
590.07	12.989
590.40	13.518
590.73	13.193
591.07	13.838
591.40	14.171
591.74	14.026
592.07	13.569
592.41	13.807
592.74	12.734
593.08	12.758
593.41	12.749
593.75	12.523
594.08	12.672
594.41	12.867
594.75	12.791
595.08	13.064
595.42	13.170
595.75	13.141
596.09	13.594
596.42	13.949
596.75	13.339
597.09	14.286
597.42	13.196
597.75	13.497
598.09	13.391
598.42	13.402
598.76	13.214
599.09	12.847
599.42	12.955
599.76	13.360
600.09	12.240
600.42	12.637
600.76	12.679
601.09	13.005
601.42	12.938
601.76	13.131
602.09	12.964
602.42	13.734
602.76	13.382
603.09	13.257
603.42	13.627
603.76	13.224
604.09	12.873
604.42	13.045
604.76	13.792
605.09	13.412
605.42	13.681
605.75	12.790
606.09	13.013
606.42	12.669
606.75	13.024
607.09	13.227
607.42	13.222
607.75	12.574
608.08	13.461
608.42	13.985
608.75	13.075
609.08	13.043
609.41	14.184
609.75	13.149
610.08	13.949
610.41	12.803
610.74	13.340
611.07	13.439
611.41	13.641
611.74	14.128
612.07	13.561
612.40	14.638
612.73	13.842
613.07	13.362
613.40	14.481
613.73	13.319
614.06	13.763
614.39	14.001
614.72	14.211
615.06	13.655
615.39	12.951
615.72	13.344
616.05	13.344
616.38	13.341
616.71	13.539
617.05	14.488
617.38	13.710
617.71	14.354
618.04	14.183
618.37	12.714
618.70	14.063
619.03	14.474
619.36	14.868
619.69	15.000
620.03	14.492
620.36	14.305
620.69	15.479
621.02	14.971
621.35	14.409
621.68	14.252
622.01	14.319
622.34	15.053
622.67	15.437
623.00	14.674
623.33	13.724
623.66	14.439
623.99	13.844
624.32	13.909
624.65	14.548
624.99	13.456
625.32	13.613
625.65	14.500
625.98	14.450
626.31	14.852
626.64	15.755
626.97	15.544
627.30	14.381
627.63	15.340
627.96	15.559
628.29	15.311
628.62	17.017
628.95	16.132
629.28	15.876
629.61	16.499
629.94	16.000
630.26	15.157
630.59	14.490
630.92	15.421
631.25	13.722
631.58	15.415
