SpectraSuite Data File
++++++++++++++++++++++++++++++++++++
Date: Wed May 13 16:02:06 PDT 2015
User: schluterlab
Dark Spectrum Present: Yes
Reference Spectrum Present: Yes
Number of Sampled Component Spectra: 1
Spectrometers: USB2E3373
Integration Time (usec): 3000 (USB2E3373)
Spectra Averaged: 3 (USB2E3373)
Boxcar Smoothing: 0 (USB2E3373)
Correct for Electrical Dark: No (USB2E3373)
Strobe/Lamp Enabled: No (USB2E3373)
Correct for Detector Non-linearity: No (USB2E3373)
Correct for Stray Light: No (USB2E3373)
Number of Pixels in Processed Spectrum: 2048
>>>>>Begin Processed Spectral Data<<<<<
178.53	0.000
178.91	-500.000
179.29	-500.000
179.67	-55.556
180.04	-675.000
180.42	750.000
180.80	320.000
181.18	-225.000
181.56	342.857
181.94	0.000
182.31	-328.571
182.69	466.667
183.07	-125.000
183.45	-122.222
183.83	154.545
184.20	-160.000
184.58	500.000
184.96	2300.000
185.34	-260.000
185.72	-150.000
186.09	-700.000
186.47	950.000
186.85	650.000
187.23	1600.000
187.61	-733.333
187.98	400.000
188.36	327.273
188.74	272.727
189.12	-320.000
189.49	230.000
189.87	-1000.000
190.25	-475.000
190.63	142.857
191.00	253.846
191.38	300.000
191.76	-475.000
192.14	675.000
192.51	300.000
192.89	300.000
193.27	137.500
193.65	-225.000
194.02	160.000
194.40	60.000
194.78	180.000
195.15	208.333
195.53	380.000
195.91	-400.000
196.29	175.000
196.66	168.421
197.04	-30.000
197.42	0.000
197.79	260.000
198.17	-1400.000
198.55	300.000
198.92	362.500
199.30	260.000
199.68	0.000
200.05	127.778
200.43	200.000
200.81	1500.000
201.18	566.667
201.56	-600.000
201.94	211.111
202.31	222.222
202.69	116.667
203.07	220.000
203.44	0.000
203.82	575.000
204.19	300.000
204.57	214.286
204.95	225.000
205.32	233.333
205.70	245.455
206.08	157.143
206.45	1050.000
206.83	181.250
207.20	466.667
207.58	340.000
207.96	172.222
208.33	375.000
208.71	-333.333
209.08	371.429
209.46	111.111
209.84	245.455
210.21	-200.000
210.59	425.000
210.96	-75.000
211.34	1150.000
211.71	260.000
212.09	216.667
212.46	0.000
212.84	733.333
213.22	600.000
213.59	-1100.000
213.97	400.000
214.34	357.143
214.72	300.000
215.09	300.000
215.47	-600.000
215.84	-500.000
216.22	566.667
216.59	157.143
216.97	725.000
217.34	200.000
217.72	-50.000
218.09	0.000
218.47	-1300.000
218.84	366.667
219.22	285.714
219.59	600.000
219.97	-200.000
220.34	340.000
220.72	-566.667
221.09	150.000
221.47	500.000
221.84	-316.667
222.22	0.000
222.59	425.000
222.97	-1100.000
223.34	340.000
223.72	115.385
224.09	520.000
224.46	500.000
224.84	-1600.000
225.21	-380.000
225.59	-2300.000
225.96	300.000
226.34	135.000
226.71	1050.000
227.08	225.000
227.46	200.000
227.83	-175.000
228.21	-900.000
228.58	233.333
228.95	-1100.000
229.33	-500.000
229.70	666.667
230.08	342.857
230.45	-20.000
230.82	191.667
231.20	450.000
231.57	185.714
231.95	158.333
232.32	113.636
232.69	127.273
233.07	114.286
233.44	138.462
233.81	-666.667
234.19	173.684
234.56	141.667
234.93	25.000
235.31	127.273
235.68	100.000
236.05	164.286
236.43	90.909
236.80	105.263
237.17	1600.000
237.55	66.667
237.92	128.571
238.29	104.762
238.67	80.645
239.04	106.897
239.41	69.444
239.79	58.696
240.16	61.905
240.53	65.909
240.91	37.255
241.28	64.000
241.65	56.000
242.02	62.319
242.40	58.065
242.77	50.000
243.14	52.688
243.51	55.056
243.89	38.824
244.26	27.778
244.63	36.559
245.00	34.043
245.38	37.624
245.75	29.907
246.12	42.202
246.49	43.796
246.87	43.200
247.24	33.846
247.61	39.286
247.98	37.255
248.36	26.351
248.73	28.662
249.10	34.395
249.47	33.333
249.84	31.551
250.22	34.225
250.59	28.994
250.96	35.354
251.33	34.123
251.70	31.683
252.08	30.952
252.45	25.561
252.82	29.130
253.19	28.936
253.56	24.706
253.94	31.950
254.31	29.297
254.68	25.769
255.05	25.830
255.42	30.081
255.79	30.147
256.16	25.632
256.54	25.442
256.91	29.893
257.28	26.259
257.65	30.033
258.02	24.224
258.39	27.445
258.76	29.097
259.14	28.274
259.51	23.100
259.88	23.602
260.25	26.586
260.62	26.012
260.99	24.224
261.36	27.027
261.73	25.501
262.10	24.419
262.47	25.915
262.85	26.184
263.22	25.641
263.59	27.635
263.96	24.176
264.33	25.587
264.70	26.053
265.07	26.854
265.44	25.000
265.81	25.061
266.18	25.377
266.55	24.390
266.92	23.587
267.29	25.463
267.66	23.394
268.03	27.045
268.40	24.766
268.77	22.673
269.14	24.550
269.51	26.637
269.88	24.942
270.25	23.928
270.62	24.045
270.99	24.731
271.36	25.322
271.73	23.598
272.10	23.913
272.47	23.226
272.84	25.974
273.21	25.577
273.58	22.052
273.95	23.061
274.32	22.727
274.69	23.340
275.06	22.835
275.43	23.830
275.80	23.246
276.17	23.422
276.54	24.948
276.91	22.332
277.28	22.656
277.65	24.758
278.02	23.395
278.39	23.438
278.76	24.364
279.13	22.642
279.50	21.974
279.87	24.104
280.23	24.750
280.60	22.050
280.97	24.584
281.34	24.425
281.71	21.818
282.08	22.265
282.45	22.182
282.82	23.623
283.19	23.351
283.56	22.105
283.92	24.027
284.29	20.635
284.66	19.601
285.03	21.881
285.40	20.423
285.77	21.717
286.14	21.244
286.51	23.667
286.87	21.880
287.24	23.453
287.61	22.151
287.98	20.779
288.35	21.236
288.72	22.430
289.08	21.753
289.45	19.605
289.82	19.187
290.19	17.582
290.56	20.521
290.93	18.882
291.29	19.632
291.66	19.617
292.03	22.820
292.40	20.852
292.77	18.491
293.13	19.701
293.50	19.096
293.87	20.296
294.24	17.926
294.60	18.049
294.97	19.041
295.34	19.182
295.71	18.324
296.08	18.661
296.44	19.120
296.81	18.098
297.18	18.835
297.55	16.623
297.91	17.942
298.28	18.876
298.65	18.538
299.02	17.787
299.38	18.459
299.75	15.903
300.12	17.241
300.48	17.250
300.85	15.783
301.22	16.815
301.59	16.793
301.95	16.247
302.32	17.073
302.69	16.726
303.05	16.000
303.42	16.296
303.79	15.968
304.15	16.317
304.52	16.222
304.89	15.679
305.25	16.589
305.62	15.742
305.99	16.883
306.35	15.660
306.72	15.919
307.09	15.982
307.45	17.005
307.82	15.848
308.19	17.108
308.55	17.044
308.92	15.897
309.29	15.628
309.65	15.164
310.02	16.490
310.38	16.237
310.75	17.423
311.12	15.558
311.48	16.092
311.85	17.086
312.22	17.586
312.58	16.944
312.95	16.895
313.31	15.146
313.68	17.879
314.05	18.245
314.41	16.683
314.78	16.213
315.14	16.683
315.51	18.126
315.87	17.624
316.24	18.371
316.61	17.251
316.97	15.753
317.34	17.025
317.70	17.495
318.07	17.324
318.43	18.297
318.80	18.088
319.16	19.115
319.53	17.355
319.89	19.238
320.26	19.300
320.62	18.948
320.99	19.495
321.35	18.889
321.72	18.891
322.08	19.941
322.45	20.199
322.81	20.155
323.18	21.773
323.54	20.686
323.91	20.000
324.27	21.128
324.64	21.342
325.00	20.559
325.37	21.565
325.73	22.172
326.10	22.242
326.46	21.685
326.83	22.088
327.19	21.520
327.56	22.125
327.92	23.185
328.29	23.514
328.65	23.204
329.01	22.834
329.38	24.144
329.74	24.469
330.11	23.186
330.47	23.232
330.84	25.551
331.20	23.224
331.56	23.670
331.93	22.778
332.29	24.224
332.66	24.513
333.02	24.223
333.38	24.119
333.75	24.599
334.11	24.377
334.48	24.312
334.84	25.368
335.20	24.364
335.57	24.569
335.93	24.375
336.29	24.634
336.66	24.527
337.02	24.072
337.38	24.259
337.75	23.529
338.11	23.903
338.47	24.033
338.84	24.381
339.20	22.844
339.56	23.905
339.93	24.000
340.29	23.460
340.65	23.797
341.02	23.822
341.38	25.000
341.74	23.947
342.11	23.843
342.47	24.229
342.83	24.058
343.20	23.896
343.56	24.179
343.92	24.912
344.28	25.000
344.65	24.162
345.01	23.401
345.37	22.556
345.73	24.450
346.10	24.126
346.46	23.644
346.82	23.970
347.19	23.058
347.55	23.727
347.91	24.757
348.27	24.733
348.63	24.666
349.00	24.676
349.36	24.220
349.72	24.619
350.08	24.149
350.45	25.142
350.81	24.289
351.17	24.554
351.53	24.898
351.89	23.432
352.26	25.651
352.62	24.860
352.98	24.797
353.34	24.240
353.70	23.404
354.07	24.194
354.43	24.444
354.79	23.652
355.15	24.342
355.51	25.020
355.87	24.408
356.24	24.430
356.60	23.817
356.96	24.055
357.32	24.857
357.68	24.173
358.04	25.337
358.40	24.545
358.77	24.178
359.13	23.915
359.49	24.392
359.85	23.889
360.21	24.641
360.57	25.525
360.93	24.923
361.29	23.356
361.66	24.458
362.02	25.075
362.38	24.487
362.74	25.372
363.10	24.130
363.46	25.459
363.82	24.641
364.18	26.065
364.54	26.300
364.90	25.142
365.26	24.853
365.62	26.370
365.98	25.201
366.35	24.642
366.71	25.380
367.07	26.147
367.43	26.052
367.79	25.981
368.15	26.868
368.51	25.799
368.87	26.481
369.23	25.823
369.59	25.996
369.95	25.368
370.31	26.923
370.67	26.304
371.03	27.116
371.39	26.312
371.75	26.544
372.11	26.387
372.47	28.152
372.83	27.089
373.19	25.723
373.55	27.864
373.91	27.541
374.27	27.491
374.63	26.909
374.99	27.542
375.35	26.797
375.71	27.485
376.07	28.464
376.42	28.955
376.78	29.026
377.14	28.697
377.50	29.007
377.86	27.128
378.22	29.014
378.58	28.571
378.94	28.975
379.30	27.990
379.66	28.236
380.02	29.484
380.38	28.901
380.74	29.952
381.09	30.012
381.45	30.178
381.81	30.897
382.17	29.554
382.53	29.748
382.89	29.815
383.25	29.706
383.61	30.855
383.97	31.207
384.32	30.755
384.68	29.616
385.04	30.977
385.40	30.712
385.76	31.818
386.12	30.699
386.48	31.592
386.83	32.200
387.19	32.777
387.55	33.086
387.91	31.681
388.27	31.208
388.62	32.022
388.98	32.125
389.34	32.916
389.70	32.373
390.06	33.270
390.42	32.101
390.77	32.634
391.13	33.121
391.49	33.312
391.85	32.845
392.20	31.861
392.56	33.144
392.92	33.373
393.28	32.189
393.64	33.273
393.99	32.926
394.35	33.251
394.71	34.003
395.07	32.150
395.42	33.684
395.78	32.952
396.14	32.713
396.50	33.208
396.85	33.694
397.21	32.676
397.57	32.610
397.92	33.714
398.28	33.632
398.64	32.676
399.00	32.177
399.35	32.826
399.71	33.449
400.07	34.004
400.42	34.785
400.78	33.353
401.14	33.293
401.49	34.448
401.85	33.212
402.21	33.353
402.57	32.511
402.92	33.480
403.28	34.291
403.63	33.849
403.99	33.694
404.35	33.879
404.70	32.014
405.06	33.197
405.42	33.812
405.77	32.743
406.13	33.409
406.49	33.885
406.84	33.077
407.20	32.861
407.55	33.504
407.91	34.267
408.27	32.738
408.62	33.173
408.98	32.721
409.34	34.010
409.69	32.774
410.05	33.271
410.40	33.456
410.76	33.931
411.11	33.172
411.47	32.204
411.83	32.804
412.18	32.591
412.54	33.375
412.89	33.434
413.25	33.707
413.60	33.045
413.96	32.787
414.31	32.989
414.67	34.094
415.03	32.980
415.38	34.149
415.74	33.762
416.09	33.769
416.45	32.798
416.80	34.104
417.16	33.512
417.51	34.439
417.87	33.333
418.22	32.934
418.58	33.570
418.93	33.722
419.29	34.055
419.64	33.060
420.00	32.927
420.35	33.101
420.71	34.489
421.06	32.757
421.42	33.041
421.77	34.529
422.12	33.015
422.48	32.974
422.83	33.722
423.19	33.481
423.54	34.243
423.90	33.855
424.25	33.613
424.61	33.750
424.96	33.120
425.31	33.998
425.67	32.809
426.02	33.086
426.38	34.799
426.73	34.055
427.09	34.529
427.44	33.295
427.79	34.388
428.15	33.988
428.50	33.645
428.85	34.923
429.21	32.965
429.56	34.837
429.92	33.417
430.27	34.459
430.62	33.333
430.98	34.094
431.33	34.072
431.68	34.241
432.04	33.759
432.39	35.123
432.74	34.650
433.10	35.031
433.45	35.335
433.80	35.255
434.16	34.348
434.51	34.053
434.86	34.607
435.22	35.798
435.57	35.015
435.92	35.810
436.28	35.528
436.63	35.210
436.98	35.146
437.34	36.971
437.69	35.823
438.04	35.807
438.39	35.343
438.75	36.084
439.10	35.922
439.45	37.013
439.81	36.133
440.16	35.799
440.51	35.442
440.86	36.074
441.22	35.539
441.57	36.783
441.92	36.643
442.27	35.576
442.63	35.703
442.98	37.014
443.33	36.467
443.68	37.274
444.03	37.482
444.39	36.125
444.74	37.446
445.09	36.173
445.44	36.304
445.79	37.853
446.15	37.533
446.50	35.864
446.85	35.714
447.20	36.716
447.55	37.688
447.91	37.231
448.26	36.950
448.61	36.800
448.96	36.822
449.31	36.839
449.66	36.579
450.02	36.156
450.37	37.415
450.72	38.071
451.07	37.477
451.42	36.717
451.77	38.344
452.12	36.374
452.47	37.376
452.83	38.054
453.18	35.941
453.53	37.600
453.88	37.035
454.23	37.717
454.58	37.614
454.93	38.907
455.28	36.970
455.63	37.985
455.98	37.917
456.34	38.317
456.69	38.572
457.04	38.947
457.39	37.756
457.74	36.854
458.09	38.010
458.44	37.742
458.79	37.148
459.14	38.262
459.49	38.879
459.84	37.285
460.19	38.480
460.54	36.748
460.89	37.301
461.24	37.523
461.59	38.582
461.94	37.978
462.29	38.813
462.64	37.269
462.99	38.061
463.34	37.933
463.69	38.274
464.04	38.957
464.39	37.565
464.74	37.968
465.09	38.239
465.44	37.230
465.79	38.311
466.14	37.329
466.49	38.821
466.84	38.354
467.19	38.745
467.54	39.188
467.89	37.755
468.24	37.755
468.59	38.645
468.94	38.974
469.29	39.974
469.64	39.759
469.99	39.445
470.34	39.300
470.68	39.440
471.03	38.844
471.38	39.541
471.73	38.907
472.08	40.132
472.43	40.075
472.78	38.776
473.13	39.345
473.48	39.763
473.83	40.671
474.17	39.577
474.52	39.950
474.87	39.521
475.22	39.640
475.57	39.334
475.92	38.449
476.27	40.079
476.61	40.099
476.96	39.252
477.31	39.351
477.66	39.880
478.01	39.153
478.36	40.349
478.70	39.616
479.05	39.191
479.40	40.328
479.75	39.146
480.10	39.563
480.45	39.124
480.79	39.130
481.14	39.873
481.49	39.630
481.84	39.598
482.19	39.573
482.53	38.853
482.88	39.693
483.23	40.234
483.58	39.126
483.92	39.550
484.27	38.214
484.62	39.009
484.97	38.983
485.31	39.452
485.66	38.127
486.01	36.201
486.36	36.094
486.70	35.102
487.05	36.107
487.40	36.925
487.75	37.377
488.09	38.095
488.44	37.525
488.79	39.602
489.13	39.343
489.48	39.641
489.83	39.102
490.17	40.421
490.52	39.637
490.87	40.299
491.22	39.518
491.56	38.861
491.91	39.367
492.26	38.769
492.60	39.724
492.95	38.400
493.30	38.785
493.64	39.991
493.99	38.997
494.34	39.963
494.68	39.835
495.03	39.850
495.37	38.157
495.72	39.815
496.07	40.650
496.41	38.717
496.76	39.050
497.11	39.577
497.45	39.590
497.80	40.019
498.14	41.111
498.49	40.634
498.84	40.077
499.18	41.143
499.53	40.313
499.87	40.447
500.22	40.603
500.56	41.165
500.91	39.519
501.26	39.972
501.60	41.528
501.95	40.559
502.29	41.331
502.64	41.899
502.98	40.393
503.33	40.539
503.67	41.299
504.02	41.207
504.36	41.039
504.71	41.817
505.06	40.337
505.40	41.906
505.75	40.646
506.09	41.302
506.44	41.095
506.78	41.987
507.13	42.706
507.47	42.727
507.82	42.705
508.16	42.452
508.51	43.582
508.85	42.949
509.19	42.908
509.54	43.163
509.88	42.813
510.23	43.548
510.57	44.272
510.92	44.019
511.26	44.142
511.61	44.502
511.95	43.685
512.30	43.160
512.64	44.116
512.98	44.641
513.33	44.004
513.67	43.970
514.02	44.210
514.36	45.658
514.70	45.434
515.05	44.953
515.39	45.709
515.74	45.270
516.08	45.668
516.42	44.950
516.77	46.823
517.11	45.616
517.46	46.332
517.80	46.167
518.14	45.744
518.49	47.491
518.83	46.477
519.17	47.171
519.52	46.746
519.86	46.435
520.20	47.977
520.55	47.098
520.89	47.689
521.23	48.010
521.58	47.539
521.92	48.377
522.26	47.895
522.61	48.847
522.95	47.882
523.29	47.839
523.64	49.817
523.98	49.538
524.32	48.854
524.66	47.685
525.01	48.775
525.35	48.389
525.69	48.399
526.04	48.474
526.38	48.139
526.72	49.571
527.06	50.596
527.41	48.700
527.75	49.775
528.09	49.647
528.43	50.860
528.78	49.600
529.12	49.576
529.46	48.806
529.80	49.196
530.15	50.717
530.49	48.369
530.83	49.114
531.17	51.110
531.51	49.546
531.86	49.484
532.20	50.130
532.54	50.352
532.88	50.449
533.22	48.907
533.57	48.642
533.91	48.826
534.25	49.453
534.59	49.298
534.93	47.769
535.27	49.487
535.62	49.878
535.96	50.534
536.30	49.650
536.64	50.225
536.98	50.962
537.32	49.506
537.66	50.600
538.01	50.165
538.35	50.614
538.69	50.798
539.03	49.188
539.37	48.435
539.71	49.060
540.05	49.804
540.39	50.033
540.73	48.771
541.07	50.162
541.42	49.967
541.76	49.226
542.10	49.159
542.44	49.139
542.78	50.791
543.12	48.944
543.46	47.934
543.80	50.683
544.14	49.487
544.48	50.095
544.82	49.326
545.16	49.447
545.50	49.293
545.84	49.261
546.18	49.966
546.52	51.067
546.86	51.959
547.20	52.326
547.54	49.967
547.88	49.872
548.22	48.692
548.56	48.553
548.90	47.375
549.24	50.438
549.58	50.477
549.92	50.687
550.26	50.852
550.60	50.968
550.94	50.211
551.28	49.817
551.62	50.180
551.96	50.386
552.30	50.444
552.64	49.899
552.98	50.847
553.32	49.697
553.66	51.806
554.00	50.652
554.34	50.311
554.68	51.288
555.02	50.212
555.36	50.452
555.69	48.850
556.03	48.587
556.37	50.341
556.71	50.000
557.05	50.070
557.39	48.495
557.73	50.388
558.07	51.414
558.41	50.941
558.75	51.286
559.08	51.752
559.42	50.567
559.76	50.221
560.10	50.607
560.44	49.616
560.78	49.301
561.12	50.264
561.45	49.478
561.79	49.637
562.13	50.101
562.47	49.658
562.81	50.000
563.15	49.967
563.48	50.663
563.82	49.185
564.16	50.164
564.50	49.154
564.84	48.483
565.17	49.485
565.51	48.882
565.85	48.794
566.19	49.530
566.52	49.525
566.86	47.981
567.20	49.823
567.54	48.402
567.88	48.017
568.21	47.884
568.55	46.562
568.89	46.887
569.23	45.499
569.56	44.737
569.90	45.774
570.24	45.318
570.57	44.135
570.91	43.310
571.25	43.823
571.59	43.240
571.92	43.347
572.26	43.732
572.60	44.084
572.93	44.078
573.27	43.863
573.61	43.914
573.95	43.463
574.28	42.462
574.62	42.541
574.96	42.294
575.29	42.265
575.63	42.607
575.97	43.062
576.30	43.202
576.64	43.265
576.98	42.465
577.31	42.445
577.65	42.476
577.98	42.320
578.32	40.846
578.66	41.572
578.99	42.296
579.33	42.314
579.67	42.398
580.00	42.268
580.34	43.189
580.67	42.378
581.01	42.433
581.35	42.319
581.68	41.938
582.02	41.420
582.35	41.718
582.69	41.652
583.02	41.682
583.36	42.910
583.70	43.806
584.03	42.712
584.37	44.269
584.70	43.626
585.04	42.588
585.37	43.080
585.71	42.834
586.04	42.667
586.38	43.521
586.72	43.634
587.05	42.760
587.39	42.876
587.72	43.314
588.06	42.983
588.39	43.182
588.73	43.297
589.06	44.344
589.40	44.411
589.73	44.315
590.07	44.662
590.40	44.538
590.73	45.394
591.07	46.317
591.40	45.255
591.74	45.671
592.07	45.812
592.41	44.812
592.74	43.895
593.08	44.337
593.41	44.575
593.75	43.192
594.08	43.312
594.41	43.796
594.75	44.843
595.08	44.560
595.42	44.343
595.75	44.516
596.09	44.536
596.42	44.951
596.75	45.378
597.09	46.320
597.42	44.815
597.75	45.149
598.09	45.696
598.42	43.900
598.76	45.278
599.09	44.204
599.42	43.814
599.76	44.180
600.09	44.044
600.42	42.841
600.76	43.500
601.09	43.825
601.42	44.102
601.76	43.112
602.09	44.941
602.42	44.626
602.76	44.901
603.09	45.437
603.42	44.709
603.76	44.055
604.09	45.134
604.42	44.721
604.76	45.086
605.09	45.478
605.42	45.447
605.75	45.447
606.09	44.205
606.42	44.585
606.75	43.882
607.09	44.077
607.42	44.801
607.75	44.262
608.08	44.333
608.42	45.271
608.75	45.491
609.08	43.710
609.41	45.074
609.75	45.307
610.08	45.664
610.41	45.577
610.74	46.074
611.07	46.591
611.41	45.682
611.74	46.506
612.07	46.739
612.40	46.747
612.73	46.789
613.07	46.390
613.40	46.972
613.73	46.041
614.06	45.591
614.39	44.625
614.72	45.789
615.06	45.431
615.39	45.382
615.72	44.530
616.05	45.508
616.38	46.748
616.71	48.219
617.05	47.055
617.38	47.023
617.71	47.207
618.04	48.077
618.37	47.132
618.70	47.480
619.03	48.026
619.36	47.318
619.69	48.239
620.03	48.970
620.36	48.329
620.69	48.904
621.02	49.115
621.35	48.865
621.68	48.131
622.01	49.071
622.34	48.865
622.67	49.278
623.00	48.276
623.33	46.462
623.66	48.535
623.99	47.202
624.32	47.718
624.65	47.034
624.99	48.442
625.32	49.312
625.65	49.361
625.98	49.731
626.31	49.378
626.64	50.531
626.97	49.626
627.30	50.042
627.63	51.272
627.96	51.808
628.29	49.606
628.62	51.510
628.95	51.698
629.28	51.004
629.61	51.329
629.94	51.905
630.26	51.096
630.59	52.240
630.92	51.245
631.25	51.333
631.58	50.751
631.91	51.217
632.24	49.156
