SpectraSuite Data File
++++++++++++++++++++++++++++++++++++
Date: Wed May 13 16:25:10 PDT 2015
User: schluterlab
Dark Spectrum Present: Yes
Reference Spectrum Present: Yes
Number of Sampled Component Spectra: 1
Spectrometers: USB2E3373
Integration Time (usec): 3000 (USB2E3373)
Spectra Averaged: 3 (USB2E3373)
Boxcar Smoothing: 0 (USB2E3373)
Correct for Electrical Dark: No (USB2E3373)
Strobe/Lamp Enabled: No (USB2E3373)
Correct for Detector Non-linearity: No (USB2E3373)
Correct for Stray Light: No (USB2E3373)
Number of Pixels in Processed Spectrum: 2048
>>>>>Begin Processed Spectral Data<<<<<
178.53	0.000
178.91	-1250.000
179.29	-1250.000
179.67	-238.889
180.04	-1150.000
180.42	2450.000
180.80	1000.000
181.18	-1100.000
181.56	671.429
181.94	0.000
182.31	-685.714
182.69	1633.333
183.07	-587.500
183.45	-455.556
183.83	490.909
184.20	-400.000
184.58	2250.000
184.96	4800.000
185.34	-760.000
185.72	-550.000
186.09	-2450.000
186.47	2700.000
186.85	2450.000
187.23	4700.000
187.61	-1566.667
187.98	1250.000
188.36	545.455
188.74	545.455
189.12	-800.000
189.49	560.000
189.87	-4700.000
190.25	-1000.000
190.63	442.857
191.00	415.385
191.38	900.000
191.76	-1000.000
192.14	1425.000
192.51	612.500
192.89	850.000
193.27	575.000
193.65	-1150.000
194.02	480.000
194.40	780.000
194.78	500.000
195.15	450.000
195.53	630.000
195.91	-1950.000
196.29	356.250
196.66	278.947
197.04	-410.000
197.42	0.000
197.79	620.000
198.17	-5000.000
198.55	571.429
198.92	600.000
199.30	960.000
199.68	0.000
200.05	272.222
200.43	814.286
200.81	4300.000
201.18	1866.667
201.56	-1766.667
201.94	588.889
202.31	644.444
202.69	466.667
203.07	510.000
203.44	0.000
203.82	1025.000
204.19	800.000
204.57	421.429
204.95	662.500
205.32	1566.667
205.70	500.000
206.08	385.714
206.45	2200.000
206.83	337.500
207.20	933.333
207.58	740.000
207.96	261.111
208.33	612.500
208.71	-733.333
209.08	785.714
209.46	644.444
209.84	454.545
210.21	-1500.000
210.59	1400.000
210.96	-512.500
211.34	2600.000
211.71	590.000
212.09	800.000
212.46	0.000
212.84	1466.667
213.22	1275.000
213.59	-4500.000
213.97	916.667
214.34	757.143
214.72	554.545
215.09	1060.000
215.47	-2250.000
215.84	-2800.000
216.22	1600.000
216.59	385.714
216.97	1175.000
217.34	518.182
217.72	-633.333
218.09	0.000
218.47	-3200.000
218.84	666.667
219.22	742.857
219.59	1666.667
219.97	-657.143
220.34	880.000
220.72	-1800.000
221.09	414.286
221.47	1600.000
221.84	-866.667
222.22	0.000
222.59	1400.000
222.97	-2550.000
223.34	1180.000
223.72	430.769
224.09	1080.000
224.46	2100.000
224.84	-5900.000
225.21	-960.000
225.59	-4500.000
225.96	600.000
226.34	325.000
226.71	2600.000
227.08	562.500
227.46	500.000
227.83	-900.000
228.21	-2050.000
228.58	622.222
228.95	-2250.000
229.33	-1700.000
229.70	1766.667
230.08	785.714
230.45	-760.000
230.82	400.000
231.20	800.000
231.57	671.429
231.95	425.000
232.32	259.091
232.69	427.273
233.07	700.000
233.44	346.154
233.81	-1566.667
234.19	247.368
234.56	441.667
234.93	383.333
235.31	518.182
235.68	307.692
236.05	335.714
236.43	142.424
236.80	236.842
237.17	4500.000
237.55	247.619
237.92	189.286
238.29	190.476
238.67	151.613
239.04	186.207
239.41	127.778
239.79	102.174
240.16	116.667
240.53	113.636
240.91	90.196
241.28	114.000
241.65	102.000
242.02	78.261
242.40	74.194
242.77	80.000
243.14	60.215
243.51	73.034
243.89	67.059
244.26	57.778
244.63	60.215
245.00	62.766
245.38	57.426
245.75	54.206
246.12	49.541
246.49	60.584
246.87	54.400
247.24	43.846
247.61	40.000
247.98	41.176
248.36	29.054
248.73	40.127
249.10	44.586
249.47	32.203
249.84	36.898
250.22	38.503
250.59	34.911
250.96	33.333
251.33	33.649
251.70	32.673
252.08	29.048
252.45	28.251
252.82	25.652
253.19	31.489
253.56	30.196
253.94	28.631
254.31	26.172
254.68	27.308
255.05	30.258
255.42	25.610
255.79	23.897
256.16	29.242
256.54	21.555
256.91	28.470
257.28	19.784
257.65	23.762
258.02	23.292
258.39	24.290
258.76	22.408
259.14	23.810
259.51	23.708
259.88	22.360
260.25	21.752
260.62	22.832
260.99	22.360
261.36	20.120
261.73	22.636
262.10	18.314
262.47	22.254
262.85	20.613
263.22	19.658
263.59	23.647
263.96	20.604
264.33	21.149
264.70	20.789
265.07	20.460
265.44	18.434
265.81	18.978
266.18	18.844
266.55	17.805
266.92	20.885
267.29	18.981
267.66	17.202
268.03	21.364
268.40	19.860
268.77	18.138
269.14	16.892
269.51	20.316
269.88	18.648
270.25	17.156
270.62	18.652
270.99	19.140
271.36	19.528
271.73	19.626
272.10	17.391
272.47	19.570
272.84	19.481
273.21	22.013
273.58	15.502
273.95	16.143
274.32	15.496
274.69	17.131
275.06	17.126
275.43	18.298
275.80	17.836
276.17	18.534
276.54	18.503
276.91	18.182
277.28	16.406
277.65	16.441
278.02	16.770
278.39	20.312
278.76	16.364
279.13	17.170
279.50	16.387
279.87	15.936
280.23	14.970
280.60	16.441
280.97	15.157
281.34	15.398
281.71	16.545
282.08	18.234
282.45	15.818
282.82	15.631
283.19	13.012
283.56	16.316
283.92	16.074
284.29	15.344
284.66	15.426
285.03	15.371
285.40	15.669
285.77	14.141
286.14	16.408
286.51	15.500
286.87	15.043
287.24	15.472
287.61	14.928
287.98	13.474
288.35	14.739
288.72	13.863
289.08	14.397
289.45	14.333
289.82	13.659
290.19	13.658
290.56	14.395
290.93	12.991
291.29	14.877
291.66	14.012
292.03	14.390
292.40	14.097
292.77	13.018
293.13	12.836
293.50	13.994
293.87	13.333
294.24	13.778
294.60	11.936
294.97	12.791
295.34	12.412
295.71	14.347
296.08	12.678
296.44	12.517
296.81	12.946
297.18	13.550
297.55	10.026
297.91	11.609
298.28	13.655
298.65	12.402
299.02	13.307
299.38	12.085
299.75	10.108
300.12	11.239
300.48	12.500
300.85	11.591
301.22	10.573
301.59	11.869
301.95	13.224
302.32	12.709
302.69	10.275
303.05	12.727
303.42	12.222
303.79	11.552
304.15	9.907
304.52	10.081
304.89	11.034
305.25	10.673
305.62	12.458
305.99	12.515
306.35	9.508
306.72	11.211
307.09	12.320
307.45	12.725
307.82	9.710
308.19	10.817
308.55	12.729
308.92	11.708
309.29	10.665
309.65	10.604
310.02	10.571
310.38	11.398
310.75	10.665
311.12	12.897
311.48	12.226
311.85	12.474
312.22	10.406
312.58	12.058
312.95	11.404
313.31	10.874
313.68	11.850
314.05	14.793
314.41	13.568
314.78	13.192
315.14	12.115
315.51	13.491
315.87	14.356
316.24	12.711
316.61	13.158
316.97	13.405
317.34	12.329
317.70	14.436
318.07	13.763
318.43	14.579
318.80	15.745
319.16	14.878
319.53	14.822
319.89	16.667
320.26	16.000
320.62	15.278
320.99	17.778
321.35	17.172
321.72	18.172
322.08	18.164
322.45	20.199
322.81	19.767
323.18	20.713
323.54	19.944
323.91	21.038
324.27	22.084
324.64	20.876
325.00	22.092
325.37	22.839
325.73	26.122
326.10	25.243
326.46	25.090
326.83	26.143
327.19	27.327
327.56	27.352
327.92	28.171
328.29	29.104
328.65	29.190
329.01	30.505
329.38	31.175
329.74	31.302
330.11	30.914
330.47	31.497
330.84	33.180
331.20	31.512
331.56	32.569
331.93	32.870
332.29	32.564
332.66	33.628
333.02	33.638
333.38	34.056
333.75	33.512
334.11	34.075
334.48	34.960
334.84	34.007
335.20	35.545
335.57	35.993
335.93	33.036
336.29	34.799
336.66	35.437
337.02	34.027
337.38	34.815
337.75	35.116
338.11	34.825
338.47	36.096
338.84	35.655
339.20	35.688
339.56	36.405
339.93	35.455
340.29	35.779
340.65	36.364
341.02	35.777
341.38	36.210
341.74	36.228
342.11	37.205
342.47	36.828
342.83	35.788
343.20	37.403
343.56	35.552
343.92	36.404
344.28	36.820
344.65	36.457
345.01	35.438
345.37	35.506
345.73	35.871
346.10	35.294
346.46	36.441
346.82	35.173
347.19	36.341
347.55	35.222
347.91	36.893
348.27	35.168
348.63	36.204
349.00	36.003
349.36	35.961
349.72	36.247
350.08	35.089
350.45	37.754
350.81	35.743
351.17	36.872
351.53	35.545
351.89	35.396
352.26	36.859
352.62	37.049
352.98	37.520
353.34	36.401
353.70	36.825
354.07	36.371
354.43	34.921
354.79	35.961
355.15	36.472
355.51	37.010
355.87	36.163
356.24	36.482
356.60	34.964
356.96	36.605
357.32	37.122
357.68	36.850
358.04	37.292
358.40	36.580
358.77	36.228
359.13	35.201
359.49	36.627
359.85	35.952
360.21	37.640
360.57	37.821
360.93	37.923
361.29	36.961
361.66	36.068
362.02	37.463
362.38	37.719
362.74	36.235
363.10	36.195
363.46	36.464
363.82	36.206
364.18	37.665
364.54	37.073
364.90	37.110
365.26	37.574
365.62	37.619
365.98	37.400
366.35	36.246
366.71	37.310
367.07	37.363
367.43	37.663
367.79	38.473
368.15	38.506
368.51	37.645
368.87	37.901
369.23	38.771
369.59	39.102
369.95	38.382
370.31	38.248
370.67	37.899
371.03	38.876
371.39	38.630
371.75	38.750
372.11	38.407
372.47	40.029
372.83	40.346
373.19	39.162
373.55	40.059
373.91	40.280
374.27	38.832
374.63	39.273
374.99	40.325
375.35	40.754
375.71	39.685
376.07	39.986
376.42	40.440
376.78	39.828
377.14	40.299
377.50	41.060
377.86	39.960
378.22	40.518
378.58	41.103
378.94	42.175
379.30	41.094
379.66	41.815
380.02	41.953
380.38	40.073
380.74	41.837
381.09	40.831
381.45	42.717
381.81	41.769
382.17	42.166
382.53	41.509
382.89	43.580
383.25	41.776
383.61	42.565
383.97	41.401
384.32	42.358
384.68	41.326
385.04	41.979
385.40	41.672
385.76	42.199
386.12	42.358
386.48	43.801
386.83	44.003
387.19	43.723
387.55	42.486
387.91	42.443
388.27	42.305
388.62	43.208
388.98	42.260
389.34	42.365
389.70	42.367
390.06	43.790
390.42	43.969
390.77	43.448
391.13	43.267
391.49	44.036
391.85	43.094
392.20	42.208
392.56	42.803
392.92	43.025
393.28	43.077
393.64	43.405
393.99	43.494
394.35	43.921
394.71	42.974
395.07	43.302
395.42	44.129
395.78	42.875
396.14	42.520
396.50	43.860
396.85	43.229
397.21	43.711
397.57	43.211
397.92	43.389
398.28	42.713
398.64	42.413
399.00	42.641
399.35	42.696
399.71	43.403
400.07	43.170
400.42	42.577
400.78	42.400
401.14	42.988
401.49	43.821
401.85	43.073
402.21	42.814
402.57	43.800
402.92	42.875
403.28	43.161
403.63	42.946
403.99	43.248
404.35	41.879
404.70	42.866
405.06	42.574
405.42	42.608
405.77	42.057
406.13	41.422
406.49	42.933
406.84	43.414
407.20	41.135
407.55	42.502
407.91	43.133
408.27	43.650
408.62	42.143
408.98	42.279
409.34	42.312
409.69	43.742
410.05	42.379
410.40	42.080
410.76	41.637
411.11	41.435
411.47	42.173
411.83	41.539
412.18	41.744
412.54	42.154
412.89	41.687
413.25	42.267
413.60	41.631
413.96	41.044
414.31	42.831
414.67	42.142
415.03	43.179
415.38	41.108
415.74	41.736
416.09	43.893
416.45	41.566
416.80	43.159
417.16	42.761
417.51	41.274
417.87	41.811
418.22	43.470
418.58	42.608
418.93	42.015
419.29	42.457
419.64	41.562
420.00	42.317
420.35	41.623
420.71	41.423
421.06	42.064
421.42	41.345
421.77	41.928
422.12	41.718
422.48	41.176
422.83	42.458
423.19	41.878
423.54	41.381
423.90	42.435
424.25	42.658
424.61	41.607
424.96	42.682
425.31	42.359
425.67	40.787
426.02	42.057
426.38	42.674
426.73	41.194
427.09	42.857
427.44	43.358
427.79	42.726
428.15	43.571
428.50	42.891
428.85	42.610
429.21	42.960
429.56	42.872
429.92	42.124
430.27	41.857
430.62	42.089
430.98	41.567
431.33	41.753
431.68	42.356
432.04	41.800
432.39	42.604
432.74	44.285
433.10	42.841
433.45	43.149
433.80	43.237
434.16	43.750
434.51	41.684
434.86	42.816
435.22	42.746
435.57	43.161
435.92	42.949
436.28	43.654
436.63	42.439
436.98	42.587
437.34	43.232
437.69	43.932
438.04	43.732
438.39	44.239
438.75	43.463
439.10	43.799
439.45	43.684
439.81	43.988
440.16	42.405
440.51	43.761
440.86	43.544
441.22	43.548
441.57	43.206
441.92	43.859
442.27	43.272
442.63	42.707
442.98	44.113
443.33	42.011
443.68	44.140
444.03	42.899
444.39	43.379
444.74	42.641
445.09	44.313
445.44	42.373
445.79	43.345
446.15	43.145
446.50	42.919
446.85	43.063
447.20	43.702
447.55	44.556
447.91	43.629
448.26	43.294
448.61	44.488
448.96	42.636
449.31	43.926
449.66	42.994
450.02	42.953
450.37	42.404
450.72	43.316
451.07	41.804
451.42	43.222
451.77	43.100
452.12	42.552
452.47	44.030
452.83	43.182
453.18	42.359
453.53	44.156
453.88	43.060
454.23	43.694
454.58	43.852
454.93	45.264
455.28	42.706
455.63	43.386
455.98	44.464
456.34	44.661
456.69	43.770
457.04	44.892
457.39	42.665
457.74	42.716
458.09	43.358
458.44	43.501
458.79	42.354
459.14	44.244
459.49	43.724
459.84	43.767
460.19	42.487
460.54	41.725
460.89	43.061
461.24	43.230
461.59	44.044
461.94	43.218
462.29	43.145
462.64	41.927
462.99	41.705
463.34	42.933
463.69	43.527
464.04	42.957
464.39	43.362
464.74	42.721
465.09	42.220
465.44	42.548
465.79	43.233
466.14	42.419
466.49	42.214
466.84	42.440
467.19	42.909
467.54	42.812
467.89	42.497
468.24	42.467
468.59	43.468
468.94	42.272
469.29	44.602
469.64	44.846
469.99	44.520
470.34	43.395
470.68	44.612
471.03	42.925
471.38	45.240
471.73	44.104
472.08	43.553
472.43	42.839
472.78	42.923
473.13	42.683
473.48	42.385
473.83	43.232
474.17	43.435
474.52	42.494
474.87	42.907
475.22	43.877
475.57	41.805
475.92	42.061
476.27	41.657
476.61	42.416
476.96	42.991
477.31	43.014
477.66	43.326
478.01	40.669
478.36	42.940
478.70	41.485
479.05	41.960
479.40	42.631
479.75	42.857
480.10	42.744
480.45	40.647
480.79	41.089
481.14	41.977
481.49	42.762
481.84	41.381
482.19	41.754
482.53	42.385
482.88	41.554
483.23	41.589
483.58	41.811
483.92	41.893
484.27	40.479
484.62	41.121
484.97	41.230
485.31	41.986
485.66	40.560
486.01	38.817
486.36	37.013
486.70	36.493
487.05	37.077
487.40	38.509
487.75	39.951
488.09	39.854
488.44	40.761
488.79	41.121
489.13	42.055
489.48	40.987
489.83	41.606
490.17	41.605
490.52	41.010
490.87	41.248
491.22	40.655
491.56	39.590
491.91	41.554
492.26	41.112
492.60	41.751
492.95	40.225
493.30	41.168
493.64	40.971
493.99	41.086
494.34	40.472
494.68	40.797
495.03	41.541
495.37	40.437
495.72	41.423
496.07	41.021
496.41	40.177
496.76	40.501
497.11	40.747
497.45	40.801
497.80	40.979
498.14	40.773
498.49	41.317
498.84	41.083
499.18	40.667
499.53	40.646
499.87	40.494
500.22	40.320
500.56	41.262
500.91	39.952
501.26	41.679
501.60	41.196
501.95	40.009
502.29	41.284
502.64	41.108
502.98	40.299
503.33	39.808
503.67	40.046
504.02	40.271
504.36	40.711
504.71	41.866
505.06	41.012
505.40	41.031
505.75	39.778
506.09	39.893
506.44	40.454
506.78	40.477
507.13	41.141
507.47	40.101
507.82	42.553
508.16	40.324
508.51	41.045
508.85	39.325
509.19	41.480
509.54	40.867
509.88	40.392
510.23	40.411
510.57	41.589
510.92	41.895
511.26	41.829
511.61	41.286
511.95	40.605
512.30	40.668
512.64	40.408
512.98	41.586
513.33	41.060
513.67	40.555
514.02	41.613
514.36	41.617
514.70	41.395
515.05	40.881
515.39	41.503
515.74	41.610
516.08	41.420
516.42	41.176
516.77	41.695
517.11	40.788
517.46	41.366
517.80	42.334
518.14	41.054
518.49	41.540
518.83	41.648
519.17	41.397
519.52	41.426
519.86	41.415
520.20	41.965
520.55	42.310
520.89	41.667
521.23	43.366
521.58	41.357
521.92	40.784
522.26	39.719
522.61	43.302
522.95	41.375
523.29	41.631
523.64	42.317
523.98	42.144
524.32	41.074
524.66	41.431
525.01	41.544
525.35	40.582
525.69	41.810
526.04	41.184
526.38	41.245
526.72	40.859
527.06	41.306
527.41	40.037
527.75	41.929
528.09	42.582
528.43	41.428
528.78	41.733
529.12	40.485
529.46	42.315
529.80	41.213
530.15	41.807
530.49	40.431
530.83	41.582
531.17	42.167
531.51	42.412
531.86	42.581
532.20	42.634
532.54	42.281
532.88	41.528
533.22	39.663
533.57	41.296
533.91	40.277
534.25	40.522
534.59	40.390
534.93	40.393
535.27	41.340
535.62	41.270
535.96	41.620
536.30	40.242
536.64	41.082
536.98	40.013
537.32	41.804
537.66	41.400
538.01	41.277
538.35	40.595
538.69	41.098
539.03	39.961
539.37	39.042
539.71	39.857
540.05	41.307
540.39	40.731
540.73	39.133
541.07	40.558
541.42	41.161
541.76	41.032
542.10	40.944
542.44	40.728
542.78	42.424
543.12	39.283
543.46	41.377
543.80	40.599
544.14	40.244
544.48	41.587
544.82	40.282
545.16	40.013
545.50	40.103
545.84	39.516
546.18	40.673
546.52	41.087
546.86	40.893
547.20	40.931
547.54	39.546
547.88	40.753
548.22	40.224
548.56	38.302
548.90	39.373
549.24	40.539
549.58	40.177
549.92	40.728
550.26	40.838
550.60	39.142
550.94	41.127
551.28	39.576
551.62	41.265
551.96	39.789
552.30	40.956
552.64	40.297
552.98	40.610
553.32	40.526
553.66	40.354
554.00	40.494
554.34	39.614
554.68	42.275
555.02	40.480
555.36	39.875
555.69	39.107
556.03	39.637
556.37	40.859
556.71	39.563
557.05	40.126
557.39	40.028
557.73	40.932
558.07	40.609
558.41	40.159
558.75	40.558
559.08	40.865
559.42	41.345
559.76	40.441
560.10	39.615
560.44	38.854
560.78	39.521
561.12	37.995
561.45	39.700
561.79	38.167
562.13	39.705
562.47	41.120
562.81	39.819
563.15	39.064
563.48	39.523
563.82	38.421
564.16	39.765
564.50	38.867
564.84	37.863
565.17	38.803
565.51	39.169
565.85	39.023
566.19	38.572
566.52	39.645
566.86	38.577
567.20	39.033
567.54	39.098
567.88	37.371
568.21	37.937
568.55	38.069
568.89	37.354
569.23	37.389
569.56	36.761
569.90	35.962
570.24	34.876
570.57	35.056
570.91	34.615
571.25	34.280
571.59	34.315
571.92	34.677
572.26	34.315
572.60	34.745
572.93	34.333
573.27	34.783
573.61	34.813
573.95	34.703
574.28	33.769
574.62	33.333
574.96	33.357
575.29	33.414
575.63	33.206
575.97	34.210
576.30	34.121
576.64	33.536
576.98	34.127
577.31	33.688
577.65	34.028
577.98	33.394
578.32	32.585
578.66	33.291
578.99	33.349
579.33	33.430
579.67	33.179
580.00	33.877
580.34	33.792
580.67	33.656
581.01	33.888
581.35	33.340
581.68	33.439
582.02	32.727
582.35	32.839
582.69	32.897
583.02	32.392
583.36	33.502
583.70	33.841
584.03	34.013
584.37	34.677
584.70	34.483
585.04	33.390
585.37	33.434
585.71	33.623
586.04	33.511
586.38	34.065
586.72	34.189
587.05	33.795
587.39	33.536
587.72	33.677
588.06	33.431
588.39	33.635
588.73	34.204
589.06	34.808
589.40	34.646
589.73	34.565
590.07	34.982
590.40	33.942
590.73	35.675
591.07	36.182
591.40	35.639
591.74	35.411
592.07	35.777
592.41	34.890
592.74	34.794
593.08	34.144
593.41	34.483
593.75	32.417
594.08	33.389
594.41	34.252
594.75	34.381
595.08	34.860
595.42	34.816
595.75	34.437
596.09	34.923
596.42	34.499
596.75	35.120
597.09	35.974
597.42	34.739
597.75	34.886
598.09	35.435
598.42	34.794
598.76	34.779
599.09	34.360
599.42	33.515
599.76	33.529
600.09	33.370
600.42	33.893
600.76	34.143
601.09	33.370
601.42	33.409
601.76	34.042
602.09	34.980
602.42	33.957
602.76	35.228
603.09	35.366
603.42	34.440
603.76	33.537
604.09	34.083
604.42	34.203
604.76	34.374
605.09	34.644
605.42	34.716
605.75	34.520
606.09	34.892
606.42	34.409
606.75	34.674
607.09	35.287
607.42	34.574
607.75	33.460
608.08	34.564
608.42	34.827
608.75	33.634
609.08	33.950
609.41	35.269
609.75	34.874
610.08	34.260
610.41	35.009
610.74	34.532
611.07	35.672
611.41	34.446
611.74	35.194
612.07	35.818
612.40	36.149
612.73	35.053
613.07	35.453
613.40	35.334
613.73	34.872
614.06	34.516
614.39	34.504
614.72	34.368
615.06	34.716
615.39	35.722
615.72	35.378
616.05	34.503
616.38	35.686
616.71	35.451
617.05	36.690
617.38	34.937
617.71	35.195
618.04	36.418
618.37	35.068
618.70	35.968
619.03	36.711
619.36	36.253
619.69	37.254
620.03	37.431
620.36	36.631
620.69	36.986
621.02	36.652
621.35	37.040
621.68	36.215
622.01	37.229
622.34	37.216
622.67	37.947
623.00	36.537
623.33	36.383
623.66	37.956
623.99	36.524
624.32	36.662
624.65	37.076
624.99	35.836
625.32	36.061
625.65	36.965
625.98	37.202
626.31	36.003
626.64	37.306
626.97	38.321
627.30	36.658
627.63	37.900
627.96	38.856
628.29	37.533
628.62	38.152
628.95	40.094
629.28	38.230
629.61	38.955
629.94	38.762
630.26	38.132
630.59	37.846
630.92	37.835
