SpectraSuite Data File
++++++++++++++++++++++++++++++++++++
Date: Wed May 13 16:23:12 PDT 2015
User: schluterlab
Dark Spectrum Present: Yes
Reference Spectrum Present: Yes
Number of Sampled Component Spectra: 1
Spectrometers: USB2E3373
Integration Time (usec): 3000 (USB2E3373)
Spectra Averaged: 3 (USB2E3373)
Boxcar Smoothing: 0 (USB2E3373)
Correct for Electrical Dark: No (USB2E3373)
Strobe/Lamp Enabled: No (USB2E3373)
Correct for Detector Non-linearity: No (USB2E3373)
Correct for Stray Light: No (USB2E3373)
Number of Pixels in Processed Spectrum: 2048
>>>>>Begin Processed Spectral Data<<<<<
178.53	0.000
178.91	-1125.000
179.29	-1325.000
179.67	-188.889
180.04	-1200.000
180.42	2000.000
180.80	1020.000
181.18	-1100.000
181.56	600.000
181.94	0.000
182.31	-585.714
182.69	1633.333
183.07	-475.000
183.45	-588.889
183.83	427.273
184.20	-350.000
184.58	2400.000
184.96	5100.000
185.34	-720.000
185.72	-587.500
186.09	-2550.000
186.47	2500.000
186.85	2500.000
187.23	4300.000
187.61	-1333.333
187.98	1400.000
188.36	472.727
188.74	472.727
189.12	-1140.000
189.49	530.000
189.87	-4400.000
190.25	-1200.000
190.63	414.286
191.00	461.538
191.38	800.000
191.76	-1250.000
192.14	1400.000
192.51	625.000
192.89	800.000
193.27	712.500
193.65	-950.000
194.02	490.000
194.40	1000.000
194.78	460.000
195.15	466.667
195.53	570.000
195.91	-2150.000
196.29	350.000
196.66	289.474
197.04	-290.000
197.42	0.000
197.79	510.000
198.17	-4400.000
198.55	642.857
198.92	650.000
199.30	840.000
199.68	0.000
200.05	272.222
200.43	571.429
200.81	3800.000
201.18	1533.333
201.56	-1566.667
201.94	600.000
202.31	500.000
202.69	408.333
203.07	540.000
203.44	0.000
203.82	1100.000
204.19	700.000
204.57	407.143
204.95	562.500
205.32	1566.667
205.70	472.727
206.08	328.571
206.45	2500.000
206.83	343.750
207.20	783.333
207.58	840.000
207.96	300.000
208.33	625.000
208.71	-633.333
209.08	871.429
209.46	566.667
209.84	409.091
210.21	-1433.333
210.59	1375.000
210.96	-550.000
211.34	2600.000
211.71	620.000
212.09	850.000
212.46	0.000
212.84	1566.667
213.22	1325.000
213.59	-3900.000
213.97	800.000
214.34	714.286
214.72	481.818
215.09	940.000
215.47	-2150.000
215.84	-2750.000
216.22	1800.000
216.59	357.143
216.97	1250.000
217.34	436.364
217.72	-800.000
218.09	0.000
218.47	-4500.000
218.84	566.667
219.22	871.429
219.59	1433.333
219.97	-585.714
220.34	1060.000
220.72	-1500.000
221.09	335.714
221.47	1150.000
221.84	-933.333
222.22	0.000
222.59	1425.000
222.97	-2800.000
223.34	880.000
223.72	407.692
224.09	1080.000
224.46	1850.000
224.84	-5100.000
225.21	-940.000
225.59	-5100.000
225.96	590.000
226.34	265.000
226.71	3000.000
227.08	575.000
227.46	430.000
227.83	-1200.000
228.21	-2150.000
228.58	588.889
228.95	-2450.000
229.33	-1950.000
229.70	1533.333
230.08	757.143
230.45	-820.000
230.82	491.667
231.20	883.333
231.57	542.857
231.95	500.000
232.32	259.091
232.69	336.364
233.07	814.286
233.44	323.077
233.81	-1633.333
234.19	284.211
234.56	450.000
234.93	400.000
235.31	354.545
235.68	246.154
236.05	292.857
236.43	163.636
236.80	268.421
237.17	4600.000
237.55	223.810
237.92	196.429
238.29	204.762
238.67	174.194
239.04	220.690
239.41	147.222
239.79	134.783
240.16	140.476
240.53	131.818
240.91	92.157
241.28	98.000
241.65	118.000
242.02	91.304
242.40	83.871
242.77	88.333
243.14	75.269
243.51	89.888
243.89	76.471
244.26	62.222
244.63	67.742
245.00	57.447
245.38	72.277
245.75	61.682
246.12	60.550
246.49	62.044
246.87	60.800
247.24	61.538
247.61	57.143
247.98	47.712
248.36	50.000
248.73	54.140
249.10	50.318
249.47	47.458
249.84	47.059
250.22	45.455
250.59	43.195
250.96	47.475
251.33	46.445
251.70	52.970
252.08	36.190
252.45	42.601
252.82	36.522
253.19	42.979
253.56	35.294
253.94	36.515
254.31	37.500
254.68	38.077
255.05	39.483
255.42	36.585
255.79	32.721
256.16	36.101
256.54	30.035
256.91	39.502
257.28	29.856
257.65	34.323
258.02	32.298
258.39	35.016
258.76	33.779
259.14	30.952
259.51	31.915
259.88	32.609
260.25	30.211
260.62	33.526
260.99	33.540
261.36	32.733
261.73	32.378
262.10	29.651
262.47	33.239
262.85	30.362
263.22	27.066
263.59	35.613
263.96	31.044
264.33	30.026
264.70	31.579
265.07	32.225
265.44	31.566
265.81	29.927
266.18	30.653
266.55	29.512
266.92	30.221
267.29	29.861
267.66	31.193
268.03	28.409
268.40	28.037
268.77	27.446
269.14	28.378
269.51	30.926
269.88	31.469
270.25	28.894
270.62	27.865
270.99	30.108
271.36	29.614
271.73	29.439
272.10	27.826
272.47	29.892
272.84	27.706
273.21	29.140
273.58	25.983
273.95	28.931
274.32	27.273
274.69	29.764
275.06	27.165
275.43	27.872
275.80	29.860
276.17	25.866
276.54	28.898
276.91	29.447
277.28	24.219
277.65	26.692
278.02	25.259
278.39	28.516
278.76	28.727
279.13	25.472
279.50	27.374
279.87	25.100
280.23	25.948
280.60	24.952
280.97	24.954
281.34	27.788
281.71	28.182
282.08	26.104
282.45	24.545
282.82	26.821
283.19	26.381
283.56	24.912
283.92	28.934
284.29	26.631
284.66	28.131
285.03	22.785
285.40	25.176
285.77	24.916
286.14	25.734
286.51	26.333
286.87	24.957
287.24	26.547
287.61	24.077
287.98	25.162
288.35	26.307
288.72	24.922
289.08	24.100
289.45	24.712
289.82	25.366
290.19	22.449
290.56	23.277
290.93	22.810
291.29	22.086
291.66	23.599
292.03	24.273
292.40	23.935
292.77	22.485
293.13	23.582
293.50	21.574
293.87	23.111
294.24	20.889
294.60	21.397
294.97	22.674
295.34	24.260
295.71	23.153
296.08	22.792
296.44	22.834
296.81	19.815
297.18	22.222
297.55	19.129
297.91	21.504
298.28	22.758
298.65	22.063
299.02	21.739
299.38	19.256
299.75	20.485
300.12	21.073
300.48	22.000
300.85	20.838
301.22	22.420
301.59	20.202
301.95	21.285
302.32	20.411
302.69	20.908
303.05	21.455
303.42	21.481
303.79	20.725
304.15	20.163
304.52	19.699
304.89	21.370
305.25	20.418
305.62	20.612
305.99	19.835
306.35	20.694
306.72	20.179
307.09	19.756
307.45	21.284
307.82	19.866
308.19	22.185
308.55	22.869
308.92	19.656
309.29	20.486
309.65	20.785
310.02	20.719
310.38	22.473
310.75	21.014
311.12	20.983
311.48	22.466
311.85	20.755
312.22	22.685
312.58	20.894
312.95	21.647
313.31	22.136
313.68	22.245
314.05	22.880
314.41	22.915
314.78	23.061
315.14	21.549
315.51	23.481
315.87	22.871
316.24	22.542
316.61	22.417
316.97	21.722
317.34	21.135
317.70	23.805
318.07	23.580
318.43	22.896
318.80	23.711
319.16	23.917
319.53	23.077
319.89	23.905
320.26	25.700
320.62	24.306
320.99	25.556
321.35	24.646
321.72	24.743
322.08	25.271
322.45	26.468
322.81	25.581
323.18	25.048
323.54	25.603
323.91	25.094
324.27	26.291
324.64	26.654
325.00	25.699
325.37	27.207
325.73	27.738
326.10	26.478
326.46	27.330
326.83	28.732
327.19	27.669
327.56	28.223
327.92	28.259
328.29	28.039
328.65	28.821
329.01	29.152
329.38	29.140
329.74	28.532
330.11	29.312
330.47	28.650
330.84	29.688
331.20	29.326
331.56	30.183
331.93	29.907
332.29	29.902
332.66	29.469
333.02	30.987
333.38	29.991
333.75	30.838
334.11	29.181
334.48	29.636
334.84	29.136
335.20	30.455
335.57	29.012
335.93	28.214
336.29	28.663
336.66	30.117
337.02	29.502
337.38	30.278
337.75	29.679
338.11	29.275
338.47	29.558
338.84	30.339
339.20	28.899
339.56	32.755
339.93	30.000
340.29	29.982
340.65	28.966
341.02	30.366
341.38	30.872
341.74	30.175
342.11	30.568
342.47	31.189
342.83	30.223
343.20	31.082
343.56	29.570
343.92	30.351
344.28	30.782
344.65	31.126
345.01	30.219
345.37	29.588
345.73	29.780
346.10	30.861
346.46	31.102
346.82	29.901
347.19	29.657
347.55	30.049
347.91	30.744
348.27	30.813
348.63	30.435
349.00	30.421
349.36	31.117
349.72	30.152
350.08	29.498
350.45	31.570
350.81	30.219
351.17	29.903
351.53	31.368
351.89	29.950
352.26	31.097
352.62	30.152
352.98	30.956
353.34	32.375
353.70	30.933
354.07	30.484
354.43	29.603
354.79	29.928
355.15	30.327
355.51	31.335
355.87	32.245
356.24	31.678
356.60	31.115
356.96	30.571
357.32	30.989
357.68	31.969
358.04	30.879
358.40	32.225
358.77	30.360
359.13	32.912
359.49	31.608
359.85	30.873
360.21	32.137
360.57	32.607
360.93	32.154
361.29	31.066
361.66	30.805
362.02	32.388
362.38	32.928
362.74	32.292
363.10	31.606
363.46	31.108
363.82	31.368
364.18	31.865
364.54	32.987
364.90	32.365
365.26	32.353
365.62	32.579
365.98	32.286
366.35	32.235
366.71	33.406
367.07	33.358
367.43	33.454
367.79	33.262
368.15	34.124
368.51	32.703
368.87	32.620
369.23	33.431
369.59	33.888
369.95	33.750
370.31	33.903
370.67	32.826
371.03	34.607
371.39	35.058
371.75	34.559
372.11	34.282
372.47	35.337
372.83	35.879
373.19	35.549
373.55	34.959
373.91	34.536
374.27	34.364
374.63	35.127
374.99	35.381
375.35	35.729
375.71	35.846
376.07	36.694
376.42	35.626
376.78	36.581
377.14	36.906
377.50	36.093
377.86	35.239
378.22	35.714
378.58	35.464
378.94	36.329
379.30	37.150
379.66	36.739
380.02	36.978
380.38	36.005
380.74	37.935
381.09	38.447
381.45	38.476
381.81	38.882
382.17	38.408
382.53	37.421
382.89	38.148
383.25	39.400
383.61	39.715
383.97	39.149
384.32	37.991
384.68	38.228
385.04	38.844
385.40	39.752
385.76	38.943
386.12	40.415
386.48	40.403
386.83	40.475
387.19	40.940
387.55	40.074
387.91	38.996
388.27	40.773
388.62	41.303
388.98	40.725
389.34	41.427
389.70	41.570
390.06	42.332
390.42	43.126
390.77	41.794
391.13	42.310
391.49	42.766
391.85	42.139
392.20	41.830
392.56	42.298
392.92	42.378
393.28	43.018
393.64	41.966
393.99	43.128
394.35	43.238
394.71	42.284
395.07	42.991
395.42	43.016
395.78	43.639
396.14	44.134
396.50	44.298
396.85	44.056
397.21	42.848
397.57	43.645
397.92	43.570
398.28	43.105
398.64	43.130
399.00	44.040
399.35	42.696
399.71	43.403
400.07	43.998
400.42	43.497
400.78	44.934
401.14	44.512
401.49	45.433
401.85	45.251
402.21	44.132
402.57	45.219
402.92	45.145
403.28	45.222
403.63	45.545
403.99	46.369
404.35	45.394
404.70	45.624
405.06	45.137
405.42	44.604
405.77	44.914
406.13	44.921
406.49	45.358
406.84	45.245
407.20	44.385
407.55	46.713
407.91	48.133
408.27	47.607
408.62	44.852
408.98	47.059
409.34	46.187
409.69	46.258
410.05	46.468
410.40	46.055
410.76	45.699
411.11	45.959
411.47	46.262
411.83	47.465
412.18	46.135
412.54	46.887
412.89	45.964
413.25	47.166
413.60	46.263
413.96	46.266
414.31	46.051
414.67	47.022
415.03	47.219
415.38	46.907
415.74	47.074
416.09	48.922
416.45	46.988
416.80	48.381
417.16	49.129
417.51	49.038
417.87	47.335
418.22	49.274
418.58	48.806
418.93	48.096
419.29	47.740
419.64	47.733
420.00	47.988
420.35	48.638
420.71	48.117
421.06	48.091
421.42	48.363
421.77	47.814
422.12	47.782
422.48	47.922
422.83	48.165
423.19	46.740
423.54	48.172
423.90	48.348
424.25	48.241
424.61	47.976
424.96	49.446
425.31	48.616
425.67	48.371
426.02	48.457
426.38	49.512
426.73	49.035
427.09	49.605
427.44	49.339
427.79	48.879
428.15	48.929
428.50	50.146
428.85	50.179
429.21	49.531
429.56	49.352
429.92	48.666
430.27	48.262
430.62	48.694
430.98	48.832
431.33	48.557
431.68	49.634
432.04	49.414
432.39	50.257
432.74	49.312
433.10	50.594
433.45	50.845
433.80	50.222
434.16	48.504
434.51	49.105
434.86	49.601
435.22	49.805
435.57	49.970
435.92	50.380
436.28	51.068
436.63	50.828
436.98	49.456
437.34	51.282
437.69	50.233
438.04	49.859
438.39	50.687
438.75	50.552
439.10	51.006
439.45	51.653
439.81	51.178
440.16	49.238
440.51	50.732
440.86	51.245
441.22	51.613
441.57	49.522
441.92	49.284
442.27	49.569
442.63	49.500
442.98	51.944
443.33	50.652
443.68	48.735
444.03	50.659
444.39	48.539
444.74	50.920
445.09	50.620
445.44	50.301
445.79	50.470
446.15	50.132
446.50	50.404
446.85	50.874
447.20	50.382
447.55	51.200
447.91	51.076
448.26	50.584
448.61	51.328
448.96	50.886
449.31	51.012
449.66	50.929
450.02	50.306
450.37	50.907
450.72	52.059
451.07	51.310
451.42	49.970
451.77	50.675
452.12	51.443
452.47	51.741
452.83	51.981
453.18	51.100
453.53	51.515
453.88	51.979
454.23	51.405
454.58	51.423
454.93	53.655
455.28	51.247
455.63	51.699
455.98	53.214
456.34	52.638
456.69	52.912
457.04	51.889
457.39	51.140
457.74	51.306
458.09	51.754
458.44	51.254
458.79	50.108
459.14	52.652
459.49	52.131
459.84	51.745
460.19	51.031
460.54	49.942
460.89	51.728
461.24	51.063
461.59	51.830
461.94	51.171
462.29	53.175
462.64	51.053
462.99	51.594
463.34	52.200
463.69	52.658
464.04	50.957
464.39	52.290
464.74	52.704
465.09	52.654
465.44	50.582
465.79	50.391
466.14	49.808
466.49	51.224
466.84	50.613
467.19	51.720
467.54	52.562
467.89	51.261
468.24	52.065
468.59	52.381
468.94	52.108
469.29	52.185
469.64	53.882
469.99	52.706
470.34	53.303
470.68	54.095
471.03	52.993
471.38	54.274
471.73	53.098
472.08	54.013
472.43	52.198
472.78	54.049
473.13	52.567
473.48	52.372
473.83	52.988
474.17	52.769
474.52	52.916
474.87	52.831
475.22	52.757
475.57	51.155
475.92	52.469
476.27	51.747
476.61	51.793
476.96	52.611
477.31	52.224
477.66	53.063
478.01	51.072
478.36	52.565
478.70	51.921
479.05	51.651
479.40	53.582
479.75	53.177
480.10	52.584
480.45	50.881
480.79	51.792
481.14	52.446
481.49	52.871
481.84	51.440
482.19	52.385
482.53	51.514
482.88	51.466
483.23	52.944
483.58	50.955
483.92	52.905
484.27	50.632
484.62	51.422
484.97	50.887
485.31	52.671
485.66	50.197
486.01	46.813
486.36	44.119
486.70	43.558
487.05	45.196
487.40	46.885
487.75	47.426
488.09	49.105
488.44	49.366
488.79	50.705
489.13	51.451
489.48	51.591
489.83	52.438
490.17	52.433
490.52	50.797
490.87	52.329
491.22	52.979
491.56	51.207
491.91	52.862
492.26	51.631
492.60	52.120
492.95	51.731
493.30	51.776
493.64	52.730
493.99	50.650
494.34	52.451
494.68	52.793
495.03	51.786
495.37	52.396
495.72	53.509
496.07	53.364
496.41	51.726
496.76	51.583
497.11	51.508
497.45	52.678
497.80	52.687
498.14	51.594
498.49	53.268
498.84	53.260
499.18	53.000
499.53	52.802
499.87	51.864
500.22	52.143
500.56	53.932
500.91	53.510
501.26	53.248
501.60	54.200
501.95	52.108
502.29	52.999
502.64	53.352
502.98	52.267
503.33	52.422
503.67	51.833
504.02	52.245
504.36	51.521
504.71	53.102
505.06	54.169
505.40	54.351
505.75	51.688
506.09	52.770
506.44	54.514
506.78	53.726
507.13	52.751
507.47	53.687
507.82	53.495
508.16	54.509
508.51	55.251
508.85	53.178
509.19	54.286
509.54	53.776
509.88	54.044
510.23	54.396
510.57	55.315
510.92	54.013
511.26	54.162
511.61	54.564
511.95	53.288
512.30	54.295
512.64	55.132
512.98	55.466
513.33	55.567
513.67	54.909
514.02	54.545
514.36	56.636
514.70	55.783
515.05	55.382
515.39	55.020
515.74	54.561
516.08	56.009
516.42	56.160
516.77	56.020
517.11	55.549
517.46	56.772
517.80	57.607
518.14	55.472
518.49	57.643
518.83	56.534
519.17	56.409
519.52	55.178
519.86	56.874
520.20	57.110
520.55	57.810
520.89	57.847
521.23	57.720
521.58	58.223
521.92	58.420
522.26	56.376
522.61	59.564
522.95	57.090
523.29	59.343
523.64	57.561
523.98	58.226
524.32	57.841
524.66	58.509
525.01	58.762
525.35	59.108
525.69	58.005
526.04	58.692
526.38	57.718
526.72	56.687
527.06	59.322
527.41	57.302
527.75	60.129
528.09	59.345
528.43	58.955
528.78	57.652
529.12	58.121
529.46	57.869
529.80	58.663
530.15	58.318
530.49	56.923
530.83	58.481
531.17	59.138
531.51	61.219
531.86	59.290
532.20	58.866
532.54	59.129
532.88	59.114
533.22	57.964
533.57	58.025
533.91	57.435
534.25	57.837
534.59	58.023
534.93	55.800
535.27	56.850
535.62	57.509
535.96	58.255
536.30	58.805
536.64	57.952
536.98	59.124
537.32	58.130
537.66	58.400
538.01	58.920
538.35	58.306
538.69	59.285
539.03	58.350
539.37	56.741
539.71	57.680
540.05	57.908
540.39	58.605
540.73	58.150
541.07	59.701
541.42	58.513
541.76	58.710
542.10	59.638
542.44	57.815
542.78	58.630
543.12	57.390
543.46	58.098
543.80	58.230
544.14	58.023
544.48	58.794
544.82	56.703
545.16	59.662
545.50	57.005
545.84	57.258
546.18	58.653
546.52	59.188
546.86	58.969
547.20	57.856
547.54	58.717
547.88	58.865
548.22	57.285
548.56	56.164
548.90	57.554
549.24	57.845
549.58	58.731
549.92	59.821
550.26	59.588
550.60	58.506
550.94	57.958
551.28	60.644
551.62	59.382
551.96	59.018
552.30	58.771
552.64	58.418
552.98	59.186
553.32	57.721
553.66	58.350
554.00	58.545
554.34	58.868
554.68	61.159
555.02	58.674
555.36	59.569
555.69	57.713
556.03	59.287
556.37	58.458
556.71	57.776
557.05	58.263
557.39	58.013
557.73	58.080
558.07	59.681
558.41	60.781
558.75	59.001
559.08	60.030
559.42	60.015
559.76	60.294
560.10	59.886
560.44	58.980
560.78	57.818
561.12	56.201
561.45	58.018
561.79	58.009
562.13	58.417
562.47	59.699
562.81	58.787
563.15	57.659
563.48	58.156
563.82	59.361
564.16	58.797
564.50	58.659
564.84	57.206
565.17	57.851
565.51	58.147
565.85	56.536
566.19	56.794
566.52	58.961
566.86	56.359
567.20	57.311
567.54	56.050
567.88	55.350
568.21	54.921
568.55	54.499
568.89	55.350
569.23	53.387
569.56	51.417
569.90	50.151
570.24	50.269
570.57	49.847
570.91	48.836
571.25	47.746
571.59	48.277
571.92	47.840
572.26	48.440
572.60	48.408
572.93	47.706
573.27	49.364
573.61	47.878
573.95	47.804
574.28	47.462
574.62	47.012
574.96	46.714
575.29	46.169
575.63	46.621
575.97	47.045
576.30	47.345
576.64	47.410
576.98	47.132
577.31	46.534
577.65	46.602
577.98	45.517
578.32	45.056
578.66	45.597
578.99	46.177
579.33	46.889
579.67	46.485
580.00	46.799
580.34	46.796
580.67	46.207
581.01	46.841
581.35	45.960
581.68	45.564
582.02	44.849
582.35	44.919
582.69	45.177
583.02	45.846
583.36	46.830
583.70	47.203
584.03	47.492
584.37	48.195
584.70	48.067
585.04	47.065
585.37	46.528
585.71	46.546
586.04	46.340
586.38	47.858
586.72	47.694
587.05	47.243
587.39	46.860
587.72	46.431
588.06	47.252
588.39	46.831
588.73	47.551
589.06	48.146
589.40	49.562
589.73	49.666
590.07	49.466
590.40	48.666
590.73	51.093
591.07	51.363
591.40	51.202
591.74	51.948
592.07	51.483
592.41	50.186
592.74	49.363
593.08	48.035
593.41	48.497
593.75	47.252
594.08	48.039
594.41	48.887
594.75	49.168
595.08	48.926
595.42	48.932
595.75	49.145
596.09	50.169
596.42	49.941
596.75	49.894
597.09	51.299
597.42	49.199
597.75	51.143
598.09	50.696
598.42	50.816
598.76	49.696
599.09	48.879
599.42	48.362
599.76	48.609
600.09	48.670
600.42	48.904
600.76	47.679
601.09	48.707
601.42	48.706
601.76	47.856
602.09	49.130
602.42	49.403
602.76	50.262
603.09	49.095
603.42	49.317
603.76	49.276
604.09	49.670
604.42	49.939
604.76	51.202
605.09	51.201
605.42	50.449
605.75	50.952
606.09	49.410
606.42	50.266
606.75	49.606
607.09	50.440
607.42	49.979
607.75	48.861
608.08	50.195
608.42	50.157
608.75	49.684
609.08	50.740
609.41	51.119
609.75	50.262
610.08	51.885
610.41	50.512
610.74	50.189
611.07	52.372
611.41	51.816
611.74	52.489
612.07	52.122
612.40	52.991
612.73	52.263
613.07	53.233
613.40	52.501
613.73	51.966
614.06	52.097
614.39	52.124
614.72	51.105
615.06	51.838
615.39	51.168
615.72	51.738
616.05	51.675
616.38	51.862
616.71	54.632
617.05	54.358
617.38	54.179
617.71	54.474
618.04	54.387
618.37	53.046
618.70	54.325
619.03	54.868
619.36	55.126
619.69	56.620
620.03	56.181
620.36	55.281
620.69	56.575
621.02	57.743
621.35	57.713
621.68	57.165
622.01	57.972
622.34	58.245
622.67	57.490
623.00	56.860
623.33	55.611
623.66	56.612
623.99	55.376
624.32	55.278
624.65	55.226
624.99	55.099
625.32	55.829
625.65	58.227
625.98	58.724
626.31	57.621
626.64	59.673
626.97	59.019
627.30	59.601
627.63	59.475
627.96	60.555
628.29	60.630
628.62	62.672
628.95	62.453
629.28	61.314
629.61	61.687
629.94	63.905
630.26	63.775
630.59	61.296
630.92	61.207
