SpectraSuite Data File
++++++++++++++++++++++++++++++++++++
Date: Wed May 13 16:40:54 PDT 2015
User: schluterlab
Dark Spectrum Present: Yes
Reference Spectrum Present: Yes
Number of Sampled Component Spectra: 1
Spectrometers: USB2E3373
Integration Time (usec): 3000 (USB2E3373)
Spectra Averaged: 3 (USB2E3373)
Boxcar Smoothing: 0 (USB2E3373)
Correct for Electrical Dark: No (USB2E3373)
Strobe/Lamp Enabled: No (USB2E3373)
Correct for Detector Non-linearity: No (USB2E3373)
Correct for Stray Light: No (USB2E3373)
Number of Pixels in Processed Spectrum: 2048
>>>>>Begin Processed Spectral Data<<<<<
178.53	0.000
178.91	-1225.000
179.29	-1350.000
179.67	-255.556
180.04	-1650.000
180.42	2700.000
180.80	1160.000
181.18	-1175.000
181.56	742.857
181.94	0.000
182.31	-728.571
182.69	1866.667
183.07	-575.000
183.45	-600.000
183.83	545.455
184.20	-450.000
184.58	2950.000
184.96	4700.000
185.34	-960.000
185.72	-662.500
186.09	-2250.000
186.47	2900.000
186.85	2500.000
187.23	5300.000
187.61	-1766.667
187.98	1475.000
188.36	518.182
188.74	490.909
189.12	-820.000
189.49	510.000
189.87	-4400.000
190.25	-1375.000
190.63	507.143
191.00	415.385
191.38	850.000
191.76	-1325.000
192.14	1275.000
192.51	675.000
192.89	1000.000
193.27	600.000
193.65	-1475.000
194.02	550.000
194.40	840.000
194.78	670.000
195.15	450.000
195.53	650.000
195.91	-1900.000
196.29	375.000
196.66	284.211
197.04	-380.000
197.42	0.000
197.79	610.000
198.17	-5800.000
198.55	785.714
198.92	737.500
199.30	920.000
199.68	0.000
200.05	327.778
200.43	871.429
200.81	4800.000
201.18	2066.667
201.56	-1766.667
201.94	577.778
202.31	666.667
202.69	516.667
203.07	580.000
203.44	0.000
203.82	1200.000
204.19	785.714
204.57	421.429
204.95	612.500
205.32	1633.333
205.70	500.000
206.08	371.429
206.45	2450.000
206.83	375.000
207.20	1016.667
207.58	720.000
207.96	350.000
208.33	700.000
208.71	-816.667
209.08	800.000
209.46	566.667
209.84	500.000
210.21	-1800.000
210.59	1325.000
210.96	-450.000
211.34	2800.000
211.71	500.000
212.09	783.333
212.46	0.000
212.84	1933.333
213.22	1300.000
213.59	-5000.000
213.97	1116.667
214.34	928.571
214.72	554.545
215.09	1060.000
215.47	-2400.000
215.84	-2650.000
216.22	1733.333
216.59	357.143
216.97	1150.000
217.34	445.455
217.72	-816.667
218.09	0.000
218.47	-5800.000
218.84	655.556
219.22	828.571
219.59	1666.667
219.97	-742.857
220.34	1060.000
220.72	-2033.333
221.09	421.429
221.47	1625.000
221.84	-966.667
222.22	0.000
222.59	1425.000
222.97	-2350.000
223.34	1140.000
223.72	484.615
224.09	1180.000
224.46	2100.000
224.84	-5000.000
225.21	-1080.000
225.59	-5500.000
225.96	640.000
226.34	345.000
226.71	2800.000
227.08	650.000
227.46	610.000
227.83	-1125.000
228.21	-2350.000
228.58	577.778
228.95	-2000.000
229.33	-2550.000
229.70	1666.667
230.08	842.857
230.45	-1000.000
230.82	391.667
231.20	833.333
231.57	700.000
231.95	533.333
232.32	245.455
232.69	345.455
233.07	785.714
233.44	346.154
233.81	-1400.000
234.19	284.211
234.56	433.333
234.93	325.000
235.31	518.182
235.68	330.769
236.05	357.143
236.43	172.727
236.80	242.105
237.17	4200.000
237.55	180.952
237.92	200.000
238.29	219.048
238.67	193.548
239.04	217.241
239.41	155.556
239.79	115.217
240.16	135.714
240.53	118.182
240.91	94.118
241.28	102.000
241.65	94.000
242.02	88.406
242.40	83.871
242.77	81.667
243.14	53.763
243.51	66.292
243.89	55.294
244.26	44.444
244.63	49.462
245.00	47.872
245.38	44.554
245.75	44.860
246.12	45.872
246.49	50.365
246.87	50.400
247.24	49.231
247.61	32.143
247.98	35.948
248.36	26.351
248.73	38.217
249.10	40.764
249.47	28.814
249.84	34.759
250.22	28.877
250.59	25.444
250.96	29.293
251.33	26.540
251.70	28.713
252.08	26.190
252.45	21.973
252.82	23.043
253.19	24.255
253.56	25.098
253.94	27.801
254.31	25.000
254.68	23.077
255.05	22.509
255.42	21.138
255.79	20.221
256.16	26.715
256.54	16.961
256.91	17.082
257.28	15.827
257.65	22.112
258.02	20.497
258.39	17.981
258.76	17.057
259.14	16.964
259.51	14.894
259.88	17.081
260.25	17.523
260.62	17.341
260.99	16.460
261.36	16.216
261.73	13.467
262.10	13.663
262.47	19.718
262.85	15.599
263.22	15.100
263.59	18.234
263.96	14.286
264.33	13.838
264.70	16.842
265.07	14.578
265.44	13.384
265.81	11.192
266.18	13.568
266.55	14.634
266.92	10.074
267.29	15.278
267.66	11.697
268.03	12.955
268.40	13.084
268.77	11.695
269.14	15.315
269.51	14.673
269.88	10.723
270.25	9.707
270.62	12.135
270.99	13.763
271.36	11.159
271.73	11.916
272.10	11.522
272.47	10.323
272.84	10.823
273.21	11.321
273.58	10.480
273.95	10.273
274.32	9.917
274.69	10.064
275.06	11.220
275.43	10.638
275.80	10.020
276.17	12.220
276.54	11.642
276.91	11.067
277.28	10.156
277.65	11.605
278.02	9.317
278.39	12.500
278.76	9.091
279.13	11.887
279.50	9.683
279.87	13.944
280.23	10.379
280.60	8.897
280.97	8.872
281.34	9.735
281.71	12.182
282.08	11.708
282.45	9.273
282.82	9.947
283.19	7.130
283.56	10.702
283.92	9.645
284.29	10.758
284.66	10.708
285.03	9.222
285.40	8.979
285.77	9.091
286.14	10.535
286.51	10.000
286.87	9.573
287.24	10.749
287.61	9.310
287.98	8.766
288.35	9.033
288.72	7.944
289.08	9.703
289.45	10.873
289.82	7.967
290.19	8.477
290.56	7.044
290.93	8.308
291.29	8.436
291.66	9.292
292.03	11.047
292.40	11.454
292.77	8.284
293.13	10.299
293.50	8.017
293.87	8.444
294.24	8.593
294.60	6.114
294.97	6.686
295.34	8.886
295.71	8.949
296.08	7.692
296.44	9.354
296.81	7.266
297.18	7.317
297.55	5.805
297.91	6.860
298.28	7.363
298.65	8.225
299.02	9.091
299.38	6.640
299.75	5.121
300.12	7.152
300.48	8.000
300.85	7.768
301.22	6.624
301.59	5.934
301.95	7.053
302.32	6.418
302.69	6.093
303.05	7.515
303.42	6.667
303.79	6.569
304.15	5.944
304.52	6.605
304.89	6.969
305.25	7.309
305.62	8.041
305.99	7.674
306.35	7.159
306.72	7.287
307.09	6.770
307.45	7.883
307.82	5.692
308.19	7.395
308.55	6.149
308.92	7.841
309.29	5.808
309.65	6.363
310.02	6.871
310.38	8.172
310.75	6.441
311.12	7.165
311.48	7.837
311.85	7.862
312.22	7.180
312.58	7.069
312.95	7.814
313.31	7.379
313.68	8.316
314.05	9.369
314.41	8.141
314.78	7.452
315.14	8.441
315.51	8.857
315.87	8.812
316.24	9.633
316.61	9.552
316.97	9.491
317.34	9.883
317.70	10.134
318.07	9.625
318.43	11.448
318.80	11.996
319.16	12.053
319.53	11.163
319.89	13.048
320.26	14.600
320.62	13.194
320.99	15.051
321.35	15.354
321.72	15.298
322.08	15.992
322.45	17.612
322.81	17.539
323.18	18.015
323.54	19.109
323.91	20.000
324.27	19.885
324.64	20.503
325.00	21.280
325.37	23.021
325.73	23.788
326.10	24.095
326.46	24.731
326.83	27.179
327.19	27.156
327.56	27.091
327.92	29.484
328.29	31.056
328.65	31.492
329.01	31.047
329.38	31.360
329.74	31.025
330.11	32.893
330.47	33.425
330.84	34.283
331.20	33.515
331.56	34.404
331.93	35.185
332.29	35.226
332.66	35.398
333.02	35.192
333.38	36.405
333.75	37.166
334.11	37.811
334.48	37.178
334.84	39.154
335.20	38.273
335.57	38.622
335.93	38.125
336.29	39.103
336.66	39.315
337.02	38.643
337.38	40.000
337.75	39.394
338.11	39.481
338.47	39.411
338.84	39.688
339.20	39.541
339.56	39.507
339.93	39.000
340.29	41.123
340.65	39.305
341.02	40.663
341.38	41.815
341.74	40.526
342.11	41.921
342.47	41.850
342.83	40.753
343.20	43.203
343.56	40.017
343.92	42.456
344.28	40.816
344.65	41.617
345.01	40.067
345.37	39.708
345.73	39.509
346.10	41.603
346.46	41.864
346.82	41.928
347.19	41.938
347.55	42.282
347.91	42.557
348.27	43.303
348.63	43.311
349.00	43.932
349.36	42.282
349.72	40.738
350.08	42.382
350.45	43.938
350.81	43.054
351.17	43.679
351.53	43.407
351.89	42.162
352.26	43.331
352.62	43.304
352.98	43.760
353.34	42.810
353.70	42.717
354.07	43.468
354.43	43.254
354.79	43.685
355.15	43.017
355.51	45.004
355.87	44.408
356.24	44.625
356.60	44.908
356.96	45.294
357.32	45.871
357.68	44.016
358.04	43.943
358.40	44.022
358.77	45.540
359.13	45.620
359.49	44.235
359.85	45.238
360.21	45.853
360.57	46.226
360.93	46.615
361.29	45.276
361.66	44.969
362.02	46.418
362.38	46.464
362.74	46.429
363.10	44.708
363.46	44.754
363.82	45.881
364.18	46.182
364.54	47.103
364.90	47.875
365.26	47.132
365.62	48.210
365.98	47.918
366.35	46.060
366.71	47.578
367.07	48.216
367.43	48.186
367.79	49.108
368.15	48.635
368.51	48.256
368.87	48.608
369.23	49.744
369.59	49.891
369.95	48.603
370.31	48.148
370.67	47.971
371.03	51.910
371.39	49.417
371.75	50.074
372.11	48.151
372.47	52.126
372.83	51.657
373.19	50.867
373.55	51.663
373.91	52.356
374.27	49.691
374.63	51.418
374.99	52.048
375.35	50.803
375.71	51.679
376.07	51.715
376.42	51.719
376.78	52.021
377.14	52.035
377.50	53.841
377.86	51.862
378.22	53.224
378.58	52.694
378.94	51.666
379.30	53.117
379.66	53.109
380.02	53.194
380.38	52.702
380.74	53.121
381.09	52.873
381.45	54.026
381.81	54.115
382.17	54.076
382.53	54.277
382.89	55.247
383.25	55.285
383.61	55.204
383.97	55.285
384.32	54.211
384.68	54.771
385.04	55.439
385.40	55.232
385.76	54.668
386.12	54.793
386.48	56.136
386.83	57.601
387.19	56.153
387.55	55.040
387.91	55.139
388.27	55.058
388.62	56.423
388.98	55.098
389.34	55.632
389.70	55.610
390.06	57.731
390.42	56.485
390.77	57.252
391.13	57.562
391.49	56.980
391.85	57.097
392.20	56.656
392.56	56.881
392.92	56.680
393.28	56.509
393.64	56.235
393.99	56.139
394.35	56.079
394.71	55.960
395.07	55.826
395.42	56.613
395.78	57.634
396.14	55.680
396.50	57.581
396.85	57.788
397.21	56.720
397.57	56.603
397.92	56.911
398.28	55.157
398.64	56.392
399.00	56.687
399.35	56.120
399.71	56.134
400.07	57.185
400.42	56.196
400.78	56.936
401.14	56.707
401.49	56.836
401.85	56.201
402.21	56.287
402.57	57.125
402.92	56.431
403.28	57.464
403.63	56.807
403.99	56.688
404.35	56.424
404.70	55.216
405.06	55.853
405.42	57.455
405.77	55.943
406.13	54.853
406.49	55.943
406.84	55.818
407.20	55.201
407.55	58.328
407.91	56.933
408.27	57.626
408.62	54.545
408.98	55.515
409.34	55.412
409.69	56.323
410.05	55.948
410.40	56.942
410.76	55.795
411.11	55.368
411.47	55.335
411.83	55.345
412.18	56.339
412.54	56.600
412.89	56.205
413.25	55.726
413.60	56.208
413.96	54.523
414.31	56.075
414.67	56.210
415.03	55.563
415.38	56.765
415.74	55.820
416.09	56.891
416.45	55.087
416.80	56.775
417.16	57.105
417.51	57.465
417.87	54.978
418.22	56.782
418.58	57.069
418.93	56.081
419.29	56.715
419.64	56.360
420.00	55.061
420.35	54.667
420.71	55.589
421.06	54.833
421.42	56.199
421.77	56.222
422.12	54.632
422.48	54.506
422.83	54.805
423.19	54.641
423.54	55.311
423.90	55.884
424.25	55.723
424.61	54.643
424.96	56.210
425.31	55.316
425.67	54.551
426.02	55.257
426.38	56.227
426.73	54.827
427.09	56.353
427.44	54.687
427.79	54.917
428.15	56.131
428.50	55.822
428.85	55.662
429.21	55.439
429.56	55.884
429.92	55.259
430.27	54.667
430.62	54.275
430.98	55.423
431.33	54.124
431.68	55.079
432.04	53.408
432.39	55.111
432.74	56.792
433.10	56.423
433.45	57.085
433.80	55.211
434.16	55.075
434.51	54.579
434.86	54.960
435.22	56.698
435.57	55.623
435.92	56.466
436.28	55.635
436.63	56.457
436.98	54.264
437.34	56.410
437.69	55.834
438.04	55.930
438.39	55.164
438.75	56.363
439.10	56.145
439.45	56.434
439.81	56.798
440.16	55.901
440.51	57.176
440.86	56.514
441.22	56.007
441.57	56.847
441.92	55.271
442.27	55.920
442.63	54.871
442.98	56.282
443.33	55.109
443.68	55.292
444.03	55.149
444.39	55.404
444.74	55.844
445.09	55.418
445.44	55.221
445.79	56.111
446.15	54.897
446.50	55.358
446.85	55.807
447.20	54.870
447.55	55.946
447.91	55.047
448.26	54.591
448.61	55.907
448.96	55.094
449.31	55.174
449.66	54.924
450.02	53.593
450.37	55.499
450.72	55.274
451.07	54.784
451.42	53.495
451.77	55.666
452.12	54.388
452.47	54.789
452.83	54.953
453.18	53.790
453.53	55.906
453.88	55.227
454.23	54.931
454.58	55.421
454.93	55.563
455.28	55.486
455.63	55.279
455.98	56.667
456.34	54.899
456.69	55.729
457.04	55.542
457.39	54.471
457.74	54.904
458.09	53.767
458.44	53.649
458.79	53.308
459.14	53.894
459.49	53.765
459.84	54.958
460.19	53.094
460.54	53.414
460.89	53.593
461.24	53.977
461.59	53.574
461.94	53.329
462.29	53.887
462.64	53.797
462.99	53.676
463.34	54.667
463.69	54.409
464.04	54.319
464.39	52.058
464.74	54.011
465.09	53.559
465.44	52.853
465.79	52.908
466.14	52.874
466.49	52.836
466.84	52.539
467.19	53.349
467.54	52.688
467.89	53.301
468.24	52.356
468.59	53.419
468.94	52.535
469.29	53.021
469.64	52.477
469.99	54.060
470.34	53.897
470.68	54.454
471.03	53.401
471.38	55.664
471.73	53.831
472.08	53.684
472.43	52.513
472.78	52.798
473.13	52.439
473.48	51.810
473.83	52.744
474.17	51.960
474.52	52.854
474.87	52.248
475.22	51.364
475.57	50.994
475.92	51.620
476.27	50.733
476.61	51.572
476.96	50.412
477.31	50.288
477.66	51.751
478.01	50.392
478.36	51.348
478.70	50.467
479.05	50.000
479.40	50.972
479.75	50.839
480.10	50.199
480.45	49.643
480.79	49.833
481.14	50.245
481.49	50.736
481.84	49.749
482.19	49.796
482.53	49.725
482.88	50.209
483.23	50.280
483.58	49.727
483.92	50.656
484.27	48.889
484.62	49.181
484.97	48.798
485.31	50.377
485.66	49.140
486.01	46.592
486.36	44.151
486.70	43.027
487.05	44.272
487.40	45.480
487.75	46.769
488.09	46.861
488.44	48.065
488.79	48.210
489.13	48.243
489.48	49.184
489.83	48.597
490.17	48.707
490.52	48.051
490.87	48.711
491.22	48.067
491.56	48.155
491.91	48.674
492.26	47.634
492.60	48.065
492.95	48.082
493.30	48.505
493.64	48.437
493.99	48.329
494.34	48.150
494.68	47.985
495.03	48.496
495.37	46.952
495.72	48.441
496.07	48.445
496.41	47.124
496.76	47.142
497.11	47.186
497.45	47.881
497.80	47.697
498.14	47.391
498.49	48.293
498.84	48.130
499.18	47.667
499.53	46.771
499.87	46.878
500.22	46.679
500.56	47.573
500.91	46.875
501.26	47.226
501.60	47.603
501.95	45.371
502.29	47.470
502.64	47.160
502.98	46.751
503.33	46.709
503.67	45.568
504.02	47.053
504.36	46.888
504.71	46.214
505.06	46.458
505.40	46.038
505.75	45.130
506.09	46.307
506.44	46.522
506.78	46.469
507.13	45.785
507.47	46.919
507.82	46.606
508.16	46.657
508.51	47.032
508.85	45.730
509.19	46.071
509.54	45.612
509.88	46.419
510.23	45.604
510.57	46.956
510.92	46.867
511.26	45.118
511.61	45.539
511.95	46.399
512.30	45.387
512.64	45.191
512.98	46.463
513.33	46.092
513.67	44.771
514.02	45.184
514.36	47.460
514.70	45.822
515.05	45.789
515.39	45.261
515.74	46.171
516.08	45.947
516.42	45.727
516.77	45.875
517.11	44.950
517.46	45.711
517.80	46.690
518.14	44.354
518.49	48.016
518.83	45.455
519.17	45.612
519.52	45.161
519.86	45.750
520.20	46.069
520.55	45.721
520.89	45.985
521.23	46.803
521.58	46.339
521.92	45.867
522.26	45.577
522.61	46.044
522.95	44.813
523.29	46.074
523.64	45.549
523.98	45.287
524.32	44.873
524.66	43.716
525.01	45.588
525.35	45.043
525.69	44.212
526.04	45.421
526.38	44.905
526.72	43.804
527.06	44.821
527.41	42.698
527.75	45.595
528.09	45.279
528.43	45.188
528.78	44.745
529.12	44.182
529.46	44.336
529.80	44.493
530.15	44.486
530.49	43.508
530.83	43.418
531.17	45.692
531.51	44.942
531.86	45.226
532.20	45.306
532.54	44.715
532.88	43.710
533.22	43.098
533.57	43.210
533.91	43.107
534.25	43.439
534.59	43.258
534.93	43.010
535.27	43.090
535.62	42.735
535.96	43.063
536.30	42.721
536.64	44.495
536.98	43.663
537.32	43.779
537.66	43.667
538.01	44.042
538.35	43.956
538.69	43.714
539.03	43.145
539.37	41.853
539.71	41.024
540.05	43.072
540.39	42.791
540.73	42.497
541.07	43.738
541.42	43.314
541.76	43.290
542.10	42.755
542.44	42.848
542.78	43.083
543.12	40.883
543.46	42.361
543.80	42.095
544.14	41.849
544.48	42.540
544.82	40.988
545.16	41.900
545.50	41.902
545.84	43.078
546.18	42.424
546.52	43.427
546.86	41.581
547.20	42.684
547.54	42.218
547.88	42.092
548.22	41.096
548.56	41.572
548.90	41.421
549.24	41.347
549.58	41.542
549.92	42.582
550.26	43.040
550.60	41.563
550.94	42.817
551.28	42.794
551.62	42.847
551.96	41.404
552.30	41.638
552.64	41.717
552.98	41.220
553.32	41.740
553.66	41.990
554.00	42.622
554.34	41.339
554.68	41.702
555.02	41.467
555.36	41.684
555.69	40.731
556.03	40.713
556.37	40.791
556.71	40.791
557.05	40.196
557.39	41.498
557.73	40.649
558.07	42.712
558.41	40.593
558.75	42.101
559.08	42.506
559.42	42.026
559.76	41.912
560.10	41.042
560.44	40.391
560.78	40.253
561.12	40.040
561.45	39.896
561.79	39.024
562.13	40.845
562.47	41.667
562.81	41.283
563.15	40.268
563.48	40.451
563.82	39.074
564.16	40.353
564.50	38.281
564.84	39.886
565.17	40.026
565.51	40.703
565.85	40.546
566.19	38.948
566.52	40.152
566.86	40.506
567.20	39.210
567.54	40.011
567.88	38.349
568.21	38.889
568.55	37.209
568.89	38.132
569.23	37.656
569.56	37.247
569.90	37.396
570.24	36.311
570.57	35.770
570.91	35.100
571.25	34.805
571.59	34.904
571.92	35.340
572.26	34.662
572.60	34.715
572.93	34.753
573.27	35.197
573.61	34.841
573.95	34.755
574.28	34.347
574.62	34.257
574.96	34.241
575.29	33.729
575.63	33.918
575.97	34.106
576.30	34.227
576.64	33.763
576.98	33.495
577.31	34.104
577.65	34.072
577.98	33.032
578.32	32.844
578.66	33.585
578.99	33.234
579.33	33.648
579.67	33.520
580.00	33.805
580.34	33.555
580.67	33.491
581.01	34.338
581.35	33.361
581.68	33.141
582.02	32.587
582.35	32.731
582.69	33.447
583.02	32.957
583.36	33.595
583.70	34.565
584.03	33.960
584.37	34.177
584.70	34.692
585.04	33.831
585.37	33.900
585.71	33.153
586.04	33.172
586.38	33.386
586.72	33.665
587.05	33.578
587.39	33.193
587.72	33.986
588.06	33.404
588.39	34.102
588.73	34.057
589.06	34.341
589.40	34.579
589.73	34.389
590.07	34.875
590.40	35.075
590.73	35.090
591.07	36.264
591.40	35.259
591.74	36.190
592.07	34.948
592.41	34.642
592.74	34.382
593.08	33.977
593.41	33.945
593.75	32.948
594.08	33.590
594.41	33.934
594.75	33.900
595.08	34.252
595.42	34.116
595.75	34.366
596.09	34.172
596.42	34.617
596.75	34.867
597.09	35.195
597.42	34.486
597.75	34.541
598.09	35.478
598.42	34.364
598.76	33.847
599.09	33.941
599.42	33.479
599.76	33.492
600.09	33.588
600.42	32.834
600.76	32.857
601.09	33.078
601.42	33.447
601.76	33.321
602.09	33.755
602.42	34.873
602.76	34.623
603.09	33.635
603.42	34.088
603.76	33.346
604.09	33.501
604.42	34.081
604.76	35.133
605.09	34.382
605.42	34.117
605.75	34.975
606.09	34.038
606.42	33.796
606.75	33.886
607.09	33.738
607.42	34.446
607.75	33.418
608.08	33.652
608.42	33.438
608.75	33.995
609.08	33.673
609.41	34.460
609.75	33.778
610.08	34.590
610.41	33.845
610.74	33.822
611.07	34.289
611.41	35.231
611.74	33.836
612.07	35.093
612.40	35.205
612.73	34.421
613.07	35.991
613.40	34.387
613.73	33.456
614.06	34.570
614.39	34.085
614.72	33.895
615.06	34.034
615.39	34.342
615.72	34.202
616.05	33.493
616.38	34.908
616.71	35.689
617.05	35.571
617.38	34.516
617.71	35.495
618.04	35.517
618.37	34.004
618.70	35.905
619.03	37.171
619.36	35.506
619.69	36.408
620.03	37.157
620.36	36.163
620.69	36.781
621.02	36.431
621.35	36.492
621.68	35.981
622.01	36.997
622.34	37.292
622.67	37.567
623.00	35.510
623.33	35.740
623.66	36.598
623.99	37.040
624.32	35.307
624.65	35.028
624.99	34.419
625.32	35.699
625.65	35.763
625.98	36.510
626.31	37.792
626.64	37.224
626.97	36.991
627.30	36.991
627.63	37.490
627.96	38.267
628.29	36.833
628.62	37.877
628.95	39.245
629.28	37.226
629.61	38.405
629.94	40.095
630.26	38.227
630.59	37.464
630.92	38.314
631.25	38.006
631.58	37.638
631.91	38.641
632.24	36.076
632.57	38.930
632.90	39.145
