SpectraSuite Data File
++++++++++++++++++++++++++++++++++++
Date: Wed May 13 15:59:53 PDT 2015
User: schluterlab
Dark Spectrum Present: Yes
Reference Spectrum Present: Yes
Number of Sampled Component Spectra: 1
Spectrometers: USB2E3373
Integration Time (usec): 3000 (USB2E3373)
Spectra Averaged: 3 (USB2E3373)
Boxcar Smoothing: 0 (USB2E3373)
Correct for Electrical Dark: No (USB2E3373)
Strobe/Lamp Enabled: No (USB2E3373)
Correct for Detector Non-linearity: No (USB2E3373)
Correct for Stray Light: No (USB2E3373)
Number of Pixels in Processed Spectrum: 2048
>>>>>Begin Processed Spectral Data<<<<<
178.53	0.000
178.91	-175.000
179.29	-400.000
179.67	-44.444
180.04	-325.000
180.42	650.000
180.80	280.000
181.18	-200.000
181.56	42.857
181.94	0.000
182.31	-142.857
182.69	466.667
183.07	-125.000
183.45	-111.111
183.83	172.727
184.20	10.000
184.58	550.000
184.96	900.000
185.34	-80.000
185.72	-37.500
186.09	-300.000
186.47	350.000
186.85	600.000
187.23	1600.000
187.61	-366.667
187.98	325.000
188.36	209.091
188.74	154.545
189.12	-140.000
189.49	120.000
189.87	-800.000
190.25	-325.000
190.63	171.429
191.00	146.154
191.38	83.333
191.76	-100.000
192.14	500.000
192.51	175.000
192.89	233.333
193.27	75.000
193.65	-225.000
194.02	100.000
194.40	140.000
194.78	60.000
195.15	233.333
195.53	240.000
195.91	-550.000
196.29	150.000
196.66	142.105
197.04	140.000
197.42	0.000
197.79	280.000
198.17	-200.000
198.55	71.429
198.92	275.000
199.30	120.000
199.68	0.000
200.05	72.222
200.43	242.857
200.81	200.000
201.18	500.000
201.56	-366.667
201.94	88.889
202.31	244.444
202.69	75.000
203.07	100.000
203.44	0.000
203.82	200.000
204.19	200.000
204.57	178.571
204.95	150.000
205.32	366.667
205.70	163.636
206.08	142.857
206.45	1000.000
206.83	37.500
207.20	366.667
207.58	80.000
207.96	94.444
208.33	262.500
208.71	-266.667
209.08	428.571
209.46	77.778
209.84	109.091
210.21	-200.000
210.59	350.000
210.96	-62.500
211.34	400.000
211.71	240.000
212.09	116.667
212.46	0.000
212.84	33.333
213.22	175.000
213.59	-1100.000
213.97	266.667
214.34	285.714
214.72	236.364
215.09	240.000
215.47	-300.000
215.84	-650.000
216.22	566.667
216.59	121.429
216.97	475.000
217.34	154.545
217.72	-83.333
218.09	0.000
218.47	-500.000
218.84	255.556
219.22	285.714
219.59	200.000
219.97	14.286
220.34	200.000
220.72	-766.667
221.09	121.429
221.47	400.000
221.84	-283.333
222.22	0.000
222.59	475.000
222.97	-600.000
223.34	440.000
223.72	161.538
224.09	240.000
224.46	350.000
224.84	-100.000
225.21	-240.000
225.59	-1900.000
225.96	180.000
226.34	95.000
226.71	750.000
227.08	25.000
227.46	180.000
227.83	-125.000
228.21	-750.000
228.58	233.333
228.95	-600.000
229.33	-350.000
229.70	733.333
230.08	228.571
230.45	-80.000
230.82	183.333
231.20	266.667
231.57	171.429
231.95	58.333
232.32	50.000
232.69	9.091
233.07	28.571
233.44	130.769
233.81	-466.667
234.19	147.368
234.56	75.000
234.93	16.667
235.31	100.000
235.68	76.923
236.05	71.429
236.43	39.394
236.80	15.789
237.17	700.000
237.55	42.857
237.92	67.857
238.29	114.286
238.67	35.484
239.04	48.276
239.41	66.667
239.79	41.304
240.16	30.952
240.53	47.727
240.91	27.451
241.28	22.000
241.65	24.000
242.02	30.435
242.40	20.968
242.77	25.000
243.14	34.409
243.51	38.202
243.89	15.294
244.26	15.556
244.63	27.957
245.00	12.766
245.38	20.792
245.75	20.561
246.12	14.679
246.49	35.036
246.87	26.400
247.24	26.154
247.61	29.286
247.98	21.569
248.36	14.865
248.73	22.293
249.10	25.478
249.47	18.079
249.84	21.925
250.22	18.182
250.59	19.527
250.96	17.677
251.33	21.327
251.70	21.287
252.08	19.048
252.45	18.834
252.82	16.957
253.19	17.447
253.56	15.294
253.94	20.747
254.31	16.406
254.68	17.692
255.05	19.557
255.42	15.041
255.79	18.382
256.16	18.773
256.54	16.608
256.91	18.505
257.28	15.827
257.65	16.832
258.02	19.255
258.39	16.404
258.76	14.381
259.14	17.857
259.51	16.717
259.88	13.043
260.25	15.106
260.62	15.029
260.99	12.422
261.36	13.814
261.73	13.754
262.10	12.500
262.47	16.620
262.85	16.156
263.22	10.826
263.59	13.390
263.96	15.110
264.33	17.755
264.70	13.158
265.07	17.136
265.44	15.152
265.81	14.355
266.18	13.317
266.55	14.878
266.92	14.742
267.29	15.509
267.66	17.431
268.03	12.955
268.40	14.953
268.77	11.217
269.14	11.712
269.51	13.770
269.88	19.347
270.25	13.770
270.62	11.910
270.99	14.624
271.36	13.948
271.73	13.551
272.10	13.043
272.47	15.269
272.84	13.853
273.21	14.465
273.58	14.192
273.95	13.417
274.32	12.810
274.69	15.418
275.06	15.157
275.43	15.745
275.80	15.431
276.17	13.849
276.54	13.514
276.91	13.636
277.28	12.695
277.65	14.894
278.02	15.114
278.39	17.187
278.76	14.364
279.13	15.472
279.50	13.035
279.87	13.944
280.23	15.768
280.60	12.379
280.97	13.678
281.34	13.274
281.71	14.000
282.08	13.820
282.45	11.818
282.82	14.565
283.19	12.834
283.56	11.754
283.92	13.706
284.29	12.522
284.66	13.612
285.03	12.839
285.40	12.676
285.77	12.290
286.14	12.953
286.51	14.667
286.87	14.530
287.24	13.844
287.61	13.323
287.98	13.312
288.35	12.203
288.72	13.396
289.08	13.928
289.45	12.356
289.82	13.984
290.19	11.774
290.56	12.404
290.93	11.027
291.29	13.650
291.66	11.062
292.03	12.355
292.40	15.419
292.77	11.834
293.13	12.836
293.50	13.557
293.87	11.407
294.24	12.444
294.60	11.936
294.97	12.500
295.34	12.553
295.71	13.636
296.08	11.396
296.44	10.591
296.81	10.304
297.18	13.957
297.55	9.763
297.91	11.609
298.28	11.111
298.65	11.749
299.02	11.989
299.38	10.890
299.75	9.704
300.12	10.345
300.48	11.000
300.85	10.358
301.22	10.573
301.59	9.848
301.95	9.950
302.32	8.601
302.69	10.753
303.05	10.667
303.42	10.864
303.79	10.419
304.15	10.140
304.52	10.545
304.89	10.918
305.25	11.833
305.62	10.872
305.99	10.980
306.35	11.074
306.72	10.650
307.09	10.544
307.45	12.725
307.82	9.933
308.19	11.589
308.55	10.787
308.92	11.600
309.29	10.560
309.65	11.029
310.02	10.042
310.38	10.860
310.75	11.616
311.12	11.054
311.48	11.703
311.85	10.901
312.22	10.614
312.58	10.395
312.95	11.299
313.31	10.971
313.68	11.642
314.05	13.511
314.41	12.663
314.78	10.876
315.14	11.817
315.51	11.226
315.87	12.376
316.24	11.917
316.61	10.819
316.97	11.350
317.34	12.622
317.70	13.384
318.07	12.608
318.43	13.014
318.80	13.308
319.16	12.335
319.53	13.133
319.89	14.095
320.26	12.800
320.62	13.988
320.99	13.131
321.35	13.434
321.72	13.860
322.08	14.511
322.45	15.622
322.81	16.570
323.18	16.956
323.54	15.863
323.91	16.887
324.27	15.296
324.64	14.259
325.00	15.600
325.37	15.560
325.73	17.325
326.10	16.770
326.46	16.039
326.83	18.119
327.19	17.336
327.56	16.812
327.92	17.323
328.29	17.746
328.65	17.956
329.01	17.690
329.38	18.501
329.74	18.652
330.11	18.190
330.47	18.825
330.84	19.393
331.20	18.306
331.56	19.817
331.93	19.352
332.29	19.432
332.66	19.204
333.02	19.561
333.38	19.693
333.75	20.321
334.11	19.484
334.48	18.988
334.84	19.301
335.20	20.455
335.57	19.402
335.93	18.929
336.29	19.963
336.66	20.108
337.02	19.910
337.38	20.741
337.75	19.519
338.11	19.964
338.47	19.245
338.84	20.073
339.20	20.459
339.56	20.347
339.93	20.000
340.29	19.746
340.65	20.321
341.02	21.640
341.38	20.018
341.74	19.211
342.11	19.913
342.47	18.943
342.83	19.949
343.20	20.087
343.56	19.124
343.92	18.509
344.28	19.813
344.65	20.378
345.01	20.118
345.37	19.383
345.73	20.051
346.10	20.460
346.46	20.678
346.82	19.522
347.19	19.716
347.55	20.361
347.91	19.741
348.27	19.967
348.63	19.398
349.00	19.660
349.36	19.704
349.72	20.449
350.08	19.692
350.45	21.644
350.81	20.390
351.17	20.340
351.53	19.656
351.89	19.967
352.26	21.863
352.62	19.407
352.98	19.935
353.34	20.131
353.70	19.804
354.07	19.758
354.43	20.317
354.79	19.791
355.15	20.511
355.51	20.863
355.87	20.816
356.24	20.765
356.60	20.209
356.96	20.998
357.32	20.196
357.68	20.866
358.04	19.715
358.40	21.378
358.77	20.423
359.13	19.968
359.49	20.627
359.85	19.683
360.21	19.537
360.57	20.467
360.93	21.077
361.29	20.257
361.66	20.743
362.02	20.373
362.38	21.521
362.74	21.577
363.10	19.763
363.46	19.956
363.82	20.333
364.18	20.778
364.54	21.991
364.90	21.176
365.26	20.735
365.62	21.549
365.98	21.622
366.35	19.628
366.71	20.824
367.07	20.539
367.43	21.916
367.79	21.056
368.15	22.845
368.51	20.930
368.87	21.913
369.23	21.653
369.59	22.592
369.95	20.735
370.31	22.222
370.67	21.014
371.03	21.723
371.39	21.429
371.75	20.735
372.11	21.622
372.47	22.801
372.83	22.911
373.19	21.676
373.55	21.803
373.91	23.196
374.27	21.649
374.63	20.655
374.99	22.811
375.35	21.493
375.71	21.933
376.07	22.222
376.42	23.040
376.78	22.598
377.14	23.134
377.50	23.510
377.86	22.340
378.22	24.083
378.58	22.682
378.94	22.879
379.30	22.710
379.66	23.160
380.02	22.666
380.38	23.619
380.74	23.349
381.09	24.328
381.45	24.032
381.81	23.587
382.17	23.312
382.53	22.893
382.89	24.444
383.25	24.015
383.61	23.668
383.97	24.015
384.32	23.456
384.68	23.296
385.04	23.110
385.40	24.211
385.76	24.201
386.12	24.028
386.48	24.921
386.83	23.669
387.19	25.170
387.55	23.253
387.91	23.942
388.27	23.666
388.62	24.155
388.98	24.263
389.34	24.468
389.70	23.973
390.06	25.095
390.42	24.643
390.77	24.109
391.13	25.335
391.49	24.365
391.85	24.188
392.20	23.785
392.56	24.116
392.92	24.956
393.28	23.491
393.64	24.341
393.99	24.740
394.35	25.186
394.71	24.592
395.07	23.988
395.42	24.845
395.78	24.555
396.14	24.829
396.50	25.000
396.85	25.302
397.21	23.366
397.57	24.117
397.92	24.639
398.28	23.599
398.64	24.851
399.00	25.014
399.35	24.422
399.71	25.174
400.07	24.660
400.42	25.583
400.78	24.608
401.14	24.329
401.49	24.597
401.85	24.864
402.21	23.952
402.57	24.429
402.92	24.653
403.28	24.297
403.63	24.814
403.99	25.287
404.35	24.182
404.70	24.460
405.06	24.170
405.42	23.955
405.77	23.657
406.13	24.323
406.49	24.897
406.84	24.867
407.20	23.995
407.55	25.718
407.91	24.933
408.27	24.761
408.62	24.624
408.98	24.632
409.34	23.985
409.69	24.774
410.05	24.721
410.40	24.159
410.76	24.851
411.11	24.487
411.47	24.089
411.83	24.801
412.18	24.242
412.54	25.156
412.89	24.699
413.25	24.970
413.60	24.336
413.96	24.833
414.31	24.241
414.67	23.891
415.03	23.974
415.38	24.678
415.74	23.923
416.09	24.298
416.45	24.498
416.80	24.521
417.16	25.134
417.51	25.083
417.87	24.470
418.22	25.110
418.58	25.436
418.93	25.246
419.29	25.207
419.64	25.504
420.00	25.366
420.35	25.681
420.71	25.045
421.06	24.761
421.42	24.854
421.77	25.561
422.12	25.154
422.48	24.339
422.83	26.441
423.19	26.133
423.54	25.943
423.90	25.623
424.25	25.181
424.61	25.417
424.96	26.297
425.31	26.910
425.67	25.112
426.02	26.171
426.38	26.801
426.73	25.512
427.09	25.593
427.44	26.337
427.79	26.049
428.15	26.429
428.50	25.571
428.85	26.341
429.21	26.063
429.56	25.609
429.92	25.918
430.27	26.812
430.62	25.346
430.98	26.103
431.33	25.670
431.68	26.597
432.04	27.476
432.39	27.413
432.74	27.110
433.10	27.278
433.45	27.114
433.80	26.497
434.16	26.549
434.51	27.053
434.86	27.081
435.22	26.959
435.57	27.842
435.92	26.916
436.28	27.817
436.63	28.146
436.98	26.903
437.34	27.907
437.69	28.238
438.04	27.600
438.39	27.940
438.75	28.820
439.10	28.603
439.45	28.512
439.81	28.459
440.16	27.555
440.51	28.295
440.86	28.025
441.22	28.031
441.57	27.919
441.92	28.710
442.27	28.633
442.63	28.173
442.98	29.014
443.33	27.772
443.68	28.446
444.03	28.551
444.39	27.994
444.74	28.193
445.09	28.464
445.44	28.048
445.79	29.342
446.15	29.010
446.50	28.810
446.85	29.137
447.20	29.016
447.55	28.867
447.91	28.351
448.26	28.770
448.61	29.791
448.96	29.845
449.31	30.259
449.66	29.150
450.02	28.802
450.37	29.875
450.72	28.990
451.07	29.311
451.42	28.875
451.77	30.182
452.12	29.215
452.47	29.415
452.83	30.478
453.18	29.034
453.53	29.623
453.88	29.474
454.23	29.468
454.58	29.921
454.93	31.024
455.28	29.863
455.63	30.097
455.98	30.298
456.34	30.276
456.69	30.745
457.04	30.650
457.39	30.684
457.74	29.948
458.09	30.305
458.44	30.730
458.79	30.260
459.14	30.474
459.49	29.597
459.84	30.083
460.19	30.407
460.54	29.340
460.89	29.896
461.24	30.601
461.59	32.423
461.94	30.333
462.29	31.573
462.64	30.823
462.99	30.579
463.34	30.667
463.69	30.769
464.04	31.594
464.39	30.783
464.74	30.541
465.09	30.277
465.44	30.526
465.79	30.313
466.14	29.885
466.49	29.811
466.84	31.582
467.19	30.416
467.54	31.000
467.89	30.432
468.24	31.704
468.59	31.502
468.94	30.849
469.29	31.620
469.64	32.062
469.99	32.003
470.34	31.308
470.68	32.256
471.03	31.361
471.38	32.453
471.73	32.112
472.08	32.237
472.43	31.533
472.78	31.929
473.13	31.130
473.48	31.898
473.83	32.012
474.17	31.487
474.52	31.762
474.87	31.991
475.22	31.863
475.57	30.897
475.92	31.014
476.27	31.398
476.61	31.550
476.96	31.886
477.31	31.763
477.66	31.619
478.01	30.685
478.36	31.200
478.70	31.308
479.05	31.523
479.40	32.037
479.75	31.774
480.10	31.809
480.45	31.699
480.79	30.960
481.14	31.996
481.49	31.894
481.84	32.465
482.19	31.985
482.53	31.743
482.88	31.782
483.23	32.617
483.58	32.894
483.92	31.631
484.27	31.024
484.62	31.466
484.97	31.415
485.31	31.404
485.66	29.794
486.01	28.556
486.36	28.746
486.70	29.118
487.05	29.341
487.40	30.209
487.75	30.915
488.09	31.604
488.44	31.521
488.79	32.550
489.13	32.544
489.48	31.933
489.83	32.413
490.17	32.573
490.52	32.064
490.87	32.248
491.22	32.287
491.56	32.027
491.91	32.620
492.26	31.971
492.60	32.488
492.95	31.665
493.30	32.757
493.64	32.664
493.99	32.405
494.34	32.609
494.68	32.143
495.03	32.378
495.37	32.759
495.72	33.674
496.07	34.014
496.41	32.389
496.76	32.894
497.11	32.283
497.45	32.883
497.80	32.486
498.14	33.527
498.49	33.610
498.84	33.413
499.18	33.238
499.53	32.716
499.87	32.199
500.22	32.407
500.56	33.738
500.91	32.644
501.26	33.333
501.60	33.935
501.95	32.493
502.29	32.943
502.64	33.473
502.98	33.193
503.33	33.135
503.67	33.039
504.02	33.396
504.36	33.411
504.71	33.073
505.06	33.108
505.40	33.593
505.75	33.558
506.09	33.576
506.44	33.991
506.78	33.561
507.13	34.023
507.47	34.747
507.82	34.954
508.16	33.891
508.51	35.008
508.85	32.820
509.19	33.061
509.54	34.031
509.88	34.570
510.23	34.087
510.57	35.088
510.92	35.008
511.26	34.275
511.61	33.869
511.95	34.134
512.30	35.048
512.64	34.551
512.98	34.030
513.33	35.011
513.67	33.298
514.02	34.794
514.36	35.500
514.70	35.196
515.05	34.690
515.39	36.343
515.74	36.318
516.08	35.495
516.42	36.182
516.77	35.786
517.11	34.850
517.46	34.594
517.80	35.192
518.14	35.611
518.49	36.348
518.83	36.307
519.17	36.085
519.52	35.257
519.86	35.938
520.20	36.301
520.55	37.283
520.89	37.044
521.23	36.188
521.58	35.954
521.92	36.987
522.26	36.242
522.61	37.445
522.95	36.341
523.29	36.397
523.64	37.134
523.98	36.845
524.32	35.585
524.66	37.462
525.01	36.826
525.35	36.369
525.69	35.776
526.04	37.009
526.38	35.754
526.72	36.442
527.06	36.723
527.41	34.963
527.75	36.592
528.09	37.123
528.43	37.285
528.78	35.710
529.12	36.182
529.46	36.620
529.80	36.696
530.15	36.137
530.49	35.508
530.83	35.886
531.17	38.120
531.51	37.938
531.86	36.452
532.20	37.158
532.54	36.195
532.88	36.521
533.22	36.290
533.57	35.370
533.91	36.424
534.25	35.966
534.59	36.181
534.93	34.503
535.27	35.486
535.62	35.775
535.96	36.911
536.30	36.300
536.64	37.283
536.98	37.160
537.32	36.208
537.66	36.867
538.01	36.471
538.35	35.811
538.69	35.801
539.03	36.452
539.37	34.952
539.71	33.830
540.05	35.621
540.39	36.013
540.73	35.705
541.07	36.535
541.42	36.595
541.76	35.613
542.10	36.611
542.44	36.093
542.78	37.022
543.12	35.189
543.46	35.016
543.80	37.280
544.14	34.917
544.48	36.190
544.82	35.985
545.16	35.719
545.50	35.861
545.84	36.156
546.18	36.027
546.52	36.683
546.86	36.426
547.20	36.885
547.54	35.538
547.88	35.969
548.22	34.994
548.56	35.849
548.90	35.211
549.24	36.229
549.58	36.562
549.92	36.882
550.26	37.287
550.60	34.371
550.94	36.972
551.28	35.772
551.62	36.233
551.96	36.000
552.30	36.724
552.64	36.579
552.98	37.017
553.32	37.829
553.66	37.082
554.00	36.582
554.34	35.680
554.68	37.268
555.02	36.319
555.36	36.674
555.69	35.724
556.03	34.926
556.37	35.471
556.71	36.835
557.05	36.975
557.39	35.759
557.73	35.992
558.07	37.346
558.41	36.831
558.75	36.517
559.08	37.658
559.42	36.810
559.76	36.544
560.10	37.402
560.44	36.198
560.78	35.462
561.12	36.280
561.45	36.180
561.79	35.728
562.13	35.882
562.47	36.407
562.81	37.029
563.15	35.652
563.48	36.207
563.82	35.943
564.16	35.448
564.50	36.003
564.84	35.209
565.17	34.942
565.51	35.783
565.85	35.660
566.19	36.756
566.52	36.542
566.86	35.744
567.20	34.906
567.54	34.760
567.88	33.895
568.21	34.974
568.55	33.569
568.89	33.804
569.23	34.091
569.56	33.077
569.90	33.321
570.24	32.616
570.57	31.962
570.91	31.965
571.25	31.686
571.59	32.018
571.92	31.711
572.26	31.600
572.60	32.583
572.93	31.904
573.27	32.121
573.61	31.742
573.95	31.421
574.28	31.508
574.62	30.879
574.96	30.920
575.29	31.038
575.63	31.580
575.97	31.372
576.30	31.678
576.64	31.438
576.98	31.259
577.31	30.776
577.65	31.097
577.98	30.579
578.32	30.282
578.66	30.629
578.99	30.906
579.33	31.155
579.67	30.820
580.00	31.743
580.34	31.585
580.67	31.033
581.01	31.549
581.35	30.865
581.68	30.444
582.02	30.296
582.35	30.741
582.69	31.002
583.02	31.032
583.36	31.289
583.70	31.893
584.03	31.844
584.37	32.437
584.70	32.132
585.04	31.238
585.37	31.431
585.71	30.945
586.04	31.022
586.38	31.505
586.72	32.173
587.05	31.079
587.39	31.478
587.72	31.976
588.06	31.270
588.39	31.989
588.73	32.180
589.06	33.032
589.40	32.593
589.73	33.439
590.07	32.847
590.40	33.321
590.73	33.685
591.07	34.432
591.40	34.247
591.74	34.286
592.07	34.642
592.41	33.154
592.74	32.996
593.08	32.312
593.41	32.173
593.75	31.761
594.08	32.015
594.41	32.803
594.75	32.569
595.08	32.570
595.42	32.504
595.75	33.120
596.09	33.759
596.42	33.556
596.75	33.812
597.09	33.333
597.42	32.504
597.75	33.506
598.09	33.870
598.42	33.720
598.76	32.793
599.09	31.889
599.42	32.606
599.76	32.906
600.09	32.714
600.42	32.213
600.76	31.857
601.09	32.386
601.42	32.344
601.76	32.258
602.09	33.004
602.42	33.280
602.76	33.454
603.09	32.337
603.42	33.503
603.76	32.774
604.09	32.648
604.42	32.898
604.76	33.488
605.09	33.814
605.42	32.920
605.75	33.237
606.09	32.534
606.42	33.143
606.75	32.974
607.09	33.194
607.42	32.050
607.75	33.291
608.08	32.783
608.42	33.348
608.75	32.642
609.08	32.609
609.41	33.460
609.75	33.349
610.08	34.307
610.41	33.007
610.74	33.822
611.07	34.042
611.41	33.955
611.74	33.635
612.07	34.213
612.40	34.313
612.73	33.526
613.07	33.028
613.40	34.334
613.73	33.403
614.06	33.602
614.39	34.137
614.72	33.158
615.06	33.981
615.39	33.015
615.72	32.618
616.05	33.333
616.38	34.408
616.71	34.976
617.05	34.570
617.38	35.057
617.71	34.955
618.04	34.976
618.37	33.767
618.70	34.972
619.03	36.184
619.36	35.913
619.69	35.634
620.03	36.126
620.36	35.695
620.69	36.233
621.02	36.947
621.35	35.630
621.68	34.891
622.01	36.533
622.34	35.325
622.67	35.665
623.00	34.923
623.33	34.882
623.66	35.597
623.99	35.788
624.32	35.093
624.65	34.746
624.99	35.623
625.32	35.119
625.65	35.988
625.98	36.587
626.31	35.925
626.64	37.224
626.97	36.658
627.30	36.076
627.63	36.505
627.96	37.342
628.29	35.346
628.62	36.414
628.95	38.962
629.28	37.318
629.61	38.680
629.94	38.000
630.26	36.797
630.59	37.464
630.92	36.782
631.25	36.920
631.58	37.938
631.91	37.525
632.24	37.553
632.57	39.035
632.90	37.829
633.23	38.702
