SpectraSuite Data File
++++++++++++++++++++++++++++++++++++
Date: Wed May 13 16:49:56 PDT 2015
User: schluterlab
Dark Spectrum Present: Yes
Reference Spectrum Present: Yes
Number of Sampled Component Spectra: 1
Spectrometers: USB2E3373
Integration Time (usec): 3000 (USB2E3373)
Spectra Averaged: 3 (USB2E3373)
Boxcar Smoothing: 0 (USB2E3373)
Correct for Electrical Dark: No (USB2E3373)
Strobe/Lamp Enabled: No (USB2E3373)
Correct for Detector Non-linearity: No (USB2E3373)
Correct for Stray Light: No (USB2E3373)
Number of Pixels in Processed Spectrum: 2048
>>>>>Begin Processed Spectral Data<<<<<
178.53	0.000
178.91	-1025.000
179.29	-1225.000
179.67	-216.667
180.04	-1000.000
180.42	2350.000
180.80	1000.000
181.18	-900.000
181.56	614.286
181.94	0.000
182.31	-642.857
182.69	1766.667
183.07	-525.000
183.45	-433.333
183.83	536.364
184.20	-370.000
184.58	2650.000
184.96	4400.000
185.34	-880.000
185.72	-537.500
186.09	-2500.000
186.47	2800.000
186.85	2350.000
187.23	4200.000
187.61	-1433.333
187.98	1300.000
188.36	518.182
188.74	400.000
189.12	-880.000
189.49	580.000
189.87	-3900.000
190.25	-1200.000
190.63	407.143
191.00	384.615
191.38	883.333
191.76	-1100.000
192.14	1200.000
192.51	575.000
192.89	883.333
193.27	550.000
193.65	-1175.000
194.02	440.000
194.40	860.000
194.78	520.000
195.15	483.333
195.53	570.000
195.91	-2150.000
196.29	387.500
196.66	284.211
197.04	-400.000
197.42	0.000
197.79	630.000
198.17	-4000.000
198.55	557.143
198.92	725.000
199.30	880.000
199.68	0.000
200.05	333.333
200.43	885.714
200.81	4100.000
201.18	1533.333
201.56	-1533.333
201.94	511.111
202.31	500.000
202.69	416.667
203.07	430.000
203.44	0.000
203.82	1225.000
204.19	757.143
204.57	407.143
204.95	587.500
205.32	1666.667
205.70	563.636
206.08	321.429
206.45	2550.000
206.83	356.250
207.20	783.333
207.58	740.000
207.96	327.778
208.33	662.500
208.71	-666.667
209.08	657.143
209.46	555.556
209.84	472.727
210.21	-1366.667
210.59	1450.000
210.96	-487.500
211.34	2650.000
211.71	560.000
212.09	700.000
212.46	0.000
212.84	1533.333
213.22	1200.000
213.59	-4200.000
213.97	733.333
214.34	757.143
214.72	527.273
215.09	980.000
215.47	-2400.000
215.84	-2150.000
216.22	1500.000
216.59	407.143
216.97	1200.000
217.34	427.273
217.72	-666.667
218.09	0.000
218.47	-4600.000
218.84	644.444
219.22	742.857
219.59	1733.333
219.97	-628.571
220.34	960.000
220.72	-1566.667
221.09	400.000
221.47	1475.000
221.84	-783.333
222.22	0.000
222.59	1500.000
222.97	-2350.000
223.34	1140.000
223.72	353.846
224.09	1080.000
224.46	2200.000
224.84	-4600.000
225.21	-780.000
225.59	-4700.000
225.96	540.000
226.34	270.000
226.71	2550.000
227.08	575.000
227.46	510.000
227.83	-1125.000
228.21	-2100.000
228.58	500.000
228.95	-2200.000
229.33	-2100.000
229.70	1733.333
230.08	828.571
230.45	-920.000
230.82	483.333
231.20	650.000
231.57	628.571
231.95	408.333
232.32	209.091
232.69	327.273
233.07	657.143
233.44	353.846
233.81	-1700.000
234.19	242.105
234.56	400.000
234.93	316.667
235.31	354.545
235.68	253.846
236.05	321.429
236.43	127.273
236.80	257.895
237.17	3000.000
237.55	219.048
237.92	207.143
238.29	238.095
238.67	161.290
239.04	172.414
239.41	111.111
239.79	84.783
240.16	104.762
240.53	120.455
240.91	94.118
241.28	106.000
241.65	76.000
242.02	86.957
242.40	59.677
242.77	76.667
243.14	60.215
243.51	61.798
243.89	56.471
244.26	54.444
244.63	53.763
245.00	41.489
245.38	49.505
245.75	42.056
246.12	42.202
246.49	40.876
246.87	45.600
247.24	46.154
247.61	45.714
247.98	37.908
248.36	29.054
248.73	29.936
249.10	35.032
249.47	28.249
249.84	36.364
250.22	29.947
250.59	31.361
250.96	27.273
251.33	31.280
251.70	30.693
252.08	22.381
252.45	19.731
252.82	24.348
253.19	25.957
253.56	21.961
253.94	22.407
254.31	19.922
254.68	20.769
255.05	23.616
255.42	23.171
255.79	19.118
256.16	17.329
256.54	19.435
256.91	19.573
257.28	15.108
257.65	16.502
258.02	17.391
258.39	18.612
258.76	17.391
259.14	19.643
259.51	16.717
259.88	14.907
260.25	19.940
260.62	18.497
260.99	16.770
261.36	16.517
261.73	16.332
262.10	14.244
262.47	16.338
262.85	16.435
263.22	11.111
263.59	14.245
263.96	12.912
264.33	17.493
264.70	17.105
265.07	17.136
265.44	14.646
265.81	13.382
266.18	14.573
266.55	12.683
266.92	11.794
267.29	12.963
267.66	13.303
268.03	11.364
268.40	14.486
268.77	12.411
269.14	11.712
269.51	14.673
269.88	13.054
270.25	11.738
270.62	11.910
270.99	14.839
271.36	13.305
271.73	11.449
272.10	11.087
272.47	12.688
272.84	15.584
273.21	14.465
273.58	11.572
273.95	12.579
274.32	12.810
274.69	11.349
275.06	12.205
275.43	12.128
275.80	10.220
276.17	12.220
276.54	14.553
276.91	12.451
277.28	11.133
277.65	12.186
278.02	9.731
278.39	11.523
278.76	11.818
279.13	12.642
279.50	11.732
279.87	12.749
280.23	13.373
280.60	10.058
280.97	10.721
281.34	11.150
281.71	11.636
282.08	11.324
282.45	10.364
282.82	10.302
283.19	9.804
283.56	12.632
283.92	11.168
284.29	8.466
284.66	8.893
285.03	9.403
285.40	11.092
285.77	10.101
286.14	8.636
286.51	10.333
286.87	9.744
287.24	10.586
287.61	9.470
287.98	10.227
288.35	10.777
288.72	9.813
289.08	9.859
289.45	8.237
289.82	11.057
290.19	7.535
290.56	10.260
290.93	8.761
291.29	8.282
291.66	9.292
292.03	10.901
292.40	12.041
292.77	8.728
293.13	8.806
293.50	10.787
293.87	7.556
294.24	7.852
294.60	7.860
294.97	8.576
295.34	9.027
295.71	7.812
296.08	7.977
296.44	7.015
296.81	7.662
297.18	8.401
297.55	6.860
297.91	8.179
298.28	9.237
298.65	10.183
299.02	8.037
299.38	5.843
299.75	5.256
300.12	7.407
300.48	7.125
300.85	8.631
301.22	7.643
301.59	7.071
301.95	8.438
302.32	8.216
302.69	8.124
303.05	7.152
303.42	8.025
303.79	7.928
304.15	6.876
304.52	5.794
304.89	7.433
305.25	6.265
305.62	8.041
305.99	8.028
306.35	6.711
306.72	7.848
307.09	8.435
307.45	8.108
307.82	6.585
308.19	8.278
308.55	7.767
308.92	7.626
309.29	7.497
309.65	6.893
310.02	7.717
310.38	7.419
310.75	7.497
311.12	7.165
311.48	6.792
311.85	8.386
312.22	8.117
312.58	7.380
312.95	7.920
313.31	8.447
313.68	8.108
314.05	9.270
314.41	7.437
314.78	8.359
315.14	6.653
315.51	7.827
315.87	8.416
316.24	7.249
316.61	7.407
316.97	8.806
317.34	7.436
317.70	8.317
318.07	8.181
318.43	8.806
318.80	8.997
319.16	8.192
319.53	7.786
319.89	9.238
320.26	9.800
320.62	8.234
320.99	8.889
321.35	8.889
321.72	8.111
322.08	8.885
322.45	10.149
322.81	8.818
323.18	9.345
323.54	10.019
323.91	9.340
324.27	8.222
324.64	8.574
325.00	9.378
325.37	10.009
325.73	10.592
326.10	8.473
326.46	8.244
326.83	9.577
327.19	9.564
327.56	8.972
327.92	9.186
328.29	9.583
328.65	9.024
329.01	9.567
329.38	9.436
329.74	9.695
330.11	8.765
330.47	9.275
330.84	10.018
331.20	8.925
331.56	10.367
331.93	8.704
332.29	9.583
332.66	10.619
333.02	8.410
333.38	10.479
333.75	10.428
334.11	10.053
334.48	9.228
334.84	8.640
335.20	9.818
335.57	8.432
335.93	8.929
336.29	9.158
336.66	9.648
337.02	8.054
337.38	9.907
337.75	7.932
338.11	8.774
338.47	8.748
338.84	9.441
339.20	7.798
339.56	10.675
339.93	8.091
340.29	7.971
340.65	7.932
341.02	9.948
341.38	9.520
341.74	8.772
342.11	8.734
342.47	9.339
342.83	8.818
343.20	9.610
343.56	8.846
343.92	8.772
344.28	8.929
344.65	9.544
345.01	7.744
345.37	8.491
345.73	8.037
346.10	8.014
346.46	8.475
346.82	9.061
347.19	7.686
347.55	8.374
347.91	9.142
348.27	9.121
348.63	8.027
349.00	8.576
349.36	7.718
349.72	9.222
350.08	8.104
350.45	9.113
350.81	8.530
351.17	8.347
351.53	7.781
351.89	8.086
352.26	9.471
352.62	8.901
352.98	8.347
353.34	8.463
353.70	7.856
354.07	8.548
354.43	8.175
354.79	8.206
355.15	8.460
355.51	8.473
355.87	8.571
356.24	8.306
356.60	8.500
356.96	8.045
357.32	8.013
357.68	8.110
358.04	8.551
358.40	8.551
358.77	9.155
359.13	7.814
359.49	8.784
359.85	6.984
360.21	7.416
360.57	8.638
360.93	8.231
361.29	8.239
361.66	7.895
362.02	8.582
362.38	7.985
362.74	7.738
363.10	7.772
363.46	8.364
363.82	8.088
364.18	8.297
364.54	8.618
364.90	8.924
365.26	7.279
365.62	7.962
365.98	8.181
366.35	8.381
366.71	8.604
367.07	8.012
367.43	8.345
367.79	8.208
368.15	9.124
368.51	8.358
368.87	8.851
369.23	7.827
369.59	8.110
369.95	8.309
370.31	8.832
370.67	8.333
371.03	8.764
371.39	9.257
371.75	8.382
372.11	9.104
372.47	9.238
372.83	9.078
373.19	8.237
373.55	8.647
373.91	9.352
374.27	8.522
374.63	8.073
374.99	8.969
375.35	7.467
375.71	9.047
376.07	9.191
376.42	8.528
376.78	9.013
377.14	9.227
377.50	8.940
377.86	8.710
378.22	9.039
378.58	7.957
378.94	8.234
379.30	8.142
379.66	9.201
380.02	8.722
380.38	8.197
380.74	9.064
381.09	8.924
381.45	9.650
381.81	10.135
382.17	9.618
382.53	9.623
382.89	9.506
383.25	8.881
383.61	9.789
383.97	9.381
384.32	9.482
384.68	9.294
385.04	9.281
385.40	9.659
385.76	10.074
386.12	9.326
386.48	10.824
386.83	10.648
387.19	10.142
387.55	9.957
387.91	9.794
388.27	9.687
388.62	10.141
388.98	9.828
389.34	9.950
389.70	10.607
390.06	10.646
390.42	10.960
390.77	11.005
391.13	9.381
391.49	10.660
391.85	10.185
392.20	9.274
392.56	10.732
392.92	10.124
393.28	9.408
393.64	10.791
393.99	9.530
394.35	10.856
394.71	11.104
395.07	10.966
395.42	10.445
395.78	11.069
396.14	10.428
396.50	11.028
396.85	10.871
397.21	10.543
397.57	10.167
397.92	11.058
398.28	10.090
398.64	10.753
399.00	10.856
399.35	10.378
399.71	10.532
400.07	11.177
400.42	11.227
400.78	11.279
401.14	10.915
401.49	10.925
401.85	9.921
402.21	10.000
402.57	9.747
402.92	11.223
403.28	11.305
403.63	10.891
403.99	10.828
404.35	11.091
404.70	10.671
405.06	10.250
405.42	10.917
405.77	10.400
406.13	10.440
406.49	10.822
406.84	10.337
407.20	10.402
407.55	10.274
407.91	10.800
408.27	10.849
408.62	11.078
408.98	11.029
409.34	10.763
409.69	10.774
410.05	10.409
410.40	11.193
410.76	10.633
411.11	11.399
411.47	9.585
411.83	11.118
412.18	10.390
412.54	9.963
412.89	11.687
413.25	10.508
413.60	11.365
413.96	10.018
414.31	10.510
414.67	10.837
415.03	10.861
415.38	11.534
415.74	10.997
416.09	10.908
416.45	10.308
416.80	10.311
417.16	11.796
417.51	11.214
417.87	10.276
418.22	10.158
418.58	11.104
418.93	10.197
419.29	11.649
419.64	10.516
420.00	11.159
420.35	11.072
420.71	10.699
421.06	10.561
421.42	9.474
421.77	10.706
422.12	9.882
422.48	10.200
422.83	10.250
423.19	10.387
423.54	10.389
423.90	11.304
424.25	10.553
424.61	10.357
424.96	10.962
425.31	10.465
425.67	10.899
426.02	10.743
426.38	10.317
426.73	9.713
427.09	10.152
427.44	10.236
427.79	10.868
428.15	11.071
428.50	10.240
428.85	11.085
429.21	10.160
429.56	10.316
429.92	10.468
430.27	10.030
430.62	9.063
430.98	10.119
431.33	10.155
431.68	10.262
432.04	10.064
432.39	9.823
432.74	10.473
433.10	10.470
433.45	10.729
433.80	9.701
434.16	10.897
434.51	10.474
434.86	11.174
435.22	10.228
435.57	10.334
435.92	10.532
436.28	10.024
436.63	10.982
436.98	9.788
437.34	10.614
437.69	10.852
438.04	9.612
438.39	10.866
438.75	10.982
439.10	10.615
439.45	10.685
439.81	10.151
440.16	10.728
440.51	10.545
440.86	11.581
441.22	10.512
441.57	10.510
441.92	10.235
442.27	10.710
442.63	10.532
442.98	10.873
443.33	10.924
443.68	10.790
444.03	10.102
444.39	10.224
444.74	10.985
445.09	10.943
445.44	10.716
445.79	10.391
446.15	10.852
446.50	10.609
446.85	10.483
447.20	10.097
447.55	10.888
447.91	10.370
448.26	10.684
448.61	10.627
448.96	10.742
449.31	10.855
449.66	10.467
450.02	9.694
450.37	10.147
450.72	10.434
451.07	10.360
451.42	10.030
451.77	10.804
452.12	10.797
452.47	11.318
452.83	10.373
453.18	10.575
453.53	11.008
453.88	10.750
454.23	10.938
454.58	11.024
454.93	11.443
455.28	10.224
455.63	11.165
455.98	11.964
456.34	11.181
456.69	10.645
457.04	10.836
457.39	10.228
457.74	10.273
458.09	11.271
458.44	10.604
458.79	10.412
459.14	10.553
459.49	11.150
459.84	10.748
460.19	10.371
460.54	10.995
460.89	10.422
461.24	10.625
461.59	12.377
461.94	10.111
462.29	11.217
462.64	10.721
462.99	10.410
463.34	11.400
463.69	9.756
464.04	11.304
464.39	10.667
464.74	10.873
465.09	10.736
465.44	10.582
465.79	9.620
466.14	10.564
466.49	9.789
466.84	10.800
467.19	10.803
467.54	11.688
467.89	10.684
468.24	10.529
468.59	11.233
468.94	10.385
469.29	10.733
469.64	11.847
469.99	11.231
470.34	10.304
470.68	11.063
471.03	10.272
471.38	11.119
471.73	10.060
472.08	11.250
472.43	10.678
472.78	11.126
473.13	10.655
473.48	11.548
473.83	10.976
474.17	9.770
474.52	11.414
474.87	11.500
475.22	10.099
475.57	10.317
475.92	10.462
476.27	10.203
476.61	10.535
476.96	10.390
477.31	10.466
477.66	9.956
478.01	10.298
478.36	10.735
478.70	9.398
479.05	10.650
479.40	10.082
479.75	10.168
480.10	9.742
480.45	9.329
480.79	9.651
481.14	9.344
481.49	10.157
481.84	9.739
482.19	9.859
482.53	9.817
482.88	9.865
483.23	10.000
483.58	9.918
483.92	9.560
484.27	9.150
484.62	9.224
484.97	9.145
485.31	9.795
485.66	8.604
486.01	7.996
486.36	7.831
486.70	7.796
487.05	8.029
487.40	8.299
487.75	8.543
488.09	8.887
488.44	8.806
488.79	9.078
489.13	8.900
489.48	9.054
489.83	9.150
490.17	9.206
490.52	9.345
490.87	9.679
491.22	9.231
491.56	8.702
491.91	9.493
492.26	9.141
492.60	9.631
492.95	8.793
493.30	9.486
493.64	8.586
493.99	8.728
494.34	9.251
494.68	9.524
495.03	9.117
495.37	9.958
495.72	9.357
496.07	9.374
496.41	8.717
496.76	9.279
497.11	9.140
497.45	9.269
497.80	9.165
498.14	8.454
498.49	8.927
498.84	9.971
499.18	8.905
499.53	9.402
499.87	9.320
500.22	8.761
500.56	9.515
500.91	9.135
501.26	9.246
501.60	9.492
501.95	9.074
502.29	9.138
502.64	8.799
502.98	9.116
503.33	8.501
503.67	8.817
504.02	8.934
504.36	9.499
504.71	9.526
505.06	9.349
505.40	8.945
505.75	8.582
506.09	8.746
506.44	9.028
506.78	9.742
507.13	9.339
507.47	9.798
507.82	9.574
508.16	9.271
508.51	9.488
508.85	9.086
509.19	9.235
509.54	9.337
509.88	9.016
510.23	9.769
510.57	10.165
510.92	9.322
511.26	9.353
511.61	9.077
511.95	9.708
512.30	9.597
512.64	8.812
512.98	9.057
513.33	9.797
513.67	9.712
514.02	9.578
514.36	10.049
514.70	8.910
515.05	9.202
515.39	9.647
515.74	9.628
516.08	9.391
516.42	9.989
516.77	10.647
517.11	9.711
517.46	10.158
517.80	9.175
518.14	8.686
518.49	10.093
518.83	9.602
519.17	9.411
519.52	9.791
519.86	9.755
520.20	10.000
520.55	10.174
520.89	9.367
521.23	10.555
521.58	9.484
521.92	9.982
522.26	9.579
522.61	9.283
522.95	9.638
523.29	9.251
523.64	9.878
523.98	10.228
524.32	9.590
524.66	10.403
525.01	9.926
525.35	8.922
525.69	9.421
526.04	10.156
526.38	9.823
526.72	9.755
527.06	10.044
527.41	8.911
527.75	9.775
528.09	9.570
528.43	9.943
528.78	10.572
529.12	9.394
529.46	9.920
529.80	9.715
530.15	10.280
530.49	9.846
530.83	10.190
531.17	10.574
531.51	10.700
531.86	9.419
532.20	9.713
532.54	10.378
532.88	9.499
533.22	9.744
533.57	9.506
533.91	9.693
534.25	9.660
534.59	9.701
534.93	10.054
535.27	10.139
535.62	9.951
535.96	9.605
536.30	9.663
536.64	9.401
536.98	9.954
537.32	9.743
537.66	9.867
538.01	9.151
538.35	10.601
538.69	9.636
539.03	9.552
539.37	8.754
539.71	9.008
540.05	10.131
540.39	9.369
540.73	9.767
541.07	9.409
541.42	9.459
541.76	9.806
542.10	9.897
542.44	8.874
542.78	10.013
543.12	9.149
543.46	9.836
543.80	9.369
544.14	8.216
544.48	9.905
544.82	9.173
545.16	8.718
545.50	9.319
545.84	9.274
546.18	10.303
546.52	9.773
546.86	9.347
547.20	9.912
547.54	9.486
547.88	10.459
548.22	9.651
548.56	9.874
548.90	9.603
549.24	8.687
549.58	9.754
549.92	9.066
550.26	10.298
550.60	10.028
550.94	9.577
551.28	9.071
551.62	9.561
551.96	9.053
552.30	9.693
552.64	9.669
552.98	9.627
553.32	10.047
553.66	10.293
554.00	9.334
554.34	9.524
554.68	9.800
555.02	9.591
555.36	9.325
555.69	9.472
556.03	9.489
556.37	9.141
556.71	9.004
557.05	9.104
557.39	9.097
557.73	9.598
558.07	9.282
558.41	10.058
558.75	9.699
559.08	10.365
559.42	8.844
559.76	9.853
560.10	9.707
560.44	10.063
560.78	9.115
561.12	9.169
561.45	10.365
561.79	9.624
562.13	8.853
562.47	9.699
562.81	8.647
563.15	9.498
563.48	9.218
563.82	8.415
564.16	8.175
564.50	8.398
564.84	9.735
565.17	8.880
565.51	9.265
565.85	9.201
566.19	8.641
566.52	9.500
566.86	8.439
567.20	9.021
567.54	8.390
567.88	8.093
568.21	8.995
568.55	8.342
568.89	7.977
569.23	7.709
569.56	8.381
569.90	7.509
570.24	7.714
570.57	7.650
570.91	7.014
571.25	7.783
571.59	7.629
571.92	7.172
572.26	6.730
572.60	7.477
572.93	7.346
573.27	7.453
573.61	7.342
573.95	7.313
574.28	6.759
574.62	6.876
574.96	6.619
575.29	7.008
575.63	6.885
575.97	6.977
576.30	7.037
576.64	7.051
576.98	6.976
577.31	6.885
577.65	6.884
577.98	6.534
578.32	6.394
578.66	6.771
578.99	6.711
579.33	6.681
579.67	6.738
580.00	7.073
580.34	7.072
580.67	6.760
581.01	7.083
581.35	6.402
581.68	6.900
582.02	6.489
582.35	6.438
582.69	6.538
583.02	6.382
583.36	6.733
583.70	6.843
584.03	7.158
584.37	7.273
584.70	6.870
585.04	7.118
585.37	6.897
585.71	7.096
586.04	6.886
586.38	6.844
586.72	7.595
587.05	6.846
587.39	6.781
587.72	7.137
588.06	6.910
588.39	6.968
588.73	7.070
589.06	7.541
589.40	6.902
589.73	7.568
590.07	7.758
590.40	7.125
590.73	7.494
591.07	7.814
591.40	8.013
591.74	8.182
592.07	8.333
592.41	7.730
592.74	7.341
593.08	7.628
593.41	7.213
593.75	7.402
594.08	7.375
594.41	7.458
594.75	7.283
595.08	7.838
595.42	7.531
595.75	7.051
596.09	7.398
596.42	8.016
596.75	7.640
597.09	8.485
597.42	7.125
597.75	7.503
598.09	7.783
598.42	7.990
598.76	7.702
599.09	7.526
599.42	7.424
599.76	7.687
600.09	6.849
600.42	7.305
600.76	7.500
601.09	7.505
601.42	7.230
601.76	7.666
602.09	7.154
602.42	8.201
602.76	7.981
603.09	7.868
603.42	8.278
603.76	7.203
604.09	7.173
604.42	7.093
604.76	8.477
605.09	8.038
605.42	7.183
605.75	7.864
606.09	7.157
606.42	7.274
606.75	7.632
607.09	8.037
607.42	7.403
607.75	7.637
608.08	7.599
608.42	8.382
608.75	7.529
609.08	7.632
609.41	7.615
609.75	7.766
610.08	8.011
610.41	7.588
610.74	7.758
611.07	7.757
611.41	8.292
611.74	8.597
612.07	8.023
612.40	8.657
612.73	8.053
613.07	8.944
613.40	8.741
613.73	7.236
614.06	7.849
614.39	8.862
614.72	8.632
615.06	9.139
615.39	7.909
615.72	7.873
616.05	8.506
616.38	8.060
616.71	7.957
617.05	7.951
617.38	8.839
617.71	8.769
618.04	8.474
618.37	8.457
618.70	9.085
619.03	8.618
619.36	9.572
619.69	9.437
620.03	9.547
620.36	10.027
620.69	9.315
621.02	8.997
621.35	8.927
621.68	8.645
622.01	9.830
622.34	9.531
622.67	9.962
623.00	8.731
623.33	8.792
623.66	9.006
623.99	8.395
624.32	8.274
624.65	8.616
624.99	8.215
625.32	8.979
625.65	9.842
625.98	9.454
626.31	10.809
626.64	10.122
626.97	10.058
627.30	8.894
627.63	10.172
627.96	10.345
628.29	10.061
628.62	10.796
628.95	11.792
629.28	10.401
629.61	11.457
629.94	9.810
630.26	11.153
630.59	11.058
630.92	10.536
631.25	10.267
631.58	11.111
631.91	10.243
632.24	11.076
632.57	10.178
632.90	10.746
633.23	11.409
633.56	11.525
633.89	11.438
634.22	9.762
634.55	11.716
634.88	10.539
635.20	12.306
635.53	11.446
635.86	10.644
636.19	12.824
636.52	10.381
636.85	11.913
637.18	10.023
637.51	11.229
637.83	8.631
638.16	12.148
638.49	11.713
638.82	12.516
639.15	12.000
639.48	12.469
639.81	13.271
640.13	13.021
640.46	13.423
640.79	12.021
641.12	12.242
641.45	12.570
641.77	12.518
642.10	12.865
642.43	11.562
642.76	11.300
643.09	12.423
643.41	12.595
643.74	12.191
644.07	13.262
644.40	14.417
644.73	14.488
645.05	14.263
645.38	12.006
645.71	12.560
646.04	14.618
