SpectraSuite Data File
++++++++++++++++++++++++++++++++++++
Date: Wed May 13 16:32:11 PDT 2015
User: schluterlab
Dark Spectrum Present: Yes
Reference Spectrum Present: Yes
Number of Sampled Component Spectra: 1
Spectrometers: USB2E3373
Integration Time (usec): 3000 (USB2E3373)
Spectra Averaged: 3 (USB2E3373)
Boxcar Smoothing: 0 (USB2E3373)
Correct for Electrical Dark: No (USB2E3373)
Strobe/Lamp Enabled: No (USB2E3373)
Correct for Detector Non-linearity: No (USB2E3373)
Correct for Stray Light: No (USB2E3373)
Number of Pixels in Processed Spectrum: 2048
>>>>>Begin Processed Spectral Data<<<<<
178.53	0.000
178.91	-1250.000
179.29	-1125.000
179.67	-200.000
180.04	-1200.000
180.42	1950.000
180.80	1040.000
181.18	-1000.000
181.56	485.714
181.94	0.000
182.31	-528.571
182.69	1633.333
183.07	-500.000
183.45	-433.333
183.83	454.545
184.20	-360.000
184.58	2100.000
184.96	5100.000
185.34	-760.000
185.72	-587.500
186.09	-2100.000
186.47	2550.000
186.85	2200.000
187.23	3900.000
187.61	-1200.000
187.98	1150.000
188.36	490.909
188.74	472.727
189.12	-780.000
189.49	500.000
189.87	-4300.000
190.25	-1175.000
190.63	450.000
191.00	400.000
191.38	750.000
191.76	-1225.000
192.14	1400.000
192.51	537.500
192.89	816.667
193.27	525.000
193.65	-900.000
194.02	440.000
194.40	1000.000
194.78	510.000
195.15	525.000
195.53	580.000
195.91	-1900.000
196.29	325.000
196.66	252.632
197.04	-290.000
197.42	0.000
197.79	610.000
198.17	-4800.000
198.55	714.286
198.92	637.500
199.30	720.000
199.68	0.000
200.05	300.000
200.43	585.714
200.81	4100.000
201.18	1600.000
201.56	-1733.333
201.94	522.222
202.31	533.333
202.69	441.667
203.07	440.000
203.44	0.000
203.82	800.000
204.19	600.000
204.57	450.000
204.95	600.000
205.32	1400.000
205.70	454.545
206.08	371.429
206.45	2550.000
206.83	331.250
207.20	916.667
207.58	620.000
207.96	288.889
208.33	700.000
208.71	-666.667
209.08	785.714
209.46	533.333
209.84	490.909
210.21	-1400.000
210.59	1075.000
210.96	-425.000
211.34	2350.000
211.71	570.000
212.09	733.333
212.46	0.000
212.84	1466.667
213.22	1450.000
213.59	-4200.000
213.97	750.000
214.34	657.143
214.72	609.091
215.09	980.000
215.47	-2100.000
215.84	-2700.000
216.22	1433.333
216.59	357.143
216.97	975.000
217.34	509.091
217.72	-916.667
218.09	0.000
218.47	-4300.000
218.84	522.222
219.22	514.286
219.59	1566.667
219.97	-500.000
220.34	680.000
220.72	-1333.333
221.09	364.286
221.47	1300.000
221.84	-733.333
222.22	0.000
222.59	1250.000
222.97	-2850.000
223.34	1100.000
223.72	407.692
224.09	980.000
224.46	1950.000
224.84	-3700.000
225.21	-800.000
225.59	-5600.000
225.96	720.000
226.34	255.000
226.71	2300.000
227.08	562.500
227.46	550.000
227.83	-975.000
228.21	-2050.000
228.58	566.667
228.95	-2150.000
229.33	-2300.000
229.70	1766.667
230.08	571.429
230.45	-900.000
230.82	375.000
231.20	666.667
231.57	542.857
231.95	325.000
232.32	204.545
232.69	336.364
233.07	671.429
233.44	369.231
233.81	-1300.000
234.19	315.789
234.56	341.667
234.93	366.667
235.31	345.455
235.68	300.000
236.05	364.286
236.43	172.727
236.80	263.158
237.17	5000.000
237.55	233.333
237.92	171.429
238.29	219.048
238.67	170.968
239.04	196.552
239.41	136.111
239.79	95.652
240.16	133.333
240.53	127.273
240.91	100.000
241.28	94.000
241.65	114.000
242.02	100.000
242.40	77.419
242.77	86.667
243.14	79.570
243.51	82.022
243.89	64.706
244.26	67.778
244.63	55.914
245.00	58.511
245.38	64.356
245.75	54.206
246.12	46.789
246.49	60.584
246.87	64.800
247.24	58.462
247.61	51.429
247.98	51.634
248.36	49.324
248.73	49.682
249.10	52.229
249.47	42.938
249.84	48.128
250.22	44.385
250.59	40.237
250.96	45.455
251.33	44.076
251.70	46.535
252.08	40.000
252.45	40.807
252.82	40.435
253.19	42.979
253.56	38.431
253.94	38.589
254.31	38.672
254.68	38.077
255.05	37.638
255.42	39.024
255.79	36.765
256.16	36.462
256.54	33.216
256.91	37.367
257.28	33.453
257.65	34.323
258.02	37.267
258.39	33.438
258.76	34.448
259.14	36.607
259.51	34.043
259.88	28.882
260.25	31.420
260.62	31.792
260.99	30.745
261.36	36.036
261.73	33.238
262.10	30.814
262.47	36.620
262.85	31.476
263.22	30.484
263.59	35.043
263.96	31.319
264.33	31.332
264.70	31.842
265.07	32.225
265.44	31.818
265.81	30.414
266.18	32.412
266.55	30.732
266.92	28.747
267.29	32.176
267.66	29.817
268.03	29.545
268.40	31.075
268.77	30.788
269.14	27.703
269.51	30.474
269.88	27.972
270.25	27.765
270.62	30.112
270.99	28.387
271.36	29.614
271.73	27.103
272.10	26.957
272.47	30.108
272.84	31.385
273.21	28.512
273.58	25.983
273.95	26.834
274.32	27.479
274.69	29.336
275.06	25.591
275.43	30.426
275.80	28.056
276.17	26.273
276.54	28.690
276.91	26.482
277.28	25.977
277.65	29.787
278.02	26.708
278.39	28.516
278.76	26.727
279.13	28.491
279.50	27.002
279.87	25.896
280.23	28.144
280.60	28.046
280.97	26.063
281.34	26.372
281.71	26.182
282.08	27.255
282.45	25.091
282.82	28.419
283.19	25.847
283.56	25.789
283.92	27.580
284.29	26.102
284.66	25.771
285.03	25.859
285.40	25.528
285.77	25.084
286.14	26.252
286.51	22.167
286.87	24.274
287.24	27.199
287.61	27.287
287.98	26.299
288.35	23.930
288.72	24.922
289.08	24.100
289.45	23.888
289.82	24.390
290.19	23.705
290.56	21.746
290.93	23.414
291.29	23.160
291.66	22.861
292.03	26.017
292.40	24.963
292.77	22.633
293.13	24.030
293.50	22.886
293.87	20.889
294.24	21.333
294.60	21.252
294.97	22.238
295.34	22.567
295.71	23.011
296.08	21.795
296.44	20.083
296.81	22.193
297.18	22.900
297.55	18.734
297.91	20.712
298.28	21.419
298.65	20.627
299.02	20.817
299.38	20.053
299.75	16.981
300.12	19.413
300.48	20.500
300.85	19.482
301.22	19.490
301.59	17.929
301.95	20.403
302.32	20.539
302.69	18.877
303.05	19.394
303.42	19.753
303.79	18.573
304.15	18.298
304.52	18.888
304.89	20.325
305.25	18.561
305.62	19.026
305.99	20.543
306.35	19.351
306.72	20.516
307.09	19.867
307.45	19.820
307.82	16.741
308.19	18.653
308.55	19.202
308.92	19.334
309.29	19.007
309.65	17.709
310.02	19.556
310.38	18.495
310.75	18.902
311.12	18.731
311.48	18.495
311.85	18.973
312.22	20.395
312.58	17.464
312.95	19.535
313.31	18.058
313.68	19.751
314.05	20.710
314.41	18.894
314.78	19.033
315.14	19.960
315.51	18.744
315.87	19.208
316.24	20.357
316.61	19.591
316.97	19.863
317.34	18.493
317.70	20.172
318.07	19.827
318.43	19.569
318.80	19.775
319.16	20.151
319.53	19.512
319.89	21.524
320.26	21.200
320.62	22.024
320.99	20.909
321.35	21.717
321.72	20.842
322.08	22.211
322.45	22.786
322.81	21.609
323.18	23.025
323.54	22.542
323.91	20.943
324.27	21.989
324.64	21.622
325.00	20.830
325.37	22.475
325.73	23.968
326.10	22.330
326.46	21.774
326.83	23.469
327.19	23.228
327.56	21.603
327.92	23.185
328.29	23.070
328.65	24.586
329.01	22.924
329.38	22.387
329.74	22.899
330.11	23.186
330.47	25.620
330.84	25.735
331.20	24.863
331.56	24.220
331.93	23.611
332.29	23.691
332.66	24.867
333.02	24.954
333.38	23.758
333.75	24.955
334.11	24.466
334.48	23.957
334.84	25.092
335.20	25.636
335.57	24.569
335.93	24.018
336.29	24.725
336.66	24.166
337.02	24.796
337.38	24.352
337.75	23.975
338.11	24.261
338.47	23.204
338.84	24.381
339.20	23.394
339.56	26.186
339.93	23.273
340.29	24.819
340.65	23.529
341.02	25.131
341.38	25.712
341.74	24.211
342.11	24.279
342.47	25.198
342.83	23.459
343.20	25.974
343.56	24.937
343.92	23.860
344.28	24.150
344.65	25.451
345.01	24.579
345.37	23.928
345.73	24.112
346.10	23.700
346.46	24.237
346.82	24.300
347.19	24.227
347.55	22.824
347.91	24.757
348.27	23.418
348.63	23.913
349.00	23.706
349.36	23.892
349.72	23.737
350.08	23.825
350.45	25.224
350.81	24.045
351.17	25.041
351.53	24.079
351.89	23.102
352.26	25.493
352.62	25.020
352.98	24.473
353.34	24.651
353.70	23.813
354.07	24.355
354.43	24.365
354.79	24.055
355.15	24.022
355.51	25.020
355.87	25.551
356.24	24.674
356.60	23.336
356.96	24.698
357.32	24.693
357.68	25.276
358.04	25.416
358.40	25.891
358.77	25.978
359.13	25.335
359.49	24.706
359.85	24.444
360.21	24.482
360.57	25.447
360.93	24.923
361.29	24.339
361.66	24.458
362.02	25.448
362.38	24.639
362.74	24.777
363.10	25.315
363.46	24.358
363.82	26.379
364.18	24.816
364.54	26.152
364.90	25.425
365.26	24.706
365.62	25.931
365.98	24.836
366.35	24.857
366.71	26.247
367.07	25.419
367.43	26.052
367.79	24.839
368.15	26.652
368.51	24.273
368.87	26.481
369.23	26.408
369.59	25.851
369.95	26.176
370.31	26.211
370.67	25.507
371.03	27.191
371.39	26.968
371.75	26.544
372.11	25.818
372.47	26.173
372.83	26.873
373.19	26.662
373.55	27.421
373.91	27.541
374.27	25.498
374.63	26.545
374.99	27.260
375.35	25.750
375.71	26.936
376.07	27.984
376.42	27.166
376.78	27.502
377.14	26.187
377.50	28.742
377.86	26.263
378.22	26.802
378.58	27.569
378.94	27.153
379.30	27.226
379.66	27.855
380.02	27.826
380.38	27.322
380.74	27.911
381.09	28.545
381.45	29.256
381.81	28.686
382.17	28.344
382.53	28.239
382.89	30.309
383.25	28.393
383.61	29.120
383.97	29.706
384.32	28.072
384.68	29.058
385.04	29.871
385.40	28.235
385.76	28.931
386.12	28.174
386.48	29.641
386.83	30.789
387.19	30.860
387.55	29.932
387.91	29.141
388.27	29.430
388.62	30.916
388.98	28.931
389.34	30.976
389.70	29.552
390.06	30.925
390.42	29.896
390.77	29.771
391.13	30.057
391.49	31.091
391.85	30.872
392.20	29.527
392.56	31.061
392.92	31.430
393.28	29.822
393.64	30.276
393.99	30.971
394.35	30.583
394.71	30.364
395.07	29.720
395.42	31.397
395.78	30.598
396.14	30.354
396.50	31.579
396.85	30.642
397.21	31.196
397.57	31.060
397.92	30.649
398.28	30.381
398.64	31.422
399.00	31.058
399.35	30.175
399.71	30.729
400.07	30.928
400.42	30.736
400.78	31.062
401.14	30.793
401.49	31.104
401.85	30.127
402.21	31.018
402.57	31.154
402.92	31.463
403.28	31.293
403.63	31.312
403.99	30.701
404.35	30.242
404.70	31.355
405.06	30.635
405.42	30.630
405.77	29.600
406.13	31.095
406.49	30.692
406.84	30.242
407.20	30.437
407.55	31.334
407.91	31.067
408.27	30.759
408.62	31.005
408.98	31.189
409.34	30.504
409.69	31.097
410.05	31.599
410.40	30.520
410.76	31.123
411.11	30.881
411.47	30.160
411.83	31.338
412.18	30.303
412.54	31.631
412.89	31.024
413.25	30.992
413.60	30.574
413.96	30.237
414.31	31.774
414.67	31.115
415.03	31.192
415.38	32.152
415.74	31.125
416.09	31.548
416.45	31.794
416.80	31.527
417.16	31.300
417.51	31.785
417.87	32.113
418.22	31.924
418.58	32.021
418.93	32.064
419.29	30.681
419.64	31.927
420.00	30.915
420.35	31.420
420.71	32.756
421.06	31.325
421.42	31.871
421.77	31.670
422.12	31.387
422.48	30.977
422.83	31.800
423.19	31.381
423.54	31.515
423.90	31.942
424.25	31.156
424.61	32.143
424.96	32.362
425.31	32.724
425.67	31.798
426.02	31.657
426.38	32.540
426.73	32.534
427.09	32.766
427.44	32.145
427.79	32.662
428.15	32.798
428.50	31.539
428.85	33.015
429.21	32.082
429.56	32.245
429.92	32.864
430.27	32.622
430.62	32.156
430.98	31.707
431.33	31.443
431.68	31.832
432.04	32.322
432.39	33.467
432.74	32.675
433.10	33.333
433.45	32.595
433.80	32.317
434.16	33.013
434.51	32.263
434.86	33.010
435.22	33.074
435.57	33.191
435.92	33.353
436.28	34.460
436.63	33.996
436.98	33.600
437.34	34.347
437.69	33.956
438.04	32.884
438.39	35.104
438.75	34.166
439.10	33.743
439.45	34.061
439.81	33.958
440.16	32.863
440.51	34.153
440.86	34.395
441.22	34.149
441.57	34.236
441.92	34.442
442.27	34.015
442.63	33.965
442.98	35.549
443.33	33.804
443.68	34.280
444.03	33.236
444.39	34.664
444.74	33.929
445.09	35.256
445.44	34.445
445.79	34.389
446.15	34.516
446.50	34.141
446.85	34.841
447.20	35.339
447.55	35.343
447.91	34.639
448.26	34.947
448.61	34.822
448.96	35.714
449.31	35.321
449.66	35.453
450.02	35.265
450.37	34.751
450.72	36.097
451.07	34.674
451.42	35.380
451.77	36.348
452.12	34.642
452.47	34.515
452.83	35.315
453.18	35.391
453.53	35.993
453.88	35.676
454.23	36.163
454.58	35.312
454.93	36.427
455.28	35.474
455.63	35.922
455.98	36.964
456.34	36.683
456.69	36.130
457.04	34.861
457.39	35.243
457.74	35.287
458.09	35.423
458.44	35.348
458.79	35.629
459.14	36.117
459.49	35.493
459.84	34.571
460.19	35.239
460.54	34.491
460.89	36.369
461.24	35.458
461.59	36.549
461.94	35.388
462.29	37.211
462.64	35.290
462.99	35.329
463.34	35.867
463.69	37.148
464.04	36.116
464.39	35.768
464.74	36.007
465.09	35.887
465.44	35.014
465.79	35.067
466.14	34.866
466.49	34.316
466.84	35.785
467.19	36.874
467.54	35.812
467.89	35.054
468.24	35.777
468.59	36.081
468.94	35.308
469.29	36.632
469.64	36.479
469.99	36.536
470.34	36.063
470.68	37.716
471.03	35.918
471.38	37.318
471.73	36.842
472.08	36.908
472.43	35.616
472.78	36.735
473.13	36.714
473.48	36.767
473.83	37.256
474.17	35.159
474.52	37.283
474.87	38.471
475.22	35.868
475.57	35.733
475.92	35.688
476.27	35.513
476.61	35.962
476.96	35.404
477.31	36.054
477.66	36.050
478.01	35.494
478.36	36.436
478.70	36.293
479.05	35.836
479.40	35.773
479.75	35.638
480.10	34.891
480.45	35.269
480.79	35.165
481.14	36.155
481.49	36.640
481.84	35.071
482.19	35.438
482.53	35.413
482.88	35.272
483.23	35.374
483.58	35.623
483.92	35.239
484.27	34.031
484.62	35.216
484.97	34.608
485.31	35.034
485.66	33.653
486.01	32.167
486.36	30.696
486.70	30.106
487.05	31.213
487.40	32.278
487.75	32.777
488.09	34.183
488.44	34.223
488.79	34.864
489.13	35.752
489.48	34.584
489.83	34.571
490.17	34.809
490.52	35.385
490.87	35.052
491.22	35.198
491.56	34.260
491.91	34.202
492.26	34.359
492.60	35.392
492.95	34.144
493.30	34.953
493.64	35.978
493.99	34.262
494.34	35.199
494.68	36.126
495.03	34.727
495.37	34.667
495.72	35.234
496.07	35.777
496.41	34.027
496.76	34.389
497.11	34.399
497.45	35.259
497.80	35.461
498.14	34.831
498.49	36.293
498.84	35.762
499.18	34.667
499.53	35.613
499.87	34.949
500.22	35.045
500.56	36.117
500.91	34.327
501.26	34.282
501.60	35.168
501.95	34.097
502.29	35.989
502.64	34.311
502.98	34.829
503.33	34.095
503.67	35.452
504.02	35.313
504.36	34.722
504.71	35.467
505.06	34.843
505.40	35.586
505.75	34.233
506.09	35.666
506.44	35.126
506.78	35.314
507.13	35.639
507.47	35.303
507.82	35.968
508.16	35.309
508.51	36.783
508.85	35.402
509.19	36.327
509.54	35.612
509.88	36.270
510.23	35.938
510.57	35.965
510.92	35.940
511.26	35.252
511.61	35.737
511.95	35.856
512.30	35.578
512.64	36.916
512.98	37.406
513.33	36.403
513.67	36.126
514.02	35.552
514.36	36.319
514.70	36.359
515.05	36.419
515.39	36.007
515.74	36.824
516.08	37.060
516.42	37.569
516.77	36.901
517.11	37.014
517.46	37.810
517.80	38.095
518.14	36.248
518.49	38.331
518.83	37.330
519.17	37.240
519.52	36.672
519.86	37.593
520.20	38.092
520.55	38.001
520.89	39.112
521.23	37.937
521.58	37.935
521.92	38.824
522.26	37.706
522.61	38.629
522.95	38.613
523.29	38.284
523.64	39.085
523.98	38.447
524.32	37.334
524.66	37.523
525.01	37.500
525.35	37.546
525.69	38.239
526.04	37.695
526.38	39.414
526.72	37.607
527.06	38.795
527.41	36.881
527.75	38.135
528.09	38.985
528.43	38.623
528.78	37.923
529.12	38.667
529.46	39.069
529.80	38.614
530.15	39.252
530.49	38.031
530.83	38.354
531.17	39.295
531.51	39.818
531.86	37.419
532.20	38.201
532.54	39.334
532.88	38.383
533.22	36.977
533.57	37.593
533.91	37.508
534.25	37.910
534.59	36.913
534.93	37.597
535.27	38.021
535.62	37.668
535.96	38.920
536.30	39.352
536.64	38.828
536.98	38.421
537.32	37.459
537.66	38.933
538.01	38.973
538.35	38.332
538.69	39.311
539.03	37.297
539.37	37.636
539.71	37.071
540.05	36.601
540.39	37.542
540.73	37.646
541.07	38.092
541.42	38.030
541.76	38.000
542.10	37.710
542.44	38.344
542.78	38.999
543.12	37.364
543.46	37.836
543.80	38.061
544.14	37.035
544.48	38.095
544.82	37.973
545.16	37.801
545.50	37.661
545.84	37.567
546.18	38.586
546.52	38.403
546.86	38.007
547.20	38.503
547.54	38.277
547.88	38.648
548.22	37.733
548.56	36.478
548.90	36.940
549.24	36.970
549.58	37.653
549.92	38.462
550.26	38.849
550.60	37.552
550.94	37.887
551.28	38.186
551.62	39.540
551.96	38.737
552.30	38.294
552.64	37.863
552.98	39.390
553.32	37.896
553.66	39.536
554.00	39.190
554.34	37.060
554.68	38.984
555.02	37.165
555.36	37.857
555.69	37.754
556.03	38.022
556.37	38.336
556.71	37.108
557.05	38.515
557.39	38.698
557.73	38.532
558.07	39.086
558.41	37.916
558.75	39.750
559.08	39.523
559.42	38.246
559.76	37.500
560.10	38.401
560.44	37.806
560.78	37.525
561.12	37.797
561.45	37.744
561.79	36.717
562.13	37.760
562.47	37.637
562.81	38.703
563.15	37.191
563.48	37.931
563.82	38.095
564.16	37.868
564.50	36.784
564.84	36.662
565.17	37.452
565.51	37.316
565.85	38.452
566.19	37.132
566.52	37.555
566.86	37.191
567.20	37.441
567.54	35.902
567.88	35.470
568.21	36.296
568.55	35.996
568.89	35.603
569.23	35.428
569.56	33.927
569.90	34.038
570.24	33.728
570.57	33.152
570.91	32.999
571.25	32.335
571.59	32.165
571.92	31.999
572.26	32.727
572.60	32.402
572.93	32.594
573.27	32.742
573.61	32.468
573.95	31.964
574.28	31.633
574.62	31.511
574.96	31.087
575.29	31.014
575.63	30.767
575.97	31.737
576.30	31.944
576.64	31.943
576.98	31.356
577.31	30.869
577.65	31.488
577.98	31.464
578.32	30.937
578.66	30.587
578.99	30.724
579.33	30.792
579.67	30.990
580.00	31.383
580.34	31.300
580.67	31.364
581.01	31.864
581.35	31.008
581.68	30.872
582.02	30.855
582.35	30.633
582.69	30.756
583.02	30.634
583.36	31.220
583.70	32.218
584.03	31.923
584.37	31.989
584.70	32.628
585.04	31.605
585.37	32.130
585.71	31.696
586.04	31.070
586.38	32.184
586.72	32.947
587.05	31.948
587.39	31.425
587.72	31.512
588.06	31.644
588.39	31.715
588.73	32.150
589.06	33.281
589.40	33.367
589.73	33.298
590.07	33.060
590.40	33.175
590.73	34.348
591.07	34.066
591.40	34.205
591.74	34.675
592.07	34.250
592.41	32.823
592.74	32.846
593.08	32.612
593.41	32.743
593.75	31.605
594.08	32.417
594.41	32.697
594.75	33.309
595.08	33.393
595.42	33.065
595.75	32.692
596.09	33.984
596.42	33.674
596.75	34.529
597.09	34.416
597.42	33.137
597.75	33.549
598.09	33.739
598.42	33.978
598.76	33.563
599.09	32.003
599.42	31.769
599.76	32.650
600.09	31.949
600.42	32.286
600.76	32.214
601.09	32.495
601.42	33.143
601.76	32.713
602.09	33.202
602.42	33.201
602.76	33.132
603.09	34.382
603.42	33.112
603.76	32.889
604.09	33.075
604.42	32.980
604.76	33.572
605.09	32.678
605.42	33.989
605.75	34.106
606.09	32.656
606.42	33.919
606.75	33.306
607.09	33.068
607.42	32.649
607.75	32.489
608.08	33.782
608.42	34.290
608.75	34.220
609.08	33.765
609.41	33.793
609.75	32.539
610.08	33.695
610.41	33.240
610.74	33.775
611.07	34.536
611.41	34.053
611.74	34.691
612.07	35.300
612.40	34.942
612.73	34.474
613.07	34.752
613.40	34.544
613.73	33.351
614.06	35.161
614.39	33.718
614.72	34.263
615.06	34.034
615.39	34.130
615.72	33.640
616.05	34.131
616.38	34.797
616.71	35.333
617.05	35.277
617.38	34.937
617.71	35.075
618.04	35.457
618.37	34.004
618.70	34.785
619.03	36.645
619.36	35.642
619.69	36.408
620.03	37.157
620.36	36.430
620.69	36.575
621.02	36.726
621.35	37.431
621.68	35.826
622.01	36.765
622.34	37.519
622.67	36.882
623.00	35.803
623.33	36.526
623.66	36.812
623.99	36.524
624.32	36.377
624.65	36.088
624.99	35.836
625.32	35.482
625.65	36.364
625.98	36.203
626.31	37.792
626.64	38.122
626.97	37.490
627.30	36.326
627.63	38.310
627.96	37.931
628.29	38.233
628.62	38.335
628.95	40.943
629.28	38.139
629.61	40.238
629.94	37.714
630.26	38.704
630.59	37.750
630.92	37.261
