SpectraSuite Data File
++++++++++++++++++++++++++++++++++++
Date: Wed May 13 16:08:14 PDT 2015
User: schluterlab
Dark Spectrum Present: Yes
Reference Spectrum Present: Yes
Number of Sampled Component Spectra: 1
Spectrometers: USB2E3373
Integration Time (usec): 3000 (USB2E3373)
Spectra Averaged: 3 (USB2E3373)
Boxcar Smoothing: 0 (USB2E3373)
Correct for Electrical Dark: No (USB2E3373)
Strobe/Lamp Enabled: No (USB2E3373)
Correct for Detector Non-linearity: No (USB2E3373)
Correct for Stray Light: No (USB2E3373)
Number of Pixels in Processed Spectrum: 2048
>>>>>Begin Processed Spectral Data<<<<<
178.53	0.000
178.91	-925.000
179.29	-1000.000
179.67	-138.889
180.04	-850.000
180.42	1550.000
180.80	680.000
181.18	-575.000
181.56	385.714
181.94	0.000
182.31	-400.000
182.69	1366.667
183.07	-275.000
183.45	-288.889
183.83	354.545
184.20	-160.000
184.58	1850.000
184.96	4600.000
185.34	-720.000
185.72	-287.500
186.09	-1150.000
186.47	2000.000
186.85	1850.000
187.23	3900.000
187.61	-1200.000
187.98	825.000
188.36	363.636
188.74	200.000
189.12	-520.000
189.49	280.000
189.87	-2600.000
190.25	-700.000
190.63	285.714
191.00	284.615
191.38	600.000
191.76	-375.000
192.14	1100.000
192.51	437.500
192.89	683.333
193.27	375.000
193.65	-875.000
194.02	430.000
194.40	540.000
194.78	360.000
195.15	325.000
195.53	430.000
195.91	-1500.000
196.29	225.000
196.66	226.316
197.04	-130.000
197.42	0.000
197.79	370.000
198.17	-2600.000
198.55	442.857
198.92	475.000
199.30	480.000
199.68	0.000
200.05	238.889
200.43	500.000
200.81	3400.000
201.18	1166.667
201.56	-1133.333
201.94	444.444
202.31	500.000
202.69	375.000
203.07	370.000
203.44	0.000
203.82	750.000
204.19	514.286
204.57	342.857
204.95	550.000
205.32	1100.000
205.70	345.455
206.08	271.429
206.45	1550.000
206.83	237.500
207.20	666.667
207.58	460.000
207.96	250.000
208.33	450.000
208.71	-550.000
209.08	585.714
209.46	344.444
209.84	345.455
210.21	-1133.333
210.59	925.000
210.96	-450.000
211.34	1600.000
211.71	340.000
212.09	466.667
212.46	0.000
212.84	966.667
213.22	950.000
213.59	-2900.000
213.97	633.333
214.34	514.286
214.72	472.727
215.09	660.000
215.47	-1350.000
215.84	-1500.000
216.22	966.667
216.59	321.429
216.97	875.000
217.34	309.091
217.72	-400.000
218.09	0.000
218.47	-3200.000
218.84	411.111
219.22	657.143
219.59	1200.000
219.97	-385.714
220.34	600.000
220.72	-866.667
221.09	250.000
221.47	1150.000
221.84	-550.000
222.22	0.000
222.59	1000.000
222.97	-1600.000
223.34	820.000
223.72	315.385
224.09	780.000
224.46	1400.000
224.84	-3200.000
225.21	-640.000
225.59	-3000.000
225.96	390.000
226.34	215.000
226.71	1600.000
227.08	350.000
227.46	380.000
227.83	-575.000
228.21	-1750.000
228.58	344.444
228.95	-1600.000
229.33	-1400.000
229.70	1100.000
230.08	571.429
230.45	-580.000
230.82	300.000
231.20	600.000
231.57	428.571
231.95	383.333
232.32	154.545
232.69	327.273
233.07	400.000
233.44	238.462
233.81	-733.333
234.19	152.632
234.56	341.667
234.93	241.667
235.31	263.636
235.68	230.769
236.05	271.429
236.43	130.303
236.80	194.737
237.17	2000.000
237.55	180.952
237.92	135.714
238.29	204.762
238.67	109.677
239.04	89.655
239.41	80.556
239.79	60.870
240.16	102.381
240.53	79.545
240.91	49.020
241.28	56.000
241.65	64.000
242.02	52.174
242.40	53.226
242.77	50.000
243.14	53.763
243.51	53.933
243.89	43.529
244.26	18.889
244.63	32.258
245.00	32.979
245.38	30.693
245.75	28.037
246.12	25.688
246.49	37.956
246.87	32.000
247.24	28.462
247.61	24.286
247.98	24.837
248.36	19.595
248.73	30.573
249.10	21.656
249.47	21.469
249.84	27.273
250.22	20.856
250.59	21.893
250.96	22.727
251.33	23.697
251.70	21.287
252.08	15.714
252.45	13.453
252.82	14.348
253.19	14.043
253.56	18.039
253.94	18.257
254.31	16.406
254.68	20.769
255.05	15.129
255.42	11.789
255.79	15.074
256.16	13.357
256.54	11.307
256.91	18.149
257.28	11.151
257.65	11.551
258.02	15.217
258.39	15.773
258.76	11.706
259.14	14.583
259.51	13.070
259.88	12.733
260.25	13.293
260.62	10.116
260.99	9.627
261.36	11.712
261.73	11.748
262.10	10.465
262.47	13.239
262.85	11.699
263.22	10.826
263.59	13.105
263.96	14.560
264.33	9.399
264.70	11.316
265.07	13.555
265.44	10.101
265.81	8.516
266.18	11.307
266.55	10.244
266.92	10.565
267.29	13.194
267.66	11.468
268.03	9.773
268.40	11.916
268.77	9.308
269.14	9.459
269.51	12.641
269.88	10.256
270.25	11.287
270.62	10.787
270.99	13.333
271.36	10.300
271.73	9.579
272.10	10.217
272.47	10.538
272.84	11.472
273.21	11.321
273.58	7.642
273.95	9.853
274.32	9.504
274.69	10.493
275.06	9.449
275.43	10.426
275.80	9.218
276.17	10.794
276.54	12.058
276.91	8.893
277.28	6.445
277.65	9.284
278.02	8.282
278.39	11.719
278.76	10.364
279.13	9.434
279.50	9.125
279.87	7.171
280.23	9.780
280.60	7.930
280.97	8.688
281.34	9.027
281.71	10.545
282.08	7.486
282.45	8.000
282.82	7.815
283.19	4.991
283.56	8.070
283.92	9.137
284.29	7.584
284.66	8.530
285.03	8.318
285.40	8.627
285.77	7.071
286.14	8.290
286.51	8.500
286.87	8.718
287.24	9.609
287.61	7.223
287.98	9.091
288.35	8.875
288.72	7.477
289.08	8.138
289.45	7.908
289.82	8.130
290.19	6.279
290.56	8.270
290.93	7.402
291.29	7.822
291.66	7.375
292.03	9.593
292.40	9.545
292.77	7.101
293.13	7.612
293.50	7.872
293.87	6.815
294.24	7.111
294.60	5.531
294.97	5.523
295.34	8.745
295.71	8.381
296.08	7.977
296.44	7.703
296.81	6.869
297.18	8.672
297.55	5.277
297.91	6.728
298.28	8.969
298.65	6.919
299.02	8.696
299.38	5.710
299.75	4.987
300.12	6.641
300.48	8.250
300.85	7.028
301.22	7.006
301.59	7.071
301.95	6.171
302.32	7.189
302.69	7.407
303.05	7.515
303.42	6.667
303.79	8.154
304.15	6.410
304.52	7.648
304.89	6.156
305.25	6.729
305.62	6.908
305.99	7.556
306.35	6.264
306.72	6.726
307.09	8.324
307.45	8.108
307.82	6.808
308.19	7.616
308.55	7.335
308.92	8.271
309.29	7.075
309.65	6.045
310.02	6.977
310.38	8.065
310.75	7.709
311.12	8.086
311.48	8.777
311.85	8.700
312.22	7.804
312.58	8.108
312.95	9.398
313.31	8.835
313.68	8.108
314.05	10.651
314.41	10.151
314.78	9.265
315.14	9.037
315.51	9.578
315.87	10.099
316.24	8.838
316.61	9.942
316.97	9.980
317.34	9.393
317.70	10.421
318.07	10.106
318.43	10.372
318.80	11.434
319.16	11.205
319.53	12.195
319.89	12.286
320.26	12.400
320.62	12.202
320.99	12.020
321.35	13.232
321.72	12.423
322.08	14.610
322.45	15.224
322.81	16.182
323.18	15.318
323.54	15.306
323.91	15.472
324.27	16.635
324.64	15.471
325.00	16.952
325.37	17.925
325.73	18.671
326.10	17.741
326.46	17.832
326.83	18.982
327.19	19.129
327.56	18.118
327.92	19.773
328.29	20.763
328.65	19.429
329.01	20.307
329.38	19.889
329.74	20.314
330.11	20.924
330.47	20.478
330.84	23.713
331.20	21.129
331.56	21.743
331.93	21.389
332.29	22.005
332.66	22.212
333.02	22.395
333.38	23.487
333.75	23.440
334.11	22.420
334.48	23.070
334.84	23.070
335.20	23.727
335.57	23.391
335.93	22.857
336.29	22.527
336.66	23.264
337.02	21.900
337.38	23.611
337.75	23.173
338.11	24.620
338.47	23.297
338.84	24.015
339.20	23.578
339.56	23.814
339.93	22.636
340.29	23.551
340.65	23.708
341.02	23.211
341.38	23.310
341.74	22.982
342.11	23.406
342.47	22.819
342.83	22.346
343.20	23.463
343.56	22.325
343.92	22.281
344.28	23.469
344.65	22.700
345.01	21.212
345.37	22.642
345.73	22.673
346.10	23.274
346.46	22.373
346.82	22.488
347.19	22.891
347.55	21.593
347.91	22.977
348.27	23.665
348.63	22.659
349.00	22.977
349.36	23.399
349.72	23.577
350.08	23.096
350.45	22.620
350.81	22.665
351.17	23.339
351.53	22.604
351.89	23.267
352.26	23.520
352.62	22.534
352.98	22.771
353.34	22.514
353.70	22.095
354.07	23.710
354.43	22.381
354.79	22.928
355.15	24.262
355.51	23.102
355.87	22.449
356.24	22.231
356.60	22.133
356.96	23.009
357.32	22.649
357.68	23.465
358.04	21.774
358.40	23.595
358.77	23.239
359.13	22.652
359.49	22.588
359.85	21.270
360.21	22.887
360.57	23.346
360.93	22.308
361.29	23.356
361.66	22.214
362.02	24.104
362.38	23.270
362.74	22.768
363.10	23.316
363.46	22.964
363.82	23.507
364.18	23.715
364.54	23.923
364.90	23.229
365.26	23.897
365.62	23.594
365.98	23.448
366.35	22.636
366.71	23.789
367.07	23.525
367.43	24.093
367.79	24.625
368.15	24.856
368.51	23.765
368.87	23.983
369.23	23.336
369.59	23.678
369.95	24.412
370.31	24.858
370.67	23.116
371.03	24.120
371.39	24.344
371.75	24.559
372.11	24.324
372.47	25.440
372.83	25.432
373.19	23.772
373.55	25.129
373.91	24.963
374.27	24.880
374.63	24.291
374.99	25.282
375.35	24.564
375.71	24.263
376.07	25.789
376.42	25.034
376.78	25.580
377.14	26.052
377.50	25.298
377.86	24.734
378.22	25.917
378.58	24.248
378.94	24.639
379.30	25.000
379.66	25.761
380.02	26.536
380.38	26.594
380.74	25.750
381.09	26.345
381.45	25.814
381.81	26.229
382.17	26.497
382.53	25.849
382.89	26.111
383.25	26.454
383.61	26.890
383.97	25.704
384.32	26.263
384.68	25.836
385.04	26.490
385.40	26.625
385.76	26.351
386.12	25.907
386.48	27.690
386.83	27.261
387.19	27.087
387.55	27.273
387.91	26.965
388.27	26.364
388.62	26.429
388.98	25.860
389.34	27.034
389.70	27.406
390.06	27.567
390.42	27.626
390.77	26.399
391.13	27.377
391.49	27.221
391.85	26.926
392.20	25.931
392.56	26.957
392.92	26.663
393.28	26.509
393.64	27.158
393.99	27.367
394.35	26.799
394.71	26.161
395.07	27.103
395.42	27.318
395.78	27.036
396.14	26.691
396.50	27.193
396.85	26.891
397.21	26.757
397.57	26.596
397.92	26.562
398.28	26.233
398.64	26.523
399.00	27.029
399.35	25.888
399.71	27.199
400.07	26.907
400.42	26.258
400.78	26.900
401.14	26.524
401.49	27.164
401.85	26.860
402.21	26.647
402.57	26.157
402.92	26.419
403.28	26.921
403.63	25.928
403.99	26.306
404.35	26.424
404.70	26.379
405.06	25.277
405.42	25.639
405.77	25.943
406.13	26.185
406.49	26.789
406.84	26.048
407.20	25.059
407.55	25.846
407.91	27.067
408.27	26.803
408.62	26.430
408.98	25.551
409.34	25.892
409.69	26.581
410.05	24.102
410.40	26.239
410.76	25.329
411.11	26.478
411.47	25.559
411.83	25.901
412.18	25.417
412.54	25.903
412.89	25.301
413.25	25.325
413.60	25.695
413.96	24.590
414.31	25.395
414.67	25.412
415.03	24.834
415.38	25.515
415.74	25.273
416.09	25.800
416.45	25.301
416.80	25.446
417.16	26.072
417.51	26.609
417.87	26.012
418.22	25.868
418.58	25.823
418.93	25.983
419.29	25.207
419.64	26.196
420.00	25.610
420.35	25.449
420.71	26.718
421.06	25.597
421.42	26.023
421.77	26.121
422.12	25.098
422.48	24.771
422.83	25.917
423.19	26.464
423.54	25.015
423.90	25.565
424.25	25.740
424.61	25.060
424.96	25.248
425.31	25.360
425.67	24.551
426.02	25.486
426.38	26.435
426.73	24.927
427.09	25.350
427.44	25.417
427.79	25.187
428.15	25.655
428.50	24.810
428.85	25.328
429.21	25.290
429.56	24.728
429.92	25.113
430.27	25.521
430.62	25.243
430.98	25.324
431.33	25.103
431.68	24.764
432.04	24.707
432.39	25.186
432.74	25.254
433.10	25.410
433.45	25.773
433.80	25.222
434.16	25.641
434.51	24.947
434.86	25.998
435.22	25.959
435.57	25.775
435.92	25.863
436.28	25.801
436.63	26.656
436.98	25.301
437.34	26.714
437.69	26.429
438.04	26.194
438.39	25.791
438.75	25.683
439.10	25.531
439.45	25.679
439.81	26.163
440.16	25.014
440.51	26.538
440.86	25.246
441.22	25.528
441.57	25.849
441.92	26.254
442.27	24.973
442.63	24.961
442.98	26.592
443.33	25.761
443.68	25.194
444.03	26.013
444.39	25.073
444.74	25.595
445.09	25.714
445.44	26.353
445.79	25.730
446.15	26.151
446.50	25.794
446.85	25.899
447.20	25.701
447.55	25.740
447.91	25.262
448.26	26.600
448.61	26.569
448.96	26.467
449.31	26.040
449.66	25.492
450.02	26.017
450.37	25.397
450.72	26.058
451.07	25.289
451.42	24.802
451.77	26.130
452.12	25.982
452.47	25.373
452.83	25.408
453.18	26.100
453.53	26.160
453.88	24.926
454.23	25.822
454.58	25.621
454.93	26.891
455.28	25.312
455.63	26.274
455.98	26.726
456.34	25.565
456.69	26.174
457.04	26.316
457.39	25.424
457.74	26.001
458.09	25.359
458.44	26.055
458.79	25.217
459.14	26.298
459.49	26.270
459.84	26.260
460.19	25.633
460.54	24.537
460.89	25.562
461.24	25.683
461.59	26.264
461.94	25.586
462.29	26.766
462.64	25.335
462.99	25.830
463.34	25.933
463.69	25.766
464.04	25.797
464.39	25.449
464.74	25.431
465.09	25.754
465.44	24.488
465.79	24.609
466.14	23.864
466.49	25.028
466.84	25.394
467.19	24.864
467.54	25.625
467.89	25.690
468.24	25.771
468.59	25.885
468.94	24.740
469.29	26.671
469.64	26.104
469.99	26.116
470.34	24.306
470.68	26.078
471.03	24.966
471.38	26.199
471.73	25.250
472.08	26.250
472.43	25.314
472.78	25.148
473.13	25.225
473.48	24.719
473.83	25.366
474.17	24.393
474.52	25.558
474.87	25.336
475.22	25.305
475.57	24.718
475.92	24.642
476.27	25.254
476.61	24.049
476.96	24.684
477.31	24.437
477.66	25.109
478.01	24.360
478.36	25.172
478.70	25.078
479.05	24.281
479.40	24.719
479.75	24.504
480.10	23.956
480.45	23.989
480.79	23.650
481.14	25.636
481.49	24.727
481.84	25.057
482.19	24.171
482.53	24.266
482.88	24.011
483.23	24.112
483.58	24.568
483.92	24.039
484.27	22.919
484.62	24.397
484.97	23.453
485.31	24.486
485.66	23.918
486.01	22.900
486.36	22.301
486.70	21.834
487.05	22.305
487.40	22.625
487.75	23.302
488.09	23.233
488.44	23.115
488.79	23.436
489.13	24.064
489.48	23.083
489.83	23.651
490.17	24.638
490.52	23.649
490.87	23.700
491.22	23.647
491.56	23.371
491.91	23.965
492.26	22.784
492.60	23.641
492.95	22.919
493.30	22.757
493.64	22.678
493.99	23.584
494.34	23.173
494.68	23.352
495.03	23.637
495.37	23.034
495.72	23.148
496.07	23.666
496.41	22.788
496.76	23.659
497.11	23.548
497.45	22.310
497.80	22.937
498.14	22.995
498.49	22.585
498.84	23.250
499.18	22.810
499.53	22.792
499.87	23.392
500.22	22.892
500.56	23.495
500.91	22.644
501.26	22.617
501.60	22.734
501.95	22.502
502.29	22.727
502.64	22.626
502.98	22.487
503.33	22.395
503.67	23.063
504.02	23.012
504.36	23.304
504.71	23.107
505.06	23.566
505.40	22.897
505.75	22.179
506.09	21.914
506.44	23.187
506.78	23.624
507.13	23.221
507.47	22.525
507.82	22.898
508.16	22.746
508.51	23.896
508.85	23.337
509.19	22.602
509.54	22.092
509.88	22.102
510.23	22.262
510.57	23.581
510.92	22.734
511.26	22.405
511.61	22.303
511.95	21.503
512.30	22.747
512.64	22.085
512.98	22.830
513.33	21.895
513.67	22.679
514.02	21.699
514.36	22.774
514.70	22.413
515.05	22.532
515.39	23.107
515.74	22.579
516.08	22.750
516.42	23.085
516.77	22.575
517.11	22.752
517.46	22.912
517.80	22.706
518.14	21.135
518.49	22.637
518.83	22.955
519.17	22.633
519.52	22.184
519.86	22.305
520.20	23.064
520.55	22.023
520.89	22.202
521.23	22.678
521.58	22.809
521.92	22.535
522.26	20.866
522.61	21.558
522.95	22.836
523.29	22.033
523.64	22.622
523.98	22.797
524.32	22.497
524.66	23.151
525.01	22.672
525.35	22.367
525.69	21.613
526.04	22.492
526.38	22.514
526.72	21.902
527.06	21.469
527.41	20.668
527.75	22.894
528.09	22.736
528.43	21.734
528.78	22.372
529.12	21.515
529.46	21.984
529.80	21.782
530.15	22.181
530.49	22.031
530.83	21.582
531.17	22.846
531.51	22.633
531.86	22.129
532.20	22.034
532.54	21.397
532.88	21.823
533.22	21.112
533.57	21.605
533.91	20.891
534.25	21.385
534.59	20.805
534.93	21.416
535.27	21.183
535.62	20.818
535.96	20.465
536.30	21.170
536.64	21.314
536.98	21.500
537.32	21.001
537.66	22.000
538.01	21.856
538.35	20.814
538.69	22.017
539.03	21.053
539.37	21.086
539.71	20.091
540.05	21.569
540.39	21.993
540.73	20.828
541.07	21.220
541.42	21.722
541.76	21.935
542.10	21.734
542.44	20.861
542.78	22.069
543.12	20.345
543.46	21.311
543.80	21.405
544.14	21.053
544.48	21.524
544.82	20.911
545.16	20.820
545.50	20.437
545.84	21.707
546.18	21.010
546.52	21.198
546.86	21.237
547.20	20.701
547.54	21.109
547.88	21.620
548.22	21.482
548.56	21.069
548.90	20.871
549.24	19.731
549.58	20.668
549.92	20.261
550.26	21.023
550.60	20.055
550.94	21.127
551.28	20.190
551.62	21.423
551.96	20.070
552.30	21.843
552.64	20.825
552.98	20.678
553.32	20.836
553.66	20.723
554.00	19.835
554.34	20.566
554.68	20.601
555.02	20.874
555.36	20.529
555.69	20.162
556.03	20.390
556.37	20.396
556.71	19.850
557.05	20.938
557.39	18.754
557.73	19.901
558.07	21.030
558.41	20.695
558.75	20.206
559.08	21.402
559.42	19.501
559.76	20.956
560.10	19.486
560.44	20.685
560.78	19.960
561.12	19.657
561.45	20.469
561.79	19.512
562.13	19.987
562.47	21.107
562.81	20.293
563.15	20.401
563.48	19.894
563.82	19.896
564.16	19.490
564.50	19.661
564.84	19.722
565.17	20.206
565.51	19.489
565.85	19.734
566.19	18.973
566.52	20.076
566.86	19.470
567.20	19.811
567.54	19.578
567.88	18.794
568.21	20.106
568.55	19.717
568.89	18.920
569.23	18.984
569.56	17.895
569.90	18.642
570.24	18.048
570.57	17.715
570.91	18.003
571.25	17.974
571.59	18.144
571.92	18.088
572.26	17.591
572.60	17.928
572.93	18.141
573.27	18.190
573.61	17.755
573.95	17.829
574.28	17.462
574.62	18.027
574.96	17.778
575.29	17.701
575.63	17.607
575.97	17.808
576.30	17.631
576.64	17.589
576.98	17.307
577.31	17.121
577.65	17.720
577.98	17.129
578.32	17.097
578.66	17.149
578.99	17.211
579.33	17.357
579.67	16.857
580.00	17.933
580.34	17.418
580.67	17.490
581.01	18.035
581.35	17.550
581.68	17.259
582.02	16.565
582.35	16.637
582.69	17.264
583.02	16.970
583.36	17.524
583.70	17.483
584.03	17.659
584.37	17.892
584.70	17.816
585.04	17.661
585.37	17.428
585.71	16.870
586.04	17.202
586.38	17.712
586.72	17.813
587.05	17.387
587.39	17.625
587.72	17.779
588.06	17.156
588.39	17.586
588.73	17.542
589.06	17.638
589.40	17.340
589.73	18.057
590.07	17.758
590.40	17.830
590.73	17.994
591.07	17.908
591.40	18.389
591.74	18.571
592.07	17.757
592.41	18.231
592.74	17.528
593.08	17.888
593.41	17.083
593.75	16.896
594.08	17.600
594.41	17.709
594.75	17.449
595.08	17.645
595.42	17.968
595.75	16.845
596.09	17.462
596.42	18.075
596.75	17.898
597.09	17.965
597.42	16.906
597.75	17.508
598.09	17.739
598.42	17.311
598.76	17.349
599.09	16.914
599.42	17.249
599.76	17.313
600.09	16.903
600.42	17.458
600.76	17.071
601.09	17.304
601.42	17.352
601.76	17.343
602.09	17.352
602.42	17.715
602.76	17.694
603.09	17.034
603.42	17.259
603.76	16.997
604.09	16.712
604.42	17.081
604.76	17.798
605.09	17.431
605.42	17.230
605.75	17.343
606.09	17.121
606.42	17.041
606.75	17.420
607.09	17.413
607.42	17.159
607.75	16.751
608.08	16.804
608.42	17.571
608.75	17.538
609.08	17.946
609.41	17.277
609.75	17.866
610.08	17.719
610.41	17.086
610.74	17.219
611.07	17.342
611.41	18.400
611.74	17.697
612.07	17.650
612.40	18.206
612.73	17.526
613.07	18.373
613.40	17.325
613.73	16.885
614.06	17.258
614.39	17.514
614.72	17.579
615.06	17.595
615.39	16.879
615.72	17.587
616.05	17.065
616.38	17.843
616.71	17.458
617.05	18.492
617.38	17.318
617.71	17.838
618.04	18.269
618.37	17.623
618.70	17.050
619.03	18.092
619.36	17.855
619.69	18.028
620.03	18.750
620.36	17.380
620.69	19.247
621.02	18.510
621.35	17.541
621.68	18.302
622.01	18.111
622.34	19.062
622.67	19.087
623.00	17.241
623.33	17.513
623.66	18.513
623.99	18.483
624.32	17.047
624.65	17.655
624.99	18.059
625.32	17.596
625.65	16.829
625.98	18.909
626.31	19.596
626.64	18.367
626.97	18.620
627.30	18.537
627.63	18.048
627.96	18.923
628.29	18.548
628.62	18.390
628.95	20.283
629.28	18.248
629.61	19.248
629.94	19.429
630.26	18.398
630.59	17.541
630.92	19.540
631.25	17.966
631.58	18.218
631.91	18.864
632.24	17.827
632.57	18.573
632.90	19.846
633.23	20.022
633.56	18.870
633.89	19.592
634.22	19.410
