SpectraSuite Data File
++++++++++++++++++++++++++++++++++++
Date: Wed May 13 15:58:38 PDT 2015
User: schluterlab
Dark Spectrum Present: Yes
Reference Spectrum Present: Yes
Number of Sampled Component Spectra: 1
Spectrometers: USB2E3373
Integration Time (usec): 3000 (USB2E3373)
Spectra Averaged: 3 (USB2E3373)
Boxcar Smoothing: 0 (USB2E3373)
Correct for Electrical Dark: No (USB2E3373)
Strobe/Lamp Enabled: No (USB2E3373)
Correct for Detector Non-linearity: No (USB2E3373)
Correct for Stray Light: No (USB2E3373)
Number of Pixels in Processed Spectrum: 2048
>>>>>Begin Processed Spectral Data<<<<<
178.53	0.000
178.91	-350.000
179.29	25.000
179.67	66.667
180.04	-250.000
180.42	150.000
180.80	260.000
181.18	-25.000
181.56	57.143
181.94	0.000
182.31	-57.143
182.69	533.333
183.07	-37.500
183.45	-122.222
183.83	109.091
184.20	-20.000
184.58	50.000
184.96	1600.000
185.34	-60.000
185.72	-37.500
186.09	-200.000
186.47	850.000
186.85	300.000
187.23	600.000
187.61	-733.333
187.98	275.000
188.36	36.364
188.74	145.455
189.12	-160.000
189.49	110.000
189.87	-300.000
190.25	-225.000
190.63	128.571
191.00	100.000
191.38	250.000
191.76	-425.000
192.14	325.000
192.51	137.500
192.89	350.000
193.27	75.000
193.65	-375.000
194.02	60.000
194.40	220.000
194.78	200.000
195.15	191.667
195.53	220.000
195.91	-300.000
196.29	93.750
196.66	115.789
197.04	-60.000
197.42	0.000
197.79	120.000
198.17	-200.000
198.55	71.429
198.92	125.000
199.30	220.000
199.68	0.000
200.05	105.556
200.43	57.143
200.81	-600.000
201.18	466.667
201.56	-200.000
201.94	111.111
202.31	144.444
202.69	75.000
203.07	120.000
203.44	0.000
203.82	125.000
204.19	85.714
204.57	135.714
204.95	200.000
205.32	366.667
205.70	118.182
206.08	57.143
206.45	400.000
206.83	131.250
207.20	150.000
207.58	-180.000
207.96	105.556
208.33	237.500
208.71	-16.667
209.08	157.143
209.46	188.889
209.84	81.818
210.21	-66.667
210.59	525.000
210.96	-12.500
211.34	1050.000
211.71	250.000
212.09	0.000
212.46	0.000
212.84	500.000
213.22	400.000
213.59	-100.000
213.97	233.333
214.34	185.714
214.72	163.636
215.09	380.000
215.47	-250.000
215.84	-450.000
216.22	200.000
216.59	157.143
216.97	50.000
217.34	172.727
217.72	-83.333
218.09	0.000
218.47	-1100.000
218.84	233.333
219.22	200.000
219.59	566.667
219.97	57.143
220.34	20.000
220.72	-400.000
221.09	121.429
221.47	450.000
221.84	-300.000
222.22	0.000
222.59	250.000
222.97	-650.000
223.34	440.000
223.72	130.769
224.09	300.000
224.46	550.000
224.84	-1000.000
225.21	-340.000
225.59	-700.000
225.96	200.000
226.34	125.000
226.71	600.000
227.08	237.500
227.46	170.000
227.83	-100.000
228.21	-450.000
228.58	288.889
228.95	-400.000
229.33	-0.000
229.70	366.667
230.08	214.286
230.45	60.000
230.82	108.333
231.20	150.000
231.57	185.714
231.95	116.667
232.32	86.364
232.69	45.455
233.07	200.000
233.44	100.000
233.81	-333.333
234.19	84.211
234.56	216.667
234.93	116.667
235.31	145.455
235.68	38.462
236.05	121.429
236.43	66.667
236.80	126.316
237.17	2400.000
237.55	123.810
237.92	67.857
238.29	85.714
238.67	96.774
239.04	127.586
239.41	66.667
239.79	91.304
240.16	97.619
240.53	72.727
240.91	60.784
241.28	86.000
241.65	98.000
242.02	79.710
242.40	88.710
242.77	105.000
243.14	73.118
243.51	74.157
243.89	76.471
244.26	75.556
244.63	65.591
245.00	67.021
245.38	71.287
245.75	73.832
246.12	69.725
246.49	74.453
246.87	80.000
247.24	80.000
247.61	76.429
247.98	64.052
248.36	68.243
248.73	68.790
249.10	75.159
249.47	74.011
249.84	74.332
250.22	72.193
250.59	74.556
250.96	72.727
251.33	74.882
251.70	69.802
252.08	75.238
252.45	63.229
252.82	70.000
253.19	71.915
253.56	68.235
253.94	75.519
254.31	69.922
254.68	68.846
255.05	67.897
255.42	66.667
255.79	68.382
256.16	73.646
256.54	63.958
256.91	65.836
257.28	66.187
257.65	64.686
258.02	66.770
258.39	67.192
258.76	64.214
259.14	67.262
259.51	65.046
259.88	66.460
260.25	70.091
260.62	69.364
260.99	68.944
261.36	67.568
261.73	65.616
262.10	68.895
262.47	67.887
262.85	63.788
263.22	62.108
263.59	70.085
263.96	66.484
264.33	63.708
264.70	66.842
265.07	67.263
265.44	66.919
265.81	61.314
266.18	68.844
266.55	58.293
266.92	66.830
267.29	65.741
267.66	63.303
268.03	66.136
268.40	67.056
268.77	65.155
269.14	65.090
269.51	64.334
269.88	64.569
270.25	65.463
270.62	65.393
270.99	65.591
271.36	63.519
271.73	66.121
272.10	64.348
272.47	64.086
272.84	62.554
273.21	61.006
273.58	62.227
273.95	61.006
274.32	61.157
274.69	65.953
275.06	64.764
275.43	64.255
275.80	62.525
276.17	61.303
276.54	61.746
276.91	62.055
277.28	60.938
277.65	62.282
278.02	62.319
278.39	64.063
278.76	63.273
279.13	60.755
279.50	61.825
279.87	60.359
280.23	61.277
280.60	62.669
280.97	58.780
281.34	63.363
281.71	60.909
282.08	62.380
282.45	58.182
282.82	58.615
283.19	59.715
283.56	60.351
283.92	60.745
284.29	59.965
284.66	59.165
285.03	57.866
285.40	59.683
285.77	58.754
286.14	57.858
286.51	58.833
286.87	58.974
287.24	58.632
287.61	58.587
287.98	57.305
288.35	57.845
288.72	55.607
289.08	56.025
289.45	55.189
289.82	55.772
290.19	54.317
290.56	54.518
290.93	52.719
291.29	54.601
291.66	56.342
292.03	53.634
292.40	56.241
292.77	52.663
293.13	54.030
293.50	52.041
293.87	52.889
294.24	51.704
294.60	50.364
294.97	50.000
295.34	53.032
295.71	49.858
296.08	48.575
296.44	52.957
296.81	49.670
297.18	50.542
297.55	48.417
297.91	48.549
298.28	49.799
298.65	48.825
299.02	50.725
299.38	49.801
299.75	47.035
300.12	47.382
300.48	49.250
300.85	48.089
301.22	48.153
301.59	45.707
301.95	47.229
302.32	47.368
302.69	47.431
303.05	48.364
303.42	45.556
303.79	46.319
304.15	45.455
304.52	45.539
304.89	45.412
305.25	46.056
305.62	44.960
305.99	47.698
306.35	46.421
306.72	47.422
307.09	47.059
307.45	47.410
307.82	45.312
308.19	46.026
308.55	47.033
308.92	45.435
309.29	45.195
309.65	44.539
310.02	44.820
310.38	46.452
310.75	44.984
311.12	45.036
311.48	46.186
311.85	45.597
312.22	46.306
312.58	45.010
312.95	46.779
313.31	43.786
313.68	44.802
314.05	45.464
314.41	45.729
314.78	46.727
315.14	45.680
315.51	46.447
315.87	44.950
316.24	45.680
316.61	43.762
316.97	43.346
317.34	44.031
317.70	45.411
318.07	46.391
318.43	44.814
318.80	45.455
319.16	44.633
319.53	43.152
319.89	44.190
320.26	46.700
320.62	45.337
320.99	46.263
321.35	45.758
321.72	45.791
322.08	46.298
322.45	45.672
322.81	45.058
323.18	44.605
323.54	43.599
323.91	44.623
324.27	46.176
324.64	46.132
325.00	45.807
325.37	47.134
325.73	47.307
326.10	46.955
326.46	47.581
326.83	48.576
327.19	47.737
327.56	45.906
327.92	47.069
328.29	47.560
328.65	47.698
329.01	48.285
329.38	46.716
329.74	46.907
330.11	48.162
330.47	45.271
330.84	47.426
331.20	47.723
331.56	47.431
331.93	47.407
332.29	45.785
332.66	46.106
333.02	44.973
333.38	47.606
333.75	47.594
334.11	47.064
334.48	46.140
334.84	47.243
335.20	46.273
335.57	45.603
335.93	44.464
336.29	45.879
336.66	46.078
337.02	45.520
337.38	45.741
337.75	45.276
338.11	45.389
338.47	45.672
338.84	45.646
339.20	46.330
339.56	45.529
339.93	44.727
340.29	45.743
340.65	44.118
341.02	44.590
341.38	44.751
341.74	44.211
342.11	44.629
342.47	44.581
342.83	43.836
343.20	45.281
343.56	42.881
343.92	43.947
344.28	44.813
344.65	44.454
345.01	44.276
345.37	43.225
345.73	44.839
346.10	44.416
346.46	43.983
346.82	42.339
347.19	43.442
347.55	43.678
347.91	45.227
348.27	43.796
348.63	43.144
349.00	41.828
349.36	43.268
349.72	42.903
350.08	42.220
350.45	43.613
350.81	43.298
351.17	42.382
351.53	42.834
351.89	42.162
352.26	42.305
352.62	42.903
352.98	42.220
353.34	43.139
353.70	41.653
354.07	42.016
354.43	41.032
354.79	40.949
355.15	41.740
355.51	43.885
355.87	43.347
356.24	42.345
356.60	42.582
356.96	43.363
357.32	42.110
357.68	43.307
358.04	41.964
358.40	42.597
358.77	42.332
359.13	41.436
359.49	42.039
359.85	41.587
360.21	41.388
360.57	42.646
360.93	42.077
361.29	40.212
361.66	41.641
362.02	41.493
362.38	40.684
362.74	41.220
363.10	40.340
363.46	41.086
363.82	41.270
364.18	41.410
364.54	41.828
364.90	41.572
365.26	40.809
365.62	42.367
365.98	41.709
366.35	41.189
366.71	41.866
367.07	41.588
367.43	42.525
367.79	41.542
368.15	43.032
368.51	41.497
368.87	41.185
369.23	42.356
369.59	42.650
369.95	41.544
370.31	42.236
370.67	40.507
371.03	43.146
371.39	42.420
371.75	43.162
372.11	41.323
372.47	42.889
372.83	42.291
373.19	41.691
373.55	42.203
373.91	42.710
374.27	41.512
374.63	41.455
374.99	41.596
375.35	41.731
375.71	41.056
376.07	42.661
376.42	41.816
376.78	42.280
377.14	41.927
377.50	42.980
377.86	41.290
378.22	42.920
378.58	40.977
378.94	42.175
379.30	43.321
379.66	43.274
380.02	42.629
380.38	42.744
380.74	43.157
381.09	42.848
381.45	43.208
381.81	42.998
382.17	43.503
382.53	43.396
382.89	43.827
383.25	44.215
383.61	44.114
383.97	43.027
384.32	43.231
384.68	43.990
385.04	44.253
385.40	43.282
385.76	43.428
386.12	44.819
386.48	44.745
386.83	44.772
387.19	45.640
387.55	44.898
387.91	43.349
388.27	43.716
388.62	44.868
388.98	43.366
389.34	44.994
389.70	43.532
390.06	45.120
390.42	43.969
390.77	44.402
391.13	44.799
391.49	44.797
391.85	43.794
392.20	44.543
392.56	45.518
392.92	45.380
393.28	44.142
393.64	44.664
393.99	44.533
394.35	44.975
394.71	44.793
395.07	44.174
395.42	45.488
395.78	44.529
396.14	44.444
396.50	45.551
396.85	44.946
397.21	44.760
397.57	43.583
397.92	46.274
398.28	43.330
398.64	43.369
399.00	45.048
399.35	44.839
399.71	45.255
400.07	45.772
400.42	44.724
400.78	44.089
401.14	44.634
401.49	44.657
401.85	43.981
402.21	44.012
402.57	44.479
402.92	44.704
403.28	44.847
403.63	44.307
403.99	44.968
404.35	44.485
404.70	44.844
405.06	44.380
405.42	44.666
405.77	45.257
406.13	43.849
406.49	44.293
406.84	45.009
407.20	43.676
407.55	45.118
407.91	45.200
408.27	44.990
408.62	43.889
408.98	44.792
409.34	43.727
409.69	44.968
410.05	45.353
410.40	44.098
410.76	44.026
411.11	44.089
411.47	43.962
411.83	44.105
412.18	44.527
412.54	44.707
412.89	44.940
413.25	43.388
413.60	45.954
413.96	44.869
414.31	44.107
414.67	44.423
415.03	44.636
415.38	45.361
415.74	43.859
416.09	46.506
416.45	44.645
416.80	44.547
417.16	45.509
417.51	44.592
417.87	44.509
418.22	45.110
418.58	44.222
418.93	45.209
419.29	45.894
419.64	45.466
420.00	44.146
420.35	44.000
420.71	45.129
421.06	44.928
421.42	44.854
421.77	44.675
422.12	43.908
422.48	45.062
422.83	45.428
423.19	43.923
423.54	44.167
423.90	44.986
424.25	44.947
424.61	44.702
424.96	45.131
425.31	44.020
425.67	43.764
426.02	43.486
426.38	45.665
426.73	43.944
427.09	44.438
427.44	44.853
427.79	44.681
428.15	45.119
428.50	44.002
428.85	44.458
429.21	44.948
429.56	44.997
429.92	44.338
430.27	43.446
430.62	45.417
430.98	45.459
431.33	43.763
431.68	44.974
432.04	43.610
432.39	44.260
432.74	44.704
433.10	44.312
433.45	44.665
433.80	44.346
434.16	45.726
434.51	44.158
434.86	46.237
435.22	44.691
435.57	44.255
435.92	44.061
436.28	44.721
436.63	45.585
436.98	45.220
437.34	45.915
437.69	46.091
438.04	44.800
438.39	44.657
438.75	44.858
439.10	45.084
439.45	44.510
439.81	45.196
440.16	44.551
440.51	44.757
440.86	46.149
441.22	44.160
441.57	45.382
441.92	46.059
442.27	45.802
442.63	44.760
442.98	45.859
443.33	45.109
443.68	44.812
444.03	44.607
444.39	44.255
444.74	45.022
445.09	44.636
445.44	44.833
445.79	44.532
446.15	44.150
446.50	43.565
446.85	45.478
447.20	44.161
447.55	46.231
447.91	44.567
448.26	45.576
448.61	44.828
448.96	45.570
449.31	46.063
449.66	44.457
450.02	44.513
450.37	44.388
450.72	44.557
451.07	43.876
451.42	43.708
451.77	45.625
452.12	43.880
452.47	44.216
452.83	45.338
453.18	43.337
453.53	46.135
453.88	44.891
454.23	44.770
454.58	45.972
454.93	45.327
455.28	44.576
455.63	45.510
455.98	45.536
456.34	44.347
456.69	45.523
457.04	45.077
457.39	44.185
457.74	43.935
458.09	45.083
458.44	45.781
458.79	44.035
459.14	45.316
459.49	44.892
459.84	44.654
460.19	43.960
460.54	43.519
460.89	44.487
461.24	44.627
461.59	45.322
461.94	43.896
462.29	44.807
462.64	44.225
462.99	43.656
463.34	44.667
463.69	44.465
464.04	43.942
464.39	44.290
464.74	44.979
465.09	43.124
465.44	44.598
465.79	43.736
466.14	44.718
466.49	43.215
466.84	43.666
467.19	44.357
467.54	43.562
467.89	43.818
468.24	43.572
468.59	44.261
468.94	42.761
469.29	44.152
469.64	44.043
469.99	43.708
470.34	44.320
470.68	43.103
471.03	43.673
471.38	43.711
471.73	42.905
472.08	43.355
472.43	43.028
472.78	43.120
473.13	43.196
473.48	43.883
473.83	44.146
474.17	42.564
474.52	43.983
474.87	44.016
475.22	43.877
475.57	43.471
475.92	44.025
476.27	42.390
476.61	43.409
476.96	42.991
477.31	41.654
477.66	43.709
478.01	43.126
478.36	44.209
478.70	42.627
479.05	42.332
479.40	43.603
479.75	43.416
480.10	43.588
480.45	43.122
480.79	42.093
481.14	43.444
481.49	43.237
481.84	42.753
482.19	44.162
482.53	43.073
482.88	43.974
483.23	42.523
483.58	42.766
483.92	43.252
484.27	41.133
484.62	41.897
484.97	43.004
485.31	44.178
485.66	45.674
486.01	45.947
486.36	44.312
486.70	43.686
487.05	43.415
487.40	43.131
487.75	42.442
488.09	41.978
488.44	41.528
488.79	41.627
489.13	41.788
489.48	41.803
489.83	41.303
490.17	41.736
490.52	41.364
490.87	42.108
491.22	41.428
491.56	41.913
491.91	42.392
492.26	40.239
492.60	41.935
492.95	41.347
493.30	40.607
493.64	41.577
493.99	40.901
494.34	41.582
494.68	41.163
495.03	40.977
495.37	41.322
495.72	41.033
496.07	40.882
496.41	40.796
496.76	42.524
497.11	41.468
497.45	41.407
497.80	41.075
498.14	40.628
498.49	40.780
498.84	41.227
499.18	40.286
499.53	40.931
499.87	40.727
500.22	40.603
500.56	41.408
500.91	39.904
501.26	41.110
501.60	41.433
501.95	40.788
502.29	41.753
502.64	41.248
502.98	41.234
503.33	41.133
503.67	40.928
504.02	40.692
504.36	40.384
504.71	40.645
505.06	40.048
505.40	40.156
505.75	39.923
506.09	39.845
506.44	41.145
506.78	39.308
507.13	40.586
507.47	39.747
507.82	40.679
508.16	39.868
508.51	41.147
508.85	39.275
509.19	40.255
509.54	40.867
509.88	40.237
510.23	40.308
510.57	40.506
510.92	39.720
511.26	40.031
511.61	39.523
511.95	38.935
512.30	39.396
512.64	38.474
512.98	39.389
513.33	38.597
513.67	38.314
514.02	38.799
514.36	38.777
514.70	39.181
515.05	38.260
515.39	38.755
515.74	38.795
516.08	38.345
516.42	39.068
516.77	39.855
517.11	38.624
517.46	38.488
517.80	39.721
518.14	37.232
518.49	39.382
518.83	37.500
519.17	38.222
519.52	38.879
519.86	38.620
520.20	38.497
520.55	38.600
520.89	38.747
521.23	37.998
521.58	39.196
521.92	37.844
522.26	36.181
522.61	38.879
522.95	37.201
523.29	36.701
523.64	38.354
523.98	37.831
524.32	38.058
524.66	38.064
525.01	38.113
525.35	36.431
525.69	37.500
526.04	37.944
526.38	37.645
526.72	37.546
527.06	38.230
527.41	35.458
527.75	38.006
528.09	37.058
528.43	37.285
528.78	38.168
529.12	38.121
529.46	38.457
529.80	37.562
530.15	37.508
530.49	36.677
530.83	37.342
531.17	38.903
531.51	37.743
531.86	36.516
532.20	37.679
532.54	35.874
532.88	37.035
533.22	36.602
533.57	37.963
533.91	37.929
534.25	37.485
534.59	37.279
534.93	36.169
535.27	36.512
535.62	37.668
535.96	38.230
536.30	36.618
536.64	36.896
536.98	36.894
537.32	34.299
537.66	36.467
538.01	37.064
538.35	37.621
538.69	37.141
539.03	35.802
539.37	35.974
539.71	35.839
540.05	37.386
540.39	36.213
540.73	35.899
541.07	37.768
541.42	36.986
541.76	35.871
542.10	37.387
542.44	36.291
542.78	37.088
543.12	36.468
543.46	37.180
543.80	36.500
544.14	36.650
544.48	36.190
544.82	35.407
545.16	35.979
545.50	36.118
545.84	36.223
546.18	36.296
546.52	36.545
546.86	36.289
547.20	37.087
547.54	35.471
547.88	37.309
548.22	35.866
548.56	36.352
548.90	36.492
549.24	36.296
549.58	35.948
549.92	34.959
550.26	36.364
550.60	35.408
550.94	34.507
551.28	34.455
551.62	36.089
551.96	34.807
552.30	35.836
552.64	36.105
552.98	35.525
553.32	34.255
553.66	35.174
554.00	35.896
554.34	34.921
554.68	34.907
555.02	34.697
555.36	34.934
555.69	34.100
556.03	34.388
556.37	35.471
556.71	34.652
557.05	34.244
557.39	34.850
557.73	35.215
558.07	35.460
558.41	34.877
558.75	34.313
559.08	34.377
559.42	34.618
559.76	33.897
560.10	34.904
560.44	35.220
560.78	34.398
561.12	35.488
561.45	36.115
561.79	35.333
562.13	34.339
562.47	35.109
562.81	34.798
563.15	34.114
563.48	34.019
563.82	35.486
564.16	34.859
564.50	35.156
564.84	34.134
565.17	35.006
565.51	34.313
565.85	34.518
566.19	34.189
566.52	35.022
566.86	34.780
567.20	34.847
567.54	35.502
567.88	35.687
568.21	36.243
568.55	36.603
568.89	36.430
569.23	37.210
569.56	36.397
569.90	38.000
570.24	37.029
570.57	36.790
570.91	37.233
571.25	36.813
571.59	37.526
571.92	37.385
572.26	37.117
572.60	37.387
572.93	36.252
573.27	36.971
573.61	37.326
573.95	37.984
574.28	37.513
574.62	37.293
574.96	37.252
575.29	36.930
575.63	36.687
575.97	36.058
576.30	36.617
576.64	37.276
576.98	37.141
577.31	37.084
577.65	37.872
577.98	37.475
578.32	37.272
578.66	36.730
578.99	37.001
579.33	36.795
579.67	36.171
580.00	36.658
580.34	36.664
580.67	36.114
581.01	36.789
581.35	37.513
581.68	38.163
582.02	37.642
582.35	37.667
582.69	37.351
583.02	36.619
583.36	36.200
583.70	36.638
584.03	36.024
584.37	36.311
584.70	36.755
585.04	36.595
585.37	36.766
585.71	37.453
586.04	36.700
586.38	36.834
586.72	36.316
587.05	36.457
587.39	36.253
587.72	36.382
588.06	35.832
588.39	35.693
588.73	35.758
589.06	35.058
589.40	35.455
589.73	34.988
590.07	35.053
590.40	34.856
590.73	35.480
591.07	35.857
591.40	34.416
591.74	35.931
592.07	35.340
592.41	35.304
592.74	35.955
593.08	36.775
593.41	36.666
593.75	35.728
594.08	34.998
594.41	35.560
594.75	35.601
595.08	35.147
595.42	35.657
595.75	34.829
596.09	35.411
596.42	34.774
596.75	33.643
597.09	35.498
597.42	34.022
597.75	34.886
598.09	34.304
598.42	34.751
598.76	34.455
599.09	34.968
599.42	35.626
599.76	34.919
600.09	35.410
600.42	34.733
600.76	34.679
601.09	34.098
601.42	35.084
601.76	35.256
602.09	35.178
602.42	34.753
602.76	34.784
603.09	34.343
603.42	35.338
603.76	34.985
604.09	34.316
604.42	34.611
604.76	35.133
605.09	34.207
605.42	33.732
605.75	34.354
606.09	34.404
606.42	34.655
606.75	34.094
607.09	33.989
607.42	34.360
607.75	33.924
608.08	33.608
608.42	34.110
608.75	33.544
609.08	33.719
609.41	32.984
609.75	32.968
610.08	35.014
610.41	33.845
610.74	33.775
611.07	33.696
611.41	34.053
611.74	34.791
612.07	33.747
612.40	33.683
612.73	33.263
613.07	33.944
613.40	33.913
613.73	32.564
614.06	32.849
614.39	33.036
614.72	32.789
615.06	33.298
615.39	34.076
615.72	32.975
616.05	32.908
616.38	32.574
616.71	32.779
617.05	33.922
617.38	32.471
617.71	33.874
618.04	33.413
618.37	32.762
618.70	31.985
619.03	32.763
619.36	31.840
619.69	32.042
620.03	31.593
620.36	32.888
620.69	31.918
621.02	32.448
621.35	29.757
621.68	31.231
622.01	30.263
622.34	31.619
622.67	32.091
623.00	30.227
623.33	30.808
623.66	31.380
623.99	31.222
624.32	31.027
624.65	31.850
624.99	30.878
625.32	30.630
625.65	31.104
625.98	31.591
626.31	31.571
626.64	31.102
626.97	30.590
627.30	29.925
627.63	31.665
627.96	31.371
628.29	29.746
628.62	29.735
628.95	30.377
629.28	30.292
629.61	31.256
629.94	30.952
630.26	30.505
630.59	29.933
630.92	27.586
631.25	30.010
631.58	28.028
631.91	28.398
632.24	28.903
632.57	27.702
632.90	29.825
633.23	28.635
