SpectraSuite Data File
++++++++++++++++++++++++++++++++++++
Date: Wed May 13 16:24:51 PDT 2015
User: schluterlab
Dark Spectrum Present: Yes
Reference Spectrum Present: Yes
Number of Sampled Component Spectra: 1
Spectrometers: USB2E3373
Integration Time (usec): 3000 (USB2E3373)
Spectra Averaged: 3 (USB2E3373)
Boxcar Smoothing: 0 (USB2E3373)
Correct for Electrical Dark: No (USB2E3373)
Strobe/Lamp Enabled: No (USB2E3373)
Correct for Detector Non-linearity: No (USB2E3373)
Correct for Stray Light: No (USB2E3373)
Number of Pixels in Processed Spectrum: 2048
>>>>>Begin Processed Spectral Data<<<<<
178.53	0.000
178.91	-1475.000
179.29	-1225.000
179.67	-222.222
180.04	-950.000
180.42	2800.000
180.80	960.000
181.18	-925.000
181.56	600.000
181.94	0.000
182.31	-628.571
182.69	1666.667
183.07	-487.500
183.45	-500.000
183.83	445.455
184.20	-370.000
184.58	2550.000
184.96	5400.000
185.34	-860.000
185.72	-625.000
186.09	-2200.000
186.47	3000.000
186.85	2400.000
187.23	5100.000
187.61	-1766.667
187.98	1350.000
188.36	500.000
188.74	500.000
189.12	-860.000
189.49	560.000
189.87	-4300.000
190.25	-1100.000
190.63	400.000
191.00	369.231
191.38	833.333
191.76	-850.000
192.14	1275.000
192.51	600.000
192.89	916.667
193.27	525.000
193.65	-1150.000
194.02	460.000
194.40	920.000
194.78	490.000
195.15	533.333
195.53	670.000
195.91	-2200.000
196.29	331.250
196.66	273.684
197.04	-400.000
197.42	0.000
197.79	630.000
198.17	-4700.000
198.55	700.000
198.92	700.000
199.30	880.000
199.68	0.000
200.05	305.556
200.43	728.571
200.81	4400.000
201.18	1733.333
201.56	-1366.667
201.94	566.667
202.31	577.778
202.69	458.333
203.07	490.000
203.44	0.000
203.82	1225.000
204.19	842.857
204.57	364.286
204.95	587.500
205.32	1566.667
205.70	536.364
206.08	364.286
206.45	3100.000
206.83	325.000
207.20	883.333
207.58	840.000
207.96	305.556
208.33	675.000
208.71	-783.333
209.08	800.000
209.46	588.889
209.84	481.818
210.21	-1733.333
210.59	1100.000
210.96	-550.000
211.34	2150.000
211.71	600.000
212.09	683.333
212.46	0.000
212.84	1733.333
213.22	1425.000
213.59	-5900.000
213.97	666.667
214.34	657.143
214.72	545.455
215.09	940.000
215.47	-2050.000
215.84	-2600.000
216.22	1433.333
216.59	392.857
216.97	1275.000
217.34	363.636
217.72	-800.000
218.09	0.000
218.47	-4800.000
218.84	677.778
219.22	785.714
219.59	1333.333
219.97	-585.714
220.34	880.000
220.72	-1500.000
221.09	435.714
221.47	1475.000
221.84	-800.000
222.22	0.000
222.59	1175.000
222.97	-2300.000
223.34	1140.000
223.72	469.231
224.09	1080.000
224.46	2350.000
224.84	-4600.000
225.21	-1040.000
225.59	-4400.000
225.96	520.000
226.34	330.000
226.71	2750.000
227.08	550.000
227.46	590.000
227.83	-975.000
228.21	-1850.000
228.58	533.333
228.95	-2250.000
229.33	-2200.000
229.70	1633.333
230.08	671.429
230.45	-980.000
230.82	475.000
231.20	733.333
231.57	657.143
231.95	375.000
232.32	254.545
232.69	300.000
233.07	685.714
233.44	338.462
233.81	-1433.333
234.19	257.895
234.56	400.000
234.93	308.333
235.31	472.727
235.68	315.385
236.05	221.429
236.43	172.727
236.80	236.842
237.17	3800.000
237.55	209.524
237.92	167.857
238.29	242.857
238.67	158.065
239.04	182.759
239.41	138.889
239.79	91.304
240.16	119.048
240.53	104.545
240.91	84.314
241.28	80.000
241.65	60.000
242.02	85.507
242.40	54.839
242.77	71.667
243.14	56.989
243.51	56.180
243.89	54.118
244.26	41.111
244.63	51.613
245.00	43.617
245.38	37.624
245.75	42.056
246.12	32.110
246.49	50.365
246.87	40.000
247.24	43.077
247.61	35.000
247.98	30.719
248.36	27.027
248.73	25.478
249.10	30.573
249.47	31.073
249.84	27.273
250.22	31.551
250.59	20.710
250.96	21.212
251.33	28.436
251.70	32.673
252.08	23.810
252.45	19.283
252.82	22.609
253.19	24.255
253.56	23.529
253.94	20.747
254.31	19.141
254.68	20.000
255.05	19.557
255.42	24.390
255.79	18.382
256.16	20.939
256.54	16.608
256.91	18.505
257.28	13.309
257.65	17.822
258.02	14.286
258.39	15.457
258.76	17.057
259.14	14.881
259.51	13.678
259.88	11.801
260.25	14.199
260.62	14.451
260.99	12.112
261.36	16.817
261.73	12.894
262.10	9.593
262.47	15.493
262.85	13.649
263.22	12.536
263.59	14.530
263.96	11.813
264.33	14.099
264.70	11.053
265.07	13.043
265.44	14.141
265.81	10.706
266.18	13.568
266.55	13.171
266.92	9.828
267.29	11.111
267.66	12.844
268.03	12.500
268.40	14.019
268.77	11.933
269.14	10.586
269.51	11.061
269.88	11.888
270.25	12.641
270.62	11.685
270.99	12.688
271.36	11.373
271.73	8.411
272.10	11.087
272.47	11.398
272.84	10.390
273.21	11.740
273.58	9.825
273.95	7.757
274.32	10.124
274.69	9.208
275.06	9.055
275.43	10.638
275.80	10.621
276.17	9.572
276.54	10.811
276.91	9.091
277.28	8.984
277.65	10.638
278.02	8.282
278.39	10.937
278.76	8.545
279.13	11.509
279.50	9.125
279.87	10.757
280.23	8.184
280.60	8.897
280.97	7.024
281.34	9.381
281.71	10.182
282.08	9.981
282.45	8.182
282.82	9.414
283.19	6.239
283.56	8.070
283.92	7.953
284.29	10.053
284.66	9.256
285.03	7.233
285.40	7.923
285.77	8.923
286.14	8.290
286.51	7.833
286.87	9.915
287.24	9.609
287.61	8.347
287.98	8.929
288.35	6.973
288.72	7.632
289.08	8.294
289.45	8.237
289.82	7.480
290.19	8.477
290.56	9.342
290.93	5.891
291.29	7.209
291.66	8.997
292.03	9.593
292.40	8.957
292.77	6.509
293.13	8.955
293.50	7.726
293.87	7.259
294.24	5.481
294.60	6.114
294.97	6.541
295.34	6.911
295.71	6.818
296.08	5.271
296.44	6.740
296.81	7.266
297.18	7.724
297.55	5.145
297.91	5.013
298.28	7.229
298.65	7.572
299.02	8.169
299.38	5.976
299.75	4.852
300.12	4.981
300.48	6.500
300.85	6.905
301.22	6.242
301.59	5.556
301.95	7.053
302.32	5.520
302.69	6.093
303.05	5.455
303.42	4.568
303.79	6.002
304.15	4.312
304.52	4.519
304.89	6.039
305.25	6.148
305.62	7.135
305.99	6.139
306.35	6.264
306.72	5.157
307.09	5.660
307.45	6.982
307.82	4.464
308.19	5.740
308.55	5.070
308.92	5.693
309.29	5.069
309.65	5.620
310.02	5.180
310.38	5.269
310.75	5.491
311.12	5.220
311.48	5.329
311.85	4.822
312.22	5.515
312.58	4.678
312.95	6.125
313.31	5.243
313.68	5.509
314.05	7.495
314.41	5.729
314.78	4.632
315.14	4.866
315.51	5.767
315.87	6.535
316.24	5.263
316.61	5.653
316.97	4.990
317.34	4.012
317.70	5.927
318.07	5.679
318.43	5.479
318.80	5.623
319.16	6.121
319.53	6.285
319.89	6.000
320.26	7.100
320.62	5.456
320.99	5.758
321.35	6.263
321.72	6.160
322.08	6.910
322.45	6.965
322.81	6.589
323.18	6.936
323.54	7.236
323.91	7.736
324.27	7.648
324.64	5.871
325.00	6.763
325.37	7.006
325.73	7.720
326.10	7.237
326.46	6.900
326.83	8.197
327.19	8.284
327.56	7.927
327.92	6.912
328.29	8.696
328.65	8.011
329.01	7.581
329.38	8.141
329.74	8.495
330.11	7.446
330.47	7.805
330.84	9.559
331.20	8.652
331.56	9.541
331.93	7.778
332.29	8.784
332.66	8.938
333.02	8.227
333.38	8.672
333.75	9.982
334.11	10.320
334.48	8.784
334.84	8.915
335.20	9.091
335.57	8.885
335.93	7.589
336.29	9.249
336.66	9.017
337.02	7.149
337.38	8.889
337.75	7.754
338.11	8.863
338.47	8.840
338.84	9.716
339.20	9.083
339.56	9.215
339.93	8.545
340.29	7.428
340.65	8.734
341.02	9.686
341.38	8.897
341.74	9.649
342.11	8.472
342.47	8.987
342.83	8.904
343.20	8.918
343.56	8.425
343.92	9.035
344.28	9.439
344.65	8.856
345.01	8.923
345.37	7.290
345.73	8.714
346.10	9.037
346.46	9.237
346.82	9.390
347.19	8.438
347.55	8.703
347.91	8.900
348.27	9.532
348.63	9.615
349.00	9.304
349.36	8.046
349.72	9.062
350.08	8.266
350.45	8.462
350.81	8.773
351.17	8.995
351.53	8.518
351.89	8.746
352.26	9.392
352.62	9.142
352.98	7.942
353.34	8.217
353.70	6.874
354.07	9.032
354.43	8.968
354.79	7.804
355.15	8.061
355.51	9.832
355.87	8.653
356.24	9.039
356.60	8.019
356.96	9.171
357.32	8.585
357.68	8.110
358.04	8.709
358.40	8.868
358.77	9.546
359.13	8.998
359.49	9.961
359.85	7.619
360.21	7.656
360.57	9.183
360.93	8.923
361.29	9.070
361.66	8.514
362.02	9.552
362.38	9.658
362.74	8.333
363.10	8.586
363.46	8.877
363.82	8.919
364.18	8.884
364.54	9.955
364.90	9.348
365.26	8.971
365.62	9.423
365.98	9.204
366.35	8.596
366.71	10.051
367.07	8.813
367.43	9.579
367.79	9.636
368.15	9.770
368.51	8.648
368.87	9.850
369.23	9.876
369.59	10.427
369.95	8.897
370.31	9.687
370.67	9.783
371.03	10.037
371.39	9.840
371.75	9.485
372.11	9.815
372.47	9.311
372.83	10.159
373.19	9.465
373.55	9.165
373.91	10.088
374.27	10.034
374.63	9.309
374.99	10.240
375.35	9.560
375.71	10.350
376.07	10.974
376.42	9.835
376.78	10.404
377.14	9.362
377.50	10.596
377.86	9.309
378.22	10.556
378.58	9.649
378.94	9.994
379.30	9.288
379.66	10.343
380.02	10.811
380.38	10.200
380.74	10.804
381.09	10.758
381.45	10.695
381.81	10.872
382.17	10.573
382.53	10.566
382.89	11.235
383.25	10.444
383.61	11.214
383.97	10.819
384.32	11.229
384.68	10.843
385.04	11.432
385.40	11.207
385.76	11.916
386.12	10.946
386.48	11.328
386.83	12.187
387.19	11.441
387.55	11.750
387.91	10.943
388.27	11.220
388.62	12.293
388.98	11.671
389.34	12.328
389.70	12.630
390.06	12.674
390.42	11.933
390.77	12.468
391.13	11.295
391.49	12.563
391.85	11.712
392.20	10.789
392.56	12.121
392.92	11.242
393.28	10.651
393.64	12.650
393.99	11.668
394.35	12.407
394.71	12.359
395.07	12.212
395.42	12.176
395.78	12.913
396.14	12.601
396.50	12.970
396.85	12.905
397.21	12.330
397.57	12.461
397.92	12.921
398.28	12.108
398.64	12.724
399.00	12.759
399.35	11.619
399.71	12.500
400.07	13.424
400.42	13.129
400.78	13.148
401.14	12.378
401.49	12.358
401.85	12.946
402.21	12.934
402.57	12.832
402.92	12.863
403.28	13.054
403.63	12.252
403.99	12.930
404.35	13.030
404.70	12.470
405.06	12.988
405.42	12.664
405.77	12.857
406.13	13.093
406.49	12.833
406.84	13.172
407.20	12.884
407.55	12.891
407.91	13.400
408.27	12.763
408.62	12.402
408.98	12.132
409.34	12.977
409.69	13.806
410.05	13.073
410.40	13.884
410.76	13.620
411.11	13.329
411.47	13.163
411.83	13.561
412.18	12.925
412.54	12.765
412.89	13.373
413.25	13.400
413.60	13.156
413.96	12.872
414.31	12.940
414.67	14.195
415.03	13.444
415.38	14.304
415.74	12.990
416.09	13.455
416.45	13.521
416.80	12.426
417.16	14.477
417.51	13.537
417.87	13.809
418.22	13.565
418.58	14.848
418.93	13.575
419.29	14.131
419.64	13.413
420.00	14.146
420.35	14.493
420.71	14.047
421.06	13.902
421.42	13.392
421.77	13.789
422.12	13.251
422.48	13.276
422.83	13.628
423.19	13.923
423.54	13.233
423.90	14.667
424.25	13.456
424.61	14.583
424.96	14.111
425.31	13.843
425.67	13.596
426.02	13.657
426.38	14.103
426.73	13.926
427.09	13.678
427.44	14.031
427.79	14.146
428.15	14.405
428.50	14.102
428.85	14.601
429.21	13.363
429.56	13.167
429.92	14.293
430.27	13.952
430.62	13.210
430.98	13.389
431.33	14.588
431.68	13.717
432.04	14.217
432.39	14.106
432.74	14.662
433.10	14.714
433.45	14.810
433.80	14.135
434.16	13.996
434.51	13.737
434.86	14.652
435.22	14.730
435.57	13.982
435.92	14.160
436.28	14.828
436.63	15.232
436.98	14.310
437.34	14.967
437.69	15.578
438.04	14.615
438.39	15.045
438.75	15.166
439.10	14.637
439.45	15.171
439.81	14.743
440.16	14.399
440.51	15.407
440.86	14.939
441.22	14.461
441.57	14.862
441.92	14.995
442.27	14.639
442.63	14.271
442.98	14.873
443.33	14.674
443.68	14.404
444.03	14.348
444.39	14.314
444.74	14.935
445.09	15.310
445.44	14.543
445.79	15.141
446.15	15.617
446.50	15.078
446.85	14.440
447.20	14.788
447.55	14.852
447.91	14.837
448.26	15.136
448.61	14.924
448.96	15.061
449.31	15.579
449.66	15.363
450.02	14.875
450.37	15.420
450.72	14.608
451.07	15.052
451.42	14.468
451.77	15.150
452.12	15.242
452.47	15.796
452.83	15.326
453.18	14.976
453.53	14.966
453.88	15.771
454.23	15.481
454.58	15.809
454.93	16.211
455.28	15.648
455.63	16.262
455.98	15.595
456.34	15.515
456.69	16.155
457.04	16.223
457.39	14.319
457.74	15.612
458.09	15.756
458.44	15.165
458.79	14.479
459.14	15.463
459.49	15.178
459.84	15.568
460.19	15.734
460.54	15.104
460.89	16.292
461.24	15.118
461.59	16.386
461.94	16.338
462.29	15.905
462.64	15.699
462.99	15.290
463.34	16.400
463.69	16.573
464.04	16.290
464.39	16.058
464.74	15.686
465.09	15.802
465.44	14.792
465.79	15.940
466.14	15.380
466.49	15.628
466.84	15.820
467.19	15.510
467.54	16.312
467.89	15.426
468.24	15.590
468.59	15.690
468.94	14.966
469.29	16.388
469.64	17.537
469.99	16.103
470.34	16.116
470.68	15.805
471.03	16.667
471.38	16.261
471.73	16.189
472.08	16.842
472.43	16.080
472.78	15.997
473.13	16.688
473.48	16.667
473.83	16.585
474.17	15.930
474.52	16.625
474.87	15.528
475.22	15.032
475.57	15.529
475.92	15.613
476.27	16.291
476.61	15.830
476.96	14.953
477.31	15.280
477.66	16.357
478.01	14.584
478.36	15.970
478.70	14.849
479.05	15.655
479.40	15.404
479.75	15.201
480.10	15.159
480.45	14.707
480.79	14.907
481.14	15.362
481.49	15.804
481.84	15.455
482.19	15.357
482.53	15.275
482.88	15.589
483.23	15.607
483.58	15.287
483.92	15.511
484.27	14.858
484.62	15.216
484.97	14.781
485.31	14.486
485.66	13.545
486.01	12.620
486.36	11.859
486.70	12.097
487.05	12.945
487.40	13.279
487.75	13.773
488.09	14.043
488.44	14.410
488.79	15.190
489.13	15.508
489.48	14.396
489.83	14.804
490.17	14.950
490.52	15.146
490.87	15.378
491.22	15.189
491.56	14.806
491.91	15.123
492.26	15.021
492.60	15.346
492.95	14.733
493.30	14.953
493.64	15.026
493.99	14.763
494.34	15.772
494.68	15.705
495.03	16.118
495.37	15.030
495.72	15.692
496.07	15.684
496.41	14.867
496.76	14.908
497.11	15.579
497.45	15.277
497.80	15.835
498.14	15.314
498.49	15.463
498.84	16.059
499.18	15.333
499.53	14.957
499.87	15.191
500.22	16.109
500.56	16.019
500.91	15.433
501.26	15.410
501.60	16.327
501.95	15.399
502.29	16.073
502.64	15.549
502.98	15.708
503.33	14.991
503.67	15.545
504.02	15.622
504.36	16.191
504.71	15.779
505.06	15.663
505.40	15.654
505.75	15.670
506.09	16.375
506.44	16.330
506.78	15.977
507.13	16.608
507.47	16.263
507.82	16.312
508.16	15.451
508.51	16.641
508.85	16.385
509.19	16.122
509.54	16.378
509.88	16.744
510.23	16.915
510.57	17.079
510.92	16.882
511.26	17.215
511.61	16.701
511.95	16.649
512.30	16.861
512.64	16.550
512.98	16.667
513.33	17.238
513.67	17.289
514.02	16.126
514.36	17.368
514.70	17.377
515.05	17.345
515.39	18.059
515.74	17.399
516.08	17.608
516.42	18.257
516.77	19.064
517.11	17.259
517.46	17.889
517.80	18.351
518.14	16.676
518.49	17.445
518.83	18.011
519.17	17.494
519.52	17.883
519.86	18.540
520.20	18.266
520.55	18.971
520.89	18.917
521.23	19.240
521.58	18.187
521.92	17.697
522.26	17.633
522.61	18.629
522.95	18.171
523.29	18.077
523.64	19.024
523.98	19.409
524.32	18.697
524.66	18.340
525.01	18.811
525.35	19.145
525.69	18.288
526.04	18.442
526.38	18.670
526.72	18.650
527.06	17.577
527.41	16.832
527.75	19.228
528.09	19.011
528.43	19.439
528.78	18.931
529.12	18.606
529.46	18.494
529.80	18.564
530.15	19.252
530.49	18.092
530.83	19.304
531.17	18.930
531.51	19.585
531.86	19.613
532.20	20.339
532.54	19.218
532.88	19.127
533.22	18.551
533.57	18.519
533.91	18.122
534.25	18.287
534.59	19.036
534.93	19.215
535.27	18.407
535.62	18.376
535.96	18.142
536.30	19.008
536.64	19.704
536.98	18.779
537.32	19.618
537.66	19.200
538.01	19.816
538.35	19.263
538.69	19.974
539.03	18.129
539.37	18.530
539.71	18.017
540.05	18.105
540.39	18.605
540.73	18.758
541.07	19.079
541.42	19.700
541.76	19.935
542.10	19.082
542.44	19.338
542.78	19.368
543.12	18.682
543.46	19.607
543.80	18.803
544.14	18.549
544.48	19.365
544.82	19.051
545.16	19.519
545.50	18.573
545.84	19.355
546.18	20.135
546.52	19.959
546.86	19.038
547.20	19.488
547.54	19.506
547.88	19.962
548.22	17.995
548.56	18.302
548.90	18.886
549.24	18.384
549.58	19.304
549.92	19.437
550.26	19.815
550.60	18.741
550.94	19.577
551.28	19.386
551.62	19.770
551.96	18.526
552.30	19.727
552.64	19.067
552.98	19.797
553.32	19.083
553.66	19.018
554.00	19.492
554.34	18.288
554.68	20.100
555.02	19.182
555.36	20.181
555.69	17.862
556.03	19.919
556.37	20.532
556.71	18.759
557.05	19.678
557.39	19.734
557.73	19.760
558.07	19.507
558.41	19.899
558.75	20.059
559.08	20.358
559.42	19.577
559.76	20.074
560.10	19.986
560.44	19.008
560.78	19.361
561.12	19.327
561.45	19.231
561.79	19.183
562.13	19.517
562.47	19.331
562.81	19.247
563.15	19.465
563.48	19.629
563.82	19.113
564.16	19.097
564.50	18.880
564.84	19.785
565.17	18.790
565.51	19.169
565.85	18.845
566.19	18.284
566.52	18.176
566.86	17.661
567.20	19.222
567.54	18.037
567.88	17.273
568.21	17.989
568.55	17.442
568.89	16.780
569.23	17.112
569.56	16.599
569.90	15.774
570.24	15.752
570.57	15.879
570.91	14.932
571.25	15.256
571.59	15.287
571.92	14.919
572.26	14.789
572.60	15.405
572.93	15.052
573.27	15.203
573.61	15.438
573.95	15.090
574.28	14.497
574.62	14.747
574.96	14.170
575.29	14.282
575.63	14.990
575.97	14.892
576.30	15.162
576.64	14.834
576.98	14.511
577.31	13.817
577.65	14.376
577.98	14.335
578.32	13.860
578.66	14.277
578.99	14.175
579.33	14.791
579.67	14.254
580.00	14.433
580.34	14.950
580.67	14.630
581.01	14.617
581.35	14.216
581.68	14.171
582.02	13.679
582.35	13.653
582.69	14.118
583.02	14.124
583.36	14.688
583.70	15.335
584.03	15.282
584.37	14.914
584.70	15.099
585.04	14.873
585.37	14.725
585.71	14.803
586.04	14.835
586.38	14.969
586.72	15.382
587.05	14.833
587.39	14.512
587.72	15.022
588.06	15.181
588.39	15.309
588.73	15.078
589.06	15.488
589.40	15.354
589.73	15.628
590.07	15.587
590.40	15.564
590.73	16.315
591.07	16.891
591.40	16.617
591.74	17.056
592.07	17.190
592.41	16.370
592.74	15.431
593.08	15.356
593.41	15.407
593.75	15.334
594.08	15.387
594.41	15.871
594.75	15.527
595.08	16.142
595.42	15.727
595.75	15.848
596.09	16.373
596.42	16.503
596.75	16.463
597.09	16.883
597.42	15.809
597.75	16.990
598.09	17.130
598.42	16.323
598.76	16.133
599.09	15.621
599.42	15.757
599.76	15.813
600.09	15.373
600.42	15.559
600.76	15.000
601.09	15.191
601.42	16.096
601.76	15.712
602.09	16.087
602.42	16.441
602.76	16.687
603.09	16.365
603.42	16.400
603.76	15.739
604.09	15.704
604.42	16.062
604.76	16.449
605.09	16.732
605.42	16.546
605.75	15.604
606.09	15.779
606.42	16.142
606.75	16.342
607.09	17.246
607.42	15.918
607.75	15.781
608.08	15.762
608.42	17.167
608.75	16.546
609.08	16.790
609.41	16.802
609.75	16.913
610.08	16.824
610.41	15.782
610.74	16.272
611.07	17.194
611.41	16.781
611.74	17.345
612.07	16.563
612.40	17.419
612.73	17.105
613.07	17.888
613.40	17.325
613.73	16.466
614.06	17.366
614.39	16.833
614.72	16.789
615.06	17.700
615.39	17.144
615.72	16.922
616.05	17.331
616.38	16.620
616.71	18.052
617.05	17.845
617.38	17.679
617.71	18.258
618.04	18.029
618.37	16.913
618.70	17.610
619.03	18.421
619.36	19.009
619.69	18.592
620.03	19.437
620.36	19.184
620.69	19.521
621.02	19.248
621.35	19.342
621.68	19.003
622.01	19.195
622.34	18.986
622.67	19.087
623.00	18.122
623.33	18.585
623.66	18.013
623.99	19.367
624.32	18.830
624.65	18.503
624.99	18.697
625.32	18.899
625.65	19.234
625.98	18.832
626.31	19.440
626.64	19.184
626.97	19.285
627.30	19.119
627.63	19.360
627.96	19.428
628.29	19.335
628.62	21.409
628.95	21.038
629.28	20.255
629.61	20.990
629.94	20.952
630.26	20.400
630.59	20.686
630.92	21.456
631.25	21.224
631.58	19.920
631.91	21.298
632.24	21.835
632.57	21.301
632.90	22.368
633.23	22.819
633.56	22.938
633.89	22.197
634.22	23.383
634.55	24.615
634.88	21.557
635.20	21.744
635.53	23.012
635.86	23.886
636.19	22.000
636.52	23.414
636.85	21.764
637.18	23.041
