SpectraSuite Data File
++++++++++++++++++++++++++++++++++++
Date: Wed May 13 16:46:35 PDT 2015
User: schluterlab
Dark Spectrum Present: Yes
Reference Spectrum Present: Yes
Number of Sampled Component Spectra: 1
Spectrometers: USB2E3373
Integration Time (usec): 3000 (USB2E3373)
Spectra Averaged: 3 (USB2E3373)
Boxcar Smoothing: 0 (USB2E3373)
Correct for Electrical Dark: No (USB2E3373)
Strobe/Lamp Enabled: No (USB2E3373)
Correct for Detector Non-linearity: No (USB2E3373)
Correct for Stray Light: No (USB2E3373)
Number of Pixels in Processed Spectrum: 2048
>>>>>Begin Processed Spectral Data<<<<<
178.53	0.000
178.91	-1275.000
179.29	-1200.000
179.67	-244.444
180.04	-1275.000
180.42	2100.000
180.80	840.000
181.18	-1050.000
181.56	671.429
181.94	0.000
182.31	-571.429
182.69	1700.000
183.07	-587.500
183.45	-544.444
183.83	454.545
184.20	-420.000
184.58	2000.000
184.96	5100.000
185.34	-900.000
185.72	-512.500
186.09	-2600.000
186.47	2550.000
186.85	1950.000
187.23	5100.000
187.61	-1766.667
187.98	1500.000
188.36	545.455
188.74	463.636
189.12	-920.000
189.49	570.000
189.87	-3900.000
190.25	-1025.000
190.63	464.286
191.00	430.769
191.38	866.667
191.76	-1125.000
192.14	1400.000
192.51	700.000
192.89	850.000
193.27	562.500
193.65	-1100.000
194.02	450.000
194.40	960.000
194.78	560.000
195.15	400.000
195.53	650.000
195.91	-2200.000
196.29	343.750
196.66	336.842
197.04	-240.000
197.42	0.000
197.79	500.000
198.17	-3900.000
198.55	714.286
198.92	812.500
199.30	840.000
199.68	0.000
200.05	261.111
200.43	842.857
200.81	4000.000
201.18	1533.333
201.56	-1166.667
201.94	466.667
202.31	544.444
202.69	358.333
203.07	520.000
203.44	0.000
203.82	1125.000
204.19	700.000
204.57	442.857
204.95	637.500
205.32	1600.000
205.70	445.455
206.08	400.000
206.45	2000.000
206.83	343.750
207.20	800.000
207.58	840.000
207.96	305.556
208.33	687.500
208.71	-750.000
209.08	814.286
209.46	588.889
209.84	427.273
210.21	-1533.333
210.59	1300.000
210.96	-462.500
211.34	2400.000
211.71	610.000
212.09	816.667
212.46	0.000
212.84	1533.333
213.22	1175.000
213.59	-5200.000
213.97	733.333
214.34	842.857
214.72	636.364
215.09	900.000
215.47	-2050.000
215.84	-2250.000
216.22	1633.333
216.59	342.857
216.97	1275.000
217.34	409.091
217.72	-683.333
218.09	0.000
218.47	-4800.000
218.84	577.778
219.22	685.714
219.59	1566.667
219.97	-685.714
220.34	1020.000
220.72	-1566.667
221.09	371.429
221.47	1250.000
221.84	-866.667
222.22	0.000
222.59	1325.000
222.97	-2350.000
223.34	1160.000
223.72	500.000
224.09	1020.000
224.46	2400.000
224.84	-4500.000
225.21	-1100.000
225.59	-4500.000
225.96	540.000
226.34	300.000
226.71	2650.000
227.08	587.500
227.46	480.000
227.83	-1050.000
228.21	-2350.000
228.58	611.111
228.95	-2550.000
229.33	-2500.000
229.70	1800.000
230.08	728.571
230.45	-560.000
230.82	366.667
231.20	833.333
231.57	614.286
231.95	450.000
232.32	200.000
232.69	418.182
233.07	785.714
233.44	369.231
233.81	-1433.333
234.19	315.789
234.56	425.000
234.93	375.000
235.31	381.818
235.68	230.769
236.05	321.429
236.43	139.394
236.80	189.474
237.17	3800.000
237.55	219.048
237.92	192.857
238.29	209.524
238.67	141.935
239.04	182.759
239.41	122.222
239.79	110.870
240.16	114.286
240.53	93.182
240.91	88.235
241.28	76.000
241.65	82.000
242.02	75.362
242.40	72.581
242.77	70.000
243.14	59.140
243.51	67.416
243.89	55.294
244.26	62.222
244.63	48.387
245.00	41.489
245.38	36.634
245.75	36.449
246.12	24.771
246.49	41.606
246.87	42.400
247.24	31.538
247.61	25.714
247.98	28.105
248.36	24.324
248.73	27.389
249.10	28.025
249.47	31.638
249.84	31.551
250.22	23.529
250.59	23.669
250.96	31.313
251.33	22.275
251.70	27.723
252.08	24.286
252.45	18.834
252.82	21.739
253.19	18.298
253.56	22.745
253.94	23.237
254.31	21.094
254.68	18.846
255.05	21.771
255.42	13.415
255.79	19.853
256.16	18.051
256.54	19.435
256.91	16.726
257.28	16.187
257.65	16.502
258.02	14.907
258.39	16.088
258.76	13.378
259.14	15.179
259.51	15.805
259.88	13.665
260.25	18.127
260.62	14.451
260.99	16.149
261.36	14.715
261.73	14.327
262.10	11.919
262.47	15.775
262.85	13.649
263.22	11.681
263.59	15.100
263.96	12.363
264.33	12.533
264.70	12.105
265.07	13.299
265.44	14.141
265.81	10.949
266.18	14.070
266.55	13.902
266.92	10.319
267.29	12.500
267.66	12.615
268.03	13.409
268.40	13.318
268.77	12.411
269.14	12.387
269.51	11.738
269.88	11.655
270.25	9.707
270.62	13.933
270.99	13.118
271.36	12.446
271.73	8.645
272.10	10.435
272.47	13.978
272.84	9.957
273.21	13.836
273.58	9.825
273.95	11.111
274.32	9.917
274.69	11.135
275.06	9.449
275.43	11.489
275.80	10.421
276.17	10.387
276.54	11.642
276.91	10.474
277.28	11.719
277.65	11.605
278.02	9.524
278.39	10.547
278.76	10.727
279.13	10.943
279.50	10.242
279.87	10.359
280.23	10.180
280.60	9.284
280.97	8.872
281.34	10.619
281.71	9.818
282.08	9.597
282.45	10.182
282.82	9.059
283.19	7.130
283.56	10.351
283.92	11.168
284.29	8.818
284.66	9.619
285.03	10.488
285.40	7.923
285.77	9.091
286.14	8.636
286.51	9.167
286.87	9.915
287.24	9.446
287.61	10.594
287.98	9.578
288.35	10.143
288.72	9.190
289.08	9.546
289.45	9.226
289.82	8.780
290.19	7.221
290.56	6.891
290.93	6.798
291.29	7.822
291.66	8.702
292.03	9.884
292.40	9.985
292.77	8.876
293.13	7.313
293.50	6.560
293.87	8.296
294.24	8.000
294.60	6.696
294.97	8.140
295.34	8.745
295.71	7.528
296.08	8.832
296.44	8.803
296.81	8.190
297.18	8.130
297.55	5.013
297.91	7.520
298.28	8.300
298.65	7.833
299.02	6.851
299.38	7.039
299.75	5.930
300.12	6.386
300.48	6.375
300.85	7.152
301.22	5.987
301.59	6.818
301.95	7.179
302.32	5.905
302.69	7.407
303.05	7.273
303.42	6.049
303.79	6.569
304.15	5.594
304.52	6.025
304.89	6.039
305.25	6.497
305.62	6.455
305.99	5.903
306.35	6.600
306.72	6.390
307.09	6.770
307.45	7.883
307.82	6.585
308.19	7.616
308.55	8.414
308.92	5.585
309.29	6.230
309.65	6.045
310.02	5.814
310.38	7.312
310.75	6.441
311.12	6.244
311.48	7.001
311.85	7.547
312.22	7.284
312.58	5.509
312.95	6.019
313.31	6.602
313.68	5.925
314.05	7.298
314.41	7.739
314.78	7.150
315.14	6.753
315.51	6.694
315.87	7.228
316.24	7.150
316.61	7.212
316.97	5.871
317.34	5.382
317.70	6.501
318.07	6.545
318.43	6.360
318.80	7.779
319.16	8.098
319.53	5.816
319.89	7.143
320.26	6.600
320.62	6.647
320.99	7.677
321.35	5.455
321.72	6.982
322.08	6.910
322.45	8.159
322.81	6.492
323.18	8.382
323.54	6.586
323.91	6.604
324.27	6.501
324.64	5.871
325.00	6.312
325.37	6.642
325.73	6.643
326.10	7.414
326.46	5.735
326.83	6.903
327.19	6.832
327.56	7.230
327.92	7.437
328.29	7.542
328.65	7.459
329.01	7.040
329.38	6.938
329.74	6.464
330.11	5.938
330.47	6.336
330.84	6.893
331.20	6.831
331.56	6.881
331.93	5.833
332.29	6.211
332.66	7.080
333.02	6.764
333.38	6.323
333.75	7.932
334.11	6.762
334.48	6.744
334.84	7.261
335.20	7.273
335.57	6.256
335.93	6.071
336.29	6.136
336.66	6.222
337.02	5.430
337.38	7.037
337.75	5.971
338.11	5.640
338.47	4.972
338.84	6.141
339.20	5.321
339.56	7.117
339.93	5.818
340.29	5.888
340.65	6.328
341.02	6.457
341.38	7.028
341.74	5.614
342.11	5.939
342.47	6.256
342.83	6.336
343.20	7.013
343.56	6.992
343.92	6.667
344.28	5.952
344.65	6.277
345.01	5.556
345.37	5.832
345.73	6.430
346.10	6.138
346.46	6.864
346.82	6.096
347.19	5.764
347.55	6.568
347.91	5.987
348.27	5.670
348.63	6.438
349.00	6.230
349.36	5.337
349.72	6.415
350.08	5.511
350.45	6.347
350.81	5.605
351.17	5.754
351.53	5.979
351.89	5.693
352.26	7.893
352.62	5.934
352.98	5.592
353.34	6.574
353.70	5.319
354.07	6.290
354.43	5.556
354.79	5.149
355.15	6.145
355.51	5.915
355.87	5.796
356.24	5.945
356.60	5.293
356.96	5.551
357.32	5.805
357.68	6.220
358.04	6.492
358.40	6.017
358.77	6.416
359.13	4.657
359.49	6.118
359.85	4.206
360.21	4.306
360.57	6.459
360.93	4.846
361.29	5.518
361.66	5.263
362.02	6.119
362.38	6.540
362.74	6.324
363.10	4.959
363.46	5.869
363.82	5.140
364.18	5.140
364.54	6.686
364.90	6.020
365.26	5.000
365.62	6.136
365.98	5.113
366.35	4.728
366.71	5.640
367.07	5.390
367.43	4.935
367.79	5.710
368.15	5.675
368.51	5.814
368.87	5.996
369.23	5.779
369.59	6.083
369.95	5.956
370.31	5.912
370.67	6.304
371.03	7.041
371.39	5.029
371.75	5.515
372.11	6.188
372.47	6.525
372.83	6.484
373.19	5.202
373.55	5.543
373.91	6.701
374.27	5.223
374.63	5.018
374.99	6.215
375.35	5.513
375.71	5.894
376.07	6.516
376.42	6.259
376.78	6.693
377.14	5.699
377.50	5.563
377.86	6.117
378.22	6.005
378.58	5.764
378.94	4.903
379.30	5.216
379.66	5.647
380.02	6.818
380.38	5.222
380.74	6.002
381.09	6.418
381.45	6.638
381.81	5.958
382.17	6.369
382.53	5.660
382.89	6.420
383.25	4.816
383.61	7.001
383.97	6.316
384.32	6.488
384.68	5.700
385.04	5.839
385.40	6.873
385.76	6.081
386.12	6.477
386.48	6.797
386.83	6.863
387.19	6.926
387.55	6.741
387.91	6.771
388.27	6.315
388.62	6.699
388.98	6.081
389.34	7.134
389.70	6.560
390.06	6.464
390.42	6.485
390.77	6.870
391.13	6.382
391.49	6.726
391.85	6.620
392.20	5.931
392.56	6.250
392.92	6.239
393.28	5.917
393.64	6.655
393.99	7.514
394.35	5.831
394.71	6.964
395.07	6.044
395.42	6.737
395.78	6.743
396.14	7.263
396.50	7.206
396.85	6.675
397.21	6.104
397.57	6.634
397.92	6.611
398.28	6.166
398.64	6.989
399.00	6.603
399.35	6.204
399.71	6.250
400.07	7.156
400.42	6.258
400.78	7.057
401.14	6.341
401.49	6.388
401.85	6.110
402.21	6.168
402.57	5.676
402.92	7.188
403.28	6.184
403.63	6.374
403.99	5.860
404.35	6.606
404.70	5.995
405.06	6.174
405.42	6.550
405.77	6.057
406.13	6.264
406.49	6.150
406.84	6.734
407.20	5.733
407.55	5.807
407.91	5.933
408.27	6.126
408.62	6.382
408.98	5.821
409.34	6.396
409.69	6.129
410.05	6.072
410.40	6.300
410.76	5.914
411.11	6.634
411.47	6.645
411.83	6.414
412.18	6.061
412.54	6.227
412.89	6.506
413.25	6.316
413.60	6.485
413.96	5.950
414.31	6.440
414.67	6.781
415.03	5.828
415.38	6.121
415.74	6.302
416.09	6.205
416.45	5.823
416.80	6.345
417.16	6.300
417.51	6.503
417.87	5.780
418.22	6.498
418.58	6.262
418.93	6.941
419.29	6.238
419.64	6.423
420.00	6.768
420.35	6.203
420.71	6.635
421.06	6.265
421.42	6.784
421.77	6.222
422.12	5.559
422.48	5.181
422.83	5.766
423.19	6.464
423.54	6.094
423.90	7.188
424.25	6.309
424.61	5.893
424.96	6.356
425.31	6.423
425.67	5.955
426.02	6.286
426.38	6.593
426.73	5.793
427.09	6.748
427.44	5.750
427.79	5.635
428.15	6.310
428.50	6.554
428.85	6.734
429.21	5.301
429.56	5.702
429.92	5.788
430.27	5.214
430.62	5.325
430.98	5.449
431.33	5.619
431.68	5.916
432.04	6.283
432.39	5.483
432.74	6.044
433.10	6.055
433.45	5.598
433.80	5.543
434.16	6.090
434.51	5.474
434.86	5.872
435.22	5.837
435.57	5.593
435.92	6.027
436.28	6.168
436.63	6.402
436.98	5.381
437.34	6.142
437.69	6.009
438.04	5.171
438.39	5.851
438.75	6.217
439.10	5.363
439.45	6.139
439.81	5.619
440.16	5.929
440.51	6.151
440.86	6.485
441.22	5.339
441.57	5.945
441.92	5.834
442.27	5.759
442.63	5.108
442.98	6.028
443.33	5.435
443.68	5.885
444.03	6.101
444.39	4.820
444.74	5.682
445.09	5.714
445.44	5.358
445.79	5.591
446.15	7.041
446.50	5.385
446.85	5.961
447.20	6.170
447.55	5.360
447.91	5.626
448.26	5.732
448.61	5.596
448.96	6.035
449.31	6.074
449.66	5.909
450.02	5.515
450.37	5.159
450.72	5.584
451.07	5.424
451.42	5.410
451.77	6.048
452.12	5.658
452.47	6.032
452.83	5.594
453.18	5.990
453.53	6.246
453.88	5.434
454.23	5.918
454.58	6.844
454.93	5.722
455.28	5.362
455.63	6.129
455.98	6.786
456.34	6.533
456.69	6.450
457.04	6.687
457.39	6.195
457.74	6.036
458.09	5.980
458.44	5.644
458.79	5.369
459.14	5.756
459.49	6.597
459.84	6.039
460.19	5.480
460.54	6.192
460.89	6.089
461.24	5.829
461.59	7.031
461.94	5.980
462.29	6.588
462.64	6.509
462.99	5.856
463.34	7.200
463.69	5.879
464.04	6.609
464.39	5.855
464.74	6.179
465.09	5.609
465.44	6.150
465.79	4.754
466.14	5.419
466.49	5.673
466.84	6.538
467.19	6.216
467.54	6.500
467.89	6.062
468.24	5.585
468.59	6.777
468.94	6.292
469.29	5.977
469.64	6.091
469.99	5.616
470.34	6.209
470.68	6.250
471.03	5.170
471.38	6.602
471.73	6.529
472.08	6.382
472.43	5.905
472.78	5.135
473.13	6.483
473.48	6.617
473.83	5.854
474.17	5.600
474.52	5.707
474.87	6.305
475.22	5.688
475.57	5.803
475.92	5.682
476.27	6.032
476.61	6.453
476.96	5.168
477.31	5.442
477.66	6.346
478.01	5.436
478.36	5.711
478.70	5.659
479.05	5.804
479.40	5.834
479.75	5.491
480.10	4.920
480.45	5.569
480.79	5.399
481.14	5.137
481.49	5.411
481.84	5.578
482.19	5.770
482.53	5.413
482.88	5.584
483.23	5.374
483.58	5.232
483.92	5.576
484.27	4.401
484.62	4.957
484.97	5.006
485.31	5.137
485.66	4.204
486.01	3.721
486.36	3.738
486.70	3.862
487.05	3.699
487.40	3.830
487.75	4.080
488.09	4.519
488.44	4.236
488.79	4.665
489.13	4.927
489.48	4.976
489.83	4.963
490.17	5.524
490.52	5.049
490.87	5.473
491.22	4.866
491.56	4.465
491.91	5.119
492.26	5.512
492.60	5.069
492.95	4.911
493.30	5.047
493.64	4.993
493.99	4.828
494.34	5.412
494.68	5.403
495.03	5.686
495.37	5.444
495.72	5.263
496.07	5.800
496.41	5.000
496.76	4.793
497.11	5.403
497.45	5.310
497.80	5.422
498.14	5.169
498.49	4.976
498.84	5.417
499.18	5.000
499.53	5.651
499.87	5.126
500.22	5.417
500.56	5.583
500.91	4.856
501.26	5.358
501.60	5.458
501.95	5.041
502.29	5.436
502.64	5.773
502.98	5.470
503.33	5.484
503.67	5.568
504.02	5.239
504.36	5.756
504.71	5.129
505.06	5.831
505.40	4.764
505.75	5.159
506.09	5.782
506.44	5.032
506.78	5.358
507.13	5.250
507.47	5.657
507.82	6.180
508.16	5.826
508.51	5.581
508.85	5.909
509.19	5.867
509.54	5.663
509.88	4.637
510.23	4.936
510.57	5.831
510.92	5.438
511.26	4.985
511.61	5.498
511.95	5.219
512.30	5.461
512.64	5.481
512.98	5.734
513.33	5.407
513.67	5.656
514.02	4.978
514.36	5.680
514.70	5.534
515.05	5.354
515.39	5.665
515.74	5.968
516.08	6.652
516.42	5.660
516.77	6.299
517.11	5.494
517.46	5.756
517.80	5.459
518.14	5.443
518.49	6.243
518.83	6.761
519.17	5.889
519.52	6.452
519.86	6.503
520.20	5.780
520.55	7.121
520.89	6.265
521.23	6.333
521.58	6.363
521.92	6.124
522.26	5.552
522.61	5.857
522.95	5.893
523.29	6.086
523.64	6.402
523.98	6.038
524.32	6.092
524.66	6.254
525.01	6.373
525.35	6.010
525.69	5.727
526.04	6.667
526.38	6.345
526.72	6.810
527.06	6.089
527.41	5.322
527.75	6.109
528.09	6.166
528.43	6.437
528.78	6.331
529.12	6.061
529.46	6.430
529.80	6.002
530.15	6.542
530.49	6.092
530.83	6.203
531.17	6.070
531.51	6.680
531.86	5.871
532.20	6.975
532.54	7.431
532.88	6.675
533.22	5.934
533.57	6.420
533.91	6.382
534.25	6.197
534.59	6.040
534.93	6.365
535.27	6.156
535.62	6.349
535.96	6.277
536.30	6.103
536.64	6.504
536.98	6.569
537.32	6.452
537.66	5.733
538.01	6.386
538.35	6.658
538.69	7.211
539.03	6.563
539.37	5.495
539.71	5.055
540.05	5.752
540.39	4.983
540.73	6.662
541.07	6.684
541.42	6.458
541.76	7.355
542.10	7.115
542.44	6.623
542.78	6.192
543.12	5.886
543.46	7.016
543.80	6.571
544.14	5.969
544.48	6.032
544.82	6.094
545.16	5.856
545.50	5.527
545.84	5.981
546.18	5.926
546.52	6.745
546.86	5.223
547.20	6.608
547.54	6.279
547.88	7.717
548.22	5.106
548.56	7.107
548.90	5.890
549.24	4.848
549.58	6.276
549.92	5.838
550.26	6.676
550.60	6.086
550.94	6.197
551.28	4.901
551.62	6.973
551.96	6.035
552.30	6.826
552.64	6.356
552.98	6.983
553.32	6.339
553.66	6.271
554.00	7.618
554.34	6.418
554.68	6.509
555.02	7.193
555.36	6.263
555.69	5.886
556.03	5.451
556.37	5.866
556.71	6.412
557.05	5.742
557.39	6.578
557.73	6.493
558.07	7.107
558.41	5.933
558.75	6.760
559.08	7.159
559.42	5.820
559.76	5.662
560.10	6.138
560.44	6.289
560.78	5.921
561.12	6.530
561.45	6.584
561.79	5.274
562.13	5.701
562.47	6.284
562.81	5.788
563.15	5.886
563.48	6.631
563.82	5.936
564.16	5.690
564.50	5.729
564.84	5.879
565.17	5.405
565.51	6.581
565.85	6.282
566.19	5.448
566.52	6.840
566.86	5.124
567.20	6.191
567.54	5.537
567.88	5.106
568.21	5.979
568.55	5.106
568.89	4.767
569.23	5.036
569.56	4.858
569.90	4.566
570.24	4.700
570.57	4.318
570.91	3.943
571.25	4.416
571.59	4.389
571.92	4.205
572.26	4.275
572.60	4.444
572.93	4.018
573.27	4.407
573.61	4.411
573.95	4.419
574.28	3.744
574.62	3.717
574.96	3.775
575.29	3.928
575.63	4.141
575.97	4.061
576.30	4.222
576.64	3.791
576.98	3.670
577.31	3.928
577.65	3.561
577.98	3.579
578.32	3.415
578.66	3.816
578.99	3.903
579.33	3.583
579.67	3.916
580.00	3.812
580.34	3.797
580.67	4.089
581.01	4.183
581.35	3.784
581.68	3.775
582.02	3.498
582.35	3.508
582.69	3.638
583.02	3.578
583.36	3.735
583.70	3.796
584.03	4.206
584.37	4.163
584.70	3.762
585.04	3.865
585.37	4.031
585.71	4.182
586.04	3.962
586.38	4.154
586.72	4.446
587.05	4.319
587.39	3.905
587.72	4.251
588.06	3.815
588.39	4.060
588.73	4.107
589.06	4.799
589.40	4.175
589.73	4.329
590.07	4.555
590.40	4.494
590.73	4.333
591.07	5.372
591.40	4.977
591.74	4.935
592.07	5.148
592.41	4.754
592.74	4.419
593.08	4.730
593.41	4.208
593.75	4.747
594.08	4.526
594.41	4.666
594.75	4.436
595.08	4.259
595.42	4.658
595.75	4.380
596.09	5.220
596.42	5.580
596.75	4.686
597.09	5.541
597.42	4.848
597.75	4.700
598.09	4.957
598.42	4.682
598.76	4.945
599.09	4.333
599.42	4.549
599.76	4.392
600.09	4.372
600.42	4.492
600.76	4.571
601.09	4.517
601.42	4.680
601.76	4.668
602.09	4.862
602.42	5.334
602.76	5.159
603.09	4.642
603.42	4.686
603.76	4.306
604.09	4.808
604.42	4.770
604.76	5.820
605.09	4.980
605.42	4.831
605.75	4.760
606.09	4.067
606.42	4.332
606.75	4.977
607.09	4.939
607.42	4.835
607.75	4.557
608.08	4.820
608.42	5.334
608.75	5.185
609.08	5.412
609.41	4.760
609.75	5.812
610.08	5.514
610.41	5.354
610.74	4.257
611.07	4.792
611.41	5.201
611.74	5.882
612.07	5.487
612.40	5.404
612.73	6.000
613.07	5.927
613.40	5.424
613.73	4.824
614.06	4.516
614.39	5.768
614.72	5.632
615.06	5.252
615.39	5.096
615.72	5.470
616.05	4.572
616.38	5.281
616.71	6.116
617.05	5.477
617.38	6.073
617.71	5.526
618.04	6.190
618.37	5.618
618.70	5.974
619.03	6.645
619.36	6.449
619.69	6.197
620.03	6.181
620.36	6.417
620.69	7.055
621.02	7.006
621.35	6.186
621.68	7.165
622.01	6.192
622.34	7.186
622.67	6.920
623.00	5.869
623.33	5.718
623.66	6.147
623.99	5.817
624.32	5.777
624.65	5.862
624.99	5.524
625.32	5.793
625.65	6.236
625.98	7.302
626.31	6.921
626.64	7.592
626.97	6.733
627.30	5.819
627.63	7.547
627.96	7.485
628.29	7.524
628.62	6.679
628.95	9.340
629.28	7.664
629.61	7.608
629.94	6.762
630.26	7.340
630.59	6.864
630.92	7.663
631.25	7.700
631.58	8.509
631.91	7.302
632.24	7.384
632.57	8.185
632.90	7.566
633.23	8.725
633.56	8.362
633.89	7.588
634.22	8.627
634.55	9.112
634.88	6.946
635.20	9.558
635.53	10.241
635.86	8.416
636.19	8.353
636.52	8.997
636.85	9.049
637.18	7.373
637.51	9.220
637.83	6.658
638.16	8.440
638.49	10.202
638.82	9.987
639.15	9.250
639.48	8.978
639.81	10.188
640.13	9.766
640.46	11.275
640.79	9.643
641.12	8.803
641.45	8.799
641.77	9.720
642.10	9.942
642.43	8.408
642.76	9.443
643.09	10.123
643.41	9.560
643.74	11.574
644.07	9.909
644.40	12.270
644.73	12.126
645.05	11.727
645.38	10.585
645.71	9.340
646.04	10.797
646.36	11.352
646.69	11.037
647.02	11.905
647.35	13.230
647.67	10.265
648.00	12.195
648.33	8.581
648.66	11.061
648.98	11.094
649.31	9.268
649.64	8.221
649.96	11.177
650.29	10.111
650.62	8.900
650.94	10.373
651.27	12.838
651.60	10.815
651.92	11.661
652.25	8.143
652.58	10.125
652.90	11.216
653.23	8.783
653.56	9.606
653.88	10.460
