SpectraSuite Data File
++++++++++++++++++++++++++++++++++++
Date: Wed May 13 16:21:51 PDT 2015
User: schluterlab
Dark Spectrum Present: Yes
Reference Spectrum Present: Yes
Number of Sampled Component Spectra: 1
Spectrometers: USB2E3373
Integration Time (usec): 3000 (USB2E3373)
Spectra Averaged: 3 (USB2E3373)
Boxcar Smoothing: 0 (USB2E3373)
Correct for Electrical Dark: No (USB2E3373)
Strobe/Lamp Enabled: No (USB2E3373)
Correct for Detector Non-linearity: No (USB2E3373)
Correct for Stray Light: No (USB2E3373)
Number of Pixels in Processed Spectrum: 2048
>>>>>Begin Processed Spectral Data<<<<<
178.53	0.000
178.91	-1250.000
179.29	-1200.000
179.67	-238.889
180.04	-1050.000
180.42	2150.000
180.80	1120.000
181.18	-950.000
181.56	571.429
181.94	0.000
182.31	-614.286
182.69	1500.000
183.07	-525.000
183.45	-411.111
183.83	500.000
184.20	-400.000
184.58	2350.000
184.96	4800.000
185.34	-620.000
185.72	-512.500
186.09	-2000.000
186.47	2450.000
186.85	2350.000
187.23	5300.000
187.61	-1566.667
187.98	1250.000
188.36	527.273
188.74	527.273
189.12	-720.000
189.49	630.000
189.87	-4000.000
190.25	-1000.000
190.63	371.429
191.00	438.462
191.38	750.000
191.76	-950.000
192.14	1400.000
192.51	475.000
192.89	766.667
193.27	487.500
193.65	-1050.000
194.02	470.000
194.40	900.000
194.78	450.000
195.15	375.000
195.53	580.000
195.91	-2150.000
196.29	368.750
196.66	273.684
197.04	-230.000
197.42	0.000
197.79	590.000
198.17	-4600.000
198.55	628.571
198.92	562.500
199.30	920.000
199.68	0.000
200.05	283.333
200.43	700.000
200.81	5500.000
201.18	1466.667
201.56	-1566.667
201.94	477.778
202.31	600.000
202.69	475.000
203.07	440.000
203.44	0.000
203.82	1100.000
204.19	528.571
204.57	392.857
204.95	600.000
205.32	1666.667
205.70	481.818
206.08	364.286
206.45	2400.000
206.83	306.250
207.20	950.000
207.58	660.000
207.96	211.111
208.33	687.500
208.71	-700.000
209.08	771.429
209.46	588.889
209.84	390.909
210.21	-1300.000
210.59	1175.000
210.96	-437.500
211.34	2650.000
211.71	580.000
212.09	783.333
212.46	0.000
212.84	1433.333
213.22	1175.000
213.59	-4300.000
213.97	716.667
214.34	642.857
214.72	527.273
215.09	1080.000
215.47	-2050.000
215.84	-2300.000
216.22	1633.333
216.59	392.857
216.97	1225.000
217.34	427.273
217.72	-666.667
218.09	0.000
218.47	-4300.000
218.84	677.778
219.22	671.429
219.59	1600.000
219.97	-657.143
220.34	940.000
220.72	-1600.000
221.09	314.286
221.47	1425.000
221.84	-800.000
222.22	0.000
222.59	1250.000
222.97	-2150.000
223.34	960.000
223.72	384.615
224.09	1300.000
224.46	2150.000
224.84	-5100.000
225.21	-1060.000
225.59	-3700.000
225.96	530.000
226.34	240.000
226.71	2400.000
227.08	650.000
227.46	490.000
227.83	-1150.000
228.21	-2150.000
228.58	533.333
228.95	-2300.000
229.33	-2350.000
229.70	1400.000
230.08	842.857
230.45	-700.000
230.82	450.000
231.20	733.333
231.57	557.143
231.95	508.333
232.32	263.636
232.69	300.000
233.07	642.857
233.44	392.308
233.81	-1866.667
234.19	268.421
234.56	425.000
234.93	291.667
235.31	500.000
235.68	315.385
236.05	364.286
236.43	169.697
236.80	226.316
237.17	4200.000
237.55	257.143
237.92	221.429
238.29	300.000
238.67	190.323
239.04	220.690
239.41	152.778
239.79	136.957
240.16	171.429
240.53	161.364
240.91	111.765
241.28	126.000
241.65	110.000
242.02	95.652
242.40	122.581
242.77	126.667
243.14	92.473
243.51	102.247
243.89	92.941
244.26	88.889
244.63	79.570
245.00	79.787
245.38	91.089
245.75	82.243
246.12	77.064
246.49	79.562
246.87	86.400
247.24	73.846
247.61	72.857
247.98	67.320
248.36	64.189
248.73	70.064
249.10	70.064
249.47	70.056
249.84	66.310
250.22	57.754
250.59	70.414
250.96	59.596
251.33	63.981
251.70	59.901
252.08	58.571
252.45	53.812
252.82	60.870
253.19	60.426
253.56	54.118
253.94	59.336
254.31	55.469
254.68	55.000
255.05	59.041
255.42	58.130
255.79	54.779
256.16	58.484
256.54	53.710
256.91	57.295
257.28	49.281
257.65	54.785
258.02	52.795
258.39	54.574
258.76	54.849
259.14	55.060
259.51	51.368
259.88	48.447
260.25	55.287
260.62	53.468
260.99	54.658
261.36	52.853
261.73	56.160
262.10	52.326
262.47	53.239
262.85	50.975
263.22	53.846
263.59	53.846
263.96	48.352
264.33	51.436
264.70	50.526
265.07	49.616
265.44	51.768
265.81	47.932
266.18	50.503
266.55	50.732
266.92	48.157
267.29	51.157
267.66	47.936
268.03	46.591
268.40	45.561
268.77	47.733
269.14	48.198
269.51	49.661
269.88	49.883
270.25	48.081
270.62	46.517
270.99	50.108
271.36	46.781
271.73	48.364
272.10	46.957
272.47	50.968
272.84	46.104
273.21	47.589
273.58	47.598
273.95	45.493
274.32	45.248
274.69	46.039
275.06	44.685
275.43	46.383
275.80	47.896
276.17	48.473
276.54	47.193
276.91	45.059
277.28	46.094
277.65	46.035
278.02	44.306
278.39	45.508
278.76	43.455
279.13	45.472
279.50	45.065
279.87	45.618
280.23	47.106
280.60	46.615
280.97	47.320
281.34	43.363
281.71	45.091
282.08	45.873
282.45	44.545
282.82	44.938
283.19	43.137
283.56	46.842
283.92	45.854
284.29	41.093
284.66	44.465
285.03	42.315
285.40	45.246
285.77	42.256
286.14	43.351
286.51	43.167
286.87	45.299
287.24	43.648
287.61	43.820
287.98	40.422
288.35	42.472
288.72	41.277
289.08	41.471
289.45	38.880
289.82	39.675
290.19	39.246
290.56	40.429
290.93	37.160
291.29	39.110
291.66	38.053
292.03	42.006
292.40	39.060
292.77	39.941
293.13	38.358
293.50	39.067
293.87	38.815
294.24	38.370
294.60	35.662
294.97	37.355
295.34	39.069
295.71	37.074
296.08	36.182
296.44	35.351
296.81	35.139
297.18	37.263
297.55	33.905
297.91	35.092
298.28	34.672
298.65	35.901
299.02	33.465
299.38	35.193
299.75	32.075
300.12	32.950
300.48	32.500
300.85	33.662
301.22	34.650
301.59	32.955
301.95	34.509
302.32	33.248
302.69	33.453
303.05	33.455
303.42	32.716
303.79	34.202
304.15	31.119
304.52	32.793
304.89	32.753
305.25	32.367
305.62	31.370
305.99	33.294
306.35	32.327
306.72	34.305
307.09	33.740
307.45	33.671
307.82	31.585
308.19	33.775
308.55	33.118
308.92	32.438
309.29	32.946
309.65	32.556
310.02	32.030
310.38	32.796
310.75	34.847
311.12	32.037
311.48	32.706
311.85	33.229
312.22	33.195
312.58	31.601
312.95	34.319
313.31	32.233
313.68	33.680
314.05	35.404
314.41	34.372
314.78	33.535
315.14	33.962
315.51	33.677
315.87	34.455
316.24	34.161
316.61	34.893
316.97	34.247
317.34	32.779
317.70	35.660
318.07	36.959
318.43	36.791
318.80	37.207
319.16	35.499
319.53	36.492
319.89	36.952
320.26	38.100
320.62	38.294
320.99	38.586
321.35	37.980
321.72	39.220
322.08	40.671
322.45	41.692
322.81	40.407
323.18	41.908
323.54	42.672
323.91	42.358
324.27	42.639
324.64	44.641
325.00	41.298
325.37	46.133
325.73	46.320
326.10	46.337
326.46	46.685
326.83	47.886
327.19	47.481
327.56	48.780
327.92	49.519
328.29	50.222
328.65	50.092
329.01	49.639
329.38	50.694
329.74	50.970
330.11	50.801
330.47	51.240
330.84	51.930
331.20	51.639
331.56	52.110
331.93	53.333
332.29	52.618
332.66	51.947
333.02	51.188
333.38	52.394
333.75	53.565
334.11	53.559
334.48	53.416
334.84	52.849
335.20	54.182
335.57	54.034
335.93	52.054
336.29	53.846
336.66	56.628
337.02	52.217
337.38	55.278
337.75	52.674
338.11	53.715
338.47	56.998
338.84	55.545
339.20	54.679
339.56	55.292
339.93	55.000
340.29	52.989
340.65	54.991
341.02	54.799
341.38	55.160
341.74	53.158
342.11	53.886
342.47	55.154
342.83	53.853
343.20	55.498
343.56	54.254
343.92	56.053
344.28	54.847
344.65	55.030
345.01	53.367
345.37	53.087
345.73	53.299
346.10	55.072
346.46	53.898
346.82	52.718
347.19	52.130
347.55	53.530
347.91	54.045
348.27	55.793
348.63	54.933
349.00	54.612
349.36	55.090
349.72	53.649
350.08	52.998
350.45	55.980
350.81	54.915
351.17	53.647
351.53	53.235
351.89	52.888
352.26	53.670
352.62	54.130
352.98	53.890
353.34	54.314
353.70	54.337
354.07	54.677
354.43	52.619
354.79	51.891
355.15	52.514
355.51	54.277
355.87	54.204
356.24	54.560
356.60	53.649
356.96	53.902
357.32	55.192
357.68	54.331
358.04	52.811
358.40	54.473
358.77	53.599
359.13	54.065
359.49	52.314
359.85	52.302
360.21	53.748
360.57	54.008
360.93	55.923
361.29	53.212
361.66	53.560
362.02	53.507
362.38	53.384
362.74	51.935
363.10	52.554
363.46	52.311
363.82	53.212
364.18	52.790
364.54	53.046
364.90	54.674
365.26	52.868
365.62	53.908
365.98	52.812
366.35	51.791
366.71	52.639
367.07	53.678
367.43	54.209
367.79	54.747
368.15	52.730
368.51	53.561
368.87	52.677
369.23	53.036
369.59	53.657
369.95	53.529
370.31	53.205
370.67	52.029
371.03	54.307
371.39	53.426
371.75	54.338
372.11	53.841
372.47	53.446
372.83	54.395
373.19	52.673
373.55	53.954
373.91	54.345
374.27	52.577
374.63	53.018
374.99	54.096
375.35	54.641
375.71	52.981
376.07	52.743
376.42	54.127
376.78	52.684
377.14	53.799
377.50	53.841
377.86	52.793
378.22	53.097
378.58	51.378
378.94	53.551
379.30	53.053
379.66	55.140
380.02	52.826
380.38	52.580
380.74	51.981
381.09	52.995
381.45	54.026
381.81	53.931
382.17	53.567
382.53	54.591
382.89	52.654
383.25	52.783
383.61	54.895
383.97	53.721
384.32	52.963
384.68	53.222
385.04	53.534
385.40	52.384
385.76	52.887
386.12	52.655
386.48	53.178
386.83	54.458
387.19	53.927
387.55	53.061
387.91	52.479
388.27	52.667
388.62	54.456
388.98	51.966
389.34	55.257
389.70	52.974
390.06	53.612
390.42	53.243
390.77	53.308
391.13	53.861
391.49	53.680
391.85	53.724
392.20	51.483
392.56	52.715
392.92	52.913
393.28	52.249
393.64	52.578
393.99	51.924
394.35	51.365
394.71	52.258
395.07	51.340
395.42	52.658
395.78	51.972
396.14	51.893
396.50	52.882
396.85	52.193
397.21	51.233
397.57	52.883
397.92	53.005
398.28	50.392
398.64	51.553
399.00	51.819
399.35	51.156
399.71	51.389
400.07	51.212
400.42	50.307
400.78	51.930
401.14	50.671
401.49	51.284
401.85	50.938
402.21	51.497
402.57	51.141
402.92	52.207
403.28	51.468
403.63	51.238
403.99	50.764
404.35	50.182
404.70	51.679
405.06	50.670
405.42	51.653
405.77	50.971
406.13	49.718
406.49	49.734
406.84	50.207
407.20	49.350
407.55	51.691
407.91	52.267
408.27	50.925
408.62	50.692
408.98	51.042
409.34	49.938
409.69	51.032
410.05	49.442
410.40	50.520
410.76	49.821
411.11	49.517
411.47	50.160
411.83	49.847
412.18	48.732
412.54	49.626
412.89	49.578
413.25	50.472
413.60	50.834
413.96	48.512
414.31	48.299
414.67	49.747
415.03	49.669
415.38	49.613
415.74	49.260
416.09	50.033
416.45	51.004
416.80	51.024
417.16	50.469
417.51	50.763
417.87	49.069
418.22	50.095
418.58	49.839
418.93	50.246
419.29	50.605
419.64	50.252
420.00	50.671
420.35	49.797
420.71	50.508
421.06	49.045
421.42	50.409
421.77	49.327
422.12	49.130
422.48	48.138
422.83	50.553
423.19	48.840
423.54	50.145
423.90	49.507
424.25	49.693
424.61	48.810
424.96	50.437
425.31	49.612
425.67	48.427
426.02	49.143
426.38	50.977
426.73	50.263
427.09	49.422
427.44	49.281
427.79	49.914
428.15	49.940
428.50	49.269
428.85	49.702
429.21	49.917
429.56	49.456
429.92	49.170
430.27	49.206
430.62	48.029
430.98	48.365
431.33	48.505
431.68	48.010
432.04	48.349
432.39	50.029
432.74	51.586
433.10	50.481
433.45	49.388
433.80	50.388
434.16	50.214
434.51	48.842
434.86	49.259
435.22	48.694
435.57	51.064
435.92	49.737
436.28	50.474
436.63	49.614
436.98	48.712
437.34	50.030
437.69	51.459
438.04	50.309
438.39	50.209
438.75	50.087
439.10	50.279
439.45	49.115
439.81	50.332
440.16	49.689
440.51	50.322
440.86	50.666
441.22	49.166
441.57	49.628
441.92	51.126
442.27	50.215
442.63	48.710
442.98	50.423
443.33	49.402
443.68	49.097
444.03	49.683
444.39	49.075
444.74	50.974
445.09	50.889
445.44	50.683
445.79	49.827
446.15	49.709
446.50	48.842
446.85	49.743
447.20	49.924
447.55	49.749
447.91	49.421
448.26	50.473
448.61	50.311
448.96	50.498
449.31	50.337
449.66	49.015
450.02	49.248
450.37	49.773
450.72	50.197
451.07	49.482
451.42	51.003
451.77	50.264
452.12	49.192
452.47	49.254
452.83	51.224
453.18	50.489
453.53	50.340
453.88	51.388
454.23	50.209
454.58	51.423
454.93	51.430
455.28	50.125
455.63	50.789
455.98	51.845
456.34	49.812
456.69	51.346
457.04	51.950
457.39	50.906
457.74	50.029
458.09	49.339
458.44	50.000
458.79	49.241
459.14	51.072
459.49	50.263
459.84	50.139
460.19	50.147
460.54	48.843
460.89	49.863
461.24	50.334
461.59	51.017
461.94	49.014
462.29	51.691
462.64	49.840
462.99	49.447
463.34	51.800
463.69	51.970
464.04	50.145
464.39	49.449
464.74	50.267
465.09	50.784
465.44	50.194
465.79	49.329
466.14	48.550
466.49	49.944
466.84	49.679
467.19	49.849
467.54	50.875
467.89	49.640
468.24	50.320
468.59	51.038
468.94	49.236
469.29	51.478
469.64	51.339
469.99	51.624
470.34	51.123
470.68	52.083
471.03	52.381
471.38	52.050
471.73	51.699
472.08	53.289
472.43	52.136
472.78	52.140
473.13	50.770
473.48	50.375
473.83	50.366
474.17	50.156
474.52	50.993
474.87	51.605
475.22	50.842
475.57	49.597
475.92	49.336
476.27	49.887
476.61	50.579
476.96	50.137
477.31	50.078
477.66	50.547
478.01	50.183
478.36	50.449
478.70	49.688
479.05	50.160
479.40	50.870
479.75	50.127
480.10	50.099
480.45	49.072
480.79	48.495
481.14	49.658
481.49	50.119
481.84	49.611
482.19	49.568
482.53	49.220
482.88	49.791
483.23	50.701
483.58	49.500
483.92	50.375
484.27	48.148
484.62	48.707
484.97	48.443
485.31	50.240
485.66	48.279
486.01	45.321
486.36	42.539
486.70	41.453
487.05	43.392
487.40	44.510
487.75	45.455
488.09	46.345
488.44	47.165
488.79	47.848
489.13	47.785
489.48	49.021
489.83	49.072
490.17	50.022
490.52	48.849
490.87	48.847
491.22	48.749
491.56	49.339
491.91	49.651
492.26	49.931
492.60	48.940
492.95	49.205
493.30	49.065
493.64	50.117
493.99	49.489
494.34	49.260
494.68	50.824
495.03	50.282
495.37	49.744
495.72	51.023
496.07	50.348
496.41	47.965
496.76	48.857
497.11	48.312
497.45	49.697
497.80	49.088
498.14	49.758
498.49	50.244
498.84	50.000
499.18	49.952
499.53	49.288
499.87	49.674
500.22	49.081
500.56	49.806
500.91	48.654
501.26	49.407
501.60	50.498
501.95	48.533
502.29	50.843
502.64	50.745
502.98	49.135
503.33	49.086
503.67	49.606
504.02	49.018
504.36	49.134
504.71	50.024
505.06	49.205
505.40	49.927
505.75	49.518
506.09	49.660
506.44	49.877
506.78	49.732
507.13	51.186
507.47	49.949
507.82	49.645
508.16	50.608
508.51	51.243
508.85	50.298
509.19	50.612
509.54	49.643
509.88	49.717
510.23	50.437
510.57	51.135
510.92	50.596
511.26	48.921
511.61	50.000
511.95	49.217
512.30	51.485
512.64	49.812
512.98	50.804
513.33	51.285
513.67	51.121
514.02	50.271
514.36	51.174
514.70	52.075
515.05	51.590
515.39	51.542
515.74	52.534
516.08	50.866
516.42	51.609
516.77	51.672
517.11	51.165
517.46	51.411
517.80	52.962
518.14	51.303
518.49	52.392
518.83	50.739
519.17	50.808
519.52	51.387
519.86	51.169
520.20	52.543
520.55	52.962
520.89	53.285
521.23	52.171
521.58	52.761
521.92	52.848
522.26	52.349
522.61	54.143
522.95	51.995
523.29	51.430
523.64	52.073
523.98	53.358
524.32	52.593
524.66	52.195
525.01	52.022
525.35	52.230
525.69	51.539
526.04	51.526
526.38	52.532
526.72	50.859
527.06	52.919
527.41	50.124
527.75	53.441
528.09	53.115
528.43	52.518
528.78	50.953
529.12	50.848
529.46	52.051
529.80	52.847
530.15	51.963
530.49	51.323
530.83	52.532
531.17	54.439
531.51	53.632
531.86	53.548
532.20	53.259
532.54	52.659
532.88	53.594
533.22	50.843
533.57	51.605
533.91	50.030
534.25	50.729
534.59	50.763
534.93	50.803
535.27	51.479
535.62	50.733
535.96	51.287
536.30	51.049
536.64	51.320
536.98	52.754
537.32	51.086
537.66	52.000
538.01	50.757
538.35	50.743
538.69	51.755
539.03	51.332
539.37	50.415
539.71	49.579
540.05	52.157
540.39	52.027
540.73	49.547
541.07	51.395
541.42	50.554
541.76	50.903
542.10	50.453
542.44	51.325
542.78	50.593
543.12	50.288
543.46	51.213
543.80	50.683
544.14	50.706
544.48	50.413
544.82	50.930
545.16	50.878
545.50	50.064
545.84	51.949
546.18	51.582
546.52	52.099
546.86	52.096
547.20	52.057
547.54	49.232
547.88	50.319
548.22	49.253
548.56	49.811
548.90	49.552
549.24	49.966
549.58	51.569
549.92	50.069
550.26	52.841
550.60	49.585
550.94	52.042
551.28	50.914
551.62	51.186
551.96	50.807
552.30	51.741
552.64	50.913
552.98	51.322
553.32	50.708
553.66	51.193
554.00	50.721
554.34	50.173
554.68	51.574
555.02	50.423
555.36	50.870
555.69	50.338
556.03	50.875
556.37	51.296
556.71	49.659
557.05	51.261
557.39	50.525
557.73	50.882
558.07	52.139
558.41	51.592
558.75	51.727
559.08	52.946
559.42	51.625
559.76	52.647
560.10	51.249
560.44	50.105
560.78	49.235
561.12	50.264
561.45	49.544
561.79	48.187
562.13	50.101
562.47	49.522
562.81	50.767
563.15	49.900
563.48	49.337
563.82	49.641
564.16	50.164
564.50	49.674
564.84	49.115
565.17	48.777
565.51	50.160
565.85	49.746
566.19	48.341
566.52	50.728
566.86	47.981
567.20	48.644
567.54	48.402
567.88	47.257
568.21	47.143
568.55	46.259
568.89	45.914
569.23	44.296
569.56	43.401
569.90	43.283
570.24	42.304
570.57	42.027
570.91	40.789
571.25	41.137
571.59	40.412
571.92	39.948
572.26	39.601
572.60	40.300
572.93	39.940
573.27	40.491
573.61	40.117
573.95	39.793
574.28	39.472
574.62	38.848
574.96	38.662
575.29	38.991
575.63	38.237
575.97	38.662
576.30	38.848
576.64	39.348
576.98	38.527
577.31	38.332
577.65	38.263
577.98	37.957
578.32	37.589
578.66	37.547
578.99	38.142
579.33	38.272
579.67	37.898
580.00	38.312
580.34	38.253
580.67	38.454
581.01	38.565
581.35	37.533
581.68	38.032
582.02	37.012
582.35	36.745
582.69	37.446
583.02	37.602
583.36	38.206
583.70	38.786
584.03	38.793
584.37	39.631
584.70	39.368
585.04	38.723
585.37	38.234
585.71	38.017
586.04	37.859
586.38	38.976
586.72	39.602
587.05	39.011
587.39	37.889
587.72	38.495
588.06	38.954
588.39	38.903
588.73	38.721
589.06	40.044
589.40	40.505
589.73	41.042
590.07	41.423
590.40	40.811
590.73	41.452
591.07	42.287
591.40	41.923
591.74	43.117
592.07	41.841
592.41	42.414
592.74	40.337
593.08	40.406
593.41	39.987
593.75	38.976
594.08	39.390
594.41	40.085
594.75	39.815
595.08	39.907
595.42	40.701
595.75	40.919
596.09	40.668
596.42	41.179
596.75	42.339
597.09	41.905
597.42	41.484
597.75	41.311
598.09	41.565
598.42	41.237
598.76	41.548
599.09	39.795
599.42	39.811
599.76	39.714
600.09	39.308
600.42	39.920
600.76	39.786
601.09	38.944
601.42	40.335
601.76	39.886
602.09	40.830
602.42	40.685
602.76	40.992
603.09	40.755
603.42	41.039
603.76	40.282
604.09	40.054
604.42	40.563
604.76	41.206
605.09	41.415
605.42	40.915
605.75	40.480
606.09	39.569
606.42	41.357
606.75	40.274
607.09	40.770
607.42	41.335
607.75	40.295
608.08	40.773
608.42	41.909
608.75	41.434
609.08	40.981
609.41	40.552
609.75	42.544
610.08	41.847
610.41	41.620
610.74	41.911
611.07	41.403
611.41	41.806
611.74	43.489
612.07	42.909
612.40	43.337
612.73	42.526
613.07	43.481
613.40	43.549
613.73	42.108
614.06	42.366
614.39	43.367
614.72	42.579
615.06	42.805
615.39	41.932
615.72	40.951
616.05	42.743
616.38	42.968
616.71	43.705
617.05	44.111
617.38	43.776
617.71	44.204
618.04	43.570
618.37	43.347
618.70	44.057
619.03	44.671
619.36	45.078
619.69	47.113
620.03	45.742
620.36	44.853
620.69	46.096
621.02	46.608
621.35	46.280
621.68	45.872
622.01	46.749
622.34	46.747
622.67	47.072
623.00	45.121
623.33	45.818
623.66	45.747
623.99	46.171
624.32	47.147
624.65	45.763
624.99	45.184
625.32	44.533
625.65	47.183
625.98	47.579
626.31	46.812
626.64	48.327
626.97	48.878
627.30	48.628
627.63	48.646
627.96	48.949
628.29	50.131
628.62	50.412
628.95	50.943
629.28	51.551
629.61	50.229
629.94	50.762
630.26	50.715
630.59	51.668
630.92	50.383
