SpectraSuite Data File
++++++++++++++++++++++++++++++++++++
Date: Wed May 13 16:19:23 PDT 2015
User: schluterlab
Dark Spectrum Present: Yes
Reference Spectrum Present: Yes
Number of Sampled Component Spectra: 1
Spectrometers: USB2E3373
Integration Time (usec): 3000 (USB2E3373)
Spectra Averaged: 3 (USB2E3373)
Boxcar Smoothing: 0 (USB2E3373)
Correct for Electrical Dark: No (USB2E3373)
Strobe/Lamp Enabled: No (USB2E3373)
Correct for Detector Non-linearity: No (USB2E3373)
Correct for Stray Light: No (USB2E3373)
Number of Pixels in Processed Spectrum: 2048
>>>>>Begin Processed Spectral Data<<<<<
178.53	0.000
178.91	-1275.000
179.29	-1100.000
179.67	-200.000
180.04	-1150.000
180.42	2600.000
180.80	920.000
181.18	-925.000
181.56	628.571
181.94	0.000
182.31	-542.857
182.69	1466.667
183.07	-450.000
183.45	-444.444
183.83	536.364
184.20	-330.000
184.58	2000.000
184.96	4200.000
185.34	-660.000
185.72	-450.000
186.09	-2350.000
186.47	2450.000
186.85	2050.000
187.23	4100.000
187.61	-1233.333
187.98	1200.000
188.36	490.909
188.74	409.091
189.12	-680.000
189.49	460.000
189.87	-4200.000
190.25	-1025.000
190.63	321.429
191.00	376.923
191.38	800.000
191.76	-1100.000
192.14	1075.000
192.51	500.000
192.89	733.333
193.27	475.000
193.65	-950.000
194.02	470.000
194.40	720.000
194.78	510.000
195.15	400.000
195.53	560.000
195.91	-1400.000
196.29	362.500
196.66	284.211
197.04	-260.000
197.42	0.000
197.79	570.000
198.17	-4400.000
198.55	542.857
198.92	762.500
199.30	780.000
199.68	0.000
200.05	277.778
200.43	628.571
200.81	4000.000
201.18	1200.000
201.56	-1100.000
201.94	500.000
202.31	477.778
202.69	350.000
203.07	430.000
203.44	0.000
203.82	1025.000
204.19	757.143
204.57	357.143
204.95	437.500
205.32	1200.000
205.70	436.364
206.08	350.000
206.45	2300.000
206.83	281.250
207.20	866.667
207.58	720.000
207.96	272.222
208.33	625.000
208.71	-616.667
209.08	700.000
209.46	588.889
209.84	490.909
210.21	-1366.667
210.59	1375.000
210.96	-375.000
211.34	2250.000
211.71	510.000
212.09	600.000
212.46	0.000
212.84	1533.333
213.22	1350.000
213.59	-3400.000
213.97	683.333
214.34	685.714
214.72	490.909
215.09	900.000
215.47	-2200.000
215.84	-2050.000
216.22	1200.000
216.59	307.143
216.97	1000.000
217.34	427.273
217.72	-683.333
218.09	0.000
218.47	-3200.000
218.84	644.444
219.22	671.429
219.59	1733.333
219.97	-571.429
220.34	720.000
220.72	-1166.667
221.09	335.714
221.47	1500.000
221.84	-833.333
222.22	0.000
222.59	1225.000
222.97	-2550.000
223.34	1160.000
223.72	453.846
224.09	920.000
224.46	2150.000
224.84	-3900.000
225.21	-660.000
225.59	-4000.000
225.96	460.000
226.34	270.000
226.71	2150.000
227.08	562.500
227.46	450.000
227.83	-1025.000
228.21	-2000.000
228.58	555.556
228.95	-2000.000
229.33	-2200.000
229.70	1166.667
230.08	685.714
230.45	-780.000
230.82	325.000
231.20	766.667
231.57	600.000
231.95	391.667
232.32	209.091
232.69	372.727
233.07	600.000
233.44	300.000
233.81	-1500.000
234.19	242.105
234.56	358.333
234.93	358.333
235.31	390.909
235.68	346.154
236.05	250.000
236.43	145.455
236.80	200.000
237.17	3400.000
237.55	157.143
237.92	142.857
238.29	142.857
238.67	116.129
239.04	155.172
239.41	108.333
239.79	80.435
240.16	114.286
240.53	95.455
240.91	84.314
241.28	90.000
241.65	60.000
242.02	69.565
242.40	62.903
242.77	70.000
243.14	56.989
243.51	57.303
243.89	50.588
244.26	43.333
244.63	48.387
245.00	34.043
245.38	44.554
245.75	32.710
246.12	35.780
246.49	37.956
246.87	36.800
247.24	38.462
247.61	34.286
247.98	22.876
248.36	21.622
248.73	22.293
249.10	28.662
249.47	29.944
249.84	25.134
250.22	25.134
250.59	27.219
250.96	20.707
251.33	26.540
251.70	22.772
252.08	22.381
252.45	18.834
252.82	19.565
253.19	21.702
253.56	19.216
253.94	22.407
254.31	17.187
254.68	16.923
255.05	13.284
255.42	13.008
255.79	13.971
256.16	16.606
256.54	14.841
256.91	15.658
257.28	10.791
257.65	14.521
258.02	15.217
258.39	16.719
258.76	13.378
259.14	16.667
259.51	14.590
259.88	13.665
260.25	13.293
260.62	13.584
260.99	9.938
261.36	15.616
261.73	10.888
262.10	11.047
262.47	10.423
262.85	13.092
263.22	8.262
263.59	15.954
263.96	12.637
264.33	11.749
264.70	12.105
265.07	14.834
265.44	12.879
265.81	10.219
266.18	11.055
266.55	10.976
266.92	9.582
267.29	9.491
267.66	10.092
268.03	12.955
268.40	9.813
268.77	8.592
269.14	11.036
269.51	12.415
269.88	11.189
270.25	9.255
270.62	12.135
270.99	13.333
271.36	10.730
271.73	9.112
272.10	10.000
272.47	10.323
272.84	8.658
273.21	9.644
273.58	8.515
273.95	8.176
274.32	10.537
274.69	10.921
275.06	7.480
275.43	8.936
275.80	8.818
276.17	10.794
276.54	8.732
276.91	10.474
277.28	9.570
277.65	7.737
278.02	8.075
278.39	10.156
278.76	9.455
279.13	9.057
279.50	10.428
279.87	9.163
280.23	7.585
280.60	7.930
280.97	8.133
281.34	9.204
281.71	10.909
282.08	9.597
282.45	8.545
282.82	8.348
283.19	5.704
283.56	7.895
283.92	7.445
284.29	8.466
284.66	9.619
285.03	7.776
285.40	8.099
285.77	8.754
286.14	6.736
286.51	9.000
286.87	8.547
287.24	7.492
287.61	6.581
287.98	8.766
288.35	7.448
288.72	8.255
289.08	9.077
289.45	6.096
289.82	6.992
290.19	5.965
290.56	6.279
290.93	5.287
291.29	6.595
291.66	7.375
292.03	8.721
292.40	7.783
292.77	5.917
293.13	6.716
293.50	6.414
293.87	6.370
294.24	6.370
294.60	4.803
294.97	7.122
295.34	7.334
295.71	6.534
296.08	6.553
296.44	5.915
296.81	6.077
297.18	6.775
297.55	4.354
297.91	6.069
298.28	5.890
298.65	7.702
299.02	5.534
299.38	6.375
299.75	3.369
300.12	5.747
300.48	5.625
300.85	6.165
301.22	6.752
301.59	5.556
301.95	5.793
302.32	5.392
302.69	6.093
303.05	5.212
303.42	5.679
303.79	5.210
304.15	4.895
304.52	5.910
304.89	4.646
305.25	5.452
305.62	5.776
305.99	5.785
306.35	5.034
306.72	4.933
307.09	6.881
307.45	6.419
307.82	3.906
308.19	6.512
308.55	6.149
308.92	5.371
309.29	4.435
309.65	4.348
310.02	5.814
310.38	4.839
310.75	4.541
311.12	5.015
311.48	5.956
311.85	5.660
312.22	5.515
312.58	5.613
312.95	4.752
313.31	4.369
313.68	6.341
314.05	5.720
314.41	6.030
314.78	5.237
315.14	5.164
315.51	5.561
315.87	5.446
316.24	5.065
316.61	4.288
316.97	5.382
317.34	2.935
317.70	5.449
318.07	4.909
318.43	5.479
318.80	5.530
319.16	5.179
319.53	4.690
319.89	5.333
320.26	5.600
320.62	4.762
320.99	6.162
321.35	6.061
321.72	5.133
322.08	5.429
322.45	5.871
322.81	5.911
323.18	5.588
323.54	6.030
323.91	6.698
324.27	5.927
324.64	4.287
325.00	4.959
325.37	5.551
325.73	6.194
326.10	5.472
326.46	4.480
326.83	5.781
327.19	5.636
327.56	4.965
327.92	4.899
328.29	5.768
328.65	5.157
329.01	5.866
329.38	4.810
329.74	5.448
330.11	5.561
330.47	5.051
330.84	6.985
331.20	4.372
331.56	6.422
331.93	4.537
332.29	5.856
332.66	6.460
333.02	5.850
333.38	5.149
333.75	6.239
334.11	6.317
334.48	5.679
334.84	5.515
335.20	5.364
335.57	4.714
335.93	5.179
336.29	4.212
336.66	5.230
337.02	4.525
337.38	5.093
337.75	4.545
338.11	4.566
338.47	5.433
338.84	5.316
339.20	4.495
339.56	5.383
339.93	4.091
340.29	4.438
340.65	5.080
341.02	5.497
341.38	4.982
341.74	4.298
342.11	4.541
342.47	4.581
342.83	5.565
343.20	5.628
343.56	5.560
343.92	5.175
344.28	5.272
344.65	5.331
345.01	4.714
345.37	3.259
345.73	4.653
346.10	5.200
346.46	5.847
346.82	4.942
347.19	4.177
347.55	5.008
347.91	5.906
348.27	4.848
348.63	5.518
349.00	5.259
349.36	5.255
349.72	5.293
350.08	4.538
350.45	6.184
350.81	4.712
351.17	5.186
351.53	3.849
351.89	3.878
352.26	5.367
352.62	4.892
352.98	5.673
353.34	4.766
353.70	4.255
354.07	5.242
354.43	5.000
354.79	5.068
355.15	4.629
355.51	5.516
355.87	5.714
356.24	4.479
356.60	4.571
356.96	4.666
357.32	4.088
357.68	4.567
358.04	4.671
358.40	4.196
358.77	5.008
359.13	3.710
359.49	5.176
359.85	3.413
360.21	4.147
360.57	4.747
360.93	4.231
361.29	4.157
361.66	3.947
362.02	4.328
362.38	5.399
362.74	4.985
363.10	3.627
363.46	3.742
363.82	3.175
364.18	4.626
364.54	5.349
364.90	5.099
365.26	3.971
365.62	4.967
365.98	4.018
366.35	3.940
366.71	4.483
367.07	4.006
367.43	4.136
367.79	4.497
368.15	4.885
368.51	4.215
368.87	4.211
369.23	4.316
369.59	4.127
369.95	3.824
370.31	5.199
370.67	5.072
371.03	5.543
371.39	4.155
371.75	4.485
372.11	4.836
372.47	4.912
372.83	4.683
373.19	4.408
373.55	3.991
373.91	4.934
374.27	4.811
374.63	3.709
374.99	5.226
375.35	4.396
375.71	3.701
376.07	5.213
376.42	4.539
376.78	5.302
377.14	4.953
377.50	5.099
377.86	3.524
378.22	5.499
378.58	3.947
378.94	4.714
379.30	4.580
379.66	4.886
380.02	4.730
380.38	4.614
380.74	5.042
381.09	5.196
381.45	5.101
381.81	5.405
382.17	5.096
382.53	4.340
382.89	5.247
383.25	4.565
383.61	4.709
383.97	4.941
384.32	5.365
384.68	4.461
385.04	4.794
385.40	4.768
385.76	5.098
386.12	5.246
386.48	5.601
386.83	5.452
387.19	5.195
387.55	5.380
387.91	4.837
388.27	5.763
388.62	5.347
388.98	4.914
389.34	5.882
389.70	5.334
390.06	5.323
390.42	5.447
390.77	5.598
391.13	5.169
391.49	6.409
391.85	5.283
392.20	5.489
392.56	5.177
392.92	5.650
393.28	4.260
393.64	5.456
393.99	5.254
394.35	5.335
394.71	5.458
395.07	5.234
395.42	4.944
395.78	5.089
396.14	5.711
396.50	6.391
396.85	5.594
397.21	4.932
397.57	5.270
397.92	5.288
398.28	5.493
398.64	5.854
399.00	5.932
399.35	4.738
399.71	5.613
400.07	5.736
400.42	5.583
400.78	5.428
401.14	5.183
401.49	5.672
401.85	4.840
402.21	5.988
402.57	5.737
402.92	5.422
403.28	5.746
403.63	4.889
403.99	5.032
404.35	5.394
404.70	5.156
405.06	5.591
405.42	5.802
405.77	4.514
406.13	4.966
406.49	4.967
406.84	6.320
407.20	5.083
407.55	5.361
407.91	5.600
408.27	4.850
408.62	5.599
408.98	5.025
409.34	5.720
409.69	5.161
410.05	5.143
410.40	5.505
410.76	5.078
411.11	5.850
411.47	5.623
411.83	6.048
412.18	4.824
412.54	5.293
412.89	5.361
413.25	5.431
413.60	4.632
413.96	5.039
414.31	5.225
414.67	5.450
415.03	4.503
415.38	6.057
415.74	5.209
416.09	5.617
416.45	5.154
416.80	5.288
417.16	5.697
417.51	5.707
417.87	4.496
418.22	5.300
418.58	6.327
418.93	5.590
419.29	5.411
419.64	5.730
420.00	5.610
420.35	6.435
420.71	6.336
421.06	5.131
421.42	4.737
421.77	5.549
422.12	4.885
422.48	5.127
422.83	5.125
423.19	5.801
423.54	4.643
423.90	6.145
424.25	5.807
424.61	5.536
424.96	5.364
425.31	5.703
425.67	5.056
426.02	5.314
426.38	5.189
426.73	5.383
427.09	5.228
427.44	5.348
427.79	5.175
428.15	6.429
428.50	5.500
428.85	5.781
429.21	5.080
429.56	4.821
429.92	5.284
430.27	4.568
430.62	4.506
430.98	5.086
431.33	5.103
431.68	5.079
432.04	5.751
432.39	5.425
432.74	5.506
433.10	5.263
433.45	5.190
433.80	4.767
434.16	5.609
434.51	5.737
434.86	5.530
435.22	4.836
435.57	4.863
435.92	5.091
436.28	5.635
436.63	6.347
436.98	5.037
437.34	5.307
437.69	5.426
438.04	5.171
438.39	4.657
438.75	5.520
439.10	5.251
439.45	5.667
439.81	5.317
440.16	5.138
440.51	5.565
440.86	5.617
441.22	4.894
441.57	5.096
441.92	5.220
442.27	5.274
442.63	4.687
442.98	5.521
443.33	5.163
443.68	5.059
444.03	4.880
444.39	4.625
444.74	5.411
445.09	5.283
445.44	5.467
445.79	5.294
446.15	5.611
446.50	5.493
446.85	5.139
447.20	5.303
447.55	5.248
447.91	5.681
448.26	5.342
448.61	5.144
448.96	5.869
449.31	5.849
449.66	5.571
450.02	4.847
450.37	5.272
450.72	4.399
451.07	5.484
451.42	5.046
451.77	5.285
452.12	5.081
452.47	5.784
452.83	5.128
453.18	6.051
453.53	5.875
453.88	5.021
454.23	5.200
454.58	5.694
454.93	5.467
455.28	5.362
455.63	5.218
455.98	5.655
456.34	4.899
456.69	5.385
457.04	5.449
457.39	5.085
457.74	5.281
458.09	5.118
458.44	5.302
458.79	4.610
459.14	5.023
459.49	5.254
459.84	5.374
460.19	4.832
460.54	5.556
460.89	5.266
461.24	5.161
461.59	5.927
461.94	5.302
462.29	6.231
462.64	5.297
462.99	5.595
463.34	5.933
463.69	5.316
464.04	5.449
464.39	5.449
464.74	5.229
465.09	5.549
465.44	5.152
465.79	4.866
466.14	5.090
466.49	5.117
466.84	4.845
467.19	5.975
467.54	6.063
467.89	4.862
468.24	5.352
468.59	5.678
468.94	6.048
469.29	5.848
469.64	5.756
469.99	5.413
470.34	5.020
470.68	5.963
471.03	5.986
471.38	5.698
471.73	5.929
472.08	6.579
472.43	5.276
472.78	5.596
473.13	5.712
473.48	5.556
473.83	5.061
474.17	5.227
474.52	5.335
474.87	6.130
475.22	5.049
475.57	5.159
475.92	4.514
476.27	4.961
476.61	5.295
476.96	5.058
477.31	4.814
477.66	5.361
478.01	5.071
478.36	5.447
478.70	4.258
479.05	5.591
479.40	5.118
479.75	5.033
480.10	4.523
480.45	4.569
480.79	4.826
481.14	4.452
481.49	5.316
481.84	4.390
482.19	4.225
482.53	4.817
482.88	5.165
483.23	5.000
483.58	4.914
483.92	4.780
484.27	3.834
484.62	4.483
484.97	4.375
485.31	4.486
485.66	3.540
486.01	3.242
486.36	3.126
486.70	3.075
487.05	3.496
487.40	3.830
487.75	3.998
488.09	4.064
488.44	4.436
488.79	4.485
489.13	4.698
489.48	4.568
489.83	4.532
490.17	4.647
490.52	4.827
490.87	4.478
491.22	4.593
491.56	4.875
491.91	5.212
492.26	4.548
492.60	4.654
492.95	4.537
493.30	4.953
493.64	4.666
493.99	4.457
494.34	4.718
494.68	5.174
495.03	4.840
495.37	5.119
495.72	4.435
496.07	4.687
496.41	4.336
496.76	4.661
497.11	4.908
497.45	4.704
497.80	4.223
498.14	4.734
498.49	4.878
498.84	4.554
499.18	4.667
499.53	4.511
499.87	4.660
500.22	4.805
500.56	5.049
500.91	4.519
501.26	4.931
501.60	5.173
501.95	4.400
502.29	5.389
502.64	4.516
502.98	4.675
503.33	4.799
503.67	4.826
504.02	5.098
504.36	5.335
504.71	4.787
505.06	5.494
505.40	4.861
505.75	4.629
506.09	5.053
506.44	4.835
506.78	5.017
507.13	4.291
507.47	4.949
507.82	5.319
508.16	5.066
508.51	4.921
508.85	4.816
509.19	4.643
509.54	5.153
509.88	4.791
510.23	5.090
510.57	5.573
510.92	5.282
511.26	4.933
511.61	5.135
511.95	5.063
512.30	4.719
512.64	5.212
512.98	5.091
513.33	5.193
513.67	5.069
514.02	4.654
514.36	5.188
514.70	5.257
515.05	4.796
515.39	5.328
515.74	5.011
516.08	6.205
516.42	5.771
516.77	5.797
517.11	5.660
517.46	5.474
517.80	5.575
518.14	4.748
518.49	5.718
518.83	5.568
519.17	5.196
519.52	5.603
519.86	5.191
520.20	6.012
520.55	5.027
520.89	5.839
521.23	6.152
521.58	5.822
521.92	5.756
522.26	5.125
522.61	5.857
522.95	5.648
523.29	5.721
523.64	5.793
523.98	5.669
524.32	5.368
524.66	5.713
525.01	5.699
525.35	5.824
525.69	5.911
526.04	5.857
526.38	5.308
526.72	5.951
527.06	5.650
527.41	5.012
527.75	5.981
528.09	6.294
528.43	5.927
528.78	6.085
529.12	5.576
529.46	5.756
529.80	5.507
530.15	6.044
530.49	5.415
530.83	6.139
531.17	5.940
531.51	6.161
531.86	6.000
532.20	5.867
532.54	6.342
532.88	5.712
533.22	5.684
533.57	5.679
533.91	5.960
534.25	5.832
534.59	5.552
534.93	6.008
535.27	5.371
535.62	5.983
535.96	6.152
536.30	4.959
536.64	6.053
536.98	5.508
537.32	5.859
537.66	5.800
538.01	5.859
538.35	5.559
538.69	6.382
539.03	4.808
539.37	4.920
539.71	4.472
540.05	6.209
540.39	5.581
540.73	5.498
541.07	6.165
541.42	5.153
541.76	6.581
542.10	6.339
542.44	5.298
542.78	6.258
543.12	5.630
543.46	6.164
543.80	6.116
544.14	5.135
544.48	5.587
544.82	5.388
545.16	5.530
545.50	5.848
545.84	5.175
546.18	5.387
546.52	6.401
546.86	5.704
547.20	6.001
547.54	6.079
547.88	6.952
548.22	4.981
548.56	5.723
548.90	4.866
549.24	5.118
549.58	6.276
549.92	5.495
550.26	5.469
550.60	6.224
550.94	6.127
551.28	5.267
551.62	5.823
551.96	5.614
552.30	6.007
552.64	5.206
552.98	5.627
553.32	5.866
553.66	6.135
554.00	6.314
554.34	5.452
554.68	6.438
555.02	5.642
555.36	6.402
555.69	5.074
556.03	5.585
556.37	5.321
556.71	5.321
557.05	5.672
557.39	6.228
557.73	5.646
558.07	6.236
558.41	5.789
558.75	6.539
559.08	6.786
559.42	5.215
559.76	5.956
560.10	5.139
560.44	6.219
560.78	6.387
561.12	5.607
561.45	6.649
561.79	5.933
562.13	5.835
562.47	5.191
562.81	4.951
563.15	5.753
563.48	6.233
563.82	5.675
564.16	4.644
564.50	5.534
564.84	5.436
565.17	4.955
565.51	5.367
565.85	4.886
566.19	4.947
566.52	5.636
566.86	5.425
567.20	6.014
567.54	4.509
567.88	4.671
568.21	5.185
568.55	4.651
568.89	4.523
569.23	4.545
569.56	4.291
569.90	4.377
570.24	4.198
570.57	3.672
570.91	3.685
571.25	3.644
571.59	3.829
571.92	3.571
572.26	4.044
572.60	3.904
572.93	4.078
573.27	4.200
573.61	4.020
573.95	3.540
574.28	3.492
574.62	3.620
574.96	3.321
575.29	3.516
575.63	3.277
575.97	3.463
576.30	3.877
576.64	3.159
576.98	3.354
577.31	3.142
577.65	3.301
577.98	2.935
578.32	3.038
578.66	3.354
578.99	3.013
579.33	3.413
579.67	2.895
580.00	3.213
580.34	3.322
580.67	3.569
581.01	3.351
581.35	2.986
581.68	3.143
582.02	2.921
582.35	2.767
582.69	3.032
583.02	3.097
583.36	3.182
583.70	3.521
584.03	3.448
584.37	3.689
584.70	3.448
585.04	3.620
585.37	3.332
585.71	3.618
586.04	3.600
586.38	3.161
586.72	3.756
587.05	3.206
587.39	3.298
587.72	3.659
588.06	3.495
588.39	3.594
588.73	3.579
589.06	3.584
589.40	3.636
589.73	3.696
590.07	3.630
590.40	3.800
590.73	3.630
591.07	5.006
591.40	4.513
591.74	4.545
592.07	5.017
592.41	4.465
592.74	3.858
593.08	4.064
593.41	3.796
593.75	3.435
594.08	3.822
594.41	3.606
594.75	3.401
595.08	4.009
595.42	3.958
595.75	3.241
596.09	4.318
596.42	4.637
596.75	3.841
597.09	4.762
597.42	4.047
597.75	3.795
598.09	5.217
598.42	4.639
598.76	4.135
599.09	3.687
599.42	4.112
599.76	3.770
600.09	3.862
600.42	3.579
600.76	3.714
601.09	4.044
601.42	3.425
601.76	4.061
602.09	3.834
602.42	4.538
602.76	4.353
603.09	3.973
603.42	4.295
603.76	4.002
604.09	4.071
604.42	3.914
604.76	4.892
605.09	4.107
605.42	3.805
605.75	4.098
606.09	3.375
606.42	3.964
606.75	4.521
607.09	4.939
607.42	3.851
607.75	3.840
608.08	3.995
608.42	4.706
608.75	4.013
609.08	4.718
609.41	4.712
609.75	4.859
610.08	4.383
610.41	3.724
610.74	3.926
611.07	4.545
611.41	4.220
611.74	4.625
612.07	4.503
612.40	4.617
612.73	3.947
613.07	4.203
613.40	4.950
613.73	4.615
614.06	4.677
614.39	4.824
614.72	4.895
615.06	4.464
615.39	4.830
615.72	4.703
616.05	4.040
616.38	4.669
616.71	4.929
617.05	5.183
617.38	4.089
617.71	4.204
618.04	4.567
618.37	4.376
618.70	5.538
619.03	5.526
619.36	5.295
619.69	5.211
620.03	5.769
620.36	5.348
620.69	5.616
621.02	5.605
621.35	5.012
621.68	5.296
622.01	5.341
622.34	5.900
622.67	5.551
623.00	5.576
623.33	5.289
623.66	4.432
623.99	5.228
624.32	5.777
624.65	5.155
624.99	3.824
625.32	4.417
625.65	5.184
625.98	5.534
626.31	6.998
626.64	5.714
626.97	5.569
627.30	5.653
627.63	5.496
627.96	6.224
628.29	6.037
628.62	5.947
628.95	7.925
629.28	6.752
629.61	7.333
629.94	6.095
630.26	5.815
630.59	6.196
630.92	6.418
631.25	5.232
631.58	6.707
631.91	6.288
632.24	6.435
632.57	7.345
632.90	6.689
633.23	6.711
633.56	8.588
633.89	6.682
634.22	7.378
634.55	8.284
634.88	6.108
635.20	8.841
635.53	8.434
635.86	6.683
636.19	7.765
636.52	8.074
636.85	6.415
637.18	6.336
637.51	8.747
637.83	5.919
638.16	7.928
638.49	9.572
638.82	8.470
639.15	7.750
639.48	7.731
639.81	9.249
640.13	9.245
640.46	7.248
640.79	9.908
641.12	8.253
641.45	8.101
641.77	8.689
642.10	8.772
642.43	7.958
642.76	8.514
643.09	10.123
643.41	8.498
643.74	9.877
644.07	7.165
644.40	10.736
644.73	9.921
645.05	11.410
645.38	9.795
645.71	11.272
646.04	9.801
646.36	9.683
646.69	9.030
647.02	9.694
647.35	9.966
647.67	10.265
648.00	9.919
648.33	6.931
648.66	9.394
648.98	9.145
649.31	6.278
649.64	8.670
649.96	9.091
650.29	9.321
650.62	9.385
650.94	10.049
651.27	11.318
651.60	9.983
651.92	9.744
652.25	8.143
652.58	10.748
652.90	9.953
653.23	8.012
653.56	8.504
653.88	10.935
654.21	9.795
654.54	10.561
654.86	8.100
