SpectraSuite Data File
++++++++++++++++++++++++++++++++++++
Date: Wed May 13 16:33:43 PDT 2015
User: schluterlab
Dark Spectrum Present: Yes
Reference Spectrum Present: Yes
Number of Sampled Component Spectra: 1
Spectrometers: USB2E3373
Integration Time (usec): 3000 (USB2E3373)
Spectra Averaged: 3 (USB2E3373)
Boxcar Smoothing: 0 (USB2E3373)
Correct for Electrical Dark: No (USB2E3373)
Strobe/Lamp Enabled: No (USB2E3373)
Correct for Detector Non-linearity: No (USB2E3373)
Correct for Stray Light: No (USB2E3373)
Number of Pixels in Processed Spectrum: 2048
>>>>>Begin Processed Spectral Data<<<<<
178.53	0.000
178.91	-1200.000
179.29	-1450.000
179.67	-227.778
180.04	-1425.000
180.42	2450.000
180.80	880.000
181.18	-1125.000
181.56	700.000
181.94	0.000
182.31	-542.857
182.69	1433.333
183.07	-637.500
183.45	-566.667
183.83	590.909
184.20	-310.000
184.58	2100.000
184.96	5000.000
185.34	-700.000
185.72	-612.500
186.09	-1350.000
186.47	2400.000
186.85	2450.000
187.23	4500.000
187.61	-1566.667
187.98	1225.000
188.36	445.455
188.74	472.727
189.12	-820.000
189.49	570.000
189.87	-3700.000
190.25	-1225.000
190.63	364.286
191.00	384.615
191.38	866.667
191.76	-800.000
192.14	1325.000
192.51	637.500
192.89	900.000
193.27	612.500
193.65	-1175.000
194.02	430.000
194.40	880.000
194.78	560.000
195.15	450.000
195.53	670.000
195.91	-2100.000
196.29	393.750
196.66	273.684
197.04	-340.000
197.42	0.000
197.79	530.000
198.17	-5000.000
198.55	614.286
198.92	662.500
199.30	1040.000
199.68	0.000
200.05	344.444
200.43	714.286
200.81	4100.000
201.18	1700.000
201.56	-1633.333
201.94	533.333
202.31	588.889
202.69	400.000
203.07	540.000
203.44	0.000
203.82	1125.000
204.19	757.143
204.57	421.429
204.95	562.500
205.32	1266.667
205.70	490.909
206.08	364.286
206.45	2500.000
206.83	337.500
207.20	783.333
207.58	760.000
207.96	338.889
208.33	650.000
208.71	-800.000
209.08	685.714
209.46	611.111
209.84	463.636
210.21	-1466.667
210.59	1325.000
210.96	-387.500
211.34	2500.000
211.71	510.000
212.09	666.667
212.46	0.000
212.84	1400.000
213.22	1350.000
213.59	-4700.000
213.97	783.333
214.34	700.000
214.72	590.909
215.09	1080.000
215.47	-1950.000
215.84	-2500.000
216.22	1833.333
216.59	400.000
216.97	1150.000
217.34	445.455
217.72	-833.333
218.09	0.000
218.47	-4600.000
218.84	444.444
219.22	757.143
219.59	1633.333
219.97	-600.000
220.34	1120.000
220.72	-1600.000
221.09	407.143
221.47	1375.000
221.84	-1083.333
222.22	0.000
222.59	1150.000
222.97	-2800.000
223.34	880.000
223.72	384.615
224.09	1060.000
224.46	2050.000
224.84	-5100.000
225.21	-900.000
225.59	-4200.000
225.96	550.000
226.34	270.000
226.71	2150.000
227.08	737.500
227.46	430.000
227.83	-1100.000
228.21	-1850.000
228.58	644.444
228.95	-2200.000
229.33	-2150.000
229.70	1500.000
230.08	728.571
230.45	-900.000
230.82	358.333
231.20	700.000
231.57	757.143
231.95	425.000
232.32	227.273
232.69	290.909
233.07	728.571
233.44	376.923
233.81	-1666.667
234.19	331.579
234.56	525.000
234.93	341.667
235.31	500.000
235.68	330.769
236.05	342.857
236.43	178.788
236.80	273.684
237.17	5200.000
237.55	261.905
237.92	203.571
238.29	295.238
238.67	203.226
239.04	227.586
239.41	158.333
239.79	139.130
240.16	173.810
240.53	150.000
240.91	105.882
241.28	128.000
241.65	142.000
242.02	105.797
242.40	101.613
242.77	96.667
243.14	91.398
243.51	103.371
243.89	88.235
244.26	91.111
244.63	86.022
245.00	75.532
245.38	86.139
245.75	74.766
246.12	68.807
246.49	81.022
246.87	74.400
247.24	76.923
247.61	66.429
247.98	64.706
248.36	66.216
248.73	62.420
249.10	72.611
249.47	65.537
249.84	59.358
250.22	55.615
250.59	64.497
250.96	62.121
251.33	59.716
251.70	61.881
252.08	55.238
252.45	56.054
252.82	53.043
253.19	55.319
253.56	56.471
253.94	59.751
254.31	53.906
254.68	57.692
255.05	52.399
255.42	58.537
255.79	53.676
256.16	54.513
256.54	51.237
256.91	50.178
257.28	47.122
257.65	51.815
258.02	52.174
258.39	52.366
258.76	47.826
259.14	52.679
259.51	52.888
259.88	46.894
260.25	49.849
260.62	48.844
260.99	53.106
261.36	52.553
261.73	48.424
262.10	47.093
262.47	52.394
262.85	47.354
263.22	47.009
263.59	48.148
263.96	45.330
264.33	46.214
264.70	45.789
265.07	45.269
265.44	45.960
265.81	42.092
266.18	49.246
266.55	44.878
266.92	50.860
267.29	45.602
267.66	44.725
268.03	43.864
268.40	43.224
268.77	46.539
269.14	42.793
269.51	43.792
269.88	46.387
270.25	46.275
270.62	45.843
270.99	46.882
271.36	42.704
271.73	46.028
272.10	42.826
272.47	43.441
272.84	44.372
273.21	42.558
273.58	42.140
273.95	39.832
274.32	43.595
274.69	44.540
275.06	42.126
275.43	45.106
275.80	43.086
276.17	43.381
276.54	45.114
276.91	44.466
277.28	41.602
277.65	43.327
278.02	40.580
278.39	42.969
278.76	41.636
279.13	44.151
279.50	41.713
279.87	41.036
280.23	42.914
280.60	41.779
280.97	40.665
281.34	41.770
281.71	43.091
282.08	42.035
282.45	40.909
282.82	41.918
283.19	40.463
283.56	41.228
283.92	42.809
284.29	39.153
284.66	41.198
285.03	39.964
285.40	40.845
285.77	41.077
286.14	37.997
286.51	41.667
286.87	39.316
287.24	40.554
287.61	37.079
287.98	39.448
288.35	37.401
288.72	37.227
289.08	38.341
289.45	38.056
289.82	37.561
290.19	35.950
290.56	35.835
290.93	35.801
291.29	36.656
291.66	34.513
292.03	34.593
292.40	37.298
292.77	34.615
293.13	33.582
293.50	35.423
293.87	35.259
294.24	34.074
294.60	31.441
294.97	33.721
295.34	34.274
295.71	33.097
296.08	32.479
296.44	32.600
296.81	32.100
297.18	31.572
297.55	31.135
297.91	29.815
298.28	31.861
298.65	31.593
299.02	31.621
299.38	32.271
299.75	29.111
300.12	30.140
300.48	29.250
300.85	29.470
301.22	29.809
301.59	28.788
301.95	30.982
302.32	31.707
302.69	29.749
303.05	29.576
303.42	28.765
303.79	28.992
304.15	28.089
304.52	27.231
304.89	29.036
305.25	28.306
305.62	27.860
305.99	28.099
306.35	27.964
306.72	28.251
307.09	27.747
307.45	30.293
307.82	26.562
308.19	29.029
308.55	27.616
308.92	27.712
309.29	27.983
309.65	26.193
310.02	25.687
310.38	28.065
310.75	27.666
311.12	27.329
311.48	27.482
311.85	27.254
312.22	27.471
312.58	26.195
312.95	27.561
313.31	25.728
313.68	26.403
314.05	28.600
314.41	26.030
314.78	25.881
315.14	26.514
315.51	27.497
315.87	26.931
316.24	26.415
316.61	25.731
316.97	25.538
317.34	25.049
317.70	26.386
318.07	26.275
318.43	26.712
318.80	25.961
319.16	27.024
319.53	25.516
319.89	28.000
320.26	27.800
320.62	26.786
320.99	25.657
321.35	25.960
321.72	26.386
322.08	27.147
322.45	26.468
322.81	26.163
323.18	26.590
323.54	26.438
323.91	26.698
324.27	25.813
324.64	26.095
325.00	24.527
325.37	26.388
325.73	27.199
326.10	26.743
326.46	25.896
326.83	26.057
327.19	24.338
327.56	25.087
327.92	26.334
328.29	27.595
328.65	26.059
329.01	26.625
329.38	25.624
329.74	26.039
330.11	26.956
330.47	26.722
330.84	27.757
331.20	26.138
331.56	26.514
331.93	24.815
332.29	24.401
332.66	26.637
333.02	25.411
333.38	26.287
333.75	26.025
334.11	25.623
334.48	25.111
334.84	26.011
335.20	26.909
335.57	23.572
335.93	23.750
336.29	25.275
336.66	24.707
337.02	24.977
337.38	24.352
337.75	24.599
338.11	25.873
338.47	25.138
338.84	24.381
339.20	23.945
339.56	25.274
339.93	24.727
340.29	23.822
340.65	24.510
341.02	25.393
341.38	25.089
341.74	24.561
342.11	26.550
342.47	24.846
342.83	24.229
343.20	24.502
343.56	23.336
343.92	23.947
344.28	25.340
344.65	24.420
345.01	23.064
345.37	23.070
345.73	24.112
346.10	24.297
346.46	24.153
346.82	23.476
347.19	24.144
347.55	23.727
347.91	24.919
348.27	24.979
348.63	23.579
349.00	22.654
349.36	22.906
349.72	23.176
350.08	23.582
350.45	22.783
350.81	22.908
351.17	23.987
351.53	23.833
351.89	23.102
352.26	23.757
352.62	24.459
352.98	22.853
353.34	23.665
353.70	22.259
354.07	22.823
354.43	22.460
354.79	23.170
355.15	22.506
355.51	23.581
355.87	22.367
356.24	24.511
356.60	21.973
356.96	21.963
357.32	23.058
357.68	23.465
358.04	23.278
358.40	24.624
358.77	23.005
359.13	22.257
359.49	22.667
359.85	21.667
360.21	22.488
360.57	23.735
360.93	24.462
361.29	23.054
361.66	21.130
362.02	23.060
362.38	23.574
362.74	22.247
363.10	21.762
363.46	22.597
363.82	22.298
364.18	21.953
364.54	23.700
364.90	22.096
365.26	21.912
365.62	23.009
365.98	23.083
366.35	21.777
366.71	22.415
367.07	21.923
367.43	22.569
367.79	22.627
368.15	22.989
368.51	22.311
368.87	21.699
369.23	22.604
369.59	22.158
369.95	21.397
370.31	23.006
370.67	21.377
371.03	22.022
371.39	22.522
371.75	21.324
372.11	21.479
372.47	22.434
372.83	22.406
373.19	21.893
373.55	21.803
373.91	23.122
374.27	22.543
374.63	21.527
374.99	22.599
375.35	21.773
375.71	21.796
376.07	23.114
376.42	21.871
376.78	22.134
377.14	23.066
377.50	22.119
377.86	21.144
378.22	22.187
378.58	21.178
378.94	22.942
379.30	21.247
379.66	21.574
380.02	22.420
380.38	21.433
380.74	22.089
381.09	21.394
381.45	22.311
381.81	23.157
382.17	22.293
382.53	21.635
382.89	23.086
383.25	22.264
383.61	22.677
383.97	21.826
384.32	21.585
384.68	21.561
385.04	21.819
385.40	21.610
385.76	22.482
386.12	22.280
386.48	22.152
386.83	23.220
387.19	23.253
387.55	22.511
387.91	22.672
388.27	21.950
388.62	22.495
388.98	22.174
389.34	22.153
389.70	22.011
390.06	23.004
390.42	23.022
390.77	22.392
391.13	22.719
391.49	22.589
391.85	22.088
392.20	22.461
392.56	23.169
392.92	22.425
393.28	21.479
393.64	21.942
393.99	22.480
394.35	21.650
394.71	22.836
395.07	22.679
395.42	22.064
395.78	23.346
396.14	22.781
396.50	23.120
396.85	22.759
397.21	22.256
397.57	22.815
397.92	23.197
398.28	21.861
398.64	22.760
399.00	22.664
399.35	22.391
399.71	22.743
400.07	22.295
400.42	22.638
400.78	22.979
401.14	22.439
401.49	22.209
401.85	21.658
402.21	21.617
402.57	22.209
402.92	22.194
403.28	22.611
403.63	22.649
403.99	22.102
404.35	22.000
404.70	23.381
405.06	22.190
405.42	22.396
405.77	22.114
406.13	22.122
406.49	22.531
406.84	22.445
407.20	22.695
407.55	23.165
407.91	22.333
408.27	22.655
408.62	22.637
408.98	22.426
409.34	22.079
409.69	22.452
410.05	22.181
410.40	22.324
410.76	22.342
411.11	22.195
411.47	22.492
411.83	22.236
412.18	22.387
412.54	22.852
412.89	22.892
413.25	22.668
413.60	23.162
413.96	22.587
414.31	22.479
414.67	22.117
415.03	22.583
415.38	22.229
415.74	21.415
416.09	23.449
416.45	22.021
416.80	22.274
417.16	22.788
417.51	22.960
417.87	22.800
418.22	22.776
418.58	22.853
418.93	22.359
419.29	21.961
419.64	22.733
420.00	22.317
420.35	22.725
420.71	22.594
421.06	21.718
421.42	22.339
421.77	22.534
422.12	22.122
422.48	21.802
422.83	22.248
423.19	22.873
423.54	22.229
423.90	22.725
424.25	21.720
424.61	21.786
424.96	22.216
425.31	22.868
425.67	22.865
426.02	22.171
426.38	23.138
426.73	22.996
427.09	21.884
427.44	21.909
427.79	21.277
428.15	22.619
428.50	22.118
428.85	23.004
429.21	22.087
429.56	21.721
429.92	21.741
430.27	21.946
430.62	22.273
430.98	22.211
431.33	21.753
431.68	22.408
432.04	21.885
432.39	21.816
432.74	20.946
433.10	22.637
433.45	23.324
433.80	22.395
434.16	21.848
434.51	22.158
434.86	22.577
435.22	22.290
435.57	22.188
435.92	21.884
436.28	23.310
436.63	22.627
436.98	22.725
437.34	22.123
437.69	23.046
438.04	22.147
438.39	22.806
438.75	22.719
439.10	23.352
439.45	22.255
439.81	23.202
440.16	22.134
440.51	22.086
440.86	22.930
441.22	21.913
441.57	23.195
441.92	23.234
442.27	22.336
442.63	22.433
442.98	22.930
443.33	22.717
443.68	21.167
444.03	22.108
444.39	22.395
444.74	22.565
445.09	22.264
445.44	22.089
445.79	22.761
446.15	22.605
446.50	22.833
446.85	22.508
447.20	22.285
447.55	22.055
447.91	22.504
448.26	22.927
448.61	23.177
448.96	22.924
449.31	22.778
449.66	22.735
450.02	22.228
450.37	22.449
450.72	22.786
451.07	22.547
451.42	21.824
451.77	22.901
452.12	22.806
452.47	23.321
452.83	22.902
453.18	23.044
453.53	23.871
453.88	22.918
454.23	22.953
454.58	23.561
454.93	23.967
455.28	23.317
455.63	22.269
455.98	23.810
456.34	23.116
456.69	23.544
457.04	22.415
457.39	22.618
457.74	23.680
458.09	22.944
458.44	23.318
458.79	22.885
459.14	23.646
459.49	23.292
459.84	22.327
460.19	23.335
460.54	22.454
460.89	22.600
461.24	23.558
461.59	24.056
461.94	23.428
462.29	23.383
462.64	23.612
462.99	23.357
463.34	24.533
463.69	23.390
464.04	23.536
464.39	23.768
464.74	22.638
465.09	23.402
465.44	22.825
465.79	22.595
466.14	23.043
466.49	23.749
466.84	22.884
467.19	22.330
467.54	23.750
467.89	23.049
468.24	23.269
468.59	23.382
468.94	23.091
469.29	22.494
469.64	24.029
469.99	23.884
470.34	23.052
470.68	24.497
471.03	23.333
471.38	23.767
471.73	23.251
472.08	24.145
472.43	23.492
472.78	22.976
473.13	23.813
473.48	23.471
473.83	23.720
474.17	23.584
474.52	24.380
474.87	24.343
475.22	23.854
475.57	22.998
475.92	22.464
476.27	23.563
476.61	23.718
476.96	22.320
477.31	23.548
477.66	23.468
478.01	23.785
478.36	23.744
478.70	23.261
479.05	23.110
479.40	23.439
479.75	22.623
480.10	22.565
480.45	22.656
480.79	22.169
481.14	23.190
481.49	22.924
481.84	22.451
482.19	23.035
482.53	23.716
482.88	23.546
483.23	23.551
483.58	22.793
483.92	23.618
484.27	22.266
484.62	21.897
484.97	22.665
485.31	23.767
485.66	23.058
486.01	21.979
486.36	21.028
486.70	20.461
487.05	21.019
487.40	21.527
487.75	21.331
488.09	21.383
488.44	21.314
488.79	21.989
489.13	22.613
489.48	22.675
489.83	23.177
490.17	22.929
490.52	22.631
490.87	23.202
491.22	22.738
491.56	22.506
491.91	23.639
492.26	22.830
492.60	22.258
492.95	22.685
493.30	22.757
493.64	22.678
493.99	22.516
494.34	23.404
494.68	23.168
495.03	23.308
495.37	22.987
495.72	23.099
496.07	23.527
496.41	22.832
496.76	22.691
497.11	22.557
497.45	23.381
497.80	22.841
498.14	23.333
498.49	22.878
498.84	24.065
499.18	22.857
499.53	22.840
499.87	23.159
500.22	23.081
500.56	23.544
500.91	23.077
501.26	23.281
501.60	23.873
501.95	22.640
502.29	23.805
502.64	23.696
502.98	22.581
503.33	22.806
503.67	22.923
504.02	23.106
504.36	22.508
504.71	22.863
505.06	23.277
505.40	22.800
505.75	22.179
506.09	23.567
506.44	23.236
506.78	23.380
507.13	22.867
507.47	23.687
507.82	23.810
508.16	23.303
508.51	24.302
508.85	23.535
509.19	23.214
509.54	22.959
509.88	23.442
510.23	24.113
510.57	24.303
510.92	23.615
511.26	22.970
511.61	23.600
511.95	22.495
512.30	23.012
512.64	23.536
512.98	23.473
513.33	24.036
513.67	22.839
514.02	22.890
514.36	23.867
514.70	23.741
515.05	23.090
515.39	23.948
515.74	24.718
516.08	24.483
516.42	24.084
516.77	25.084
517.11	24.306
517.46	24.210
517.80	24.390
518.14	22.930
518.49	23.746
518.83	24.261
519.17	24.249
519.52	24.165
519.86	24.016
520.20	23.873
520.55	25.015
520.89	24.453
521.23	25.452
521.58	25.030
521.92	25.658
522.26	23.856
522.61	24.237
522.95	23.143
523.29	24.224
523.64	25.122
523.98	23.722
524.32	24.427
524.66	24.895
525.01	24.510
525.35	23.854
525.69	24.384
526.04	24.050
526.38	24.100
526.72	24.356
527.06	25.047
527.41	23.453
527.75	24.180
528.09	25.434
528.43	26.259
528.78	24.401
529.12	23.394
529.46	25.168
529.80	25.495
530.15	24.424
530.49	24.308
530.83	24.937
531.17	24.739
531.51	24.903
531.86	24.129
532.20	26.728
532.54	25.689
532.88	25.546
533.22	25.109
533.57	24.506
533.91	25.045
534.25	25.213
534.59	24.771
534.93	24.390
535.27	24.925
535.62	25.519
535.96	24.859
536.30	25.747
536.64	25.177
536.98	25.481
537.32	24.819
537.66	24.333
538.01	24.490
538.35	25.210
538.69	25.846
539.03	25.081
539.37	24.856
539.71	23.526
540.05	24.771
540.39	25.116
540.73	23.868
541.07	25.762
541.42	24.331
541.76	25.419
542.10	24.774
542.44	24.702
542.78	26.021
543.12	23.864
543.46	25.639
543.80	24.984
544.14	24.134
544.48	25.143
544.82	24.952
545.16	24.854
545.50	24.293
545.84	25.538
546.18	24.377
546.52	25.465
546.86	24.399
547.20	25.421
547.54	25.384
547.88	25.255
548.22	25.093
548.56	24.843
548.90	23.688
549.24	24.781
549.58	25.648
549.92	25.687
550.26	26.207
550.60	25.104
550.94	24.859
551.28	24.579
551.62	25.809
551.96	24.702
552.30	26.280
552.64	24.814
552.98	26.102
553.32	25.556
553.66	25.835
554.00	26.767
554.34	24.845
554.68	25.322
555.02	25.670
555.36	24.287
555.69	24.899
556.03	25.101
556.37	25.512
556.71	24.079
557.05	25.910
557.39	25.402
557.73	24.629
558.07	26.686
558.41	25.470
558.75	24.908
559.08	25.727
559.42	25.472
559.76	26.176
560.10	24.911
560.44	24.878
560.78	24.817
561.12	25.528
561.45	25.489
561.79	25.379
562.13	25.017
562.47	25.342
562.81	26.011
563.15	24.147
563.48	25.398
563.82	25.310
564.16	24.853
564.50	24.740
564.84	25.537
565.17	24.968
565.51	25.304
565.85	25.127
566.19	25.047
566.52	25.522
566.86	24.955
567.20	24.882
567.54	25.342
567.88	24.117
568.21	24.127
568.55	24.368
568.89	24.660
569.23	24.688
569.56	23.725
569.90	24.340
570.24	23.825
570.57	23.393
570.91	23.077
571.25	23.224
571.59	23.417
571.92	22.869
572.26	23.166
572.60	23.363
572.93	22.909
573.27	23.070
573.61	23.004
573.95	23.540
574.28	22.337
574.62	23.032
574.96	22.843
575.29	22.357
575.63	22.510
575.97	22.572
576.30	22.756
576.64	22.997
576.98	22.606
577.31	23.105
577.65	22.975
577.98	22.698
578.32	22.200
578.66	22.096
578.99	22.210
579.33	22.755
579.67	21.965
580.00	22.393
580.34	22.496
580.67	22.453
581.01	22.712
581.35	22.397
581.68	23.024
582.02	22.214
582.35	22.514
582.69	22.115
583.02	21.929
583.36	22.297
583.70	22.752
584.03	22.283
584.37	22.503
584.70	22.962
585.04	22.823
585.37	22.833
585.71	22.580
586.04	22.928
586.38	22.753
586.72	23.060
587.05	22.956
587.39	22.612
587.72	23.035
588.06	22.892
588.39	22.936
588.73	22.851
589.06	23.341
589.40	23.098
589.73	23.020
590.07	23.310
590.40	23.091
590.73	23.497
591.07	23.972
591.40	22.986
591.74	23.853
592.07	23.386
592.41	23.811
592.74	23.221
593.08	23.418
593.41	23.600
593.75	22.892
594.08	22.528
594.41	22.128
594.75	23.031
595.08	22.799
595.42	23.748
595.75	22.578
596.09	23.432
596.42	23.379
596.75	23.301
597.09	24.156
597.42	22.681
597.75	23.803
598.09	22.957
598.42	23.540
598.76	23.186
599.09	23.033
599.42	23.180
599.76	23.280
600.09	22.295
600.42	22.644
600.76	22.857
601.09	22.732
601.42	23.288
601.76	22.808
602.09	22.964
602.42	23.368
602.76	22.692
603.09	23.249
603.42	23.389
603.76	22.713
604.09	23.032
604.42	23.155
604.76	23.745
605.09	23.591
605.42	23.130
605.75	23.675
606.09	22.895
606.42	23.335
606.75	23.973
607.09	23.692
607.42	23.620
607.75	22.447
608.08	22.840
608.42	23.039
608.75	22.858
609.08	22.572
609.41	23.417
609.75	22.916
610.08	22.762
610.41	23.138
610.74	23.415
611.07	23.518
611.41	22.522
611.74	23.831
612.07	23.602
612.40	23.820
612.73	23.632
613.07	24.461
613.40	23.855
613.73	22.549
614.06	23.387
614.39	23.912
614.72	23.421
615.06	23.897
615.39	23.461
615.72	23.364
616.05	22.807
616.38	23.235
616.71	23.159
617.05	23.675
617.38	23.873
617.71	23.483
618.04	24.279
618.37	23.596
618.70	24.082
619.03	24.474
619.36	23.354
619.69	24.366
620.03	23.420
620.36	24.666
620.69	24.863
621.02	24.410
621.35	24.041
621.68	23.910
622.01	24.613
622.34	24.584
622.67	23.346
623.00	23.991
623.33	23.445
623.66	25.018
623.99	24.963
624.32	24.108
624.65	24.011
624.99	23.513
625.32	23.823
625.65	23.892
625.98	24.904
626.31	25.661
626.64	24.653
626.97	24.190
627.30	24.688
627.63	25.595
627.96	25.399
628.29	24.497
628.62	25.526
628.95	26.226
629.28	26.095
629.61	26.031
629.94	25.905
630.26	24.881
630.59	26.025
630.92	25.000
