SpectraSuite Data File
++++++++++++++++++++++++++++++++++++
Date: Wed May 13 16:03:04 PDT 2015
User: schluterlab
Dark Spectrum Present: Yes
Reference Spectrum Present: Yes
Number of Sampled Component Spectra: 1
Spectrometers: USB2E3373
Integration Time (usec): 3000 (USB2E3373)
Spectra Averaged: 3 (USB2E3373)
Boxcar Smoothing: 0 (USB2E3373)
Correct for Electrical Dark: No (USB2E3373)
Strobe/Lamp Enabled: No (USB2E3373)
Correct for Detector Non-linearity: No (USB2E3373)
Correct for Stray Light: No (USB2E3373)
Number of Pixels in Processed Spectrum: 2048
>>>>>Begin Processed Spectral Data<<<<<
178.53	0.000
178.91	-600.000
179.29	-775.000
179.67	-16.667
180.04	-525.000
180.42	1350.000
180.80	360.000
181.18	-325.000
181.56	157.143
181.94	0.000
182.31	-228.571
182.69	766.667
183.07	-112.500
183.45	-155.556
183.83	254.545
184.20	-140.000
184.58	950.000
184.96	2400.000
185.34	-280.000
185.72	-75.000
186.09	-850.000
186.47	850.000
186.85	500.000
187.23	1300.000
187.61	-466.667
187.98	725.000
188.36	272.727
188.74	218.182
189.12	-480.000
189.49	270.000
189.87	-2600.000
190.25	-475.000
190.63	257.143
191.00	161.538
191.38	316.667
191.76	-325.000
192.14	675.000
192.51	287.500
192.89	433.333
193.27	262.500
193.65	-650.000
194.02	330.000
194.40	360.000
194.78	260.000
195.15	225.000
195.53	290.000
195.91	-100.000
196.29	143.750
196.66	121.053
197.04	-60.000
197.42	0.000
197.79	280.000
198.17	-2500.000
198.55	314.286
198.92	350.000
199.30	300.000
199.68	0.000
200.05	138.889
200.43	357.143
200.81	1200.000
201.18	600.000
201.56	-766.667
201.94	255.556
202.31	255.556
202.69	141.667
203.07	70.000
203.44	0.000
203.82	575.000
204.19	400.000
204.57	264.286
204.95	262.500
205.32	366.667
205.70	145.455
206.08	157.143
206.45	500.000
206.83	225.000
207.20	433.333
207.58	260.000
207.96	172.222
208.33	300.000
208.71	-316.667
209.08	414.286
209.46	266.667
209.84	236.364
210.21	-666.667
210.59	575.000
210.96	-187.500
211.34	800.000
211.71	220.000
212.09	316.667
212.46	0.000
212.84	833.333
213.22	600.000
213.59	-1200.000
213.97	350.000
214.34	271.429
214.72	327.273
215.09	480.000
215.47	-650.000
215.84	-600.000
216.22	833.333
216.59	200.000
216.97	575.000
217.34	127.273
217.72	-166.667
218.09	0.000
218.47	-1800.000
218.84	311.111
219.22	314.286
219.59	566.667
219.97	-257.143
220.34	540.000
220.72	-433.333
221.09	214.286
221.47	775.000
221.84	-333.333
222.22	0.000
222.59	550.000
222.97	-900.000
223.34	660.000
223.72	192.308
224.09	500.000
224.46	1000.000
224.84	-2900.000
225.21	-460.000
225.59	-2400.000
225.96	420.000
226.34	190.000
226.71	950.000
227.08	287.500
227.46	180.000
227.83	-200.000
228.21	-450.000
228.58	266.667
228.95	-500.000
229.33	-700.000
229.70	633.333
230.08	342.857
230.45	-160.000
230.82	116.667
231.20	350.000
231.57	228.571
231.95	241.667
232.32	127.273
232.69	90.909
233.07	157.143
233.44	100.000
233.81	-566.667
234.19	178.947
234.56	183.333
234.93	108.333
235.31	172.727
235.68	76.923
236.05	142.857
236.43	60.606
236.80	94.737
237.17	2000.000
237.55	80.952
237.92	107.143
238.29	114.286
238.67	83.871
239.04	100.000
239.41	38.889
239.79	47.826
240.16	66.667
240.53	84.091
240.91	23.529
241.28	58.000
241.65	48.000
242.02	47.826
242.40	45.161
242.77	36.667
243.14	34.409
243.51	37.079
243.89	29.412
244.26	24.444
244.63	34.409
245.00	14.894
245.38	17.822
245.75	29.907
246.12	19.266
246.49	37.956
246.87	32.000
247.24	24.615
247.61	24.286
247.98	22.876
248.36	14.865
248.73	19.745
249.10	22.930
249.47	22.599
249.84	22.995
250.22	17.112
250.59	19.527
250.96	23.737
251.33	22.749
251.70	20.297
252.08	21.429
252.45	17.040
252.82	18.696
253.19	17.447
253.56	16.863
253.94	21.992
254.31	17.187
254.68	16.154
255.05	18.450
255.42	15.854
255.79	16.176
256.16	18.773
256.54	13.781
256.91	19.929
257.28	13.669
257.65	15.842
258.02	18.012
258.39	15.142
258.76	13.378
259.14	18.155
259.51	17.021
259.88	13.354
260.25	14.502
260.62	15.318
260.99	14.907
261.36	14.715
261.73	17.479
262.10	11.919
262.47	14.085
262.85	15.042
263.22	11.396
263.59	14.815
263.96	14.560
264.33	14.621
264.70	13.421
265.07	14.322
265.44	14.899
265.81	12.409
266.18	13.317
266.55	14.146
266.92	10.565
267.29	12.963
267.66	12.156
268.03	13.409
268.40	15.421
268.77	10.263
269.14	11.712
269.51	13.544
269.88	13.287
270.25	15.350
270.62	11.685
270.99	12.903
271.36	16.309
271.73	11.449
272.10	12.826
272.47	11.828
272.84	13.853
273.21	15.094
273.58	11.572
273.95	11.950
274.32	10.331
274.69	13.062
275.06	10.827
275.43	11.277
275.80	12.024
276.17	12.016
276.54	15.177
276.91	11.265
277.28	13.867
277.65	13.346
278.02	9.524
278.39	16.406
278.76	13.091
279.13	13.208
279.50	13.594
279.87	11.952
280.23	11.577
280.60	12.766
280.97	12.569
281.34	11.858
281.71	13.273
282.08	13.244
282.45	10.182
282.82	12.433
283.19	10.339
283.56	11.404
283.92	13.029
284.29	13.051
284.66	10.526
285.03	11.573
285.40	11.796
285.77	11.953
286.14	12.435
286.51	13.167
286.87	13.675
287.24	12.866
287.61	12.360
287.98	14.610
288.35	10.460
288.72	12.305
289.08	13.615
289.45	11.862
289.82	12.358
290.19	10.675
290.56	11.026
290.93	10.725
291.29	11.810
291.66	13.274
292.03	13.372
292.40	13.216
292.77	10.651
293.13	11.493
293.50	12.682
293.87	12.444
294.24	10.815
294.60	10.189
294.97	11.337
295.34	12.694
295.71	13.494
296.08	10.399
296.44	12.517
296.81	11.361
297.18	12.602
297.55	9.103
297.91	11.873
298.28	12.182
298.65	12.663
299.02	12.121
299.38	12.218
299.75	11.725
300.12	11.622
300.48	11.375
300.85	11.961
301.22	10.955
301.59	11.111
301.95	11.461
302.32	13.607
302.69	11.470
303.05	11.515
303.42	10.988
303.79	12.118
304.15	12.587
304.52	11.472
304.89	11.498
305.25	10.905
305.62	12.005
305.99	11.452
306.35	11.633
306.72	13.229
307.09	12.875
307.45	13.514
307.82	10.491
308.19	12.583
308.55	12.298
308.92	11.386
309.29	11.510
309.65	12.937
310.02	12.156
310.38	11.183
310.75	11.616
311.12	11.464
311.48	12.644
311.85	13.522
312.22	13.215
312.58	12.890
312.95	13.200
313.31	11.845
313.68	12.578
314.05	13.708
314.41	13.065
314.78	12.991
315.14	12.016
315.51	13.903
315.87	11.980
316.24	11.817
316.61	12.281
316.97	12.524
317.34	12.427
317.70	15.010
318.07	12.127
318.43	13.601
318.80	14.058
319.16	14.407
319.53	13.133
319.89	13.143
320.26	14.000
320.62	13.690
320.99	13.636
321.35	13.434
321.72	14.990
322.08	15.992
322.45	15.025
322.81	16.182
323.18	16.378
323.54	15.306
323.91	16.321
324.27	15.392
324.64	15.657
325.00	14.878
325.37	16.106
325.73	16.517
326.10	15.799
326.46	16.219
326.83	17.601
327.19	16.311
327.56	16.202
327.92	16.448
328.29	17.657
328.65	17.311
329.01	17.599
329.38	16.466
329.74	17.636
330.11	16.965
330.47	18.182
330.84	17.647
331.20	15.938
331.56	18.440
331.93	16.204
332.29	16.681
332.66	17.611
333.02	18.099
333.38	17.164
333.75	18.806
334.11	18.149
334.48	18.367
334.84	17.739
335.20	16.909
335.57	17.316
335.93	16.429
336.29	17.766
336.66	16.952
337.02	16.290
337.38	17.500
337.75	16.488
338.11	15.936
338.47	16.759
338.84	16.590
339.20	16.789
339.56	18.066
339.93	16.818
340.29	15.851
340.65	16.221
341.02	17.452
341.38	16.993
341.74	17.281
342.11	16.157
342.47	16.211
342.83	16.438
343.20	18.095
343.56	16.765
343.92	16.404
344.28	16.582
344.65	17.111
345.01	16.330
345.37	15.523
345.73	17.259
346.10	16.539
346.46	17.627
346.82	17.545
347.19	15.622
347.55	15.928
347.91	16.828
348.27	17.502
348.63	16.221
349.00	16.262
349.36	16.667
349.72	16.279
350.08	16.126
350.45	16.762
350.81	16.734
351.17	16.856
351.53	16.052
351.89	16.502
352.26	17.285
352.62	16.840
352.98	16.532
353.34	16.516
353.70	16.039
354.07	18.548
354.43	17.063
354.79	15.929
355.15	16.121
355.51	17.426
355.87	17.469
356.24	15.961
356.60	16.680
356.96	16.895
357.32	17.334
357.68	17.402
358.04	17.102
358.40	16.785
358.77	17.449
359.13	16.338
359.49	18.353
359.85	15.159
360.21	16.108
360.57	16.887
360.93	17.615
361.29	16.856
361.66	16.099
362.02	17.164
362.38	16.958
362.74	16.443
363.10	16.358
363.46	16.214
363.82	16.402
364.18	17.254
364.54	16.939
364.90	16.289
365.26	17.279
365.62	17.020
365.98	16.801
366.35	16.619
366.71	17.643
367.07	17.407
367.43	17.997
367.79	17.416
368.15	18.822
368.51	17.587
368.87	17.345
369.23	17.045
369.59	17.451
369.95	16.397
370.31	17.165
370.67	17.681
371.03	18.352
371.39	18.076
371.75	17.279
372.11	17.070
372.47	18.548
372.83	18.516
373.19	17.124
373.55	18.995
373.91	19.514
374.27	17.251
374.63	17.745
374.99	19.492
375.35	17.725
375.71	17.889
376.07	18.793
376.42	18.019
376.78	19.019
377.14	18.860
377.50	18.808
377.86	17.287
378.22	19.343
378.58	17.920
378.94	17.788
379.30	18.257
379.66	19.924
380.02	18.428
380.38	18.761
380.74	18.968
381.09	19.621
381.45	19.668
381.81	19.595
382.17	19.745
382.53	19.308
382.89	19.630
383.25	19.575
383.61	20.570
383.97	20.325
384.32	20.711
384.68	19.207
385.04	20.037
385.40	20.372
385.76	19.840
386.12	20.142
386.48	20.705
386.83	20.398
387.19	21.212
387.55	20.470
387.91	19.468
388.27	19.681
388.62	20.529
388.98	19.779
389.34	20.338
389.70	20.601
390.06	20.215
390.42	21.466
390.77	20.738
391.13	21.442
391.49	21.637
391.85	19.796
392.20	21.199
392.56	20.581
392.92	21.366
393.28	19.645
393.64	20.743
393.99	21.136
394.35	21.030
394.71	21.330
395.07	20.436
395.42	20.952
395.78	21.310
396.14	20.857
396.50	21.366
396.85	20.407
397.21	20.530
397.57	21.079
397.92	21.635
398.28	20.011
398.64	21.505
399.00	20.985
399.35	21.038
399.71	21.181
400.07	21.467
400.42	21.288
400.78	21.653
401.14	20.854
401.49	22.567
401.85	20.569
402.21	20.539
402.57	21.098
402.92	20.555
403.28	21.487
403.63	20.730
403.99	20.191
404.35	20.788
404.70	20.324
405.06	19.744
405.42	21.959
405.77	20.229
406.13	19.695
406.49	20.343
406.84	20.319
407.20	20.213
407.55	20.676
407.91	20.733
408.27	20.549
408.62	20.349
408.98	20.343
409.34	20.849
409.69	20.645
410.05	20.880
410.40	19.939
410.76	20.729
411.11	21.110
411.47	20.319
411.83	20.220
412.18	20.037
412.54	20.672
412.89	19.819
413.25	20.661
413.60	20.630
413.96	20.097
414.31	20.474
414.67	20.786
415.03	19.338
415.38	20.941
415.74	20.000
416.09	20.509
416.45	19.411
416.80	19.299
417.16	21.649
417.51	20.239
417.87	19.910
418.22	20.379
418.58	21.110
418.93	20.332
419.29	21.260
419.64	20.844
420.00	20.671
420.35	20.522
420.71	20.442
421.06	20.525
421.42	20.936
421.77	19.675
422.12	19.876
422.48	18.726
422.83	20.734
423.19	20.110
423.54	19.791
423.90	20.174
424.25	20.156
424.61	20.060
424.96	19.942
425.31	19.601
425.67	19.944
426.02	20.400
426.38	21.123
426.73	20.246
427.09	20.304
427.44	19.896
427.79	20.069
428.15	19.762
428.50	19.953
428.85	20.143
429.21	19.547
429.56	19.699
429.92	20.030
430.27	19.315
430.62	19.406
430.98	20.083
431.33	19.536
431.68	20.314
432.04	20.128
432.39	20.046
432.74	21.125
433.10	20.260
433.45	20.233
433.80	19.180
434.16	19.338
434.51	20.000
434.86	20.125
435.22	20.067
435.57	19.939
435.92	19.661
436.28	20.819
436.63	20.751
436.98	19.748
437.34	20.095
437.69	19.778
438.04	19.674
438.39	19.582
438.75	20.569
439.10	19.888
439.45	20.425
439.81	19.335
440.16	19.368
440.51	20.211
440.86	20.151
441.22	19.132
441.57	20.648
441.92	20.880
442.27	19.160
442.63	19.168
442.98	20.225
443.33	19.511
443.68	20.237
444.03	19.424
444.39	19.766
444.74	20.022
445.09	20.162
445.44	20.011
445.79	19.000
446.15	20.011
446.50	19.548
446.85	19.116
447.20	20.143
447.55	20.826
447.91	20.077
448.26	19.644
448.61	19.220
448.96	20.543
449.31	20.022
449.66	19.752
450.02	19.109
450.37	19.331
450.72	19.346
451.07	19.561
451.42	19.574
451.77	20.317
452.12	20.035
452.47	19.341
452.83	19.988
453.18	19.315
453.53	19.728
453.88	19.256
454.23	19.665
454.58	20.351
454.93	20.470
455.28	19.140
455.63	20.146
455.98	20.476
456.34	19.535
456.69	20.852
457.04	18.638
457.39	19.755
457.74	19.211
458.09	19.954
458.44	19.612
458.79	19.035
459.14	19.300
459.49	19.790
459.84	19.557
460.19	19.564
460.54	19.213
460.89	19.967
461.24	19.733
461.59	20.860
461.94	18.619
462.29	19.941
462.64	19.592
462.99	19.063
463.34	20.200
463.69	20.325
464.04	19.942
464.39	19.478
464.74	19.727
465.09	19.300
465.44	19.058
465.79	19.183
466.14	18.829
466.49	19.633
466.84	20.257
467.19	19.493
467.54	19.188
467.89	19.988
468.24	19.372
468.59	20.269
468.94	18.937
469.29	19.473
469.64	20.281
469.99	19.689
470.34	18.824
470.68	20.330
471.03	19.184
471.38	19.458
471.73	19.787
472.08	18.882
472.43	19.912
472.78	19.684
473.13	20.475
473.48	19.663
473.83	19.634
474.17	18.793
474.52	19.293
474.87	19.615
475.22	19.153
475.57	18.431
475.92	18.906
476.27	18.771
476.61	19.912
476.96	19.351
477.31	18.995
477.66	19.858
478.01	19.237
478.36	20.254
478.70	18.484
479.05	19.116
479.40	19.038
479.75	19.115
480.10	19.185
480.45	18.801
480.79	18.777
481.14	19.325
481.49	18.889
481.84	19.387
482.19	19.037
482.53	18.945
482.88	19.497
483.23	19.065
483.58	19.472
483.92	19.166
484.27	18.780
484.62	18.922
484.97	18.486
485.31	18.151
485.66	17.355
486.01	17.115
486.36	16.210
486.70	16.471
487.05	16.960
487.40	17.901
487.75	17.853
488.09	18.653
488.44	18.546
488.79	19.096
489.13	18.946
489.48	18.679
489.83	18.386
490.17	19.071
490.52	18.689
490.87	18.272
491.22	18.508
491.56	18.314
491.91	18.288
492.26	18.741
492.60	18.249
492.95	17.914
493.30	18.131
493.64	18.572
493.99	18.013
494.34	18.733
494.68	18.636
495.03	18.374
495.37	18.474
495.72	18.713
496.07	17.958
496.41	17.389
496.76	18.250
497.11	18.325
497.45	18.398
497.80	18.762
498.14	18.019
498.49	17.902
498.84	18.360
499.18	19.048
499.53	19.136
499.87	18.360
500.22	18.747
500.56	18.641
500.91	18.413
501.26	18.729
501.60	18.842
501.95	18.286
502.29	18.463
502.64	17.970
502.98	17.859
503.33	18.921
503.67	18.515
504.02	18.288
504.36	17.969
504.71	18.906
505.06	18.120
505.40	18.765
505.75	18.129
506.09	18.367
506.44	18.352
506.78	19.143
507.13	19.132
507.47	19.242
507.82	18.744
508.16	18.744
508.51	18.163
508.85	18.371
509.19	18.469
509.54	18.418
509.88	18.959
510.23	18.509
510.57	19.866
510.92	18.229
511.26	18.962
511.61	19.554
511.95	18.058
512.30	18.611
512.64	18.807
512.98	18.917
513.33	18.951
513.67	18.730
514.02	18.831
514.36	19.443
514.70	19.148
515.05	19.520
515.39	19.013
515.74	19.088
516.08	19.452
516.42	19.756
516.77	19.788
517.11	18.701
517.46	20.203
517.80	19.803
518.14	18.992
518.49	19.545
518.83	19.886
519.17	18.938
519.52	19.751
519.86	19.909
520.20	19.827
520.55	19.509
520.89	20.195
521.23	19.843
521.58	19.508
521.92	20.576
522.26	19.402
522.61	20.000
522.95	18.969
523.29	19.781
523.64	20.366
523.98	19.778
524.32	20.084
524.66	19.242
525.01	19.301
525.35	19.517
525.69	18.042
526.04	20.125
526.38	19.707
526.72	19.325
527.06	20.276
527.41	18.379
527.75	19.614
528.09	19.717
528.43	20.013
528.78	19.545
529.12	20.545
529.46	19.351
529.80	20.050
530.15	20.249
530.49	19.877
530.83	20.316
531.17	19.974
531.51	20.623
531.86	20.581
532.20	20.469
532.54	20.436
532.88	19.641
533.22	18.988
533.57	19.074
533.91	19.205
534.25	18.834
534.59	19.402
534.93	18.501
535.27	19.252
535.62	19.658
535.96	18.958
536.30	19.008
536.64	19.961
536.98	20.372
537.32	19.882
537.66	19.533
538.01	19.092
538.35	20.103
538.69	21.187
539.03	19.753
539.37	17.572
539.71	18.989
540.05	20.065
540.39	18.937
540.73	18.435
541.07	19.598
541.42	19.439
541.76	19.806
542.10	19.276
542.44	18.874
542.78	20.487
543.12	18.874
543.46	20.262
543.80	19.714
544.14	18.614
544.48	19.429
544.82	18.730
545.16	19.453
545.50	18.895
545.84	18.952
546.18	19.259
546.52	19.477
546.86	19.588
547.20	19.016
547.54	19.572
547.88	20.217
548.22	18.991
548.56	18.994
548.90	20.166
549.24	18.519
549.58	20.123
549.92	18.613
550.26	20.526
550.60	19.295
550.94	19.437
551.28	18.288
551.62	19.482
551.96	19.368
552.30	20.000
552.64	19.540
552.98	20.407
553.32	19.218
553.66	19.087
554.00	18.806
554.34	19.531
554.68	18.956
555.02	19.746
555.36	19.624
555.69	18.742
556.03	19.246
556.37	19.100
556.71	18.076
557.05	18.347
557.39	19.104
557.73	18.843
558.07	19.652
558.41	18.886
558.75	19.691
559.08	19.612
559.42	19.652
559.76	19.853
560.10	19.058
560.44	19.217
560.78	18.829
561.12	18.799
561.45	18.970
561.79	18.260
562.13	18.981
562.47	18.716
562.81	18.550
563.15	19.197
563.48	19.430
563.82	18.526
564.16	18.901
564.50	17.773
564.84	18.205
565.17	18.726
565.51	18.658
565.85	18.338
566.19	18.535
566.52	19.253
566.86	18.264
567.20	19.281
567.54	18.379
567.88	17.979
568.21	18.095
568.55	18.301
568.89	18.191
569.23	18.494
569.56	17.368
569.90	17.057
570.24	16.649
570.57	17.409
570.91	16.936
571.25	16.770
571.59	16.524
571.92	16.244
572.26	17.187
572.60	17.327
572.93	16.732
573.27	17.036
573.61	17.420
573.95	16.822
574.28	16.407
574.62	16.424
574.96	16.249
575.29	16.198
575.63	16.819
575.97	16.298
576.30	16.888
576.64	16.957
576.98	16.578
577.31	16.428
577.65	16.395
577.98	16.345
578.32	16.144
578.66	15.975
578.99	16.709
579.33	16.582
579.67	16.395
580.00	16.231
580.34	16.682
580.67	16.474
581.01	16.685
581.35	16.404
581.68	16.087
582.02	15.987
582.35	16.347
582.69	16.487
583.02	15.966
583.36	17.039
583.70	16.883
584.03	17.137
584.37	17.523
584.70	16.954
585.04	16.781
585.37	16.938
585.71	17.011
586.04	16.912
586.38	17.503
586.72	16.874
587.05	16.925
587.39	16.702
587.72	17.186
588.06	16.782
588.39	17.394
588.73	17.190
589.06	17.389
589.40	17.037
589.73	17.705
590.07	17.865
590.40	17.209
590.73	17.642
591.07	17.460
591.40	18.726
591.74	18.528
592.07	17.147
592.41	18.148
592.74	17.116
593.08	17.155
593.41	17.305
593.75	16.896
594.08	16.728
594.41	17.321
594.75	17.412
595.08	17.359
595.42	17.373
595.75	17.521
596.09	18.213
596.42	18.468
596.75	18.024
597.09	18.658
597.42	17.327
597.75	17.896
598.09	18.217
598.42	16.667
598.76	17.795
599.09	17.370
599.42	17.467
599.76	17.460
600.09	16.794
600.42	16.947
600.76	16.893
601.09	17.304
601.42	17.047
601.76	17.533
602.09	17.431
602.42	18.193
602.76	18.017
603.09	17.939
603.42	17.845
603.76	17.530
604.09	16.945
604.42	17.163
604.76	17.841
605.09	17.912
605.42	18.170
605.75	17.550
606.09	17.609
606.42	18.104
606.75	18.042
607.09	17.832
607.42	17.886
607.75	17.806
608.08	17.803
608.42	17.795
608.75	18.395
609.08	17.854
609.41	18.182
609.75	18.437
610.08	17.955
610.41	17.179
610.74	17.833
611.07	18.231
611.41	17.272
611.74	18.653
612.07	18.168
612.40	18.416
612.73	17.632
613.07	19.019
613.40	18.641
613.73	18.144
614.06	18.280
614.39	18.301
614.72	18.579
615.06	18.277
615.39	17.834
615.72	18.252
616.05	17.544
616.38	18.621
616.71	19.002
617.05	18.846
617.38	17.859
617.71	18.258
618.04	19.351
618.37	18.569
618.70	20.100
619.03	19.737
619.36	19.280
619.69	19.085
620.03	20.398
620.36	18.917
620.69	19.589
621.02	19.322
621.35	18.716
621.68	18.069
622.01	18.963
622.34	19.516
622.67	18.327
623.00	17.975
623.33	19.014
623.66	19.943
623.99	18.336
624.32	19.401
624.65	17.797
624.99	18.626
625.32	17.813
625.65	19.609
625.98	19.754
626.31	19.285
626.64	19.837
626.97	19.368
627.30	18.454
627.63	20.591
627.96	19.765
628.29	18.373
628.62	20.037
628.95	22.358
629.28	20.438
629.61	20.623
629.94	20.095
630.26	19.638
630.59	21.163
630.92	19.540
631.25	18.657
631.58	19.319
631.91	19.878
632.24	20.253
