SpectraSuite Data File
++++++++++++++++++++++++++++++++++++
Date: Wed May 13 16:06:25 PDT 2015
User: schluterlab
Dark Spectrum Present: Yes
Reference Spectrum Present: Yes
Number of Sampled Component Spectra: 1
Spectrometers: USB2E3373
Integration Time (usec): 3000 (USB2E3373)
Spectra Averaged: 3 (USB2E3373)
Boxcar Smoothing: 0 (USB2E3373)
Correct for Electrical Dark: No (USB2E3373)
Strobe/Lamp Enabled: No (USB2E3373)
Correct for Detector Non-linearity: No (USB2E3373)
Correct for Stray Light: No (USB2E3373)
Number of Pixels in Processed Spectrum: 2048
>>>>>Begin Processed Spectral Data<<<<<
178.53	0.000
178.91	-825.000
179.29	-600.000
179.67	-138.889
180.04	-625.000
180.42	1700.000
180.80	740.000
181.18	-650.000
181.56	300.000
181.94	0.000
182.31	-314.286
182.69	1066.667
183.07	-437.500
183.45	-266.667
183.83	345.455
184.20	-250.000
184.58	1100.000
184.96	3300.000
185.34	-600.000
185.72	-362.500
186.09	-1650.000
186.47	1450.000
186.85	2250.000
187.23	2700.000
187.61	-1066.667
187.98	700.000
188.36	390.909
188.74	327.273
189.12	-540.000
189.49	340.000
189.87	-2800.000
190.25	-825.000
190.63	278.571
191.00	269.231
191.38	666.667
191.76	-700.000
192.14	725.000
192.51	462.500
192.89	666.667
193.27	362.500
193.65	-800.000
194.02	330.000
194.40	480.000
194.78	310.000
195.15	333.333
195.53	410.000
195.91	-1400.000
196.29	237.500
196.66	221.053
197.04	-200.000
197.42	0.000
197.79	440.000
198.17	-2700.000
198.55	471.429
198.92	437.500
199.30	600.000
199.68	0.000
200.05	227.778
200.43	371.429
200.81	2600.000
201.18	1033.333
201.56	-833.333
201.94	366.667
202.31	455.556
202.69	316.667
203.07	380.000
203.44	0.000
203.82	800.000
204.19	485.714
204.57	307.143
204.95	400.000
205.32	1100.000
205.70	409.091
206.08	250.000
206.45	1450.000
206.83	218.750
207.20	450.000
207.58	360.000
207.96	211.111
208.33	400.000
208.71	-483.333
209.08	557.143
209.46	377.778
209.84	327.273
210.21	-800.000
210.59	750.000
210.96	-262.500
211.34	1450.000
211.71	390.000
212.09	450.000
212.46	0.000
212.84	1166.667
213.22	875.000
213.59	-2800.000
213.97	533.333
214.34	414.286
214.72	363.636
215.09	680.000
215.47	-1500.000
215.84	-1500.000
216.22	866.667
216.59	221.429
216.97	700.000
217.34	336.364
217.72	-433.333
218.09	0.000
218.47	-2600.000
218.84	455.556
219.22	500.000
219.59	933.333
219.97	-500.000
220.34	700.000
220.72	-933.333
221.09	192.857
221.47	1000.000
221.84	-516.667
222.22	0.000
222.59	900.000
222.97	-1750.000
223.34	640.000
223.72	230.769
224.09	720.000
224.46	1200.000
224.84	-2700.000
225.21	-580.000
225.59	-2900.000
225.96	340.000
226.34	205.000
226.71	1850.000
227.08	562.500
227.46	300.000
227.83	-850.000
228.21	-1600.000
228.58	433.333
228.95	-1650.000
229.33	-1250.000
229.70	1200.000
230.08	500.000
230.45	-360.000
230.82	266.667
231.20	533.333
231.57	314.286
231.95	241.667
232.32	190.909
232.69	309.091
233.07	400.000
233.44	176.923
233.81	-1400.000
234.19	168.421
234.56	275.000
234.93	241.667
235.31	363.636
235.68	292.308
236.05	278.571
236.43	133.333
236.80	147.368
237.17	3100.000
237.55	223.810
237.92	153.571
238.29	228.571
238.67	132.258
239.04	162.069
239.41	152.778
239.79	115.217
240.16	126.190
240.53	129.545
240.91	98.039
241.28	88.000
241.65	104.000
242.02	85.507
242.40	109.677
242.77	108.333
243.14	82.796
243.51	88.764
243.89	87.059
244.26	70.000
244.63	66.667
245.00	77.660
245.38	81.188
245.75	71.963
246.12	72.477
246.49	75.912
246.87	76.000
247.24	78.462
247.61	70.714
247.98	64.706
248.36	67.568
248.73	66.879
249.10	71.975
249.47	62.712
249.84	60.428
250.22	61.497
250.59	64.497
250.96	62.121
251.33	60.664
251.70	64.356
252.08	63.333
252.45	60.987
252.82	63.478
253.19	62.128
253.56	61.569
253.94	64.315
254.31	60.937
254.68	59.615
255.05	60.886
255.42	56.504
255.79	61.397
256.16	55.235
256.54	57.597
256.91	61.922
257.28	53.597
257.65	56.436
258.02	58.075
258.39	59.306
258.76	57.525
259.14	55.060
259.51	53.799
259.88	55.901
260.25	54.381
260.62	49.711
260.99	57.453
261.36	57.057
261.73	52.436
262.10	53.779
262.47	55.211
262.85	54.318
263.22	55.840
263.59	57.835
263.96	54.396
264.33	55.875
264.70	52.632
265.07	53.964
265.44	53.283
265.81	50.365
266.18	54.523
266.55	53.902
266.92	51.843
267.29	55.093
267.66	50.917
268.03	54.091
268.40	50.701
268.77	50.358
269.14	52.477
269.51	51.016
269.88	54.545
270.25	51.016
270.62	51.011
270.99	53.763
271.36	53.433
271.73	54.206
272.10	52.391
272.47	52.903
272.84	53.030
273.21	52.201
273.58	51.310
273.95	49.895
274.32	46.901
274.69	54.818
275.06	48.228
275.43	52.128
275.80	50.100
276.17	50.102
276.54	51.767
276.91	52.174
277.28	50.195
277.65	50.484
278.02	51.346
278.39	51.758
278.76	49.818
279.13	50.566
279.50	48.976
279.87	51.793
280.23	52.495
280.60	48.549
280.97	48.059
281.34	50.442
281.71	48.364
282.08	49.712
282.45	49.455
282.82	48.135
283.19	49.376
283.56	50.526
283.92	50.761
284.29	48.677
284.66	49.546
285.03	48.463
285.40	46.831
285.77	48.990
286.14	45.941
286.51	47.500
286.87	45.812
287.24	49.023
287.61	47.191
287.98	45.617
288.35	47.227
288.72	45.327
289.08	45.227
289.45	44.975
289.82	43.740
290.19	43.485
290.56	43.951
290.93	42.598
291.29	46.472
291.66	43.510
292.03	44.477
292.40	41.997
292.77	42.160
293.13	42.388
293.50	43.003
293.87	41.481
294.24	41.630
294.60	40.902
294.97	41.715
295.34	41.185
295.71	39.773
296.08	39.031
296.44	39.890
296.81	39.630
297.18	41.463
297.55	39.182
297.91	38.259
298.28	41.499
298.65	40.209
299.02	39.394
299.38	37.716
299.75	36.927
300.12	38.570
300.48	36.250
300.85	39.088
301.22	36.815
301.59	36.869
301.95	39.169
302.32	39.538
302.69	36.201
303.05	37.455
303.42	35.432
303.79	36.467
304.15	37.529
304.52	35.226
304.89	35.192
305.25	35.383
305.62	36.467
305.99	36.246
306.35	35.011
306.72	35.762
307.09	36.293
307.45	36.937
307.82	35.045
308.19	38.079
308.55	36.570
308.92	35.231
309.29	35.797
309.65	34.889
310.02	35.095
310.38	37.204
310.75	36.008
311.12	36.438
311.48	37.304
311.85	37.107
312.22	35.692
312.58	35.863
312.95	36.536
313.31	34.660
313.68	36.383
314.05	36.785
314.41	36.583
314.78	37.865
315.14	37.835
315.51	37.590
315.87	37.426
316.24	37.736
316.61	36.550
316.97	36.399
317.34	37.378
317.70	38.337
318.07	38.210
318.43	38.258
318.80	37.769
319.16	39.171
319.53	37.805
319.89	38.190
320.26	41.000
320.62	38.492
320.99	38.586
321.35	39.798
321.72	40.349
322.08	40.770
322.45	39.502
322.81	40.019
323.18	39.692
323.54	38.868
323.91	39.906
324.27	40.440
324.64	41.007
325.00	40.487
325.37	42.129
325.73	41.741
326.10	41.395
326.46	41.219
326.83	42.709
327.19	41.076
327.56	41.899
327.92	41.557
328.29	41.704
328.65	42.449
329.01	40.523
329.38	41.906
329.74	42.290
330.11	42.413
330.47	41.598
330.84	42.463
331.20	41.712
331.56	41.193
331.93	41.944
332.29	41.349
332.66	41.858
333.02	41.499
333.38	40.921
333.75	41.800
334.11	42.349
334.48	41.349
334.84	42.096
335.20	43.273
335.57	40.979
335.93	40.089
336.29	42.033
336.66	41.389
337.02	41.176
337.38	42.685
337.75	42.424
338.11	41.540
338.47	43.278
338.84	42.163
339.20	42.385
339.56	42.792
339.93	40.455
340.29	40.761
340.65	42.068
341.02	42.147
341.38	42.349
341.74	41.228
342.11	41.659
342.47	42.379
342.83	39.726
343.20	42.251
343.56	39.680
343.92	41.842
344.28	43.112
344.65	42.304
345.01	40.825
345.37	40.823
345.73	41.286
346.10	41.603
346.46	40.000
346.82	40.939
347.19	41.520
347.55	40.148
347.91	42.233
348.27	42.892
348.63	41.221
349.00	40.210
349.36	39.655
349.72	39.615
350.08	40.113
350.45	40.683
350.81	40.130
351.17	40.843
351.53	39.803
351.89	40.099
352.26	41.594
352.62	40.818
352.98	40.438
353.34	40.345
353.70	40.262
354.07	40.887
354.43	40.476
354.79	39.743
355.15	40.623
355.51	40.288
355.87	41.878
356.24	41.205
356.60	40.497
356.96	41.191
357.32	40.883
357.68	42.598
358.04	40.697
358.40	41.093
358.77	40.219
359.13	40.805
359.49	40.235
359.85	40.079
360.21	41.547
360.57	41.479
360.93	41.462
361.29	40.590
361.66	40.325
362.02	42.239
362.38	40.228
362.74	42.262
363.10	40.340
363.46	40.426
363.82	40.816
364.18	41.924
364.54	41.605
364.90	41.006
365.26	41.912
365.62	42.294
365.98	40.614
366.35	41.189
366.71	41.287
367.07	41.151
367.43	41.364
367.79	43.183
368.15	42.385
368.51	41.788
368.87	41.542
369.23	41.112
369.59	42.940
369.95	40.956
370.31	41.880
370.67	40.870
371.03	42.547
371.39	42.638
371.75	42.868
372.11	40.114
372.47	42.815
372.83	42.723
373.19	40.896
373.55	42.720
373.91	44.035
374.27	41.168
374.63	43.273
374.99	42.302
375.35	43.336
375.71	41.672
376.07	42.524
376.42	44.017
376.78	44.069
377.14	43.826
377.50	44.040
377.86	43.351
378.22	44.248
378.58	42.920
378.94	43.306
379.30	44.084
379.66	44.797
380.02	45.086
380.38	43.412
380.74	44.238
381.09	43.888
381.45	44.806
381.81	43.919
382.17	45.478
382.53	45.031
382.89	45.123
383.25	45.028
383.61	45.911
383.97	44.653
384.32	44.230
384.68	45.601
385.04	45.482
385.40	44.334
385.76	46.314
386.12	44.948
386.48	46.130
386.83	46.504
387.19	48.485
387.55	45.331
387.91	45.586
388.27	45.861
388.62	45.913
388.98	45.762
389.34	47.247
389.70	46.413
390.06	46.198
390.42	46.433
390.77	45.992
391.13	47.479
391.49	46.193
391.85	46.785
392.20	45.615
392.56	46.402
392.92	47.028
393.28	46.450
393.64	45.624
393.99	46.365
394.35	47.146
394.71	46.173
395.07	46.542
395.42	46.724
395.78	47.074
396.14	47.176
396.50	47.368
396.85	47.235
397.21	46.054
397.57	47.365
397.92	47.416
398.28	45.908
398.64	47.013
399.00	47.510
399.35	46.757
399.71	46.991
400.07	46.777
400.42	46.503
400.78	46.683
401.14	46.585
401.49	47.881
401.85	46.945
402.21	46.287
402.57	46.761
402.92	46.469
403.28	47.096
403.63	46.101
403.99	46.815
404.35	46.121
404.70	46.942
405.06	46.302
405.42	46.787
405.77	46.971
406.13	45.598
406.49	47.014
406.84	46.308
407.20	45.686
407.55	47.288
407.91	47.333
408.27	47.288
408.62	46.358
408.98	46.507
409.34	47.171
409.69	46.839
410.05	46.530
410.40	46.361
410.76	45.102
411.11	45.778
411.47	45.815
411.83	46.243
412.18	45.578
412.54	46.202
412.89	46.446
413.25	46.458
413.60	46.387
413.96	45.355
414.31	45.808
414.67	45.437
415.03	46.093
415.38	46.521
415.74	45.723
416.09	47.681
416.45	46.185
416.80	45.737
417.16	45.777
417.51	46.649
417.87	44.766
418.22	47.129
418.58	46.546
418.93	46.314
419.29	46.276
419.64	45.466
420.00	45.732
420.35	45.739
420.71	47.101
421.06	46.659
421.42	46.374
421.77	46.637
422.12	46.154
422.48	44.307
422.83	46.069
423.19	46.354
423.54	46.431
423.90	46.145
424.25	45.729
424.61	45.893
424.96	47.055
425.31	46.512
425.67	45.225
426.02	46.457
426.38	47.497
426.73	45.933
427.09	46.201
427.44	46.348
427.79	46.061
428.15	46.012
428.50	46.401
428.85	45.828
429.21	45.610
429.56	46.812
429.92	46.301
430.27	46.177
430.62	45.366
430.98	46.186
431.33	45.876
431.68	46.283
432.04	45.101
432.39	46.488
432.74	45.781
433.10	46.746
433.45	47.172
433.80	46.508
434.16	46.581
434.51	46.105
434.86	46.807
435.22	46.137
435.57	45.775
435.92	45.758
436.28	46.085
436.63	46.578
436.98	46.251
437.34	45.856
437.69	47.491
438.04	46.374
438.39	46.687
438.75	46.601
439.10	46.480
439.45	46.635
439.81	46.163
440.16	45.850
440.51	46.397
440.86	47.018
441.22	45.884
441.57	47.293
441.92	47.646
442.27	46.340
442.63	45.708
442.98	47.606
443.33	46.576
443.68	45.792
444.03	45.534
444.39	45.813
444.74	47.132
445.09	46.199
445.44	45.325
445.79	45.621
446.15	45.315
446.50	45.665
446.85	46.454
447.20	46.303
447.55	45.784
447.91	45.615
448.26	46.633
448.61	45.902
448.96	46.788
449.31	45.894
449.66	46.314
450.02	45.460
450.37	45.635
450.72	45.742
451.07	45.582
451.42	45.836
451.77	46.389
452.12	45.670
452.47	45.336
452.83	47.028
453.18	44.927
453.53	45.887
453.88	46.545
454.23	45.726
454.58	46.578
454.93	47.362
455.28	45.698
455.63	47.633
455.98	48.095
456.34	46.106
456.69	46.525
457.04	47.059
457.39	45.529
457.74	46.547
458.09	46.176
458.44	47.548
458.79	44.957
459.14	46.670
459.49	44.191
459.84	45.540
460.19	46.022
460.54	44.850
460.89	45.858
461.24	45.719
461.59	46.717
461.94	46.116
462.29	45.519
462.64	46.458
462.99	45.413
463.34	46.333
463.69	45.779
464.04	46.087
464.39	46.029
464.74	44.979
465.09	45.476
465.44	45.263
465.79	44.183
466.14	44.444
466.49	45.606
466.84	45.534
467.19	44.840
467.54	46.250
467.89	44.958
468.24	45.201
468.59	45.238
468.94	45.449
469.29	45.501
469.64	45.984
469.99	45.332
470.34	45.839
470.68	45.833
471.03	45.034
471.38	46.630
471.73	44.970
472.08	44.737
472.43	45.477
472.78	45.754
473.13	44.801
473.48	45.630
473.83	45.000
474.17	45.053
474.52	45.533
474.87	45.651
475.22	45.328
475.57	45.137
475.92	43.229
476.27	43.236
476.61	43.740
476.96	44.145
477.31	44.375
477.66	44.256
478.01	44.171
478.36	45.108
478.70	44.237
479.05	44.995
479.40	44.524
479.75	44.586
480.10	44.036
480.45	43.693
480.79	43.287
481.14	44.374
481.49	43.759
481.84	43.896
482.19	44.343
482.53	44.174
482.88	43.881
483.23	44.393
483.58	44.040
483.92	44.564
484.27	42.222
484.62	43.362
484.97	43.398
485.31	44.418
485.66	43.928
486.01	42.520
486.36	41.202
486.70	39.330
487.05	39.941
487.40	41.318
487.75	40.498
488.09	40.825
488.44	40.894
488.79	42.495
489.13	42.399
489.48	42.333
489.83	42.987
490.17	43.139
490.52	43.268
490.87	42.741
491.22	42.701
491.56	42.005
491.91	41.508
492.26	41.525
492.60	41.982
492.95	42.657
493.30	43.411
493.64	43.117
493.99	42.526
494.34	43.340
494.68	43.269
495.03	42.575
495.37	42.066
495.72	43.519
496.07	43.480
496.41	42.124
496.76	41.909
497.11	41.783
497.45	42.105
497.80	42.322
498.14	42.512
498.49	42.927
498.84	42.522
499.18	42.143
499.53	42.355
499.87	41.985
500.22	41.074
500.56	43.641
500.91	41.923
501.26	41.584
501.60	42.050
501.95	42.346
502.29	41.893
502.64	41.574
502.98	42.543
503.33	42.322
503.67	41.578
504.02	41.254
504.36	41.554
504.71	42.208
505.06	41.446
505.40	41.614
505.75	41.707
506.09	42.128
506.44	42.230
506.78	41.159
507.13	41.949
507.47	41.818
507.82	41.540
508.16	42.148
508.51	42.516
508.85	41.063
509.19	41.224
509.54	41.633
509.88	41.267
510.23	41.902
510.57	42.208
510.92	42.776
511.26	41.881
511.61	42.064
511.95	41.597
512.30	41.410
512.64	42.182
512.98	42.283
513.33	42.238
513.67	41.889
514.02	41.721
514.36	41.671
514.70	42.114
515.05	41.606
515.39	42.288
515.74	42.117
516.08	41.755
516.42	42.120
516.77	42.698
517.11	42.064
517.46	42.325
517.80	42.567
518.14	40.591
518.49	41.657
518.83	43.068
519.17	42.725
519.52	42.162
519.86	41.586
520.20	42.370
520.55	42.968
520.89	43.917
521.23	42.400
521.58	41.176
521.92	43.417
522.26	41.916
522.61	43.053
522.95	41.866
523.29	41.449
523.64	42.317
523.98	41.713
524.32	41.737
524.66	42.273
525.01	40.748
525.35	41.326
525.69	41.626
526.04	42.305
526.38	41.489
526.72	40.982
527.06	42.185
527.41	41.337
527.75	42.122
528.09	41.811
528.43	42.129
528.78	42.594
529.12	40.727
529.46	42.805
529.80	42.017
530.15	40.997
530.49	40.492
530.83	40.633
531.17	43.081
531.51	42.153
531.86	42.129
532.20	41.525
532.54	41.768
532.88	41.528
533.22	41.412
533.57	40.864
533.91	42.203
534.25	40.887
534.59	41.550
534.93	40.155
535.27	40.917
535.62	40.171
535.96	41.368
536.30	40.687
536.64	41.017
536.98	41.606
537.32	40.421
537.66	40.000
538.01	41.540
538.35	41.047
538.69	41.353
539.03	41.975
539.37	39.936
539.71	40.635
540.05	41.176
540.39	40.066
540.73	39.715
541.07	40.169
541.42	40.639
541.76	41.548
542.10	40.944
542.44	40.927
542.78	41.107
543.12	39.539
543.46	40.590
543.80	41.444
544.14	39.281
544.48	40.825
544.82	40.026
545.16	41.314
545.50	39.524
545.84	40.524
546.18	40.673
546.52	41.019
546.86	40.687
547.20	40.526
547.54	41.015
547.88	40.434
548.22	39.664
548.56	38.931
548.90	38.732
549.24	39.596
549.58	40.450
549.92	39.560
550.26	40.483
550.60	39.073
550.94	40.775
551.28	40.088
551.62	39.827
551.96	39.158
552.30	39.727
552.64	40.297
552.98	39.797
553.32	39.447
553.66	40.559
554.00	40.151
554.34	39.061
554.68	39.342
555.02	38.999
555.36	39.736
555.69	39.513
556.03	39.300
556.37	39.973
556.71	39.018
557.05	39.846
557.39	39.468
557.73	39.379
558.07	41.914
558.41	39.001
558.75	40.191
559.08	40.045
559.42	40.060
559.76	39.265
560.10	39.044
560.44	40.042
560.78	38.789
561.12	39.380
561.45	40.287
561.79	38.431
562.13	39.034
562.47	39.686
562.81	39.749
563.15	38.863
563.48	39.125
563.82	39.596
564.16	38.587
564.50	39.062
564.84	38.180
565.17	38.610
565.51	39.233
565.85	39.213
566.19	38.760
566.52	38.695
566.86	37.975
567.20	40.094
567.54	38.584
567.88	38.077
568.21	38.148
568.55	36.957
568.89	38.473
569.23	37.701
569.56	36.842
569.90	37.358
570.24	37.352
570.57	36.246
570.91	36.587
571.25	35.825
571.59	36.348
571.92	36.665
572.26	35.933
572.60	35.616
572.93	36.372
573.27	36.469
573.61	36.348
573.95	35.788
574.28	35.226
574.62	35.544
574.96	34.958
575.29	35.306
575.63	35.366
575.97	34.913
576.30	35.422
576.64	35.583
576.98	35.561
577.31	35.444
577.65	35.657
577.98	35.364
578.32	34.730
578.66	34.843
578.99	34.924
579.33	34.568
579.67	34.760
580.00	35.052
580.34	34.504
580.67	34.460
581.01	35.957
581.35	35.876
581.68	35.224
582.02	34.861
582.35	34.882
582.69	34.470
583.02	34.338
583.36	34.771
583.70	35.265
584.03	35.084
584.37	35.125
584.70	35.580
585.04	34.418
585.37	35.298
585.71	35.197
586.04	34.984
586.38	35.397
586.72	35.156
587.05	34.664
587.39	35.303
587.72	34.682
588.06	35.432
588.39	34.513
588.73	35.201
589.06	35.151
589.40	35.522
589.73	35.868
590.07	35.623
590.40	35.331
590.73	34.934
591.07	35.083
591.40	35.259
591.74	36.017
592.07	36.169
592.41	35.800
592.74	35.356
593.08	35.576
593.41	35.875
593.75	34.884
594.08	34.730
594.41	35.525
594.75	35.342
595.08	34.968
595.42	35.587
595.75	34.793
596.09	35.223
596.42	35.246
596.75	35.416
597.09	35.758
597.42	35.034
597.75	35.231
598.09	34.478
598.42	35.009
598.76	35.347
599.09	34.284
599.42	35.007
599.76	35.286
600.09	35.191
600.42	34.332
600.76	33.464
601.09	34.608
601.42	34.893
601.76	34.611
602.09	34.387
602.42	35.032
602.76	35.913
603.09	35.366
603.42	35.572
603.76	34.527
604.09	34.703
604.42	35.181
604.76	34.922
605.09	35.692
605.42	35.186
605.75	35.679
606.09	35.299
606.42	35.349
606.75	34.509
607.09	34.031
607.42	35.302
607.75	33.924
608.08	34.824
608.42	34.827
608.75	34.220
609.08	34.459
609.41	34.745
609.75	34.493
610.08	35.910
610.41	34.916
610.74	34.484
611.07	35.573
611.41	35.034
611.74	35.546
612.07	35.921
612.40	36.516
612.73	35.474
613.07	35.291
613.40	35.387
613.73	33.875
614.06	34.409
614.39	35.711
614.72	34.737
615.06	34.611
615.39	35.138
615.72	34.458
616.05	34.397
616.38	34.853
616.71	35.808
617.05	35.984
617.38	35.298
617.71	35.495
618.04	36.118
618.37	34.831
618.70	36.217
619.03	36.053
619.36	36.796
619.69	36.761
620.03	36.195
620.36	36.364
620.69	37.397
621.02	37.021
621.35	35.709
621.68	35.436
622.01	35.139
622.34	36.762
622.67	35.741
623.00	35.070
623.33	35.025
623.66	34.525
623.99	35.199
624.32	36.591
624.65	34.746
624.99	35.623
625.32	35.119
625.65	35.687
625.98	35.895
626.31	35.925
626.64	36.735
626.97	35.744
627.30	35.661
627.63	37.244
627.96	36.669
628.29	36.658
628.62	35.865
628.95	37.830
629.28	36.861
629.61	37.489
629.94	38.000
630.26	36.225
630.59	38.036
630.92	37.452
631.25	35.143
631.58	36.537
