SpectraSuite Data File
++++++++++++++++++++++++++++++++++++
Date: Wed May 13 16:24:32 PDT 2015
User: schluterlab
Dark Spectrum Present: Yes
Reference Spectrum Present: Yes
Number of Sampled Component Spectra: 1
Spectrometers: USB2E3373
Integration Time (usec): 3000 (USB2E3373)
Spectra Averaged: 3 (USB2E3373)
Boxcar Smoothing: 0 (USB2E3373)
Correct for Electrical Dark: No (USB2E3373)
Strobe/Lamp Enabled: No (USB2E3373)
Correct for Detector Non-linearity: No (USB2E3373)
Correct for Stray Light: No (USB2E3373)
Number of Pixels in Processed Spectrum: 2048
>>>>>Begin Processed Spectral Data<<<<<
178.53	0.000
178.91	-1075.000
179.29	-1250.000
179.67	-183.333
180.04	-1200.000
180.42	2450.000
180.80	860.000
181.18	-875.000
181.56	814.286
181.94	0.000
182.31	-642.857
182.69	1733.333
183.07	-525.000
183.45	-433.333
183.83	481.818
184.20	-300.000
184.58	2150.000
184.96	4200.000
185.34	-940.000
185.72	-687.500
186.09	-2600.000
186.47	1900.000
186.85	2600.000
187.23	4800.000
187.61	-1600.000
187.98	1075.000
188.36	609.091
188.74	518.182
189.12	-920.000
189.49	570.000
189.87	-4100.000
190.25	-975.000
190.63	335.714
191.00	415.385
191.38	683.333
191.76	-1050.000
192.14	1125.000
192.51	712.500
192.89	916.667
193.27	487.500
193.65	-1000.000
194.02	520.000
194.40	740.000
194.78	440.000
195.15	525.000
195.53	570.000
195.91	-1650.000
196.29	300.000
196.66	321.053
197.04	-320.000
197.42	0.000
197.79	700.000
198.17	-5000.000
198.55	728.571
198.92	675.000
199.30	1060.000
199.68	0.000
200.05	355.556
200.43	714.286
200.81	4400.000
201.18	1533.333
201.56	-1366.667
201.94	588.889
202.31	577.778
202.69	475.000
203.07	490.000
203.44	0.000
203.82	1250.000
204.19	814.286
204.57	392.857
204.95	512.500
205.32	1700.000
205.70	518.182
206.08	364.286
206.45	2150.000
206.83	406.250
207.20	916.667
207.58	640.000
207.96	305.556
208.33	662.500
208.71	-766.667
209.08	671.429
209.46	600.000
209.84	436.364
210.21	-1300.000
210.59	1475.000
210.96	-362.500
211.34	2550.000
211.71	540.000
212.09	800.000
212.46	0.000
212.84	1766.667
213.22	1350.000
213.59	-4100.000
213.97	916.667
214.34	657.143
214.72	563.636
215.09	880.000
215.47	-1600.000
215.84	-2550.000
216.22	1866.667
216.59	357.143
216.97	1375.000
217.34	436.364
217.72	-750.000
218.09	0.000
218.47	-4900.000
218.84	633.333
219.22	728.571
219.59	1733.333
219.97	-614.286
220.34	1020.000
220.72	-1833.333
221.09	378.571
221.47	1400.000
221.84	-750.000
222.22	0.000
222.59	1400.000
222.97	-1900.000
223.34	1060.000
223.72	453.846
224.09	1100.000
224.46	1650.000
224.84	-3900.000
225.21	-840.000
225.59	-4400.000
225.96	630.000
226.34	285.000
226.71	2800.000
227.08	687.500
227.46	360.000
227.83	-975.000
228.21	-1500.000
228.58	611.111
228.95	-2600.000
229.33	-1600.000
229.70	1533.333
230.08	671.429
230.45	-840.000
230.82	383.333
231.20	750.000
231.57	657.143
231.95	425.000
232.32	222.727
232.69	318.182
233.07	614.286
233.44	300.000
233.81	-1533.333
234.19	231.579
234.56	408.333
234.93	383.333
235.31	418.182
235.68	284.615
236.05	335.714
236.43	178.788
236.80	231.579
237.17	4900.000
237.55	200.000
237.92	175.000
238.29	228.571
238.67	154.839
239.04	137.931
239.41	147.222
239.79	97.826
240.16	104.762
240.53	120.455
240.91	82.353
241.28	98.000
241.65	72.000
242.02	84.058
242.40	83.871
242.77	71.667
243.14	45.161
243.51	60.674
243.89	55.294
244.26	38.889
244.63	45.161
245.00	37.234
245.38	32.673
245.75	30.841
246.12	35.780
246.49	43.796
246.87	38.400
247.24	38.462
247.61	34.286
247.98	26.797
248.36	29.054
248.73	24.841
249.10	33.121
249.47	28.249
249.84	31.551
250.22	27.807
250.59	28.402
250.96	26.263
251.33	26.066
251.70	26.238
252.08	23.333
252.45	21.973
252.82	20.000
253.19	18.723
253.56	21.176
253.94	22.407
254.31	21.094
254.68	18.077
255.05	19.188
255.42	17.073
255.79	16.912
256.16	20.939
256.54	16.254
256.91	17.794
257.28	10.791
257.65	16.172
258.02	17.702
258.39	16.719
258.76	14.047
259.14	16.964
259.51	13.982
259.88	16.770
260.25	15.408
260.62	14.162
260.99	13.665
261.36	16.216
261.73	13.181
262.10	14.244
262.47	12.676
262.85	16.156
263.22	12.251
263.59	13.105
263.96	14.011
264.33	15.405
264.70	14.474
265.07	14.578
265.44	13.131
265.81	9.732
266.18	10.553
266.55	11.951
266.92	11.057
267.29	14.583
267.66	13.303
268.03	12.045
268.40	12.850
268.77	8.115
269.14	11.712
269.51	12.641
269.88	11.422
270.25	11.287
270.62	11.685
270.99	12.688
271.36	13.090
271.73	7.477
272.10	10.652
272.47	11.183
272.84	10.173
273.21	12.788
273.58	10.699
273.95	9.853
274.32	10.124
274.69	9.208
275.06	9.449
275.43	12.128
275.80	9.419
276.17	9.776
276.54	10.603
276.91	7.115
277.28	10.156
277.65	10.832
278.02	8.903
278.39	11.523
278.76	10.364
279.13	10.566
279.50	11.359
279.87	10.359
280.23	11.178
280.60	10.832
280.97	8.133
281.34	11.150
281.71	10.545
282.08	9.021
282.45	8.727
282.82	8.703
283.19	5.348
283.56	9.825
283.92	9.306
284.29	8.995
284.66	9.619
285.03	6.510
285.40	7.923
285.77	6.902
286.14	8.808
286.51	9.000
286.87	10.085
287.24	8.306
287.61	7.705
287.98	9.091
288.35	9.350
288.72	8.567
289.08	8.138
289.45	7.249
289.82	11.220
290.19	7.378
290.56	7.810
290.93	6.042
291.29	7.055
291.66	8.997
292.03	9.012
292.40	8.517
292.77	5.178
293.13	6.119
293.50	7.726
293.87	8.000
294.24	7.704
294.60	5.822
294.97	7.558
295.34	8.463
295.71	7.670
296.08	5.983
296.44	6.740
296.81	5.945
297.18	6.369
297.55	4.485
297.91	5.409
298.28	6.426
298.65	8.094
299.02	6.851
299.38	6.109
299.75	4.987
300.12	4.598
300.48	6.375
300.85	6.165
301.22	4.968
301.59	5.051
301.95	5.038
302.32	5.648
302.69	6.332
303.05	6.424
303.42	5.309
303.79	5.776
304.15	5.711
304.52	4.403
304.89	5.226
305.25	6.729
305.62	6.002
305.99	5.903
306.35	5.481
306.72	5.045
307.09	5.216
307.45	6.081
307.82	5.022
308.19	5.960
308.55	5.717
308.92	5.048
309.29	4.752
309.65	5.726
310.02	5.074
310.38	5.484
310.75	5.597
311.12	4.811
311.48	5.538
311.85	6.499
312.22	5.723
312.58	5.198
312.95	6.653
313.31	5.146
313.68	5.717
314.05	7.396
314.41	5.327
314.78	4.632
315.14	4.866
315.51	5.149
315.87	5.941
316.24	5.660
316.61	5.945
316.97	4.892
317.34	4.110
317.70	4.780
318.07	5.390
318.43	4.305
318.80	5.155
319.16	4.708
319.53	4.690
319.89	5.714
320.26	6.900
320.62	6.052
320.99	5.354
321.35	6.263
321.72	6.468
322.08	5.528
322.45	6.567
322.81	6.589
323.18	6.647
323.54	6.122
323.91	7.170
324.27	5.545
324.64	4.660
325.00	6.673
325.37	6.642
325.73	7.720
326.10	6.355
326.46	6.631
326.83	6.644
327.19	5.465
327.56	6.359
327.92	5.862
328.29	6.744
328.65	5.985
329.01	6.588
329.38	6.383
329.74	6.741
330.11	6.503
330.47	6.336
330.84	7.813
331.20	6.648
331.56	7.798
331.93	6.019
332.29	6.389
332.66	6.195
333.02	5.210
333.38	6.865
333.75	6.417
334.11	6.940
334.48	6.389
334.84	6.526
335.20	6.818
335.57	5.530
335.93	6.250
336.29	7.234
336.66	6.041
337.02	5.882
337.38	6.667
337.75	6.774
338.11	6.625
338.47	6.722
338.84	6.233
339.20	5.963
339.56	6.843
339.93	6.091
340.29	5.797
340.65	6.328
341.02	7.068
341.38	6.495
341.74	5.614
342.11	6.026
342.47	6.696
342.83	7.021
343.20	6.234
343.56	5.897
343.92	4.912
344.28	6.037
344.65	6.449
345.01	5.724
345.37	5.317
345.73	6.768
346.10	5.456
346.46	6.102
346.82	5.766
347.19	5.681
347.55	4.269
347.91	6.311
348.27	6.327
348.63	6.355
349.00	6.392
349.36	5.419
349.72	6.175
350.08	5.429
350.45	6.835
350.81	5.686
351.17	6.645
351.53	5.324
351.89	4.785
352.26	7.419
352.62	6.095
352.98	5.592
353.34	6.491
353.70	5.074
354.07	5.645
354.43	5.397
354.79	5.068
355.15	6.145
355.51	6.635
355.87	4.816
356.24	5.293
356.60	5.132
356.96	6.114
357.32	5.233
357.68	5.827
358.04	5.226
358.40	6.176
358.77	7.590
359.13	5.051
359.49	5.882
359.85	4.683
360.21	4.864
360.57	5.992
360.93	6.308
361.29	5.896
361.66	5.263
362.02	5.746
362.38	4.943
362.74	6.027
363.10	4.515
363.46	4.622
363.82	5.442
364.18	5.653
364.54	6.315
364.90	5.737
365.26	4.706
365.62	5.186
365.98	4.456
366.35	4.513
366.71	5.495
367.07	4.370
367.43	5.588
367.79	6.210
368.15	6.106
368.51	5.160
368.87	5.639
369.23	4.901
369.59	6.010
369.95	4.485
370.31	5.627
370.67	5.217
371.03	5.843
371.39	5.685
371.75	4.706
372.11	5.548
372.47	5.718
372.83	5.692
373.19	4.624
373.55	4.582
373.91	5.817
374.27	5.155
374.63	4.582
374.99	5.650
375.35	4.536
375.71	5.072
376.07	5.761
376.42	5.089
376.78	5.169
377.14	4.885
377.50	5.232
377.86	4.987
378.22	5.057
378.58	4.699
378.94	5.405
379.30	4.262
379.66	5.076
380.02	5.283
380.38	4.372
380.74	4.382
381.09	5.012
381.45	5.163
381.81	5.405
382.17	5.478
382.53	5.094
382.89	5.185
383.25	4.378
383.61	5.204
383.97	4.753
384.32	4.803
384.68	4.957
385.04	4.917
385.40	4.768
385.76	4.975
386.12	5.376
386.48	6.293
386.83	5.581
387.19	5.628
387.55	5.566
387.91	4.595
388.27	4.905
388.62	5.470
388.98	4.545
389.34	5.757
389.70	4.966
390.06	5.196
390.42	4.994
390.77	5.662
391.13	5.424
391.49	5.647
391.85	4.965
392.20	3.659
392.56	4.924
392.92	4.944
393.28	3.787
393.64	5.276
393.99	5.315
394.35	5.025
394.71	5.395
395.07	4.548
395.42	5.439
395.78	5.025
396.14	5.897
396.50	5.702
396.85	4.959
397.21	4.871
397.57	5.518
397.92	5.529
398.28	4.316
398.64	5.735
399.00	4.701
399.35	4.061
399.71	4.919
400.07	5.263
400.42	4.969
400.78	5.368
401.14	5.183
401.49	4.597
401.85	4.598
402.21	4.012
402.57	4.874
402.92	4.981
403.28	4.997
403.63	4.827
403.99	4.331
404.35	5.636
404.70	4.856
405.06	4.659
405.42	5.178
405.77	4.971
406.13	4.628
406.49	5.441
406.84	5.080
407.20	5.024
407.55	4.914
407.91	5.200
408.27	4.340
408.62	5.418
408.98	5.331
409.34	4.367
409.69	5.355
410.05	5.514
410.40	5.321
410.76	5.078
411.11	5.428
411.47	5.367
411.83	5.498
412.18	4.824
412.54	5.044
412.89	5.422
413.25	4.664
413.60	5.497
413.96	5.404
414.31	5.468
414.67	5.006
415.03	5.298
415.38	4.510
415.74	4.823
416.09	5.225
416.45	5.288
416.80	5.089
417.16	5.496
417.51	5.773
417.87	5.395
418.22	4.984
418.58	5.810
418.93	5.160
419.29	5.602
419.64	5.290
420.00	5.488
420.35	5.507
420.71	5.559
421.06	5.131
421.42	4.912
421.77	4.765
422.12	4.380
422.48	4.371
422.83	4.892
423.19	5.525
423.54	4.991
423.90	5.797
424.25	4.913
424.61	4.762
424.96	5.131
425.31	4.928
425.67	5.056
426.02	5.600
426.38	5.617
426.73	5.266
427.09	5.410
427.44	5.578
427.79	4.945
428.15	5.536
428.50	5.032
428.85	5.244
429.21	4.583
429.56	4.769
429.92	4.781
430.27	4.816
430.62	5.376
430.98	5.708
431.33	5.567
431.68	5.707
432.04	5.431
432.39	4.969
432.74	5.506
433.10	5.093
433.45	5.889
433.80	4.712
434.16	5.609
434.51	5.421
434.86	6.214
435.22	5.170
435.57	5.046
435.92	4.154
436.28	5.279
436.63	6.457
436.98	4.923
437.34	5.665
437.69	5.426
438.04	5.115
438.39	5.134
438.75	6.159
439.10	5.084
439.45	5.667
439.81	4.773
440.16	5.251
440.51	5.624
440.86	5.269
441.22	4.839
441.57	5.679
441.92	5.681
442.27	5.544
442.63	5.161
442.98	5.859
443.33	5.924
443.68	5.318
444.03	5.173
444.39	4.966
444.74	5.357
445.09	5.175
445.44	5.413
445.79	5.542
446.15	6.088
446.50	4.900
446.85	5.344
447.20	5.558
447.55	5.304
447.91	5.350
448.26	5.175
448.61	5.596
448.96	6.478
449.31	5.849
449.66	5.402
450.02	4.680
450.37	5.045
450.72	5.527
451.07	5.302
451.42	6.201
451.77	5.344
452.12	5.485
452.47	5.784
452.83	4.429
453.18	5.746
453.53	5.999
453.88	4.962
454.23	6.157
454.58	6.844
454.93	6.103
455.28	5.050
455.63	5.340
455.98	7.024
456.34	6.219
456.69	5.448
457.04	5.573
457.39	5.611
457.74	5.049
458.09	5.693
458.44	5.815
458.79	4.772
459.14	5.418
459.49	5.721
459.84	5.319
460.19	5.893
460.54	5.556
460.89	5.485
461.24	5.464
461.59	7.147
461.94	5.734
462.29	5.697
462.64	5.871
462.99	5.595
463.34	6.467
463.69	5.441
464.04	6.029
464.39	5.797
464.74	6.239
465.09	5.428
465.44	5.319
465.79	5.481
466.14	5.857
466.49	4.727
466.84	6.421
467.19	6.457
467.54	5.938
467.89	5.882
468.24	5.934
468.59	5.800
468.94	5.376
469.29	5.848
469.64	6.961
469.99	6.225
470.34	5.680
470.68	5.532
471.03	6.327
471.38	6.463
471.73	6.329
472.08	6.513
472.43	5.653
472.78	6.386
473.13	5.969
473.48	5.993
473.83	6.220
474.17	5.787
474.52	5.893
474.87	6.246
475.22	5.920
475.57	5.696
475.92	5.098
476.27	5.524
476.61	5.405
476.96	5.223
477.31	5.390
477.66	4.705
478.01	5.384
478.36	5.817
478.70	4.777
479.05	5.644
479.40	5.015
479.75	5.440
480.10	4.970
480.45	4.950
480.79	5.208
481.14	5.186
481.49	5.458
481.84	5.075
482.19	5.316
482.53	5.046
482.88	4.933
483.23	5.374
483.58	5.232
483.92	4.967
484.27	4.314
484.62	4.957
484.97	4.572
485.31	4.760
485.66	3.933
486.01	3.464
486.36	3.319
486.70	3.386
487.05	3.541
487.40	3.805
487.75	4.080
488.09	3.943
488.44	3.836
488.79	4.665
489.13	4.775
489.48	4.486
489.83	4.834
490.17	4.516
490.52	4.694
490.87	4.704
491.22	5.184
491.56	4.692
491.91	5.351
492.26	5.053
492.60	5.253
492.95	4.443
493.30	4.626
493.64	4.620
493.99	5.153
494.34	4.995
494.68	5.082
495.03	5.357
495.37	5.026
495.72	4.581
496.07	5.151
496.41	4.823
496.76	4.705
497.11	4.908
497.45	4.518
497.80	4.798
498.14	4.589
498.49	4.244
498.84	4.794
499.18	5.476
499.53	4.416
499.87	5.126
500.22	5.087
500.56	5.388
500.91	4.712
501.26	4.931
501.60	5.268
501.95	4.675
502.29	4.827
502.64	5.447
502.98	4.628
503.33	5.027
503.67	4.780
504.02	5.379
504.36	5.475
504.71	4.983
505.06	5.012
505.40	5.153
505.75	5.014
506.09	5.005
506.44	5.427
506.78	4.968
507.13	4.493
507.47	5.101
507.82	5.319
508.16	5.370
508.51	5.124
508.85	5.065
509.19	4.745
509.54	5.459
509.88	5.152
510.23	5.193
510.57	5.366
510.92	5.282
511.26	5.396
511.61	5.498
511.95	5.010
512.30	4.984
512.64	5.588
512.98	6.056
513.33	5.835
513.67	5.496
514.02	5.574
514.36	6.008
514.70	5.645
515.05	4.685
515.39	5.552
515.74	5.631
516.08	6.037
516.42	6.160
516.77	5.574
517.11	5.438
517.46	5.926
517.80	5.691
518.14	5.732
518.49	5.368
518.83	5.739
519.17	6.062
519.52	5.886
519.86	6.332
520.20	6.532
520.55	5.446
520.89	6.326
521.23	6.092
521.58	6.182
521.92	6.124
522.26	5.613
522.61	5.732
522.95	6.077
523.29	6.391
523.64	6.646
523.98	5.607
524.32	6.031
524.66	5.953
525.01	6.066
525.35	5.948
525.69	5.727
526.04	5.919
526.38	6.101
526.72	6.196
527.06	7.031
527.41	5.631
527.75	6.559
528.09	6.808
528.43	6.310
528.78	7.130
529.12	5.879
529.46	6.307
529.80	5.879
530.15	6.604
530.49	5.662
530.83	6.519
531.17	6.723
531.51	6.550
531.86	6.774
532.20	6.780
532.54	7.431
532.88	6.354
533.22	6.309
533.57	5.741
533.91	6.382
534.25	6.318
534.59	6.467
534.93	6.484
535.27	6.276
535.62	6.227
535.96	6.529
536.30	6.103
536.64	5.731
536.98	6.967
537.32	6.254
537.66	6.867
538.01	6.386
538.35	6.981
538.69	6.509
539.03	5.653
539.37	5.815
539.71	5.314
540.05	6.275
540.39	6.246
540.73	6.792
541.07	7.463
541.42	6.784
541.76	6.774
542.10	6.662
542.44	5.828
542.78	7.312
543.12	5.950
543.46	6.230
543.80	7.157
544.14	5.969
544.48	6.286
544.82	6.094
545.16	6.051
545.50	6.427
545.84	5.511
546.18	6.465
546.52	6.469
546.86	6.667
547.20	7.215
547.54	6.814
547.88	7.717
548.22	6.413
548.56	6.730
548.90	5.762
549.24	6.532
549.58	6.753
549.92	6.319
550.26	6.889
550.60	7.261
550.94	7.042
551.28	5.413
551.62	6.470
551.96	6.877
552.30	6.894
552.64	6.423
552.98	6.441
553.32	6.945
553.66	7.498
554.00	7.344
554.34	6.970
554.68	7.368
555.02	6.559
555.36	7.237
555.69	6.225
556.03	6.460
556.37	6.207
556.71	6.889
557.05	6.933
557.39	7.558
557.73	6.493
558.07	7.252
558.41	6.585
558.75	6.319
559.08	7.383
559.42	6.349
559.76	6.838
560.10	7.352
560.44	6.639
560.78	6.321
561.12	6.794
561.45	6.845
561.79	6.987
562.13	6.237
562.47	7.309
562.81	6.764
563.15	7.425
563.48	7.294
563.82	6.067
564.16	6.017
564.50	5.534
564.84	6.511
565.17	5.727
565.51	6.518
565.85	7.170
566.19	5.761
566.52	5.826
566.86	6.028
567.20	7.017
567.54	6.393
567.88	5.758
568.21	6.190
568.55	5.207
568.89	5.496
569.23	5.169
569.56	5.587
569.90	4.906
570.24	5.059
570.57	4.794
570.91	4.428
571.25	4.324
571.59	4.477
571.92	4.435
572.26	4.362
572.60	4.535
572.93	5.037
573.27	4.496
573.61	4.606
573.95	4.548
574.28	4.146
574.62	4.203
574.96	4.277
575.29	4.413
575.63	4.294
575.97	4.426
576.30	4.647
576.64	4.170
576.98	4.035
577.31	4.090
577.65	4.126
577.98	3.920
578.32	4.071
578.66	4.256
578.99	4.154
579.33	4.188
579.67	4.135
580.00	4.100
580.34	3.939
580.67	4.231
581.01	4.475
581.35	4.091
581.68	4.315
582.02	3.743
582.35	3.797
582.69	3.847
583.02	3.829
583.36	4.289
583.70	4.196
584.03	4.258
584.37	4.506
584.70	4.232
585.04	4.525
585.37	4.450
585.71	4.417
586.04	4.252
586.38	4.206
586.72	4.584
587.05	4.075
587.39	4.274
587.72	4.483
588.06	4.562
588.39	4.417
588.73	4.312
589.06	4.986
589.40	4.478
589.73	4.893
590.07	4.769
590.40	4.932
590.73	4.879
591.07	5.495
591.40	5.483
591.74	5.541
592.07	5.366
592.41	5.333
592.74	4.944
593.08	4.997
593.41	5.125
593.75	4.809
594.08	4.459
594.41	5.090
594.75	5.323
595.08	4.975
595.42	4.869
595.75	4.594
596.09	4.994
596.42	5.697
596.75	5.361
597.09	5.844
597.42	4.975
597.75	5.520
598.09	5.652
598.42	5.498
598.76	4.945
599.09	4.599
599.42	4.985
599.76	5.307
600.09	4.845
600.42	4.821
600.76	4.714
601.09	5.064
601.42	5.175
601.76	5.161
602.09	4.980
602.42	5.454
602.76	5.320
603.09	5.271
603.42	5.623
603.76	5.183
604.09	5.157
604.42	5.300
604.76	6.369
605.09	5.374
605.42	5.729
605.75	5.132
606.09	4.880
606.42	4.659
606.75	5.226
607.09	5.693
607.42	4.664
607.75	5.316
608.08	4.776
608.42	5.513
608.75	5.050
609.08	5.643
609.41	5.569
609.75	5.669
610.08	6.221
610.41	5.214
610.74	5.061
611.07	5.188
611.41	5.447
611.74	5.732
612.07	5.694
612.40	6.139
612.73	5.526
613.07	5.873
613.40	5.424
613.73	5.401
614.06	5.645
614.39	6.450
614.72	5.842
615.06	6.250
615.39	5.096
615.72	5.828
616.05	5.582
616.38	6.059
616.71	5.760
617.05	5.713
617.38	6.434
617.71	5.886
618.04	6.310
618.37	6.091
618.70	6.347
619.03	7.434
619.36	6.314
619.69	6.268
620.03	6.731
620.36	6.885
620.69	6.301
621.02	6.490
621.35	6.735
621.68	6.698
622.01	7.895
622.34	7.262
622.67	6.464
623.00	6.676
623.33	6.576
623.66	6.719
623.99	6.480
624.32	7.347
624.65	6.921
624.99	5.170
625.32	6.083
625.65	6.687
625.98	6.995
626.31	7.465
626.64	7.102
626.97	7.066
627.30	6.983
627.63	7.137
627.96	7.065
628.29	6.124
628.62	8.051
628.95	7.736
629.28	7.573
629.61	8.066
629.94	7.048
630.26	7.340
630.59	7.531
630.92	7.375
631.25	7.897
631.58	7.908
631.91	8.316
632.24	7.068
632.57	8.709
632.90	8.114
633.23	8.277
633.56	9.718
633.89	9.173
634.22	8.513
634.55	9.231
634.88	8.263
635.20	8.483
635.53	9.277
635.86	8.540
636.19	8.471
636.52	8.304
636.85	9.507
637.18	7.719
637.51	9.693
637.83	7.152
638.16	9.463
638.49	9.068
638.82	9.987
639.15	9.500
639.48	9.726
639.81	9.249
640.13	9.375
640.46	9.664
640.79	9.511
641.12	8.666
641.45	9.078
641.77	10.015
642.10	11.696
642.43	9.760
642.76	10.372
643.09	9.969
643.41	11.229
643.74	11.265
644.07	9.604
644.40	11.043
644.73	11.181
645.05	12.044
645.38	10.742
645.71	10.628
646.04	11.794
646.36	10.518
646.69	11.204
647.02	10.884
647.35	11.512
647.67	10.265
648.00	11.382
648.33	10.726
648.66	11.515
648.98	12.144
649.31	9.417
649.64	10.463
649.96	9.240
650.29	11.848
650.62	11.327
650.94	11.669
651.27	13.345
651.60	11.148
651.92	11.661
652.25	8.632
652.58	12.150
652.90	11.690
653.23	9.553
653.56	9.449
653.88	11.886
