SpectraSuite Data File
++++++++++++++++++++++++++++++++++++
Date: Wed May 13 16:41:00 PDT 2015
User: schluterlab
Dark Spectrum Present: Yes
Reference Spectrum Present: Yes
Number of Sampled Component Spectra: 1
Spectrometers: USB2E3373
Integration Time (usec): 3000 (USB2E3373)
Spectra Averaged: 3 (USB2E3373)
Boxcar Smoothing: 0 (USB2E3373)
Correct for Electrical Dark: No (USB2E3373)
Strobe/Lamp Enabled: No (USB2E3373)
Correct for Detector Non-linearity: No (USB2E3373)
Correct for Stray Light: No (USB2E3373)
Number of Pixels in Processed Spectrum: 2048
>>>>>Begin Processed Spectral Data<<<<<
178.53	0.000
178.91	-1300.000
179.29	-1525.000
179.67	-211.111
180.04	-1325.000
180.42	2400.000
180.80	1260.000
181.18	-925.000
181.56	642.857
181.94	0.000
182.31	-728.571
182.69	2033.333
183.07	-500.000
183.45	-511.111
183.83	536.364
184.20	-460.000
184.58	2700.000
184.96	4800.000
185.34	-900.000
185.72	-612.500
186.09	-2550.000
186.47	2600.000
186.85	2550.000
187.23	4800.000
187.61	-1800.000
187.98	1475.000
188.36	654.545
188.74	509.091
189.12	-760.000
189.49	550.000
189.87	-4800.000
190.25	-1475.000
190.63	485.714
191.00	461.538
191.38	800.000
191.76	-1225.000
192.14	1475.000
192.51	550.000
192.89	950.000
193.27	562.500
193.65	-1350.000
194.02	500.000
194.40	980.000
194.78	590.000
195.15	416.667
195.53	680.000
195.91	-2300.000
196.29	356.250
196.66	347.368
197.04	-410.000
197.42	0.000
197.79	620.000
198.17	-4900.000
198.55	728.571
198.92	750.000
199.30	860.000
199.68	0.000
200.05	338.889
200.43	685.714
200.81	5700.000
201.18	1533.333
201.56	-1466.667
201.94	577.778
202.31	644.444
202.69	441.667
203.07	580.000
203.44	0.000
203.82	1325.000
204.19	828.571
204.57	478.571
204.95	762.500
205.32	1733.333
205.70	509.091
206.08	421.429
206.45	2700.000
206.83	356.250
207.20	816.667
207.58	840.000
207.96	344.444
208.33	875.000
208.71	-733.333
209.08	757.143
209.46	500.000
209.84	518.182
210.21	-1433.333
210.59	1450.000
210.96	-537.500
211.34	2450.000
211.71	560.000
212.09	850.000
212.46	0.000
212.84	2166.667
213.22	1225.000
213.59	-4600.000
213.97	1016.667
214.34	814.286
214.72	600.000
215.09	1060.000
215.47	-2100.000
215.84	-2650.000
216.22	2100.000
216.59	378.571
216.97	1075.000
217.34	445.455
217.72	-1016.667
218.09	0.000
218.47	-5400.000
218.84	688.889
219.22	728.571
219.59	1900.000
219.97	-514.286
220.34	1100.000
220.72	-1666.667
221.09	464.286
221.47	1525.000
221.84	-916.667
222.22	0.000
222.59	1425.000
222.97	-2400.000
223.34	1160.000
223.72	407.692
224.09	980.000
224.46	1900.000
224.84	-5200.000
225.21	-1180.000
225.59	-5000.000
225.96	690.000
226.34	285.000
226.71	2900.000
227.08	700.000
227.46	570.000
227.83	-1100.000
228.21	-2450.000
228.58	633.333
228.95	-2950.000
229.33	-2300.000
229.70	1866.667
230.08	757.143
230.45	-880.000
230.82	508.333
231.20	800.000
231.57	742.857
231.95	550.000
232.32	254.545
232.69	445.455
233.07	871.429
233.44	407.692
233.81	-1833.333
234.19	310.526
234.56	508.333
234.93	458.333
235.31	527.273
235.68	438.462
236.05	507.143
236.43	209.091
236.80	289.474
237.17	6900.000
237.55	304.762
237.92	253.571
238.29	285.714
238.67	222.581
239.04	241.379
239.41	205.556
239.79	165.217
240.16	180.952
240.53	179.545
240.91	137.255
241.28	162.000
241.65	182.000
242.02	142.029
242.40	129.032
242.77	143.333
243.14	115.054
243.51	115.730
243.89	118.824
244.26	100.000
244.63	104.301
245.00	115.957
245.38	108.911
245.75	105.607
246.12	95.413
246.49	98.540
246.87	104.000
247.24	100.769
247.61	95.714
247.98	86.928
248.36	91.892
248.73	87.261
249.10	96.178
249.47	82.486
249.84	88.770
250.22	85.027
250.59	88.757
250.96	87.879
251.33	84.360
251.70	87.129
252.08	86.190
252.45	81.166
252.82	80.870
253.19	80.426
253.56	80.392
253.94	84.232
254.31	76.172
254.68	79.615
255.05	78.967
255.42	78.862
255.79	76.471
256.16	82.671
256.54	71.731
256.91	78.648
257.28	72.662
257.65	69.637
258.02	74.534
258.39	70.662
258.76	73.579
259.14	70.833
259.51	69.301
259.88	72.050
260.25	74.320
260.62	69.653
260.99	77.640
261.36	72.673
261.73	70.487
262.10	71.802
262.47	73.239
262.85	68.245
263.22	71.795
263.59	73.789
263.96	73.901
264.33	73.890
264.70	70.000
265.07	71.355
265.44	66.919
265.81	65.693
266.18	68.342
266.55	71.951
266.92	70.516
267.29	68.750
267.66	67.890
268.03	65.000
268.40	67.757
268.77	69.212
269.14	65.991
269.51	68.849
269.88	70.629
270.25	67.269
270.62	68.989
270.99	69.462
271.36	66.309
271.73	71.262
272.10	66.304
272.47	67.957
272.84	66.234
273.21	63.941
273.58	63.755
273.95	64.990
274.32	64.256
274.69	71.092
275.06	63.780
275.43	68.723
275.80	65.731
276.17	65.784
276.54	66.944
276.91	64.625
277.28	61.719
277.65	63.443
278.02	68.530
278.39	66.602
278.76	62.727
279.13	61.698
279.50	61.266
279.87	62.948
280.23	64.671
280.60	64.023
280.97	63.771
281.34	64.071
281.71	62.727
282.08	64.683
282.45	61.091
282.82	61.456
283.19	60.784
283.56	61.404
283.92	60.237
284.29	59.436
284.66	60.617
285.03	61.302
285.40	60.739
285.77	60.269
286.14	58.204
286.51	57.000
286.87	57.265
287.24	57.655
287.61	59.230
287.98	55.519
288.35	58.479
288.72	56.698
289.08	55.556
289.45	55.848
289.82	55.772
290.19	53.061
290.56	53.446
290.93	51.511
291.29	54.448
291.66	53.097
292.03	54.360
292.40	53.451
292.77	52.219
293.13	51.045
293.50	52.332
293.87	53.037
294.24	49.778
294.60	49.927
294.97	48.983
295.34	49.647
295.71	50.426
296.08	49.288
296.44	48.556
296.81	47.292
297.18	48.645
297.55	46.702
297.91	46.174
298.28	48.059
298.65	46.345
299.02	49.144
299.38	46.215
299.75	45.957
300.12	44.955
300.48	44.875
300.85	43.280
301.22	44.841
301.59	43.182
301.95	45.718
302.32	46.213
302.69	42.413
303.05	45.333
303.42	43.457
303.79	41.676
304.15	42.424
304.52	41.715
304.89	42.741
305.25	41.647
305.62	41.903
305.99	43.566
306.35	42.841
306.72	43.386
307.09	43.285
307.45	42.342
307.82	41.518
308.19	40.618
308.55	42.611
308.92	41.783
309.29	40.444
309.65	40.403
310.02	40.063
310.38	40.108
310.75	42.133
311.12	40.430
311.48	38.662
311.85	41.090
312.22	39.750
312.58	39.917
312.95	41.394
313.31	39.126
313.68	40.956
314.05	40.434
314.41	40.704
314.78	39.879
315.14	40.417
315.51	40.371
315.87	40.099
316.24	39.126
316.61	39.961
316.97	39.726
317.34	38.454
317.70	39.388
318.07	39.365
318.43	40.998
318.80	40.487
319.16	40.301
319.53	38.368
319.89	40.190
320.26	41.400
320.62	40.675
320.99	38.485
321.35	39.697
321.72	42.094
322.08	38.993
322.45	41.692
322.81	39.922
323.18	40.173
323.54	39.147
323.91	41.415
324.27	40.057
324.64	39.515
325.00	38.683
325.37	40.946
325.73	41.652
326.10	41.041
326.46	39.516
326.83	39.172
327.19	39.453
327.56	39.373
327.92	39.720
328.29	39.752
328.65	40.147
329.01	37.996
329.38	39.315
329.74	39.520
330.11	41.093
330.47	40.496
330.84	38.971
331.20	38.980
331.56	39.358
331.93	39.444
332.29	38.776
332.66	39.469
333.02	38.483
333.38	38.753
333.75	38.592
334.11	40.125
334.48	38.243
334.84	38.695
335.20	38.636
335.57	37.806
335.93	37.857
336.29	38.370
336.66	39.044
337.02	37.647
337.38	38.981
337.75	37.077
338.11	36.795
338.47	38.950
338.84	38.588
339.20	36.422
339.56	39.690
339.93	36.545
340.29	37.862
340.65	37.166
341.02	37.435
341.38	37.900
341.74	37.807
342.11	38.079
342.47	37.974
342.83	36.216
343.20	38.268
343.56	37.152
343.92	37.456
344.28	37.925
344.65	37.403
345.01	36.279
345.37	36.278
345.73	37.225
346.10	38.278
346.46	37.458
346.82	36.820
347.19	36.174
347.55	35.714
347.91	36.812
348.27	36.565
348.63	36.873
349.00	35.841
349.36	36.207
349.72	35.365
350.08	35.575
350.45	37.022
350.81	35.743
351.17	35.818
351.53	35.790
351.89	35.974
352.26	36.938
352.62	35.124
352.98	35.089
353.34	37.551
353.70	35.925
354.07	35.806
354.43	35.556
354.79	34.191
355.15	35.275
355.51	35.492
355.87	36.163
356.24	35.261
356.60	34.002
356.96	35.157
357.32	34.178
357.68	34.961
358.04	35.075
358.40	36.580
358.77	34.272
359.13	35.438
359.49	35.294
359.85	34.048
360.21	33.892
360.57	36.654
360.93	35.615
361.29	34.392
361.66	33.282
362.02	34.104
362.38	34.981
362.74	35.268
363.10	33.827
363.46	35.143
363.82	34.467
364.18	35.095
364.54	35.884
364.90	34.490
365.26	35.000
365.62	33.601
365.98	33.820
366.35	33.238
366.71	33.984
367.07	35.688
367.43	35.559
367.79	35.118
368.15	35.129
368.51	33.503
368.87	34.118
369.23	34.894
369.59	35.192
369.95	34.191
370.31	34.259
370.67	34.058
371.03	33.783
371.39	34.913
371.75	35.956
372.11	33.499
372.47	35.044
372.83	35.807
373.19	33.815
373.55	34.146
373.91	36.156
374.27	33.265
374.63	34.618
374.99	35.028
375.35	33.566
375.71	33.859
376.07	33.882
376.42	33.494
376.78	35.056
377.14	35.075
377.50	34.238
377.86	34.774
378.22	35.019
378.58	33.835
378.94	34.632
379.30	34.478
379.66	34.898
380.02	35.319
380.38	34.426
380.74	34.934
381.09	35.758
381.45	34.849
381.81	35.135
382.17	35.414
382.53	34.277
382.89	35.494
383.25	35.772
383.61	35.998
383.97	34.271
384.32	35.122
384.68	34.387
385.04	34.849
385.40	34.799
385.76	34.214
386.12	35.427
386.48	35.557
386.83	35.792
387.19	35.869
387.55	36.178
387.91	35.852
388.27	34.887
388.62	34.849
388.98	35.012
389.34	35.670
389.70	35.438
390.06	34.918
390.42	34.760
390.77	35.878
391.13	36.184
391.49	35.723
391.85	34.882
392.20	35.394
392.56	36.111
392.92	35.374
393.28	34.497
393.64	35.312
393.99	35.980
394.35	35.174
394.71	35.759
395.07	34.829
395.42	35.290
395.78	35.560
396.14	35.878
396.50	36.717
396.85	36.109
397.21	35.327
397.57	36.020
397.92	36.478
398.28	35.706
398.64	35.364
399.00	35.814
399.35	34.687
399.71	34.896
400.07	35.364
400.42	36.442
400.78	35.103
401.14	36.220
401.49	36.716
401.85	35.814
402.21	34.671
402.57	34.855
402.92	37.011
403.28	36.290
403.63	35.025
403.99	35.287
404.35	35.030
404.70	34.712
405.06	36.284
405.42	36.619
405.77	35.714
406.13	35.722
406.49	35.541
406.84	35.617
407.20	35.047
407.55	36.439
407.91	35.933
408.27	34.971
408.62	35.581
408.98	35.233
409.34	35.301
409.69	35.484
410.05	36.183
410.40	36.024
410.76	34.409
411.11	34.861
411.47	35.399
411.83	34.820
412.18	34.879
412.54	35.243
412.89	35.602
413.25	34.652
413.60	36.072
413.96	34.123
414.31	34.629
414.67	34.537
415.03	35.695
415.38	36.469
415.74	34.662
416.09	35.794
416.45	34.203
416.80	34.964
417.16	35.791
417.51	35.634
417.87	34.104
418.22	35.962
418.58	35.571
418.93	35.872
419.29	36.092
419.64	35.957
420.00	34.878
420.35	34.087
420.71	34.788
421.06	33.652
421.42	35.088
421.77	35.202
422.12	34.419
422.48	34.808
422.83	34.537
423.19	34.917
423.54	35.113
423.90	33.623
424.25	33.668
424.61	34.524
424.96	35.044
425.31	34.441
425.67	33.652
426.02	34.229
426.38	35.348
426.73	34.465
427.09	34.347
427.44	35.538
427.79	33.583
428.15	35.774
428.50	34.699
428.85	34.625
429.21	33.849
429.56	33.074
429.92	33.870
430.27	33.664
430.62	33.180
430.98	34.613
431.33	32.990
431.68	34.031
432.04	34.292
432.39	33.467
432.74	33.513
433.10	34.522
433.45	35.219
433.80	34.091
434.16	34.135
434.51	33.526
434.86	33.979
435.22	34.130
435.57	33.556
435.92	32.592
436.28	33.274
436.63	33.885
436.98	33.257
437.34	34.347
437.69	34.481
438.04	33.952
438.39	33.612
438.75	34.980
439.10	34.413
439.45	33.589
439.81	33.897
440.16	33.202
440.51	33.743
440.86	33.990
441.22	34.205
441.57	34.873
441.92	34.084
442.27	33.638
442.63	33.491
442.98	34.930
443.33	34.293
443.68	33.815
444.03	34.261
444.39	32.863
444.74	34.037
445.09	34.016
445.44	33.133
445.79	33.647
446.15	33.774
446.50	33.603
446.85	33.659
447.20	33.962
447.55	34.283
447.91	33.315
448.26	33.055
448.61	32.900
448.96	33.942
449.31	34.533
449.66	33.708
450.02	33.259
450.37	32.710
450.72	32.769
451.07	33.699
451.42	32.462
451.77	33.823
452.12	33.199
452.47	33.706
452.83	33.916
453.18	33.252
453.53	34.879
453.88	33.550
454.23	33.413
454.58	34.585
454.93	34.393
455.28	33.666
455.63	33.981
455.98	34.881
456.34	33.543
456.69	34.252
457.04	33.994
457.39	32.671
457.74	33.488
458.09	32.662
458.44	33.580
458.79	33.406
459.14	34.029
459.49	33.392
459.84	33.629
460.19	32.587
460.54	32.928
460.89	32.309
461.24	33.698
461.59	33.992
461.94	33.292
462.29	34.303
462.64	32.610
462.99	32.596
463.34	33.267
463.69	32.333
464.04	33.623
464.39	33.391
464.74	32.680
465.09	33.112
465.44	32.687
465.79	33.110
466.14	32.293
466.49	32.258
466.84	33.567
467.19	33.011
467.54	33.188
467.89	31.633
468.24	32.112
468.59	32.051
468.94	31.949
469.29	33.419
469.64	33.601
469.99	33.897
470.34	32.232
470.68	33.261
471.03	32.653
471.38	33.843
471.73	33.311
472.08	33.882
472.43	32.224
472.78	32.719
473.13	32.927
473.48	32.397
473.83	32.622
474.17	32.421
474.52	32.382
474.87	32.866
475.22	32.153
475.57	32.026
475.92	30.802
476.27	31.172
476.61	32.212
476.96	31.831
477.31	32.339
477.66	31.674
478.01	31.626
478.36	32.205
478.70	31.360
479.05	31.736
479.40	32.088
479.75	31.876
480.10	31.362
480.45	31.747
480.79	30.913
481.14	30.871
481.49	31.941
481.84	31.642
482.19	31.259
482.53	31.651
482.88	30.852
483.23	31.869
483.58	30.391
483.92	32.006
484.27	30.327
484.62	31.638
484.97	31.612
485.31	32.979
485.66	32.768
486.01	31.614
486.36	29.890
486.70	28.679
487.05	29.454
487.40	29.673
487.75	29.436
488.09	29.876
488.44	29.420
488.79	30.705
489.13	30.519
489.48	30.465
489.83	30.341
490.17	30.820
490.52	30.159
490.87	30.077
491.22	30.377
491.56	30.296
491.91	30.154
492.26	29.949
492.60	30.046
492.95	29.607
493.30	30.514
493.64	29.911
493.99	29.666
494.34	30.527
494.68	30.540
495.03	30.404
495.37	29.130
495.72	30.653
496.07	30.348
496.41	29.779
496.76	30.079
497.11	29.626
497.45	29.297
497.80	29.655
498.14	30.821
498.49	29.854
498.84	30.441
499.18	29.667
499.53	29.725
499.87	29.963
500.22	30.523
500.56	29.854
500.91	30.096
501.26	29.730
501.60	30.992
501.95	29.102
502.29	30.506
502.64	30.168
502.98	29.640
503.33	29.342
503.67	29.838
504.02	29.607
504.36	29.059
504.71	29.849
505.06	28.916
505.40	29.120
505.75	28.496
506.09	29.835
506.44	29.748
506.78	29.372
507.13	30.288
507.47	29.495
507.82	29.382
508.16	30.344
508.51	30.492
508.85	29.245
509.19	29.898
509.54	29.490
509.88	29.727
510.23	29.666
510.57	30.444
510.92	29.363
511.26	29.291
511.61	29.098
511.95	28.758
512.30	29.958
512.64	28.694
512.98	29.421
513.33	29.443
513.67	28.549
514.02	28.734
514.36	29.437
514.70	29.109
515.05	28.221
515.39	28.716
515.74	29.336
516.08	29.178
516.42	28.801
516.77	29.599
517.11	28.579
517.46	29.515
517.80	30.372
518.14	28.720
518.49	28.996
518.83	29.489
519.17	28.695
519.52	29.428
519.86	28.637
520.20	28.671
520.55	29.264
520.89	29.015
521.23	29.433
521.58	29.352
521.92	28.169
522.26	28.554
522.61	29.346
522.95	29.159
523.29	28.850
523.64	29.329
523.98	29.144
524.32	29.071
524.66	28.322
525.01	29.228
525.35	28.810
525.69	28.818
526.04	29.159
526.38	28.676
526.72	27.730
527.06	28.939
527.41	26.795
527.75	28.810
528.09	29.223
528.43	29.637
528.78	29.256
529.12	28.182
529.46	29.333
529.80	29.084
530.15	29.969
530.49	28.554
530.83	29.367
531.17	30.418
531.51	30.545
531.86	28.258
532.20	29.335
532.54	29.532
532.88	30.103
533.22	29.044
533.57	29.444
533.91	28.597
534.25	28.736
534.59	29.652
534.93	27.900
535.27	29.149
535.62	29.243
535.96	29.065
536.30	28.862
536.64	27.817
536.98	29.131
537.32	28.176
537.66	28.200
538.01	29.493
538.35	28.571
538.69	28.526
539.03	28.005
539.37	27.732
539.71	27.349
540.05	29.477
540.39	28.638
540.73	28.719
541.07	29.137
541.42	28.767
541.76	29.484
542.10	29.043
542.44	29.338
542.78	30.171
543.12	28.087
543.46	28.984
543.80	29.603
544.14	27.920
544.48	28.000
544.82	27.967
545.16	29.083
545.50	28.085
545.84	29.167
546.18	28.485
546.52	28.424
546.86	28.729
547.20	28.995
547.54	29.125
547.88	29.145
548.22	28.331
548.56	29.057
548.90	27.337
549.24	28.687
549.58	28.854
549.92	29.327
550.26	28.409
550.60	28.838
550.94	29.014
551.28	27.871
551.62	28.613
551.96	28.912
552.30	28.396
552.64	28.533
552.98	28.746
553.32	27.782
553.66	29.243
554.00	28.277
554.34	28.916
554.68	28.898
555.02	28.561
555.36	27.488
555.69	28.687
556.03	28.668
556.37	28.854
556.71	28.581
557.05	28.501
557.39	28.551
557.73	27.946
558.07	27.049
558.41	27.786
558.75	27.994
559.08	28.784
559.42	28.269
559.76	28.603
560.10	27.766
560.44	28.302
560.78	27.611
561.12	29.222
561.45	28.553
561.79	28.148
562.13	28.169
562.47	28.825
562.81	27.685
563.15	26.890
563.48	28.912
563.82	28.441
564.16	28.450
564.50	27.148
564.84	28.129
565.17	28.185
565.51	28.179
565.85	27.855
566.19	27.176
566.52	28.119
566.86	27.788
567.20	29.481
567.54	27.854
567.88	28.246
568.21	28.730
568.55	27.705
568.89	28.161
569.23	29.234
569.56	28.502
569.90	28.491
570.24	28.418
570.57	28.698
570.91	27.634
571.25	27.918
571.59	27.541
571.92	27.650
572.26	27.354
572.60	27.748
572.93	27.856
573.27	27.921
573.61	28.113
573.95	27.726
574.28	27.412
574.62	27.867
574.96	27.360
575.29	27.546
575.63	27.795
575.97	27.623
576.30	28.040
576.64	28.001
576.98	27.491
577.31	27.981
577.65	28.165
577.98	27.342
578.32	27.145
578.66	27.254
578.99	27.231
579.33	27.330
579.67	26.928
580.00	27.236
580.34	28.097
580.67	27.866
581.01	27.637
581.35	28.002
581.68	28.250
582.02	27.462
582.35	27.360
582.69	27.516
583.02	27.495
583.36	27.692
583.70	27.522
584.03	27.168
584.37	27.852
584.70	28.056
585.04	28.180
585.37	27.703
585.71	27.796
586.04	27.760
586.38	27.247
586.72	27.617
587.05	27.710
587.39	28.047
587.72	27.493
588.06	27.721
588.39	27.353
588.73	27.339
589.06	27.828
589.40	27.879
589.73	27.420
590.07	28.185
590.40	27.658
590.73	27.361
591.07	27.595
591.40	29.355
591.74	28.398
592.07	28.054
592.41	27.863
592.74	28.652
593.08	28.015
593.41	27.934
593.75	27.202
594.08	27.556
594.41	27.359
594.75	28.133
595.08	27.881
595.42	28.126
595.75	27.707
596.09	27.901
596.42	28.094
596.75	28.409
597.09	28.355
597.42	26.855
597.75	27.555
598.09	28.435
598.42	27.577
598.76	28.415
599.09	28.012
599.42	27.402
599.76	27.928
600.09	27.869
600.42	27.137
600.76	27.679
601.09	27.796
601.42	27.435
601.76	27.552
602.09	27.510
602.42	27.866
602.76	27.892
603.09	28.167
603.42	28.856
603.76	27.439
604.09	27.220
604.42	27.028
604.76	27.794
605.09	27.829
605.42	27.319
605.75	27.608
606.09	28.304
606.42	27.830
606.75	27.457
607.09	27.166
607.42	27.899
607.75	27.173
608.08	27.833
608.42	28.014
608.75	27.006
609.08	27.012
609.41	27.130
609.75	27.585
610.08	27.568
610.41	27.467
610.74	27.815
611.07	28.261
611.41	27.429
611.74	28.205
612.07	27.795
612.40	28.594
612.73	28.368
613.07	28.448
613.40	27.646
613.73	27.425
614.06	26.882
614.39	27.845
614.72	28.211
615.06	27.311
615.39	27.282
615.72	27.352
616.05	26.582
616.38	28.293
616.71	28.741
617.05	28.799
617.38	27.601
617.71	27.568
618.04	28.185
618.37	27.380
618.70	28.500
619.03	28.026
619.36	26.952
619.69	28.310
620.03	28.365
620.36	28.476
620.69	28.836
621.02	28.982
621.35	27.643
621.68	26.791
622.01	29.102
622.34	27.610
622.67	28.745
623.00	27.293
623.33	27.663
623.66	28.091
623.99	28.130
624.32	27.603
624.65	27.048
624.99	27.691
625.32	27.227
625.65	27.949
625.98	28.440
626.31	28.227
626.64	28.816
626.97	28.263
627.30	27.515
627.63	28.794
627.96	27.586
628.29	28.609
628.62	27.722
628.95	28.679
629.28	28.376
629.61	28.048
629.94	28.667
630.26	28.122
630.59	27.264
