SpectraSuite Data File
++++++++++++++++++++++++++++++++++++
Date: Wed May 13 16:40:30 PDT 2015
User: schluterlab
Dark Spectrum Present: Yes
Reference Spectrum Present: Yes
Number of Sampled Component Spectra: 1
Spectrometers: USB2E3373
Integration Time (usec): 3000 (USB2E3373)
Spectra Averaged: 3 (USB2E3373)
Boxcar Smoothing: 0 (USB2E3373)
Correct for Electrical Dark: No (USB2E3373)
Strobe/Lamp Enabled: No (USB2E3373)
Correct for Detector Non-linearity: No (USB2E3373)
Correct for Stray Light: No (USB2E3373)
Number of Pixels in Processed Spectrum: 2048
>>>>>Begin Processed Spectral Data<<<<<
178.53	0.000
178.91	-1500.000
179.29	-1350.000
179.67	-288.889
180.04	-1350.000
180.42	2750.000
180.80	1120.000
181.18	-925.000
181.56	685.714
181.94	0.000
182.31	-585.714
182.69	1766.667
183.07	-512.500
183.45	-588.889
183.83	472.727
184.20	-440.000
184.58	2700.000
184.96	6000.000
185.34	-820.000
185.72	-650.000
186.09	-2550.000
186.47	2650.000
186.85	2150.000
187.23	4800.000
187.61	-1900.000
187.98	1225.000
188.36	454.545
188.74	581.818
189.12	-1020.000
189.49	600.000
189.87	-5000.000
190.25	-1425.000
190.63	385.714
191.00	415.385
191.38	766.667
191.76	-1225.000
192.14	1325.000
192.51	587.500
192.89	1000.000
193.27	600.000
193.65	-1100.000
194.02	570.000
194.40	880.000
194.78	550.000
195.15	558.333
195.53	570.000
195.91	-2350.000
196.29	337.500
196.66	315.789
197.04	-430.000
197.42	0.000
197.79	640.000
198.17	-4300.000
198.55	642.857
198.92	687.500
199.30	980.000
199.68	0.000
200.05	377.778
200.43	771.429
200.81	4100.000
201.18	1733.333
201.56	-1633.333
201.94	611.111
202.31	544.444
202.69	500.000
203.07	590.000
203.44	0.000
203.82	1325.000
204.19	728.571
204.57	428.571
204.95	612.500
205.32	1533.333
205.70	490.909
206.08	414.286
206.45	2800.000
206.83	400.000
207.20	866.667
207.58	860.000
207.96	305.556
208.33	587.500
208.71	-783.333
209.08	828.571
209.46	666.667
209.84	390.909
210.21	-1766.667
210.59	1325.000
210.96	-437.500
211.34	3000.000
211.71	590.000
212.09	750.000
212.46	0.000
212.84	1933.333
213.22	1400.000
213.59	-5000.000
213.97	733.333
214.34	842.857
214.72	572.727
215.09	1080.000
215.47	-2400.000
215.84	-2850.000
216.22	1833.333
216.59	414.286
216.97	1125.000
217.34	481.818
217.72	-766.667
218.09	0.000
218.47	-4400.000
218.84	688.889
219.22	628.571
219.59	1566.667
219.97	-571.429
220.34	980.000
220.72	-1966.667
221.09	357.143
221.47	1550.000
221.84	-933.333
222.22	0.000
222.59	1525.000
222.97	-2850.000
223.34	1160.000
223.72	453.846
224.09	1140.000
224.46	2250.000
224.84	-5400.000
225.21	-780.000
225.59	-4000.000
225.96	560.000
226.34	365.000
226.71	2700.000
227.08	637.500
227.46	580.000
227.83	-1225.000
228.21	-2950.000
228.58	677.778
228.95	-2400.000
229.33	-2250.000
229.70	1900.000
230.08	714.286
230.45	-860.000
230.82	441.667
231.20	883.333
231.57	600.000
231.95	408.333
232.32	259.091
232.69	427.273
233.07	757.143
233.44	392.308
233.81	-1633.333
234.19	247.368
234.56	441.667
234.93	391.667
235.31	454.545
235.68	346.154
236.05	307.143
236.43	172.727
236.80	278.947
237.17	4400.000
237.55	233.333
237.92	228.571
238.29	209.524
238.67	180.645
239.04	179.310
239.41	166.667
239.79	106.522
240.16	135.714
240.53	140.909
240.91	78.431
241.28	112.000
241.65	100.000
242.02	91.304
242.40	79.032
242.77	101.667
243.14	76.344
243.51	74.157
243.89	63.529
244.26	56.667
244.63	56.989
245.00	65.957
245.38	63.366
245.75	47.664
246.12	47.706
246.49	56.934
246.87	55.200
247.24	48.462
247.61	40.714
247.98	43.137
248.36	38.514
248.73	33.121
249.10	41.401
249.47	37.288
249.84	38.503
250.22	39.572
250.59	32.544
250.96	34.848
251.33	34.597
251.70	33.663
252.08	33.810
252.45	30.493
252.82	31.304
253.19	30.638
253.56	32.157
253.94	32.365
254.31	28.906
254.68	31.154
255.05	29.520
255.42	27.236
255.79	29.779
256.16	28.881
256.54	26.502
256.91	28.826
257.28	24.460
257.65	28.053
258.02	26.087
258.39	22.397
258.76	23.746
259.14	24.702
259.51	23.100
259.88	22.981
260.25	26.586
260.62	22.543
260.99	24.224
261.36	21.622
261.73	25.501
262.10	25.581
262.47	24.789
262.85	24.791
263.22	23.077
263.59	20.513
263.96	19.231
264.33	26.110
264.70	22.632
265.07	21.228
265.44	22.727
265.81	20.195
266.18	22.864
266.55	22.195
266.92	22.604
267.29	21.991
267.66	20.183
268.03	21.818
268.40	21.495
268.77	21.002
269.14	19.369
269.51	20.767
269.88	19.580
270.25	18.736
270.62	19.101
270.99	22.366
271.36	18.884
271.73	18.925
272.10	19.130
272.47	20.000
272.84	20.779
273.21	21.174
273.58	17.031
273.95	18.239
274.32	18.182
274.69	19.486
275.06	18.307
275.43	21.064
275.80	20.040
276.17	18.941
276.54	19.127
276.91	19.368
277.28	17.969
277.65	15.667
278.02	20.083
278.39	20.117
278.76	18.182
279.13	17.736
279.50	19.181
279.87	15.737
280.23	18.363
280.60	17.988
280.97	16.636
281.34	18.584
281.71	19.455
282.08	18.234
282.45	16.364
282.82	17.762
283.19	16.578
283.56	17.895
283.92	16.920
284.29	16.402
284.66	17.786
285.03	16.456
285.40	15.317
285.77	17.508
286.14	15.544
286.51	18.500
286.87	17.094
287.24	19.055
287.61	14.607
287.98	16.234
288.35	16.165
288.72	15.888
289.08	16.432
289.45	15.157
289.82	17.561
290.19	14.600
290.56	14.395
290.93	15.710
291.29	15.491
291.66	16.667
292.03	16.279
292.40	16.740
292.77	16.272
293.13	15.373
293.50	16.035
293.87	13.481
294.24	15.704
294.60	14.265
294.97	14.971
295.34	16.361
295.71	13.778
296.08	14.387
296.44	12.930
296.81	13.738
297.18	15.989
297.55	12.929
297.91	14.512
298.28	14.592
298.65	15.796
299.02	14.361
299.38	14.343
299.75	11.725
300.12	13.410
300.48	12.250
300.85	12.700
301.22	15.159
301.59	12.500
301.95	13.980
302.32	13.222
302.69	13.620
303.05	12.606
303.42	12.716
303.79	12.231
304.15	12.121
304.52	12.051
304.89	13.589
305.25	12.645
305.62	13.137
305.99	13.577
306.35	13.311
306.72	12.220
307.09	13.541
307.45	13.626
307.82	11.161
308.19	12.693
308.55	13.161
308.92	13.212
309.29	11.510
309.65	11.983
310.02	13.425
310.38	11.720
310.75	13.622
311.12	12.794
311.48	13.166
311.85	14.046
312.22	13.111
312.58	11.746
312.95	13.200
313.31	12.136
313.68	13.098
314.05	13.511
314.41	14.472
314.78	13.494
315.14	12.810
315.51	12.873
315.87	13.861
316.24	13.505
316.61	12.671
316.97	12.720
317.34	12.622
317.70	13.193
318.07	12.993
318.43	13.209
318.80	14.433
319.16	13.183
319.53	12.664
319.89	15.238
320.26	13.300
320.62	14.782
320.99	13.333
321.35	13.939
321.72	15.195
322.08	14.018
322.45	14.328
322.81	15.213
323.18	16.474
323.54	14.378
323.91	14.434
324.27	14.532
324.64	13.793
325.00	13.255
325.37	15.196
325.73	15.440
326.10	14.828
326.46	13.799
326.83	15.962
327.19	15.030
327.56	14.634
327.92	15.311
328.29	15.439
328.65	15.930
329.01	14.982
329.38	14.986
329.74	16.066
330.11	14.797
330.47	15.427
330.84	16.544
331.20	15.574
331.56	15.780
331.93	15.648
332.29	16.149
332.66	16.460
333.02	15.539
333.38	15.989
333.75	15.954
334.11	16.014
334.48	15.617
334.84	15.257
335.20	15.364
335.57	16.410
335.93	14.732
336.29	14.469
336.66	14.968
337.02	14.570
337.38	16.019
337.75	14.528
338.11	15.309
338.47	15.378
338.84	16.407
339.20	14.128
339.56	15.785
339.93	14.636
340.29	14.130
340.65	16.132
341.02	15.445
341.38	15.480
341.74	14.123
342.11	16.419
342.47	15.595
342.83	15.068
343.20	15.758
343.56	15.417
343.92	14.825
344.28	15.306
344.65	14.961
345.01	14.478
345.37	14.494
345.73	15.482
346.10	16.113
346.46	15.169
346.82	15.239
347.19	14.620
347.55	13.957
347.91	14.725
348.27	15.366
348.63	14.632
349.00	14.078
349.36	15.435
349.72	15.156
350.08	14.506
350.45	14.646
350.81	15.353
351.17	14.749
351.53	13.923
351.89	14.604
352.26	15.233
352.62	14.836
352.98	14.425
353.34	15.119
353.70	13.093
354.07	15.081
354.43	15.317
354.79	14.401
355.15	15.243
355.51	15.108
355.87	15.592
356.24	15.391
356.60	15.317
356.96	14.883
357.32	15.944
357.68	15.197
358.04	14.173
358.40	15.439
358.77	15.258
359.13	14.207
359.49	14.353
359.85	13.651
360.21	15.391
360.57	15.019
360.93	14.923
361.29	14.966
361.66	13.777
362.02	14.701
362.38	15.589
362.74	14.583
363.10	14.286
363.46	14.747
363.82	15.117
364.18	15.272
364.54	14.487
364.90	15.793
365.26	15.294
365.62	15.047
365.98	15.121
366.35	14.828
366.71	14.751
367.07	15.586
367.43	15.239
367.79	15.703
368.15	16.739
368.51	15.480
368.87	15.346
369.23	15.069
369.59	15.641
369.95	14.485
370.31	15.598
370.67	16.014
371.03	16.255
371.39	15.598
371.75	15.956
372.11	15.647
372.47	17.522
372.83	15.346
373.19	16.113
373.55	16.112
373.91	16.568
374.27	15.945
374.63	16.145
374.99	17.020
375.35	15.911
375.71	16.313
376.07	16.804
376.42	17.538
376.78	17.097
377.14	17.300
377.50	17.285
377.86	16.024
378.22	17.320
378.58	16.103
378.94	16.593
379.30	16.349
379.66	16.688
380.02	17.506
380.38	16.029
380.74	16.987
381.09	17.237
381.45	17.824
381.81	18.243
382.17	17.771
382.53	17.987
382.89	18.580
383.25	18.512
383.61	17.906
383.97	18.324
384.32	18.653
384.68	18.154
385.04	18.808
385.40	17.709
385.76	19.902
386.12	18.523
386.48	20.013
386.83	20.077
387.19	20.346
387.55	19.975
387.91	19.589
388.27	19.436
388.62	21.020
388.98	19.595
389.34	20.401
389.70	19.497
390.06	20.469
390.42	19.390
390.77	20.102
391.13	19.592
391.49	21.129
391.85	20.306
392.20	20.063
392.56	21.086
392.92	20.483
393.28	20.178
393.64	20.564
393.99	20.770
394.35	21.340
394.71	21.142
395.07	20.685
395.42	21.446
395.78	21.947
396.14	21.850
396.50	22.431
396.85	22.886
397.21	21.825
397.57	22.133
397.92	22.416
398.28	21.132
398.64	22.700
399.00	21.600
399.35	21.715
399.71	21.817
400.07	22.117
400.42	23.006
400.78	23.040
401.14	21.707
401.49	22.388
401.85	22.142
402.21	22.335
402.57	22.270
402.92	23.644
403.28	22.798
403.63	23.205
403.99	22.420
404.35	23.091
404.70	22.962
405.06	22.831
405.42	23.456
405.77	22.171
406.13	22.460
406.49	23.714
406.84	23.095
407.20	23.345
407.55	23.357
407.91	24.000
408.27	23.676
408.62	24.684
408.98	23.958
409.34	22.632
409.69	23.419
410.05	23.606
410.40	24.404
410.76	23.895
411.11	23.764
411.47	23.898
411.83	24.068
412.18	24.304
412.54	24.035
412.89	24.096
413.25	24.026
413.60	24.583
413.96	23.558
414.31	24.241
414.67	25.095
415.03	23.642
415.38	25.064
415.74	24.630
416.09	25.147
416.45	24.766
416.80	25.050
417.16	25.603
417.51	25.879
417.87	24.920
418.22	25.804
418.58	25.629
418.93	24.570
419.29	24.761
419.64	25.126
420.00	24.451
420.35	25.623
420.71	26.001
421.06	25.358
421.42	24.444
421.77	25.785
422.12	24.312
422.48	24.447
422.83	25.976
423.19	25.912
423.54	25.131
423.90	25.159
424.25	25.126
424.61	24.583
424.96	24.898
425.31	25.581
425.67	24.382
426.02	24.457
426.38	26.252
426.73	25.278
427.09	26.383
427.44	25.244
427.79	25.589
428.15	25.952
428.50	26.039
428.85	25.924
429.21	26.008
429.56	25.246
429.92	24.358
430.27	24.926
430.62	25.294
430.98	25.739
431.33	25.155
431.68	26.178
432.04	25.453
432.39	26.956
432.74	26.152
433.10	25.920
433.45	26.297
433.80	26.109
434.16	26.015
434.51	26.105
434.86	26.682
435.22	26.515
435.57	26.930
435.92	26.507
436.28	27.165
436.63	26.545
436.98	26.216
437.34	26.834
437.69	26.254
438.04	25.857
438.39	26.985
438.75	27.252
439.10	26.536
439.45	26.387
439.81	26.586
440.16	26.595
440.51	26.655
440.86	26.867
441.22	26.085
441.57	26.752
441.92	26.561
442.27	26.642
442.63	26.435
442.98	28.056
443.33	26.033
443.68	26.691
444.03	27.965
444.39	26.241
444.74	26.948
445.09	27.062
445.44	26.845
445.79	26.373
446.15	27.581
446.50	27.464
446.85	26.773
447.20	27.588
447.55	26.968
447.91	26.917
448.26	26.989
448.61	27.756
448.96	27.852
449.31	28.346
449.66	27.575
450.02	26.852
450.37	27.608
450.72	27.411
451.07	26.204
451.42	27.538
451.77	27.775
452.12	27.309
452.47	27.736
452.83	27.855
453.18	26.895
453.53	28.262
453.88	27.820
454.23	28.392
454.58	29.376
454.93	28.671
455.28	28.304
455.63	27.973
455.98	29.286
456.34	28.643
456.69	28.115
457.04	28.359
457.39	28.404
457.74	28.439
458.09	27.890
458.44	28.449
458.79	27.657
459.14	28.668
459.49	28.138
459.84	27.756
460.19	28.226
460.54	27.083
460.89	27.482
461.24	28.597
461.59	30.215
461.94	27.127
462.29	28.961
462.64	27.377
462.99	28.692
463.34	29.067
463.69	28.831
464.04	29.275
464.39	27.884
464.74	28.223
465.09	27.925
465.44	28.033
465.79	28.132
466.14	28.024
466.49	27.197
466.84	28.780
467.19	28.666
467.54	28.688
467.89	28.331
468.24	28.796
468.59	29.365
468.94	27.795
469.29	29.177
469.64	29.719
469.99	29.229
470.34	29.590
470.68	29.885
471.03	30.136
471.38	30.160
471.73	30.513
472.08	30.921
472.43	28.832
472.78	30.678
473.13	29.461
473.48	29.089
473.83	29.207
474.17	29.620
474.52	28.722
474.87	29.072
475.22	29.251
475.57	29.285
475.92	27.934
476.27	28.749
476.61	29.399
476.96	28.642
477.31	29.042
477.66	29.376
478.01	28.489
478.36	29.455
478.70	29.076
479.05	29.233
479.40	28.915
479.75	28.724
480.10	27.982
480.45	28.129
480.79	27.950
481.14	29.599
481.49	28.714
481.84	28.669
482.19	29.487
482.53	28.578
482.88	28.990
483.23	29.112
483.58	28.753
483.92	28.866
484.27	28.279
484.62	28.922
484.97	28.183
485.31	28.733
485.66	27.409
486.01	25.608
486.36	24.283
486.70	24.359
487.05	25.056
487.40	26.200
487.75	26.862
488.09	27.328
488.44	27.085
488.79	28.535
489.13	28.342
489.48	28.670
489.83	29.003
490.17	29.110
490.52	28.654
490.87	28.856
491.22	28.877
491.56	28.565
491.91	28.618
492.26	28.939
492.60	29.124
492.95	28.625
493.30	28.879
493.64	29.305
493.99	28.552
494.34	28.677
494.68	29.579
495.03	29.652
495.37	29.362
495.72	29.337
496.07	30.070
496.41	27.611
496.76	29.244
497.11	28.726
497.45	28.412
497.80	29.463
498.14	29.807
498.49	29.171
498.84	29.434
499.18	29.333
499.53	29.772
499.87	29.031
500.22	29.439
500.56	29.466
500.91	29.760
501.26	29.872
501.60	30.280
501.95	28.964
502.29	29.663
502.64	30.028
502.98	29.126
503.33	28.885
503.67	29.234
504.02	29.186
504.36	28.825
504.71	29.702
505.06	30.217
505.40	29.752
505.75	29.315
506.09	29.738
506.44	29.551
506.78	29.420
507.13	30.439
507.47	31.010
507.82	30.800
508.16	29.990
508.51	30.949
508.85	30.288
509.19	29.745
509.54	29.847
509.88	30.139
510.23	30.231
510.57	31.682
510.92	30.295
511.26	30.319
511.61	30.654
511.95	30.741
512.30	29.958
512.64	31.596
512.98	30.868
513.33	31.156
513.67	30.576
514.02	30.844
514.36	31.895
514.70	31.212
515.05	31.456
515.39	31.071
515.74	31.588
516.08	32.253
516.42	31.687
516.77	32.664
517.11	30.633
517.46	31.659
517.80	32.346
518.14	31.268
518.49	32.264
518.83	31.989
519.17	31.409
519.52	31.126
519.86	32.630
520.20	32.601
520.55	32.496
520.89	33.820
521.23	32.750
521.58	32.773
521.92	33.313
522.26	32.337
522.61	32.710
522.95	31.921
523.29	32.562
523.64	33.415
523.98	32.717
524.32	33.052
524.66	32.892
525.01	32.966
525.35	33.271
525.69	32.081
526.04	33.084
526.38	33.984
526.72	32.638
527.06	33.333
527.41	31.064
527.75	33.312
528.09	33.654
528.43	34.226
528.78	33.497
529.12	32.182
529.46	33.252
529.80	34.344
530.15	33.583
530.49	32.677
530.83	33.861
531.17	34.987
531.51	34.241
531.86	33.613
532.20	34.224
532.54	33.696
532.88	34.467
533.22	32.480
533.57	33.951
533.91	32.450
534.25	31.956
534.59	32.459
534.93	32.778
535.27	32.468
535.62	33.394
535.96	33.836
536.30	32.422
536.64	32.518
536.98	34.174
537.32	32.916
537.66	34.067
538.01	34.365
538.35	33.484
538.69	34.461
539.03	32.814
539.37	30.927
539.71	31.692
540.05	32.418
540.39	32.359
540.73	32.536
541.07	33.225
541.42	33.464
541.76	33.226
542.10	32.859
542.44	32.914
542.78	33.399
543.12	31.286
543.46	33.443
543.80	32.661
544.14	32.092
544.48	33.206
544.82	31.879
545.16	32.791
545.50	32.134
545.84	32.594
546.18	33.401
546.52	34.549
546.86	33.196
547.20	34.053
547.54	33.267
547.88	33.610
548.22	31.694
548.56	31.761
548.90	32.010
549.24	33.670
549.58	33.902
549.92	33.379
550.26	32.955
550.60	33.195
550.94	33.803
551.28	32.846
551.62	33.142
551.96	33.614
552.30	33.720
552.64	33.671
552.98	33.424
553.32	32.232
553.66	33.129
554.00	33.631
554.34	33.609
554.68	33.619
555.02	33.216
555.36	32.637
555.69	32.341
556.03	32.571
556.37	32.265
556.71	32.606
557.05	32.283
557.39	33.730
557.73	32.957
558.07	34.445
558.41	32.851
558.75	33.946
559.08	32.811
559.42	33.258
559.76	33.309
560.10	33.262
560.44	33.054
560.78	32.468
561.12	31.662
561.45	32.595
561.79	30.719
562.13	31.858
562.47	31.762
562.81	33.403
563.15	32.508
563.48	32.228
563.82	33.268
564.16	32.505
564.50	32.943
564.84	31.100
565.17	31.660
565.51	32.332
565.85	31.916
566.19	30.996
566.52	32.932
566.86	31.163
567.20	32.134
567.54	30.822
567.88	29.821
568.21	30.635
568.55	29.778
568.89	29.767
569.23	29.456
569.56	28.623
569.90	28.302
570.24	27.772
570.57	26.964
570.91	26.568
571.25	26.868
571.59	26.568
571.92	26.440
572.26	26.430
572.60	27.147
572.93	26.177
573.27	26.205
573.61	26.857
573.95	26.124
574.28	25.754
574.62	25.462
574.96	25.305
575.29	25.461
575.63	25.584
575.97	26.061
576.30	26.606
576.64	25.752
576.98	26.057
577.31	25.208
577.65	25.429
577.98	24.990
578.32	24.305
578.66	24.864
578.99	24.857
579.33	25.176
579.67	25.006
580.00	25.677
580.34	25.415
580.67	25.597
581.01	25.703
581.35	24.913
581.68	24.642
582.02	24.401
582.35	24.575
582.69	24.503
583.02	24.775
583.36	25.086
583.70	25.425
584.03	25.104
584.37	26.271
584.70	26.228
585.04	25.416
585.37	25.349
585.71	25.376
586.04	24.668
586.38	25.705
586.72	25.932
587.05	25.292
587.39	25.224
587.72	25.225
588.06	26.094
588.39	25.679
588.73	25.550
589.06	26.083
589.40	26.431
589.73	26.258
590.07	26.548
590.40	25.941
590.73	27.088
591.07	27.513
591.40	27.035
591.74	27.965
592.07	26.876
592.41	27.160
592.74	25.506
593.08	26.316
593.41	26.226
593.75	24.828
594.08	25.880
594.41	26.723
594.75	26.248
595.08	25.591
595.42	26.165
595.75	26.211
596.09	26.173
596.42	26.758
596.75	27.818
597.09	27.446
597.42	26.560
597.75	26.951
598.09	26.957
598.42	26.718
598.76	26.429
599.09	25.314
599.42	25.291
599.76	25.329
600.09	25.100
600.42	25.712
600.76	25.464
601.09	25.064
601.42	25.685
601.76	25.465
602.09	26.285
602.42	26.553
602.76	26.683
603.09	25.964
603.42	26.005
603.76	25.953
604.09	25.630
604.42	26.213
604.76	27.077
605.09	26.824
605.42	26.507
605.75	26.407
606.09	25.824
606.42	25.950
606.75	26.255
607.09	25.952
607.42	25.674
607.75	25.190
608.08	25.879
608.42	26.894
608.75	25.834
609.08	26.503
609.41	26.273
609.75	26.346
610.08	26.767
610.41	25.885
610.74	26.727
611.07	27.174
611.41	26.644
611.74	27.401
612.07	28.106
612.40	27.702
612.73	26.263
613.07	27.802
613.40	27.014
613.73	26.586
614.06	27.419
614.39	26.953
614.72	26.895
615.06	27.416
615.39	27.123
615.72	26.534
616.05	26.103
616.38	26.793
616.71	27.613
617.05	28.269
617.38	27.300
617.71	27.748
618.04	28.786
618.37	27.617
618.70	27.754
619.03	28.684
619.36	28.581
619.69	29.085
620.03	29.052
620.36	28.610
620.69	28.562
621.02	28.466
621.35	29.052
621.68	27.882
622.01	30.031
622.34	29.576
622.67	28.365
623.00	27.586
623.33	27.877
623.66	28.163
623.99	30.265
624.32	27.746
624.65	28.672
624.99	27.691
625.32	27.154
625.65	29.452
625.98	29.516
626.31	28.460
626.64	30.612
626.97	30.175
627.30	30.341
627.63	30.353
627.96	30.866
628.29	30.884
628.62	31.747
628.95	32.642
629.28	31.752
629.61	31.806
629.94	32.571
630.26	30.410
630.59	30.029
630.92	31.034
