SpectraSuite Data File
++++++++++++++++++++++++++++++++++++
Date: Wed May 13 16:25:25 PDT 2015
User: schluterlab
Dark Spectrum Present: Yes
Reference Spectrum Present: Yes
Number of Sampled Component Spectra: 1
Spectrometers: USB2E3373
Integration Time (usec): 3000 (USB2E3373)
Spectra Averaged: 3 (USB2E3373)
Boxcar Smoothing: 0 (USB2E3373)
Correct for Electrical Dark: No (USB2E3373)
Strobe/Lamp Enabled: No (USB2E3373)
Correct for Detector Non-linearity: No (USB2E3373)
Correct for Stray Light: No (USB2E3373)
Number of Pixels in Processed Spectrum: 2048
>>>>>Begin Processed Spectral Data<<<<<
178.53	0.000
178.91	-1225.000
179.29	-1200.000
179.67	-238.889
180.04	-1225.000
180.42	2250.000
180.80	1060.000
181.18	-1100.000
181.56	600.000
181.94	0.000
182.31	-642.857
182.69	1333.333
183.07	-500.000
183.45	-511.111
183.83	490.909
184.20	-440.000
184.58	1950.000
184.96	4900.000
185.34	-880.000
185.72	-525.000
186.09	-2500.000
186.47	2700.000
186.85	2700.000
187.23	4500.000
187.61	-1500.000
187.98	1475.000
188.36	563.636
188.74	518.182
189.12	-1060.000
189.49	600.000
189.87	-4900.000
190.25	-1025.000
190.63	378.571
191.00	400.000
191.38	766.667
191.76	-1000.000
192.14	1475.000
192.51	625.000
192.89	1000.000
193.27	587.500
193.65	-1050.000
194.02	490.000
194.40	920.000
194.78	580.000
195.15	525.000
195.53	600.000
195.91	-1850.000
196.29	275.000
196.66	305.263
197.04	-380.000
197.42	0.000
197.79	650.000
198.17	-4600.000
198.55	542.857
198.92	625.000
199.30	820.000
199.68	0.000
200.05	327.778
200.43	742.857
200.81	3500.000
201.18	1566.667
201.56	-1266.667
201.94	522.222
202.31	666.667
202.69	375.000
203.07	470.000
203.44	0.000
203.82	1075.000
204.19	785.714
204.57	450.000
204.95	575.000
205.32	1366.667
205.70	445.455
206.08	378.571
206.45	2650.000
206.83	350.000
207.20	783.333
207.58	800.000
207.96	311.111
208.33	650.000
208.71	-950.000
209.08	657.143
209.46	677.778
209.84	436.364
210.21	-1333.333
210.59	1450.000
210.96	-587.500
211.34	2050.000
211.71	560.000
212.09	733.333
212.46	0.000
212.84	1666.667
213.22	1125.000
213.59	-3700.000
213.97	816.667
214.34	800.000
214.72	536.364
215.09	1000.000
215.47	-1750.000
215.84	-2200.000
216.22	1966.667
216.59	407.143
216.97	1100.000
217.34	463.636
217.72	-733.333
218.09	0.000
218.47	-4100.000
218.84	611.111
219.22	642.857
219.59	1766.667
219.97	-642.857
220.34	1020.000
220.72	-1500.000
221.09	328.571
221.47	1275.000
221.84	-1000.000
222.22	0.000
222.59	1275.000
222.97	-2150.000
223.34	920.000
223.72	407.692
224.09	1020.000
224.46	2700.000
224.84	-4800.000
225.21	-940.000
225.59	-4500.000
225.96	540.000
226.34	325.000
226.71	2550.000
227.08	625.000
227.46	480.000
227.83	-900.000
228.21	-2050.000
228.58	522.222
228.95	-2500.000
229.33	-2050.000
229.70	1533.333
230.08	657.143
230.45	-820.000
230.82	441.667
231.20	866.667
231.57	571.429
231.95	433.333
232.32	231.818
232.69	418.182
233.07	542.857
233.44	300.000
233.81	-1300.000
234.19	257.895
234.56	366.667
234.93	358.333
235.31	381.818
235.68	284.615
236.05	300.000
236.43	142.424
236.80	215.789
237.17	3700.000
237.55	219.048
237.92	214.286
238.29	233.333
238.67	132.258
239.04	168.966
239.41	133.333
239.79	106.522
240.16	107.143
240.53	115.909
240.91	70.588
241.28	92.000
241.65	76.000
242.02	68.116
242.40	56.452
242.77	68.333
243.14	65.591
243.51	78.652
243.89	58.824
244.26	52.222
244.63	47.312
245.00	43.617
245.38	52.475
245.75	42.991
246.12	34.862
246.49	45.255
246.87	49.600
247.24	40.769
247.61	35.714
247.98	39.216
248.36	28.378
248.73	36.306
249.10	38.854
249.47	32.768
249.84	33.690
250.22	29.947
250.59	34.911
250.96	26.768
251.33	32.227
251.70	29.208
252.08	26.190
252.45	24.215
252.82	28.261
253.19	25.957
253.56	23.529
253.94	27.801
254.31	22.266
254.68	26.154
255.05	22.509
255.42	20.732
255.79	22.794
256.16	22.744
256.54	21.555
256.91	22.420
257.28	17.986
257.65	19.142
258.02	19.565
258.39	22.082
258.76	19.064
259.14	19.643
259.51	20.061
259.88	12.733
260.25	15.408
260.62	19.653
260.99	17.702
261.36	21.622
261.73	18.338
262.10	18.023
262.47	18.310
262.85	15.877
263.22	12.536
263.59	17.949
263.96	17.033
264.33	19.582
264.70	17.105
265.07	20.205
265.44	14.394
265.81	16.058
266.18	16.332
266.55	15.854
266.92	16.216
267.29	18.056
267.66	13.761
268.03	17.045
268.40	13.084
268.77	15.036
269.14	13.514
269.51	17.833
269.88	13.054
270.25	12.190
270.62	17.303
270.99	16.774
271.36	14.592
271.73	10.514
272.10	15.217
272.47	13.333
272.84	14.719
273.21	13.627
273.58	14.192
273.95	11.740
274.32	12.397
274.69	11.563
275.06	12.992
275.43	14.255
275.80	14.629
276.17	11.813
276.54	15.800
276.91	14.032
277.28	12.305
277.65	14.507
278.02	12.215
278.39	14.453
278.76	13.455
279.13	12.642
279.50	15.456
279.87	14.143
280.23	12.974
280.60	11.219
280.97	12.754
281.34	11.150
281.71	13.455
282.08	13.820
282.45	11.455
282.82	13.321
283.19	11.943
283.56	11.404
283.92	14.890
284.29	11.640
284.66	11.797
285.03	11.212
285.40	11.444
285.77	11.953
286.14	11.054
286.51	11.833
286.87	12.479
287.24	12.541
287.61	10.915
287.98	12.987
288.35	12.203
288.72	11.838
289.08	11.268
289.45	11.038
289.82	11.870
290.19	9.105
290.56	11.639
290.93	9.366
291.29	11.350
291.66	10.324
292.03	13.081
292.40	11.747
292.77	10.207
293.13	11.343
293.50	10.350
293.87	11.111
294.24	10.370
294.60	8.879
294.97	10.465
295.34	11.142
295.71	11.080
296.08	10.826
296.44	9.491
296.81	8.587
297.18	9.485
297.55	8.179
297.91	8.839
298.28	9.772
298.65	9.530
299.02	9.750
299.38	9.163
299.75	7.547
300.12	8.429
300.48	9.000
300.85	9.248
301.22	9.554
301.59	7.828
301.95	10.202
302.32	8.729
302.69	9.797
303.05	9.697
303.42	8.395
303.79	9.060
304.15	7.343
304.52	6.952
304.89	8.479
305.25	8.237
305.62	9.853
305.99	8.028
306.35	8.389
306.72	9.305
307.09	8.657
307.45	10.248
307.82	8.147
308.19	9.161
308.55	8.522
308.92	8.271
309.29	8.131
309.65	8.165
310.02	8.562
310.38	9.247
310.75	8.765
311.12	8.086
311.48	9.404
311.85	9.644
312.22	8.117
312.58	8.420
312.95	8.553
313.31	7.476
313.68	7.484
314.05	10.552
314.41	9.045
314.78	9.567
315.14	8.640
315.51	9.784
315.87	9.406
316.24	8.342
316.61	9.064
316.97	9.002
317.34	8.121
317.70	8.604
318.07	9.528
318.43	9.491
318.80	9.185
319.16	8.380
319.53	8.161
319.89	9.905
320.26	10.100
320.62	9.821
320.99	9.596
321.35	8.586
321.72	9.240
322.08	10.958
322.45	11.244
322.81	10.659
323.18	10.694
323.54	9.833
323.91	11.509
324.27	10.803
324.64	8.667
325.00	10.189
325.37	10.100
325.73	11.221
326.10	10.062
326.46	9.409
326.83	10.267
327.19	10.845
327.56	9.843
327.92	10.324
328.29	11.091
328.65	10.773
329.01	9.296
329.38	9.528
329.74	9.880
330.11	9.896
330.47	10.285
330.84	10.386
331.20	10.747
331.56	10.826
331.93	10.556
332.29	11.358
332.66	10.442
333.02	10.238
333.38	10.208
333.75	10.963
334.11	10.231
334.48	9.938
334.84	9.467
335.20	10.818
335.57	10.063
335.93	9.375
336.29	9.707
336.66	10.009
337.02	9.955
337.38	9.722
337.75	9.893
338.11	9.669
338.47	9.484
338.84	9.991
339.20	8.991
339.56	10.128
339.93	9.364
340.29	9.511
340.65	10.250
341.02	10.384
341.38	10.053
341.74	8.947
342.11	9.345
342.47	9.692
342.83	10.017
343.20	10.216
343.56	9.604
343.92	9.912
344.28	9.949
344.65	9.200
345.01	9.428
345.37	8.919
345.73	9.983
346.10	9.037
346.46	9.153
346.82	9.885
347.19	8.521
347.55	8.949
347.91	9.790
348.27	9.532
348.63	10.117
349.00	8.738
349.36	8.210
349.72	9.543
350.08	8.428
350.45	9.357
350.81	9.017
351.17	9.724
351.53	9.419
351.89	8.333
352.26	9.866
352.62	9.543
352.98	8.509
353.34	9.203
353.70	8.020
354.07	8.710
354.43	8.492
354.79	8.045
355.15	9.258
355.51	9.752
355.87	9.224
356.24	8.388
356.60	8.500
356.96	7.401
357.32	9.321
357.68	8.740
358.04	8.076
358.40	9.660
358.77	8.294
359.13	8.129
359.49	9.333
359.85	7.460
360.21	7.815
360.57	8.872
360.93	9.538
361.29	8.919
361.66	8.127
362.02	8.582
362.38	8.441
362.74	8.780
363.10	7.476
363.46	8.291
363.82	7.785
364.18	8.664
364.54	8.395
364.90	9.490
365.26	7.868
365.62	7.889
365.98	7.305
366.35	8.596
366.71	9.255
367.07	8.084
367.43	8.128
367.79	7.923
368.15	8.980
368.51	7.267
368.87	8.137
369.23	8.047
369.59	7.965
369.95	8.382
370.31	8.262
370.67	8.913
371.03	8.989
371.39	8.455
371.75	8.235
372.11	8.606
372.47	8.724
372.83	8.790
373.19	8.237
373.55	8.500
373.91	9.573
374.27	7.973
374.63	8.655
374.99	8.545
375.35	8.234
375.71	8.088
376.07	8.916
376.42	7.428
376.78	8.615
377.14	8.955
377.50	8.742
377.86	6.915
378.22	8.660
378.58	7.581
378.94	7.857
379.30	7.952
379.66	8.439
380.02	8.477
380.38	7.347
380.74	8.283
381.09	8.130
381.45	8.789
381.81	9.091
382.17	8.471
382.53	8.113
382.89	9.012
383.25	8.255
383.61	8.984
383.97	8.318
384.32	8.484
384.68	8.116
385.04	8.297
385.40	8.793
385.76	8.047
386.12	7.772
386.48	8.307
386.83	7.890
387.19	8.411
387.55	8.596
387.91	8.888
388.27	8.400
388.62	8.851
388.98	8.477
389.34	9.262
389.70	8.522
390.06	8.745
390.42	9.403
390.77	9.224
391.13	8.551
391.49	8.693
391.85	8.530
392.20	7.950
392.56	8.460
392.92	9.064
393.28	6.746
393.64	8.213
393.99	8.858
394.35	7.816
394.71	8.532
395.07	8.411
395.42	7.911
395.78	9.097
396.14	8.690
396.50	8.960
396.85	9.091
397.21	8.446
397.57	8.617
397.92	8.413
398.28	7.455
398.64	8.901
399.00	8.674
399.35	8.065
399.71	8.738
400.07	9.284
400.42	8.773
400.78	9.107
401.14	8.171
401.49	8.955
401.85	8.167
402.21	7.904
402.57	8.452
402.92	8.197
403.28	8.620
403.63	8.230
403.99	9.045
404.35	8.667
404.70	8.094
405.06	8.445
405.42	7.860
405.77	8.514
406.13	8.296
406.49	8.752
406.84	7.915
407.20	7.742
407.55	8.807
407.91	8.467
408.27	8.679
408.62	8.549
408.98	7.598
409.34	8.118
409.69	9.097
410.05	7.807
410.40	8.257
410.76	8.483
411.11	8.685
411.47	8.179
411.83	8.735
412.18	8.225
412.54	8.406
412.89	9.036
413.25	8.501
413.60	8.400
413.96	7.772
414.31	8.931
414.67	8.365
415.03	8.808
415.38	9.601
415.74	8.424
416.09	8.622
416.45	8.233
416.80	8.394
417.16	9.182
417.51	8.626
417.87	7.964
418.22	9.211
418.58	8.844
418.93	8.415
419.29	8.148
419.64	8.942
420.00	8.902
420.35	8.754
420.71	8.488
421.06	8.115
421.42	8.187
421.77	8.520
422.12	7.692
422.48	8.419
422.83	8.212
423.19	8.674
423.54	8.183
423.90	8.290
424.25	8.487
424.61	8.810
424.96	8.571
425.31	8.306
425.67	8.427
426.02	8.057
426.38	8.120
426.73	8.250
427.09	8.328
427.44	8.108
427.79	7.706
428.15	8.274
428.50	8.192
428.85	8.701
429.21	8.007
429.56	8.243
429.92	7.398
430.27	7.349
430.62	7.578
430.98	7.836
431.33	8.814
431.68	8.377
432.04	8.253
432.39	8.452
432.74	8.139
433.10	8.206
433.45	7.988
433.80	7.206
434.16	7.906
434.51	7.789
434.86	8.609
435.22	8.338
435.57	8.328
435.92	7.958
436.28	8.363
436.63	8.278
436.98	8.071
437.34	8.706
437.69	9.335
438.04	8.825
438.39	8.060
438.75	8.600
439.10	8.324
439.45	7.910
439.81	8.036
440.16	8.075
440.51	9.432
440.86	8.454
441.22	7.564
441.57	8.227
441.92	7.881
442.27	8.127
442.63	8.741
442.98	8.732
443.33	8.696
443.68	8.312
444.03	8.150
444.39	8.033
444.74	7.955
445.09	8.302
445.44	8.529
445.79	9.005
446.15	8.576
446.50	7.862
446.85	8.273
447.20	8.159
447.55	8.319
447.91	8.660
448.26	8.180
448.61	8.649
448.96	9.192
449.31	8.155
449.66	8.554
450.02	8.078
450.37	8.730
450.72	8.065
451.07	8.105
451.42	7.903
451.77	9.395
452.12	8.314
452.47	8.271
452.83	8.333
453.18	8.619
453.53	8.844
453.88	8.033
454.23	8.607
454.58	9.025
454.93	9.663
455.28	8.479
455.63	8.131
455.98	10.179
456.34	8.794
456.69	9.267
457.04	9.040
457.39	8.182
457.74	8.358
458.09	9.028
458.44	8.552
458.79	8.406
459.14	8.747
459.49	8.231
459.84	8.366
460.19	8.309
460.54	7.986
460.89	8.393
461.24	8.804
461.59	9.123
461.94	8.693
462.29	9.318
462.64	8.998
462.99	8.458
463.34	9.200
463.69	8.818
464.04	8.406
464.39	8.986
464.74	8.794
465.09	8.082
465.44	8.255
465.79	7.718
466.14	8.539
466.49	8.065
466.84	9.340
467.19	9.053
467.54	9.063
467.89	8.764
468.24	8.959
468.59	9.402
468.94	8.002
469.29	8.805
469.64	9.036
469.99	8.390
470.34	8.388
470.68	8.980
471.03	8.367
471.38	8.339
471.73	8.594
472.08	9.539
472.43	9.485
472.78	8.558
473.13	8.858
473.48	8.489
473.83	8.780
474.17	8.152
474.52	8.561
474.87	9.107
475.22	8.648
475.57	8.651
475.92	8.019
476.27	7.892
476.61	7.667
476.96	8.356
477.31	8.216
477.66	8.643
478.01	8.521
478.36	8.038
478.70	8.100
479.05	8.839
479.40	8.547
479.75	7.982
480.10	8.400
480.45	7.853
480.79	7.692
481.14	8.268
481.49	7.641
481.84	7.453
482.19	7.724
482.53	8.119
482.88	7.725
483.23	7.617
483.58	8.553
483.92	7.966
484.27	6.928
484.62	7.974
484.97	7.647
485.31	7.568
485.66	6.834
486.01	6.024
486.36	5.769
486.70	5.930
487.05	6.360
487.40	6.639
487.75	6.599
488.09	7.461
488.44	7.305
488.79	7.378
489.13	7.296
489.48	7.463
489.83	7.898
490.17	7.979
490.52	6.909
490.87	7.327
491.22	8.367
491.56	6.834
491.91	7.818
492.26	7.074
492.60	7.650
492.95	6.782
493.30	7.991
493.64	7.979
493.99	7.753
494.34	8.002
494.68	8.104
495.03	8.412
495.37	7.771
495.72	7.797
496.07	8.121
496.41	7.434
496.76	7.740
497.11	7.474
497.45	7.406
497.80	8.157
498.14	7.778
498.49	7.805
498.84	8.389
499.18	8.048
499.53	7.075
499.87	7.735
500.22	8.102
500.56	8.107
500.91	7.356
501.26	7.871
501.60	8.163
501.95	7.379
502.29	8.247
502.64	7.961
502.98	8.041
503.33	7.358
503.67	7.285
504.02	7.858
504.36	8.376
504.71	7.474
505.06	8.289
505.40	8.021
505.75	7.763
506.09	8.017
506.44	7.745
506.78	8.183
507.13	7.420
507.47	8.283
507.82	8.359
508.16	8.561
508.51	8.524
508.85	7.349
509.19	7.755
509.54	8.214
509.88	8.089
510.23	7.301
510.57	8.204
510.92	7.872
511.26	8.787
511.61	8.143
511.95	7.724
512.30	8.324
512.64	8.544
512.98	8.467
513.33	8.565
513.67	7.737
514.02	7.900
514.36	7.974
514.70	7.969
515.05	7.808
515.39	9.030
515.74	8.277
516.08	8.385
516.42	8.768
516.77	8.640
517.11	8.213
517.46	8.578
517.80	8.711
518.14	7.759
518.49	8.635
518.83	8.920
519.17	8.776
519.52	8.432
519.86	8.329
520.20	8.786
520.55	9.396
520.89	9.063
521.23	9.107
521.58	8.403
521.92	9.308
522.26	8.664
522.61	8.411
522.95	8.656
523.29	8.764
523.64	7.927
523.98	8.872
524.32	8.866
524.66	8.900
525.01	8.395
525.35	8.488
525.69	8.313
526.04	8.785
526.38	8.542
526.72	9.755
527.06	8.161
527.41	8.416
527.75	9.003
528.09	8.992
528.43	9.433
528.78	9.035
529.12	8.606
529.46	9.247
529.80	8.973
530.15	9.346
530.49	8.185
530.83	9.304
531.17	9.138
531.51	10.441
531.86	8.839
532.20	9.192
532.54	8.776
532.88	9.564
533.22	8.432
533.57	8.580
533.91	8.790
534.25	8.748
534.59	8.420
534.93	8.209
535.27	8.389
535.62	8.791
535.96	9.102
536.30	8.646
536.64	9.852
536.98	9.091
537.32	8.822
537.66	8.467
538.01	9.217
538.35	9.244
538.69	9.317
539.03	8.512
539.37	8.115
539.71	7.194
540.05	8.366
540.39	8.970
540.73	9.379
541.07	8.890
541.42	9.198
541.76	10.065
542.10	8.862
542.44	8.742
542.78	9.025
543.12	8.765
543.46	9.246
543.80	9.109
544.14	7.445
544.48	8.635
544.82	7.954
545.16	8.588
545.50	9.062
545.84	8.199
546.18	9.293
546.52	9.979
546.86	8.935
547.20	9.305
547.54	8.684
547.88	8.673
548.22	8.468
548.56	8.994
548.90	8.131
549.24	8.350
549.58	9.413
549.92	9.203
550.26	9.162
550.60	9.889
550.94	9.085
551.28	8.193
551.62	9.058
551.96	9.053
552.30	9.352
552.64	8.587
552.98	8.881
553.32	8.901
553.66	8.862
554.00	9.197
554.34	8.696
554.68	8.870
555.02	9.591
555.36	9.116
555.69	8.999
556.03	9.421
556.37	8.663
556.71	9.891
557.05	9.454
557.39	9.027
557.73	9.315
558.07	9.427
558.41	8.321
558.75	9.331
559.08	9.993
559.42	9.297
559.76	9.706
560.10	9.565
560.44	8.316
560.78	8.649
561.12	8.707
561.45	8.931
561.79	8.833
562.13	9.457
562.47	9.153
562.81	8.577
563.15	9.164
563.48	8.820
563.82	8.741
564.16	9.222
564.50	7.682
564.84	8.281
565.17	7.786
565.51	9.521
565.85	8.185
566.19	8.078
566.52	8.233
566.86	8.137
567.20	8.785
567.54	8.333
567.88	8.039
568.21	8.201
568.55	7.634
568.89	7.539
569.23	7.442
569.56	7.409
569.90	7.283
570.24	6.961
570.57	7.072
570.91	6.852
571.25	6.516
571.59	6.480
571.92	6.596
572.26	6.672
572.60	6.787
572.93	6.837
573.27	6.980
573.61	6.812
573.95	7.054
574.28	6.407
574.62	6.220
574.96	6.093
575.29	6.402
575.63	6.275
575.97	6.639
576.30	6.824
576.64	6.368
576.98	6.053
577.31	6.400
577.65	6.276
577.98	6.293
578.32	5.957
578.66	6.205
578.99	6.323
579.33	6.197
579.67	6.349
580.00	6.473
580.34	6.407
580.67	6.571
581.01	6.521
581.35	6.198
581.68	6.230
582.02	5.965
582.35	5.967
582.69	6.159
583.02	6.047
583.36	6.456
583.70	6.319
584.03	6.400
584.37	6.983
584.70	6.479
585.04	6.898
585.37	6.500
585.71	6.602
586.04	6.451
586.38	6.557
586.72	6.573
587.05	6.683
587.39	6.359
587.72	6.442
588.06	6.617
588.39	6.914
588.73	6.923
589.06	6.949
589.40	7.003
589.73	6.864
590.07	7.046
590.40	6.759
590.73	7.143
591.07	7.285
591.40	7.592
591.74	7.403
592.07	7.810
592.41	7.730
592.74	7.228
593.08	6.829
593.41	6.675
593.75	6.558
594.08	7.040
594.41	7.140
594.75	6.580
595.08	7.194
595.42	7.285
595.75	6.980
596.09	7.811
596.42	7.976
596.75	7.218
597.09	8.095
597.42	7.083
597.75	7.460
598.09	8.043
598.42	7.474
598.76	7.094
599.09	6.803
599.42	6.878
599.76	7.247
600.09	7.031
600.42	6.684
600.76	6.929
601.09	7.213
601.42	7.534
601.76	7.476
602.09	6.996
602.42	7.882
602.76	7.699
603.09	7.081
603.42	7.146
603.76	7.241
604.09	6.979
604.42	7.216
604.76	7.887
605.09	7.427
605.42	7.738
605.75	7.326
606.09	6.995
606.42	7.274
606.75	7.300
607.09	7.325
607.42	7.702
607.75	7.342
608.08	6.730
608.42	7.934
608.75	7.710
609.08	7.401
609.41	7.996
609.75	7.670
610.08	8.294
610.41	7.263
610.74	7.190
611.07	7.510
611.41	7.998
611.74	8.145
612.07	7.867
612.40	7.608
612.73	7.526
613.07	8.405
613.40	8.268
613.73	7.079
614.06	7.366
614.39	8.285
614.72	7.526
615.06	8.246
615.39	7.484
615.72	7.618
616.05	7.709
616.38	7.671
616.71	8.017
617.05	8.539
617.38	8.298
617.71	8.408
618.04	8.353
618.37	8.930
618.70	8.463
619.03	9.276
619.36	8.893
619.69	8.380
620.03	9.135
620.36	9.225
620.69	8.356
621.02	8.776
621.35	8.144
621.68	7.788
622.01	9.365
622.34	9.077
622.67	8.289
623.00	8.657
623.33	8.006
623.66	9.864
623.99	7.806
624.32	8.417
624.65	9.181
624.99	7.720
625.32	8.617
625.65	9.016
625.98	9.377
626.31	9.253
626.64	9.714
626.97	8.978
627.30	9.559
627.63	9.434
627.96	9.167
628.29	10.499
628.62	9.698
628.95	10.849
629.28	9.580
629.61	10.816
629.94	11.048
630.26	10.677
630.59	9.914
630.92	9.387
631.25	9.674
631.58	11.211
631.91	10.548
632.24	9.494
632.57	10.808
632.90	10.417
633.23	10.850
633.56	10.960
633.89	11.212
634.22	9.989
634.55	10.533
634.88	9.940
635.20	11.470
635.53	12.048
635.86	11.881
636.19	10.353
636.52	11.303
636.85	10.538
637.18	10.714
637.51	12.530
637.83	9.618
638.16	11.253
638.49	11.083
638.82	11.252
639.15	11.750
639.48	11.471
639.81	11.126
640.13	13.151
640.46	12.483
640.79	11.757
641.12	12.517
641.45	11.592
641.77	13.255
642.10	11.842
642.43	12.913
642.76	11.765
643.09	11.196
643.41	11.381
643.74	13.580
644.07	13.567
644.40	14.264
644.73	14.961
645.05	13.788
645.38	12.954
645.71	13.205
646.04	14.452
646.36	13.022
646.69	14.548
647.02	13.605
647.35	13.574
647.67	14.690
648.00	13.171
648.33	11.881
648.66	11.970
648.98	13.343
649.31	11.809
649.64	11.510
649.96	13.264
650.29	12.638
650.62	11.165
650.94	15.721
