SpectraSuite Data File
++++++++++++++++++++++++++++++++++++
Date: Wed May 13 16:34:35 PDT 2015
User: schluterlab
Dark Spectrum Present: Yes
Reference Spectrum Present: Yes
Number of Sampled Component Spectra: 1
Spectrometers: USB2E3373
Integration Time (usec): 3000 (USB2E3373)
Spectra Averaged: 3 (USB2E3373)
Boxcar Smoothing: 0 (USB2E3373)
Correct for Electrical Dark: No (USB2E3373)
Strobe/Lamp Enabled: No (USB2E3373)
Correct for Detector Non-linearity: No (USB2E3373)
Correct for Stray Light: No (USB2E3373)
Number of Pixels in Processed Spectrum: 2048
>>>>>Begin Processed Spectral Data<<<<<
178.53	0.000
178.91	-1175.000
179.29	-1375.000
179.67	-233.333
180.04	-1175.000
180.42	2300.000
180.80	980.000
181.18	-925.000
181.56	657.143
181.94	0.000
182.31	-728.571
182.69	1666.667
183.07	-550.000
183.45	-466.667
183.83	563.636
184.20	-380.000
184.58	2150.000
184.96	6300.000
185.34	-920.000
185.72	-500.000
186.09	-1850.000
186.47	2550.000
186.85	2350.000
187.23	4800.000
187.61	-1600.000
187.98	1350.000
188.36	409.091
188.74	472.727
189.12	-660.000
189.49	480.000
189.87	-4600.000
190.25	-1300.000
190.63	464.286
191.00	392.308
191.38	883.333
191.76	-1025.000
192.14	1300.000
192.51	562.500
192.89	916.667
193.27	600.000
193.65	-1050.000
194.02	580.000
194.40	820.000
194.78	570.000
195.15	491.667
195.53	680.000
195.91	-1600.000
196.29	331.250
196.66	321.053
197.04	-280.000
197.42	0.000
197.79	550.000
198.17	-4100.000
198.55	728.571
198.92	600.000
199.30	1000.000
199.68	0.000
200.05	333.333
200.43	728.571
200.81	4700.000
201.18	2000.000
201.56	-1300.000
201.94	522.222
202.31	522.222
202.69	408.333
203.07	550.000
203.44	0.000
203.82	1125.000
204.19	742.857
204.57	414.286
204.95	600.000
205.32	1366.667
205.70	454.545
206.08	307.143
206.45	2250.000
206.83	381.250
207.20	783.333
207.58	840.000
207.96	283.333
208.33	725.000
208.71	-800.000
209.08	814.286
209.46	588.889
209.84	463.636
210.21	-1366.667
210.59	1550.000
210.96	-462.500
211.34	2300.000
211.71	570.000
212.09	733.333
212.46	0.000
212.84	1733.333
213.22	1075.000
213.59	-4600.000
213.97	916.667
214.34	771.429
214.72	645.455
215.09	980.000
215.47	-2100.000
215.84	-2300.000
216.22	1833.333
216.59	371.429
216.97	1150.000
217.34	427.273
217.72	-733.333
218.09	0.000
218.47	-4400.000
218.84	722.222
219.22	700.000
219.59	1466.667
219.97	-471.429
220.34	1080.000
220.72	-1600.000
221.09	292.857
221.47	1400.000
221.84	-783.333
222.22	0.000
222.59	1225.000
222.97	-2350.000
223.34	1160.000
223.72	400.000
224.09	960.000
224.46	2100.000
224.84	-5600.000
225.21	-1240.000
225.59	-4800.000
225.96	670.000
226.34	250.000
226.71	2400.000
227.08	650.000
227.46	530.000
227.83	-1175.000
228.21	-1950.000
228.58	688.889
228.95	-2500.000
229.33	-2200.000
229.70	1666.667
230.08	800.000
230.45	-840.000
230.82	400.000
231.20	766.667
231.57	685.714
231.95	425.000
232.32	236.364
232.69	390.909
233.07	600.000
233.44	392.308
233.81	-1733.333
234.19	242.105
234.56	466.667
234.93	375.000
235.31	345.455
235.68	346.154
236.05	364.286
236.43	163.636
236.80	294.737
237.17	3500.000
237.55	214.286
237.92	239.286
238.29	209.524
238.67	170.968
239.04	186.207
239.41	152.778
239.79	130.435
240.16	138.095
240.53	156.818
240.91	105.882
241.28	98.000
241.65	94.000
242.02	105.797
242.40	83.871
242.77	83.333
243.14	86.022
243.51	83.146
243.89	74.118
244.26	66.667
244.63	66.667
245.00	61.702
245.38	63.366
245.75	58.879
246.12	45.872
246.49	56.204
246.87	61.600
247.24	60.000
247.61	53.571
247.98	47.059
248.36	51.351
248.73	49.682
249.10	50.955
249.47	45.198
249.84	47.059
250.22	42.246
250.59	42.604
250.96	44.949
251.33	40.758
251.70	44.059
252.08	42.857
252.45	37.220
252.82	36.087
253.19	40.000
253.56	39.608
253.94	36.515
254.31	37.891
254.68	39.615
255.05	38.745
255.42	36.179
255.79	37.868
256.16	41.155
256.54	29.682
256.91	34.875
257.28	31.295
257.65	32.673
258.02	33.851
258.39	33.754
258.76	33.779
259.14	34.226
259.51	32.219
259.88	30.124
260.25	35.650
260.62	32.370
260.99	32.609
261.36	28.829
261.73	29.513
262.10	29.360
262.47	34.085
262.85	30.641
263.22	31.054
263.59	32.479
263.96	29.945
264.33	30.026
264.70	30.263
265.07	32.225
265.44	28.535
265.81	27.494
266.18	30.151
266.55	30.000
266.92	30.221
267.29	29.398
267.66	30.505
268.03	29.773
268.40	28.738
268.77	27.924
269.14	28.378
269.51	29.120
269.88	29.371
270.25	28.668
270.62	26.966
270.99	28.172
271.36	28.755
271.73	27.103
272.10	27.391
272.47	29.032
272.84	28.139
273.21	28.931
273.58	27.511
273.95	27.044
274.32	24.380
274.69	27.409
275.06	25.394
275.43	28.298
275.80	26.653
276.17	25.458
276.54	28.690
276.91	28.458
277.28	26.953
277.65	25.919
278.02	25.466
278.39	28.125
278.76	25.273
279.13	27.736
279.50	25.512
279.87	25.697
280.23	24.351
280.60	26.306
280.97	24.030
281.34	27.788
281.71	24.545
282.08	25.720
282.45	24.727
282.82	26.643
283.19	21.390
283.56	25.088
283.92	24.196
284.29	25.220
284.66	25.953
285.03	23.689
285.40	23.768
285.77	24.074
286.14	23.834
286.51	24.667
286.87	25.641
287.24	23.941
287.61	23.274
287.98	23.701
288.35	22.345
288.72	24.766
289.08	23.631
289.45	24.217
289.82	23.089
290.19	20.565
290.56	22.971
290.93	20.393
291.29	22.086
291.66	21.386
292.03	22.529
292.40	23.348
292.77	20.562
293.13	21.493
293.50	23.178
293.87	20.741
294.24	20.000
294.60	19.942
294.97	20.785
295.34	21.580
295.71	19.034
296.08	20.085
296.44	20.495
296.81	18.890
297.18	20.596
297.55	18.865
297.91	19.261
298.28	19.545
298.65	18.668
299.02	18.972
299.38	19.124
299.75	16.307
300.12	19.285
300.48	19.250
300.85	18.742
301.22	18.854
301.59	18.434
301.95	19.270
302.32	16.303
302.69	19.116
303.05	18.061
303.42	17.654
303.79	19.706
304.15	15.734
304.52	17.613
304.89	17.770
305.25	18.910
305.62	17.894
305.99	18.300
306.35	17.673
306.72	18.274
307.09	17.425
307.45	17.905
307.82	17.299
308.19	18.543
308.55	18.123
308.92	16.864
309.29	16.051
309.65	16.967
310.02	17.442
310.38	18.387
310.75	18.585
311.12	17.400
311.48	17.555
311.85	18.868
312.22	18.210
312.58	17.983
312.95	18.163
313.31	16.796
313.68	19.231
314.05	18.442
314.41	18.291
314.78	17.925
315.14	18.471
315.51	18.744
315.87	18.317
316.24	18.371
316.61	18.226
316.97	18.297
317.34	19.667
317.70	20.172
318.07	20.597
318.43	20.059
318.80	20.150
319.16	21.375
319.53	19.700
319.89	20.190
320.26	22.600
320.62	20.635
320.99	22.626
321.35	22.525
321.72	20.945
322.08	23.001
322.45	23.483
322.81	23.353
323.18	23.892
323.54	22.913
323.91	24.245
324.27	23.136
324.64	23.579
325.00	23.715
325.37	25.387
325.73	25.494
326.10	25.066
326.46	25.269
326.83	26.143
327.19	25.448
327.56	26.220
327.92	26.422
328.29	27.950
328.65	26.888
329.01	26.715
329.38	27.475
329.74	26.962
330.11	28.087
330.47	27.273
330.84	28.309
331.20	26.958
331.56	28.165
331.93	28.889
332.29	27.862
332.66	29.204
333.02	27.971
333.38	27.010
333.75	28.164
334.11	28.915
334.48	28.217
334.84	29.596
335.20	28.182
335.57	27.833
335.93	26.964
336.29	27.930
336.66	28.855
337.02	28.326
337.38	29.815
337.75	28.699
338.11	27.395
338.47	29.558
338.84	29.239
339.20	27.339
339.56	30.018
339.93	28.091
340.29	27.989
340.65	28.610
341.02	30.192
341.38	29.270
341.74	27.807
342.11	28.734
342.47	28.899
342.83	28.253
343.20	29.091
343.56	28.307
343.92	28.421
344.28	28.997
344.65	29.837
345.01	28.367
345.37	27.787
345.73	28.257
346.10	28.645
346.46	28.729
346.82	27.842
347.19	29.407
347.55	28.736
347.91	28.641
348.27	29.006
348.63	27.592
349.00	28.641
349.36	28.243
349.72	28.308
350.08	28.120
350.45	29.699
350.81	28.513
351.17	29.092
351.53	27.846
351.89	27.888
352.26	28.414
352.62	27.987
352.98	29.173
353.34	28.841
353.70	29.133
354.07	28.145
354.43	27.937
354.79	28.640
355.15	28.252
355.51	29.257
355.87	30.449
356.24	29.316
356.60	28.869
356.96	30.249
357.32	28.700
357.68	29.370
358.04	29.375
358.40	28.187
358.77	30.203
359.13	29.440
359.49	29.490
359.85	29.048
360.21	30.223
360.57	30.272
360.93	29.769
361.29	30.008
361.66	30.341
362.02	30.821
362.38	30.418
362.74	29.241
363.10	30.052
363.46	30.301
363.82	28.874
364.18	30.837
364.54	30.684
364.90	31.516
365.26	30.882
365.62	30.752
365.98	30.314
366.35	29.226
366.71	30.947
367.07	31.610
367.43	31.205
367.79	31.049
368.15	31.968
368.51	30.378
368.87	32.049
369.23	31.895
369.59	32.151
369.95	30.956
370.31	31.481
370.67	31.884
371.03	32.060
371.39	33.017
371.75	32.353
372.11	31.935
372.47	34.238
372.83	32.853
373.19	31.575
373.55	32.816
373.91	33.873
374.27	32.784
374.63	33.818
374.99	33.545
375.35	33.008
375.71	33.105
376.07	34.156
376.42	34.182
376.78	34.394
377.14	32.972
377.50	35.099
377.86	32.979
378.22	34.134
378.58	33.647
378.94	33.815
379.30	34.860
379.66	34.835
380.02	35.811
380.38	35.094
380.74	35.954
381.09	34.841
381.45	36.693
381.81	36.486
382.17	36.688
382.53	37.736
382.89	36.728
383.25	37.336
383.61	37.918
383.97	36.273
384.32	37.991
384.68	37.608
385.04	37.246
385.40	37.090
385.76	36.794
386.12	37.500
386.48	37.823
386.83	38.999
387.19	38.528
387.55	38.590
387.91	38.755
388.27	38.688
388.62	39.521
388.98	38.698
389.34	39.487
389.70	38.933
390.06	39.797
390.42	39.494
390.77	39.885
391.13	41.161
391.49	40.926
391.85	40.165
392.20	40.126
392.56	41.098
392.92	40.141
393.28	40.296
393.64	40.228
393.99	40.623
394.35	40.757
394.71	40.527
395.07	40.872
395.42	40.977
395.78	40.967
396.14	40.348
396.50	42.043
396.85	41.322
397.21	40.136
397.57	41.414
397.92	41.707
398.28	41.256
398.64	40.562
399.00	41.298
399.35	40.496
399.71	41.204
400.07	41.987
400.42	42.209
400.78	43.124
401.14	41.646
401.49	42.448
401.85	42.166
402.21	41.796
402.57	42.505
402.92	43.443
403.28	42.536
403.63	42.389
403.99	41.975
404.35	41.394
404.70	42.086
405.06	42.167
405.42	42.545
405.77	42.343
406.13	40.971
406.49	42.756
406.84	42.528
407.20	42.021
407.55	42.693
407.91	43.733
408.27	43.140
408.62	43.167
408.98	42.647
409.34	42.620
409.69	43.097
410.05	42.441
410.40	43.119
410.76	41.637
411.11	43.245
411.47	42.236
411.83	42.761
412.18	42.672
412.54	42.341
412.89	42.289
413.25	42.385
413.60	43.916
413.96	41.773
414.31	42.224
414.67	42.966
415.03	42.781
415.38	44.008
415.74	42.508
416.09	44.219
416.45	42.838
416.80	42.829
417.16	43.231
417.51	44.194
417.87	42.967
418.22	42.965
418.58	44.545
418.93	42.936
419.29	43.475
419.64	44.144
420.00	42.866
420.35	43.362
420.71	44.591
421.06	43.138
421.42	43.333
421.77	43.386
422.12	42.223
422.48	42.742
422.83	43.681
423.19	43.039
423.54	44.225
423.90	43.014
424.25	43.439
424.61	42.679
424.96	44.373
425.31	43.189
425.67	42.247
426.02	44.343
426.38	44.261
426.73	44.061
427.09	44.559
427.44	44.508
427.79	44.278
428.15	44.048
428.50	44.002
428.85	43.683
429.21	43.070
429.56	43.183
429.92	42.828
430.27	43.396
430.62	43.472
430.98	44.110
431.33	43.711
431.68	44.084
432.04	43.237
432.39	44.089
432.74	43.866
433.10	44.256
433.45	45.073
433.80	44.069
434.16	44.177
434.51	42.842
434.86	43.900
435.22	44.024
435.57	44.073
435.92	43.417
436.28	46.026
436.63	44.702
436.98	44.362
437.34	43.888
437.69	44.924
438.04	44.463
438.39	45.075
438.75	43.696
439.10	44.413
439.45	44.687
439.81	44.592
440.16	43.874
440.51	44.230
440.86	44.470
441.22	43.993
441.57	43.843
441.92	44.882
442.27	44.080
442.63	43.655
442.98	44.958
443.33	43.587
443.68	44.502
444.03	44.412
444.39	44.158
444.74	45.022
445.09	44.744
445.44	45.216
445.79	44.582
446.15	44.521
446.50	44.103
446.85	45.015
447.20	44.059
447.55	45.840
447.91	44.457
448.26	45.353
448.61	44.658
448.96	45.626
449.31	44.207
449.66	44.288
450.02	44.011
450.37	44.955
450.72	45.008
451.07	42.962
451.42	43.830
451.77	44.510
452.12	44.169
452.47	44.465
452.83	44.464
453.18	44.377
453.53	46.506
453.88	45.304
454.23	46.145
454.58	45.669
454.93	45.137
455.28	45.075
455.63	44.478
455.98	44.702
456.34	44.912
456.69	45.398
457.04	45.820
457.39	45.237
457.74	43.993
458.09	45.658
458.44	43.957
458.79	43.818
459.14	45.542
459.49	45.359
459.84	44.598
460.19	42.899
460.54	43.403
460.89	44.487
461.24	44.991
461.59	45.206
461.94	43.958
462.29	44.866
462.64	44.671
462.99	43.656
463.34	44.733
463.69	45.216
464.04	44.870
464.39	43.768
464.74	44.326
465.09	44.029
465.44	43.823
465.79	44.016
466.14	44.007
466.49	43.103
466.84	43.257
467.19	43.030
467.54	44.688
467.89	43.517
468.24	43.863
468.59	44.628
468.94	44.166
469.29	45.244
469.64	44.779
469.99	45.061
470.34	44.650
470.68	44.971
471.03	44.830
471.38	46.004
471.73	43.837
472.08	45.789
472.43	44.472
472.78	44.174
473.13	43.902
473.48	45.194
473.83	44.451
474.17	43.186
474.52	44.107
474.87	44.892
475.22	44.515
475.57	43.256
475.92	42.698
476.27	44.138
476.61	43.409
476.96	42.056
477.31	43.223
477.66	43.381
478.01	42.865
478.36	43.310
478.70	42.991
479.05	42.865
479.40	44.012
479.75	44.281
480.10	42.942
480.45	41.932
480.79	42.618
481.14	43.249
481.49	43.047
481.84	42.524
482.19	43.026
482.53	42.248
482.88	42.764
483.23	42.757
483.58	42.084
483.92	42.315
484.27	41.438
484.62	41.250
484.97	41.545
485.31	42.021
485.66	41.544
486.01	39.738
486.36	37.496
486.70	36.805
487.05	38.408
487.40	39.530
487.75	39.129
488.09	40.552
488.44	40.460
488.79	41.917
489.13	41.788
489.48	41.558
489.83	40.785
490.17	42.832
490.52	42.383
490.87	40.977
491.22	41.610
491.56	41.230
491.91	41.508
492.26	40.836
492.60	41.613
492.95	40.926
493.30	40.280
493.64	40.737
493.99	41.504
494.34	40.611
494.68	41.346
495.03	41.306
495.37	41.368
495.72	41.131
496.07	41.810
496.41	40.310
496.76	40.545
497.11	40.747
497.45	41.081
497.80	41.123
498.14	41.353
498.49	40.683
498.84	41.179
499.18	40.667
499.53	41.263
499.87	40.634
500.22	41.262
500.56	41.359
500.91	40.625
501.26	40.019
501.60	41.955
501.95	40.009
502.29	41.518
502.64	40.503
502.98	40.626
503.33	39.671
503.67	40.139
504.02	40.225
504.36	40.431
504.71	39.766
505.06	41.205
505.40	40.836
505.75	39.971
506.09	40.185
506.44	41.194
506.78	40.088
507.13	40.384
507.47	40.808
507.82	41.033
508.16	41.135
508.51	40.994
508.85	40.218
509.19	40.306
509.54	40.765
509.88	40.340
510.23	40.514
510.57	41.280
510.92	40.342
511.26	39.466
511.61	40.820
511.95	40.814
512.30	40.138
512.64	40.140
512.98	40.675
513.33	41.006
513.67	40.448
514.02	40.206
514.36	41.180
514.70	40.786
515.05	39.989
515.39	41.167
515.74	39.752
516.08	40.637
516.42	41.121
516.77	41.416
517.11	39.900
517.46	40.688
517.80	41.870
518.14	40.243
518.49	41.424
518.83	39.489
519.17	40.185
519.52	40.577
519.86	40.901
520.20	41.561
520.55	42.370
520.89	41.849
521.23	42.340
521.58	39.796
521.92	40.968
522.26	39.658
522.61	40.374
522.95	40.516
523.29	41.935
523.64	39.817
523.98	41.343
524.32	40.893
524.66	41.130
525.01	40.686
525.35	40.830
525.69	40.517
526.04	39.502
526.38	39.841
526.72	40.123
527.06	40.364
527.41	38.057
527.75	40.836
528.09	40.527
528.43	40.982
528.78	40.504
529.12	39.939
529.46	41.335
529.80	40.285
530.15	41.246
530.49	38.154
530.83	39.620
531.17	40.796
531.51	41.180
531.86	40.452
532.20	41.265
532.54	40.038
532.88	40.116
533.22	39.475
533.57	39.444
533.91	39.133
534.25	39.793
534.59	38.377
534.93	38.251
535.27	39.167
535.62	38.706
535.96	39.862
536.30	38.144
536.64	38.828
536.98	39.748
537.32	39.368
537.66	38.867
538.01	40.290
538.35	39.237
538.69	39.311
539.03	38.207
539.37	38.403
539.71	37.784
540.05	39.869
540.39	38.339
540.73	38.098
541.07	38.027
541.42	39.596
541.76	39.806
542.10	39.780
542.44	38.609
542.78	38.603
543.12	38.260
543.46	39.410
543.80	37.541
544.14	37.805
544.48	38.667
544.82	37.909
545.16	38.452
545.50	37.596
545.84	39.315
546.18	37.980
546.52	39.092
546.86	38.763
547.20	38.368
547.54	37.341
547.88	38.712
548.22	37.049
548.56	38.050
548.90	38.220
549.24	38.316
549.58	37.381
549.92	38.118
550.26	38.849
550.60	36.653
550.94	39.225
551.28	37.527
551.62	38.246
551.96	38.316
552.30	38.089
552.64	38.675
552.98	37.966
553.32	37.424
553.66	38.309
554.00	37.817
554.34	38.095
554.68	38.984
555.02	38.152
555.36	38.065
555.69	37.754
556.03	37.416
556.37	37.040
556.71	37.108
557.05	37.115
557.39	37.439
557.73	37.474
558.07	38.724
558.41	36.975
558.75	37.252
559.08	38.628
559.42	38.473
559.76	38.824
560.10	37.330
560.44	36.408
560.78	37.126
561.12	37.665
561.45	38.201
561.79	37.508
562.13	36.955
562.47	36.680
562.81	38.773
563.15	37.860
563.48	35.411
563.82	36.725
564.16	36.298
564.50	36.849
564.84	35.398
565.17	35.457
565.51	36.102
565.85	35.787
566.19	35.880
566.52	37.112
566.86	36.106
567.20	36.321
567.54	35.559
567.88	34.221
568.21	36.138
568.55	34.681
568.89	34.679
569.23	34.581
569.56	33.117
569.90	33.245
570.24	32.652
570.57	32.030
570.91	31.545
571.25	31.532
571.59	31.635
571.92	31.365
572.26	31.485
572.60	31.532
572.93	31.334
573.27	31.529
573.61	31.267
573.95	31.395
574.28	31.307
574.62	31.050
574.96	30.562
575.29	30.820
575.63	30.640
575.97	30.695
576.30	31.360
576.64	30.174
576.98	30.263
577.31	30.522
577.65	30.771
577.98	30.418
578.32	29.527
578.66	30.084
578.99	30.016
579.33	30.114
579.67	30.455
580.00	30.640
580.34	30.470
580.67	30.158
581.01	31.100
581.35	30.006
581.68	30.017
582.02	29.124
582.35	29.458
582.69	29.828
583.02	29.964
583.36	29.952
583.70	30.819
584.03	30.199
584.37	31.067
584.70	30.852
585.04	30.357
585.37	29.776
585.71	29.911
586.04	30.297
586.38	30.355
586.72	30.765
587.05	30.617
587.39	30.580
587.72	30.353
588.06	30.256
588.39	30.316
588.73	30.625
589.06	31.349
589.40	31.818
589.73	31.362
590.07	31.601
590.40	31.092
590.73	32.123
591.07	32.234
591.40	32.265
591.74	32.771
592.07	32.199
592.41	31.170
592.74	31.199
593.08	30.713
593.41	30.655
593.75	30.044
594.08	30.707
594.41	29.940
594.75	30.795
595.08	30.780
595.42	31.068
595.75	29.808
596.09	30.642
596.42	31.552
596.75	32.123
597.09	32.251
597.42	31.282
597.75	31.177
598.09	31.217
598.42	31.572
598.76	31.617
599.09	30.179
599.42	30.167
599.76	30.820
600.09	29.545
600.42	29.912
600.76	29.893
601.09	30.419
601.42	30.594
601.76	30.398
602.09	29.644
602.42	30.454
602.76	31.479
603.09	30.409
603.42	30.574
603.76	29.954
604.09	29.740
604.42	30.289
604.76	31.168
605.09	30.494
605.42	30.398
605.75	30.919
606.09	30.378
606.42	30.282
606.75	29.905
607.09	30.682
607.42	30.039
607.75	29.536
608.08	29.961
608.42	31.242
608.75	30.252
609.08	30.620
609.41	30.795
609.75	30.729
610.08	31.527
610.41	30.866
610.74	30.605
611.07	31.423
611.41	31.207
611.74	31.674
612.07	30.642
612.40	31.584
612.73	30.421
613.07	31.843
613.40	31.490
613.73	30.729
614.06	31.452
614.39	30.729
614.72	30.421
615.06	30.987
615.39	30.626
615.72	30.624
616.05	29.878
616.38	31.406
616.71	32.126
617.05	31.684
617.38	31.690
617.71	31.351
618.04	32.151
618.37	31.106
618.70	31.861
619.03	32.237
619.36	32.383
619.69	31.831
620.03	33.173
620.36	33.021
620.69	33.630
621.02	33.702
621.35	32.263
621.68	32.788
622.01	32.895
622.34	32.224
622.67	31.711
623.00	31.034
623.33	31.665
623.66	32.952
623.99	33.063
624.32	31.526
624.65	31.921
624.99	31.161
625.32	31.137
625.65	31.255
625.98	33.897
626.31	33.515
626.64	33.633
626.97	33.915
627.30	33.001
627.63	33.470
627.96	33.558
628.29	33.858
628.62	34.950
628.95	34.528
629.28	33.029
629.61	33.731
629.94	36.095
630.26	34.128
630.59	33.270
630.92	34.291
