SpectraSuite Data File
++++++++++++++++++++++++++++++++++++
Date: Wed May 13 16:21:21 PDT 2015
User: schluterlab
Dark Spectrum Present: Yes
Reference Spectrum Present: Yes
Number of Sampled Component Spectra: 1
Spectrometers: USB2E3373
Integration Time (usec): 3000 (USB2E3373)
Spectra Averaged: 3 (USB2E3373)
Boxcar Smoothing: 0 (USB2E3373)
Correct for Electrical Dark: No (USB2E3373)
Strobe/Lamp Enabled: No (USB2E3373)
Correct for Detector Non-linearity: No (USB2E3373)
Correct for Stray Light: No (USB2E3373)
Number of Pixels in Processed Spectrum: 2048
>>>>>Begin Processed Spectral Data<<<<<
178.53	0.000
178.91	-1300.000
179.29	-1025.000
179.67	-216.667
180.04	-1250.000
180.42	2150.000
180.80	820.000
181.18	-875.000
181.56	600.000
181.94	0.000
182.31	-414.286
182.69	1600.000
183.07	-525.000
183.45	-400.000
183.83	536.364
184.20	-410.000
184.58	2150.000
184.96	4900.000
185.34	-860.000
185.72	-625.000
186.09	-2000.000
186.47	2200.000
186.85	2250.000
187.23	4300.000
187.61	-1200.000
187.98	1325.000
188.36	509.091
188.74	354.545
189.12	-780.000
189.49	520.000
189.87	-5100.000
190.25	-875.000
190.63	335.714
191.00	392.308
191.38	683.333
191.76	-1225.000
192.14	1325.000
192.51	525.000
192.89	950.000
193.27	612.500
193.65	-1175.000
194.02	380.000
194.40	760.000
194.78	510.000
195.15	466.667
195.53	700.000
195.91	-2150.000
196.29	318.750
196.66	342.105
197.04	-340.000
197.42	0.000
197.79	560.000
198.17	-4800.000
198.55	400.000
198.92	575.000
199.30	740.000
199.68	0.000
200.05	316.667
200.43	657.143
200.81	4000.000
201.18	1566.667
201.56	-1666.667
201.94	455.556
202.31	544.444
202.69	425.000
203.07	540.000
203.44	0.000
203.82	1125.000
204.19	771.429
204.57	421.429
204.95	600.000
205.32	1500.000
205.70	454.545
206.08	364.286
206.45	2100.000
206.83	337.500
207.20	850.000
207.58	580.000
207.96	300.000
208.33	637.500
208.71	-883.333
209.08	628.571
209.46	488.889
209.84	372.727
210.21	-1400.000
210.59	1475.000
210.96	-325.000
211.34	2500.000
211.71	620.000
212.09	800.000
212.46	0.000
212.84	1800.000
213.22	1250.000
213.59	-3800.000
213.97	766.667
214.34	771.429
214.72	418.182
215.09	1100.000
215.47	-1900.000
215.84	-2300.000
216.22	1600.000
216.59	328.571
216.97	1150.000
217.34	363.636
217.72	-600.000
218.09	0.000
218.47	-4600.000
218.84	533.333
219.22	642.857
219.59	1700.000
219.97	-714.286
220.34	900.000
220.72	-1400.000
221.09	357.143
221.47	1225.000
221.84	-983.333
222.22	0.000
222.59	1075.000
222.97	-2450.000
223.34	760.000
223.72	392.308
224.09	800.000
224.46	2100.000
224.84	-3900.000
225.21	-840.000
225.59	-4100.000
225.96	490.000
226.34	290.000
226.71	1900.000
227.08	600.000
227.46	510.000
227.83	-1075.000
228.21	-1350.000
228.58	511.111
228.95	-2000.000
229.33	-1950.000
229.70	1366.667
230.08	714.286
230.45	-680.000
230.82	341.667
231.20	750.000
231.57	600.000
231.95	441.667
232.32	209.091
232.69	418.182
233.07	628.571
233.44	323.077
233.81	-1500.000
234.19	257.895
234.56	441.667
234.93	366.667
235.31	409.091
235.68	230.769
236.05	285.714
236.43	181.818
236.80	247.368
237.17	3600.000
237.55	204.762
237.92	178.571
238.29	228.571
238.67	132.258
239.04	148.276
239.41	119.444
239.79	100.000
240.16	119.048
240.53	97.727
240.91	84.314
241.28	90.000
241.65	68.000
242.02	65.217
242.40	45.161
242.77	70.000
243.14	55.914
243.51	57.303
243.89	44.706
244.26	50.000
244.63	50.538
245.00	40.426
245.38	39.604
245.75	40.187
246.12	35.780
246.49	39.416
246.87	41.600
247.24	40.000
247.61	35.714
247.98	39.216
248.36	21.622
248.73	28.662
249.10	28.662
249.47	17.514
249.84	27.807
250.22	22.460
250.59	24.852
250.96	21.212
251.33	27.014
251.70	25.743
252.08	24.762
252.45	21.076
252.82	22.609
253.19	22.553
253.56	20.000
253.94	23.237
254.31	16.406
254.68	19.615
255.05	21.033
255.42	16.667
255.79	19.485
256.16	21.661
256.54	13.781
256.91	16.726
257.28	16.187
257.65	15.512
258.02	16.460
258.39	14.196
258.76	17.057
259.14	16.071
259.51	13.374
259.88	11.491
260.25	16.012
260.62	13.584
260.99	13.043
261.36	14.414
261.73	14.613
262.10	12.500
262.47	13.521
262.85	12.813
263.22	11.681
263.59	14.245
263.96	10.440
264.33	12.533
264.70	13.947
265.07	15.857
265.44	12.626
265.81	10.706
266.18	11.558
266.55	11.707
266.92	11.548
267.29	14.815
267.66	12.385
268.03	13.409
268.40	12.617
268.77	11.933
269.14	12.162
269.51	14.221
269.88	12.587
270.25	13.318
270.62	11.461
270.99	14.194
271.36	11.159
271.73	9.579
272.10	11.304
272.47	11.398
272.84	11.905
273.21	12.579
273.58	10.262
273.95	10.901
274.32	8.471
274.69	11.349
275.06	11.024
275.43	10.000
275.80	9.619
276.17	8.758
276.54	11.435
276.91	11.462
277.28	9.375
277.65	10.251
278.02	8.903
278.39	11.523
278.76	10.000
279.13	12.075
279.50	10.242
279.87	10.159
280.23	10.778
280.60	8.124
280.97	11.275
281.34	10.973
281.71	11.273
282.08	9.981
282.45	8.000
282.82	7.993
283.19	6.417
283.56	9.825
283.92	9.137
284.29	8.113
284.66	7.078
285.03	7.957
285.40	7.394
285.77	8.418
286.14	9.499
286.51	7.333
286.87	10.769
287.24	9.446
287.61	8.668
287.98	8.442
288.35	8.082
288.72	6.231
289.08	9.077
289.45	9.226
289.82	6.829
290.19	7.535
290.56	8.116
290.93	6.193
291.29	8.282
291.66	8.702
292.03	9.593
292.40	9.398
292.77	7.544
293.13	8.060
293.50	6.997
293.87	7.111
294.24	8.148
294.60	6.987
294.97	9.157
295.34	9.450
295.71	7.102
296.08	6.268
296.44	7.978
296.81	7.133
297.18	8.537
297.55	5.541
297.91	7.124
298.28	6.827
298.65	8.355
299.02	6.851
299.38	6.640
299.75	5.526
300.12	6.513
300.48	6.750
300.85	7.028
301.22	7.134
301.59	5.556
301.95	6.801
302.32	6.033
302.69	6.691
303.05	5.697
303.42	5.185
303.79	7.248
304.15	4.895
304.52	6.721
304.89	6.039
305.25	6.265
305.62	5.889
305.99	6.730
306.35	6.488
306.72	6.278
307.09	6.215
307.45	7.432
307.82	4.911
308.19	6.623
308.55	7.228
308.92	6.015
309.29	5.491
309.65	5.090
310.02	6.342
310.38	6.237
310.75	5.597
311.12	6.141
311.48	6.061
311.85	6.709
312.22	6.972
312.58	4.886
312.95	6.653
313.31	4.466
313.68	6.029
314.05	7.890
314.41	5.930
314.78	5.639
315.14	5.462
315.51	5.355
315.87	5.842
316.24	4.965
316.61	5.263
316.97	5.675
317.34	5.479
317.70	5.258
318.07	5.775
318.43	5.479
318.80	5.436
319.16	5.744
319.53	5.159
319.89	6.190
320.26	6.700
320.62	5.159
320.99	6.768
321.35	6.364
321.72	6.982
322.08	6.614
322.45	6.866
322.81	6.492
323.18	6.647
323.54	7.328
323.91	7.075
324.27	6.119
324.64	5.499
325.00	5.771
325.37	7.643
325.73	6.732
326.10	5.914
326.46	6.272
326.83	6.557
327.19	6.149
327.56	5.836
327.92	5.599
328.29	6.744
328.65	6.814
329.01	6.588
329.38	7.123
329.74	6.279
330.11	6.126
330.47	6.612
330.84	7.904
331.20	7.468
331.56	6.789
331.93	5.370
332.29	6.477
332.66	7.434
333.02	6.399
333.38	7.227
333.75	6.952
334.11	6.851
334.48	6.300
334.84	6.985
335.20	7.182
335.57	6.709
335.93	5.893
336.29	6.319
336.66	6.943
337.02	5.430
337.38	7.222
337.75	6.417
338.11	6.893
338.47	6.262
338.84	6.691
339.20	5.780
339.56	7.026
339.93	6.727
340.29	6.159
340.65	6.863
341.02	7.243
341.38	6.317
341.74	6.228
342.11	6.550
342.47	6.960
342.83	6.421
343.20	7.359
343.56	7.077
343.92	6.667
344.28	6.378
344.65	6.535
345.01	6.818
345.37	5.918
345.73	6.261
346.10	6.138
346.46	6.356
346.82	6.013
347.19	5.848
347.55	5.911
347.91	6.311
348.27	6.984
348.63	6.940
349.00	5.583
349.36	6.404
349.72	6.897
350.08	5.673
350.45	5.696
350.81	6.093
351.17	6.564
351.53	6.798
351.89	5.281
352.26	7.261
352.62	6.415
352.98	6.240
353.34	6.491
353.70	4.419
354.07	6.694
354.43	5.556
354.79	5.390
355.15	5.587
355.51	7.114
355.87	6.122
356.24	6.352
356.60	4.892
356.96	6.275
357.32	4.988
357.68	6.299
358.04	6.492
358.40	6.651
358.77	5.790
359.13	5.288
359.49	5.333
359.85	5.476
360.21	5.104
360.57	5.525
360.93	5.385
361.29	5.518
361.66	4.954
362.02	6.418
362.38	5.779
362.74	5.729
363.10	5.625
363.46	5.356
363.82	5.896
364.18	5.653
364.54	5.572
364.90	6.232
365.26	4.412
365.62	6.501
365.98	5.040
366.35	5.372
366.71	6.001
367.07	5.754
367.43	6.241
367.79	6.353
368.15	6.681
368.51	4.869
368.87	6.067
369.23	5.706
369.59	5.720
369.95	5.368
370.31	5.698
370.67	5.580
371.03	6.367
371.39	5.904
371.75	5.735
372.11	6.259
372.47	6.085
372.83	5.692
373.19	5.636
373.55	6.282
373.91	6.627
374.27	5.430
374.63	5.236
374.99	5.650
375.35	5.094
375.71	6.100
376.07	6.310
376.42	5.708
376.78	6.229
377.14	5.088
377.50	5.695
377.86	5.053
378.22	6.953
378.58	4.699
378.94	5.154
379.30	4.644
379.66	5.584
380.02	5.160
380.38	5.464
380.74	5.582
381.09	5.257
381.45	5.655
381.81	6.388
382.17	5.987
382.53	5.975
382.89	6.358
383.25	5.316
383.61	6.072
383.97	6.254
384.32	5.989
384.68	5.638
385.04	5.962
385.40	5.697
385.76	6.327
386.12	5.635
386.48	6.671
386.83	6.030
387.19	6.370
387.55	6.122
387.91	5.079
388.27	5.518
388.62	6.085
388.98	5.528
389.34	6.446
389.70	6.315
390.06	6.717
390.42	5.901
390.77	6.170
391.13	5.743
391.49	5.457
391.85	5.538
392.20	5.300
392.56	5.682
392.92	6.239
393.28	5.207
393.64	5.875
393.99	6.475
394.35	5.521
394.71	6.211
395.07	5.919
395.42	5.501
395.78	6.043
396.14	5.959
396.50	6.203
396.85	6.294
397.21	6.165
397.57	5.952
397.92	5.950
398.28	5.157
398.64	6.511
399.00	5.876
399.35	5.753
399.71	6.076
400.07	6.446
400.42	6.074
400.78	6.273
401.14	5.427
401.49	6.388
401.85	5.566
402.21	6.108
402.57	5.614
402.92	6.368
403.28	5.746
403.63	5.817
403.99	5.669
404.35	6.364
404.70	6.175
405.06	5.591
405.42	6.238
405.77	5.600
406.13	6.151
406.49	6.328
406.84	5.848
407.20	5.910
407.55	6.382
407.91	5.933
408.27	5.424
408.62	6.683
408.98	6.250
409.34	6.150
409.69	6.194
410.05	5.514
410.40	5.688
410.76	5.436
411.11	6.333
411.47	6.070
411.83	6.475
412.18	6.246
412.54	5.915
412.89	6.325
413.25	6.494
413.60	5.868
413.96	6.315
414.31	5.832
414.67	6.147
415.03	5.828
415.38	6.894
415.74	5.981
416.09	5.813
416.45	6.292
416.80	6.081
417.16	6.434
417.51	6.038
417.87	6.872
418.22	6.625
418.58	6.262
418.93	6.204
419.29	7.002
419.64	6.738
420.00	6.646
420.35	6.551
420.71	5.798
421.06	5.907
421.42	5.789
421.77	6.166
422.12	5.109
422.48	5.289
422.83	6.290
423.19	6.630
423.54	5.688
423.90	6.087
424.25	6.700
424.61	5.655
424.96	5.889
425.31	5.980
425.67	5.843
426.02	6.114
426.38	5.861
426.73	5.734
427.09	6.079
427.44	5.923
427.79	5.520
428.15	6.190
428.50	6.612
428.85	6.913
429.21	5.301
429.56	5.910
429.92	6.039
430.27	5.611
430.62	5.223
430.98	5.656
431.33	5.825
431.68	6.283
432.04	6.017
432.39	5.654
432.74	5.865
433.10	5.716
433.45	6.064
433.80	5.654
434.16	6.303
434.51	5.947
434.86	6.157
435.22	5.725
435.57	6.079
435.92	6.027
436.28	5.931
436.63	6.567
436.98	5.781
437.34	6.440
437.69	6.068
438.04	5.958
438.39	6.149
438.75	6.334
439.10	5.754
439.45	6.257
439.81	5.921
440.16	5.590
440.51	6.093
440.86	6.369
441.22	5.895
441.57	6.157
441.92	6.090
442.27	6.136
442.63	5.951
442.98	6.704
443.33	6.250
443.68	5.834
444.03	6.003
444.39	5.112
444.74	6.115
445.09	6.199
445.44	5.905
445.79	5.789
446.15	6.564
446.50	6.085
446.85	5.601
447.20	6.017
447.55	6.030
447.91	5.350
448.26	6.010
448.61	5.653
448.96	6.645
449.31	6.130
449.66	6.134
450.02	6.685
450.37	5.272
450.72	5.245
451.07	5.484
451.42	5.532
451.77	6.753
452.12	6.005
452.47	6.219
452.83	5.769
453.18	5.929
453.53	6.865
453.88	5.552
454.23	6.037
454.58	6.905
454.93	7.057
455.28	5.486
455.63	5.825
455.98	6.905
456.34	6.093
456.69	6.199
457.04	6.440
457.39	5.845
457.74	6.210
458.09	6.555
458.44	5.815
458.79	5.369
459.14	6.603
459.49	6.013
459.84	5.762
460.19	6.011
460.54	6.597
460.89	6.583
461.24	6.011
461.59	7.263
461.94	6.289
462.29	6.825
462.64	6.126
462.99	6.311
463.34	7.267
463.69	6.442
464.04	6.551
464.39	6.493
464.74	6.239
465.09	5.669
465.44	5.651
465.79	5.705
466.14	6.459
466.49	6.007
466.84	6.597
467.19	6.337
467.54	6.063
467.89	6.242
468.24	6.574
468.59	6.838
468.94	6.109
469.29	6.620
469.64	7.296
469.99	6.698
470.34	6.077
470.68	6.968
471.03	6.531
471.38	6.393
471.73	6.662
472.08	6.908
472.43	6.595
472.78	5.859
473.13	6.932
473.48	5.930
473.83	6.341
474.17	5.974
474.52	5.831
474.87	6.421
475.22	6.094
475.57	6.233
475.92	5.736
476.27	5.862
476.61	5.626
476.96	5.443
477.31	5.861
477.66	5.744
478.01	5.698
478.36	5.870
478.70	5.711
479.05	5.591
479.40	6.448
479.75	5.236
480.10	5.318
480.45	5.283
480.79	5.638
481.14	5.920
481.49	5.458
481.84	5.258
482.19	5.543
482.53	5.917
482.88	6.189
483.23	5.421
483.58	5.914
483.92	5.904
484.27	4.619
484.62	5.172
484.97	5.124
485.31	4.897
485.66	4.425
486.01	4.016
486.36	3.819
486.70	3.953
487.05	4.263
487.40	4.597
487.75	4.545
488.09	5.126
488.44	4.536
488.79	5.136
489.13	5.653
489.48	4.935
489.83	5.050
490.17	5.173
490.52	5.093
490.87	5.111
491.22	5.548
491.56	5.103
491.91	5.537
492.26	5.604
492.60	5.899
492.95	5.285
493.30	5.748
493.64	5.086
493.99	5.339
494.34	5.874
494.68	6.090
495.03	5.686
495.37	5.398
495.72	5.702
496.07	5.522
496.41	5.442
496.76	5.585
497.11	5.493
497.45	5.682
497.80	5.950
498.14	5.556
498.49	5.220
498.84	5.753
499.18	4.762
499.53	6.458
499.87	5.499
500.22	5.699
500.56	5.825
500.91	5.337
501.26	5.642
501.60	5.790
501.95	5.545
502.29	5.904
502.64	5.307
502.98	5.470
503.33	5.256
503.67	5.568
504.02	5.332
504.36	5.803
504.71	6.058
505.06	6.072
505.40	5.639
505.75	5.159
506.09	5.637
506.44	5.081
506.78	5.699
507.13	5.351
507.47	5.909
507.82	5.927
508.16	5.319
508.51	5.632
508.85	5.760
509.19	5.102
509.54	6.224
509.88	5.770
510.23	5.656
510.57	5.573
510.92	5.541
511.26	5.858
511.61	5.757
511.95	5.793
512.30	5.673
512.64	5.803
512.98	6.163
513.33	6.692
513.67	5.977
514.02	5.465
514.36	5.789
514.70	6.143
515.05	5.689
515.39	6.282
515.74	5.968
516.08	6.484
516.42	6.715
516.77	6.410
517.11	5.438
517.46	6.377
517.80	6.446
518.14	6.080
518.49	6.126
518.83	6.534
519.17	6.236
519.52	6.565
519.86	6.389
520.20	6.763
520.55	6.403
520.89	6.265
521.23	6.514
521.58	6.783
521.92	6.920
522.26	6.101
522.61	6.667
522.95	6.323
523.29	6.026
523.64	6.037
523.98	6.285
524.32	6.031
524.66	6.855
525.01	6.740
525.35	6.568
525.69	6.466
526.04	6.542
526.38	5.857
526.72	6.748
527.06	6.277
527.41	6.126
527.75	7.074
528.09	6.294
528.43	6.756
528.78	7.191
529.12	6.727
529.46	6.614
529.80	6.436
530.15	7.477
530.49	6.892
530.83	6.519
531.17	6.789
531.51	7.588
531.86	6.387
532.20	7.301
532.54	7.495
532.88	7.060
533.22	6.746
533.57	6.605
533.91	6.502
534.25	6.622
534.59	6.589
534.93	6.365
535.27	6.518
535.62	6.960
535.96	7.470
536.30	6.167
536.64	7.019
536.98	6.835
537.32	6.583
537.66	6.933
538.01	6.912
538.35	7.628
538.69	7.403
539.03	7.342
539.37	6.070
539.71	5.509
540.05	7.124
540.39	7.110
540.73	7.050
541.07	7.463
541.42	6.784
541.76	7.742
542.10	7.503
542.44	6.556
542.78	7.049
543.12	5.822
543.46	7.803
543.80	6.571
544.14	5.712
544.48	6.984
544.82	6.222
545.16	6.376
545.50	6.555
545.84	5.780
546.18	6.532
546.52	7.020
546.86	6.529
547.20	6.945
547.54	6.880
547.88	7.844
548.22	6.600
548.56	6.981
548.90	6.466
549.24	6.801
549.58	6.889
549.92	6.593
550.26	6.818
550.60	6.570
550.94	6.620
551.28	6.218
551.62	6.614
551.96	6.877
552.30	7.235
552.64	7.099
552.98	7.119
553.32	7.957
553.66	6.885
554.00	7.069
554.34	6.556
554.68	7.082
555.02	7.334
555.36	7.029
555.69	7.104
556.03	6.797
556.37	7.026
556.71	6.685
557.05	7.283
557.39	7.278
557.73	7.198
558.07	6.454
558.41	6.729
558.75	7.201
559.08	7.681
559.42	7.181
559.76	7.206
560.10	7.209
560.44	6.639
560.78	6.387
561.12	6.860
561.45	7.301
561.79	6.131
562.13	6.841
562.47	6.694
562.81	7.322
563.15	7.023
563.48	7.029
563.82	5.936
564.16	6.213
564.50	6.510
564.84	6.321
565.17	6.564
565.51	6.390
565.85	6.980
566.19	6.324
566.52	5.383
566.86	5.907
567.20	6.368
567.54	5.936
567.88	5.432
568.21	6.085
568.55	5.763
568.89	6.177
569.23	5.570
569.56	5.466
569.90	5.547
570.24	4.772
570.57	5.032
570.91	4.816
571.25	5.065
571.59	4.713
571.92	4.896
572.26	4.650
572.60	4.925
572.93	5.037
573.27	5.087
573.61	4.830
573.95	4.987
574.28	4.422
574.62	4.568
574.96	4.349
575.29	4.340
575.63	4.345
575.97	4.816
576.30	4.780
576.64	4.448
576.98	4.424
577.31	4.598
577.65	4.343
577.98	4.443
578.32	4.210
578.66	4.130
578.99	4.383
579.33	4.333
579.67	4.233
580.00	4.411
580.34	4.295
580.67	4.396
581.01	4.745
581.35	4.479
581.68	4.036
582.02	4.111
582.35	4.123
582.69	4.245
583.02	4.227
583.36	4.519
583.70	4.396
584.03	4.493
584.37	5.191
584.70	4.415
585.04	4.648
585.37	4.497
585.71	4.817
586.04	4.856
586.38	4.624
586.72	4.722
587.05	4.482
587.39	4.538
587.72	4.793
588.06	4.482
588.39	4.829
588.73	4.752
589.06	4.799
589.40	5.084
589.73	4.928
590.07	4.733
590.40	4.604
590.73	4.840
591.07	5.454
591.40	5.820
591.74	5.671
592.07	5.846
592.41	5.829
592.74	4.981
593.08	5.130
593.41	4.904
593.75	4.966
594.08	5.062
594.41	5.055
594.75	5.028
595.08	5.047
595.42	5.429
595.75	4.701
596.09	5.407
596.42	5.855
596.75	5.488
597.09	6.017
597.42	5.523
597.75	5.821
598.09	5.696
598.42	5.112
598.76	5.148
599.09	5.283
599.42	5.349
599.76	4.795
600.09	4.736
600.42	5.259
600.76	4.929
601.09	5.282
601.42	5.137
601.76	5.161
602.09	5.375
602.42	5.494
602.76	5.603
603.09	5.153
603.42	5.271
603.76	5.221
604.09	4.963
604.42	5.707
604.76	5.947
605.09	5.330
605.42	5.387
605.75	5.671
606.09	5.449
606.42	4.863
606.75	5.433
607.09	5.776
607.42	4.664
607.75	4.937
608.08	6.122
608.42	6.006
608.75	5.681
609.08	5.180
609.41	5.426
609.75	5.717
610.08	6.032
610.41	5.074
610.74	5.061
611.07	5.583
611.41	5.888
611.74	6.586
612.07	5.952
612.40	5.876
612.73	5.737
613.07	5.981
613.40	6.056
613.73	5.506
614.06	5.968
614.39	6.188
614.72	6.316
615.06	6.303
615.39	5.202
615.72	5.726
616.05	5.688
616.38	5.670
616.71	5.641
617.05	6.714
617.38	6.133
617.71	6.366
618.04	5.469
618.37	6.268
618.70	7.281
619.03	7.171
619.36	6.449
619.69	5.986
620.03	6.319
620.36	6.551
620.69	7.192
621.02	7.522
621.35	7.048
621.68	7.165
622.01	6.115
622.34	7.791
622.67	6.312
623.00	6.897
623.33	6.505
623.66	7.005
623.99	6.333
624.32	6.776
624.65	6.780
624.99	6.374
625.32	5.793
625.65	6.912
625.98	7.148
626.31	7.465
626.64	7.673
626.97	6.650
627.30	6.899
627.63	7.301
627.96	8.410
628.29	7.962
628.62	8.143
628.95	8.679
629.28	8.942
629.61	7.608
629.94	7.429
630.26	8.484
630.59	7.817
630.92	7.280
631.25	6.910
631.58	8.609
631.91	7.606
632.24	7.806
632.57	8.709
632.90	8.333
633.23	8.837
633.56	8.023
633.89	9.513
634.22	9.081
634.55	8.876
634.88	7.904
635.20	8.005
635.53	10.843
635.86	9.035
636.19	8.706
636.52	7.958
636.85	9.393
637.18	7.488
637.51	9.693
637.83	6.782
638.16	8.696
638.49	10.202
638.82	10.999
639.15	7.875
639.48	9.352
639.81	10.188
640.13	10.156
640.46	10.201
640.79	10.568
641.12	7.565
641.45	8.520
641.77	10.015
642.10	9.649
642.43	9.760
642.76	9.907
643.09	11.656
643.41	10.470
643.74	12.500
644.07	10.213
644.40	11.350
644.73	11.181
645.05	11.727
645.38	9.321
645.71	9.984
646.04	10.133
646.36	13.189
646.69	11.037
647.02	9.694
647.35	11.340
647.67	11.327
648.00	12.358
648.33	8.746
648.66	10.152
648.98	12.444
649.31	9.865
649.64	10.613
649.96	9.538
650.29	11.532
650.62	9.547
650.94	11.021
651.27	12.162
651.60	11.647
651.92	11.821
652.25	11.075
652.58	11.838
652.90	11.216
653.23	11.248
653.56	9.291
653.88	9.984
