SpectraSuite Data File
++++++++++++++++++++++++++++++++++++
Date: Wed May 13 16:15:14 PDT 2015
User: schluterlab
Dark Spectrum Present: Yes
Reference Spectrum Present: Yes
Number of Sampled Component Spectra: 1
Spectrometers: USB2E3373
Integration Time (usec): 3000 (USB2E3373)
Spectra Averaged: 3 (USB2E3373)
Boxcar Smoothing: 0 (USB2E3373)
Correct for Electrical Dark: No (USB2E3373)
Strobe/Lamp Enabled: No (USB2E3373)
Correct for Detector Non-linearity: No (USB2E3373)
Correct for Stray Light: No (USB2E3373)
Number of Pixels in Processed Spectrum: 2048
>>>>>Begin Processed Spectral Data<<<<<
178.53	0.000
178.91	-1150.000
179.29	-1225.000
179.67	-188.889
180.04	-800.000
180.42	2300.000
180.80	780.000
181.18	-850.000
181.56	600.000
181.94	0.000
182.31	-542.857
182.69	1066.667
183.07	-450.000
183.45	-533.333
183.83	454.545
184.20	-340.000
184.58	1650.000
184.96	3200.000
185.34	-500.000
185.72	-562.500
186.09	-1550.000
186.47	1900.000
186.85	2200.000
187.23	4000.000
187.61	-1400.000
187.98	875.000
188.36	445.455
188.74	436.364
189.12	-620.000
189.49	460.000
189.87	-4200.000
190.25	-1050.000
190.63	342.857
191.00	323.077
191.38	833.333
191.76	-1025.000
192.14	1175.000
192.51	712.500
192.89	783.333
193.27	550.000
193.65	-800.000
194.02	370.000
194.40	660.000
194.78	480.000
195.15	408.333
195.53	540.000
195.91	-1400.000
196.29	256.250
196.66	273.684
197.04	-310.000
197.42	0.000
197.79	440.000
198.17	-3500.000
198.55	571.429
198.92	575.000
199.30	840.000
199.68	0.000
200.05	283.333
200.43	742.857
200.81	3000.000
201.18	1400.000
201.56	-1133.333
201.94	477.778
202.31	477.778
202.69	300.000
203.07	400.000
203.44	0.000
203.82	925.000
204.19	714.286
204.57	378.571
204.95	612.500
205.32	966.667
205.70	354.545
206.08	285.714
206.45	1850.000
206.83	312.500
207.20	616.667
207.58	620.000
207.96	200.000
208.33	500.000
208.71	-616.667
209.08	700.000
209.46	388.889
209.84	409.091
210.21	-1166.667
210.59	1250.000
210.96	-275.000
211.34	2000.000
211.71	430.000
212.09	600.000
212.46	0.000
212.84	1200.000
213.22	1100.000
213.59	-2400.000
213.97	933.333
214.34	542.857
214.72	381.818
215.09	700.000
215.47	-1600.000
215.84	-1750.000
216.22	1233.333
216.59	300.000
216.97	1050.000
217.34	300.000
217.72	-450.000
218.09	0.000
218.47	-3000.000
218.84	522.222
219.22	528.571
219.59	1333.333
219.97	-457.143
220.34	740.000
220.72	-1200.000
221.09	342.857
221.47	1275.000
221.84	-766.667
222.22	0.000
222.59	975.000
222.97	-2100.000
223.34	940.000
223.72	276.923
224.09	820.000
224.46	1950.000
224.84	-2700.000
225.21	-600.000
225.59	-3400.000
225.96	490.000
226.34	240.000
226.71	2100.000
227.08	512.500
227.46	480.000
227.83	-750.000
228.21	-1800.000
228.58	466.667
228.95	-2250.000
229.33	-1900.000
229.70	1366.667
230.08	628.571
230.45	-600.000
230.82	358.333
231.20	550.000
231.57	471.429
231.95	433.333
232.32	204.545
232.69	254.545
233.07	471.429
233.44	261.538
233.81	-1533.333
234.19	242.105
234.56	383.333
234.93	250.000
235.31	418.182
235.68	300.000
236.05	264.286
236.43	160.606
236.80	247.368
237.17	3700.000
237.55	190.476
237.92	164.286
238.29	247.619
238.67	174.194
239.04	158.621
239.41	150.000
239.79	104.348
240.16	92.857
240.53	88.636
240.91	107.843
241.28	106.000
241.65	86.000
242.02	82.609
242.40	69.355
242.77	73.333
243.14	77.419
243.51	74.157
243.89	70.588
244.26	54.444
244.63	55.914
245.00	64.894
245.38	51.485
245.75	53.271
246.12	56.881
246.49	54.015
246.87	64.800
247.24	54.615
247.61	50.000
247.98	53.595
248.36	43.243
248.73	51.592
249.10	57.962
249.47	46.328
249.84	46.524
250.22	41.176
250.59	47.337
250.96	40.909
251.33	48.341
251.70	44.059
252.08	43.810
252.45	40.807
252.82	38.696
253.19	37.872
253.56	40.392
253.94	41.079
254.31	37.891
254.68	41.538
255.05	39.114
255.42	39.837
255.79	40.074
256.16	41.155
256.54	34.629
256.91	38.434
257.28	32.374
257.65	33.993
258.02	34.161
258.39	37.539
258.76	33.779
259.14	36.012
259.51	34.347
259.88	32.919
260.25	33.837
260.62	33.526
260.99	35.404
261.36	35.135
261.73	32.665
262.10	29.070
262.47	36.620
262.85	34.540
263.22	30.769
263.59	36.467
263.96	33.516
264.33	32.637
264.70	31.579
265.07	34.015
265.44	32.828
265.81	28.467
266.18	33.668
266.55	32.195
266.92	32.432
267.29	31.019
267.66	30.505
268.03	30.909
268.40	33.645
268.77	28.640
269.14	32.432
269.51	30.700
269.88	31.702
270.25	30.023
270.62	32.584
270.99	29.892
271.36	29.828
271.73	31.542
272.10	30.217
272.47	30.968
272.84	31.602
273.21	29.769
273.58	29.039
273.95	28.302
274.32	29.752
274.69	29.336
275.06	28.346
275.43	29.362
275.80	31.062
276.17	28.921
276.54	29.314
276.91	30.632
277.28	28.516
277.65	28.627
278.02	30.021
278.39	29.687
278.76	28.727
279.13	27.547
279.50	28.305
279.87	28.685
280.23	30.539
280.60	27.660
280.97	28.651
281.34	29.558
281.71	28.545
282.08	30.518
282.45	26.909
282.82	27.709
283.19	26.025
283.56	27.368
283.92	27.919
284.29	26.808
284.66	28.312
285.03	25.678
285.40	26.408
285.77	27.609
286.14	26.943
286.51	27.500
286.87	28.547
287.24	28.502
287.61	24.077
287.98	27.435
288.35	26.783
288.72	26.012
289.08	24.570
289.45	24.053
289.82	25.203
290.19	24.176
290.56	24.196
290.93	23.565
291.29	24.387
291.66	23.599
292.03	25.581
292.40	26.138
292.77	23.077
293.13	24.179
293.50	23.178
293.87	24.296
294.24	24.148
294.60	22.271
294.97	22.965
295.34	22.285
295.71	24.006
296.08	23.219
296.44	22.146
296.81	22.589
297.18	22.493
297.55	20.712
297.91	20.712
298.28	23.695
298.65	21.671
299.02	21.080
299.38	22.576
299.75	19.542
300.12	18.902
300.48	20.625
300.85	21.578
301.22	21.529
301.59	20.076
301.95	20.907
302.32	21.438
302.69	20.789
303.05	20.242
303.42	19.506
303.79	19.819
304.15	19.580
304.52	20.046
304.89	18.351
305.25	19.142
305.62	20.498
305.99	20.897
306.35	19.575
306.72	19.619
307.09	20.311
307.45	19.820
307.82	17.857
308.19	19.316
308.55	20.173
308.92	18.475
309.29	18.585
309.65	18.452
310.02	19.345
310.38	20.108
310.75	19.747
311.12	18.628
311.48	19.540
311.85	19.706
312.22	18.002
312.58	17.775
312.95	19.535
313.31	18.350
313.68	18.295
314.05	20.611
314.41	18.794
314.78	17.825
315.14	17.776
315.51	18.950
315.87	19.406
316.24	18.173
316.61	18.421
316.97	17.123
317.34	17.221
317.70	19.312
318.07	17.998
318.43	17.123
318.80	20.056
319.16	19.115
319.53	17.917
319.89	19.333
320.26	18.000
320.62	19.544
320.99	18.788
321.35	17.980
321.72	18.583
322.08	19.842
322.45	17.811
322.81	19.186
323.18	18.015
323.54	19.202
323.91	18.019
324.27	19.503
324.64	17.987
325.00	17.944
325.37	18.653
325.73	18.582
326.10	17.211
326.46	17.921
326.83	18.464
327.19	18.019
327.56	17.857
327.92	17.848
328.29	18.456
328.65	17.864
329.01	18.502
329.38	18.686
329.74	18.283
330.11	18.096
330.47	18.733
330.84	18.199
331.20	18.852
331.56	18.807
331.93	17.130
332.29	17.569
332.66	19.292
333.02	16.636
333.38	18.790
333.75	18.360
334.11	17.082
334.48	17.924
334.84	18.290
335.20	18.182
335.57	17.498
335.93	16.429
336.29	17.491
336.66	17.583
337.02	17.738
337.38	17.500
337.75	17.558
338.11	17.099
338.47	17.035
338.84	19.065
339.20	16.606
339.56	18.339
339.93	16.455
340.29	16.938
340.65	16.756
341.02	17.888
341.38	17.260
341.74	17.895
342.11	17.817
342.47	17.621
342.83	17.637
343.20	18.095
343.56	16.933
343.92	17.632
344.28	16.582
344.65	16.595
345.01	16.246
345.37	16.552
345.73	16.836
346.10	16.539
346.46	18.390
346.82	16.639
347.19	16.541
347.55	16.338
347.91	16.990
348.27	17.091
348.63	17.140
349.00	17.152
349.36	16.256
349.72	16.760
350.08	17.261
350.45	17.575
350.81	17.303
351.17	18.071
351.53	15.971
351.89	16.749
352.26	17.522
352.62	17.161
352.98	16.126
353.34	17.256
353.70	15.712
354.07	16.290
354.43	16.190
354.79	15.044
355.15	15.882
355.51	16.707
355.87	16.327
356.24	16.124
356.60	16.038
356.96	16.573
357.32	15.781
357.68	16.772
358.04	16.073
358.40	16.390
358.77	16.901
359.13	16.180
359.49	16.235
359.85	14.524
360.21	16.268
360.57	15.720
360.93	16.615
361.29	14.664
361.66	14.783
362.02	16.045
362.38	16.426
362.74	15.848
363.10	15.026
363.46	15.701
363.82	15.722
364.18	16.006
364.54	15.750
364.90	16.076
365.26	16.029
365.62	15.632
365.98	15.194
366.35	15.544
366.71	16.269
367.07	15.222
367.43	15.312
367.79	16.417
368.15	15.661
368.51	15.189
368.87	16.488
369.23	15.362
369.59	15.786
369.95	15.147
370.31	15.741
370.67	15.797
371.03	16.629
371.39	15.962
371.75	16.544
372.11	15.292
372.47	15.982
372.83	16.427
373.19	15.246
373.55	16.408
373.91	16.495
374.27	15.258
374.63	15.273
374.99	16.243
375.35	15.352
375.71	16.107
376.07	15.844
376.42	15.131
376.78	14.911
377.14	14.993
377.50	15.497
377.86	14.694
378.22	16.182
378.58	15.163
378.94	15.085
379.30	14.377
379.66	15.926
380.02	15.971
380.38	14.451
380.74	14.886
381.09	15.892
381.45	15.366
381.81	15.602
382.17	15.669
382.53	14.906
382.89	15.988
383.25	14.822
383.61	16.295
383.97	15.760
384.32	15.533
384.68	14.932
385.04	14.751
385.40	15.294
385.76	14.926
386.12	14.961
386.48	15.670
386.83	15.202
387.19	16.512
387.55	16.203
387.91	15.901
388.27	15.512
388.62	16.226
388.98	14.373
389.34	15.707
389.70	16.064
390.06	16.160
390.42	16.407
390.77	15.522
391.13	15.954
391.49	15.292
391.85	15.341
392.20	15.457
392.56	15.404
392.92	15.656
393.28	14.438
393.64	15.647
393.99	15.455
394.35	14.888
394.71	15.496
395.07	15.389
395.42	15.575
395.78	14.440
396.14	15.518
396.50	16.667
396.85	15.448
397.21	16.276
397.57	15.747
397.92	15.625
398.28	14.406
398.64	15.532
399.00	15.053
399.35	15.285
399.71	15.278
400.07	16.499
400.42	15.767
400.78	16.043
401.14	15.488
401.49	16.537
401.85	15.366
402.21	15.269
402.57	15.423
402.92	14.880
403.28	16.552
403.63	15.842
403.99	15.223
404.35	15.333
404.70	15.887
405.06	15.026
405.42	16.032
405.77	15.371
406.13	15.124
406.49	15.376
406.84	15.357
407.20	14.835
407.55	14.869
407.91	15.467
408.27	14.805
408.62	15.051
408.98	15.319
409.34	15.191
409.69	14.903
410.05	14.994
410.40	14.801
410.76	15.950
411.11	15.259
411.47	14.633
411.83	15.577
412.18	14.719
412.54	15.006
412.89	16.446
413.25	14.699
413.60	15.812
413.96	15.483
414.31	15.431
414.67	15.399
415.03	15.033
415.38	15.206
415.74	16.077
416.09	15.545
416.45	15.730
416.80	15.995
417.16	15.952
417.51	16.324
417.87	14.900
418.22	15.205
418.58	15.236
418.93	15.049
419.29	15.722
419.64	16.310
420.00	15.793
420.35	15.478
420.71	15.541
421.06	14.916
421.42	15.848
421.77	15.247
422.12	14.823
422.48	14.355
422.83	16.075
423.19	15.083
423.54	14.974
423.90	16.058
424.25	15.299
424.61	15.357
424.96	15.627
425.31	16.058
425.67	14.888
426.02	15.314
426.38	15.873
426.73	15.155
427.09	15.380
427.44	15.239
427.79	14.836
428.15	15.476
428.50	15.740
428.85	16.150
429.21	15.019
429.56	15.293
429.92	13.790
430.27	14.697
430.62	13.876
430.98	14.842
431.33	14.897
431.68	15.340
432.04	15.016
432.39	14.620
432.74	15.619
433.10	15.280
433.45	14.636
433.80	13.747
434.16	15.118
434.51	14.684
434.86	15.792
435.22	15.787
435.57	15.805
435.92	14.921
436.28	15.777
436.63	16.225
436.98	15.627
437.34	15.683
437.69	16.453
438.04	15.346
438.39	15.224
438.75	16.095
439.10	14.749
439.45	15.230
439.81	15.589
440.16	14.794
440.51	15.641
440.86	15.981
441.22	14.905
441.57	14.809
441.92	15.046
442.27	14.962
442.63	14.955
442.98	16.282
443.33	15.489
443.68	15.126
444.03	14.592
444.39	14.849
444.74	15.314
445.09	15.310
445.44	15.309
445.79	14.745
446.15	15.299
446.50	15.078
446.85	15.313
447.20	15.196
447.55	15.857
447.91	14.451
448.26	14.914
448.61	14.189
448.96	15.504
449.31	15.523
449.66	15.307
450.02	14.652
450.37	14.399
450.72	14.721
451.07	14.321
451.42	14.590
451.77	15.326
452.12	15.647
452.47	15.174
452.83	15.035
453.18	14.487
453.53	14.904
453.88	14.589
454.23	15.242
454.58	15.385
454.93	15.830
455.28	15.835
455.63	14.988
455.98	15.060
456.34	15.452
456.69	15.529
457.04	15.294
457.39	15.020
457.74	14.916
458.09	14.721
458.44	14.994
458.79	14.967
459.14	15.124
459.49	14.886
459.84	15.623
460.19	14.496
460.54	14.641
460.89	15.908
461.24	14.754
461.59	16.037
461.94	15.598
462.29	15.015
462.64	15.061
462.99	15.094
463.34	16.133
463.69	15.197
464.04	15.304
464.39	14.319
464.74	15.211
465.09	15.440
465.44	14.127
465.79	14.653
466.14	14.614
466.49	15.072
466.84	15.353
467.19	15.329
467.54	16.000
467.89	15.186
468.24	15.416
468.59	15.446
468.94	14.783
469.29	15.746
469.64	15.529
469.99	16.171
470.34	15.059
470.68	16.092
471.03	15.442
471.38	14.871
471.73	15.123
472.08	15.526
472.43	15.201
472.78	15.076
473.13	15.725
473.48	15.793
473.83	15.000
474.17	15.744
474.52	15.447
474.87	15.762
475.22	15.670
475.57	15.529
475.92	15.135
476.27	15.558
476.61	14.727
476.96	14.953
477.31	15.280
477.66	15.646
478.01	14.794
478.36	14.807
478.70	14.746
479.05	14.643
479.40	14.330
479.75	14.997
480.10	14.811
480.45	14.612
480.79	14.238
481.14	14.726
481.49	14.333
481.84	14.586
482.19	14.811
482.53	13.899
482.88	14.937
483.23	14.206
483.58	14.832
483.92	14.480
484.27	14.031
484.62	14.224
484.97	14.426
485.31	14.349
485.66	13.545
486.01	13.007
486.36	12.649
486.70	12.171
487.05	12.652
487.40	13.151
487.75	13.609
488.09	13.770
488.44	13.642
488.79	14.828
489.13	14.820
489.48	14.886
489.83	14.156
490.17	14.599
490.52	14.438
490.87	14.383
491.22	14.143
491.56	14.032
491.91	14.565
492.26	14.883
492.60	14.332
492.95	14.312
493.30	14.299
493.64	14.559
493.99	14.438
494.34	15.171
494.68	14.698
495.03	14.850
495.37	15.123
495.72	15.010
496.07	15.406
496.41	14.115
496.76	13.808
497.11	14.633
497.45	14.206
497.80	14.203
498.14	14.493
498.49	14.634
498.84	14.669
499.18	13.952
499.53	14.198
499.87	14.212
500.22	13.990
500.56	14.612
500.91	14.327
501.26	14.983
501.60	15.377
501.95	14.253
502.29	15.558
502.64	14.525
502.98	14.493
503.33	14.945
503.67	14.803
504.02	14.780
504.36	14.553
504.71	14.851
505.06	14.747
505.40	14.487
505.75	13.790
506.09	14.966
506.44	14.800
506.78	14.905
507.13	15.245
507.47	15.051
507.82	15.147
508.16	14.488
508.51	14.916
508.85	14.250
509.19	14.439
509.54	14.847
509.88	14.992
510.23	15.013
510.57	15.480
510.92	14.966
511.26	14.543
511.61	15.041
511.95	14.823
512.30	13.892
512.64	14.401
512.98	15.059
513.33	15.310
513.67	14.621
514.02	15.043
514.36	15.292
514.70	15.219
515.05	14.445
515.39	15.087
515.74	15.653
516.08	15.539
516.42	15.649
516.77	15.162
517.11	14.262
517.46	15.406
517.80	15.912
518.14	14.071
518.49	15.928
518.83	15.000
519.17	15.185
519.52	14.714
519.86	15.003
520.20	15.318
520.55	15.560
520.89	15.754
521.23	15.320
521.58	15.486
521.92	15.064
522.26	14.765
522.61	15.389
522.95	15.163
523.29	15.581
523.64	15.366
523.98	15.219
524.32	15.561
524.66	15.394
525.01	15.502
525.35	14.808
525.69	15.271
526.04	15.327
526.38	16.168
526.72	16.135
527.06	15.945
527.41	14.295
527.75	15.048
528.09	14.708
528.43	15.041
528.78	15.304
529.12	15.273
529.46	16.044
529.80	15.099
530.15	14.766
530.49	14.892
530.83	16.076
531.17	15.862
531.51	16.667
531.86	15.613
532.20	16.167
532.54	16.015
532.88	15.340
533.22	15.365
533.57	15.494
533.91	15.593
534.25	15.067
534.59	14.826
534.93	15.824
535.27	14.665
535.62	15.079
535.96	14.689
536.30	15.512
536.64	15.390
536.98	15.594
537.32	15.405
537.66	15.867
538.01	15.273
538.35	15.191
538.69	16.273
539.03	14.295
539.37	15.016
539.71	14.647
540.05	15.817
540.39	15.548
540.73	14.877
541.07	14.990
541.42	14.938
541.76	16.839
542.10	15.847
542.44	15.894
542.78	15.613
543.12	14.459
543.46	16.721
543.80	15.680
544.14	14.827
544.48	15.111
544.82	14.753
545.16	15.940
545.50	14.653
545.84	15.793
546.18	15.623
546.52	15.141
546.86	15.601
547.20	15.846
547.54	15.898
547.88	15.753
548.22	14.819
548.56	14.780
548.90	15.109
549.24	14.747
549.58	15.621
549.92	15.453
550.26	15.767
550.60	16.390
550.94	16.056
551.28	14.923
551.62	16.032
551.96	15.649
552.30	15.904
552.64	14.875
552.98	15.458
553.32	15.037
553.66	16.360
554.00	15.854
554.34	15.183
554.68	15.308
555.02	14.880
555.36	16.284
555.69	14.953
556.03	15.141
556.37	15.416
556.71	14.325
557.05	15.756
557.39	15.255
557.73	15.243
558.07	16.099
558.41	15.557
558.75	15.283
559.08	15.585
559.42	14.966
559.76	16.029
560.10	15.632
560.44	14.465
560.78	15.170
561.12	15.303
561.45	15.450
561.79	14.502
562.13	15.359
562.47	14.891
562.81	15.342
563.15	15.518
563.48	14.655
563.82	15.721
564.16	15.173
564.50	14.388
564.84	14.791
565.17	14.543
565.51	15.208
565.85	14.530
566.19	14.527
566.52	15.896
566.86	14.286
567.20	15.507
567.54	14.726
567.88	13.580
568.21	14.656
568.55	14.156
568.89	14.737
569.23	13.636
569.56	13.279
569.90	13.736
570.24	13.204
570.57	13.363
570.91	12.928
571.25	12.909
571.59	12.990
571.92	12.759
572.26	12.623
572.60	13.574
572.93	12.504
573.27	13.191
573.61	13.009
573.95	12.791
574.28	12.563
574.62	12.998
574.96	12.497
575.29	12.270
575.63	12.754
575.97	12.835
576.30	13.144
576.64	12.509
576.98	12.737
577.31	12.153
577.65	12.986
577.98	12.304
578.32	12.331
578.66	12.537
578.99	12.509
579.33	12.878
579.67	12.381
580.00	12.563
580.34	12.696
580.67	12.692
581.01	12.975
581.35	12.579
581.68	12.460
582.02	12.227
582.35	12.098
582.69	12.545
583.02	12.032
583.36	12.635
583.70	13.012
584.03	12.644
584.37	13.386
584.70	12.722
585.04	12.549
585.37	12.745
585.71	12.406
586.04	13.047
586.38	12.800
586.72	12.759
587.05	12.252
587.39	12.401
587.72	12.574
588.06	12.487
588.39	12.757
588.73	12.995
589.06	13.431
589.40	13.165
589.73	13.481
590.07	12.989
590.40	13.372
590.73	13.856
591.07	13.797
591.40	13.454
591.74	14.026
592.07	13.700
592.41	14.221
592.74	13.858
593.08	12.725
593.41	12.907
593.75	12.929
594.08	13.108
594.41	13.432
594.75	13.567
595.08	13.243
595.42	12.890
595.75	13.497
596.09	13.857
596.42	14.106
596.75	14.310
597.09	13.853
597.42	12.816
597.75	13.454
598.09	13.957
598.42	13.316
598.76	12.728
599.09	12.809
599.42	12.409
599.76	13.141
600.09	12.933
600.42	13.039
600.76	12.750
601.09	13.115
601.42	13.052
601.76	13.321
602.09	13.162
602.42	13.973
602.76	13.825
603.09	13.769
603.42	13.823
603.76	13.034
604.09	13.339
604.42	13.045
604.76	13.707
605.09	14.024
605.42	12.869
605.75	13.618
606.09	12.688
606.42	13.159
606.75	13.065
607.09	13.897
607.42	13.436
607.75	13.038
608.08	13.634
608.42	13.626
608.75	13.300
609.08	13.414
609.41	14.041
609.75	13.292
610.08	13.996
610.41	13.315
610.74	13.434
611.07	13.291
611.41	14.181
611.74	13.826
612.07	13.923
612.40	13.589
612.73	13.632
613.07	14.494
613.40	14.218
613.73	12.743
614.06	13.817
614.39	13.896
614.72	13.947
615.06	13.550
615.39	13.163
615.72	13.548
616.05	13.184
616.38	14.286
616.71	14.371
617.05	14.429
617.38	14.071
617.71	13.934
618.04	14.543
618.37	13.897
618.70	14.499
619.03	14.803
619.36	14.936
619.69	15.141
620.03	14.766
620.36	14.305
620.69	15.411
621.02	14.381
621.35	15.192
621.68	14.564
622.01	15.402
622.34	15.280
622.67	15.361
623.00	14.233
623.33	14.296
623.66	14.296
623.99	15.317
624.32	14.337
624.65	14.689
624.99	13.385
625.32	13.251
625.65	14.876
625.98	14.912
626.31	15.474
626.64	16.082
626.97	15.046
627.30	15.794
627.63	15.094
627.96	15.728
628.29	15.223
628.62	15.279
628.95	16.604
629.28	15.785
629.61	15.765
629.94	15.810
630.26	14.490
630.59	16.111
630.92	15.517
631.25	14.511
