SpectraSuite Data File
++++++++++++++++++++++++++++++++++++
Date: Wed May 13 16:11:46 PDT 2015
User: schluterlab
Dark Spectrum Present: Yes
Reference Spectrum Present: Yes
Number of Sampled Component Spectra: 1
Spectrometers: USB2E3373
Integration Time (usec): 3000 (USB2E3373)
Spectra Averaged: 3 (USB2E3373)
Boxcar Smoothing: 0 (USB2E3373)
Correct for Electrical Dark: No (USB2E3373)
Strobe/Lamp Enabled: No (USB2E3373)
Correct for Detector Non-linearity: No (USB2E3373)
Correct for Stray Light: No (USB2E3373)
Number of Pixels in Processed Spectrum: 2048
>>>>>Begin Processed Spectral Data<<<<<
178.53	0.000
178.91	-875.000
179.29	-900.000
179.67	-194.444
180.04	-900.000
180.42	2150.000
180.80	740.000
181.18	-825.000
181.56	571.429
181.94	0.000
182.31	-442.857
182.69	1300.000
183.07	-325.000
183.45	-388.889
183.83	372.727
184.20	-360.000
184.58	1500.000
184.96	3100.000
185.34	-680.000
185.72	-400.000
186.09	-2000.000
186.47	2050.000
186.85	2100.000
187.23	4400.000
187.61	-1200.000
187.98	1100.000
188.36	418.182
188.74	500.000
189.12	-840.000
189.49	470.000
189.87	-4500.000
190.25	-1025.000
190.63	335.714
191.00	407.692
191.38	616.667
191.76	-850.000
192.14	1225.000
192.51	425.000
192.89	650.000
193.27	525.000
193.65	-1250.000
194.02	380.000
194.40	560.000
194.78	490.000
195.15	400.000
195.53	500.000
195.91	-1450.000
196.29	237.500
196.66	242.105
197.04	-190.000
197.42	0.000
197.79	520.000
198.17	-4300.000
198.55	528.571
198.92	525.000
199.30	680.000
199.68	0.000
200.05	283.333
200.43	614.286
200.81	3300.000
201.18	1233.333
201.56	-1266.667
201.94	388.889
202.31	488.889
202.69	316.667
203.07	470.000
203.44	0.000
203.82	1125.000
204.19	528.571
204.57	385.714
204.95	562.500
205.32	1200.000
205.70	418.182
206.08	335.714
206.45	1850.000
206.83	275.000
207.20	683.333
207.58	720.000
207.96	272.222
208.33	550.000
208.71	-550.000
209.08	614.286
209.46	511.111
209.84	345.455
210.21	-1166.667
210.59	1000.000
210.96	-350.000
211.34	2200.000
211.71	480.000
212.09	516.667
212.46	0.000
212.84	1166.667
213.22	975.000
213.59	-3400.000
213.97	716.667
214.34	714.286
214.72	590.909
215.09	700.000
215.47	-1850.000
215.84	-2000.000
216.22	900.000
216.59	321.429
216.97	1175.000
217.34	327.273
217.72	-600.000
218.09	0.000
218.47	-4200.000
218.84	588.889
219.22	685.714
219.59	1133.333
219.97	-514.286
220.34	800.000
220.72	-1333.333
221.09	342.857
221.47	1125.000
221.84	-816.667
222.22	0.000
222.59	1000.000
222.97	-1900.000
223.34	840.000
223.72	300.000
224.09	860.000
224.46	1650.000
224.84	-2500.000
225.21	-800.000
225.59	-3000.000
225.96	500.000
226.34	240.000
226.71	2000.000
227.08	550.000
227.46	430.000
227.83	-875.000
228.21	-1850.000
228.58	477.778
228.95	-2250.000
229.33	-1700.000
229.70	1500.000
230.08	642.857
230.45	-720.000
230.82	325.000
231.20	600.000
231.57	457.143
231.95	400.000
232.32	168.182
232.69	300.000
233.07	571.429
233.44	269.231
233.81	-1266.667
234.19	268.421
234.56	358.333
234.93	283.333
235.31	436.364
235.68	284.615
236.05	271.429
236.43	136.364
236.80	210.526
237.17	3300.000
237.55	209.524
237.92	178.571
238.29	185.714
238.67	112.903
239.04	179.310
239.41	122.222
239.79	100.000
240.16	104.762
240.53	129.545
240.91	78.431
241.28	84.000
241.65	86.000
242.02	85.507
242.40	85.484
242.77	85.000
243.14	73.118
243.51	71.910
243.89	62.353
244.26	57.778
244.63	60.215
245.00	48.936
245.38	64.356
245.75	48.598
246.12	48.624
246.49	46.715
246.87	58.400
247.24	66.923
247.61	65.000
247.98	50.980
248.36	44.595
248.73	48.408
249.10	54.777
249.47	44.068
249.84	44.920
250.22	42.246
250.59	45.562
250.96	43.434
251.33	46.445
251.70	45.050
252.08	45.238
252.45	34.529
252.82	42.609
253.19	40.851
253.56	38.431
253.94	38.589
254.31	37.500
254.68	41.538
255.05	35.055
255.42	39.431
255.79	37.868
256.16	35.740
256.54	35.689
256.91	33.096
257.28	32.014
257.65	36.964
258.02	37.267
258.39	35.962
258.76	34.783
259.14	36.310
259.51	32.827
259.88	33.540
260.25	35.045
260.62	32.081
260.99	35.404
261.36	33.033
261.73	36.963
262.10	33.721
262.47	34.085
262.85	32.033
263.22	32.194
263.59	33.048
263.96	33.791
264.33	33.681
264.70	32.632
265.07	34.783
265.44	30.556
265.81	28.467
266.18	32.663
266.55	31.463
266.92	33.661
267.29	33.796
267.66	30.734
268.03	30.682
268.40	30.374
268.77	29.594
269.14	29.730
269.51	33.860
269.88	32.168
270.25	28.894
270.62	30.337
270.99	31.828
271.36	30.043
271.73	30.140
272.10	32.391
272.47	33.118
272.84	31.169
273.21	31.027
273.58	27.074
273.95	28.721
274.32	28.306
274.69	31.263
275.06	30.709
275.43	30.000
275.80	28.657
276.17	29.532
276.54	28.274
276.91	30.040
277.28	27.539
277.65	30.174
278.02	30.021
278.39	29.492
278.76	30.182
279.13	30.377
279.50	26.816
279.87	30.478
280.23	28.543
280.60	28.820
280.97	29.205
281.34	30.088
281.71	32.000
282.08	29.367
282.45	26.727
282.82	26.465
283.19	26.738
283.56	28.596
283.92	29.442
284.29	26.808
284.66	27.768
285.03	28.933
285.40	28.697
285.77	27.609
286.14	27.461
286.51	29.000
286.87	25.470
287.24	28.990
287.61	26.966
287.98	27.435
288.35	26.624
288.72	26.791
289.08	29.264
289.45	27.183
289.82	26.504
290.19	26.060
290.56	27.106
290.93	24.471
291.29	25.613
291.66	25.664
292.03	27.180
292.40	28.047
292.77	25.592
293.13	25.672
293.50	27.259
293.87	26.963
294.24	25.778
294.60	26.638
294.97	26.599
295.34	27.362
295.71	25.710
296.08	25.783
296.44	25.309
296.81	24.174
297.18	26.423
297.55	23.219
297.91	23.879
298.28	28.112
298.65	25.065
299.02	26.350
299.38	24.701
299.75	24.528
300.12	25.160
300.48	25.500
300.85	24.784
301.22	25.987
301.59	25.000
301.95	25.189
302.32	26.187
302.69	25.209
303.05	25.212
303.42	26.049
303.79	25.934
304.15	23.776
304.52	26.188
304.89	24.855
305.25	25.058
305.62	25.255
305.99	26.682
306.35	26.063
306.72	26.233
307.09	25.416
307.45	26.802
307.82	25.781
308.19	26.049
308.55	28.047
308.92	26.960
309.29	24.815
309.65	26.511
310.02	27.484
310.38	26.774
310.75	26.716
311.12	27.021
311.48	28.945
311.85	27.149
312.22	28.096
312.58	26.819
312.95	28.511
313.31	26.796
313.68	27.755
314.05	29.980
314.41	28.241
314.78	29.204
315.14	29.990
315.51	29.454
315.87	29.406
316.24	30.089
316.61	28.850
316.97	29.648
317.34	28.963
317.70	30.210
318.07	30.510
318.43	29.941
318.80	30.928
319.16	30.979
319.53	28.987
319.89	31.238
320.26	32.400
320.62	32.440
320.99	31.919
321.35	32.121
321.72	33.265
322.08	32.971
322.45	32.637
322.81	34.593
323.18	35.164
323.54	33.859
323.91	34.151
324.27	34.034
324.64	33.644
325.00	33.814
325.37	34.395
325.73	35.278
326.10	35.922
326.46	35.484
326.83	36.238
327.19	34.586
327.56	36.324
327.92	36.395
328.29	36.380
328.65	38.122
329.01	37.635
329.38	36.263
329.74	37.581
330.11	37.418
330.47	37.466
330.84	38.695
331.20	36.976
331.56	38.440
331.93	37.037
332.29	37.888
332.66	38.496
333.02	37.386
333.38	37.760
333.75	37.611
334.11	37.900
334.48	36.646
334.84	37.132
335.20	36.455
335.57	37.806
335.93	36.875
336.29	37.088
336.66	37.331
337.02	36.380
337.38	36.944
337.75	36.809
338.11	35.542
338.47	36.372
338.84	38.222
339.20	35.872
339.56	36.405
339.93	36.364
340.29	36.866
340.65	36.720
341.02	36.213
341.38	36.121
341.74	35.439
342.11	35.983
342.47	35.947
342.83	37.072
343.20	36.797
343.56	35.383
343.92	37.018
344.28	36.395
344.65	35.512
345.01	36.700
345.37	36.535
345.73	36.548
346.10	36.402
346.46	35.932
346.82	35.997
347.19	36.174
347.55	35.714
347.91	36.327
348.27	35.744
348.63	36.120
349.00	34.709
349.36	37.438
349.72	36.488
350.08	36.548
350.45	36.208
350.81	36.393
351.17	35.413
351.53	35.381
351.89	34.653
352.26	35.596
352.62	36.889
352.98	35.575
353.34	35.826
353.70	36.334
354.07	37.339
354.43	36.111
354.79	36.122
355.15	36.233
355.51	36.531
355.87	36.490
356.24	35.586
356.60	34.483
356.96	35.961
357.32	36.386
357.68	38.189
358.04	35.709
358.40	36.421
358.77	36.150
359.13	34.807
359.49	35.922
359.85	35.079
360.21	36.045
360.57	36.965
360.93	36.385
361.29	35.828
361.66	35.913
362.02	35.000
362.38	37.490
362.74	36.458
363.10	36.417
363.46	36.023
363.82	37.415
364.18	37.665
364.54	35.215
364.90	36.544
365.26	36.471
365.62	37.400
365.98	36.231
366.35	36.175
366.71	36.949
367.07	36.344
367.43	37.155
367.79	38.687
368.15	38.003
368.51	35.538
368.87	37.116
369.23	37.966
369.59	36.930
369.95	36.985
370.31	36.325
370.67	37.536
371.03	36.629
371.39	37.536
371.75	36.324
372.11	37.340
372.47	37.830
372.83	38.112
373.19	36.777
373.55	38.064
373.91	39.396
374.27	37.388
374.63	37.745
374.99	37.712
375.35	36.985
375.71	37.217
376.07	36.900
376.42	38.239
376.78	37.243
377.14	37.720
377.50	37.285
377.86	37.832
378.22	38.180
378.58	37.657
378.94	38.341
379.30	37.150
379.66	38.579
380.02	38.698
380.38	38.251
380.74	38.776
381.09	38.020
381.45	39.152
381.81	38.329
382.17	39.045
382.53	39.245
382.89	39.383
383.25	38.524
383.61	39.963
383.97	38.587
384.32	38.116
384.68	37.670
385.04	38.476
385.40	38.390
385.76	38.759
386.12	40.479
386.48	39.899
386.83	39.577
387.19	40.754
387.55	39.394
387.91	38.634
388.27	39.117
388.62	40.135
388.98	38.391
389.34	39.675
389.70	39.792
390.06	39.861
390.42	40.208
390.77	39.567
391.13	40.077
391.49	39.340
391.85	39.338
392.20	38.107
392.56	40.341
392.92	40.082
393.28	38.757
393.64	38.849
393.99	38.790
394.35	39.268
394.71	39.460
395.07	38.567
395.42	39.988
395.78	38.995
396.14	39.106
396.50	39.912
396.85	39.606
397.21	37.916
397.57	39.120
397.92	38.221
398.28	37.500
398.64	37.873
399.00	38.276
399.35	39.143
399.71	39.236
400.07	38.380
400.42	38.160
400.78	39.324
401.14	38.598
401.49	39.045
401.85	37.992
402.21	37.186
402.57	38.001
402.92	38.146
403.28	38.601
403.63	37.871
403.99	37.707
404.35	38.727
404.70	37.350
405.06	36.867
405.42	37.367
405.77	37.371
406.13	36.512
406.49	37.907
406.84	36.267
407.20	35.638
407.55	37.013
407.91	37.733
408.27	36.950
408.62	38.712
408.98	37.316
409.34	36.224
409.69	37.871
410.05	36.617
410.40	36.697
410.76	36.738
411.11	37.274
411.47	35.655
411.83	37.141
412.18	35.683
412.54	35.554
412.89	36.325
413.25	35.950
413.60	37.060
413.96	36.005
414.31	35.115
414.67	37.009
415.03	35.563
415.38	36.662
415.74	36.785
416.09	37.557
416.45	36.145
416.80	35.691
417.16	37.534
417.51	36.828
417.87	36.352
418.22	36.782
418.58	37.573
418.93	36.548
419.29	37.046
419.64	37.154
420.00	36.220
420.35	35.826
420.71	36.521
421.06	35.263
421.42	36.199
421.77	36.715
422.12	36.272
422.48	35.348
422.83	36.109
423.19	36.133
423.54	36.970
423.90	37.275
424.25	36.963
424.61	37.083
424.96	36.560
425.31	36.157
425.67	36.292
426.02	37.143
426.38	38.095
426.73	36.747
427.09	37.447
427.44	37.435
427.79	36.630
428.15	37.560
428.50	36.747
428.85	37.247
429.21	36.334
429.56	37.636
429.92	36.990
430.27	36.693
430.62	36.969
430.98	37.052
431.33	37.320
431.68	37.435
432.04	36.209
432.39	36.722
432.74	37.762
433.10	37.351
433.45	37.901
433.80	37.140
434.16	37.340
434.51	36.632
434.86	38.027
435.22	36.798
435.57	37.751
435.92	37.507
436.28	38.197
436.63	37.196
436.98	37.149
437.34	38.283
437.69	39.265
438.04	38.168
438.39	37.433
438.75	38.582
439.10	38.380
439.45	38.371
439.81	38.429
440.16	37.324
440.51	38.781
440.86	38.680
441.22	37.764
441.57	38.057
441.92	38.229
442.27	37.998
442.63	37.915
442.98	38.423
443.33	37.989
443.68	37.481
444.03	38.507
444.39	37.877
444.74	38.745
445.09	38.491
445.44	37.999
445.79	37.308
446.15	37.215
446.50	38.234
446.85	38.181
447.20	37.787
447.55	38.135
447.91	38.169
448.26	37.785
448.61	37.988
448.96	39.313
449.31	38.526
449.66	38.492
450.02	37.939
450.37	38.039
450.72	37.281
451.07	37.843
451.42	38.541
451.77	38.990
452.12	37.240
452.47	39.552
452.83	38.811
453.18	38.142
453.53	39.023
453.88	39.102
454.23	38.793
454.58	39.249
454.93	38.970
455.28	37.344
455.63	37.985
455.98	39.643
456.34	38.693
456.69	38.885
457.04	38.576
457.39	37.639
457.74	38.479
458.09	39.218
458.44	38.655
458.79	37.636
459.14	38.375
459.49	37.712
459.84	37.839
460.19	38.303
460.54	37.558
460.89	37.850
461.24	38.919
461.59	38.931
461.94	37.300
462.29	38.872
462.64	37.460
462.99	37.020
463.34	37.867
463.69	37.899
464.04	38.435
464.39	37.913
464.74	37.730
465.09	37.575
465.44	38.006
465.79	36.689
466.14	36.836
466.49	36.763
466.84	37.945
467.19	37.357
467.54	38.688
467.89	38.055
468.24	37.929
468.59	38.095
468.94	37.080
469.29	38.303
469.64	38.153
469.99	38.160
470.34	38.309
470.68	38.721
471.03	38.571
471.38	39.055
471.73	38.041
472.08	38.224
472.43	38.128
472.78	38.710
473.13	37.548
473.48	37.516
473.83	38.232
474.17	36.528
474.52	38.337
474.87	38.004
475.22	37.319
475.57	37.023
475.92	36.750
476.27	36.922
476.61	36.514
476.96	37.548
477.31	36.473
477.66	36.707
478.01	37.010
478.36	37.652
478.70	36.552
479.05	37.220
479.40	37.308
479.75	36.096
480.10	36.680
480.45	36.221
480.79	36.885
481.14	36.840
481.49	36.260
481.84	36.123
482.19	35.711
482.53	35.780
482.88	36.063
483.23	36.682
483.58	36.670
483.92	36.176
484.27	34.946
484.62	35.776
484.97	35.002
485.31	36.130
485.66	34.071
486.01	32.701
486.36	31.743
486.70	31.442
487.05	31.935
487.40	33.069
487.75	33.762
488.09	35.426
488.44	35.157
488.79	36.166
489.13	35.867
489.48	35.563
489.83	35.477
490.17	36.388
490.52	35.695
490.87	35.052
491.22	35.380
491.56	34.897
491.91	35.551
492.26	34.681
492.60	35.668
492.95	34.705
493.30	34.439
493.64	36.164
493.99	35.144
494.34	35.106
494.68	35.714
495.03	35.432
495.37	35.133
495.72	35.088
496.07	35.824
496.41	33.496
496.76	35.400
497.11	34.669
497.45	35.352
497.80	35.077
498.14	34.734
498.49	36.293
498.84	35.475
499.18	34.619
499.53	34.805
499.87	34.623
500.22	34.385
500.56	35.243
500.91	33.942
501.26	34.282
501.60	35.121
501.95	34.510
502.29	35.895
502.64	34.683
502.98	34.970
503.33	34.278
503.67	33.968
504.02	34.939
504.36	33.973
504.71	35.076
505.06	34.506
505.40	34.370
505.75	33.751
506.09	34.694
506.44	35.520
506.78	34.925
507.13	35.487
507.47	35.303
507.82	35.664
508.16	34.802
508.51	34.906
508.85	33.764
509.19	34.847
509.54	34.694
509.88	34.467
510.23	34.910
510.57	35.604
510.92	33.972
511.26	34.481
511.61	35.010
511.95	33.455
512.30	33.934
512.64	34.390
512.98	34.995
513.33	35.118
513.67	34.205
514.02	34.145
514.36	35.718
514.70	34.975
515.05	36.085
515.39	34.829
515.74	33.896
516.08	35.774
516.42	35.072
516.77	35.173
517.11	34.240
517.46	34.481
517.80	35.308
518.14	34.627
518.49	35.706
518.83	34.773
519.17	34.758
519.52	34.352
519.86	34.512
520.20	34.509
520.55	35.488
520.89	35.401
521.23	35.163
521.58	35.054
521.92	35.028
522.26	34.594
522.61	35.701
522.95	35.666
523.29	35.606
523.64	35.549
523.98	34.504
524.32	35.585
524.66	33.674
525.01	34.681
525.35	34.387
525.69	34.052
526.04	34.579
526.38	35.265
526.72	33.620
527.06	35.342
527.41	34.282
527.75	34.791
528.09	34.939
528.43	34.481
528.78	34.788
529.12	33.212
529.46	34.660
529.80	34.158
530.15	34.517
530.49	32.738
530.83	34.430
531.17	35.117
531.51	35.538
531.86	34.581
532.20	35.398
532.54	34.465
532.88	33.954
533.22	33.854
533.57	33.519
533.91	33.353
534.25	33.718
534.59	34.045
534.93	32.897
535.27	33.374
535.62	33.516
535.96	33.584
536.30	32.104
536.64	34.127
536.98	33.510
537.32	33.443
537.66	34.067
538.01	34.365
538.35	33.032
538.69	33.184
539.03	32.684
539.37	33.291
539.71	31.951
540.05	32.680
540.39	33.289
540.73	32.342
541.07	33.874
541.42	33.138
541.76	34.129
542.10	33.182
542.44	33.576
542.78	33.729
543.12	32.949
543.46	32.984
543.80	33.767
544.14	31.772
544.48	33.079
544.82	32.777
545.16	32.271
545.50	31.684
545.84	33.199
546.18	32.660
546.52	33.379
546.86	33.402
547.20	34.525
547.54	32.599
547.88	32.079
548.22	31.880
548.56	31.195
548.90	32.202
549.24	32.525
549.58	33.015
549.92	32.143
550.26	34.801
550.60	32.365
550.94	32.958
551.28	33.358
551.62	33.501
551.96	32.351
552.30	32.765
552.64	32.319
552.98	32.203
553.32	32.839
553.66	33.197
554.00	32.052
554.34	32.781
554.68	32.761
555.02	33.216
555.36	31.802
555.69	31.461
556.03	31.898
556.37	31.924
556.71	32.060
557.05	33.053
557.39	32.750
557.73	31.969
558.07	33.285
558.41	32.055
558.75	34.533
559.08	33.706
559.42	32.804
559.76	31.397
560.10	31.406
560.44	32.145
560.78	31.470
561.12	32.190
561.45	31.226
561.79	31.180
562.13	31.858
562.47	31.352
562.81	32.427
563.15	31.839
563.48	31.698
563.82	30.267
564.16	31.066
564.50	31.250
564.84	30.088
565.17	31.017
565.51	32.204
565.85	31.409
566.19	30.620
566.52	31.096
566.86	29.656
567.20	30.837
567.54	30.651
567.88	28.952
568.21	30.053
568.55	29.525
568.89	29.621
569.23	28.342
569.56	28.178
569.90	28.717
570.24	27.377
570.57	27.304
570.91	26.729
571.25	26.868
571.59	26.981
571.92	26.584
572.26	26.690
572.60	26.907
572.93	26.537
573.27	26.619
573.61	27.164
573.95	26.408
574.28	25.754
574.62	25.972
574.96	25.233
575.29	25.558
575.63	25.330
575.97	25.905
576.30	26.474
576.64	25.979
576.98	25.425
577.31	25.531
577.65	25.147
577.98	25.090
578.32	25.338
578.66	25.618
578.99	25.360
579.33	25.442
579.67	25.809
580.00	25.773
580.34	25.392
580.67	25.857
581.01	25.793
581.35	25.547
581.68	25.256
582.02	24.523
582.35	25.118
582.69	25.033
583.02	25.298
583.36	25.594
583.70	26.249
584.03	26.594
584.37	26.693
584.70	26.541
585.04	26.003
585.37	26.002
585.71	25.305
586.04	25.900
586.38	26.149
586.72	26.236
587.05	25.863
587.39	25.356
587.72	25.354
588.06	25.454
588.39	26.475
588.73	26.723
589.06	26.831
589.40	27.037
589.73	26.294
590.07	27.224
590.40	26.489
590.73	27.283
591.07	28.287
591.40	27.246
591.74	28.268
592.07	28.578
592.41	28.028
592.74	27.528
593.08	26.616
593.41	26.131
593.75	25.515
594.08	25.846
594.41	27.289
594.75	27.061
595.08	26.521
595.42	26.865
595.75	27.030
596.09	27.300
596.42	27.819
596.75	27.480
597.09	28.052
597.42	27.066
597.75	27.339
598.09	26.957
598.42	27.534
598.76	26.632
599.09	26.112
599.42	25.837
599.76	26.391
600.09	26.193
600.42	26.187
600.76	25.964
601.09	26.448
601.42	26.979
601.76	26.376
602.09	26.719
602.42	26.990
602.76	28.255
603.09	27.105
603.42	27.216
603.76	26.524
604.09	26.212
604.42	26.661
604.76	26.993
605.09	27.217
605.42	26.935
605.75	26.656
606.09	27.044
606.42	27.299
606.75	26.504
607.09	27.794
607.42	27.214
607.75	26.076
608.08	26.921
608.42	27.297
608.75	27.187
609.08	26.781
609.41	27.320
609.75	27.632
610.08	27.568
610.41	26.257
610.74	27.200
611.07	27.668
611.41	27.478
611.74	27.903
612.07	27.277
612.40	27.859
612.73	27.526
613.07	27.963
613.40	28.541
613.73	26.534
614.06	27.312
614.39	27.635
614.72	27.632
615.06	27.626
615.39	27.760
615.72	26.892
616.05	26.582
616.38	27.738
616.71	28.919
617.05	28.916
617.38	28.202
617.71	28.649
618.04	28.546
618.37	27.912
618.70	28.500
619.03	29.342
619.36	28.853
619.69	29.507
620.03	30.357
620.36	29.144
620.69	29.589
621.02	30.678
621.35	29.601
621.68	29.050
622.01	29.954
622.34	29.879
622.67	28.897
623.00	28.613
623.33	28.234
623.66	28.878
623.99	28.645
624.32	28.602
624.65	29.096
624.99	28.612
625.32	28.820
625.65	28.850
625.98	29.516
626.31	29.316
626.64	29.959
626.97	30.341
627.30	29.094
627.63	30.025
627.96	31.287
628.29	31.671
628.62	31.382
628.95	32.830
629.28	30.657
629.61	32.356
629.94	30.667
630.26	30.315
630.59	31.935
630.92	30.939
631.25	31.293
