SpectraSuite Data File
++++++++++++++++++++++++++++++++++++
Date: Wed May 13 16:44:26 PDT 2015
User: schluterlab
Dark Spectrum Present: Yes
Reference Spectrum Present: Yes
Number of Sampled Component Spectra: 1
Spectrometers: USB2E3373
Integration Time (usec): 3000 (USB2E3373)
Spectra Averaged: 3 (USB2E3373)
Boxcar Smoothing: 0 (USB2E3373)
Correct for Electrical Dark: No (USB2E3373)
Strobe/Lamp Enabled: No (USB2E3373)
Correct for Detector Non-linearity: No (USB2E3373)
Correct for Stray Light: No (USB2E3373)
Number of Pixels in Processed Spectrum: 2048
>>>>>Begin Processed Spectral Data<<<<<
178.53	0.000
178.91	-1225.000
179.29	-1350.000
179.67	-222.222
180.04	-1250.000
180.42	2350.000
180.80	1160.000
181.18	-950.000
181.56	700.000
181.94	0.000
182.31	-671.429
182.69	1700.000
183.07	-512.500
183.45	-588.889
183.83	490.909
184.20	-350.000
184.58	2250.000
184.96	5300.000
185.34	-1080.000
185.72	-587.500
186.09	-1600.000
186.47	2100.000
186.85	2500.000
187.23	4300.000
187.61	-1266.667
187.98	1300.000
188.36	554.545
188.74	572.727
189.12	-840.000
189.49	590.000
189.87	-4100.000
190.25	-1225.000
190.63	350.000
191.00	461.538
191.38	816.667
191.76	-975.000
192.14	1425.000
192.51	462.500
192.89	933.333
193.27	575.000
193.65	-1350.000
194.02	520.000
194.40	820.000
194.78	540.000
195.15	441.667
195.53	500.000
195.91	-1800.000
196.29	375.000
196.66	263.158
197.04	-360.000
197.42	0.000
197.79	570.000
198.17	-4600.000
198.55	685.714
198.92	725.000
199.30	960.000
199.68	0.000
200.05	283.333
200.43	857.143
200.81	3700.000
201.18	1700.000
201.56	-1500.000
201.94	544.444
202.31	600.000
202.69	425.000
203.07	560.000
203.44	0.000
203.82	1300.000
204.19	771.429
204.57	450.000
204.95	600.000
205.32	1366.667
205.70	481.818
206.08	421.429
206.45	2200.000
206.83	425.000
207.20	750.000
207.58	620.000
207.96	355.556
208.33	675.000
208.71	-766.667
209.08	685.714
209.46	544.444
209.84	445.455
210.21	-1500.000
210.59	1300.000
210.96	-550.000
211.34	2100.000
211.71	590.000
212.09	816.667
212.46	0.000
212.84	1700.000
213.22	1400.000
213.59	-4500.000
213.97	800.000
214.34	942.857
214.72	609.091
215.09	960.000
215.47	-2300.000
215.84	-2350.000
216.22	1600.000
216.59	442.857
216.97	1225.000
217.34	481.818
217.72	-866.667
218.09	0.000
218.47	-4400.000
218.84	722.222
219.22	700.000
219.59	1666.667
219.97	-585.714
220.34	940.000
220.72	-1566.667
221.09	378.571
221.47	1300.000
221.84	-933.333
222.22	0.000
222.59	1400.000
222.97	-2500.000
223.34	1020.000
223.72	346.154
224.09	1100.000
224.46	2350.000
224.84	-4000.000
225.21	-1160.000
225.59	-4600.000
225.96	580.000
226.34	280.000
226.71	2100.000
227.08	562.500
227.46	560.000
227.83	-1100.000
228.21	-1650.000
228.58	644.444
228.95	-2450.000
229.33	-1850.000
229.70	1566.667
230.08	800.000
230.45	-740.000
230.82	416.667
231.20	633.333
231.57	585.714
231.95	525.000
232.32	227.273
232.69	427.273
233.07	657.143
233.44	407.692
233.81	-1633.333
234.19	300.000
234.56	491.667
234.93	391.667
235.31	472.727
235.68	338.462
236.05	364.286
236.43	148.485
236.80	263.158
237.17	4700.000
237.55	214.286
237.92	210.714
238.29	242.857
238.67	164.516
239.04	196.552
239.41	152.778
239.79	102.174
240.16	142.857
240.53	143.182
240.91	103.922
241.28	104.000
241.65	122.000
242.02	97.101
242.40	72.581
242.77	90.000
243.14	73.118
243.51	89.888
243.89	67.059
244.26	64.444
244.63	68.817
245.00	62.766
245.38	58.416
245.75	58.879
246.12	61.468
246.49	63.504
246.87	65.600
247.24	66.154
247.61	47.143
247.98	49.020
248.36	46.622
248.73	43.949
249.10	51.592
249.47	45.198
249.84	46.524
250.22	40.107
250.59	44.970
250.96	43.434
251.33	42.654
251.70	43.069
252.08	43.810
252.45	36.323
252.82	40.000
253.19	39.149
253.56	36.863
253.94	41.079
254.31	34.375
254.68	36.538
255.05	39.483
255.42	34.959
255.79	32.353
256.16	37.545
256.54	28.269
256.91	33.452
257.28	32.734
257.65	31.353
258.02	34.161
258.39	34.385
258.76	30.100
259.14	33.631
259.51	29.483
259.88	31.366
260.25	35.952
260.62	32.659
260.99	33.230
261.36	32.432
261.73	32.092
262.10	30.233
262.47	30.141
262.85	24.791
263.22	27.920
263.59	31.624
263.96	29.121
264.33	30.287
264.70	29.737
265.07	28.133
265.44	27.778
265.81	29.197
266.18	31.658
266.55	28.780
266.92	28.501
267.29	29.167
267.66	27.064
268.03	28.409
268.40	27.570
268.77	26.730
269.14	28.153
269.51	26.862
269.88	28.904
270.25	26.862
270.62	27.416
270.99	27.097
271.36	27.468
271.73	27.103
272.10	25.217
272.47	29.032
272.84	26.190
273.21	28.092
273.58	24.454
273.95	25.157
274.32	25.826
274.69	28.480
275.06	25.000
275.43	26.596
275.80	26.052
276.17	25.051
276.54	25.572
276.91	26.482
277.28	24.805
277.65	25.338
278.02	24.638
278.39	26.758
278.76	23.636
279.13	25.472
279.50	25.140
279.87	25.299
280.23	26.347
280.60	24.371
280.97	25.508
281.34	24.602
281.71	25.455
282.08	26.679
282.45	25.091
282.82	24.867
283.19	22.638
283.56	23.509
283.92	23.519
284.29	24.162
284.66	24.864
285.03	22.785
285.40	23.944
285.77	25.758
286.14	22.453
286.51	24.500
286.87	24.274
287.24	24.756
287.61	22.632
287.98	24.188
288.35	23.772
288.72	21.495
289.08	23.474
289.45	20.758
289.82	23.089
290.19	19.466
290.56	20.980
290.93	20.846
291.29	22.086
291.66	20.354
292.03	24.709
292.40	21.733
292.77	17.751
293.13	20.448
293.50	21.137
293.87	20.000
294.24	18.074
294.60	19.796
294.97	20.640
295.34	20.310
295.71	21.591
296.08	16.809
296.44	19.257
296.81	18.494
297.18	20.461
297.55	17.942
297.91	18.074
298.28	19.946
298.65	18.277
299.02	19.631
299.38	18.194
299.75	15.633
300.12	17.625
300.48	18.625
300.85	18.989
301.22	17.580
301.59	17.424
301.95	18.892
302.32	17.330
302.69	17.204
303.05	17.333
303.42	16.173
303.79	17.327
304.15	15.967
304.52	16.454
304.89	17.073
305.25	15.545
305.62	15.742
305.99	18.418
306.35	16.555
306.72	16.256
307.09	17.092
307.45	17.230
307.82	16.853
308.19	16.777
308.55	16.505
308.92	15.789
309.29	14.995
309.65	16.755
310.02	16.279
310.38	15.591
310.75	17.212
311.12	16.786
311.48	16.196
311.85	16.247
312.22	16.649
312.58	15.385
312.95	17.107
313.31	15.825
313.68	15.177
314.05	17.653
314.41	15.578
314.78	15.710
315.14	15.392
315.51	16.890
315.87	16.733
316.24	15.591
316.61	14.620
316.97	16.047
317.34	15.068
317.70	16.922
318.07	16.939
318.43	16.536
318.80	16.682
319.16	15.631
319.53	15.666
319.89	17.048
320.26	17.100
320.62	16.964
320.99	17.071
321.35	17.172
321.72	16.838
322.08	16.979
322.45	18.308
322.81	17.054
323.18	17.437
323.54	17.254
323.91	17.358
324.27	17.208
324.64	16.496
325.00	16.772
325.37	17.561
325.73	17.864
326.10	18.094
326.46	17.204
326.83	18.896
327.19	18.019
327.56	17.247
327.92	16.710
328.29	18.456
328.65	17.772
329.01	17.238
329.38	17.576
329.74	18.098
330.11	17.625
330.47	17.080
330.84	17.923
331.20	17.760
331.56	17.615
331.93	18.426
332.29	17.657
332.66	18.850
333.02	17.642
333.38	17.977
333.75	17.825
334.11	17.883
334.48	17.036
334.84	17.371
335.20	17.364
335.57	17.588
335.93	16.696
336.29	17.216
336.66	16.862
337.02	16.199
337.38	18.426
337.75	17.291
338.11	16.920
338.47	16.759
338.84	17.874
339.20	15.688
339.56	17.974
339.93	16.727
340.29	17.029
340.65	16.934
341.02	17.103
341.38	16.192
341.74	16.316
342.11	17.555
342.47	16.476
342.83	17.123
343.20	17.403
343.56	17.439
343.92	17.105
344.28	17.432
344.65	16.681
345.01	16.077
345.37	15.352
345.73	15.313
346.10	16.283
346.46	16.780
346.82	15.733
347.19	16.124
347.55	15.681
347.91	16.505
348.27	16.023
348.63	16.137
349.00	16.424
349.36	15.517
349.72	15.958
350.08	14.506
350.45	17.006
350.81	15.516
351.17	16.045
351.53	15.233
351.89	15.677
352.26	16.022
352.62	16.520
352.98	14.749
353.34	15.776
353.70	14.403
354.07	14.839
354.43	15.397
354.79	15.447
355.15	15.243
355.51	16.147
355.87	15.918
356.24	15.798
356.60	15.638
356.96	15.286
357.32	15.944
357.68	15.984
358.04	15.439
358.40	16.152
358.77	14.867
359.13	15.154
359.49	15.451
359.85	14.603
360.21	14.912
360.57	15.953
360.93	15.846
361.29	15.646
361.66	15.789
362.02	15.597
362.38	14.905
362.74	15.551
363.10	15.026
363.46	13.866
363.82	14.815
364.18	15.198
364.54	14.785
364.90	15.297
365.26	14.853
365.62	15.924
365.98	15.047
366.35	14.112
366.71	15.835
367.07	15.659
367.43	15.022
367.79	15.489
368.15	15.733
368.51	14.244
368.87	15.275
369.23	14.704
369.59	15.641
369.95	14.706
370.31	15.527
370.67	15.072
371.03	15.131
371.39	15.962
371.75	15.294
372.11	14.011
372.47	15.836
372.83	15.562
373.19	15.029
373.55	14.339
373.91	16.348
374.27	14.777
374.63	14.764
374.99	15.113
375.35	14.445
375.71	15.079
376.07	14.952
376.42	14.856
376.78	15.507
377.14	14.654
377.50	15.166
377.86	15.027
378.22	15.803
378.58	14.160
378.94	13.953
379.30	13.677
379.66	14.467
380.02	15.233
380.38	13.843
380.74	15.546
381.09	15.159
381.45	14.874
381.81	15.295
382.17	14.522
382.53	14.528
382.89	14.877
383.25	14.321
383.61	14.746
383.97	15.260
384.32	14.660
384.68	13.879
385.04	15.181
385.40	14.241
385.76	14.988
386.12	15.285
386.48	15.293
386.83	14.240
387.19	15.213
387.55	14.471
387.91	14.933
388.27	13.857
388.62	15.058
388.98	14.803
389.34	14.706
389.70	14.899
390.06	15.146
390.42	15.435
390.77	15.076
391.13	15.826
391.49	15.292
391.85	14.322
392.20	14.637
392.56	14.836
392.92	14.361
393.28	13.846
393.64	13.969
393.99	15.089
394.35	14.578
394.71	14.492
395.07	14.143
395.42	14.833
395.78	15.267
396.14	14.898
396.50	15.163
396.85	15.194
397.21	14.057
397.57	14.073
397.92	14.123
398.28	14.294
398.64	15.352
399.00	14.214
399.35	14.213
399.71	14.468
400.07	15.021
400.42	15.399
400.78	15.018
401.14	14.573
401.49	14.806
401.85	14.459
402.21	15.150
402.57	14.436
402.92	14.943
403.28	14.803
403.63	14.233
403.99	14.459
404.35	15.515
404.70	13.669
405.06	13.920
405.42	14.535
405.77	14.171
406.13	13.939
406.49	14.784
406.84	15.062
407.20	14.125
407.55	14.231
407.91	15.267
408.27	14.295
408.62	14.931
408.98	15.012
409.34	14.145
409.69	14.323
410.05	14.684
410.40	14.557
410.76	14.038
411.11	14.596
411.47	14.121
411.83	14.478
412.18	14.719
412.54	14.134
412.89	14.699
413.25	14.463
413.60	14.762
413.96	15.118
414.31	14.642
414.67	14.892
415.03	14.636
415.38	14.948
415.74	14.277
416.09	14.435
416.45	14.926
416.80	15.135
417.16	15.818
417.51	15.594
417.87	14.579
418.22	14.953
418.58	15.494
418.93	14.312
419.29	15.150
419.64	15.806
420.00	15.183
420.35	15.362
420.71	15.362
421.06	13.007
421.42	15.322
421.77	14.910
422.12	14.823
422.48	13.869
422.83	14.735
423.19	14.475
423.54	14.452
423.90	15.826
424.25	14.685
424.61	13.750
424.96	15.277
425.31	15.061
425.67	14.831
426.02	13.886
426.38	15.201
426.73	14.980
427.09	14.711
427.44	14.491
427.79	14.606
428.15	15.714
428.50	15.448
428.85	14.899
429.21	14.467
429.56	13.945
429.92	14.595
430.27	14.399
430.62	13.620
430.98	14.738
431.33	14.485
431.68	15.079
432.04	13.951
432.39	15.477
432.74	15.619
433.10	14.714
433.45	16.327
433.80	15.133
434.16	15.011
434.51	14.579
434.86	14.823
435.22	14.897
435.57	14.650
435.92	14.921
436.28	15.125
436.63	16.060
436.98	15.283
437.34	15.444
437.69	15.461
438.04	14.952
438.39	15.284
438.75	15.282
439.10	15.140
439.45	15.821
439.81	15.408
440.16	15.020
440.51	15.056
440.86	16.387
441.22	15.462
441.57	14.544
441.92	14.841
442.27	14.801
442.63	14.850
442.98	15.662
443.33	15.380
443.68	14.817
444.03	15.276
444.39	14.800
444.74	14.935
445.09	15.795
445.44	15.254
445.79	15.438
446.15	15.881
446.50	14.917
446.85	14.697
447.20	15.247
447.55	15.299
447.91	14.617
448.26	15.303
448.61	16.563
448.96	16.002
449.31	14.792
449.66	15.869
450.02	16.267
450.37	15.646
450.72	14.552
451.07	15.356
451.42	15.441
451.77	16.089
452.12	16.513
452.47	15.609
452.83	15.909
453.18	16.320
453.53	15.894
453.88	15.239
454.23	16.139
454.58	15.930
454.93	16.529
455.28	15.835
455.63	16.201
455.98	16.369
456.34	15.829
456.69	16.218
457.04	15.789
457.39	15.371
457.74	15.032
458.09	16.331
458.44	16.363
458.79	14.479
459.14	16.366
459.49	16.170
459.84	16.011
460.19	15.144
460.54	15.741
460.89	16.072
461.24	16.879
461.59	16.386
461.94	15.721
462.29	16.736
462.64	16.209
462.99	15.290
463.34	16.533
463.69	15.947
464.04	16.348
464.39	16.174
464.74	16.578
465.09	15.501
465.44	16.288
465.79	15.604
466.14	15.764
466.49	15.350
466.84	16.346
467.19	15.872
467.54	17.187
467.89	15.546
468.24	16.056
468.59	16.545
468.94	16.127
469.29	15.938
469.64	16.533
469.99	17.118
470.34	16.711
470.68	16.882
471.03	16.599
471.38	16.956
471.73	16.389
472.08	17.632
472.43	15.955
472.78	15.932
473.13	16.560
473.48	16.479
473.83	16.098
474.17	15.557
474.52	16.873
474.87	17.163
475.22	15.206
475.57	15.314
475.92	15.454
476.27	14.713
476.61	16.327
476.96	15.778
477.31	15.123
477.66	16.685
478.01	15.944
478.36	15.812
478.70	15.888
479.05	16.294
479.40	15.763
479.75	15.963
480.10	14.662
480.45	15.231
480.79	15.432
481.14	14.873
481.49	15.520
481.84	15.455
482.19	15.448
482.53	15.596
482.88	16.101
483.23	15.654
483.58	15.469
483.92	15.745
484.27	15.033
484.62	15.302
484.97	14.939
485.31	15.137
485.66	14.282
486.01	13.449
486.36	12.971
486.70	12.884
487.05	13.306
487.40	13.866
487.75	13.363
488.09	14.286
488.44	14.343
488.79	14.467
489.13	14.935
489.48	15.131
489.83	15.106
490.17	15.914
490.52	15.412
490.87	15.513
491.22	15.416
491.56	14.442
491.91	15.449
492.26	15.572
492.60	15.253
492.95	14.640
493.30	15.280
493.64	14.886
493.99	15.274
494.34	16.420
494.68	15.339
495.03	15.226
495.37	15.821
495.72	14.766
496.07	15.824
496.41	15.088
496.76	15.172
497.11	15.714
497.45	15.417
497.80	15.355
498.14	14.783
498.49	15.268
498.84	15.580
499.18	15.429
499.53	15.480
499.87	15.284
500.22	16.015
500.56	15.971
500.91	15.048
501.26	15.979
501.60	16.089
501.95	14.986
502.29	15.604
502.64	15.549
502.98	15.521
503.33	15.539
503.67	15.545
504.02	15.435
504.36	16.331
504.71	15.877
505.06	15.855
505.40	16.286
505.75	15.429
506.09	15.743
506.44	16.231
506.78	16.220
507.13	15.952
507.47	15.808
507.82	16.464
508.16	15.907
508.51	16.388
508.85	14.499
509.19	15.867
509.54	16.122
509.88	16.332
510.23	16.144
510.57	16.770
510.92	16.054
511.26	16.598
511.61	15.923
511.95	15.919
512.30	16.384
512.64	16.067
512.98	16.506
513.33	16.595
513.67	16.329
514.02	15.909
514.36	16.767
514.70	17.045
515.05	15.728
515.39	16.657
515.74	16.948
516.08	17.216
516.42	17.314
516.77	17.781
517.11	16.260
517.46	16.704
517.80	17.189
518.14	16.097
518.49	16.978
518.83	16.761
519.17	17.610
519.52	16.978
519.86	17.570
520.20	18.035
520.55	17.654
520.89	17.883
521.23	17.551
521.58	17.107
521.92	17.453
522.26	17.572
522.61	17.882
522.95	17.373
523.29	17.651
523.64	17.134
523.98	18.176
524.32	16.888
524.66	17.859
525.01	17.647
525.35	17.410
525.69	16.626
526.04	17.819
526.38	17.328
526.72	17.546
527.06	17.389
527.41	16.213
527.75	17.814
528.09	17.534
528.43	18.164
528.78	17.886
529.12	17.697
529.46	17.636
529.80	17.389
530.15	18.442
530.49	16.923
530.83	17.848
531.17	18.407
531.51	19.455
531.86	17.677
532.20	17.731
532.54	18.001
532.88	18.293
533.22	16.864
533.57	17.778
533.91	17.941
534.25	17.315
534.59	17.938
534.93	17.787
535.27	17.320
535.62	18.742
535.96	18.079
536.30	17.737
536.64	17.965
536.98	18.315
537.32	16.985
537.66	18.200
538.01	18.433
538.35	17.518
538.69	18.634
539.03	17.999
539.37	17.827
539.71	16.980
540.05	17.582
540.39	18.272
540.73	17.853
541.07	18.105
541.42	18.265
541.76	19.097
542.10	18.499
542.44	17.616
542.78	19.038
543.12	17.402
543.46	18.492
543.80	18.347
544.14	17.330
544.48	17.841
544.82	17.704
545.16	17.697
545.50	17.481
545.84	18.414
546.18	18.923
546.52	18.238
546.86	17.938
547.20	18.678
547.54	18.570
547.88	18.941
548.22	17.933
548.56	18.176
548.90	18.054
549.24	18.047
549.58	18.281
549.92	17.926
550.26	19.034
550.60	18.741
550.94	19.155
551.28	17.922
551.62	18.476
551.96	18.596
552.30	18.840
552.64	18.661
552.98	19.322
553.32	18.139
553.66	19.155
554.00	18.463
554.34	18.910
554.68	19.385
555.02	18.618
555.36	18.302
555.69	17.321
556.03	18.506
556.37	18.690
556.71	17.735
557.05	19.328
557.39	19.524
557.73	19.054
558.07	18.927
558.41	19.247
558.75	18.883
559.08	18.717
559.42	19.123
559.76	18.971
560.10	18.130
560.44	18.798
560.78	18.031
561.12	18.272
561.45	18.253
561.79	17.930
562.13	17.103
562.47	18.716
562.81	18.271
563.15	18.194
563.48	19.297
563.82	18.461
564.16	18.051
564.50	17.383
564.84	17.889
565.17	18.018
565.51	18.083
565.85	18.401
566.19	18.660
566.52	18.873
566.86	17.661
567.20	18.396
567.54	18.379
567.88	17.708
568.21	17.619
568.55	17.088
568.89	16.440
569.23	16.845
569.56	16.802
569.90	16.566
570.24	16.290
570.57	15.335
570.91	15.966
571.25	15.689
571.59	15.582
571.92	15.639
572.26	15.222
572.60	15.616
572.93	15.682
573.27	15.676
573.61	15.382
573.95	15.401
574.28	15.251
574.62	15.306
574.96	14.600
575.29	14.985
575.63	15.041
575.97	15.309
576.30	15.109
576.64	14.885
576.98	14.609
577.31	14.626
577.65	14.788
577.98	14.596
578.32	14.496
578.66	14.738
578.99	14.631
579.33	15.057
579.67	14.790
580.00	15.008
580.34	14.974
580.67	14.725
581.01	14.954
581.35	14.481
581.68	14.822
582.02	14.168
582.35	14.557
582.69	14.630
583.02	14.543
583.36	14.895
583.70	15.335
584.03	15.387
584.37	15.468
584.70	15.152
585.04	15.656
585.37	15.051
585.71	15.202
586.04	14.786
586.38	15.648
586.72	15.438
587.05	15.159
587.39	14.881
587.72	15.202
588.06	15.101
588.39	15.281
588.73	15.576
589.06	15.768
589.40	16.094
589.73	16.015
590.07	16.370
590.40	15.784
590.73	16.315
591.07	16.321
591.40	17.124
591.74	16.494
592.07	16.885
592.41	17.156
592.74	15.805
593.08	15.556
593.41	15.723
593.75	15.490
594.08	15.253
594.41	15.412
594.75	16.229
595.08	15.784
595.42	16.357
595.75	16.204
596.09	16.448
596.42	17.053
596.75	16.885
597.09	17.403
597.42	16.610
597.75	16.429
598.09	16.913
598.42	16.151
598.76	16.092
599.09	15.621
599.42	15.648
599.76	16.252
600.09	15.410
600.42	15.522
600.76	16.286
601.09	16.066
601.42	16.134
601.76	16.167
602.09	15.692
602.42	15.844
602.76	16.485
603.09	15.696
603.42	16.048
603.76	16.502
604.09	16.324
604.42	15.899
604.76	16.407
605.09	15.727
605.42	15.690
605.75	16.391
606.09	15.657
606.42	15.856
606.75	16.798
607.09	16.576
607.42	15.618
607.75	15.485
608.08	15.284
608.42	16.181
608.75	16.276
609.08	15.957
609.41	17.135
609.75	16.436
610.08	16.447
610.41	16.061
610.74	16.414
611.07	16.206
611.41	17.223
611.74	17.446
612.07	17.184
612.40	16.684
612.73	16.105
613.07	17.457
613.40	16.640
613.73	16.675
614.06	16.828
614.39	16.885
614.72	17.526
615.06	16.439
615.39	16.667
615.72	16.462
616.05	17.012
616.38	17.843
616.71	17.280
617.05	17.786
617.38	16.356
617.71	17.357
618.04	17.909
618.37	17.031
618.70	16.926
619.03	18.882
619.36	17.787
619.69	18.662
620.03	18.819
620.36	18.650
620.69	18.699
621.02	17.920
621.35	18.089
621.68	17.991
622.01	17.337
622.34	18.003
622.67	17.871
623.00	17.241
623.33	17.727
623.66	19.299
623.99	18.999
624.32	18.117
624.65	17.655
624.99	17.422
625.32	17.741
625.65	18.107
625.98	18.217
626.31	19.596
626.64	19.347
626.97	19.451
627.30	18.537
627.63	19.770
627.96	19.680
628.29	17.848
628.62	20.037
628.95	20.943
629.28	19.799
629.61	19.340
629.94	20.381
630.26	19.066
630.59	20.686
630.92	18.582
